timestamps,TP9,AF7,AF8,TP10,Right AUX
1734586868.4971673,-192.3828125,-143.06640625,-109.86328125,-70.80078125,0.0
1734586868.5010734,-168.45703125,-159.1796875,-117.1875,-40.0390625,0.0
1734586868.5049796,-194.82421875,-178.22265625,-101.5625,-41.9921875,0.0
1734586868.5088859,-192.87109375,-198.73046875,-127.44140625,-41.015625,0.0
1734586868.5127919,-157.71484375,-197.75390625,-203.125,-32.2265625,0.0
1734586868.5166981,-140.13671875,-158.69140625,-169.43359375,-34.66796875,0.0
1734586868.5206044,-188.4765625,-145.99609375,-64.94140625,-95.703125,0.0
1734586868.5245104,-164.55078125,-168.45703125,-43.45703125,-82.51953125,0.0
1734586868.5284166,-129.39453125,-161.62109375,-80.078125,-22.94921875,0.0
1734586868.532323,-120.1171875,-170.41015625,-142.08984375,-52.734375,0.0
1734586868.536229,-66.89453125,-268.5546875,-106.93359375,-48.33984375,0.0
1734586868.5511389,-17.08984375,-227.05078125,-115.72265625,-24.4140625,0.0
1734586868.5550451,-0.48828125,-91.30859375,-181.15234375,-36.62109375,0.0
1734586868.5589514,-69.3359375,-126.46484375,-112.3046875,-89.84375,0.0
1734586868.5628574,-46.38671875,-162.109375,-59.08203125,-120.60546875,0.0
1734586868.5667636,-3.41796875,-149.90234375,-54.19921875,-113.28125,0.0
1734586868.57067,4.8828125,-182.6171875,-63.4765625,-78.61328125,0.0
1734586868.574576,29.78515625,-199.21875,-111.81640625,-48.828125,0.0
1734586868.5784822,4.8828125,-194.3359375,-115.72265625,-52.734375,0.0
1734586868.5823884,0.0,-168.9453125,-98.14453125,-75.1953125,0.0
1734586868.5862947,82.51953125,-157.71484375,-118.65234375,-42.96875,0.0
1734586868.5902007,73.73046875,-169.921875,-156.25,-20.99609375,0.0
1734586868.594107,2.9296875,-186.5234375,-103.02734375,-52.734375,0.0
1734586868.5894818,3.90625,-213.37890625,-73.73046875,-70.80078125,0.0
1734586868.5933878,38.57421875,-196.77734375,-128.90625,-33.69140625,0.0
1734586868.597294,20.5078125,-167.48046875,-91.30859375,-44.43359375,0.0
1734586868.6012003,20.99609375,-150.390625,-74.70703125,-68.84765625,0.0
1734586868.6051064,61.03515625,-133.30078125,-99.12109375,-66.40625,0.0
1734586868.6090126,50.78125,-133.30078125,-102.5390625,-61.5234375,0.0
1734586868.6129189,39.55078125,-153.80859375,-87.40234375,-49.8046875,0.0
1734586868.6168249,55.6640625,-163.57421875,-47.36328125,-68.359375,0.0
1734586868.620731,107.421875,-163.0859375,-74.70703125,-62.01171875,0.0
1734586868.6246374,178.7109375,-166.015625,-165.52734375,-10.25390625,0.0
1734586868.6285434,113.28125,-209.9609375,-164.0625,-8.30078125,0.0
1734586868.6324496,11.71875,-232.91015625,-58.59375,-76.171875,0.0
1734586868.6636856,-8.30078125,-181.15234375,-16.11328125,-97.65625,0.0
1734586868.6675918,-10.7421875,-166.9921875,-31.73828125,-70.80078125,0.0
1734586868.671498,-38.0859375,-177.24609375,-40.52734375,-64.453125,0.0
1734586868.675404,-102.05078125,-170.8984375,-52.734375,-62.01171875,0.0
1734586868.6793103,-121.58203125,-154.296875,-91.30859375,-49.8046875,0.0
1734586868.6832166,-162.109375,-139.16015625,-99.609375,-54.19921875,0.0
1734586868.6871226,-201.66015625,-113.28125,-115.72265625,-62.98828125,0.0
1734586868.6910288,-191.40625,-130.37109375,-97.16796875,-45.41015625,0.0
1734586868.694935,-217.7734375,-154.78515625,-66.40625,-40.52734375,0.0
1734586868.6988413,-257.8125,-157.71484375,-70.80078125,-72.75390625,0.0
1734586868.7027473,-200.68359375,-149.4140625,-90.33203125,-52.734375,0.0
1734586868.7066536,-172.8515625,-154.78515625,-120.1171875,-64.94140625,0.0
1734586868.6878757,-185.05859375,-180.17578125,-106.93359375,-83.984375,0.0
1734586868.691782,-205.56640625,-174.8046875,-57.6171875,-85.44921875,0.0
1734586868.6956882,-199.21875,-150.390625,-39.0625,-80.078125,0.0
1734586868.6995943,-199.70703125,-156.73828125,-47.8515625,-83.984375,0.0
1734586868.7035005,-168.45703125,-171.875,-53.7109375,-85.44921875,0.0
1734586868.7074068,-124.0234375,-163.57421875,-127.9296875,-77.63671875,0.0
1734586868.7113128,-135.7421875,-173.828125,-130.37109375,-52.24609375,0.0
1734586868.715219,-145.99609375,-183.10546875,-41.015625,-41.9921875,0.0
1734586868.7191253,-184.08203125,-195.3125,-21.97265625,-79.1015625,0.0
1734586868.7230313,-175.78125,-216.30859375,-42.96875,-39.0625,0.0
1734586868.7269375,-169.921875,-165.52734375,-43.45703125,-52.734375,0.0
1734586868.7308438,-217.28515625,-107.91015625,-87.890625,-95.703125,0.0
1734586868.7467806,-238.76953125,-112.79296875,-148.92578125,-68.359375,0.0
1734586868.750687,-283.203125,-125.9765625,-133.30078125,-68.359375,0.0
1734586868.754593,-287.109375,-133.30078125,-101.07421875,-74.21875,0.0
1734586868.7584991,-271.484375,-146.484375,-88.8671875,-43.45703125,0.0
1734586868.7624054,-321.2890625,-169.43359375,-42.48046875,-75.68359375,0.0
1734586868.7663114,-386.23046875,-170.41015625,-49.31640625,-127.9296875,0.0
1734586868.7702177,-419.43359375,-184.5703125,-52.734375,-104.4921875,0.0
1734586868.774124,-388.18359375,-214.84375,-55.17578125,-81.54296875,0.0
1734586868.77803,-367.67578125,-177.734375,-102.5390625,-67.3828125,0.0
1734586868.7819362,-396.97265625,-134.27734375,-127.44140625,-76.66015625,0.0
1734586868.7858424,-370.1171875,-134.765625,-128.41796875,-90.33203125,0.0
1734586868.7897487,-326.171875,-143.5546875,-166.015625,-66.40625,0.0
1734586868.7825012,-309.08203125,-160.15625,-160.15625,-25.87890625,0.0
1734586868.7864075,-291.9921875,-198.2421875,-91.796875,-25.87890625,0.0
1734586868.7903137,-320.80078125,-212.890625,-88.8671875,-94.7265625,0.0
1734586868.7942197,-336.42578125,-187.98828125,-123.046875,-108.3984375,0.0
1734586868.798126,-267.578125,-165.0390625,-120.1171875,-95.21484375,0.0
1734586868.8020322,-221.6796875,-169.921875,-103.02734375,-82.51953125,0.0
1734586868.8059382,-196.77734375,-179.19921875,-102.5390625,-63.96484375,0.0
1734586868.8098445,-172.8515625,-178.22265625,-119.62890625,-69.3359375,0.0
1734586868.8137507,-159.66796875,-202.1484375,-116.69921875,-62.5,0.0
1734586868.8176568,-86.9140625,-216.30859375,-100.09765625,-69.3359375,0.0
1734586868.821563,-63.4765625,-196.77734375,-114.2578125,-52.24609375,0.0
1734586868.8254693,-34.1796875,-213.8671875,-123.046875,-57.12890625,0.0
1734586868.8583388,33.69140625,-225.5859375,-112.79296875,-86.9140625,0.0
1734586868.862245,62.01171875,-200.68359375,-120.1171875,-91.30859375,0.0
1734586868.8661513,51.26953125,-197.75390625,-152.83203125,-71.77734375,0.0
1734586868.8700576,27.34375,-203.61328125,-151.3671875,-86.9140625,0.0
1734586868.8739636,83.0078125,-210.44921875,-104.00390625,-113.76953125,0.0
1734586868.8778698,105.95703125,-225.5859375,-68.359375,-63.4765625,0.0
1734586868.881776,114.74609375,-229.00390625,-57.6171875,-29.78515625,0.0
1734586868.8856823,111.81640625,-230.95703125,-86.9140625,-61.03515625,0.0
1734586868.8895884,114.74609375,-222.16796875,-99.609375,-68.359375,0.0
1734586868.8934946,120.60546875,-205.078125,-86.42578125,-75.1953125,0.0
1734586868.8974009,115.234375,-206.0546875,-102.5390625,-94.23828125,0.0
1734586868.9013069,159.1796875,-203.125,-102.05078125,-75.68359375,0.0
1734586868.8574512,179.6875,-204.58984375,-93.75,-85.44921875,0.0
1734586868.8613572,187.98828125,-203.125,-93.75,-102.5390625,0.0
1734586868.8652635,192.87109375,-206.54296875,-97.16796875,-89.35546875,0.0
1734586868.8691697,201.66015625,-199.21875,-126.953125,-93.26171875,0.0
1734586868.8730757,191.89453125,-193.84765625,-161.62109375,-58.10546875,0.0
1734586868.876982,156.25,-231.93359375,-148.4375,-32.71484375,0.0
1734586868.8808882,96.19140625,-209.47265625,-105.95703125,-46.875,0.0
1734586868.8847942,67.3828125,-149.90234375,-96.6796875,-53.7109375,0.0
1734586868.8887005,55.17578125,-153.3203125,-84.47265625,-85.9375,0.0
1734586868.8926065,32.71484375,-139.6484375,-79.1015625,-66.40625,0.0
1734586868.8965127,5.37109375,-139.16015625,-125.0,-57.6171875,0.0
1734586868.900419,-61.03515625,-156.73828125,-131.8359375,-79.58984375,0.0
1734586868.9326088,-111.81640625,-164.55078125,-69.82421875,-84.47265625,0.0
1734586868.936515,-110.83984375,-187.01171875,-53.7109375,-67.87109375,0.0
1734586868.9404213,-154.296875,-172.36328125,-89.35546875,-59.08203125,0.0
1734586868.9443274,-227.5390625,-166.9921875,-113.76953125,-67.3828125,0.0
1734586868.9482336,-270.5078125,-184.08203125,-83.984375,-65.4296875,0.0
1734586868.9521399,-326.66015625,-164.0625,-89.35546875,-82.03125,0.0
1734586868.9560459,-344.7265625,-167.48046875,-112.79296875,-63.4765625,0.0
1734586868.959952,-359.375,-187.98828125,-88.8671875,-60.546875,0.0
1734586868.9638584,-362.79296875,-170.41015625,-61.5234375,-89.84375,0.0
1734586868.9677646,-369.140625,-176.7578125,-74.21875,-92.28515625,0.0
1734586868.9716706,-403.3203125,-176.26953125,-89.35546875,-122.0703125,0.0
1734586868.9755769,-401.3671875,-164.55078125,-98.14453125,-141.6015625,0.0
1734586868.9838078,-445.80078125,-197.265625,-117.1875,-162.59765625,0.0
1734586868.987714,-466.796875,-170.8984375,-105.46875,-180.6640625,0.0
1734586868.9916203,-452.63671875,-168.45703125,-85.44921875,-212.890625,0.0
1734586868.9955263,-491.2109375,-178.22265625,-96.6796875,-262.6953125,0.0
1734586868.9994326,-467.28515625,-171.38671875,-113.28125,-267.578125,0.0
1734586869.0033388,-389.6484375,-206.54296875,-116.69921875,-225.09765625,0.0
1734586869.007245,-369.140625,-225.5859375,-130.859375,-218.75,0.0
1734586869.011151,-322.75390625,-228.02734375,-128.41796875,-261.71875,0.0
1734586869.0150573,-211.42578125,-257.32421875,-85.9375,-237.79296875,0.0
1734586869.0189636,-140.625,-252.9296875,-98.6328125,-215.8203125,0.0
1734586869.0228696,-103.02734375,-199.21875,-133.30078125,-233.88671875,0.0
1734586869.0267758,-38.0859375,-172.36328125,-202.1484375,-223.6328125,0.0
1734586869.0241263,70.3125,-230.46875,-199.70703125,-189.453125,0.0
1734586869.0280325,97.16796875,-263.671875,-108.88671875,-183.10546875,0.0
1734586869.0319388,134.27734375,-185.546875,-104.00390625,-223.14453125,0.0
1734586869.0358448,230.46875,-159.1796875,-120.1171875,-228.515625,0.0
1734586869.039751,288.57421875,-174.8046875,-136.71875,-176.26953125,0.0
1734586869.0436573,378.41796875,-176.7578125,-158.69140625,-130.37109375,0.0
1734586869.0475633,463.8671875,-193.84765625,-144.53125,-93.75,0.0
1734586869.0514696,523.92578125,-246.58203125,-122.55859375,-70.80078125,0.0
1734586869.0553758,568.359375,-233.3984375,-139.16015625,-57.6171875,0.0
1734586869.0592818,588.37890625,-159.66796875,-190.91796875,-28.3203125,0.0
1734586869.063188,622.55859375,-140.13671875,-191.89453125,-28.80859375,0.0
1734586869.0670943,657.71484375,-180.6640625,-158.69140625,-13.671875,0.0
1734586869.0956585,735.3515625,-192.3828125,-157.71484375,18.06640625,0.0
1734586869.0995648,797.36328125,-146.97265625,-168.45703125,47.36328125,0.0
1734586869.103471,741.2109375,-131.8359375,-190.91796875,38.57421875,0.0
1734586869.1073773,722.16796875,-134.27734375,-222.16796875,1.46484375,0.0
1734586869.1112833,752.9296875,-138.18359375,-208.0078125,15.625,0.0
1734586869.1151896,748.046875,-147.94921875,-164.0625,32.71484375,0.0
1734586869.1190958,723.6328125,-175.29296875,-132.32421875,42.48046875,0.0
1734586869.123002,722.16796875,-207.03125,-127.9296875,42.96875,0.0
1734586869.126908,695.80078125,-177.24609375,-160.64453125,24.4140625,0.0
1734586869.1308143,660.15625,-170.41015625,-190.4296875,38.57421875,0.0
1734586869.1347206,653.3203125,-183.10546875,-184.5703125,45.8984375,0.0
1734586869.1386268,630.859375,-127.44140625,-180.6640625,36.1328125,0.0
1734586869.09908,582.03125,-83.984375,-237.79296875,40.52734375,0.0
1734586869.1029863,551.26953125,-117.67578125,-228.515625,41.50390625,0.0
1734586869.1068923,516.11328125,-145.5078125,-146.484375,15.13671875,0.0
1734586869.1107986,484.86328125,-137.20703125,-127.9296875,12.6953125,0.0
1734586869.1147046,472.65625,-136.71875,-141.11328125,28.3203125,0.0
1734586869.1186109,455.078125,-163.57421875,-139.16015625,37.109375,0.0
1734586869.122517,362.3046875,-165.0390625,-125.0,47.8515625,0.0
1734586869.1264231,257.32421875,-135.7421875,-156.73828125,28.3203125,0.0
1734586869.1303294,208.984375,-173.828125,-161.1328125,34.66796875,0.0
1734586869.1342356,129.39453125,-158.69140625,-130.37109375,42.96875,0.0
1734586869.1381416,29.296875,-114.2578125,-140.13671875,7.32421875,0.0
1734586869.142048,-39.55078125,-114.2578125,-160.15625,-12.20703125,0.0
1734586869.179877,-90.8203125,-122.0703125,-171.875,12.20703125,0.0
1734586869.1837833,-145.99609375,-142.578125,-154.78515625,20.5078125,0.0
1734586869.1876893,-171.38671875,-152.83203125,-141.6015625,-1.953125,0.0
1734586869.1915956,-217.7734375,-141.11328125,-159.1796875,-4.39453125,0.0
1734586869.1955018,-281.25,-143.06640625,-178.7109375,6.8359375,0.0
1734586869.199408,-311.5234375,-206.0546875,-185.546875,28.80859375,0.0
1734586869.203314,-355.95703125,-197.265625,-156.25,51.7578125,0.0
1734586869.2072203,-381.34765625,-104.4921875,-168.9453125,43.45703125,0.0
1734586869.2111266,-402.34375,-146.484375,-168.9453125,27.34375,0.0
1734586869.2150326,-410.15625,-252.44140625,-101.5625,13.671875,0.0
1734586869.2189388,-411.1328125,-187.01171875,-113.28125,2.44140625,0.0
1734586869.222845,-404.296875,-90.33203125,-139.6484375,-12.20703125,0.0
1734586869.1925967,-341.30859375,-117.67578125,-129.39453125,24.90234375,0.0
1734586869.1965027,-271.484375,-173.828125,-120.1171875,26.3671875,0.0
1734586869.200409,-169.921875,-145.99609375,-146.484375,17.578125,0.0
1734586869.2043152,-99.12109375,-103.02734375,-181.15234375,46.38671875,0.0
1734586869.2082212,-83.984375,-118.65234375,-149.90234375,10.25390625,0.0
1734586869.2121274,-23.92578125,-132.8125,-130.859375,-19.04296875,0.0
1734586869.2160337,65.91796875,-128.41796875,-138.671875,-33.69140625,0.0
1734586869.2199397,137.6953125,-161.62109375,-150.87890625,12.6953125,0.0
1734586869.223846,210.44921875,-244.62890625,-147.94921875,61.03515625,0.0
1734586869.2277522,268.5546875,-270.99609375,-110.83984375,49.8046875,0.0
1734586869.2316582,291.015625,-179.6875,-100.5859375,46.38671875,0.0
1734586869.2355645,310.546875,-80.078125,-127.9296875,26.85546875,0.0
1734586869.2606812,326.171875,-66.89453125,-148.92578125,2.9296875,0.0
1734586869.2645872,327.1484375,-116.69921875,-127.9296875,3.41796875,0.0
1734586869.2684934,317.87109375,-137.20703125,-126.46484375,11.23046875,0.0
1734586869.2723997,319.82421875,-161.62109375,-138.671875,16.6015625,0.0
1734586869.2763057,328.61328125,-189.94140625,-136.23046875,58.10546875,0.0
1734586869.280212,321.77734375,-236.328125,-126.953125,96.19140625,0.0
1734586869.2841182,208.984375,-195.80078125,-136.71875,25.87890625,0.0
1734586869.2880242,92.28515625,-106.4453125,-160.15625,-38.57421875,0.0
1734586869.2919304,69.3359375,-106.4453125,-143.06640625,-20.5078125,0.0
1734586869.2958367,60.05859375,-97.16796875,-120.1171875,16.11328125,0.0
1734586869.299743,24.4140625,-84.9609375,-127.9296875,17.578125,0.0
1734586869.303649,10.7421875,-109.375,-130.37109375,-30.2734375,0.0
1734586869.2897158,17.08984375,-124.51171875,-112.3046875,-38.57421875,0.0
1734586869.293622,-3.90625,-146.97265625,-110.3515625,0.48828125,0.0
1734586869.2975283,5.859375,-166.9921875,-158.69140625,2.44140625,0.0
1734586869.3014343,31.73828125,-153.80859375,-202.63671875,29.78515625,0.0
1734586869.3053405,18.06640625,-142.08984375,-132.32421875,47.8515625,0.0
1734586869.3092468,-13.18359375,-109.86328125,-81.0546875,7.8125,0.0
1734586869.3131528,-68.359375,-90.8203125,-121.09375,-34.1796875,0.0
1734586869.317059,-92.28515625,-152.83203125,-109.86328125,-38.57421875,0.0
1734586869.3209653,-72.75390625,-175.78125,-106.93359375,-38.57421875,0.0
1734586869.3248713,-15.13671875,-171.875,-182.6171875,-12.20703125,0.0
1734586869.3287776,20.5078125,-187.98828125,-172.36328125,22.4609375,0.0
1734586869.3326838,-41.015625,-147.4609375,-77.1484375,-24.4140625,0.0
1734586869.3456361,-40.0390625,-147.4609375,-30.76171875,-69.3359375,0.0
1734586869.3495424,-2.9296875,-179.6875,-57.12890625,-66.89453125,0.0
1734586869.3534486,31.25,-144.53125,-89.35546875,-43.9453125,0.0
1734586869.3573546,9.27734375,-72.265625,-107.91015625,-54.19921875,0.0
1734586869.361261,29.78515625,-83.49609375,-118.1640625,-69.3359375,0.0
1734586869.3651671,101.07421875,-146.97265625,-119.62890625,-30.2734375,0.0
1734586869.3690732,76.66015625,-155.2734375,-125.9765625,-29.78515625,0.0
1734586869.3729794,79.1015625,-131.8359375,-128.90625,-17.08984375,0.0
1734586869.3768857,81.0546875,-116.2109375,-159.66796875,20.99609375,0.0
1734586869.3807917,69.3359375,-115.234375,-151.3671875,9.765625,0.0
1734586869.384698,61.5234375,-113.28125,-112.79296875,-36.62109375,0.0
1734586869.3886042,56.640625,-106.4453125,-92.7734375,-61.03515625,0.0
1734586869.4090016,112.79296875,-123.046875,-83.49609375,-39.0625,0.0
1734586869.4129078,138.18359375,-153.3203125,-98.6328125,-40.0390625,0.0
1734586869.416814,199.21875,-133.30078125,-118.65234375,-25.390625,0.0
1734586869.4207203,271.97265625,-99.609375,-126.46484375,-20.01953125,0.0
1734586869.4246264,302.734375,-120.1171875,-146.484375,-26.3671875,0.0
1734586869.4285326,362.79296875,-157.2265625,-149.90234375,-11.23046875,0.0
1734586869.4324389,372.0703125,-166.015625,-92.7734375,-54.19921875,0.0
1734586869.4363449,368.65234375,-137.20703125,-67.3828125,-71.77734375,0.0
1734586869.440251,407.71484375,-98.14453125,-106.4453125,-67.3828125,0.0
1734586869.4441574,451.66015625,-88.8671875,-114.74609375,-40.52734375,0.0
1734586869.4480634,439.453125,-111.81640625,-85.9375,-32.71484375,0.0
1734586869.4519696,412.59765625,-124.51171875,-87.890625,-61.5234375,0.0
1734586869.4419463,410.15625,-123.046875,-100.5859375,-66.40625,0.0
1734586869.4458525,427.24609375,-117.1875,-130.37109375,-67.3828125,0.0
1734586869.4497585,437.01171875,-125.48828125,-134.27734375,-60.05859375,0.0
1734586869.4536648,405.76171875,-136.23046875,-97.65625,-46.875,0.0
1734586869.457571,379.39453125,-131.34765625,-121.58203125,-37.109375,0.0
1734586869.4614773,375.0,-120.1171875,-157.71484375,-25.87890625,0.0
1734586869.4653833,357.91015625,-116.2109375,-112.79296875,-26.85546875,0.0
1734586869.4692895,314.94140625,-127.44140625,-71.77734375,-20.01953125,0.0
1734586869.4731958,272.94921875,-139.6484375,-86.42578125,-23.92578125,0.0
1734586869.4771018,248.53515625,-162.59765625,-118.1640625,-31.25,0.0
1734586869.481008,237.79296875,-135.7421875,-127.9296875,-32.2265625,0.0
1734586869.4849143,203.125,-93.26171875,-124.51171875,-31.25,0.0
1734586869.494403,151.85546875,-86.9140625,-107.421875,-39.0625,0.0
1734586869.4983091,62.98828125,-91.30859375,-96.6796875,-52.24609375,0.0
1734586869.5022151,20.99609375,-99.609375,-107.421875,-61.5234375,0.0
1734586869.5061214,20.99609375,-113.76953125,-120.1171875,-71.2890625,0.0
1734586869.5100276,-20.01953125,-126.46484375,-119.62890625,-64.453125,0.0
1734586869.513934,-71.2890625,-169.43359375,-105.95703125,-21.484375,0.0
1734586869.51784,-107.91015625,-187.98828125,-114.2578125,11.71875,0.0
1734586869.5217462,-118.65234375,-142.578125,-142.08984375,-12.20703125,0.0
1734586869.5256524,-155.2734375,-121.09375,-140.625,-63.96484375,0.0
1734586869.5295584,-213.8671875,-102.5390625,-104.00390625,-89.84375,0.0
1734586869.5334647,-188.4765625,-90.8203125,-83.0078125,-76.171875,0.0
1734586869.537371,-168.9453125,-105.95703125,-104.4921875,-65.91796875,0.0
1734586869.534919,-184.08203125,-133.7890625,-105.46875,-67.3828125,0.0
1734586869.5388253,-141.6015625,-133.30078125,-86.42578125,-17.578125,0.0
1734586869.5427315,-167.48046875,-124.0234375,-79.58984375,-44.921875,0.0
1734586869.5466375,-209.9609375,-108.88671875,-97.65625,-95.703125,0.0
1734586869.5505438,-130.37109375,-108.88671875,-110.83984375,-68.84765625,0.0
1734586869.55445,-103.02734375,-116.2109375,-100.09765625,-77.63671875,0.0
1734586869.5583563,-121.09375,-114.74609375,-110.83984375,-58.10546875,0.0
1734586869.5622623,-116.69921875,-137.6953125,-119.62890625,-38.0859375,0.0
1734586869.5661685,-127.9296875,-139.6484375,-115.72265625,-25.87890625,0.0
1734586869.5700748,-195.80078125,-135.25390625,-100.5859375,-62.01171875,0.0
1734586869.5739808,-241.69921875,-131.34765625,-85.44921875,-137.6953125,0.0
1734586869.577887,-268.5546875,-111.328125,-80.078125,-137.20703125,0.0
1734586869.5806863,-337.890625,-132.32421875,-67.3828125,-105.46875,0.0
1734586869.5845926,-428.7109375,-150.87890625,-81.54296875,-103.02734375,0.0
1734586869.5884986,-533.203125,-153.3203125,-123.046875,-102.5390625,0.0
1734586869.5924048,-644.04296875,-133.7890625,-138.671875,-96.19140625,0.0
1734586869.596311,-793.9453125,-116.69921875,-131.8359375,-92.28515625,0.0
1734586869.600217,-929.6875,-109.86328125,-137.6953125,-115.72265625,0.0
1734586869.6041234,-990.72265625,-136.23046875,-157.71484375,-125.0,0.0
1734586869.6080296,-1000.0,-153.3203125,-191.40625,-107.421875,0.0
1734586869.6119356,-999.0234375,-144.04296875,-203.61328125,-89.35546875,0.0
1734586869.6158419,-1000.0,-173.33984375,-212.40234375,-60.546875,0.0
1734586869.619748,-1000.0,-157.2265625,-270.01953125,-67.87109375,0.0
1734586869.6236541,-1000.0,-142.578125,-312.98828125,-98.6328125,0.0
1734586869.6266234,-1000.0,-151.85546875,-355.46875,-94.7265625,0.0
1734586869.6305296,-1000.0,-168.45703125,-397.4609375,-59.5703125,0.0
1734586869.634436,-1000.0,-174.8046875,-415.0390625,-66.40625,0.0
1734586869.638342,-1000.0,-188.96484375,-421.875,-69.82421875,0.0
1734586869.6422482,-1000.0,-209.9609375,-421.38671875,-61.5234375,0.0
1734586869.6461544,-1000.0,-211.9140625,-439.453125,-73.73046875,0.0
1734586869.6500604,-1000.0,-208.0078125,-458.984375,-65.91796875,0.0
1734586869.6539667,-1000.0,-218.26171875,-455.56640625,-60.546875,0.0
1734586869.657873,-1000.0,-232.91015625,-422.36328125,-56.15234375,0.0
1734586869.661779,-996.09375,-250.48828125,-416.015625,-23.92578125,0.0
1734586869.6656852,-982.91015625,-290.0390625,-445.80078125,5.37109375,0.0
1734586869.6695914,-951.66015625,-316.40625,-454.1015625,-5.37109375,0.0
1734586869.697181,-913.57421875,-331.54296875,-449.70703125,-19.04296875,0.0
1734586869.7010872,-867.1875,-357.91015625,-460.9375,2.44140625,0.0
1734586869.7049935,-852.5390625,-401.85546875,-471.19140625,2.9296875,0.0
1734586869.7088995,-840.33203125,-433.10546875,-504.39453125,-15.625,0.0
1734586869.7128057,-792.96875,-447.265625,-545.8984375,2.44140625,0.0
1734586869.716712,-789.0625,-530.2734375,-531.73828125,2.44140625,0.0
1734586869.7206182,-747.55859375,-652.34375,-512.6953125,37.59765625,0.0
1734586869.7245243,-692.3828125,-719.7265625,-496.09375,64.94140625,0.0
1734586869.7284305,-661.62109375,-769.53125,-491.2109375,51.7578125,0.0
1734586869.7323368,-624.0234375,-834.47265625,-527.34375,47.36328125,0.0
1734586869.7362428,-561.03515625,-904.78515625,-541.50390625,39.0625,0.0
1734586869.740149,-518.5546875,-972.65625,-536.1328125,56.15234375,0.0
1734586869.6993885,0.0,-1000.0,-531.73828125,56.640625,0.0
1734586869.7032945,0.0,-999.51171875,-545.41015625,69.3359375,0.0
1734586869.7072008,0.0,-1000.0,-546.38671875,55.6640625,0.0
1734586869.711107,0.0,-1000.0,-550.29296875,13.671875,0.0
1734586869.715013,0.0,-1000.0,-590.33203125,41.015625,0.0
1734586869.7189193,0.0,-1000.0,-570.3125,70.80078125,0.0
1734586869.7228255,0.0,-1000.0,-526.3671875,58.10546875,0.0
1734586869.7267315,0.0,-998.046875,-448.2421875,56.15234375,0.0
1734586869.7306378,0.0,-1000.0,-382.32421875,70.3125,0.0
1734586869.7345438,0.0,-992.1875,-418.9453125,78.125,0.0
1734586869.73845,0.0,-945.80078125,-460.44921875,59.08203125,0.0
1734586869.7423563,0.0,-926.7578125,-406.25,39.0625,0.0
1734586869.8232956,-397.94921875,-934.08203125,-361.81640625,73.2421875,0.0
1734586869.8272018,-342.7734375,-905.76171875,-377.44140625,94.23828125,0.0
1734586869.8311079,-346.19140625,-870.60546875,-324.70703125,75.1953125,0.0
1734586869.835014,-294.43359375,-844.7265625,-262.20703125,68.359375,0.0
1734586869.8389204,-305.17578125,-812.98828125,-288.0859375,53.22265625,0.0
1734586869.8428266,-275.87890625,-765.625,-334.9609375,46.38671875,0.0
1734586869.8467329,-249.51171875,-735.3515625,-392.578125,75.68359375,0.0
1734586869.8506389,-333.49609375,-732.91015625,-344.23828125,58.59375,0.0
1734586869.854545,-368.1640625,-742.67578125,-278.80859375,49.8046875,0.0
1734586869.8584514,-384.27734375,-707.51953125,-313.96484375,109.86328125,0.0
1734586869.8623576,-427.734375,-625.48828125,-420.8984375,124.0234375,0.0
1734586869.8662639,-508.7890625,-576.66015625,-412.59765625,82.51953125,0.0
1734586869.7916417,-571.77734375,-565.91796875,-376.953125,83.0078125,0.0
1734586869.795548,-559.5703125,-561.03515625,-345.703125,85.44921875,0.0
1734586869.799454,-577.1484375,-551.7578125,-240.234375,48.828125,0.0
1734586869.8033602,-588.8671875,-509.765625,-229.98046875,31.73828125,0.0
1734586869.8072665,-481.4453125,-462.890625,-357.91015625,60.546875,0.0
1734586869.8111725,-350.5859375,-422.36328125,-463.8671875,92.7734375,0.0
1734586869.8150787,-322.75390625,-420.8984375,-430.6640625,93.75,0.0
1734586869.8189847,-243.65234375,-491.69921875,-363.28125,101.5625,0.0
1734586869.822891,-140.13671875,-506.34765625,-148.4375,62.98828125,0.0
1734586869.8267972,-100.5859375,-473.14453125,-50.29296875,-1.46484375,0.0
1734586869.8307033,5.859375,-386.23046875,-374.0234375,71.77734375,0.0
1734586869.8346095,79.1015625,-314.453125,-429.19921875,106.4453125,0.0
1734586869.8858652,114.2578125,-358.3984375,-110.3515625,13.18359375,0.0
1734586869.8897715,156.73828125,-372.55859375,-117.67578125,7.8125,0.0
1734586869.8936775,137.20703125,-312.98828125,-167.48046875,14.16015625,0.0
1734586869.8975837,144.04296875,-305.17578125,-219.7265625,-1.46484375,0.0
1734586869.90149,110.83984375,-353.02734375,-333.984375,17.578125,0.0
1734586869.9053962,32.71484375,-348.6328125,-264.6484375,9.27734375,0.0
1734586869.9093022,-11.71875,-300.29296875,-216.30859375,-33.203125,0.0
1734586869.9132085,-49.31640625,-248.046875,-236.81640625,-33.203125,0.0
1734586869.9171147,-59.5703125,-260.7421875,-240.72265625,37.109375,0.0
1734586869.921021,-99.609375,-259.27734375,-307.6171875,18.5546875,0.0
1734586869.924927,-147.4609375,-256.34765625,-270.99609375,-1.953125,0.0
1734586869.9288332,-112.3046875,-280.2734375,-187.01171875,18.06640625,0.0
1734586869.9230976,-52.24609375,-261.23046875,-148.92578125,-37.59765625,0.0
1734586869.9270039,18.06640625,-232.91015625,-74.70703125,-61.03515625,0.0
1734586869.93091,89.35546875,-222.65625,-47.8515625,-30.2734375,0.0
1734586869.9348164,206.0546875,-218.26171875,-57.6171875,-34.1796875,0.0
1734586869.9387224,337.890625,-213.8671875,-62.01171875,-28.80859375,0.0
1734586869.9426286,400.390625,-216.30859375,-77.63671875,-13.18359375,0.0
1734586869.9465349,442.3828125,-240.234375,-76.66015625,-11.71875,0.0
1734586869.950441,490.234375,-270.01953125,-58.59375,-19.04296875,0.0
1734586869.9543471,499.0234375,-234.375,-51.7578125,-13.18359375,0.0
1734586869.9582534,475.09765625,-214.84375,-10.25390625,-29.78515625,0.0
1734586869.9621596,457.51953125,-225.5859375,-5.37109375,-59.5703125,0.0
1734586869.9660656,434.5703125,-221.6796875,-16.6015625,-48.33984375,0.0
1734586869.950065,393.5546875,-203.61328125,7.8125,-60.546875,0.0
1734586869.953971,313.4765625,-161.62109375,-8.7890625,-96.19140625,0.0
1734586869.9578772,208.984375,-142.08984375,-22.4609375,-116.2109375,0.0
1734586869.9617834,144.53125,-124.0234375,-71.2890625,-116.69921875,0.0
1734586869.9656894,89.35546875,-140.625,-132.32421875,-79.1015625,0.0
1734586869.9695957,9.765625,-231.4453125,-33.69140625,-64.94140625,0.0
1734586869.973502,-102.5390625,-229.00390625,101.07421875,-138.18359375,0.0
1734586869.977408,-199.21875,-167.48046875,149.4140625,-226.5625,0.0
1734586869.9813142,-275.87890625,-153.80859375,122.0703125,-238.28125,0.0
1734586869.9852204,-297.8515625,-178.7109375,92.28515625,-225.09765625,0.0
1734586869.9891264,-275.87890625,-205.078125,63.4765625,-214.35546875,0.0
1734586869.9930327,-306.640625,-173.828125,-1.46484375,-235.83984375,0.0
1734586870.0556235,-295.41015625,-172.36328125,-25.87890625,-215.33203125,0.0
1734586870.0595298,-231.93359375,-213.8671875,-12.20703125,-127.9296875,0.0
1734586870.0634358,-287.109375,-142.578125,1.46484375,-145.01953125,0.0
1734586870.067342,-384.27734375,-59.08203125,-22.4609375,-229.98046875,0.0
1734586870.0712483,-399.4140625,-109.375,-53.22265625,-190.4296875,0.0
1734586870.0751545,-416.015625,-163.57421875,-70.3125,-131.8359375,0.0
1734586870.0790608,-466.796875,-140.13671875,-123.046875,-138.18359375,0.0
1734586870.0829668,-508.7890625,-116.2109375,-131.34765625,-131.34765625,0.0
1734586870.086873,-545.41015625,-113.28125,-116.69921875,-126.953125,0.0
1734586870.0907793,-575.1953125,-156.73828125,-102.5390625,-98.6328125,0.0
1734586870.0946856,-628.90625,-158.69140625,-82.03125,-80.56640625,0.0
1734586870.0985918,-676.26953125,-103.02734375,-110.83984375,-59.5703125,0.0
1734586870.0109217,-711.42578125,-100.09765625,-138.18359375,-19.04296875,0.0
1734586870.014828,-694.3359375,-204.58984375,-98.14453125,52.734375,0.0
1734586870.0187342,-725.5859375,-209.47265625,-101.5625,7.8125,0.0
1734586870.0226402,-809.5703125,-36.62109375,-152.34375,-61.5234375,0.0
1734586870.0265465,-822.265625,20.99609375,-158.69140625,-29.78515625,0.0
1734586870.0304525,-773.92578125,-32.71484375,-166.50390625,-21.484375,0.0
1734586870.0343587,-678.22265625,-59.08203125,-195.3125,9.27734375,0.0
1734586870.0382648,-534.1796875,-52.734375,-217.7734375,56.15234375,0.0
1734586870.042171,-392.578125,-101.5625,-165.52734375,46.38671875,0.0
1734586870.0460773,-300.29296875,-128.41796875,-119.140625,21.484375,0.0
1734586870.0499833,-182.12890625,-45.41015625,-119.140625,-11.71875,0.0
1734586870.0538895,12.6953125,13.18359375,-96.19140625,0.9765625,0.0
1734586870.1153858,196.2890625,-6.34765625,-117.67578125,31.73828125,0.0
1734586870.1192918,336.42578125,-62.5,-134.27734375,76.171875,0.0
1734586870.123198,457.51953125,-75.68359375,-166.50390625,96.6796875,0.0
1734586870.1271043,542.96875,-24.4140625,-219.23828125,49.8046875,0.0
1734586870.1310103,628.41796875,-20.01953125,-190.91796875,59.5703125,0.0
1734586870.1349165,691.89453125,-30.2734375,-166.9921875,71.2890625,0.0
1734586870.1388228,761.71875,-2.9296875,-166.9921875,47.8515625,0.0
1734586870.142729,854.4921875,8.7890625,-150.87890625,51.7578125,0.0
1734586870.146635,923.828125,-6.34765625,-195.3125,68.84765625,0.0
1734586870.1505413,962.40234375,-59.5703125,-200.1953125,51.26953125,0.0
1734586870.1544476,969.23828125,-64.453125,-162.59765625,38.0859375,0.0
1734586870.1583536,967.7734375,-21.97265625,-172.8515625,78.125,0.0
1734586870.1464121,969.23828125,-47.8515625,-215.8203125,101.5625,0.0
1734586870.1503181,968.75,-61.03515625,-214.84375,74.70703125,0.0
1734586870.1542244,968.75,-14.16015625,-179.6875,31.25,0.0
1734586870.1581306,968.75,15.13671875,-201.171875,25.87890625,0.0
1734586870.1620367,968.75,7.32421875,-224.609375,34.1796875,0.0
1734586870.165943,968.75,-13.671875,-197.75390625,43.9453125,0.0
1734586870.1698492,968.75,-33.203125,-175.78125,44.43359375,0.0
1734586870.1737552,968.75,-21.484375,-189.94140625,26.3671875,0.0
1734586870.1776614,968.75,-12.6953125,-197.75390625,36.1328125,0.0
1734586870.1815677,968.75,-17.08984375,-227.05078125,34.1796875,0.0
1734586870.185474,969.23828125,-88.37890625,-178.22265625,49.31640625,0.0
1734586870.18938,965.33203125,-162.59765625,-92.28515625,84.9609375,0.0
1734586870.200735,973.6328125,-16.6015625,0.0,71.2890625,0.0
1734586870.2046413,941.40625,96.19140625,0.0,20.01953125,0.0
1734586870.2085476,849.609375,58.59375,0.0,-17.578125,0.0
1734586870.2124536,808.59375,40.52734375,0.0,-7.8125,0.0
1734586870.2163599,800.78125,23.92578125,0.0,5.859375,0.0
1734586870.220266,755.37109375,24.90234375,0.0,12.20703125,0.0
1734586870.2241724,678.22265625,45.8984375,0.0,6.34765625,0.0
1734586870.2280784,642.578125,29.78515625,0.0,40.52734375,0.0
1734586870.2319846,634.765625,30.76171875,0.0,42.96875,0.0
1734586870.2358909,591.796875,49.8046875,0.0,18.5546875,0.0
1734586870.2397969,583.984375,42.48046875,0.0,-9.27734375,0.0
1734586870.2437031,633.7890625,46.875,0.0,-17.08984375,0.0
1734586870.238825,655.2734375,68.359375,-101.5625,18.5546875,0.0
1734586870.2427313,660.15625,42.96875,-189.94140625,70.3125,0.0
1734586870.2466376,662.109375,56.640625,-200.1953125,68.84765625,0.0
1734586870.2505436,587.890625,117.67578125,-63.96484375,7.32421875,0.0
1734586870.2544498,504.39453125,123.046875,-9.765625,-24.4140625,0.0
1734586870.258356,422.8515625,111.328125,-28.3203125,-37.109375,0.0
1734586870.262262,352.5390625,106.4453125,-56.15234375,-21.484375,0.0
1734586870.2661684,326.66015625,58.59375,-46.38671875,10.7421875,0.0
1734586870.2700746,253.41796875,30.2734375,-43.9453125,33.69140625,0.0
1734586870.2739806,203.61328125,85.9375,-40.52734375,48.828125,0.0
1734586870.2778869,187.98828125,95.703125,-72.75390625,61.03515625,0.0
1734586870.281793,79.1015625,107.421875,-101.5625,31.25,0.0
1734586870.2882812,-17.08984375,155.2734375,-75.68359375,0.48828125,0.0
1734586870.2921875,-22.94921875,135.7421875,-13.18359375,9.27734375,0.0
1734586870.2960935,-62.01171875,125.0,52.734375,3.41796875,0.0
1734586870.2999997,-135.7421875,157.2265625,54.6875,-15.13671875,0.0
1734586870.303906,-153.80859375,169.921875,62.01171875,-4.8828125,0.0
1734586870.307812,-181.640625,199.21875,11.23046875,3.41796875,0.0
1734586870.3117182,-268.5546875,230.46875,-45.8984375,-5.859375,0.0
1734586870.3156245,-328.61328125,216.796875,2.44140625,53.22265625,0.0
1734586870.3195307,-437.5,245.1171875,6.34765625,38.57421875,0.0
1734586870.3234367,-611.81640625,282.2265625,-19.04296875,-54.19921875,0.0
1734586870.327343,-637.6953125,303.7109375,-85.9375,-50.29296875,0.0
1734586870.3312492,-537.109375,395.99609375,-200.1953125,28.3203125,0.0
1734586870.3320515,0.0,453.125,-205.078125,36.62109375,0.0
1734586870.3359578,0.0,409.1796875,-124.0234375,-35.15625,0.0
1734586870.339864,0.0,387.6953125,-72.75390625,-95.703125,0.0
1734586870.3437703,0.0,416.015625,-57.12890625,-105.46875,0.0
1734586870.3476763,0.0,395.01953125,-41.50390625,-83.49609375,0.0
1734586870.3515825,0.0,376.46484375,-79.1015625,-73.73046875,0.0
1734586870.3554888,0.0,375.9765625,-115.234375,-78.125,0.0
1734586870.3593948,0.0,361.81640625,-75.1953125,-53.22265625,0.0
1734586870.363301,0.0,339.84375,-15.13671875,-38.57421875,0.0
1734586870.3672073,0.0,310.546875,-5.859375,-82.51953125,0.0
1734586870.3711133,0.0,339.84375,-13.671875,-94.23828125,0.0
1734586870.3750196,0.0,368.65234375,-4.39453125,-122.0703125,0.0
1734586870.3999386,97.65625,344.7265625,-16.11328125,-118.1640625,0.0
1734586870.4038448,99.609375,337.40234375,34.1796875,-104.98046875,0.0
1734586870.407751,56.640625,344.23828125,93.26171875,-95.703125,0.0
1734586870.4116573,73.2421875,333.49609375,88.37890625,-69.3359375,0.0
1734586870.4155633,91.796875,311.5234375,69.3359375,-59.08203125,0.0
1734586870.4194696,50.78125,274.90234375,78.125,-48.828125,0.0
1734586870.4233758,-19.04296875,225.09765625,99.12109375,-31.73828125,0.0
1734586870.4272819,-53.7109375,205.078125,91.30859375,0.9765625,0.0
1734586870.431188,-146.484375,243.1640625,104.4921875,-6.34765625,0.0
1734586870.4350944,-217.28515625,270.01953125,99.609375,30.76171875,0.0
1734586870.4390006,-250.48828125,270.99609375,61.5234375,69.82421875,0.0
1734586870.4429066,-288.57421875,249.0234375,69.3359375,62.5,0.0
1734586870.406299,-279.296875,226.07421875,113.28125,85.9375,0.0
1734586870.4102054,-198.2421875,194.82421875,141.6015625,116.2109375,0.0
1734586870.4141114,-99.12109375,162.59765625,152.34375,115.234375,0.0
1734586870.4180176,-40.52734375,203.125,135.25390625,118.1640625,0.0
1734586870.4219236,-1.46484375,230.95703125,112.3046875,120.60546875,0.0
1734586870.42583,55.17578125,212.40234375,97.16796875,119.140625,0.0
1734586870.4297361,105.95703125,209.47265625,60.546875,107.91015625,0.0
1734586870.4336421,138.18359375,196.77734375,104.4921875,113.76953125,0.0
1734586870.4375484,156.25,184.5703125,154.296875,128.90625,0.0
1734586870.4414546,158.69140625,182.12890625,137.20703125,121.09375,0.0
1734586870.4453607,182.6171875,161.1328125,149.90234375,131.8359375,0.0
1734586870.449267,213.8671875,149.90234375,178.22265625,131.8359375,0.0
1734586870.4773638,0.0,147.4609375,187.01171875,99.12109375,0.0
1734586870.48127,0.0,121.58203125,160.15625,90.33203125,0.0
1734586870.4851763,0.0,99.609375,127.44140625,105.95703125,0.0
1734586870.4890823,0.0,120.1171875,114.2578125,102.05078125,0.0
1734586870.4929886,0.0,131.8359375,125.0,82.51953125,0.0
1734586870.4968948,0.0,121.58203125,123.046875,73.2421875,0.0
1734586870.5008008,0.0,102.05078125,97.16796875,80.078125,0.0
1734586870.504707,0.0,92.7734375,97.65625,77.1484375,0.0
1734586870.5086133,0.0,66.40625,110.83984375,70.3125,0.0
1734586870.5125196,0.0,35.15625,101.5625,60.546875,0.0
1734586870.5164256,0.0,61.03515625,80.078125,56.640625,0.0
1734586870.5203319,0.0,73.73046875,88.37890625,16.11328125,0.0
1734586870.5051289,415.52734375,80.56640625,109.86328125,-10.7421875,0.0
1734586870.509035,378.90625,77.1484375,93.75,-20.01953125,0.0
1734586870.5129414,324.21875,69.3359375,66.89453125,-55.6640625,0.0
1734586870.5168474,307.12890625,50.29296875,65.91796875,-55.17578125,0.0
1734586870.5207536,289.55078125,20.99609375,74.70703125,-65.4296875,0.0
1734586870.5246599,240.234375,29.296875,-2.44140625,-79.1015625,0.0
1734586870.528566,180.17578125,55.17578125,-29.78515625,-85.9375,0.0
1734586870.5324721,141.6015625,50.78125,38.0859375,-125.48828125,0.0
1734586870.5363781,106.4453125,11.71875,38.0859375,-140.13671875,0.0
1734586870.5402844,51.26953125,-1.46484375,25.390625,-143.06640625,0.0
1734586870.5441906,-37.109375,12.20703125,52.24609375,-185.05859375,0.0
1734586870.5480967,-77.1484375,31.25,47.36328125,-198.2421875,0.0
1734586870.5855448,-119.62890625,35.64453125,1.46484375,-194.3359375,0.0
1734586870.589451,-156.73828125,27.34375,-42.48046875,-176.26953125,0.0
1734586870.5933573,-157.71484375,22.4609375,-27.83203125,-182.12890625,0.0
1734586870.5972633,-143.5546875,20.99609375,-9.27734375,-198.73046875,0.0
1734586870.6011696,-101.5625,5.859375,9.27734375,-188.96484375,0.0
1734586870.6050758,-63.4765625,-15.625,27.83203125,-196.77734375,0.0
1734586870.6089818,-4.39453125,-22.4609375,16.6015625,-198.2421875,0.0
1734586870.612888,34.1796875,-25.87890625,0.48828125,-196.2890625,0.0
1734586870.6167943,31.25,-16.6015625,-60.05859375,-200.1953125,0.0
1734586870.6207006,37.109375,-17.578125,-83.0078125,-195.80078125,0.0
1734586870.6246066,57.12890625,-28.80859375,-30.76171875,-184.08203125,0.0
1734586870.6285129,125.0,-17.08984375,-5.37109375,-175.29296875,0.0
1734586870.6574988,218.26171875,-4.8828125,-54.19921875,-174.31640625,0.0
1734586870.661405,248.046875,-9.27734375,-96.19140625,-166.015625,0.0
1734586870.665311,268.06640625,-18.06640625,-53.22265625,-163.57421875,0.0
1734586870.6692173,291.9921875,-29.296875,-27.34375,-169.43359375,0.0
1734586870.6731236,288.57421875,-29.296875,-41.50390625,-187.98828125,0.0
1734586870.6770298,259.27734375,-23.92578125,-46.875,-164.0625,0.0
1734586870.6809359,188.4765625,-21.97265625,-39.55078125,-161.1328125,0.0
1734586870.684842,115.234375,-13.671875,-49.31640625,-184.08203125,0.0
1734586870.6887484,3.41796875,-20.99609375,-69.3359375,-164.0625,0.0
1734586870.6926546,-105.46875,-32.71484375,-64.453125,-167.96875,0.0
1734586870.6965609,-168.45703125,-28.80859375,-51.7578125,-172.8515625,0.0
1734586870.7004669,-324.21875,-20.01953125,-67.3828125,-196.77734375,0.0
1734586870.6355534,-502.9296875,-26.85546875,-127.44140625,-235.83984375,0.0
1734586870.6394596,-649.4140625,-46.38671875,-132.32421875,-239.2578125,0.0
1734586870.6433659,-812.5,-43.9453125,-56.15234375,-284.1796875,0.0
1734586870.6472719,-934.5703125,-41.50390625,-54.19921875,-309.5703125,0.0
1734586870.6511781,-989.74609375,-70.80078125,-139.6484375,-330.078125,0.0
1734586870.6550841,-1000.0,-83.984375,-177.24609375,-369.140625,0.0
1734586870.6589904,-999.51171875,-96.19140625,-104.4921875,-379.8828125,0.0
1734586870.6628966,-1000.0,-123.046875,-79.58984375,-409.66796875,0.0
1734586870.6668026,-1000.0,-83.984375,-104.4921875,-424.8046875,0.0
1734586870.670709,-1000.0,-23.92578125,-118.65234375,-416.50390625,0.0
1734586870.674615,-998.53515625,-125.0,-116.69921875,-380.37109375,0.0
1734586870.6785212,-1000.0,-211.42578125,-150.390625,-350.5859375,0.0
1734586870.7238889,-978.02734375,-48.828125,-230.46875,-338.8671875,0.0
1734586870.7277951,-937.5,44.921875,-218.26171875,-356.4453125,0.0
1734586870.7317014,-910.15625,-46.38671875,-157.71484375,-387.20703125,0.0
1734586870.7356076,-822.265625,-154.78515625,-149.4140625,-326.171875,0.0
1734586870.7395136,-800.78125,-98.14453125,-162.109375,-291.9921875,0.0
1734586870.74342,-875.0,-19.53125,-178.22265625,-336.9140625,0.0
1734586870.7473261,-866.2109375,-48.828125,-194.3359375,-319.82421875,0.0
1734586870.7512321,-811.5234375,-76.171875,-211.9140625,-263.18359375,0.0
1734586870.7551384,-806.640625,-77.1484375,-195.80078125,-235.83984375,0.0
1734586870.7590446,-796.875,-80.078125,-175.78125,-210.9375,0.0
1734586870.762951,-723.6328125,-73.2421875,-197.75390625,-163.57421875,0.0
1734586870.766857,-654.78515625,-65.91796875,-200.68359375,-145.01953125,0.0
1734586870.742611,0.0,-94.7265625,-187.01171875,-129.8828125,0.0
1734586870.7465172,0.0,-128.41796875,-163.57421875,-79.1015625,0.0
1734586870.7504232,0.0,-139.16015625,-162.109375,-44.921875,0.0
1734586870.7543294,0.0,-135.7421875,-168.9453125,-37.109375,0.0
1734586870.7582357,0.0,-120.60546875,-178.22265625,-26.3671875,0.0
1734586870.7621417,0.0,-68.359375,-190.4296875,-22.4609375,0.0
1734586870.766048,0.0,-57.6171875,-197.75390625,-38.0859375,0.0
1734586870.7699542,0.0,-79.58984375,-204.1015625,-17.578125,0.0
1734586870.7738602,0.0,-110.83984375,-189.94140625,4.39453125,0.0
1734586870.7777665,0.0,-127.9296875,-228.515625,-12.20703125,0.0
1734586870.7816727,0.0,-126.46484375,-247.0703125,9.27734375,0.0
1734586870.7855787,0.0,-132.32421875,-203.125,10.7421875,0.0
1734586870.8027375,-215.8203125,-117.67578125,-180.17578125,-5.859375,0.0
1734586870.8066437,-208.0078125,-116.69921875,-191.89453125,20.99609375,0.0
1734586870.81055,-183.59375,-149.4140625,-212.40234375,35.64453125,0.0
1734586870.8144562,-151.85546875,-172.36328125,-232.421875,61.5234375,0.0
1734586870.8183622,-152.34375,-183.10546875,-238.76953125,63.4765625,0.0
1734586870.8222685,-186.03515625,-181.640625,-221.6796875,70.3125,0.0
1734586870.8261747,-212.890625,-146.484375,-227.5390625,88.8671875,0.0
1734586870.8300807,-207.51953125,-120.60546875,-254.8828125,46.38671875,0.0
1734586870.833987,-221.6796875,-122.0703125,-244.140625,48.828125,0.0
1734586870.8378932,-246.09375,-170.8984375,-246.58203125,59.5703125,0.0
1734586870.8417993,-241.2109375,-199.21875,-277.34375,46.875,0.0
1734586870.8457055,-237.79296875,-204.1015625,-286.62109375,61.03515625,0.0
1734586870.8872144,-219.7265625,-203.61328125,-283.69140625,62.98828125,0.0
1734586870.8911207,-202.63671875,-171.875,-312.5,42.96875,0.0
1734586870.895027,-267.08984375,-145.99609375,-343.26171875,32.2265625,0.0
1734586870.8989332,-319.82421875,-145.5078125,-321.2890625,29.296875,0.0
1734586870.9028392,-330.078125,-166.015625,-307.12890625,24.90234375,0.0
1734586870.9067454,-338.37890625,-182.12890625,-325.1953125,27.83203125,0.0
1734586870.9106517,-302.734375,-174.8046875,-326.171875,50.78125,0.0
1734586870.914558,-260.7421875,-192.87109375,-298.828125,72.75390625,0.0
1734586870.9184642,-282.71484375,-195.80078125,-288.57421875,50.78125,0.0
1734586870.9223702,-303.22265625,-179.6875,-305.17578125,35.15625,0.0
1734586870.9262764,-305.17578125,-183.59375,-308.10546875,30.76171875,0.0
1734586870.9301827,-286.1328125,-208.0078125,-277.83203125,33.203125,0.0
1734586870.8574126,-262.6953125,-179.6875,-288.57421875,38.0859375,0.0
1734586870.8613186,-258.30078125,-155.76171875,-310.546875,41.015625,0.0
1734586870.8652248,-247.55859375,-170.41015625,-300.78125,60.05859375,0.0
1734586870.869131,-253.90625,-144.04296875,-282.71484375,41.50390625,0.0
1734586870.873037,-246.58203125,-138.18359375,-282.71484375,21.484375,0.0
1734586870.8769433,-176.26953125,-139.6484375,-304.6875,27.83203125,0.0
1734586870.8808494,-122.0703125,-129.39453125,-302.734375,37.109375,0.0
1734586870.8847556,-74.21875,-152.34375,-276.3671875,40.52734375,0.0
1734586870.8886616,-18.5546875,-192.3828125,-254.39453125,45.8984375,0.0
1734586870.8925679,-32.2265625,-184.5703125,-268.5546875,30.76171875,0.0
1734586870.8964741,-9.765625,-109.86328125,-294.921875,4.39453125,0.0
1734586870.9003801,24.90234375,-75.1953125,-268.06640625,-16.11328125,0.0
1734586870.9750059,0.0,-83.0078125,0.0,-7.32421875,0.0
1734586870.978912,0.0,-108.88671875,0.0,14.16015625,0.0
1734586870.9828184,0.0,-138.671875,0.0,-10.7421875,0.0
1734586870.9867244,0.0,-147.94921875,0.0,16.6015625,0.0
1734586870.9906306,0.0,-157.71484375,0.0,21.484375,0.0
1734586870.9945369,0.0,-154.78515625,0.0,-13.18359375,0.0
1734586870.9984431,0.0,-144.04296875,0.0,-28.3203125,0.0
1734586871.0023491,0.0,-128.90625,0.0,-1.953125,0.0
1734586871.0062554,0.0,-95.21484375,0.0,28.3203125,0.0
1734586871.0101616,0.0,-60.05859375,0.0,30.76171875,0.0
1734586871.014068,0.0,-63.4765625,0.0,44.921875,0.0
1734586871.0179741,0.0,-98.6328125,0.0,51.7578125,0.0
1734586870.9758444,234.375,-86.42578125,-241.69921875,34.66796875,0.0
1734586870.9797506,250.9765625,-60.546875,-241.69921875,31.73828125,0.0
1734586870.983657,251.46484375,-47.36328125,-237.3046875,79.1015625,0.0
1734586870.987563,247.55859375,-44.43359375,-238.28125,72.265625,0.0
1734586870.9914691,281.25,-53.22265625,-239.74609375,48.828125,0.0
1734586870.9953752,340.33203125,-48.828125,-249.51171875,82.03125,0.0
1734586870.9992814,359.375,-69.3359375,-244.140625,55.6640625,0.0
1734586871.0031877,395.01953125,-82.51953125,-224.12109375,51.7578125,0.0
1734586871.0070937,454.58984375,-58.10546875,-256.8359375,71.2890625,0.0
1734586871.011,458.49609375,-52.734375,-278.3203125,52.734375,0.0
1734586871.0149062,482.421875,-66.40625,-215.8203125,42.48046875,0.0
1734586871.0188122,517.578125,-81.54296875,-172.8515625,41.015625,0.0
1734586871.0459538,520.5078125,-63.4765625,-173.828125,26.3671875,0.0
1734586871.04986,537.109375,-38.57421875,-177.734375,51.26953125,0.0
1734586871.0537663,578.61328125,-57.12890625,-185.05859375,104.00390625,0.0
1734586871.0576723,668.45703125,-91.30859375,-185.05859375,92.7734375,0.0
1734586871.0615785,767.578125,-57.6171875,-181.640625,114.74609375,0.0
1734586871.0654848,868.65234375,-31.25,-178.7109375,137.6953125,0.0
1734586871.0693908,950.1953125,-41.50390625,-173.828125,131.8359375,0.0
1734586871.073297,967.28515625,-31.25,-187.01171875,134.765625,0.0
1734586871.0772033,965.33203125,-20.01953125,-201.66015625,136.23046875,0.0
1734586871.0811093,969.23828125,-22.94921875,-179.19921875,148.4375,0.0
1734586871.0850155,887.20703125,-46.875,-169.921875,141.11328125,0.0
1734586871.0889218,778.3203125,-62.98828125,-178.22265625,127.9296875,0.0
1734586871.1001768,693.359375,-68.359375,-178.7109375,116.2109375,0.0
1734586871.104083,574.70703125,-78.61328125,-171.875,117.1875,0.0
1734586871.1079893,551.7578125,-71.2890625,-171.38671875,125.48828125,0.0
1734586871.1118953,496.09375,-51.26953125,-179.19921875,114.74609375,0.0
1734586871.1158016,374.0234375,-58.59375,-171.875,100.09765625,0.0
1734586871.1197078,335.9375,-78.125,-164.55078125,112.79296875,0.0
1734586871.123614,323.73046875,-77.1484375,-160.64453125,134.765625,0.0
1734586871.12752,341.30859375,-94.23828125,-169.43359375,128.90625,0.0
1734586871.1314263,252.9296875,-83.49609375,-155.76171875,107.91015625,0.0
1734586871.1353326,46.38671875,-55.17578125,-131.8359375,98.6328125,0.0
1734586871.1392386,-183.59375,-54.19921875,-144.04296875,74.21875,0.0
1734586871.1431448,-354.4921875,-54.6875,-146.97265625,51.26953125,0.0
1734586871.1135814,-486.328125,-64.453125,-127.9296875,75.68359375,0.0
1734586871.1174874,-653.80859375,-79.58984375,-106.93359375,63.96484375,0.0
1734586871.1213937,-825.68359375,-82.03125,-107.91015625,20.5078125,0.0
1734586871.1253,-959.9609375,-74.70703125,-108.3984375,48.828125,0.0
1734586871.129206,-1000.0,-72.75390625,-90.8203125,42.48046875,0.0
1734586871.1331122,-998.046875,-88.8671875,-88.8671875,-11.71875,0.0
1734586871.1370184,-994.62890625,-88.8671875,-101.5625,-21.484375,0.0
1734586871.1409245,-1000.0,-103.515625,-89.35546875,-41.50390625,0.0
1734586871.1448307,-926.26953125,-108.88671875,-71.77734375,-19.04296875,0.0
1734586871.148737,-703.61328125,-92.28515625,-70.3125,-18.06640625,0.0
1734586871.152643,-390.625,-112.79296875,-78.61328125,-38.57421875,0.0
1734586871.1565492,-33.203125,-128.90625,-83.49609375,-35.15625,0.0
1734586871.1813066,0.0,-105.95703125,-55.17578125,-70.3125,0.0
1734586871.1852129,0.0,-89.84375,-57.6171875,-73.73046875,0.0
1734586871.1891189,0.0,-83.49609375,-63.4765625,-35.15625,0.0
1734586871.193025,0.0,-95.21484375,-72.265625,-22.4609375,0.0
1734586871.1969314,0.0,-103.515625,-88.37890625,-61.5234375,0.0
1734586871.2008376,0.0,-108.3984375,-90.8203125,-93.75,0.0
1734586871.2047436,0.0,-113.76953125,-109.375,-115.234375,0.0
1734586871.2086499,0.0,-97.16796875,-110.3515625,-125.48828125,0.0
1734586871.2125561,0.0,-89.35546875,-86.42578125,-118.65234375,0.0
1734586871.2164621,0.0,-97.16796875,-91.30859375,-93.26171875,0.0
1734586871.2203684,0.0,-102.5390625,-92.28515625,-102.05078125,0.0
1734586871.2242746,0.0,-106.4453125,-85.9375,-119.140625,0.0
1734586871.210011,181.640625,-112.3046875,-86.9140625,-133.7890625,0.0
1734586871.2139173,190.4296875,-106.93359375,-83.0078125,-135.25390625,0.0
1734586871.2178235,209.47265625,-105.95703125,-75.68359375,-125.9765625,0.0
1734586871.2217295,165.52734375,-114.74609375,-70.80078125,-141.6015625,0.0
1734586871.2256358,80.078125,-117.1875,-65.91796875,-159.1796875,0.0
1734586871.229542,56.15234375,-130.37109375,-74.21875,-133.30078125,0.0
1734586871.233448,52.734375,-142.578125,-78.61328125,-114.2578125,0.0
1734586871.2373543,41.9921875,-125.48828125,-57.12890625,-160.64453125,0.0
1734586871.2412603,56.15234375,-111.328125,-58.10546875,-181.15234375,0.0
1734586871.2451665,25.390625,-112.3046875,-79.58984375,-149.90234375,0.0
1734586871.2490728,-22.4609375,-113.76953125,-79.58984375,-145.01953125,0.0
1734586871.2529788,-16.6015625,-117.1875,-87.40234375,-144.53125,0.0
1734586871.2891235,-4.39453125,-124.51171875,-102.05078125,-127.9296875,0.0
1734586871.2930298,-17.578125,-120.1171875,-93.26171875,-119.62890625,0.0
1734586871.296936,-65.91796875,-104.4921875,-75.1953125,-139.6484375,0.0
1734586871.3008423,-76.171875,-114.2578125,-70.80078125,-148.4375,0.0
1734586871.3047483,-50.78125,-115.234375,-86.9140625,-131.34765625,0.0
1734586871.3086545,-53.22265625,-104.00390625,-101.07421875,-100.09765625,0.0
1734586871.3125608,-58.59375,-97.16796875,-91.30859375,-103.515625,0.0
1734586871.316467,-50.78125,-98.6328125,-83.49609375,-117.67578125,0.0
1734586871.320373,-82.03125,-138.671875,-100.5859375,-106.93359375,0.0
1734586871.3242793,-88.8671875,-162.109375,-119.140625,-99.609375,0.0
1734586871.3281856,-46.875,-135.7421875,-110.3515625,-91.796875,0.0
1734586871.3320916,-39.55078125,-122.55859375,-120.60546875,-92.7734375,0.0
1734586871.3368046,-53.22265625,-139.6484375,-150.390625,-83.0078125,0.0
1734586871.3407106,-67.87109375,-179.6875,-135.7421875,-58.10546875,0.0
1734586871.344617,-51.7578125,-169.921875,-123.046875,-45.8984375,0.0
1734586871.3485231,-6.34765625,-129.8828125,-144.53125,-34.66796875,0.0
1734586871.3524292,17.08984375,-108.3984375,-171.875,-47.8515625,0.0
1734586871.3563354,-54.6875,-111.328125,-182.6171875,-78.61328125,0.0
1734586871.3602417,-102.5390625,-163.0859375,-162.59765625,-84.47265625,0.0
1734586871.364148,-97.16796875,-177.24609375,-145.01953125,-74.70703125,0.0
1734586871.368054,-98.6328125,-138.671875,-179.19921875,-64.94140625,0.0
1734586871.3719602,-52.24609375,-119.62890625,-200.68359375,-61.03515625,0.0
1734586871.3758664,-57.12890625,-131.34765625,-160.15625,-88.8671875,0.0
1734586871.3797727,-86.9140625,-123.046875,-155.2734375,-108.88671875,0.0
1734586871.3848972,-60.05859375,-87.890625,-168.45703125,-87.40234375,0.0
1734586871.3888035,-63.96484375,-83.0078125,-190.91796875,-69.3359375,0.0
1734586871.3927097,-71.77734375,-108.88671875,-186.5234375,-85.9375,0.0
1734586871.3966157,-65.91796875,-146.484375,-172.36328125,-117.1875,0.0
1734586871.400522,-46.875,-146.97265625,-156.25,-96.6796875,0.0
1734586871.4044282,-22.4609375,-101.07421875,-110.83984375,-51.26953125,0.0
1734586871.4083345,-21.97265625,-86.42578125,-113.76953125,-31.73828125,0.0
1734586871.4122405,17.578125,-104.00390625,-133.30078125,-39.55078125,0.0
1734586871.4161468,23.92578125,-111.81640625,-142.578125,-89.35546875,0.0
1734586871.420053,-13.671875,-148.92578125,-150.87890625,-102.5390625,0.0
1734586871.4239593,-20.99609375,-185.05859375,-136.71875,-101.07421875,0.0
1734586871.4278653,-10.7421875,-185.05859375,-135.25390625,-128.90625,0.0
1734586871.3993163,52.24609375,-166.50390625,-102.05078125,-70.3125,0.0
1734586871.4032226,39.0625,-177.24609375,-54.19921875,-51.7578125,0.0
1734586871.4071286,-87.40234375,-285.64453125,-101.5625,-162.59765625,0.0
1734586871.4110348,-73.73046875,-335.9375,-67.87109375,-140.13671875,0.0
1734586871.414941,-39.0625,-316.89453125,-2.44140625,-115.234375,0.0
1734586871.418847,-113.28125,-354.4921875,-53.22265625,-185.546875,0.0
1734586871.4227533,-235.3515625,-411.62109375,-93.26171875,-331.54296875,0.0
1734586871.4266596,-480.46875,-636.71875,-248.046875,-618.1640625,0.0
1734586871.4305656,-431.640625,-641.11328125,-86.9140625,-558.10546875,0.0
1734586871.4344718,-426.7578125,-688.4765625,179.19921875,-595.703125,0.0
1734586871.438378,-841.796875,-985.3515625,58.59375,-954.58984375,0.0
1734586871.442284,-1000.0,-1000.0,69.82421875,-1000.0,0.0
1734586871.464314,-988.76953125,-992.1875,309.5703125,-989.2578125,0.0
1734586871.46822,-999.51171875,-1000.0,202.1484375,-1000.0,0.0
1734586871.4721262,-1000.0,-1000.0,-339.35546875,-1000.0,0.0
1734586871.4760325,-1000.0,-1000.0,-835.9375,-1000.0,0.0
1734586871.4799387,-1000.0,-992.67578125,-1000.0,-1000.0,0.0
1734586871.4838448,-1000.0,-962.40234375,-983.3984375,-1000.0,0.0
1734586871.487751,-1000.0,-1000.0,-957.51953125,-1000.0,0.0
1734586871.4916573,-1000.0,-157.71484375,-1000.0,-1000.0,0.0
1734586871.4955633,-1000.0,982.421875,-205.56640625,-1000.0,0.0
1734586871.4994695,-1000.0,963.37890625,962.890625,-1000.0,0.0
1734586871.5033758,-1000.0,942.87109375,955.078125,-1000.0,0.0
1734586871.5072818,-1000.0,977.05078125,933.59375,-1000.0,0.0
1734586871.4971945,-1000.0,969.7265625,977.5390625,-1000.0,0.0
1734586871.5011005,-1000.0,969.7265625,963.8671875,-1000.0,0.0
1734586871.5050068,-1000.0,969.7265625,941.40625,-1000.0,0.0
1734586871.5089128,-1000.0,969.7265625,923.828125,-1000.0,0.0
1734586871.512819,-1000.0,969.7265625,895.99609375,-1000.0,0.0
1734586871.5167253,-1000.0,969.7265625,825.1953125,-1000.0,0.0
1734586871.5206313,-1000.0,969.23828125,769.04296875,-1000.0,0.0
1734586871.5245376,-1000.0,969.7265625,750.0,-1000.0,0.0
1734586871.5284438,-1000.0,969.23828125,667.48046875,-1000.0,0.0
1734586871.5323498,-961.9140625,969.7265625,571.77734375,-972.16796875,0.0
1734586871.536256,-1000.0,969.7265625,658.203125,-1000.0,0.0
1734586871.5401623,-542.48046875,969.23828125,873.53515625,-801.26953125,0.0
1734586871.6227975,625.0,969.23828125,937.98828125,199.70703125,0.0
1734586871.6267037,-1000.0,969.23828125,930.17578125,933.59375,0.0
1734586871.6306098,937.5,969.23828125,950.1953125,958.984375,0.0
1734586871.634516,968.26171875,969.23828125,950.68359375,954.1015625,0.0
1734586871.6384223,970.21484375,969.7265625,953.125,973.14453125,0.0
1734586871.6423285,968.75,969.7265625,949.21875,969.23828125,0.0
1734586871.6462348,968.75,969.7265625,946.77734375,969.7265625,0.0
1734586871.650141,968.75,969.23828125,949.21875,969.7265625,0.0
1734586871.6540473,968.75,969.23828125,950.1953125,969.23828125,0.0
1734586871.6579533,968.75,969.23828125,947.265625,969.23828125,0.0
1734586871.6618595,968.75,970.703125,943.84765625,969.23828125,0.0
1734586871.6657658,968.75,964.84375,947.75390625,969.23828125,0.0
1734586871.5436137,968.75,967.7734375,947.265625,969.23828125,0.0
1734586871.5475197,968.75,953.61328125,942.87109375,969.23828125,0.0
1734586871.551426,968.75,738.28125,938.96484375,969.23828125,0.0
1734586871.555332,968.75,417.48046875,940.91796875,969.23828125,0.0
1734586871.5592382,968.75,173.33984375,938.4765625,969.23828125,0.0
1734586871.5631442,968.75,-2.9296875,934.5703125,969.23828125,0.0
1734586871.5670505,968.75,-185.05859375,935.05859375,969.23828125,0.0
1734586871.5709565,968.75,-362.79296875,935.05859375,969.23828125,0.0
1734586871.5748627,968.75,-505.37109375,929.6875,969.7265625,0.0
1734586871.578769,968.75,-660.64453125,919.43359375,969.23828125,0.0
1734586871.582675,968.75,-776.85546875,930.6640625,969.23828125,0.0
1734586871.5865812,968.75,-872.55859375,940.91796875,969.23828125,0.0
1734586871.6667242,968.75,-978.515625,937.01171875,969.23828125,0.0
1734586871.6706305,968.75,-1000.0,923.828125,969.23828125,0.0
1734586871.6745365,968.75,-997.55859375,909.66796875,969.23828125,0.0
1734586871.6784427,968.75,-1000.0,814.94140625,969.23828125,0.0
1734586871.682349,968.75,-1000.0,745.60546875,969.7265625,0.0
1734586871.6862552,969.23828125,-1000.0,705.56640625,969.23828125,0.0
1734586871.6901612,966.30859375,-1000.0,735.3515625,969.7265625,0.0
1734586871.6940675,968.26171875,-1000.0,832.03125,969.23828125,0.0
1734586871.6979737,964.35546875,-1000.0,827.1484375,969.23828125,0.0
1734586871.7018797,861.81640625,-1000.0,811.5234375,969.7265625,0.0
1734586871.705786,738.76953125,-1000.0,806.15234375,969.23828125,0.0
1734586871.7096922,659.66796875,-1000.0,793.45703125,969.7265625,0.0
1734586871.6868,592.7734375,-1000.0,768.5546875,968.26171875,0.0
1734586871.6907063,471.6796875,-1000.0,777.83203125,968.75,0.0
1734586871.6946125,282.71484375,-1000.0,799.31640625,966.30859375,0.0
1734586871.6985185,142.578125,-1000.0,806.15234375,902.34375,0.0
1734586871.7024248,93.26171875,-1000.0,788.57421875,811.5234375,0.0
1734586871.706331,72.265625,-1000.0,757.32421875,760.25390625,0.0
1734586871.710237,9.765625,-1000.0,771.97265625,719.23828125,0.0
1734586871.7141433,-41.9921875,-1000.0,732.421875,698.2421875,0.0
1734586871.7180495,-109.375,-1000.0,526.85546875,633.7890625,0.0
1734586871.7219555,-207.03125,-1000.0,412.109375,540.0390625,0.0
1734586871.7258618,-249.51171875,-1000.0,458.0078125,496.58203125,0.0
1734586871.7297678,-261.23046875,-1000.0,347.65625,477.5390625,0.0
1734586871.74674,-341.30859375,-1000.0,135.7421875,464.35546875,0.0
1734586871.7506464,-412.59765625,-1000.0,29.78515625,398.92578125,0.0
1734586871.7545526,-420.41015625,-1000.0,-17.08984375,357.421875,0.0
1734586871.7584589,-406.73828125,-1000.0,-130.37109375,351.5625,0.0
1734586871.7623649,-378.41796875,-1000.0,-215.33203125,341.796875,0.0
1734586871.766271,-360.3515625,-1000.0,-260.25390625,308.10546875,0.0
1734586871.7701774,-370.1171875,-1000.0,-236.328125,262.20703125,0.0
1734586871.7740834,-370.60546875,-1000.0,-151.3671875,232.421875,0.0
1734586871.7779896,-384.765625,-1000.0,-174.31640625,202.1484375,0.0
1734586871.7818959,-393.5546875,-1000.0,-141.11328125,166.50390625,0.0
1734586871.785802,-395.01953125,-1000.0,-45.41015625,128.41796875,0.0
1734586871.7897081,-403.80859375,-999.51171875,-104.00390625,108.3984375,0.0
1734586871.8063655,-395.01953125,-1000.0,-123.046875,85.9375,0.0
1734586871.8102717,-364.74609375,-991.69921875,-22.94921875,66.40625,0.0
1734586871.814178,-333.49609375,-965.33203125,71.77734375,67.3828125,0.0
1734586871.818084,-335.44921875,-946.77734375,106.93359375,61.5234375,0.0
1734586871.8219903,-313.4765625,-920.41015625,111.81640625,24.90234375,0.0
1734586871.8258965,-301.26953125,-908.69140625,131.34765625,23.92578125,0.0
1734586871.8298028,-278.3203125,-924.8046875,190.4296875,27.83203125,0.0
1734586871.8337088,-200.68359375,-932.12890625,190.91796875,12.6953125,0.0
1734586871.837615,-170.8984375,-917.48046875,154.78515625,-15.625,0.0
1734586871.8415213,-189.94140625,-891.11328125,238.28125,-57.6171875,0.0
1734586871.8454275,-219.7265625,-878.41796875,266.11328125,-54.19921875,0.0
1734586871.8493335,-217.7734375,-844.7265625,201.171875,-55.6640625,0.0
1734586871.8177276,-242.67578125,-802.734375,187.98828125,-73.2421875,0.0
1734586871.8216338,-314.94140625,-783.203125,162.59765625,-101.07421875,0.0
1734586871.82554,-365.234375,-772.94921875,108.3984375,-122.55859375,0.0
1734586871.829446,-369.140625,-751.46484375,4.8828125,-115.72265625,0.0
1734586871.8333523,-344.7265625,-726.5625,-167.96875,-113.76953125,0.0
1734586871.8372583,-280.2734375,-706.0546875,-317.3828125,-134.765625,0.0
1734586871.8411646,-236.81640625,-704.58984375,-419.921875,-142.08984375,0.0
1734586871.8450708,-229.98046875,-724.12109375,-475.5859375,-154.296875,0.0
1734586871.8489769,-197.75390625,-730.95703125,-493.1640625,-161.62109375,0.0
1734586871.852883,-161.62109375,-729.00390625,-541.50390625,-161.62109375,0.0
1734586871.8567894,-161.62109375,-736.328125,-612.3046875,-168.45703125,0.0
1734586871.8606954,-194.3359375,-730.46875,-670.8984375,-156.73828125,0.0
1734586871.8844523,-251.953125,-698.73046875,-641.11328125,-192.3828125,0.0
1734586871.8883586,-269.04296875,-684.08203125,-602.05078125,-229.00390625,0.0
1734586871.8922648,-198.73046875,-681.640625,-672.8515625,-217.28515625,0.0
1734586871.8961709,-146.97265625,-666.50390625,-700.68359375,-211.9140625,0.0
1734586871.900077,-163.57421875,-648.4375,-692.87109375,-229.4921875,0.0
1734586871.9039834,-184.08203125,-648.4375,-714.84375,-227.5390625,0.0
1734586871.9078894,-178.22265625,-663.0859375,-751.46484375,-232.421875,0.0
1734586871.9117956,-138.671875,-665.0390625,-761.71875,-233.88671875,0.0
1734586871.9157019,-108.3984375,-660.64453125,-700.68359375,-226.07421875,0.0
1734586871.9196079,-105.95703125,-648.92578125,-700.68359375,-249.0234375,0.0
1734586871.9235141,-125.9765625,-615.234375,-745.1171875,-255.37109375,0.0
1734586871.9274204,-143.5546875,-586.9140625,-734.375,-242.67578125,0.0
1734586871.9148529,-152.83203125,-571.2890625,-703.61328125,-249.0234375,0.0
1734586871.918759,-128.90625,-543.45703125,-723.6328125,-258.7890625,0.0
1734586871.9226654,-100.5859375,-530.76171875,-734.375,-260.7421875,0.0
1734586871.9265714,-145.5078125,-533.203125,-718.75,-275.390625,0.0
1734586871.9304776,-145.99609375,-538.57421875,-708.0078125,-282.71484375,0.0
1734586871.9343839,-83.984375,-550.29296875,-694.82421875,-280.76171875,0.0
1734586871.9382899,-31.25,-557.12890625,-728.02734375,-268.5546875,0.0
1734586871.9421961,9.27734375,-545.8984375,-683.59375,-273.4375,0.0
1734586871.9461024,19.53125,-530.2734375,-587.40234375,-288.0859375,0.0
1734586871.9500084,13.671875,-540.0390625,-593.75,-299.8046875,0.0
1734586871.9539146,-0.48828125,-555.6640625,-605.95703125,-308.10546875,0.0
1734586871.957821,14.16015625,-575.68359375,-557.12890625,-274.90234375,0.0
1734586871.9698677,3.41796875,-596.6796875,-508.30078125,-274.90234375,0.0
1734586871.973774,-34.1796875,-573.2421875,-525.390625,-299.8046875,0.0
1734586871.9776802,-53.22265625,-546.875,-532.2265625,-304.6875,0.0
1734586871.9815862,-84.47265625,-550.78125,-505.37109375,-336.9140625,0.0
1734586871.9854925,-96.6796875,-551.26953125,-496.58203125,-329.1015625,0.0
1734586871.9893987,-92.28515625,-554.19921875,-541.50390625,-313.96484375,0.0
1734586871.9933047,-101.5625,-562.98828125,-555.6640625,-323.2421875,0.0
1734586871.997211,-131.8359375,-579.58984375,-496.09375,-334.9609375,0.0
1734586872.0011172,-124.51171875,-607.91015625,-484.375,-334.47265625,0.0
1734586872.0050232,-106.4453125,-618.65234375,-530.76171875,-312.5,0.0
1734586872.0089295,-81.54296875,-599.609375,-550.29296875,-314.453125,0.0
1734586872.0128357,-64.453125,-566.40625,-529.78515625,-315.4296875,0.0
1734586872.0087814,-80.078125,-555.17578125,-534.1796875,-303.7109375,0.0
1734586872.0126877,-93.26171875,-564.94140625,-562.01171875,-293.9453125,0.0
1734586872.016594,-80.078125,-569.3359375,-550.29296875,-284.66796875,0.0
1734586872.0205,-46.38671875,-562.98828125,-538.0859375,-270.5078125,0.0
1734586872.0244062,-21.484375,-563.4765625,-550.29296875,-271.484375,0.0
1734586872.0283124,-47.8515625,-574.70703125,-587.40234375,-282.2265625,0.0
1734586872.0322185,-33.69140625,-581.0546875,-544.921875,-286.62109375,0.0
1734586872.0361247,-30.76171875,-582.03125,-482.91015625,-288.57421875,0.0
1734586872.0400307,-50.29296875,-589.35546875,-505.37109375,-269.04296875,0.0
1734586872.043937,-20.99609375,-579.58984375,-494.62890625,-265.625,0.0
1734586872.0478432,0.9765625,-569.3359375,-467.28515625,-260.25390625,0.0
1734586872.0517492,58.59375,-581.0546875,-449.70703125,-241.69921875,0.0
1734586872.0822537,120.1171875,-579.58984375,-467.7734375,-235.3515625,0.0
1734586872.0861597,186.5234375,-547.36328125,-451.171875,-237.79296875,0.0
1734586872.090066,220.21484375,-523.4375,-395.5078125,-236.81640625,0.0
1734586872.0939722,189.453125,-516.11328125,-382.8125,-232.91015625,0.0
1734586872.0978782,157.2265625,-524.90234375,-392.578125,-242.1875,0.0
1734586872.1017845,155.2734375,-542.48046875,-399.90234375,-247.0703125,0.0
1734586872.1056907,158.203125,-546.38671875,-359.86328125,-231.4453125,0.0
1734586872.109597,151.3671875,-545.8984375,-314.94140625,-235.3515625,0.0
1734586872.113503,117.67578125,-551.26953125,-328.125,-250.9765625,0.0
1734586872.1174092,103.515625,-544.921875,-316.89453125,-238.28125,0.0
1734586872.1213155,113.28125,-538.0859375,-288.0859375,-218.75,0.0
1734586872.1252215,91.30859375,-541.9921875,-273.4375,-231.93359375,0.0
1734586872.1083705,80.56640625,-548.33984375,-260.7421875,-238.76953125,0.0
1734586872.1122768,52.24609375,-550.29296875,-211.42578125,-232.91015625,0.0
1734586872.116183,25.87890625,-536.62109375,-113.76953125,-235.3515625,0.0
1734586872.120089,35.64453125,-532.2265625,-126.953125,-213.8671875,0.0
1734586872.1239953,52.24609375,-542.48046875,-135.25390625,-233.3984375,0.0
1734586872.1279016,80.56640625,-552.734375,-121.58203125,-238.28125,0.0
1734586872.1318076,47.36328125,-553.22265625,-95.703125,-232.421875,0.0
1734586872.1357138,28.3203125,-539.55078125,-83.49609375,-224.609375,0.0
1734586872.13962,23.4375,-534.66796875,-151.85546875,-194.82421875,0.0
1734586872.143526,3.90625,-546.38671875,-118.65234375,-208.49609375,0.0
1734586872.1474323,-13.18359375,-539.55078125,-62.5,-218.26171875,0.0
1734586872.1513386,-64.453125,-540.0390625,-118.65234375,-228.515625,0.0
1734586872.1667244,-146.97265625,-576.171875,-111.328125,-229.4921875,0.0
1734586872.1706307,-187.5,-602.5390625,-73.2421875,-200.68359375,0.0
1734586872.174537,-215.33203125,-603.02734375,-59.5703125,-201.66015625,0.0
1734586872.178443,-243.65234375,-579.1015625,-75.68359375,-225.5859375,0.0
1734586872.1823492,-279.78515625,-550.29296875,-116.69921875,-226.5625,0.0
1734586872.1862555,-324.70703125,-536.62109375,-129.39453125,-218.26171875,0.0
1734586872.1901615,-312.98828125,-538.0859375,-118.1640625,-220.703125,0.0
1734586872.1940677,-286.62109375,-546.38671875,-138.18359375,-215.8203125,0.0
1734586872.197974,-277.34375,-550.78125,-176.7578125,-203.125,0.0
1734586872.2018802,-268.06640625,-550.78125,-118.65234375,-198.73046875,0.0
1734586872.2057862,-274.90234375,-556.15234375,-104.98046875,-194.82421875,0.0
1734586872.2096925,-294.921875,-571.2890625,-135.25390625,-192.3828125,0.0
1734586872.2028706,-277.34375,-577.63671875,-125.9765625,-185.546875,0.0
1734586872.2067769,-276.85546875,-562.98828125,-141.6015625,-200.1953125,0.0
1734586872.2106829,-290.0390625,-550.78125,-175.29296875,-209.9609375,0.0
1734586872.214589,-328.125,-565.4296875,-203.125,-198.73046875,0.0
1734586872.2184954,-347.65625,-590.8203125,-159.1796875,-200.1953125,0.0
1734586872.2224014,-305.6640625,-602.05078125,-120.1171875,-200.1953125,0.0
1734586872.2263076,-311.03515625,-589.84375,-150.390625,-181.640625,0.0
1734586872.2302139,-319.82421875,-572.75390625,-208.984375,-195.80078125,0.0
1734586872.23412,-339.35546875,-560.546875,-193.359375,-213.37890625,0.0
1734586872.2380261,-349.12109375,-551.7578125,-118.65234375,-219.7265625,0.0
1734586872.2419324,-342.28515625,-560.546875,-137.20703125,-207.03125,0.0
1734586872.2458384,-341.796875,-568.84765625,-154.78515625,-188.96484375,0.0
1734586872.252861,-330.078125,-563.4765625,-150.390625,-186.03515625,0.0
1734586872.2567673,-314.453125,-539.0625,-142.08984375,-193.84765625,0.0
1734586872.2606733,-345.21484375,-527.34375,-154.296875,-202.63671875,0.0
1734586872.2645795,-378.90625,-532.71484375,-147.94921875,-187.5,0.0
1734586872.2684858,-359.375,-539.0625,-122.0703125,-182.12890625,0.0
1734586872.2723918,-370.60546875,-532.71484375,-141.6015625,-198.2421875,0.0
1734586872.276298,-412.59765625,-520.5078125,-178.22265625,-211.9140625,0.0
1734586872.2802043,-438.96484375,-519.53125,-196.2890625,-186.5234375,0.0
1734586872.2841103,-425.78125,-517.08984375,-148.4375,-180.6640625,0.0
1734586872.2880166,-419.921875,-498.046875,-135.7421875,-197.265625,0.0
1734586872.2919228,-452.1484375,-469.23828125,-198.2421875,-188.96484375,0.0
1734586872.2958288,-479.00390625,-456.0546875,-204.58984375,-200.1953125,0.0
1734586872.294527,-485.3515625,-469.7265625,-177.24609375,-198.2421875,0.0
1734586872.2984333,-503.90625,-478.515625,-184.08203125,-199.70703125,0.0
1734586872.3023393,-527.34375,-463.37890625,-191.89453125,-205.56640625,0.0
1734586872.3062456,-541.9921875,-453.61328125,-197.265625,-205.078125,0.0
1734586872.3101518,-547.8515625,-432.12890625,-180.17578125,-199.70703125,0.0
1734586872.3140578,-565.4296875,-423.33984375,-169.43359375,-186.5234375,0.0
1734586872.317964,-547.8515625,-432.12890625,-208.49609375,-171.875,0.0
1734586872.3218703,-509.765625,-423.828125,-193.359375,-179.19921875,0.0
1734586872.3257763,-483.3984375,-425.29296875,-126.953125,-168.9453125,0.0
1734586872.3296826,-465.33203125,-433.10546875,-156.25,-174.8046875,0.0
1734586872.3335888,-475.09765625,-424.31640625,-187.01171875,-206.54296875,0.0
1734586872.3374949,-522.94921875,-416.015625,-187.98828125,-198.73046875,0.0
1734586872.3419225,-520.5078125,-412.59765625,-175.78125,-196.2890625,0.0
1734586872.3458288,-484.86328125,-401.85546875,-182.12890625,-171.38671875,0.0
1734586872.3497348,-491.69921875,-390.625,-191.40625,-165.52734375,0.0
1734586872.353641,-518.06640625,-385.7421875,-177.24609375,-206.54296875,0.0
1734586872.3575473,-450.68359375,-374.0234375,-173.33984375,-198.73046875,0.0
1734586872.3614533,-418.9453125,-372.55859375,-199.70703125,-172.36328125,0.0
1734586872.3653595,-477.5390625,-372.55859375,-211.42578125,-173.828125,0.0
1734586872.3692658,-437.98828125,-364.2578125,-144.53125,-171.38671875,0.0
1734586872.3731718,-421.38671875,-363.76953125,-127.9296875,-175.29296875,0.0
1734586872.377078,-456.0546875,-355.95703125,-176.7578125,-181.640625,0.0
1734586872.3809843,-395.99609375,-360.3515625,-193.359375,-173.33984375,0.0
1734586872.3848903,-332.51953125,-364.74609375,-160.15625,-148.4375,0.0
1734586872.4093716,-354.00390625,-350.09765625,-149.90234375,-152.34375,0.0
1734586872.4132776,-349.12109375,-346.19140625,-190.4296875,-174.31640625,0.0
1734586872.4171839,-314.94140625,-345.21484375,-191.40625,-169.43359375,0.0
1734586872.4210901,-258.7890625,-340.8203125,-172.36328125,-178.7109375,0.0
1734586872.4249964,-213.37890625,-328.125,-167.48046875,-180.17578125,0.0
1734586872.4289024,-179.19921875,-324.70703125,-215.33203125,-162.109375,0.0
1734586872.4328086,-150.87890625,-333.0078125,-197.75390625,-160.64453125,0.0
1734586872.436715,-124.0234375,-328.61328125,-125.48828125,-178.7109375,0.0
1734586872.440621,-87.40234375,-319.3359375,-145.01953125,-182.12890625,0.0
1734586872.4445271,-38.57421875,-302.734375,-164.0625,-161.62109375,0.0
1734586872.4484334,-4.8828125,-296.875,-153.80859375,-160.64453125,0.0
1734586872.4523396,1.46484375,-298.33984375,-146.484375,-202.63671875,0.0
1734586872.4398582,36.62109375,-295.8984375,-165.52734375,-184.08203125,0.0
1734586872.4437644,37.109375,-306.15234375,-174.8046875,-155.76171875,0.0
1734586872.4476705,48.33984375,-313.4765625,-162.59765625,-166.015625,0.0
1734586872.4515767,63.96484375,-313.96484375,-167.48046875,-173.33984375,0.0
1734586872.455483,42.48046875,-322.75390625,-200.1953125,-169.43359375,0.0
1734586872.459389,63.4765625,-324.21875,-221.6796875,-168.45703125,0.0
1734586872.4632952,66.40625,-314.94140625,-201.171875,-182.12890625,0.0
1734586872.4672015,56.15234375,-320.80078125,-161.1328125,-181.15234375,0.0
1734586872.4711075,54.6875,-329.1015625,-180.17578125,-169.43359375,0.0
1734586872.4750137,59.5703125,-315.4296875,-214.35546875,-168.45703125,0.0
1734586872.47892,72.265625,-302.734375,-142.08984375,-150.390625,0.0
1734586872.482826,49.8046875,-309.5703125,-138.18359375,-136.23046875,0.0
1734586872.5201232,30.2734375,-307.6171875,-179.6875,-174.8046875,0.0
1734586872.5240295,58.10546875,-285.15625,-164.55078125,-188.96484375,0.0
1734586872.5279357,54.6875,-287.59765625,-156.25,-157.71484375,0.0
1734586872.5318418,31.25,-311.5234375,-186.5234375,-147.94921875,0.0
1734586872.535748,12.20703125,-308.59375,-193.84765625,-152.83203125,0.0
1734586872.5396543,-15.13671875,-296.875,-187.01171875,-154.296875,0.0
1734586872.5435605,5.37109375,-291.50390625,-170.41015625,-171.38671875,0.0
1734586872.5474665,-25.390625,-298.828125,-149.4140625,-172.8515625,0.0
1734586872.5513728,-75.68359375,-317.3828125,-209.47265625,-145.5078125,0.0
1734586872.555279,-112.3046875,-300.29296875,-197.75390625,-146.97265625,0.0
1734586872.5591853,-141.6015625,-275.87890625,-137.20703125,-164.0625,0.0
1734586872.5630913,-147.4609375,-285.64453125,-185.546875,-171.38671875,0.0
1734586872.5164356,-154.78515625,-295.8984375,-209.47265625,-161.1328125,0.0
1734586872.5203416,-150.390625,-281.25,-199.70703125,-148.92578125,0.0
1734586872.524248,-163.57421875,-271.97265625,-192.87109375,-157.2265625,0.0
1734586872.528154,-163.57421875,-279.78515625,-198.2421875,-161.62109375,0.0
1734586872.5320601,-167.48046875,-292.48046875,-198.2421875,-156.25,0.0
1734586872.5359664,-187.5,-303.22265625,-200.1953125,-155.76171875,0.0
1734586872.5398724,-208.49609375,-281.73828125,-188.96484375,-142.578125,0.0
1734586872.5437787,-239.74609375,-271.484375,-203.61328125,-151.85546875,0.0
1734586872.547685,-243.65234375,-289.0625,-232.91015625,-172.36328125,0.0
1734586872.551591,-234.86328125,-288.0859375,-201.66015625,-162.109375,0.0
1734586872.5554972,-232.421875,-278.3203125,-185.05859375,-154.78515625,0.0
1734586872.5594032,-248.53515625,-275.87890625,-255.37109375,-140.13671875,0.0
1734586872.5934181,-254.39453125,-274.4140625,-291.9921875,-136.23046875,0.0
1734586872.5973244,-251.953125,-282.2265625,-210.44921875,-150.390625,0.0
1734586872.6012304,-224.609375,-298.33984375,-210.9375,-147.4609375,0.0
1734586872.6051366,-235.83984375,-287.109375,-243.65234375,-141.6015625,0.0
1734586872.609043,-271.97265625,-283.203125,-238.76953125,-134.27734375,0.0
1734586872.612949,-271.97265625,-289.55078125,-230.46875,-146.97265625,0.0
1734586872.6168551,-288.0859375,-279.78515625,-216.796875,-167.48046875,0.0
1734586872.6207614,-283.203125,-285.64453125,-246.58203125,-159.1796875,0.0
1734586872.6246674,-288.0859375,-291.50390625,-233.3984375,-156.25,0.0
1734586872.6285737,-310.05859375,-272.4609375,-169.921875,-175.29296875,0.0
1734586872.63248,-313.4765625,-259.765625,-198.73046875,-165.0390625,0.0
1734586872.6363862,-326.171875,-266.6015625,-213.37890625,-147.94921875,0.0
1734586872.6418433,-306.15234375,-267.578125,-199.70703125,-135.7421875,0.0
1734586872.6457496,-301.26953125,-260.7421875,-193.359375,-144.04296875,0.0
1734586872.6496556,-367.1875,-265.13671875,-221.6796875,-147.4609375,0.0
1734586872.6535618,-380.859375,-276.85546875,-251.953125,-135.7421875,0.0
1734586872.657468,-357.91015625,-262.6953125,-230.46875,-140.13671875,0.0
1734586872.661374,-360.3515625,-243.65234375,-227.5390625,-151.85546875,0.0
1734586872.6652803,-386.71875,-245.1171875,-242.67578125,-164.55078125,0.0
1734586872.6691866,-395.99609375,-239.2578125,-238.76953125,-157.2265625,0.0
1734586872.6730928,-385.7421875,-234.375,-182.12890625,-163.0859375,0.0
1734586872.6769989,-379.39453125,-239.74609375,-172.8515625,-162.59765625,0.0
1734586872.680905,-396.484375,-250.9765625,-208.0078125,-148.4375,0.0
1734586872.6848114,-398.4375,-254.39453125,-200.1953125,-134.765625,0.0
1734586872.6600752,-386.23046875,-252.9296875,-173.828125,-127.44140625,0.0
1734586872.6639812,-406.25,-253.41796875,-183.10546875,-150.390625,0.0
1734586872.6678874,-411.62109375,-250.0,-206.54296875,-150.390625,0.0
1734586872.6717937,-372.55859375,-253.90625,-209.47265625,-136.71875,0.0
1734586872.6756997,-350.09765625,-254.39453125,-187.5,-134.765625,0.0
1734586872.679606,-337.40234375,-251.46484375,-190.91796875,-111.328125,0.0
1734586872.6835122,-322.265625,-249.51171875,-222.65625,-127.9296875,0.0
1734586872.6874182,-304.6875,-247.55859375,-205.078125,-159.1796875,0.0
1734586872.6913245,-283.203125,-243.65234375,-183.10546875,-136.71875,0.0
1734586872.6952307,-269.04296875,-240.234375,-202.1484375,-125.48828125,0.0
1734586872.6991367,-276.85546875,-242.67578125,-247.0703125,-111.81640625,0.0
1734586872.703043,-290.52734375,-238.28125,-208.49609375,-131.34765625,0.0
1734586872.7233508,-261.23046875,-244.62890625,-143.06640625,-147.94921875,0.0
1734586872.727257,-267.578125,-262.6953125,-167.48046875,-133.30078125,0.0
1734586872.7311633,-286.1328125,-260.7421875,-187.01171875,-141.6015625,0.0
1734586872.7350693,-256.34765625,-257.32421875,-179.19921875,-141.6015625,0.0
1734586872.7389755,-218.75,-248.53515625,-182.6171875,-148.92578125,0.0
1734586872.7428818,-173.33984375,-228.515625,-217.28515625,-145.99609375,0.0
1734586872.7467878,-104.4921875,-230.46875,-225.09765625,-138.18359375,0.0
1734586872.750694,-55.6640625,-237.3046875,-155.2734375,-159.1796875,0.0
1734586872.7546003,-7.32421875,-234.86328125,-144.04296875,-145.99609375,0.0
1734586872.7585065,55.17578125,-236.328125,-194.82421875,-134.765625,0.0
1734586872.7624125,84.47265625,-235.3515625,-183.59375,-139.16015625,0.0
1734586872.7663188,69.82421875,-234.86328125,-154.296875,-153.3203125,0.0
1734586872.7575352,74.70703125,-246.09375,-165.52734375,-145.99609375,0.0
1734586872.7614415,58.10546875,-260.25390625,-182.12890625,-118.1640625,0.0
1734586872.7653477,54.19921875,-253.90625,-168.45703125,-133.30078125,0.0
1734586872.7692537,37.109375,-241.2109375,-170.41015625,-141.11328125,0.0
1734586872.77316,8.30078125,-236.81640625,-183.10546875,-127.9296875,0.0
1734586872.777066,27.83203125,-232.91015625,-205.56640625,-132.8125,0.0
1734586872.7809722,27.34375,-226.07421875,-179.19921875,-144.04296875,0.0
1734586872.7848785,19.04296875,-245.1171875,-124.0234375,-136.71875,0.0
1734586872.7887845,-7.8125,-261.71875,-145.01953125,-143.5546875,0.0
1734586872.7926908,12.20703125,-233.88671875,-170.8984375,-153.3203125,0.0
1734586872.796597,39.0625,-229.4921875,-165.52734375,-144.04296875,0.0
1734586872.800503,36.1328125,-252.44140625,-145.5078125,-130.859375,0.0
1734586872.8338642,31.73828125,-259.765625,-145.01953125,-133.30078125,0.0
1734586872.8377705,16.11328125,-249.51171875,-148.92578125,-140.13671875,0.0
1734586872.8416767,45.8984375,-235.3515625,-112.79296875,-137.20703125,0.0
1734586872.8455827,51.26953125,-232.421875,-64.453125,-135.25390625,0.0
1734586872.849489,28.3203125,-235.83984375,-46.875,-129.8828125,0.0
1734586872.8533952,38.0859375,-239.2578125,-62.98828125,-115.72265625,0.0
1734586872.8573015,44.43359375,-242.67578125,19.04296875,-114.74609375,0.0
1734586872.8612075,48.33984375,-250.0,72.265625,-111.81640625,0.0
1734586872.8651137,85.44921875,-250.48828125,31.25,-98.14453125,0.0
1734586872.86902,91.796875,-244.62890625,33.69140625,-90.33203125,0.0
1734586872.872926,63.4765625,-261.71875,73.2421875,-104.98046875,0.0
1734586872.8768322,65.4296875,-274.90234375,65.4296875,-114.74609375,0.0
1734586872.8575928,76.66015625,-253.90625,20.99609375,-108.88671875,0.0
1734586872.861499,65.4296875,-239.74609375,1.953125,-108.88671875,0.0
1734586872.865405,18.06640625,-242.67578125,14.16015625,-104.4921875,0.0
1734586872.8693113,-27.83203125,-248.53515625,3.41796875,-89.35546875,0.0
1734586872.8732176,-88.37890625,-260.7421875,-8.30078125,-109.86328125,0.0
1734586872.8771236,-136.71875,-270.5078125,-8.7890625,-134.27734375,0.0
1734586872.8810298,-163.57421875,-254.8828125,5.859375,-121.09375,0.0
1734586872.884936,-176.7578125,-244.140625,15.13671875,-105.95703125,0.0
1734586872.888842,-201.171875,-275.87890625,-55.17578125,-92.7734375,0.0
1734586872.8927484,-240.234375,-290.52734375,-55.6640625,-96.19140625,0.0
1734586872.8966546,-272.94921875,-262.6953125,3.41796875,-123.53515625,0.0
1734586872.9005606,-284.1796875,-246.09375,-34.1796875,-138.18359375,0.0
1734586872.9160364,-276.85546875,-257.8125,-54.6875,-115.234375,0.0
1734586872.9199426,-278.80859375,-278.80859375,-37.59765625,-98.6328125,0.0
1734586872.9238486,-314.94140625,-289.0625,-35.15625,-113.76953125,0.0
1734586872.9277549,-315.4296875,-273.92578125,-54.19921875,-106.93359375,0.0
1734586872.9316611,-320.3125,-227.5390625,-66.89453125,-108.88671875,0.0
1734586872.9355671,-354.4921875,-223.14453125,-74.70703125,-134.765625,0.0
1734586872.9394734,-357.91015625,-265.13671875,-67.87109375,-140.625,0.0
1734586872.9433796,-322.75390625,-293.45703125,-75.68359375,-121.58203125,0.0
1734586872.9472857,-333.0078125,-270.99609375,-106.4453125,-129.8828125,0.0
1734586872.951192,-378.90625,-204.1015625,-83.0078125,-179.6875,0.0
1734586872.9550982,-340.8203125,-184.08203125,-96.6796875,-182.6171875,0.0
1734586872.9590042,-304.6875,-207.03125,-133.30078125,-153.80859375,0.0
1734586872.9513829,-291.9921875,-221.19140625,-110.83984375,-145.01953125,0.0
1734586872.955289,-275.87890625,-222.65625,-83.984375,-144.53125,0.0
1734586872.9591951,-240.72265625,-229.98046875,-78.125,-122.55859375,0.0
1734586872.9631014,-197.265625,-238.76953125,-100.5859375,-104.98046875,0.0
1734586872.9670074,-204.58984375,-246.58203125,-105.95703125,-113.28125,0.0
1734586872.9709136,-214.35546875,-269.53125,-85.44921875,-121.09375,0.0
1734586872.97482,-226.5625,-270.99609375,-73.73046875,-152.83203125,0.0
1734586872.978726,-237.79296875,-243.65234375,-129.39453125,-142.08984375,0.0
1734586872.9826322,-226.5625,-224.609375,-124.0234375,-117.1875,0.0
1734586872.9865384,-216.30859375,-221.19140625,-54.19921875,-120.1171875,0.0
1734586872.9904444,-202.63671875,-240.234375,-80.56640625,-119.62890625,0.0
1734586872.9943507,-196.77734375,-263.18359375,-73.73046875,-115.234375,0.0
1734586873.0028749,-193.359375,-254.8828125,-58.59375,-104.98046875,0.0
1734586873.006781,-172.8515625,-240.234375,-58.59375,-100.5859375,0.0
1734586873.010687,-118.1640625,-243.65234375,-83.0078125,-88.8671875,0.0
1734586873.0145934,-70.3125,-240.234375,-104.4921875,-84.47265625,0.0
1734586873.0184996,-96.19140625,-233.88671875,-103.02734375,-103.02734375,0.0
1734586873.0224056,-117.1875,-226.5625,-104.98046875,-111.81640625,0.0
1734586873.0263119,-102.05078125,-206.0546875,-112.79296875,-101.07421875,0.0
1734586873.0302181,-79.1015625,-207.03125,-121.58203125,-91.30859375,0.0
1734586873.0341241,-46.875,-230.46875,-64.453125,-80.56640625,0.0
1734586873.0380304,-36.62109375,-232.421875,-40.52734375,-69.82421875,0.0
1734586873.0419366,-37.109375,-217.7734375,-98.14453125,-87.890625,0.0
1734586873.0458426,-41.015625,-212.890625,-102.5390625,-111.81640625,0.0
1734586873.0448413,-54.19921875,-208.984375,-60.05859375,-110.83984375,0.0
1734586873.0487475,-50.29296875,-213.8671875,-92.28515625,-100.5859375,0.0
1734586873.0526536,-26.85546875,-219.7265625,-112.79296875,-86.9140625,0.0
1734586873.0565598,-42.48046875,-221.6796875,-101.5625,-74.70703125,0.0
1734586873.060466,-48.828125,-222.65625,-99.12109375,-64.453125,0.0
1734586873.064372,-36.1328125,-234.86328125,-111.81640625,-60.05859375,0.0
1734586873.0682783,-29.296875,-247.55859375,-148.92578125,-58.59375,0.0
1734586873.0721846,-34.1796875,-250.0,-128.90625,-69.3359375,0.0
1734586873.0760906,-39.55078125,-229.4921875,-51.26953125,-98.6328125,0.0
1734586873.0799968,-28.3203125,-203.61328125,-54.19921875,-96.6796875,0.0
1734586873.083903,-34.1796875,-197.75390625,-62.98828125,-85.9375,0.0
1734586873.087809,-50.29296875,-206.0546875,-59.5703125,-84.47265625,0.0
1734586873.1163785,-48.33984375,-211.42578125,-75.68359375,-80.078125,0.0
1734586873.1202848,-33.203125,-209.9609375,-85.9375,-77.63671875,0.0
1734586873.124191,-31.73828125,-221.19140625,-82.51953125,-68.84765625,0.0
1734586873.1280973,-38.0859375,-239.74609375,-84.47265625,-71.77734375,0.0
1734586873.1320033,-26.85546875,-231.4453125,-122.0703125,-66.40625,0.0
1734586873.1359096,-36.62109375,-208.0078125,-156.25,-66.89453125,0.0
1734586873.1398158,-60.546875,-200.68359375,-145.99609375,-85.44921875,0.0
1734586873.143722,-22.94921875,-176.26953125,-62.98828125,-95.703125,0.0
1734586873.147628,-49.31640625,-191.40625,-55.17578125,-98.14453125,0.0
1734586873.1515343,-70.3125,-241.2109375,-89.35546875,-77.63671875,0.0
1734586873.1554406,-44.921875,-220.21484375,-82.03125,-83.49609375,0.0
1734586873.1593466,-73.73046875,-185.546875,-76.66015625,-124.51171875,0.0
1734586873.1215816,-41.50390625,-185.546875,-65.4296875,-111.328125,0.0
1734586873.1254878,37.109375,-188.4765625,-95.21484375,-65.91796875,0.0
1734586873.1293938,43.9453125,-187.98828125,-89.84375,-68.359375,0.0
1734586873.1333,-3.41796875,-190.91796875,-93.26171875,-104.98046875,0.0
1734586873.1372063,2.9296875,-189.94140625,-139.6484375,-89.84375,0.0
1734586873.1411123,40.0390625,-182.6171875,-120.1171875,-59.08203125,0.0
1734586873.1450186,50.29296875,-187.98828125,-87.40234375,-91.30859375,0.0
1734586873.1489246,34.66796875,-200.68359375,-88.8671875,-110.3515625,0.0
1734586873.1528308,20.01953125,-209.47265625,-80.56640625,-113.76953125,0.0
1734586873.156737,62.98828125,-239.2578125,-107.421875,-95.703125,0.0
1734586873.160643,106.93359375,-225.5859375,-95.703125,-54.6875,0.0
1734586873.1645494,136.23046875,-162.59765625,-43.9453125,-43.9453125,0.0
1734586873.2140393,175.78125,-148.92578125,-78.125,-44.43359375,0.0
1734586873.2179456,147.4609375,-187.98828125,-104.4921875,-97.65625,0.0
1734586873.2218516,112.3046875,-199.21875,-69.82421875,-147.4609375,0.0
1734586873.2257578,161.62109375,-175.29296875,-17.08984375,-129.39453125,0.0
1734586873.229664,191.89453125,-166.015625,-45.41015625,-121.09375,0.0
1734586873.2335703,163.57421875,-176.7578125,-90.8203125,-110.3515625,0.0
1734586873.2374763,178.22265625,-183.10546875,-67.87109375,-98.14453125,0.0
1734586873.2413826,186.03515625,-200.1953125,-41.015625,-90.8203125,0.0
1734586873.2452888,187.5,-203.125,-58.59375,-67.87109375,0.0
1734586873.249195,183.10546875,-207.51953125,-80.56640625,-72.265625,0.0
1734586873.253101,154.296875,-224.609375,-54.19921875,-88.37890625,0.0
1734586873.2570074,155.2734375,-208.49609375,-53.7109375,-88.8671875,0.0
1734586873.2278423,195.80078125,-187.01171875,-72.265625,-88.8671875,0.0
1734586873.2317486,201.66015625,-193.84765625,-79.1015625,-89.84375,0.0
1734586873.2356546,192.3828125,-187.5,-73.73046875,-80.56640625,0.0
1734586873.2395608,225.09765625,-179.19921875,-116.2109375,-58.10546875,0.0
1734586873.2434669,245.60546875,-184.5703125,-134.765625,-56.640625,0.0
1734586873.247373,254.8828125,-190.4296875,-96.6796875,-55.17578125,0.0
1734586873.2512794,226.5625,-224.12109375,-44.43359375,-20.99609375,0.0
1734586873.2551854,180.6640625,-222.16796875,-23.92578125,-38.57421875,0.0
1734586873.2590916,133.7890625,-177.24609375,-102.5390625,-78.61328125,0.0
1734586873.2629979,91.30859375,-150.390625,-88.37890625,-75.68359375,0.0
1734586873.2669039,67.87109375,-145.99609375,-25.87890625,-79.58984375,0.0
1734586873.2708101,63.4765625,-161.62109375,-80.56640625,-57.12890625,0.0
1734586873.2939112,40.0390625,-168.9453125,-95.21484375,-49.8046875,0.0
1734586873.2978172,53.7109375,-167.48046875,-64.453125,-68.359375,0.0
1734586873.3017235,77.1484375,-155.76171875,-61.5234375,-44.43359375,0.0
1734586873.3056297,52.734375,-162.109375,-71.2890625,-44.921875,0.0
1734586873.3095357,57.12890625,-186.03515625,-84.47265625,-57.12890625,0.0
1734586873.313442,75.68359375,-173.33984375,-82.51953125,-58.10546875,0.0
1734586873.3173482,42.96875,-152.34375,-52.734375,-48.828125,0.0
1734586873.3212543,35.64453125,-159.1796875,-73.73046875,-40.52734375,0.0
1734586873.3251605,32.2265625,-181.15234375,-131.8359375,-34.1796875,0.0
1734586873.3290668,29.296875,-168.9453125,-71.77734375,-36.62109375,0.0
1734586873.332973,19.04296875,-163.0859375,-50.78125,-54.19921875,0.0
1734586873.336879,-32.2265625,-194.82421875,-74.70703125,-52.24609375,0.0
1734586873.3511748,-76.66015625,-203.125,-64.453125,-54.19921875,0.0
1734586873.355081,-83.984375,-166.50390625,-69.82421875,-48.828125,0.0
1734586873.358987,-80.078125,-145.01953125,-88.8671875,-26.3671875,0.0
1734586873.3628933,-106.4453125,-162.59765625,-122.0703125,-27.34375,0.0
1734586873.3667996,-120.60546875,-165.0390625,-103.02734375,-53.22265625,0.0
1734586873.3707058,-147.4609375,-142.578125,-65.91796875,-69.82421875,0.0
1734586873.3746119,-162.109375,-145.01953125,-55.6640625,-54.6875,0.0
1734586873.378518,-125.48828125,-177.734375,-102.5390625,-26.3671875,0.0
1734586873.3824244,-125.0,-177.734375,-115.234375,-27.83203125,0.0
1734586873.3863304,-117.1875,-154.78515625,-61.5234375,-35.64453125,0.0
1734586873.3902366,-70.80078125,-147.4609375,-88.37890625,-29.78515625,0.0
1734586873.3941429,-80.56640625,-166.50390625,-114.2578125,-29.296875,0.0
1734586873.362696,-83.984375,-175.29296875,-91.30859375,-49.8046875,0.0
1734586873.366602,-68.84765625,-168.9453125,-48.828125,-50.78125,0.0
1734586873.3705082,-69.3359375,-175.78125,-57.6171875,-40.52734375,0.0
1734586873.3744144,-78.125,-150.87890625,-83.0078125,-50.29296875,0.0
1734586873.3783205,-75.1953125,-115.234375,-86.9140625,-62.01171875,0.0
1734586873.3822267,-92.28515625,-138.671875,-104.4921875,-63.4765625,0.0
1734586873.386133,-92.28515625,-168.45703125,-114.74609375,-56.640625,0.0
1734586873.390039,-74.70703125,-152.83203125,-124.51171875,-64.94140625,0.0
1734586873.3939452,-73.2421875,-122.0703125,-92.7734375,-58.59375,0.0
1734586873.3978515,-75.1953125,-122.55859375,-67.3828125,-53.7109375,0.0
1734586873.4017575,-70.3125,-144.04296875,-107.91015625,-54.19921875,0.0
1734586873.4056637,-55.17578125,-147.4609375,-125.9765625,-38.0859375,0.0
1734586873.4297192,-57.12890625,-147.4609375,-64.94140625,-47.36328125,0.0
1734586873.4336255,-33.69140625,-155.76171875,-82.03125,-23.92578125,0.0
1734586873.4375315,3.90625,-139.16015625,-133.7890625,-20.5078125,0.0
1734586873.4414377,-39.0625,-131.8359375,-110.3515625,-67.87109375,0.0
1734586873.445344,-63.96484375,-139.6484375,-63.96484375,-87.40234375,0.0
1734586873.44925,-41.015625,-149.90234375,-52.734375,-96.19140625,0.0
1734586873.4531562,-31.73828125,-157.2265625,-122.55859375,-70.3125,0.0
1734586873.4570625,-28.80859375,-138.18359375,-136.71875,-42.96875,0.0
1734586873.4609685,-11.71875,-118.65234375,-54.6875,-47.8515625,0.0
1734586873.4648747,-21.97265625,-117.67578125,-46.875,-42.96875,0.0
1734586873.468781,-59.08203125,-133.7890625,-73.73046875,-53.7109375,0.0
1734586873.472687,-38.57421875,-144.53125,-80.56640625,-61.5234375,0.0
1734586873.4590888,-24.4140625,-143.06640625,-49.31640625,-45.41015625,0.0
1734586873.462995,-26.85546875,-146.484375,-62.5,-49.31640625,0.0
1734586873.4669013,-0.9765625,-143.06640625,-107.421875,-60.05859375,0.0
1734586873.4708073,-3.90625,-138.18359375,-95.21484375,-62.5,0.0
1734586873.4747136,-6.34765625,-145.5078125,-57.12890625,-61.5234375,0.0
1734586873.4786196,20.99609375,-153.3203125,-82.03125,-52.734375,0.0
1734586873.4825258,14.6484375,-151.85546875,-112.79296875,-47.8515625,0.0
1734586873.486432,-0.9765625,-132.8125,-62.5,-59.08203125,0.0
1734586873.490338,8.7890625,-109.375,-53.22265625,-69.82421875,0.0
1734586873.4942443,22.4609375,-106.93359375,-132.8125,-47.36328125,0.0
1734586873.4981506,21.97265625,-131.34765625,-134.765625,-20.5078125,0.0
1734586873.5020566,22.94921875,-156.25,-54.6875,-35.64453125,0.0
1734586873.5387053,10.7421875,-149.4140625,-47.36328125,-67.3828125,0.0
1734586873.5426114,14.6484375,-123.53515625,-96.6796875,-65.91796875,0.0
1734586873.5465176,45.41015625,-98.6328125,-106.93359375,-40.52734375,0.0
1734586873.5504239,62.5,-130.859375,-110.3515625,-34.1796875,0.0
1734586873.5543299,35.64453125,-179.6875,-101.07421875,-49.31640625,0.0
1734586873.5582361,15.13671875,-148.4375,-103.515625,-53.7109375,0.0
1734586873.5621424,21.97265625,-114.2578125,-92.28515625,-50.78125,0.0
1734586873.5660486,20.01953125,-113.28125,-50.29296875,-61.03515625,0.0
1734586873.5699546,19.53125,-114.74609375,-83.49609375,-76.66015625,0.0
1734586873.573861,41.015625,-116.2109375,-113.76953125,-76.171875,0.0
1734586873.5777671,30.2734375,-112.79296875,-87.890625,-74.70703125,0.0
1734586873.5816731,4.8828125,-111.328125,-75.68359375,-70.80078125,0.0
1734586873.5632634,0.0,-113.76953125,-102.05078125,-50.29296875,0.0
1734586873.5671694,0.0,-104.00390625,-99.609375,-43.45703125,0.0
1734586873.5710757,0.0,-104.4921875,-49.8046875,-41.9921875,0.0
1734586873.574982,0.0,-118.1640625,-46.875,-46.38671875,0.0
1734586873.578888,0.0,-117.1875,-83.984375,-60.546875,0.0
1734586873.5827942,0.0,-110.3515625,-101.07421875,-56.15234375,0.0
1734586873.5867004,0.0,-106.93359375,-97.16796875,-59.08203125,0.0
1734586873.5906065,0.0,-103.515625,-83.0078125,-69.82421875,0.0
1734586873.5945127,0.0,-100.5859375,-123.046875,-75.68359375,0.0
1734586873.598419,0.0,-94.23828125,-153.3203125,-73.2421875,0.0
1734586873.602325,0.0,-95.21484375,-68.359375,-70.80078125,0.0
1734586873.6062312,0.0,-134.27734375,-46.38671875,-53.7109375,0.0
1734586873.6208973,-93.26171875,-143.5546875,-78.125,-35.64453125,0.0
1734586873.6248035,-111.328125,-104.00390625,-96.19140625,-36.62109375,0.0
1734586873.6287098,-142.578125,-94.7265625,-103.515625,-44.921875,0.0
1734586873.632616,-171.38671875,-98.14453125,-102.5390625,-62.01171875,0.0
1734586873.636522,-188.96484375,-110.83984375,-122.0703125,-68.84765625,0.0
1734586873.6404283,-188.96484375,-120.60546875,-108.88671875,-67.3828125,0.0
1734586873.6443346,-182.12890625,-113.76953125,-72.75390625,-43.9453125,0.0
1734586873.6482406,-180.6640625,-111.328125,-72.265625,-37.109375,0.0
1734586873.6521468,-198.2421875,-127.9296875,-133.7890625,-64.94140625,0.0
1734586873.656053,-250.9765625,-139.6484375,-107.91015625,-68.84765625,0.0
1734586873.659959,-238.76953125,-136.71875,-54.6875,-72.265625,0.0
1734586873.6638653,-216.30859375,-138.18359375,-94.23828125,-67.87109375,0.0
1734586873.6576107,-194.82421875,-124.51171875,-83.49609375,-41.9921875,0.0
1734586873.661517,-177.734375,-122.55859375,-86.42578125,-30.2734375,0.0
1734586873.6654232,-198.73046875,-131.8359375,-112.79296875,-46.875,0.0
1734586873.6693292,-195.80078125,-142.08984375,-117.67578125,-55.17578125,0.0
1734586873.6732354,-210.44921875,-147.94921875,-110.3515625,-57.12890625,0.0
1734586873.6771417,-231.4453125,-138.18359375,-111.81640625,-57.6171875,0.0
1734586873.6810477,-214.35546875,-135.7421875,-107.91015625,-49.31640625,0.0
1734586873.684954,-181.640625,-126.953125,-111.81640625,-39.55078125,0.0
1734586873.6888602,-173.828125,-125.48828125,-123.53515625,-39.55078125,0.0
1734586873.6927662,-200.1953125,-128.41796875,-72.75390625,-66.89453125,0.0
1734586873.6966724,-199.21875,-118.1640625,-73.73046875,-74.21875,0.0
1734586873.7005787,-177.24609375,-117.67578125,-112.3046875,-58.10546875,0.0
1734586873.708676,-159.66796875,-120.60546875,-116.2109375,-51.7578125,0.0
1734586873.7125823,-156.25,-117.1875,-101.5625,-45.41015625,0.0
1734586873.7164886,-156.73828125,-120.1171875,-100.09765625,-37.59765625,0.0
1734586873.7203946,-156.73828125,-123.53515625,-128.41796875,-44.43359375,0.0
1734586873.7243009,-167.96875,-114.74609375,-132.32421875,-54.6875,0.0
1734586873.728207,-169.921875,-110.3515625,-126.953125,-50.29296875,0.0
1734586873.7321131,-151.3671875,-114.2578125,-118.1640625,-54.6875,0.0
1734586873.7360194,-163.57421875,-126.953125,-145.01953125,-46.38671875,0.0
1734586873.7399256,-165.0390625,-128.41796875,-121.58203125,-26.3671875,0.0
1734586873.7438316,-145.01953125,-122.55859375,-53.7109375,-31.25,0.0
1734586873.747738,-148.4375,-121.58203125,-85.9375,-41.9921875,0.0
1734586873.7516441,-140.625,-113.28125,-102.05078125,-28.80859375,0.0
1734586873.748609,-144.53125,-118.1640625,-89.35546875,-27.34375,0.0
1734586873.752515,-161.62109375,-137.6953125,-93.26171875,-41.015625,0.0
1734586873.7564213,-165.0390625,-137.20703125,-111.81640625,-48.33984375,0.0
1734586873.7603276,-203.61328125,-132.8125,-121.58203125,-67.3828125,0.0
1734586873.7642336,-216.796875,-125.48828125,-95.703125,-52.734375,0.0
1734586873.7681398,-223.14453125,-132.8125,-104.4921875,-48.33984375,0.0
1734586873.772046,-255.859375,-134.27734375,-146.97265625,-41.9921875,0.0
1734586873.775952,-274.4140625,-125.0,-161.1328125,-28.3203125,0.0
1734586873.7798584,-265.13671875,-123.046875,-84.9609375,-24.4140625,0.0
1734586873.7837646,-270.99609375,-115.234375,-71.77734375,-27.34375,0.0
1734586873.7876706,-291.015625,-110.83984375,-129.39453125,-42.48046875,0.0
1734586873.7915769,-294.921875,-125.0,-120.1171875,-67.3828125,0.0
1734586873.8223372,-294.921875,-136.23046875,-68.359375,-83.0078125,0.0
1734586873.8262432,-286.1328125,-138.18359375,-70.3125,-76.171875,0.0
1734586873.8301494,-253.90625,-142.08984375,-96.6796875,-65.91796875,0.0
1734586873.8340557,-220.21484375,-138.671875,-103.515625,-66.40625,0.0
1734586873.8379617,-212.890625,-141.6015625,-100.5859375,-78.125,0.0
1734586873.841868,-176.26953125,-132.8125,-95.703125,-70.80078125,0.0
1734586873.8457742,-153.80859375,-132.32421875,-134.27734375,-57.12890625,0.0
1734586873.8496804,-137.20703125,-130.859375,-124.51171875,-41.015625,0.0
1734586873.8535864,-89.84375,-131.8359375,-60.05859375,-18.5546875,0.0
1734586873.8574927,-74.70703125,-170.8984375,-63.96484375,-21.97265625,0.0
1734586873.861399,-104.98046875,-174.8046875,-76.66015625,-58.59375,0.0
1734586873.8653052,-114.74609375,-131.8359375,-83.49609375,-76.66015625,0.0
1734586873.8234656,-98.6328125,-107.421875,-99.12109375,-65.4296875,0.0
1734586873.8273716,-70.80078125,-105.46875,-99.609375,-41.015625,0.0
1734586873.8312778,-56.15234375,-120.1171875,-88.8671875,-30.2734375,0.0
1734586873.835184,-36.1328125,-130.859375,-64.94140625,-24.90234375,0.0
1734586873.83909,-21.484375,-128.90625,-42.48046875,-24.4140625,0.0
1734586873.8429964,-55.6640625,-139.16015625,-86.42578125,-54.19921875,0.0
1734586873.8469024,-67.3828125,-154.296875,-99.609375,-73.73046875,0.0
1734586873.8508086,-29.296875,-146.484375,-41.9921875,-55.6640625,0.0
1734586873.8547149,-32.71484375,-156.73828125,-38.0859375,-48.33984375,0.0
1734586873.858621,-49.31640625,-177.734375,-88.37890625,-41.015625,0.0
1734586873.8625271,-45.41015625,-145.01953125,-111.328125,-42.48046875,0.0
1734586873.8664334,-66.40625,-106.93359375,-44.43359375,-64.453125,0.0
1734586873.9227836,-87.890625,-125.48828125,-42.96875,-75.68359375,0.0
1734586873.9266899,-77.63671875,-146.484375,-80.078125,-62.98828125,0.0
1734586873.9305959,-66.40625,-148.92578125,-66.89453125,-42.48046875,0.0
1734586873.9345021,-64.453125,-151.3671875,-61.5234375,-47.36328125,0.0
1734586873.9384084,-82.51953125,-152.34375,-57.12890625,-65.91796875,0.0
1734586873.9423146,-100.09765625,-154.296875,-76.171875,-81.0546875,0.0
1734586873.9462206,-65.91796875,-141.6015625,-54.6875,-63.96484375,0.0
1734586873.950127,-33.69140625,-144.04296875,-7.8125,-59.5703125,0.0
1734586873.9540331,-20.01953125,-176.26953125,-23.4375,-49.8046875,0.0
1734586873.9579394,-7.32421875,-184.5703125,-62.01171875,-37.109375,0.0
1734586873.9618454,-5.37109375,-170.41015625,-55.6640625,-47.36328125,0.0
1734586873.9657516,23.92578125,-151.85546875,-43.9453125,-59.08203125,0.0
1734586873.9311926,29.78515625,-129.8828125,-71.2890625,-47.8515625,0.0
1734586873.9350986,3.41796875,-131.8359375,-78.125,-55.17578125,0.0
1734586873.939005,21.97265625,-141.11328125,-72.265625,-63.4765625,0.0
1734586873.9429111,36.62109375,-156.73828125,-64.453125,-55.17578125,0.0
1734586873.9468172,52.24609375,-161.62109375,-76.66015625,-55.17578125,0.0
1734586873.9507234,78.61328125,-147.94921875,-91.796875,-30.2734375,0.0
1734586873.9546297,81.54296875,-154.296875,-61.5234375,-21.97265625,0.0
1734586873.9585357,73.73046875,-164.55078125,-41.50390625,-44.43359375,0.0
1734586873.962442,72.265625,-158.69140625,-104.98046875,-28.3203125,0.0
1734586873.9663482,91.30859375,-167.48046875,-133.30078125,-20.01953125,0.0
1734586873.9702542,109.86328125,-169.43359375,-54.19921875,-27.34375,0.0
1734586873.9741604,106.93359375,-161.62109375,-39.55078125,-32.71484375,0.0
1734586874.0248535,97.65625,-167.48046875,-98.14453125,-47.8515625,0.0
1734586874.0287595,88.37890625,-152.34375,-80.56640625,-47.36328125,0.0
1734586874.0326657,66.89453125,-128.90625,-37.59765625,-44.921875,0.0
1734586874.036572,76.66015625,-137.20703125,-70.80078125,-34.66796875,0.0
1734586874.0404782,95.703125,-150.87890625,-95.703125,-37.109375,0.0
1734586874.0443842,83.984375,-160.64453125,-92.7734375,-48.828125,0.0
1734586874.0482905,106.4453125,-171.875,-62.98828125,-47.8515625,0.0
1734586874.0521967,134.27734375,-176.7578125,-39.55078125,-34.66796875,0.0
1734586874.056103,128.90625,-183.10546875,-96.19140625,-15.13671875,0.0
1734586874.0600092,126.46484375,-198.73046875,-94.7265625,-5.37109375,0.0
1734586874.0639153,98.14453125,-209.47265625,-59.5703125,-41.50390625,0.0
1734586874.0678215,87.890625,-223.14453125,-104.4921875,-41.9921875,0.0
1734586874.0364456,104.4921875,-225.5859375,-100.5859375,-18.5546875,0.0
1734586874.0403516,81.54296875,-246.09375,-72.75390625,-42.96875,0.0
1734586874.0442579,64.94140625,-274.4140625,-74.70703125,-56.640625,0.0
1734586874.0481641,69.82421875,-287.109375,-98.6328125,-53.22265625,0.0
1734586874.0520701,54.6875,-286.1328125,-125.9765625,-37.109375,0.0
1734586874.0559764,49.8046875,-280.2734375,-119.140625,-28.80859375,0.0
1734586874.0598826,55.17578125,-294.921875,-90.8203125,-42.96875,0.0
1734586874.0637887,44.43359375,-298.33984375,-101.07421875,-53.7109375,0.0
1734586874.067695,58.59375,-278.80859375,-91.796875,-42.96875,0.0
1734586874.0716012,55.17578125,-260.7421875,-58.10546875,-35.15625,0.0
1734586874.0755072,27.34375,-253.41796875,-75.1953125,-49.31640625,0.0
1734586874.0794134,29.78515625,-253.41796875,-119.62890625,-34.66796875,0.0
1734586874.0815964,24.4140625,-257.32421875,-123.046875,-18.06640625,0.0
1734586874.0855024,4.8828125,-255.37109375,-67.87109375,-35.64453125,0.0
1734586874.0894086,7.8125,-241.2109375,-80.56640625,-35.15625,0.0
1734586874.093315,13.671875,-233.3984375,-112.79296875,-17.08984375,0.0
1734586874.097221,-23.92578125,-244.62890625,-96.19140625,-15.625,0.0
1734586874.1011271,-53.22265625,-236.81640625,-88.8671875,-29.78515625,0.0
1734586874.1050334,-52.24609375,-224.609375,-95.703125,-31.73828125,0.0
1734586874.1089394,-57.6171875,-229.4921875,-88.8671875,-14.6484375,0.0
1734586874.1128457,-54.6875,-229.00390625,-65.91796875,-6.8359375,0.0
1734586874.116752,-40.52734375,-222.16796875,-66.89453125,-9.765625,0.0
1734586874.120658,-61.03515625,-221.19140625,-74.21875,-24.4140625,0.0
1734586874.1245642,-73.2421875,-230.95703125,-103.515625,-22.94921875,0.0
1734586874.1252358,-74.21875,-221.6796875,-93.75,-28.3203125,0.0
1734586874.129142,-93.26171875,-203.125,-56.640625,-38.0859375,0.0
1734586874.1330483,-94.23828125,-193.84765625,-93.26171875,-40.52734375,0.0
1734586874.1369543,-110.83984375,-190.4296875,-107.91015625,-52.734375,0.0
1734586874.1408606,-101.07421875,-179.6875,-89.35546875,-29.296875,0.0
1734586874.1447668,-81.0546875,-170.41015625,-91.30859375,-15.625,0.0
1734586874.1486728,-95.21484375,-185.05859375,-120.1171875,-39.0625,0.0
1734586874.152579,-90.8203125,-187.5,-128.41796875,-19.04296875,0.0
1734586874.1564853,-83.0078125,-185.05859375,-64.453125,-2.44140625,0.0
1734586874.1603913,-85.44921875,-194.3359375,-54.19921875,-18.5546875,0.0
1734586874.1642976,-96.6796875,-180.6640625,-122.0703125,-23.92578125,0.0
1734586874.1682038,-99.609375,-172.36328125,-122.55859375,-30.2734375,0.0
1734586874.171149,-97.65625,-175.29296875,-93.75,-35.15625,0.0
1734586874.175055,-85.44921875,-188.4765625,-100.5859375,-25.87890625,0.0
1734586874.1789613,-75.68359375,-208.984375,-109.375,-22.94921875,0.0
1734586874.1828675,-99.12109375,-198.73046875,-137.20703125,-46.875,0.0
1734586874.1867735,-108.88671875,-157.2265625,-113.28125,-58.59375,0.0
1734586874.1906798,-113.28125,-142.578125,-81.0546875,-36.1328125,0.0
1734586874.194586,-127.9296875,-157.71484375,-125.0,-27.83203125,0.0
1734586874.198492,-155.2734375,-168.9453125,-127.9296875,-50.29296875,0.0
1734586874.2023983,-179.19921875,-173.828125,-75.1953125,-83.984375,0.0
1734586874.2063043,-133.7890625,-159.66796875,-73.2421875,-41.9921875,0.0
1734586874.2102106,-131.34765625,-175.78125,-65.91796875,-8.30078125,0.0
1734586874.2141168,-156.25,-209.9609375,-56.15234375,-17.08984375,0.0
1734586874.215304,-141.6015625,-184.5703125,-73.2421875,-18.5546875,0.0
1734586874.21921,-147.4609375,-157.71484375,-118.1640625,-28.3203125,0.0
1734586874.2231162,-140.625,-152.34375,-133.30078125,-32.2265625,0.0
1734586874.2270224,-144.04296875,-143.5546875,-109.375,-25.390625,0.0
1734586874.2309284,-155.2734375,-137.20703125,-84.9609375,-12.20703125,0.0
1734586874.2348347,-139.16015625,-142.08984375,-102.5390625,-13.18359375,0.0
1734586874.238741,-144.04296875,-151.3671875,-135.25390625,-13.18359375,0.0
1734586874.242647,-140.625,-151.85546875,-79.58984375,-1.953125,0.0
1734586874.2465532,-141.6015625,-156.25,-62.5,-13.18359375,0.0
1734586874.2504594,-161.1328125,-162.59765625,-104.4921875,-20.5078125,0.0
1734586874.2543654,-156.25,-157.2265625,-98.14453125,-33.69140625,0.0
1734586874.2582717,-146.97265625,-148.92578125,-68.84765625,-41.50390625,0.0
1734586874.2627914,-137.6953125,-146.484375,-76.171875,-24.4140625,0.0
1734586874.2666976,-119.140625,-136.23046875,-91.30859375,-9.27734375,0.0
1734586874.270604,-122.55859375,-145.01953125,-103.515625,-25.390625,0.0
1734586874.27451,-118.65234375,-173.828125,-109.375,-33.69140625,0.0
1734586874.2784162,-92.28515625,-177.734375,-92.28515625,-24.4140625,0.0
1734586874.2823224,-96.19140625,-156.25,-120.1171875,-23.92578125,0.0
1734586874.2862284,-103.02734375,-133.7890625,-119.140625,-13.671875,0.0
1734586874.2901347,-92.28515625,-118.1640625,-73.2421875,-7.8125,0.0
1734586874.294041,-96.19140625,-118.1640625,-82.51953125,-20.01953125,0.0
1734586874.297947,-101.07421875,-134.765625,-108.3984375,-30.2734375,0.0
1734586874.3018532,-90.33203125,-144.04296875,-86.42578125,-35.15625,0.0
1734586874.3057594,-70.3125,-151.3671875,-62.98828125,-27.34375,0.0
1734586874.329479,-54.19921875,-146.97265625,-77.1484375,-9.765625,0.0
1734586874.3333852,-39.0625,-130.37109375,-89.84375,-8.30078125,0.0
1734586874.3372912,-29.78515625,-128.90625,-74.70703125,-8.30078125,0.0
1734586874.3411975,-32.71484375,-138.671875,-64.453125,-18.06640625,0.0
1734586874.3451037,-33.69140625,-142.08984375,-90.8203125,-31.73828125,0.0
1734586874.3490098,-47.8515625,-152.34375,-124.51171875,-52.734375,0.0
1734586874.352916,-36.1328125,-152.83203125,-95.21484375,-41.50390625,0.0
1734586874.3568223,-9.27734375,-138.18359375,-60.05859375,-5.859375,0.0
1734586874.3607285,-6.34765625,-137.6953125,-96.19140625,-21.97265625,0.0
1734586874.3646345,-20.99609375,-139.6484375,-120.1171875,-49.8046875,0.0
1734586874.3685408,-35.15625,-144.04296875,-104.98046875,-56.15234375,0.0
1734586874.372447,-21.484375,-145.99609375,-87.890625,-49.8046875,0.0
1734586874.3602946,7.8125,-130.37109375,-113.76953125,-24.4140625,0.0
1734586874.3642008,5.37109375,-126.953125,-122.55859375,-17.08984375,0.0
1734586874.368107,5.859375,-139.16015625,-69.3359375,-16.11328125,0.0
1734586874.372013,16.11328125,-145.5078125,-96.19140625,-11.71875,0.0
1734586874.3759193,0.0,-141.6015625,-130.37109375,-34.66796875,0.0
1734586874.3798256,-19.53125,-138.18359375,-120.1171875,-44.921875,0.0
1734586874.3837316,-27.34375,-133.7890625,-83.0078125,-41.50390625,0.0
1734586874.3876379,-26.3671875,-125.48828125,-69.82421875,-46.875,0.0
1734586874.391544,-27.83203125,-122.0703125,-131.8359375,-32.2265625,0.0
1734586874.39545,-37.59765625,-115.72265625,-118.65234375,-12.20703125,0.0
1734586874.3993564,-42.48046875,-105.46875,-47.8515625,-19.53125,0.0
1734586874.4032626,-41.015625,-104.98046875,-80.56640625,-16.6015625,0.0
1734586874.4143713,-52.24609375,-113.28125,-125.9765625,-26.3671875,0.0
1734586874.4182775,-52.24609375,-127.9296875,-100.09765625,-17.578125,0.0
1734586874.4221838,-50.78125,-148.4375,-51.7578125,-4.8828125,0.0
1734586874.4260898,-72.265625,-143.5546875,-76.171875,-29.296875,0.0
1734586874.429996,-77.63671875,-115.72265625,-89.84375,-34.66796875,0.0
1734586874.4339023,-81.54296875,-111.328125,-86.42578125,-29.78515625,0.0
1734586874.4378083,-97.65625,-114.2578125,-69.82421875,-33.69140625,0.0
1734586874.4417145,-89.35546875,-122.0703125,-78.125,-29.296875,0.0
1734586874.4456208,-70.80078125,-151.85546875,-111.328125,-26.85546875,0.0
1734586874.4495268,-80.078125,-150.390625,-66.40625,-47.36328125,0.0
1734586874.453433,-102.05078125,-141.11328125,-67.87109375,-53.22265625,0.0
1734586874.4573393,-113.28125,-149.4140625,-110.3515625,-36.62109375,0.0
1734586874.4528837,-104.00390625,-140.13671875,-109.375,-36.1328125,0.0
1734586874.45679,-104.00390625,-132.32421875,-89.35546875,-43.9453125,0.0
1734586874.460696,-101.07421875,-128.90625,-100.09765625,-17.578125,0.0
1734586874.4646022,-107.421875,-136.71875,-122.0703125,-6.34765625,0.0
1734586874.4685085,-128.41796875,-135.25390625,-109.375,-29.78515625,0.0
1734586874.4724145,-136.71875,-111.81640625,-80.56640625,-37.59765625,0.0
1734586874.4763207,-155.76171875,-111.81640625,-73.73046875,-40.0390625,0.0
1734586874.480227,-147.94921875,-130.37109375,-103.02734375,-34.1796875,0.0
1734586874.484133,-153.3203125,-129.8828125,-87.40234375,-22.94921875,0.0
1734586874.4880393,-166.015625,-126.953125,-50.78125,-42.96875,0.0
1734586874.4919455,-169.43359375,-127.44140625,-78.61328125,-49.31640625,0.0
1734586874.4958515,-169.921875,-125.0,-92.7734375,-46.875,0.0
1734586874.5024698,-151.3671875,-133.7890625,-73.73046875,-47.8515625,0.0
1734586874.506376,-129.39453125,-119.62890625,-63.4765625,-31.25,0.0
1734586874.510282,-108.88671875,-125.48828125,-80.078125,-16.6015625,0.0
1734586874.5141883,-110.3515625,-135.7421875,-75.1953125,-19.53125,0.0
1734586874.5180945,-108.88671875,-123.53515625,-90.33203125,-18.06640625,0.0
1734586874.5220006,-90.8203125,-136.23046875,-113.28125,-1.46484375,0.0
1734586874.5259068,-100.09765625,-145.01953125,-119.140625,-14.16015625,0.0
1734586874.529813,-98.14453125,-125.48828125,-120.1171875,-8.7890625,0.0
1734586874.5337193,-85.44921875,-128.41796875,-34.66796875,-11.71875,0.0
1734586874.5376253,-118.1640625,-138.18359375,-12.20703125,-49.8046875,0.0
1734586874.5415316,-133.7890625,-130.859375,-74.21875,-63.4765625,0.0
1734586874.5454378,-116.2109375,-115.234375,-88.37890625,-62.98828125,0.0
1734586874.5704534,-112.3046875,-112.79296875,-57.12890625,-65.4296875,0.0
1734586874.5743597,-106.93359375,-111.81640625,-64.453125,-47.8515625,0.0
1734586874.578266,-87.40234375,-105.95703125,-112.79296875,-22.94921875,0.0
1734586874.5821722,-82.51953125,-116.69921875,-96.19140625,-20.01953125,0.0
1734586874.5860782,-82.03125,-127.9296875,-46.875,-20.01953125,0.0
1734586874.5899844,-84.47265625,-138.18359375,-53.7109375,-24.4140625,0.0
1734586874.5938907,-54.6875,-135.7421875,-103.02734375,3.90625,0.0
1734586874.5977967,-56.15234375,-131.8359375,-105.46875,30.2734375,0.0
1734586874.601703,-94.7265625,-131.34765625,-60.546875,-16.6015625,0.0
1734586874.6056092,-105.95703125,-133.7890625,-74.70703125,-49.8046875,0.0
1734586874.6095154,-107.91015625,-121.58203125,-80.078125,-33.203125,0.0
1734586874.6134214,-107.91015625,-93.75,-61.03515625,-35.15625,0.0
1734586874.5751684,-117.67578125,-78.125,-52.734375,-14.6484375,0.0
1734586874.5790746,-108.88671875,-81.0546875,-77.63671875,15.13671875,0.0
1734586874.5829806,-111.328125,-104.98046875,-88.8671875,2.9296875,0.0
1734586874.586887,-112.3046875,-115.234375,-77.63671875,-0.9765625,0.0
1734586874.590793,-94.23828125,-115.234375,-85.44921875,9.27734375,0.0
1734586874.5946991,-86.42578125,-124.0234375,-101.07421875,19.53125,0.0
1734586874.5986054,-83.984375,-125.9765625,-82.03125,33.203125,0.0
1734586874.6025114,-74.70703125,-114.74609375,-53.7109375,36.62109375,0.0
1734586874.6064177,-61.5234375,-93.75,-45.8984375,32.71484375,0.0
1734586874.610324,-77.1484375,-103.02734375,-90.8203125,20.99609375,0.0
1734586874.61423,-86.42578125,-133.30078125,-114.74609375,20.99609375,0.0
1734586874.6181362,-84.47265625,-135.25390625,-59.08203125,17.08984375,0.0
1734586874.6722348,-103.515625,-134.27734375,-58.10546875,-4.39453125,0.0
1734586874.676141,-142.08984375,-126.46484375,-100.5859375,-19.53125,0.0
1734586874.6800473,-138.671875,-98.6328125,-95.703125,-6.8359375,0.0
1734586874.6839535,-141.6015625,-110.83984375,-78.125,-7.32421875,0.0
1734586874.6878595,-149.90234375,-127.9296875,-66.40625,-27.83203125,0.0
1734586874.6917658,-124.51171875,-110.3515625,-88.8671875,-29.78515625,0.0
1734586874.695672,-98.6328125,-86.9140625,-68.84765625,-21.97265625,0.0
1734586874.699578,-113.76953125,-100.5859375,-22.4609375,-38.57421875,0.0
1734586874.7034843,-122.55859375,-118.65234375,-30.2734375,-10.7421875,0.0
1734586874.7073905,-99.12109375,-112.3046875,-53.7109375,14.16015625,0.0
1734586874.7112968,-117.1875,-121.58203125,-58.10546875,-27.83203125,0.0
1734586874.7152028,-100.09765625,-124.0234375,-41.9921875,-31.25,0.0
1734586874.682688,-79.1015625,-131.34765625,-64.453125,-14.16015625,0.0
1734586874.686594,-82.51953125,-127.9296875,-82.51953125,-3.90625,0.0
1734586874.6905003,-65.91796875,-117.67578125,-54.6875,1.953125,0.0
1734586874.6944065,-46.875,-112.79296875,-30.76171875,7.8125,0.0
1734586874.6983125,-37.59765625,-116.69921875,-56.640625,5.859375,0.0
1734586874.7022188,-51.7578125,-123.53515625,-91.30859375,-10.7421875,0.0
1734586874.706125,-47.8515625,-112.79296875,-80.56640625,-1.953125,0.0
1734586874.710031,-27.34375,-97.16796875,-61.03515625,-0.9765625,0.0
1734586874.7139373,-21.97265625,-119.62890625,-87.40234375,-12.6953125,0.0
1734586874.7178433,-13.18359375,-140.13671875,-120.1171875,-9.765625,0.0
1734586874.7217495,-11.71875,-127.9296875,-37.109375,0.48828125,0.0
1734586874.7256558,-29.296875,-131.34765625,-20.01953125,-6.8359375,0.0
1734586874.748868,-31.25,-130.859375,-74.70703125,-14.16015625,0.0
1734586874.752774,-13.671875,-109.86328125,-55.17578125,-17.08984375,0.0
1734586874.7566803,-26.85546875,-96.6796875,-29.78515625,-39.0625,0.0
1734586874.7605865,-24.4140625,-90.33203125,-57.6171875,-18.5546875,0.0
1734586874.7644925,-15.13671875,-92.7734375,-75.1953125,-8.30078125,0.0
1734586874.7683988,-22.4609375,-94.23828125,-79.1015625,-25.87890625,0.0
1734586874.772305,-14.16015625,-89.35546875,-57.6171875,-27.83203125,0.0
1734586874.776211,-11.71875,-95.21484375,-40.52734375,-39.0625,0.0
1734586874.7801173,-13.18359375,-103.515625,-105.46875,-25.390625,0.0
1734586874.7840235,11.71875,-104.00390625,-101.5625,-10.7421875,0.0
1734586874.7879298,10.7421875,-113.76953125,-36.1328125,-36.1328125,0.0
1734586874.7918358,20.5078125,-127.9296875,-41.9921875,-34.1796875,0.0
1734586874.7801952,29.78515625,-124.51171875,-44.921875,-21.97265625,0.0
1734586874.7841015,-1.46484375,-123.046875,-41.50390625,-35.15625,0.0
1734586874.7880075,-21.97265625,-112.3046875,-43.45703125,-43.45703125,0.0
1734586874.7919137,-17.578125,-100.5859375,-54.19921875,-26.3671875,0.0
1734586874.79582,-34.66796875,-104.4921875,-57.6171875,-24.4140625,0.0
1734586874.799726,-44.43359375,-117.1875,-45.41015625,-31.73828125,0.0
1734586874.8036323,-18.5546875,-114.2578125,-24.4140625,-13.18359375,0.0
1734586874.8075385,-8.30078125,-105.95703125,-39.0625,-0.48828125,0.0
1734586874.8114445,-41.9921875,-118.1640625,-76.171875,-18.5546875,0.0
1734586874.8153508,-56.15234375,-121.58203125,-26.85546875,-41.50390625,0.0
1734586874.819257,-29.78515625,-112.3046875,-5.37109375,-20.99609375,0.0
1734586874.823163,-20.01953125,-110.83984375,-30.76171875,-3.41796875,0.0
1734586874.8330367,-28.3203125,-119.140625,-27.83203125,-7.8125,0.0
1734586874.836943,-20.5078125,-124.0234375,-21.97265625,5.37109375,0.0
1734586874.840849,-20.5078125,-125.0,-41.015625,1.953125,0.0
1734586874.8447552,-34.1796875,-129.8828125,-51.7578125,-17.578125,0.0
1734586874.8486614,-53.22265625,-123.53515625,-16.11328125,-27.34375,0.0
1734586874.8525674,-59.08203125,-112.79296875,10.7421875,-12.6953125,0.0
1734586874.8564737,-57.12890625,-116.2109375,18.06640625,-11.71875,0.0
1734586874.86038,-46.875,-123.53515625,-35.15625,-12.6953125,0.0
1734586874.864286,-43.9453125,-117.1875,-35.64453125,-3.41796875,0.0
1734586874.8681922,-38.0859375,-94.23828125,20.5078125,-2.44140625,0.0
1734586874.8720984,-33.69140625,-100.09765625,-6.34765625,-2.44140625,0.0
1734586874.8760045,-57.12890625,-125.48828125,-16.6015625,-23.4375,0.0
1734586874.8770442,-67.87109375,-122.0703125,-8.7890625,-37.59765625,0.0
1734586874.8809505,-36.1328125,-115.72265625,8.7890625,-9.27734375,0.0
1734586874.8848565,6.34765625,-121.09375,15.13671875,22.4609375,0.0
1734586874.8887627,11.71875,-129.8828125,14.16015625,16.6015625,0.0
1734586874.892669,-7.8125,-137.20703125,32.71484375,-5.859375,0.0
1734586874.896575,-20.01953125,-126.953125,32.71484375,-18.06640625,0.0
1734586874.9004812,0.9765625,-123.53515625,26.85546875,-19.04296875,0.0
1734586874.9043875,22.94921875,-123.53515625,28.80859375,-10.25390625,0.0
1734586874.9082935,40.0390625,-118.1640625,82.03125,-19.53125,0.0
1734586874.9121997,51.26953125,-109.86328125,106.93359375,-20.5078125,0.0
1734586874.916106,36.62109375,-110.3515625,55.6640625,-12.6953125,0.0
1734586874.920012,36.1328125,-124.51171875,37.109375,-4.8828125,0.0
1734586874.9203665,52.24609375,-118.65234375,75.68359375,16.11328125,0.0
1734586874.9242728,60.05859375,-102.5390625,86.9140625,26.85546875,0.0
1734586874.9281788,15.13671875,-126.953125,44.921875,1.46484375,0.0
1734586874.932085,-24.90234375,-158.203125,49.31640625,-28.3203125,0.0
1734586874.9359913,-22.4609375,-143.5546875,96.6796875,-38.57421875,0.0
1734586874.9398973,11.23046875,-112.79296875,74.21875,0.48828125,0.0
1734586874.9438035,30.76171875,-102.5390625,19.53125,37.59765625,0.0
1734586874.9477096,-0.9765625,-102.05078125,49.31640625,15.625,0.0
1734586874.9516158,-26.85546875,-105.46875,136.23046875,-20.5078125,0.0
1734586874.955522,-7.32421875,-118.1640625,142.08984375,-22.94921875,0.0
1734586874.959428,8.7890625,-123.53515625,137.6953125,-11.71875,0.0
1734586874.9633343,-31.25,-131.8359375,123.046875,-19.53125,0.0
1734586874.9667685,-15.625,-118.65234375,91.796875,0.0,0.0
1734586874.9706748,-0.48828125,-104.4921875,49.31640625,-19.04296875,0.0
1734586874.974581,-28.80859375,-115.234375,37.59765625,-54.19921875,0.0
1734586874.978487,-22.4609375,-98.14453125,74.21875,-44.43359375,0.0
1734586874.9823933,-12.6953125,-90.8203125,85.9375,-54.6875,0.0
1734586874.9862995,-10.7421875,-107.91015625,55.6640625,-57.12890625,0.0
1734586874.9902055,-5.859375,-119.62890625,36.62109375,-47.8515625,0.0
1734586874.9941118,4.39453125,-103.515625,80.56640625,-36.1328125,0.0
1734586874.998018,7.32421875,-82.51953125,97.16796875,-11.71875,0.0
1734586875.001924,-14.6484375,-104.4921875,43.9453125,-40.0390625,0.0
1734586875.0058303,-54.19921875,-112.3046875,23.4375,-75.1953125,0.0
1734586875.0097365,-67.87109375,-95.703125,38.57421875,-81.0546875,0.0
1734586875.0096717,-79.1015625,-104.98046875,14.16015625,-99.609375,0.0
1734586875.013578,-93.26171875,-111.328125,-26.85546875,-90.8203125,0.0
1734586875.0174842,-91.796875,-104.98046875,16.11328125,-80.078125,0.0
1734586875.0213902,-87.40234375,-104.4921875,45.41015625,-83.984375,0.0
1734586875.0252964,-58.10546875,-99.609375,22.94921875,-65.4296875,0.0
1734586875.0292027,-26.3671875,-119.140625,10.25390625,-32.71484375,0.0
1734586875.0331087,-10.25390625,-134.765625,49.31640625,-14.6484375,0.0
1734586875.037015,-29.78515625,-112.79296875,106.93359375,-42.48046875,0.0
1734586875.0409212,-23.4375,-120.60546875,74.70703125,-51.7578125,0.0
1734586875.0448272,17.578125,-120.60546875,36.1328125,-30.76171875,0.0
1734586875.0487335,41.9921875,-71.77734375,10.25390625,-20.5078125,0.0
1734586875.0526395,30.2734375,-68.359375,-4.8828125,-25.87890625,0.0
1734586875.0803761,-13.671875,-104.00390625,8.7890625,-43.45703125,0.0
