timestamps,TP9,AF7,AF8,TP10,Right AUX
1734585937.7891364,-39.0625,-34.66796875,-20.99609375,-55.17578125,0.0
1734585937.7930427,-31.73828125,-12.6953125,8.7890625,-48.828125,0.0
1734585937.796949,-6.34765625,8.30078125,169.43359375,-62.5,0.0
1734585937.8008552,-33.69140625,-26.3671875,96.19140625,-53.7109375,0.0
1734585937.8047614,-74.70703125,-68.359375,-98.6328125,-15.13671875,0.0
1734585937.8086677,-73.73046875,-35.15625,-31.25,-36.1328125,0.0
1734585937.8125741,-66.89453125,15.625,185.546875,-79.1015625,0.0
1734585937.8164804,-30.76171875,-36.62109375,64.94140625,-60.05859375,0.0
1734585937.8203866,-14.16015625,-96.19140625,-172.8515625,-41.015625,0.0
1734585937.824293,-46.875,-10.7421875,5.37109375,-55.17578125,0.0
1734585937.8281991,-55.6640625,29.78515625,190.91796875,-68.359375,0.0
1734585937.779306,-46.38671875,-57.12890625,3.90625,-41.015625,0.0
1734585937.7832122,-33.69140625,-50.78125,-22.94921875,-19.53125,0.0
1734585937.7871184,-21.484375,-20.99609375,57.6171875,-32.2265625,0.0
1734585937.7910247,-20.5078125,-21.484375,75.68359375,-37.59765625,0.0
1734585937.794931,-16.6015625,-45.8984375,32.2265625,-51.26953125,0.0
1734585937.7988372,-33.69140625,-101.07421875,-183.59375,-64.94140625,0.0
1734585937.8027434,-33.69140625,-39.55078125,-35.15625,-72.265625,0.0
1734585937.8066497,-13.671875,8.30078125,166.50390625,-64.94140625,0.0
1734585937.810556,6.8359375,-68.359375,-85.9375,-22.94921875,0.0
1734585937.8144622,1.953125,-57.12890625,-132.32421875,-16.6015625,0.0
1734585937.8183684,-18.5546875,17.578125,125.9765625,-44.921875,0.0
1734585937.8222747,-9.765625,-22.4609375,102.05078125,-44.43359375,0.0
1734585937.8368995,0.0,-83.984375,-81.54296875,-26.3671875,0.0
1734585937.8408058,0.0,-42.48046875,-37.109375,-34.1796875,0.0
1734585937.844712,0.0,-2.44140625,105.95703125,-26.3671875,0.0
1734585937.8486183,0.0,-19.04296875,122.55859375,-15.625,0.0
1734585937.8525245,0.0,-131.34765625,-218.26171875,-17.08984375,0.0
1734585937.8564308,0.0,-120.1171875,-401.85546875,-29.78515625,0.0
1734585937.860337,0.0,-0.9765625,-76.171875,-53.22265625,0.0
1734585937.8642433,0.0,-13.671875,28.80859375,-45.41015625,0.0
1734585937.8681495,0.0,-77.63671875,-210.9375,-15.625,0.0
1734585937.8720558,0.0,-26.3671875,-152.34375,-23.4375,0.0
1734585937.875962,0.0,64.453125,176.7578125,-44.921875,0.0
1734585937.8798683,0.0,-0.9765625,71.2890625,-36.62109375,0.0
1734585937.879444,44.43359375,-61.03515625,-120.1171875,-30.2734375,0.0
1734585937.8833501,22.4609375,-8.7890625,0.48828125,-36.1328125,0.0
1734585937.8872564,37.59765625,27.83203125,188.4765625,-43.9453125,0.0
1734585937.8911626,57.12890625,-37.109375,52.734375,-14.6484375,0.0
1734585937.895069,65.91796875,-58.10546875,-29.296875,0.0,0.0
1734585937.8989751,55.6640625,-54.6875,11.71875,-18.06640625,0.0
1734585937.9028814,52.734375,-8.7890625,131.34765625,-26.3671875,0.0
1734585937.9067876,76.66015625,-57.6171875,-73.73046875,-6.8359375,0.0
1734585937.910694,80.56640625,-124.51171875,-400.390625,15.625,0.0
1734585937.9146001,70.80078125,30.76171875,19.04296875,-29.78515625,0.0
1734585937.9185064,83.984375,41.50390625,169.43359375,-46.875,0.0
1734585937.9224126,95.21484375,-25.87890625,0.9765625,-16.11328125,0.0
1734585937.9256008,79.58984375,5.859375,78.125,-4.39453125,0.0
1734585937.9295068,65.91796875,20.01953125,176.26953125,-20.5078125,0.0
1734585937.933413,58.59375,-17.08984375,127.44140625,-38.0859375,0.0
1734585937.9373193,40.0390625,-34.66796875,74.21875,-31.25,0.0
1734585937.9412255,27.34375,-13.18359375,84.9609375,-22.94921875,0.0
1734585937.9451318,42.48046875,-49.31640625,25.87890625,4.8828125,0.0
1734585937.949038,36.1328125,-45.8984375,43.9453125,19.53125,0.0
1734585937.9529443,28.3203125,-87.890625,-196.2890625,-10.7421875,0.0
1734585937.9568505,19.04296875,-38.0859375,-154.78515625,-46.875,0.0
1734585937.9607568,3.41796875,65.4296875,201.171875,-46.875,0.0
1734585937.964663,9.27734375,-4.39453125,82.51953125,-19.53125,0.0
1734585937.9685693,5.37109375,-49.8046875,-38.0859375,5.859375,0.0
1734585937.968864,0.48828125,-27.83203125,16.11328125,-6.34765625,0.0
1734585937.97277,24.4140625,-22.94921875,49.8046875,-30.76171875,0.0
1734585937.9766762,41.9921875,-37.59765625,-20.01953125,-26.3671875,0.0
1734585937.9805825,14.16015625,-13.18359375,8.7890625,-34.66796875,0.0
1734585937.9844887,-14.6484375,2.44140625,100.5859375,-55.6640625,0.0
1734585937.988395,-30.2734375,-38.57421875,71.2890625,-52.24609375,0.0
1734585937.9923012,-16.11328125,-101.5625,-152.83203125,-35.15625,0.0
1734585937.9962075,12.20703125,-95.21484375,-302.734375,-9.765625,0.0
1734585938.0001137,-1.46484375,32.71484375,68.84765625,-15.625,0.0
1734585938.00402,-33.69140625,14.6484375,168.45703125,-38.0859375,0.0
1734585938.0079262,-37.59765625,-43.9453125,-20.01953125,-51.26953125,0.0
1734585938.0118325,-17.08984375,-16.11328125,11.71875,-41.9921875,0.0
1734585938.0154748,-3.90625,12.20703125,155.2734375,-40.52734375,0.0
1734585938.019381,-1.46484375,-20.99609375,112.79296875,-23.92578125,0.0
1734585938.0232873,-11.71875,-66.89453125,-48.33984375,-1.46484375,0.0
1734585938.0271935,-25.390625,-39.55078125,7.8125,-21.97265625,0.0
1734585938.0310998,-25.87890625,-15.13671875,108.3984375,-43.9453125,0.0
1734585938.035006,-30.76171875,-53.7109375,35.64453125,-37.59765625,0.0
1734585938.038912,-34.1796875,-125.9765625,-249.51171875,-20.99609375,0.0
1734585938.0428183,-32.2265625,-64.453125,-191.40625,-30.76171875,0.0
1734585938.0467246,-49.8046875,49.31640625,164.55078125,-45.41015625,0.0
1734585938.0506308,-50.29296875,-19.04296875,44.921875,-37.59765625,0.0
1734585938.054537,-32.71484375,-51.26953125,22.94921875,-31.25,0.0
1734585938.0584433,-39.55078125,-4.39453125,90.33203125,-36.1328125,0.0
1734585938.0590458,-32.2265625,-29.296875,59.5703125,-45.8984375,0.0
1734585938.062952,-19.53125,-61.5234375,-8.30078125,-39.0625,0.0
1734585938.0668583,-17.578125,-31.73828125,-28.80859375,-42.96875,0.0
1734585938.0707645,-38.0859375,11.71875,114.2578125,-48.33984375,0.0
1734585938.0746706,-60.546875,-0.48828125,155.76171875,-55.17578125,0.0
1734585938.0785768,-50.29296875,-100.5859375,-154.78515625,-41.9921875,0.0
1734585938.082483,-61.03515625,-133.30078125,-390.13671875,-29.296875,0.0
1734585938.0863893,-81.54296875,5.37109375,-42.48046875,-76.66015625,0.0
1734585938.0902956,-63.96484375,39.55078125,160.64453125,-87.890625,0.0
1734585938.0942018,-65.4296875,-40.0390625,-9.27734375,-74.21875,0.0
1734585938.098108,-72.265625,-27.83203125,-2.9296875,-63.96484375,0.0
1734585938.1020143,-61.5234375,22.94921875,149.90234375,-51.7578125,0.0
1734585938.1229942,-55.6640625,-7.32421875,117.67578125,-58.59375,0.0
1734585938.1269004,-53.7109375,-40.52734375,23.92578125,-61.03515625,0.0
1734585938.1308067,-74.21875,-13.18359375,61.5234375,-50.78125,0.0
1734585938.134713,-64.453125,4.39453125,133.30078125,-32.71484375,0.0
1734585938.1386192,-56.15234375,-20.01953125,93.26171875,-28.3203125,0.0
1734585938.1425254,-82.03125,-75.1953125,-104.00390625,-26.85546875,0.0
1734585938.1464317,-71.2890625,-56.640625,-194.3359375,-21.484375,0.0
1734585938.150338,-82.51953125,20.01953125,64.453125,-40.0390625,0.0
1734585938.1542442,-81.54296875,-14.6484375,82.03125,-53.7109375,0.0
1734585938.1581504,-47.36328125,-89.35546875,-176.7578125,-37.59765625,0.0
1734585938.1620567,-71.77734375,-3.41796875,-35.15625,-31.73828125,0.0
1734585938.165963,-80.078125,47.36328125,159.66796875,-31.73828125,0.0
1734585938.1822188,-55.17578125,-33.69140625,-18.06640625,-13.18359375,0.0
1734585938.186125,-54.19921875,-40.52734375,-62.98828125,-17.578125,0.0
1734585938.1900313,-66.40625,14.6484375,106.4453125,-32.2265625,0.0
1734585938.1939375,-59.5703125,17.578125,150.87890625,-41.9921875,0.0
1734585938.1978438,-44.43359375,-57.12890625,-46.875,-36.1328125,0.0
1734585938.20175,-46.38671875,-106.93359375,-320.3125,-27.83203125,0.0
1734585938.2056563,-58.59375,-20.5078125,-97.65625,-33.69140625,0.0
1734585938.2095625,-56.640625,41.50390625,198.2421875,-35.64453125,0.0
1734585938.2134688,-41.015625,-70.3125,-115.234375,-41.9921875,0.0
1734585938.217375,-31.25,-109.375,-352.05078125,-5.37109375,0.0
1734585938.2212813,-31.73828125,44.43359375,64.453125,-18.5546875,0.0
1734585938.2251875,-22.94921875,17.08984375,139.6484375,-38.0859375,0.0
1734585938.2254198,-32.71484375,-51.7578125,-73.2421875,-28.80859375,0.0
1734585938.229326,-30.2734375,-16.11328125,-22.94921875,-30.2734375,0.0
1734585938.2332325,-23.92578125,17.08984375,154.78515625,-12.6953125,0.0
1734585938.2371387,-32.71484375,-11.23046875,110.3515625,-11.71875,0.0
1734585938.241045,-40.0390625,-58.10546875,-18.06640625,-13.671875,0.0
1734585938.2449512,-39.0625,-80.56640625,-171.875,-20.5078125,0.0
1734585938.2488575,-38.0859375,-30.76171875,-12.20703125,-28.3203125,0.0
1734585938.2527637,-35.64453125,-17.578125,84.9609375,-29.296875,0.0
1734585938.25667,-32.2265625,-52.734375,-83.984375,-39.55078125,0.0
1734585938.2605762,-32.71484375,-10.7421875,10.25390625,-32.71484375,0.0
1734585938.2644825,-29.78515625,13.18359375,143.5546875,-24.4140625,0.0
1734585938.2683887,-26.85546875,-24.4140625,81.54296875,-17.578125,0.0
1734585938.2524438,2.9296875,-125.48828125,-242.67578125,4.8828125,0.0
1734585938.25635,0.0,-34.1796875,-137.20703125,-13.671875,0.0
1734585938.2602563,-14.6484375,50.29296875,181.640625,-37.109375,0.0
1734585938.2641625,-3.90625,-48.33984375,-11.71875,-16.6015625,0.0
1734585938.2680688,1.46484375,-65.4296875,-109.375,-8.30078125,0.0
1734585938.271975,2.9296875,-36.1328125,-24.90234375,-15.625,0.0
1734585938.2758813,-9.27734375,0.0,78.61328125,-27.83203125,0.0
1734585938.2797875,19.04296875,-44.921875,-94.23828125,-13.18359375,0.0
1734585938.2836936,29.78515625,-50.29296875,-183.59375,-4.8828125,0.0
1734585938.2875998,-20.99609375,29.78515625,111.81640625,-24.90234375,0.0
1734585938.291506,-33.69140625,20.99609375,172.8515625,-33.69140625,0.0
1734585938.2954123,-37.59765625,-105.95703125,-187.5,-19.53125,0.0
1734585938.300798,-57.6171875,-121.58203125,-329.1015625,-14.16015625,0.0
1734585938.3047042,-67.87109375,35.15625,133.30078125,-36.1328125,0.0
1734585938.3086104,-48.33984375,6.34765625,103.02734375,-41.50390625,0.0
1734585938.3125167,-30.76171875,-36.1328125,-25.390625,-26.85546875,0.0
1734585938.316423,-29.296875,-14.6484375,51.7578125,-23.4375,0.0
1734585938.3203292,-24.90234375,-42.48046875,15.13671875,-14.6484375,0.0
1734585938.3242354,-21.484375,-49.31640625,-98.14453125,-17.08984375,0.0
1734585938.3281417,-33.203125,-94.23828125,-288.57421875,-18.06640625,0.0
1734585938.332048,-51.7578125,-36.62109375,-175.78125,-37.109375,0.0
1734585938.3359542,-55.6640625,66.89453125,190.4296875,-50.78125,0.0
1734585938.3398604,-59.08203125,-15.13671875,47.36328125,-12.6953125,0.0
1734585938.3437667,-57.12890625,-48.33984375,-25.390625,-28.80859375,0.0
1734585938.3627803,-49.8046875,-28.3203125,57.6171875,-38.0859375,0.0
1734585938.3666866,-53.7109375,-9.27734375,93.75,-41.9921875,0.0
1734585938.370593,-49.8046875,-22.94921875,40.0390625,-38.0859375,0.0
1734585938.3744993,-57.12890625,-37.109375,-16.11328125,-30.76171875,0.0
1734585938.3784056,-67.3828125,-17.08984375,74.70703125,-62.5,0.0
1734585938.3823118,-59.08203125,-36.62109375,60.05859375,-58.10546875,0.0
1734585938.386218,-56.15234375,-91.30859375,-151.3671875,-9.765625,0.0
1734585938.3901243,-49.31640625,-87.890625,-316.40625,-10.25390625,0.0
1734585938.3940306,-62.5,48.33984375,49.31640625,-63.96484375,0.0
1734585938.3979368,-61.03515625,12.6953125,99.609375,-41.9921875,0.0
1734585938.401843,-56.640625,-42.96875,-73.73046875,-34.66796875,0.0
1734585938.4057493,-60.546875,2.44140625,21.97265625,-57.12890625,0.0
1734585938.385688,-42.48046875,28.80859375,146.484375,-33.69140625,0.0
1734585938.3895943,-25.390625,-5.859375,114.74609375,-14.16015625,0.0
1734585938.3935006,-31.25,-41.50390625,-17.578125,-33.69140625,0.0
1734585938.3974068,-42.96875,-0.9765625,34.66796875,-46.38671875,0.0
1734585938.401313,-41.9921875,0.48828125,128.41796875,-39.55078125,0.0
1734585938.4052193,-55.17578125,-62.98828125,-6.8359375,-33.69140625,0.0
1734585938.4091256,-52.734375,-61.03515625,-139.16015625,-29.296875,0.0
1734585938.4130318,-40.52734375,3.90625,10.25390625,-23.4375,0.0
1734585938.416938,-36.62109375,27.34375,164.0625,-32.71484375,0.0
1734585938.4208443,-37.59765625,-13.671875,87.890625,-56.640625,0.0
1734585938.4247506,-55.6640625,-101.5625,-160.64453125,-27.34375,0.0
1734585938.4286568,-68.84765625,-25.87890625,-41.015625,-29.296875,0.0
1734585938.437689,-60.546875,18.06640625,115.72265625,-57.12890625,0.0
1734585938.4415953,-55.17578125,-56.640625,-80.56640625,-45.41015625,0.0
1734585938.4455016,-58.10546875,-33.203125,-100.5859375,-50.29296875,0.0
1734585938.4494078,-57.6171875,39.55078125,98.6328125,-68.84765625,0.0
1734585938.453314,-59.5703125,27.83203125,160.15625,-54.6875,0.0
1734585938.4572203,-58.59375,-89.84375,-204.1015625,-26.3671875,0.0
1734585938.4611266,-61.03515625,-89.84375,-281.25,-47.36328125,0.0
1734585938.4650328,-66.40625,49.31640625,135.7421875,-52.734375,0.0
1734585938.468939,-35.15625,34.1796875,140.13671875,-40.0390625,0.0
1734585938.4728453,-28.80859375,-50.29296875,-34.66796875,-42.48046875,0.0
1734585938.4767516,-55.6640625,-32.71484375,-15.625,-41.50390625,0.0
1734585938.4806578,-48.33984375,24.4140625,138.671875,-53.22265625,0.0
1734585938.499774,-55.17578125,-7.32421875,107.91015625,-38.57421875,0.0
1734585938.5036802,-55.17578125,-38.0859375,-9.27734375,-13.671875,0.0
1734585938.5075865,-38.0859375,-3.41796875,17.08984375,-29.296875,0.0
1734585938.5114927,-38.57421875,2.44140625,96.6796875,-36.1328125,0.0
1734585938.515399,-34.66796875,-43.9453125,11.23046875,-28.80859375,0.0
1734585938.5193052,-24.4140625,-76.66015625,-213.8671875,-23.4375,0.0
1734585938.5232115,-30.76171875,-7.8125,-97.16796875,-37.59765625,0.0
1734585938.5271177,-41.9921875,62.01171875,172.8515625,-50.29296875,0.0
1734585938.531024,-44.921875,-0.48828125,69.82421875,-24.4140625,0.0
1734585938.5349302,-34.66796875,-46.875,-68.84765625,-22.4609375,0.0
1734585938.5388365,-47.8515625,11.23046875,27.34375,-42.96875,0.0
1734585938.5427427,-51.26953125,25.390625,152.83203125,-30.76171875,0.0
1734585938.5396879,-29.296875,-67.3828125,-43.45703125,-7.32421875,0.0
1734585938.5435941,-44.921875,-79.1015625,-125.0,-0.9765625,0.0
1734585938.5475004,-78.61328125,12.6953125,77.1484375,-35.15625,0.0
1734585938.5514066,-78.61328125,20.01953125,136.71875,-41.015625,0.0
1734585938.5553129,-62.98828125,-64.453125,-42.96875,-28.3203125,0.0
1734585938.5592191,-48.828125,-116.69921875,-285.15625,-35.15625,0.0
1734585938.5631254,-72.265625,-45.41015625,-175.78125,-37.109375,0.0
1734585938.5670316,-80.078125,-11.71875,0.48828125,-35.64453125,0.0
1734585938.5709379,-53.22265625,-79.1015625,-178.7109375,-20.01953125,0.0
1734585938.5748441,-53.22265625,-127.9296875,-436.5234375,9.765625,0.0
1734585938.5787504,-73.2421875,29.296875,14.16015625,-20.5078125,0.0
1734585938.5826566,-83.49609375,46.38671875,183.59375,-56.640625,0.0
1734585938.5866916,-80.56640625,-35.15625,0.0,0.0,0.0
1734585938.5905979,-51.7578125,-10.7421875,0.0,0.0,0.0
1734585938.594504,-47.8515625,10.25390625,0.0,0.0,0.0
1734585938.5984104,-72.75390625,-18.06640625,0.0,0.0,0.0
1734585938.6023166,-78.125,-64.453125,0.0,0.0,0.0
1734585938.6062229,-68.359375,-72.265625,0.0,0.0,0.0
1734585938.610129,-53.22265625,-17.08984375,0.0,0.0,0.0
1734585938.6140354,-14.6484375,11.23046875,0.0,0.0,0.0
1734585938.6179416,-3.41796875,-97.65625,0.0,0.0,0.0
1734585938.6218479,-44.921875,-44.43359375,0.0,0.0,0.0
1734585938.625754,-51.26953125,24.90234375,0.0,0.0,0.0
1734585938.6296604,-31.73828125,-25.87890625,0.0,0.0,0.0
1734585938.578085,0.0,-34.66796875,-112.79296875,-55.6640625,0.0
1734585938.5819912,0.0,6.34765625,-9.765625,-47.36328125,0.0
1734585938.5858974,0.0,41.9921875,192.87109375,-36.62109375,0.0
1734585938.5898037,0.0,-33.203125,-23.92578125,-32.2265625,0.0
1734585938.59371,0.0,-62.01171875,-159.66796875,-45.41015625,0.0
1734585938.597616,0.0,-14.16015625,14.6484375,-55.6640625,0.0
1734585938.6015222,0.0,4.39453125,75.68359375,-29.296875,0.0
1734585938.6054285,0.0,-62.98828125,-167.96875,-23.4375,0.0
1734585938.6093347,0.0,-73.73046875,-356.4453125,-35.15625,0.0
1734585938.613241,0.0,64.453125,58.10546875,-44.921875,0.0
1734585938.6171472,0.0,45.41015625,159.1796875,-48.828125,0.0
1734585938.6210532,0.0,-12.6953125,-17.08984375,-36.62109375,0.0
1734585938.686144,-32.2265625,6.8359375,25.390625,-24.4140625,0.0
1734585938.6900504,-28.3203125,-2.9296875,105.46875,-35.15625,0.0
1734585938.6939566,-21.97265625,-28.3203125,47.8515625,-26.3671875,0.0
1734585938.6978629,-33.69140625,-17.578125,69.3359375,-25.87890625,0.0
1734585938.701769,-33.203125,-10.25390625,67.87109375,-29.78515625,0.0
1734585938.7056754,-24.90234375,-41.015625,-15.625,-21.484375,0.0
1734585938.7095816,-25.390625,-32.71484375,28.80859375,-24.90234375,0.0
1734585938.7134879,-20.5078125,-81.54296875,-203.61328125,-15.13671875,0.0
1734585938.717394,-37.109375,-39.55078125,-193.359375,-19.04296875,0.0
1734585938.7213004,-20.99609375,67.3828125,189.453125,-39.55078125,0.0
1734585938.7252066,-8.30078125,-15.13671875,24.90234375,-26.3671875,0.0
1734585938.7291129,-47.8515625,-35.15625,-26.85546875,-33.69140625,0.0
1734585938.7193198,-50.78125,-17.08984375,0.0,0.0,0.0
1734585938.723226,-47.8515625,-9.765625,0.0,0.0,0.0
1734585938.7271323,-56.15234375,-22.94921875,0.0,0.0,0.0
1734585938.7310386,-56.15234375,-37.59765625,0.0,0.0,0.0
1734585938.7349448,-49.31640625,-15.13671875,0.0,0.0,0.0
1734585938.738851,-43.45703125,-37.109375,0.0,0.0,0.0
1734585938.7427573,-31.73828125,-90.8203125,0.0,0.0,0.0
1734585938.7466636,-33.69140625,-91.796875,0.0,0.0,0.0
1734585938.7505698,-60.546875,31.25,0.0,0.0,0.0
1734585938.7544758,-55.6640625,24.90234375,0.0,0.0,0.0
1734585938.758382,-39.55078125,-78.125,0.0,0.0,0.0
1734585938.7622883,-39.0625,-59.08203125,0.0,0.0,0.0
1734585938.7661533,-47.8515625,24.90234375,137.6953125,-46.875,0.0
1734585938.7700596,-56.640625,-26.3671875,86.42578125,-54.6875,0.0
1734585938.7739658,-74.21875,-72.75390625,-81.0546875,-49.8046875,0.0
1734585938.777872,-81.54296875,-24.4140625,-18.06640625,-34.1796875,0.0
1734585938.7817783,-75.1953125,-16.6015625,87.890625,-45.41015625,0.0
1734585938.7856843,-65.4296875,-61.03515625,30.76171875,-63.96484375,0.0
1734585938.7895906,-60.05859375,-119.140625,-235.3515625,-51.26953125,0.0
1734585938.7934968,-50.78125,-85.9375,-301.7578125,-39.0625,0.0
1734585938.797403,-31.25,8.7890625,29.78515625,-47.8515625,0.0
1734585938.8013093,-36.1328125,-17.08984375,32.71484375,-37.109375,0.0
1734585938.8052156,-53.7109375,-43.9453125,-13.18359375,-42.48046875,0.0
1734585938.8091218,-48.828125,-10.25390625,95.21484375,-47.8515625,0.0
1734585938.8278825,-26.85546875,-38.0859375,30.2734375,-40.0390625,0.0
1734585938.8317888,-17.08984375,-73.2421875,-82.51953125,-41.015625,0.0
1734585938.835695,-5.37109375,-38.57421875,-31.73828125,-29.296875,0.0
1734585938.8396013,0.0,17.578125,97.16796875,-35.64453125,0.0
1734585938.8435075,-5.37109375,6.8359375,121.09375,-38.57421875,0.0
1734585938.8474138,0.0,-99.609375,-185.05859375,-16.6015625,0.0
1734585938.85132,-0.9765625,-92.28515625,-264.16015625,-12.6953125,0.0
1734585938.8552263,-0.9765625,45.8984375,95.21484375,-42.48046875,0.0
1734585938.8591325,-20.01953125,26.3671875,122.55859375,-36.1328125,0.0
1734585938.8630388,-46.875,-54.6875,-15.625,-14.16015625,0.0
1734585938.866945,-60.05859375,-67.87109375,-82.03125,1.953125,0.0
1734585938.8708513,-62.01171875,-23.92578125,33.203125,-7.8125,0.0
1734585938.8681295,-60.546875,5.37109375,115.234375,-37.109375,0.0
1734585938.8720357,-62.01171875,-44.43359375,-61.03515625,-41.015625,0.0
1734585938.875942,-83.0078125,-29.78515625,-24.90234375,-57.6171875,0.0
1734585938.8798482,-77.1484375,9.765625,131.8359375,-59.08203125,0.0
1734585938.8837545,-51.7578125,-20.01953125,86.42578125,-51.7578125,0.0
1734585938.8876607,-62.01171875,-84.9609375,-130.37109375,-40.52734375,0.0
1734585938.891567,-65.4296875,-51.7578125,-95.21484375,-42.48046875,0.0
1734585938.8954732,-62.01171875,12.20703125,124.0234375,-54.6875,0.0
1734585938.8993795,-69.3359375,-31.25,81.0546875,-40.0390625,0.0
1734585938.9032857,-60.05859375,-131.8359375,-220.21484375,-26.85546875,0.0
1734585938.907192,-49.31640625,-56.640625,-144.04296875,-45.41015625,0.0
1734585938.9110982,-49.8046875,34.1796875,147.94921875,-46.875,0.0
1734585938.9152758,-46.875,-50.29296875,2.9296875,-29.78515625,0.0
1734585938.919182,-45.41015625,-72.75390625,-66.89453125,-37.59765625,0.0
1734585938.9230883,-53.7109375,-33.69140625,32.2265625,-34.66796875,0.0
1734585938.9269946,-43.45703125,1.46484375,119.62890625,-37.59765625,0.0
1734585938.9309008,-54.6875,-36.62109375,31.25,-43.9453125,0.0
1734585938.934807,-80.56640625,-84.47265625,-213.8671875,-27.83203125,0.0
1734585938.9387133,-79.1015625,-25.390625,-83.0078125,-35.64453125,0.0
1734585938.9426196,-81.0546875,34.66796875,210.44921875,-54.6875,0.0
1734585938.9465258,-69.3359375,-75.68359375,-104.00390625,-34.66796875,0.0
1734585938.950432,-75.68359375,-112.3046875,-335.44921875,-26.85546875,0.0
1734585938.9543383,-82.51953125,31.73828125,87.40234375,-58.59375,0.0
1734585938.9582446,-74.21875,8.30078125,165.52734375,-44.43359375,0.0
1734585938.960303,-94.7265625,-43.9453125,11.71875,-19.53125,0.0
1734585938.9642093,-87.890625,-16.11328125,48.828125,-30.2734375,0.0
1734585938.9681156,-77.1484375,5.37109375,163.0859375,-50.29296875,0.0
1734585938.9720218,-85.9375,-21.484375,115.234375,-46.875,0.0
1734585938.975928,-101.07421875,-80.078125,-93.26171875,-31.25,0.0
1734585938.9798343,-94.23828125,-71.2890625,-111.81640625,-37.109375,0.0
1734585938.9837406,-79.58984375,-37.109375,-12.20703125,-42.48046875,0.0
1734585938.9876468,-77.1484375,-26.3671875,20.01953125,-44.43359375,0.0
1734585938.991553,-63.4765625,-83.0078125,-235.83984375,-27.34375,0.0
1734585938.9954593,-59.08203125,-36.1328125,-195.80078125,-21.484375,0.0
1734585938.9993656,-32.71484375,56.640625,160.64453125,-55.6640625,0.0
1734585939.0032718,-27.83203125,-3.41796875,89.84375,-32.2265625,0.0
1734585939.022983,-65.4296875,-65.4296875,-156.73828125,-5.37109375,0.0
1734585939.0268893,-69.3359375,-4.39453125,-86.42578125,-30.2734375,0.0
1734585939.0307956,-63.96484375,46.875,177.734375,-31.73828125,0.0
1734585939.0347018,-45.41015625,-33.69140625,-19.53125,-17.08984375,0.0
1734585939.038608,-33.203125,-62.01171875,-166.9921875,-15.625,0.0
1734585939.0425143,-26.3671875,-18.5546875,-28.80859375,-8.30078125,0.0
1734585939.0464206,-14.16015625,19.53125,107.91015625,-32.2265625,0.0
1734585939.0503268,-12.20703125,-45.41015625,-118.65234375,-23.4375,0.0
1734585939.054233,-10.7421875,-96.6796875,-417.48046875,11.23046875,0.0
1734585939.0581396,-24.4140625,56.15234375,26.3671875,-14.16015625,0.0
1734585939.0620458,-18.5546875,61.5234375,171.875,-24.4140625,0.0
1734585939.065952,-8.7890625,-4.8828125,0.9765625,6.34765625,0.0
1734585939.063841,-48.33984375,6.34765625,25.390625,-12.6953125,0.0
1734585939.0677474,-64.94140625,29.296875,121.58203125,-46.875,0.0
1734585939.0716536,-59.5703125,0.0,95.21484375,-37.109375,0.0
1734585939.0755599,-69.3359375,-22.94921875,0.48828125,-41.50390625,0.0
1734585939.079466,-62.98828125,-1.953125,32.71484375,-35.15625,0.0
1734585939.0833724,-54.19921875,-33.69140625,-18.06640625,-31.25,0.0
1734585939.0872786,-52.24609375,-41.50390625,-149.90234375,-48.828125,0.0
1734585939.0911849,-48.33984375,-1.46484375,-139.6484375,-45.8984375,0.0
1734585939.095091,-56.640625,35.15625,0.0,-42.96875,0.0
1734585939.0989974,-52.24609375,45.41015625,133.30078125,-51.26953125,0.0
1734585939.1029036,-41.9921875,-7.8125,41.9921875,-54.6875,0.0
1734585939.1068099,-30.2734375,-104.4921875,-222.65625,-23.92578125,0.0
1734585939.092847,-34.66796875,-50.29296875,-249.51171875,-9.765625,0.0
1734585939.0967534,-46.38671875,43.9453125,-9.27734375,-40.52734375,0.0
1734585939.1006596,-47.8515625,0.9765625,15.13671875,-52.734375,0.0
1734585939.1045659,-44.43359375,-20.5078125,-43.45703125,-26.3671875,0.0
1734585939.108472,-48.33984375,5.37109375,64.453125,-39.0625,0.0
1734585939.1123784,-45.8984375,-34.1796875,54.6875,-59.5703125,0.0
1734585939.1162846,-22.94921875,-80.56640625,-162.59765625,-45.8984375,0.0
1734585939.1201909,-35.64453125,-37.59765625,-172.36328125,-48.828125,0.0
1734585939.124097,-63.4765625,23.4375,122.0703125,-60.546875,0.0
1734585939.1280034,-42.48046875,20.5078125,179.6875,-68.84765625,0.0
1734585939.1319096,-22.4609375,-91.30859375,-171.38671875,-33.69140625,0.0
1734585939.1358159,-54.19921875,-114.74609375,-300.78125,-13.671875,0.0
1734585939.1403115,-69.82421875,42.96875,123.53515625,-63.4765625,0.0
1734585939.1442177,-57.12890625,16.11328125,120.1171875,-62.5,0.0
1734585939.148124,-49.8046875,-51.7578125,-96.19140625,-41.9921875,0.0
1734585939.1520302,-60.546875,-3.41796875,-24.90234375,-51.7578125,0.0
1734585939.1559365,-54.6875,9.765625,118.65234375,-50.78125,0.0
1734585939.1598427,-43.45703125,-41.50390625,16.11328125,-30.76171875,0.0
1734585939.163749,-64.94140625,-122.0703125,-294.921875,-17.08984375,0.0
1734585939.1676552,-71.2890625,-64.453125,-223.6328125,-16.6015625,0.0
1734585939.1715615,-66.40625,50.78125,175.29296875,-41.50390625,0.0
1734585939.1754677,-63.4765625,-19.04296875,59.08203125,-51.7578125,0.0
1734585939.1793737,-72.75390625,-58.10546875,-13.18359375,-30.76171875,0.0
1734585939.18328,-83.0078125,-33.203125,53.22265625,-35.64453125,0.0
1734585939.1853857,0.0,-37.59765625,28.80859375,-54.19921875,0.0
1734585939.189292,0.0,-62.98828125,-58.59375,-52.734375,0.0
1734585939.1931982,0.0,-35.64453125,-39.0625,-27.83203125,0.0
1734585939.1971045,0.0,9.27734375,84.9609375,-24.4140625,0.0
1734585939.2010107,0.0,-7.8125,135.25390625,-51.7578125,0.0
1734585939.204917,0.0,-100.09765625,-116.69921875,-44.43359375,0.0
1734585939.2088232,0.0,-118.1640625,-361.81640625,-24.4140625,0.0
1734585939.2127295,0.0,-11.23046875,-66.89453125,-13.671875,0.0
1734585939.2166357,0.0,22.94921875,178.22265625,-6.34765625,0.0
1734585939.220542,0.0,-80.078125,-76.171875,-33.203125,0.0
1734585939.2244482,0.0,-77.1484375,-152.34375,-48.828125,0.0
1734585939.2283545,0.0,9.27734375,125.0,-49.31640625,0.0
1734585939.2487445,-69.82421875,-13.18359375,125.9765625,-41.9921875,0.0
1734585939.2526507,-52.24609375,-89.84375,-121.09375,-18.5546875,0.0
1734585939.256557,-64.94140625,-58.10546875,-118.1640625,-27.34375,0.0
1734585939.2604632,-79.1015625,13.671875,125.0,-47.8515625,0.0
1734585939.2643695,-89.84375,-22.94921875,84.9609375,-30.76171875,0.0
1734585939.2682757,-96.19140625,-77.63671875,-129.8828125,11.23046875,0.0
1734585939.272182,-85.9375,-39.0625,-119.62890625,8.7890625,0.0
1734585939.2760885,-75.68359375,24.4140625,113.76953125,-47.36328125,0.0
1734585939.2799947,-55.17578125,-28.80859375,40.52734375,-45.8984375,0.0
1734585939.283901,-60.546875,-99.609375,-206.0546875,-28.80859375,0.0
1734585939.2878072,-90.8203125,-18.06640625,-43.45703125,-54.6875,0.0
1734585939.2917135,-89.35546875,26.85546875,152.83203125,-35.64453125,0.0
1734585939.3080196,-84.9609375,-60.05859375,-59.08203125,-11.71875,0.0
1734585939.311926,-91.30859375,-48.828125,-86.9140625,-32.2265625,0.0
1734585939.3158321,-85.9375,18.06640625,87.40234375,-50.78125,0.0
1734585939.3197384,-83.0078125,11.23046875,96.19140625,-57.6171875,0.0
1734585939.3236446,-72.75390625,-47.36328125,-33.69140625,-36.62109375,0.0
1734585939.327551,-80.56640625,-90.8203125,-281.25,-29.296875,0.0
1734585939.3314571,-124.51171875,-29.296875,-134.27734375,-50.29296875,0.0
1734585939.3353634,-100.09765625,35.15625,172.8515625,-54.6875,0.0
1734585939.3392696,-53.7109375,-64.94140625,-132.8125,-26.3671875,0.0
1734585939.343176,-84.47265625,-104.00390625,-399.90234375,-41.50390625,0.0
1734585939.3470821,-93.26171875,36.1328125,29.296875,-61.5234375,0.0
1734585939.3509884,-69.82421875,4.8828125,117.67578125,-41.015625,0.0
1734585939.3316422,0.0,-54.19921875,-104.00390625,0.0,0.0
1734585939.3355484,0.0,-8.7890625,-32.71484375,0.0,0.0
1734585939.3394547,0.0,14.16015625,111.81640625,0.0,0.0
1734585939.343361,0.0,-23.4375,57.12890625,0.0,0.0
1734585939.3472672,0.0,-53.22265625,-59.08203125,0.0,0.0
1734585939.3511734,0.0,-54.6875,-193.359375,0.0,0.0
1734585939.3550797,0.0,-12.6953125,-76.66015625,0.0,0.0
1734585939.358986,0.0,-6.34765625,34.66796875,0.0,0.0
1734585939.3628922,0.0,-41.9921875,-152.34375,0.0,0.0
1734585939.3667984,0.0,0.48828125,-55.6640625,0.0,0.0
1734585939.3707047,0.0,14.16015625,98.6328125,0.0,0.0
1734585939.374611,0.0,-30.76171875,31.73828125,0.0,0.0
1734585939.3812013,-125.48828125,-134.765625,-279.78515625,-56.640625,0.0
1734585939.3851075,-154.78515625,-43.45703125,-174.31640625,-98.6328125,0.0
1734585939.3890138,-140.625,32.71484375,101.07421875,-119.140625,0.0
1734585939.39292,-151.85546875,-61.03515625,-169.43359375,-85.9375,0.0
1734585939.3968263,-197.265625,-47.8515625,-184.5703125,-96.6796875,0.0
1734585939.4007325,-196.2890625,-42.48046875,-85.44921875,-124.0234375,0.0
1734585939.4046388,-201.171875,-48.33984375,-177.24609375,-118.1640625,0.0
1734585939.408545,-210.44921875,-89.84375,-350.09765625,-86.9140625,0.0
1734585939.4124513,-194.82421875,-93.75,-442.87109375,-90.33203125,0.0
1734585939.4163575,-215.8203125,29.78515625,-32.2265625,-139.16015625,0.0
1734585939.4202638,-258.30078125,16.11328125,95.703125,-146.484375,0.0
1734585939.42417,-250.0,-44.921875,-92.28515625,-123.53515625,0.0
1734585939.4258683,-241.69921875,-40.0390625,-86.42578125,-118.65234375,0.0
1734585939.4297745,-234.375,-6.8359375,80.56640625,-114.74609375,0.0
1734585939.4336808,-217.7734375,-26.85546875,37.59765625,-97.65625,0.0
1734585939.437587,-210.9375,-47.36328125,-124.0234375,-76.66015625,0.0
1734585939.4414933,-218.75,-33.69140625,-96.6796875,-71.2890625,0.0
1734585939.4453995,-200.68359375,-70.3125,-147.94921875,-84.47265625,0.0
1734585939.4493058,-175.29296875,-64.94140625,-225.09765625,-88.37890625,0.0
1734585939.453212,-189.94140625,-118.65234375,-383.30078125,-81.54296875,0.0
1734585939.4571183,-224.609375,-74.21875,-266.6015625,-99.12109375,0.0
1734585939.4610245,-220.21484375,36.1328125,108.3984375,-117.67578125,0.0
1734585939.4649308,-177.734375,-33.69140625,3.41796875,-98.14453125,0.0
1734585939.468837,-163.0859375,-68.84765625,-113.76953125,-95.703125,0.0
1734585939.4696267,-171.875,-46.38671875,-78.125,-84.47265625,0.0
1734585939.473533,-169.43359375,-14.6484375,24.90234375,-79.58984375,0.0
1734585939.4774392,-152.34375,-37.59765625,-24.4140625,-78.61328125,0.0
1734585939.4813454,-121.09375,-74.70703125,-119.140625,-70.80078125,0.0
1734585939.4852517,-115.234375,-13.671875,39.0625,-66.40625,0.0
1734585939.489158,-114.2578125,-35.15625,10.25390625,-41.50390625,0.0
1734585939.4930642,-105.95703125,-104.98046875,-183.10546875,-41.9921875,0.0
1734585939.4969704,-99.609375,-103.02734375,-348.14453125,-44.43359375,0.0
1734585939.5008767,-102.05078125,27.83203125,3.41796875,-76.66015625,0.0
1734585939.504783,-83.0078125,-5.37109375,99.12109375,-83.984375,0.0
1734585939.5086892,-70.80078125,-67.87109375,-67.87109375,-50.78125,0.0
1734585939.5125954,-70.80078125,-20.01953125,15.625,-46.875,0.0
1734585939.5344234,-55.6640625,1.953125,129.8828125,-52.734375,0.0
1734585939.5383296,-28.80859375,-34.66796875,96.6796875,-34.66796875,0.0
1734585939.5422359,-7.8125,-57.6171875,-14.16015625,-10.25390625,0.0
1734585939.546142,-23.92578125,-21.484375,45.8984375,-25.390625,0.0
1734585939.5500484,-22.94921875,-19.53125,125.9765625,-42.96875,0.0
1734585939.5539546,0.9765625,-66.40625,76.171875,-36.1328125,0.0
1734585939.5578609,13.18359375,-149.90234375,-259.765625,-0.9765625,0.0
1734585939.561767,-3.90625,-76.66015625,-222.65625,-23.92578125,0.0
1734585939.5656734,-28.3203125,38.57421875,192.87109375,-53.22265625,0.0
1734585939.5695796,-8.7890625,-32.2265625,68.84765625,-30.2734375,0.0
1734585939.5734859,28.3203125,-45.41015625,25.87890625,-38.57421875,0.0
1734585939.577392,36.62109375,-5.859375,136.71875,-36.62109375,0.0
1734585939.554519,32.71484375,-41.50390625,95.703125,-30.76171875,0.0
1734585939.5584252,37.109375,-84.47265625,-51.26953125,-25.87890625,0.0
1734585939.5623314,41.9921875,-48.33984375,-44.921875,4.39453125,0.0
1734585939.5662377,58.10546875,14.16015625,139.6484375,0.0,0.0
1734585939.570144,65.91796875,-7.32421875,133.30078125,-23.4375,0.0
1734585939.5740502,76.171875,-110.83984375,-148.4375,-21.484375,0.0
1734585939.5779562,94.23828125,-80.56640625,-155.2734375,-11.23046875,0.0
1734585939.5818624,88.37890625,18.5546875,142.08984375,-8.7890625,0.0
1734585939.5857687,104.98046875,15.625,213.8671875,-23.4375,0.0
1734585939.589675,148.4375,-92.28515625,-77.63671875,10.25390625,0.0
1734585939.5935812,166.015625,-149.90234375,-356.4453125,31.25,0.0
1734585939.5974874,185.546875,11.23046875,70.80078125,13.18359375,0.0
1734585939.625075,229.98046875,31.25,214.35546875,10.7421875,0.0
1734585939.6289814,265.13671875,-38.0859375,146.484375,29.78515625,0.0
1734585939.6328876,304.19921875,-22.4609375,181.640625,34.1796875,0.0
1734585939.6367939,316.40625,-24.90234375,165.52734375,32.71484375,0.0
1734585939.6407,295.41015625,-59.08203125,134.27734375,66.89453125,0.0
1734585939.6446064,284.1796875,-76.66015625,12.20703125,53.22265625,0.0
1734585939.6485126,271.484375,-32.71484375,53.7109375,23.4375,0.0
1734585939.6524189,277.34375,24.4140625,230.95703125,24.90234375,0.0
1734585939.656325,299.31640625,-23.92578125,163.0859375,36.62109375,0.0
1734585939.6602316,285.64453125,-99.609375,-44.921875,39.0625,0.0
1734585939.6641378,249.0234375,-29.78515625,60.546875,21.484375,0.0
1734585939.668044,226.07421875,26.85546875,233.88671875,6.8359375,0.0
1734585939.6652431,0.0,-55.6640625,75.68359375,0.0,0.0
1734585939.6691494,0.0,-63.4765625,28.80859375,0.0,0.0
1734585939.6730556,0.0,-5.37109375,150.390625,0.0,0.0
1734585939.676962,0.0,-0.9765625,201.171875,0.0,0.0
1734585939.6808681,0.0,-57.6171875,68.359375,0.0,0.0
1734585939.6847744,0.0,-98.6328125,-64.453125,0.0,0.0
1734585939.6886806,0.0,-67.87109375,8.7890625,0.0,0.0
1734585939.692587,0.0,-14.6484375,148.92578125,0.0,0.0
1734585939.6964931,0.0,-78.125,-61.03515625,0.0,0.0
1734585939.7003994,0.0,-114.74609375,-259.27734375,0.0,0.0
1734585939.7043056,0.0,23.4375,131.8359375,0.0,0.0
1734585939.708212,0.0,10.25390625,171.38671875,0.0,0.0
1734585939.7101257,27.34375,-38.0859375,24.4140625,-4.39453125,0.0
1734585939.714032,22.4609375,-20.01953125,62.98828125,-23.92578125,0.0
1734585939.7179382,23.92578125,2.44140625,161.62109375,-33.69140625,0.0
1734585939.7218444,7.32421875,-29.78515625,117.1875,-20.01953125,0.0
1734585939.7257507,0.48828125,-71.2890625,4.8828125,-11.23046875,0.0
1734585939.729657,13.671875,-74.70703125,-33.203125,-13.671875,0.0
1734585939.7335632,6.8359375,-29.296875,55.17578125,-24.90234375,0.0
1734585939.7374694,-26.85546875,-5.37109375,115.72265625,-32.2265625,0.0
1734585939.7413757,-40.52734375,-117.67578125,-215.8203125,-25.390625,0.0
1734585939.745282,-33.69140625,-93.75,-252.44140625,-17.578125,0.0
1734585939.7491882,-20.99609375,12.20703125,102.5390625,-18.06640625,0.0
1734585939.7530944,-15.13671875,-2.44140625,81.54296875,-20.99609375,0.0
1734585939.7736847,0.0,-47.36328125,-119.62890625,-17.08984375,0.0
1734585939.777591,0.0,-6.34765625,-12.6953125,-41.50390625,0.0
1734585939.7814972,0.0,25.87890625,158.69140625,-58.10546875,0.0
1734585939.7854035,0.0,-20.99609375,32.2265625,-40.0390625,0.0
1734585939.7893097,0.0,-49.8046875,-70.80078125,-32.2265625,0.0
1734585939.793216,0.0,-53.7109375,-76.66015625,-55.17578125,0.0
1734585939.7971222,0.0,-3.90625,44.43359375,-57.12890625,0.0
1734585939.8010285,0.0,-59.5703125,-149.90234375,-27.83203125,0.0
1734585939.8049347,0.0,-104.00390625,-413.57421875,-18.06640625,0.0
1734585939.808841,0.0,37.109375,21.484375,-49.31640625,0.0
1734585939.8127472,0.0,25.390625,149.4140625,-60.546875,0.0
1734585939.8166537,0.0,-34.66796875,-24.4140625,-58.59375,0.0
1734585939.7947605,-97.16796875,-29.78515625,-38.0859375,-50.29296875,0.0
1734585939.7986667,-107.421875,-18.5546875,60.05859375,-49.31640625,0.0
1734585939.802573,-88.8671875,-11.23046875,66.89453125,-34.66796875,0.0
1734585939.8064792,-81.54296875,-25.87890625,-16.11328125,-14.16015625,0.0
1734585939.8103855,-77.63671875,-24.4140625,5.859375,-49.8046875,0.0
1734585939.8142917,-48.828125,-36.1328125,-62.01171875,-72.75390625,0.0
1734585939.818198,-62.5,-39.0625,-99.609375,-63.4765625,0.0
1734585939.8221042,-89.84375,-21.484375,-98.6328125,-45.41015625,0.0
1734585939.8260105,-79.58984375,16.6015625,-16.11328125,-37.109375,0.0
1734585939.8299167,-67.3828125,26.3671875,142.578125,-45.41015625,0.0
1734585939.833823,-72.265625,-21.484375,63.96484375,-16.6015625,0.0
1734585939.8377292,-65.91796875,-114.2578125,-198.73046875,17.08984375,0.0
1734585939.845836,-69.82421875,-74.70703125,-248.046875,-41.50390625,0.0
1734585939.8497422,-77.1484375,20.01953125,-2.44140625,-63.4765625,0.0
1734585939.8536484,-71.2890625,-11.23046875,23.92578125,-47.8515625,0.0
1734585939.8575547,-62.01171875,-46.38671875,-40.0390625,-46.38671875,0.0
1734585939.861461,-57.12890625,-34.66796875,29.296875,-10.25390625,0.0
1734585939.8653672,-71.2890625,-33.69140625,12.20703125,-14.16015625,0.0
1734585939.8692734,-75.1953125,-82.51953125,-143.06640625,-36.1328125,0.0
1734585939.8731797,-90.8203125,-90.8203125,-331.54296875,-29.296875,0.0
1734585939.877086,-105.95703125,28.3203125,-0.48828125,-39.0625,0.0
1734585939.8809922,-94.7265625,25.390625,158.203125,-48.828125,0.0
1734585939.8848984,-91.796875,-38.57421875,17.08984375,-38.0859375,0.0
1734585939.8888047,-98.14453125,-29.78515625,12.20703125,-29.78515625,0.0
1734585939.8892188,-104.4921875,-0.9765625,125.48828125,-40.0390625,0.0
1734585939.893125,-90.8203125,-31.73828125,101.07421875,-47.36328125,0.0
1734585939.8970313,-75.68359375,-47.36328125,-4.39453125,-47.8515625,0.0
1734585939.9009376,-90.33203125,-17.08984375,37.109375,-44.43359375,0.0
1734585939.9048438,-85.9375,-21.97265625,57.12890625,-42.48046875,0.0
1734585939.90875,-73.2421875,-41.50390625,-41.015625,-32.2265625,0.0
1734585939.9126563,-76.171875,-117.1875,-322.265625,-39.0625,0.0
1734585939.9165626,-75.68359375,-85.44921875,-377.44140625,-41.015625,0.0
1734585939.9204688,-82.51953125,51.26953125,46.38671875,-60.546875,0.0
1734585939.924375,-62.5,8.7890625,66.89453125,-54.6875,0.0
1734585939.9282813,-60.05859375,-23.92578125,-16.11328125,-41.50390625,0.0
1734585939.9321876,-67.3828125,16.6015625,91.30859375,-37.109375,0.0
1734585939.9538856,-45.41015625,-14.16015625,46.875,-12.20703125,0.0
1734585939.9577918,-22.4609375,-58.59375,-58.59375,-26.85546875,0.0
1734585939.961698,-38.0859375,-40.0390625,-47.36328125,-26.85546875,0.0
1734585939.9656043,-50.78125,24.90234375,85.9375,-17.08984375,0.0
1734585939.9695106,-36.62109375,12.20703125,144.04296875,-37.109375,0.0
1734585939.9734168,-40.0390625,-97.65625,-90.33203125,-1.953125,0.0
1734585939.977323,-33.203125,-105.46875,-277.83203125,-5.859375,0.0
1734585939.9812293,-38.0859375,34.66796875,62.98828125,-62.98828125,0.0
1734585939.9851356,-32.2265625,47.36328125,208.984375,-41.50390625,0.0
1734585939.9890418,-9.765625,-47.36328125,-31.25,-10.7421875,0.0
1734585939.992948,-17.08984375,-74.70703125,-212.890625,2.9296875,0.0
1734585939.9968543,-49.31640625,-4.39453125,22.4609375,-26.85546875,0.0
1734585940.0137324,-61.03515625,-1.953125,135.7421875,-50.78125,0.0
1734585940.0176387,-46.875,-51.26953125,-29.78515625,-41.015625,0.0
1734585940.0215452,-44.43359375,-31.25,19.04296875,-37.59765625,0.0
1734585940.0254514,-52.24609375,2.9296875,153.3203125,-22.94921875,0.0
1734585940.0293577,-39.55078125,-13.18359375,101.07421875,-26.3671875,0.0
1734585940.033264,-38.57421875,-72.265625,-123.53515625,-45.41015625,0.0
1734585940.0371702,-34.1796875,-35.15625,-91.796875,-49.8046875,0.0
1734585940.0410764,-13.18359375,23.92578125,138.18359375,-30.2734375,0.0
1734585940.0449827,-20.01953125,-15.625,69.82421875,-21.484375,0.0
1734585940.048889,-35.64453125,-107.91015625,-240.234375,-7.32421875,0.0
1734585940.0527952,-66.89453125,-59.08203125,-212.40234375,-0.48828125,0.0
1734585940.0567014,-59.08203125,24.90234375,87.890625,-45.41015625,0.0
1734585940.035051,-18.5546875,-23.4375,18.06640625,-39.0625,0.0
1734585940.0389574,-25.87890625,-59.5703125,-218.26171875,-9.765625,0.0
1734585940.0428636,-43.9453125,-4.39453125,-85.44921875,-22.94921875,0.0
1734585940.0467699,-37.109375,39.0625,146.484375,-25.390625,0.0
1734585940.050676,-23.92578125,-20.5078125,27.83203125,-18.5546875,0.0
1734585940.0545824,-5.37109375,-82.03125,-219.7265625,-25.390625,0.0
1734585940.0584886,-34.1796875,-25.87890625,-101.07421875,-19.53125,0.0
1734585940.0623949,-57.6171875,25.87890625,166.9921875,-28.3203125,0.0
1734585940.066301,-40.52734375,-64.453125,-120.60546875,-26.3671875,0.0
1734585940.0702074,-39.55078125,-56.15234375,-190.4296875,-26.3671875,0.0
1734585940.0741136,-41.015625,18.5546875,123.53515625,-44.921875,0.0
1734585940.0780199,-34.66796875,0.48828125,152.34375,-35.15625,0.0
1734585940.0863824,-38.57421875,-109.375,-193.84765625,-32.2265625,0.0
1734585940.0902886,-49.8046875,-115.234375,-298.828125,-39.0625,0.0
1734585940.094195,-53.7109375,31.73828125,124.0234375,-49.8046875,0.0
1734585940.0981011,-61.5234375,-3.41796875,102.5390625,-42.48046875,0.0
1734585940.1020074,-69.3359375,-62.5,-86.9140625,-45.8984375,0.0
1734585940.1059136,-47.36328125,-55.6640625,-197.75390625,-34.1796875,0.0
1734585940.10982,-40.0390625,-21.97265625,-92.7734375,-35.64453125,0.0
1734585940.1137261,-49.31640625,7.8125,60.546875,-48.33984375,0.0
1734585940.1176324,-26.3671875,-93.75,-242.1875,-21.97265625,0.0
1734585940.1215386,-38.0859375,-47.8515625,-235.83984375,0.0,0.0
1734585940.125445,-61.5234375,71.2890625,149.4140625,-15.625,0.0
1734585940.1293511,-49.8046875,-6.8359375,74.21875,-41.50390625,0.0
1734585940.1298213,0.0,-74.70703125,-140.13671875,-58.59375,0.0
1734585940.1337276,0.0,-28.3203125,-82.03125,-60.05859375,0.0
1734585940.1376338,0.0,21.484375,145.01953125,-42.96875,0.0
1734585940.14154,0.0,-22.94921875,29.296875,-27.34375,0.0
1734585940.1454463,0.0,-47.8515625,-61.5234375,-32.71484375,0.0
1734585940.1493526,0.0,-46.875,-25.87890625,-35.15625,0.0
1734585940.1532588,0.0,-8.30078125,82.03125,-29.78515625,0.0
1734585940.157165,0.0,-55.17578125,-84.9609375,-23.4375,0.0
1734585940.1610713,0.0,-96.19140625,-358.3984375,-25.390625,0.0
1734585940.1649776,0.0,43.9453125,26.3671875,-41.50390625,0.0
1734585940.1688838,0.0,39.0625,161.62109375,-14.6484375,0.0
1734585940.17279,0.0,-56.640625,-56.15234375,-0.9765625,0.0
1734585940.1761394,-69.82421875,-36.1328125,-32.2265625,-40.52734375,0.0
1734585940.1800456,-66.40625,34.1796875,151.3671875,-45.41015625,0.0
1734585940.1839519,-55.6640625,0.0,105.95703125,-18.06640625,0.0
1734585940.187858,-44.921875,-23.4375,23.4375,-29.296875,0.0
1734585940.1917644,-45.8984375,-9.27734375,51.7578125,-54.19921875,0.0
1734585940.1956706,-60.05859375,-37.109375,-12.6953125,-51.26953125,0.0
1734585940.1995769,-68.84765625,-30.76171875,-14.6484375,-56.640625,0.0
1734585940.2034829,-66.40625,-91.30859375,-222.65625,-43.45703125,0.0
1734585940.207389,-83.49609375,-49.8046875,-210.44921875,-14.16015625,0.0
1734585940.2112954,-112.3046875,49.31640625,155.2734375,-50.78125,0.0
1734585940.2152016,-101.07421875,-24.4140625,36.1328125,-64.94140625,0.0
1734585940.2191079,-104.98046875,-41.015625,-27.34375,-40.0390625,0.0
1734585940.2196875,-112.3046875,-24.4140625,10.25390625,-52.24609375,0.0
1734585940.2235937,-96.6796875,-11.23046875,62.5,-48.828125,0.0
1734585940.2275,-99.12109375,-33.203125,29.78515625,-40.0390625,0.0
1734585940.2314062,-89.35546875,-51.7578125,-36.62109375,-32.2265625,0.0
1734585940.2353125,-87.890625,-9.765625,54.6875,-39.55078125,0.0
1734585940.2392187,-87.40234375,-40.52734375,20.01953125,-46.875,0.0
1734585940.243125,-67.3828125,-103.515625,-182.12890625,-43.45703125,0.0
1734585940.2470312,-59.08203125,-99.609375,-346.19140625,-36.62109375,0.0
1734585940.2509375,-69.82421875,21.97265625,-11.23046875,-64.94140625,0.0
1734585940.2548437,-72.75390625,22.4609375,136.71875,-65.91796875,0.0
1734585940.25875,-64.453125,-48.33984375,-29.296875,-40.0390625,0.0
1734585940.2626562,-54.19921875,-28.3203125,4.39453125,-43.45703125,0.0
1734585940.2660017,-59.5703125,14.6484375,133.30078125,-41.50390625,0.0
1734585940.269908,-69.82421875,-26.3671875,86.42578125,-15.13671875,0.0
1734585940.2738142,-65.91796875,-59.5703125,-69.82421875,1.953125,0.0
1734585940.2777205,-54.6875,-10.7421875,-13.18359375,-42.48046875,0.0
1734585940.2816267,-56.15234375,-7.32421875,93.26171875,-48.828125,0.0
1734585940.285533,-54.19921875,-51.7578125,-27.34375,-40.0390625,0.0
1734585940.2894392,-42.96875,-138.18359375,-357.91015625,-28.80859375,0.0
1734585940.2933455,-49.31640625,-79.58984375,-248.53515625,-34.1796875,0.0
1734585940.2972517,-78.61328125,46.38671875,158.203125,-66.40625,0.0
1734585940.301158,-73.73046875,-12.20703125,60.546875,-48.828125,0.0
1734585940.3050642,-62.98828125,-49.31640625,-72.75390625,-36.1328125,0.0
1734585940.3089705,-74.70703125,-8.30078125,39.55078125,-21.97265625,0.0
1734585940.3100488,-50.29296875,-31.73828125,38.0859375,-22.94921875,0.0
1734585940.313955,-30.2734375,-76.66015625,-112.3046875,-41.50390625,0.0
1734585940.3178613,-62.98828125,-56.640625,-76.171875,-46.875,0.0
1734585940.3217676,-75.1953125,14.6484375,91.30859375,-42.96875,0.0
1734585940.3256738,-63.96484375,1.953125,126.46484375,-4.39453125,0.0
1734585940.32958,-50.78125,-98.6328125,-107.91015625,1.953125,0.0
1734585940.3334863,-47.8515625,-123.53515625,-358.3984375,-33.69140625,0.0
1734585940.3373926,-55.17578125,6.8359375,-77.63671875,-50.29296875,0.0
1734585940.3412988,-47.36328125,42.96875,192.3828125,-25.87890625,0.0
1734585940.345205,-41.015625,-53.7109375,-48.828125,-23.4375,0.0
1734585940.3491113,-43.9453125,-35.15625,-71.2890625,-38.57421875,0.0
1734585940.3530176,-45.41015625,29.296875,152.34375,-44.921875,0.0
1734585940.374281,-33.69140625,-9.27734375,126.46484375,-19.04296875,0.0
1734585940.3781872,-21.97265625,-43.9453125,6.34765625,-20.5078125,0.0
1734585940.3820934,-29.78515625,-27.83203125,7.8125,-35.15625,0.0
1734585940.3859997,-38.57421875,-6.34765625,104.4921875,-23.4375,0.0
1734585940.389906,-35.64453125,-28.80859375,83.0078125,-26.85546875,0.0
1734585940.3938122,-20.99609375,-80.078125,-128.90625,-12.6953125,0.0
1734585940.3977184,-11.71875,-43.9453125,-116.69921875,-13.671875,0.0
1734585940.4016247,-10.25390625,12.6953125,135.7421875,-29.296875,0.0
1734585940.405531,-4.8828125,-38.0859375,50.78125,-3.41796875,0.0
1734585940.4094372,-14.16015625,-96.6796875,-195.3125,23.4375,0.0
1734585940.4133434,-49.31640625,-2.44140625,-41.9921875,-27.83203125,0.0
1734585940.4172497,-42.96875,45.8984375,169.921875,-63.96484375,0.0
1734585940.4152615,-31.25,-59.5703125,-56.15234375,-47.8515625,0.0
1734585940.4191678,-43.9453125,-61.03515625,-118.65234375,-42.48046875,0.0
1734585940.423074,-41.50390625,22.4609375,96.19140625,-55.17578125,0.0
1734585940.4269803,-37.109375,29.296875,155.76171875,-46.38671875,0.0
1734585940.4308865,-49.31640625,-48.828125,-13.671875,-32.2265625,0.0
1734585940.4347928,-64.94140625,-108.88671875,-316.89453125,-7.32421875,0.0
1734585940.438699,-79.58984375,-12.6953125,-100.09765625,-8.7890625,0.0
1734585940.4426053,-65.4296875,55.17578125,211.9140625,-51.26953125,0.0
1734585940.4465115,-48.828125,-63.96484375,-112.3046875,-48.828125,0.0
1734585940.4504178,-37.109375,-98.6328125,-347.65625,-45.41015625,0.0
1734585940.454324,-31.25,27.34375,8.30078125,-56.15234375,0.0
1734585940.4582303,-23.92578125,-21.484375,6.8359375,-42.48046875,0.0
1734585940.480289,-33.203125,-39.55078125,-108.88671875,-25.87890625,0.0
1734585940.4841952,-48.33984375,10.7421875,2.9296875,-24.4140625,0.0
1734585940.4881015,-40.0390625,25.390625,118.65234375,-30.2734375,0.0
1734585940.4920077,-5.859375,-4.39453125,91.30859375,-27.34375,0.0
1734585940.495914,1.46484375,-43.9453125,-22.94921875,-15.625,0.0
1734585940.4998202,-13.18359375,-51.26953125,-176.7578125,-21.97265625,0.0
1734585940.5037265,-12.6953125,-6.8359375,-42.48046875,-36.1328125,0.0
1734585940.5076327,-16.6015625,16.11328125,125.0,-32.71484375,0.0
1734585940.511539,-5.37109375,-105.46875,-239.74609375,-3.41796875,0.0
1734585940.5154452,-9.27734375,-53.7109375,-210.44921875,1.953125,0.0
1734585940.5193517,-25.390625,57.12890625,151.3671875,-22.4609375,0.0
1734585940.523258,-35.64453125,-19.04296875,70.3125,-33.203125,0.0
1734585940.5019612,-29.296875,-59.5703125,-137.6953125,0.0,0.0
1734585940.5058675,-35.64453125,4.39453125,-18.06640625,0.0,0.0
1734585940.5097737,-32.71484375,-3.41796875,106.4453125,0.0,0.0
1734585940.51368,-5.859375,-63.4765625,-94.7265625,0.0,0.0
1734585940.5175862,-20.99609375,-29.78515625,-69.3359375,0.0,0.0
1734585940.5214925,-6.34765625,-20.01953125,2.9296875,0.0,0.0
1734585940.5253987,5.859375,-35.15625,-1.46484375,0.0,0.0
1734585940.529305,-13.671875,-72.265625,-177.734375,0.0,0.0
1734585940.5332112,-9.27734375,-41.015625,-190.91796875,0.0,0.0
1734585940.5371175,0.0,39.55078125,91.30859375,0.0,0.0
1734585940.5410237,9.765625,43.9453125,204.58984375,0.0,0.0
1734585940.54493,13.18359375,-74.70703125,-116.69921875,0.0,0.0
1734585940.54946,10.25390625,-97.16796875,-276.3671875,-18.06640625,0.0
1734585940.5533662,-6.34765625,61.5234375,170.8984375,-47.36328125,0.0
1734585940.5572724,0.48828125,23.4375,143.5546875,-22.94921875,0.0
1734585940.5611787,-3.41796875,-28.80859375,34.66796875,0.48828125,0.0
1734585940.565085,-11.23046875,-22.4609375,38.57421875,-18.5546875,0.0
1734585940.5689912,-1.953125,-43.9453125,15.13671875,-21.97265625,0.0
1734585940.5728974,-1.953125,-40.0390625,38.0859375,-27.83203125,0.0
1734585940.5768037,-7.8125,-111.328125,-237.79296875,-25.390625,0.0
1734585940.58071,-8.7890625,-61.03515625,-205.078125,-27.83203125,0.0
1734585940.5846162,-12.6953125,44.921875,181.640625,-34.66796875,0.0
1734585940.5885224,-24.4140625,-20.01953125,83.0078125,-10.7421875,0.0
1734585940.5924287,-34.66796875,-47.8515625,12.6953125,-12.20703125,0.0
1734585940.5961943,-24.90234375,-35.15625,43.9453125,0.0,0.0
1734585940.6001005,-17.08984375,-2.9296875,120.1171875,0.0,0.0
1734585940.6040068,-5.37109375,-24.90234375,54.6875,0.0,0.0
1734585940.607913,-14.16015625,-45.41015625,-7.32421875,0.0,0.0
1734585940.6118193,-32.2265625,-3.41796875,118.65234375,0.0,0.0
1734585940.6157255,-29.78515625,-42.48046875,91.30859375,0.0,0.0
1734585940.6196318,-24.90234375,-112.3046875,-104.98046875,0.0,0.0
1734585940.623538,-23.92578125,-103.515625,-289.55078125,0.0,0.0
1734585940.6274443,-41.9921875,-2.9296875,-5.37109375,0.0,0.0
1734585940.6313505,-54.19921875,-28.3203125,91.30859375,0.0,0.0
1734585940.6352568,-48.828125,-75.68359375,-127.44140625,0.0,0.0
1734585940.639163,-37.109375,-20.01953125,-94.23828125,0.0,0.0
1734585940.6402981,-12.6953125,39.0625,155.2734375,-42.96875,0.0
1734585940.6442044,8.7890625,7.32421875,145.99609375,-36.62109375,0.0
1734585940.6481106,-3.90625,-50.78125,-55.17578125,-20.01953125,0.0
1734585940.6520169,-21.97265625,-13.671875,15.625,-27.34375,0.0
1734585940.6559231,-17.08984375,8.30078125,132.32421875,-28.80859375,0.0
1734585940.6598294,-10.25390625,-44.921875,51.7578125,-30.2734375,0.0
1734585940.6637356,-26.85546875,-127.44140625,-263.18359375,-20.01953125,0.0
1734585940.6676419,-24.4140625,-56.640625,-236.328125,-15.625,0.0
1734585940.6715481,-15.625,73.2421875,181.15234375,-38.57421875,0.0
1734585940.6754544,-17.578125,3.90625,64.94140625,-44.43359375,0.0
1734585940.6793606,-20.99609375,-25.87890625,17.08984375,-44.43359375,0.0
1734585940.6832669,-18.06640625,-1.953125,94.23828125,-25.87890625,0.0
1734585940.6855605,-16.6015625,-31.25,48.828125,-22.4609375,0.0
1734585940.6894667,-15.13671875,-58.59375,-34.1796875,-24.4140625,0.0
1734585940.693373,-9.765625,-24.4140625,-15.625,-30.76171875,0.0
1734585940.6972792,-6.34765625,11.23046875,107.421875,-39.0625,0.0
1734585940.7011855,0.0,-1.46484375,151.3671875,-26.85546875,0.0
1734585940.7050917,3.90625,-86.9140625,-88.8671875,-15.625,0.0
1734585940.708998,-6.34765625,-97.65625,-239.2578125,-18.06640625,0.0
1734585940.7129042,-23.4375,25.390625,80.56640625,-25.87890625,0.0
1734585940.7168105,-26.3671875,25.390625,180.6640625,-3.90625,0.0
1734585940.7207167,-15.13671875,-65.4296875,-69.82421875,-19.53125,0.0
1734585940.724623,-25.87890625,-56.15234375,-107.91015625,-42.48046875,0.0
1734585940.7285292,-40.0390625,12.6953125,113.28125,-41.50390625,0.0
1734585940.7485564,-26.3671875,-7.8125,116.69921875,-37.59765625,0.0
1734585940.7524626,-21.97265625,-73.73046875,-68.84765625,-34.1796875,0.0
1734585940.7563689,-13.18359375,-44.43359375,-39.55078125,-33.69140625,0.0
1734585940.7602751,-4.39453125,-17.578125,55.17578125,-35.64453125,0.0
1734585940.7641814,-24.4140625,-40.52734375,6.8359375,-27.34375,0.0
1734585940.7680876,-26.3671875,-58.59375,-127.44140625,-27.34375,0.0
1734585940.7719939,-11.71875,-20.01953125,-96.6796875,-28.80859375,0.0
1734585940.7759001,-25.87890625,32.2265625,137.20703125,-32.71484375,0.0
1734585940.7798064,-40.52734375,-14.16015625,63.4765625,-27.83203125,0.0
1734585940.7837126,-38.0859375,-47.36328125,-114.2578125,-41.9921875,0.0
1734585940.7876189,-49.31640625,-5.859375,-16.6015625,-69.82421875,0.0
1734585940.7915251,-39.55078125,12.6953125,158.203125,-40.52734375,0.0
1734585940.7889574,-23.4375,-53.7109375,8.7890625,-18.5546875,0.0
1734585940.7928636,-38.0859375,-84.9609375,-213.37890625,-50.29296875,0.0
1734585940.7967699,-44.921875,6.34765625,-11.23046875,-42.96875,0.0
1734585940.800676,-62.01171875,29.78515625,168.9453125,-41.50390625,0.0
1734585940.8045824,-57.12890625,-34.66796875,5.37109375,-38.0859375,0.0
1734585940.8084886,-35.64453125,-80.078125,-215.33203125,-3.90625,0.0
1734585940.8123949,-22.4609375,-55.17578125,-211.9140625,14.16015625,0.0
1734585940.816301,4.8828125,18.5546875,67.87109375,-0.48828125,0.0
1734585940.8202074,-7.8125,-39.55078125,-65.91796875,-12.6953125,0.0
1734585940.8241136,-36.62109375,-96.19140625,-327.63671875,-18.5546875,0.0
1734585940.8280199,-37.109375,27.83203125,40.52734375,-45.41015625,0.0
1734585940.831926,-38.0859375,26.85546875,155.2734375,-42.96875,0.0
1734585940.8384495,-39.55078125,-28.80859375,-3.41796875,-14.16015625,0.0
1734585940.8423557,-30.2734375,-1.46484375,21.97265625,-14.6484375,0.0
1734585940.846262,-31.73828125,19.53125,145.99609375,-42.48046875,0.0
1734585940.8501682,-41.9921875,-20.5078125,102.05078125,-32.71484375,0.0
1734585940.8540745,-33.203125,-51.26953125,-20.99609375,-36.1328125,0.0
1734585940.8579807,-18.5546875,-54.19921875,-59.5703125,-41.50390625,0.0
1734585940.861887,-20.01953125,-12.20703125,60.546875,-41.50390625,0.0
1734585940.8657932,-28.3203125,11.23046875,123.046875,-42.48046875,0.0
1734585940.8696995,-12.20703125,-94.7265625,-207.03125,-3.90625,0.0
1734585940.8736057,-24.4140625,-69.82421875,-291.015625,4.39453125,0.0
1734585940.877512,-59.08203125,26.3671875,15.625,-45.41015625,0.0
1734585940.8814182,-53.7109375,-18.5546875,29.296875,-67.3828125,0.0
1734585940.8964255,-50.78125,-49.31640625,-106.93359375,-47.36328125,0.0
1734585940.9003317,-39.0625,-12.20703125,-23.92578125,-27.83203125,0.0
1734585940.904238,-35.15625,24.4140625,166.015625,-57.12890625,0.0
1734585940.9081442,-48.33984375,-43.45703125,17.578125,-54.19921875,0.0
1734585940.9120505,-43.45703125,-84.9609375,-131.8359375,-21.97265625,0.0
1734585940.9159567,-41.50390625,-50.29296875,-48.33984375,-31.73828125,0.0
1734585940.919863,-51.7578125,-16.11328125,86.42578125,-40.52734375,0.0
1734585940.9237692,-43.9453125,-65.91796875,-68.84765625,-29.78515625,0.0
1734585940.9276755,-37.59765625,-105.46875,-321.2890625,-42.96875,0.0
1734585940.9315817,-57.12890625,29.78515625,37.109375,-67.3828125,0.0
1734585940.935488,-40.0390625,29.296875,152.34375,-35.15625,0.0
1734585940.9393942,-16.11328125,-38.57421875,9.27734375,-31.25,0.0
1734585940.9581683,-7.32421875,-47.36328125,-28.3203125,-33.69140625,0.0
1734585940.9620745,-12.20703125,-13.18359375,67.87109375,-23.92578125,0.0
1734585940.9659808,-32.71484375,-8.30078125,120.1171875,-55.6640625,0.0
1734585940.969887,-34.66796875,-39.55078125,14.6484375,-61.5234375,0.0
1734585940.9737933,-9.765625,-34.1796875,19.04296875,-32.2265625,0.0
1734585940.9776995,0.9765625,-53.22265625,22.4609375,-25.87890625,0.0
1734585940.9816058,-31.73828125,-61.5234375,0.48828125,-15.625,0.0
1734585940.985512,-18.5546875,-41.015625,-76.171875,8.30078125,0.0
1734585940.9894183,-22.4609375,0.0,-6.8359375,-18.06640625,0.0
1734585940.9933245,-54.19921875,11.23046875,144.53125,-55.17578125,0.0
1734585940.9972308,-34.66796875,-27.34375,81.54296875,-54.19921875,0.0
1734585941.001137,-16.6015625,-104.00390625,-169.921875,-36.1328125,0.0
1734585940.959659,-30.76171875,-64.94140625,-233.88671875,-39.0625,0.0
1734585940.9635653,-41.50390625,24.90234375,56.15234375,-33.69140625,0.0
1734585940.9674714,-20.99609375,-9.765625,52.24609375,-18.5546875,0.0
1734585940.9713776,12.6953125,-41.015625,-95.703125,-44.43359375,0.0
1734585940.9752839,5.859375,-8.7890625,-1.953125,-46.38671875,0.0
1734585940.97919,-29.78515625,-18.06640625,50.78125,-25.390625,0.0
1734585940.9830964,-26.85546875,-64.94140625,-136.71875,-15.625,0.0
1734585940.9870026,-14.6484375,-41.015625,-146.484375,-30.76171875,0.0
1734585940.9909089,-32.71484375,27.83203125,127.44140625,-50.29296875,0.0
1734585940.994815,-30.76171875,19.53125,168.9453125,-31.73828125,0.0
1734585940.9987214,-18.06640625,-68.359375,-70.80078125,-31.73828125,0.0
1734585941.0026276,-28.80859375,-58.10546875,-121.58203125,-42.96875,0.0
1734585941.0164766,-36.1328125,18.5546875,129.8828125,-54.19921875,0.0
1734585941.020383,-41.50390625,6.34765625,174.8046875,-64.453125,0.0
1734585941.0242891,-40.52734375,-108.3984375,-175.78125,-39.0625,0.0
1734585941.0281954,-36.62109375,-97.16796875,-265.625,-23.4375,0.0
1734585941.0321016,-43.9453125,24.90234375,116.69921875,-35.64453125,0.0
1734585941.036008,-41.9921875,-25.390625,73.73046875,-15.13671875,0.0
1734585941.0399141,-24.4140625,-124.0234375,-289.0625,1.953125,0.0
1734585941.0438204,-16.11328125,-66.89453125,-266.11328125,-32.71484375,0.0
1734585941.0477266,-39.55078125,59.5703125,177.24609375,-62.5,0.0
1734585941.051633,-41.50390625,-8.7890625,62.5,-38.57421875,0.0
1734585941.0555391,-34.1796875,-46.875,5.37109375,-31.25,0.0
1734585941.0594454,-52.734375,-14.16015625,114.2578125,-36.1328125,0.0
1734585941.058351,-30.76171875,-32.2265625,63.96484375,-30.2734375,0.0
1734585941.0622573,-18.5546875,-63.4765625,-26.3671875,-45.8984375,0.0
1734585941.0661635,-53.7109375,-35.15625,-3.41796875,-42.48046875,0.0
1734585941.0700698,-63.4765625,6.34765625,93.75,-30.2734375,0.0
1734585941.073976,-43.9453125,-1.953125,140.625,-27.34375,0.0
1734585941.0778823,-33.69140625,-89.35546875,-79.1015625,9.765625,0.0
1734585941.0817883,-44.43359375,-112.3046875,-338.8671875,14.16015625,0.0
1734585941.0856946,-32.71484375,26.3671875,-9.765625,-37.109375,0.0
1734585941.0896008,-27.34375,44.43359375,184.5703125,-46.875,0.0
1734585941.093507,-31.73828125,-50.29296875,-70.3125,-27.34375,0.0
1734585941.0974133,-30.2734375,-46.875,-108.3984375,-23.92578125,0.0
1734585941.1013196,-36.62109375,25.390625,138.18359375,-42.48046875,0.0
1734585941.1233737,-43.9453125,2.44140625,145.01953125,-37.59765625,0.0
1734585941.12728,-29.78515625,-75.68359375,-48.33984375,-17.08984375,0.0
1734585941.1311862,-30.2734375,-49.8046875,-26.3671875,-7.32421875,0.0
1734585941.1350925,-36.1328125,7.8125,130.859375,-21.484375,0.0
1734585941.1389987,-14.6484375,-24.90234375,96.19140625,-46.875,0.0
1734585941.142905,10.7421875,-84.9609375,-124.0234375,-58.10546875,0.0
1734585941.1468112,0.0,-55.17578125,-109.375,-49.31640625,0.0
1734585941.1507175,-18.5546875,3.90625,149.4140625,-55.6640625,0.0
1734585941.1546237,0.9765625,-23.92578125,82.03125,-61.5234375,0.0
1734585941.15853,-3.41796875,-93.26171875,-166.50390625,-39.0625,0.0
1734585941.1624362,-27.83203125,-33.69140625,-40.52734375,-35.15625,0.0
1734585941.1663425,-34.66796875,21.97265625,153.80859375,-40.52734375,0.0
1734585941.2020552,-30.76171875,-61.5234375,-52.24609375,-36.1328125,0.0
1734585941.2059615,-37.109375,-89.35546875,-211.42578125,-33.203125,0.0
1734585941.2098677,-66.40625,-6.8359375,-5.859375,-45.41015625,0.0
1734585941.213774,-55.17578125,19.53125,157.2265625,-32.2265625,0.0
1734585941.2176802,-42.48046875,-53.7109375,6.34765625,-2.44140625,0.0
1734585941.2215865,-41.50390625,-96.6796875,-229.00390625,-21.484375,0.0
1734585941.2254927,-32.2265625,-29.78515625,-88.37890625,-41.9921875,0.0
1734585941.2293992,-45.41015625,20.01953125,178.7109375,-44.921875,0.0
1734585941.2333055,-41.9921875,-79.1015625,-106.4453125,-19.04296875,0.0
1734585941.2372117,-40.52734375,-113.28125,-366.2109375,-14.16015625,0.0
1734585941.241118,-53.7109375,16.11328125,21.484375,-55.6640625,0.0
1734585941.2450242,-37.109375,16.11328125,150.87890625,-47.8515625,0.0
1734585941.1984878,-25.390625,-38.57421875,5.859375,-32.2265625,0.0
1734585941.202394,-33.203125,-33.69140625,3.90625,-56.640625,0.0
1734585941.2063003,-26.85546875,-4.8828125,122.0703125,-56.15234375,0.0
1734585941.2102065,-17.08984375,-27.83203125,113.76953125,-46.875,0.0
1734585941.2141128,-40.0390625,-70.3125,-82.03125,-54.6875,0.0
1734585941.218019,-70.80078125,-75.1953125,-248.53515625,-43.45703125,0.0
1734585941.2219253,-71.2890625,-25.87890625,-52.24609375,-27.34375,0.0
1734585941.2258315,-45.8984375,-9.27734375,91.30859375,-32.2265625,0.0
1734585941.2297378,-47.8515625,-50.78125,-109.86328125,-47.36328125,0.0
1734585941.233644,-49.31640625,-19.04296875,-28.80859375,-56.640625,0.0
1734585941.2375503,-20.99609375,7.8125,152.83203125,-56.640625,0.0
1734585941.2414565,-15.13671875,-39.55078125,58.59375,-30.2734375,0.0
1734585941.2576458,-32.2265625,-81.0546875,-152.34375,-10.7421875,0.0
1734585941.2615519,-59.5703125,-11.71875,-22.94921875,-42.96875,0.0
1734585941.265458,-52.734375,23.4375,154.296875,-62.98828125,0.0
1734585941.2693644,-27.83203125,-53.7109375,-4.39453125,-38.57421875,0.0
1734585941.2732706,-23.92578125,-115.72265625,-254.8828125,-20.01953125,0.0
1734585941.2771769,-48.828125,-48.828125,-241.2109375,-46.38671875,0.0
1734585941.281083,-47.8515625,18.5546875,14.16015625,-63.4765625,0.0
1734585941.2849894,-29.78515625,-41.50390625,-76.66015625,-39.55078125,0.0
1734585941.2888956,-3.41796875,-87.890625,-355.46875,-28.80859375,0.0
1734585941.2928019,11.23046875,47.36328125,27.83203125,-39.55078125,0.0
1734585941.296708,-23.92578125,27.34375,130.859375,-29.78515625,0.0
1734585941.3006144,-43.45703125,-54.19921875,-48.33984375,-25.87890625,0.0
1734585941.318541,-35.15625,-11.23046875,39.0625,-16.6015625,0.0
1734585941.3224473,-27.34375,15.625,146.97265625,-16.6015625,0.0
1734585941.3263535,-2.44140625,-22.94921875,107.91015625,-31.73828125,0.0
1734585941.3302598,2.9296875,-41.015625,3.90625,-34.1796875,0.0
1734585941.334166,-20.99609375,-34.66796875,2.9296875,-43.45703125,0.0
1734585941.3380723,-30.76171875,-58.59375,12.6953125,-41.9921875,0.0
1734585941.3419785,-24.90234375,-45.8984375,55.6640625,-35.64453125,0.0
1734585941.3458848,-3.41796875,-104.00390625,-204.1015625,-10.25390625,0.0
1734585941.349791,-12.6953125,-57.12890625,-218.26171875,-15.13671875,0.0
1734585941.3536975,-47.36328125,43.9453125,162.59765625,-42.96875,0.0
1734585941.3576038,-57.12890625,-35.64453125,63.4765625,-32.71484375,0.0
1734585941.36151,-64.94140625,-51.26953125,11.23046875,-24.4140625,0.0
1734585941.3398824,-70.3125,-36.62109375,26.3671875,-32.71484375,0.0
1734585941.3437886,-78.125,-13.18359375,92.28515625,-44.43359375,0.0
1734585941.3476949,-77.63671875,-28.80859375,43.45703125,-13.18359375,0.0
1734585941.3516011,-52.24609375,-59.5703125,-72.265625,-17.578125,0.0
1734585941.3555074,-47.8515625,6.34765625,99.609375,-64.453125,0.0
1734585941.3594136,-74.21875,-35.64453125,27.83203125,-41.015625,0.0
1734585941.3633199,-75.1953125,-67.87109375,-102.05078125,-33.69140625,0.0
1734585941.3672261,-67.3828125,-22.94921875,-12.6953125,-45.41015625,0.0
1734585941.3711324,-71.2890625,0.9765625,96.6796875,-55.6640625,0.0
1734585941.3750386,-48.828125,8.7890625,146.97265625,-41.50390625,0.0
1734585941.3789449,-35.15625,-88.37890625,-130.37109375,-13.18359375,0.0
1734585941.3828511,-57.6171875,-117.1875,-352.5390625,-28.80859375,0.0
1734585941.3911088,-72.265625,29.78515625,61.03515625,-40.0390625,0.0
1734585941.395015,-51.26953125,-9.765625,83.49609375,-21.97265625,0.0
1734585941.3989213,-38.0859375,-51.7578125,-110.3515625,-27.34375,0.0
1734585941.4028275,-34.66796875,4.8828125,11.23046875,-32.2265625,0.0
1734585941.4067338,-37.109375,1.46484375,93.26171875,-22.4609375,0.0
1734585941.41064,-35.15625,-40.52734375,21.97265625,-35.15625,0.0
1734585941.414546,-27.83203125,-126.46484375,-320.3125,-21.484375,0.0
1734585941.4184523,-28.3203125,-57.12890625,-263.671875,-17.08984375,0.0
1734585941.4223585,-21.97265625,78.61328125,182.6171875,-30.76171875,0.0
1734585941.4262648,-26.3671875,-1.46484375,36.62109375,-27.83203125,0.0
1734585941.430171,-43.9453125,-37.59765625,-13.671875,-39.55078125,0.0
1734585941.4340773,-60.546875,5.37109375,126.953125,-42.96875,0.0
1734585941.4340446,-55.17578125,-21.484375,41.9921875,-21.97265625,0.0
1734585941.4379508,-46.38671875,-48.828125,-40.0390625,-10.7421875,0.0
1734585941.441857,-42.48046875,-21.484375,3.90625,-24.4140625,0.0
1734585941.4457633,-47.8515625,5.859375,101.07421875,-20.99609375,0.0
1734585941.4496696,-45.41015625,-19.04296875,82.03125,-20.5078125,0.0
1734585941.4535758,-24.90234375,-78.125,-108.3984375,-20.99609375,0.0
1734585941.457482,-36.1328125,-78.125,-256.8359375,-42.96875,0.0
1734585941.4613883,-62.5,5.859375,-17.578125,-51.26953125,0.0
1734585941.4652946,-55.17578125,25.390625,201.66015625,-32.71484375,0.0
1734585941.4692008,-37.109375,-66.89453125,-104.98046875,-34.1796875,0.0
1734585941.473107,-32.2265625,-57.6171875,-182.6171875,-36.1328125,0.0
1734585941.4770133,-47.36328125,13.671875,109.86328125,-41.015625,0.0
1734585941.4998608,0.0,2.44140625,159.66796875,-40.52734375,0.0
1734585941.503767,0.0,-100.5859375,-189.94140625,-9.27734375,0.0
1734585941.5076733,0.0,-97.16796875,-285.64453125,-12.6953125,0.0
1734585941.5115795,0.0,25.87890625,145.99609375,-49.31640625,0.0
1734585941.5154858,0.0,-9.765625,100.5859375,-32.71484375,0.0
1734585941.519392,0.0,-72.265625,-123.046875,-2.44140625,0.0
1734585941.5232983,0.0,-47.8515625,-179.19921875,-11.23046875,0.0
1734585941.5272045,0.0,2.9296875,31.25,-31.73828125,0.0
1734585941.5311108,0.0,-26.85546875,37.109375,-19.04296875,0.0
1734585941.535017,0.0,-65.4296875,-174.8046875,-22.4609375,0.0
1734585941.5389233,0.0,2.44140625,-24.4140625,-43.45703125,0.0
1734585941.5428295,0.0,49.8046875,175.78125,-45.41015625,0.0
1734585941.5568917,-10.25390625,-37.59765625,-27.83203125,-23.4375,0.0
1734585941.560798,-19.04296875,-50.29296875,-77.1484375,-16.11328125,0.0
1734585941.5647042,-24.90234375,3.90625,90.8203125,-34.1796875,0.0
1734585941.5686104,-36.1328125,6.34765625,135.25390625,-17.578125,0.0
1734585941.5725167,-47.36328125,-44.921875,19.04296875,-2.44140625,0.0
1734585941.576423,-27.34375,-83.0078125,-211.42578125,-20.5078125,0.0
1734585941.5803292,-5.37109375,-24.4140625,-96.6796875,-37.109375,0.0
1734585941.5842354,-48.33984375,26.3671875,150.390625,-44.921875,0.0
1734585941.5881417,-63.4765625,-68.84765625,-108.3984375,-40.0390625,0.0
1734585941.592048,-46.38671875,-104.4921875,-369.62890625,-37.109375,0.0
1734585941.5959542,-59.08203125,25.390625,9.27734375,-48.828125,0.0
1734585941.5998604,-59.5703125,-8.30078125,64.453125,-43.45703125,0.0
1734585941.5798562,-63.96484375,-39.0625,-88.37890625,-32.71484375,0.0
1734585941.5837624,-53.22265625,7.32421875,21.97265625,-18.06640625,0.0
1734585941.5876687,-34.1796875,17.08984375,134.765625,-18.5546875,0.0
1734585941.591575,-41.50390625,-20.01953125,94.23828125,-37.109375,0.0
1734585941.5954812,-40.0390625,-66.40625,-80.56640625,-27.83203125,0.0
1734585941.5993874,-28.3203125,-64.453125,-220.21484375,-27.83203125,0.0
1734585941.6032937,-18.5546875,-7.8125,-28.3203125,-28.80859375,0.0
1734585941.6072,-14.16015625,2.9296875,96.19140625,-15.13671875,0.0
1734585941.6111062,-12.6953125,-46.875,-114.74609375,-14.6484375,0.0
1734585941.6150124,-9.765625,-6.8359375,-25.390625,-23.92578125,0.0
1734585941.6189187,-0.48828125,23.4375,144.53125,-32.2265625,0.0
1734585941.622825,0.9765625,-32.2265625,55.17578125,-25.390625,0.0
1734585941.6298404,-0.48828125,-127.9296875,-229.4921875,16.6015625,0.0
1734585941.6337466,-18.5546875,-42.48046875,-120.1171875,12.6953125,0.0
1734585941.6376529,-23.92578125,7.32421875,54.19921875,-21.484375,0.0
1734585941.6415591,-31.73828125,-56.15234375,-64.94140625,-36.1328125,0.0
1734585941.6454654,-49.31640625,-38.0859375,-49.31640625,-38.0859375,0.0
1734585941.6493716,-54.6875,-41.015625,-25.390625,-37.109375,0.0
1734585941.6532779,-54.6875,-7.8125,92.7734375,-39.55078125,0.0
1734585941.6571841,-31.73828125,-39.55078125,-34.1796875,-17.578125,0.0
1734585941.6610904,-31.73828125,-87.890625,-311.03515625,-14.16015625,0.0
1734585941.6649966,-46.38671875,34.1796875,20.99609375,-46.875,0.0
1734585941.6689029,-33.69140625,38.0859375,158.69140625,-52.734375,0.0
1734585941.6728091,-35.64453125,-36.1328125,-30.2734375,-35.15625,0.0
1734585941.6749418,-44.921875,-24.4140625,-15.13671875,-21.484375,0.0
1734585941.678848,-17.578125,9.765625,106.93359375,-30.76171875,0.0
1734585941.6827543,-12.20703125,-18.5546875,87.890625,-31.25,0.0
1734585941.6866605,-42.96875,-47.36328125,-11.71875,-28.80859375,0.0
1734585941.6905668,-51.26953125,-40.52734375,19.53125,-37.59765625,0.0
1734585941.694473,-48.33984375,-55.6640625,18.5546875,-30.76171875,0.0
1734585941.6983793,-38.0859375,-52.734375,-27.83203125,-31.73828125,0.0
1734585941.7022855,-23.92578125,-108.88671875,-285.15625,-24.4140625,0.0
1734585941.7061918,-33.69140625,-55.6640625,-254.39453125,-19.53125,0.0
1734585941.710098,-41.015625,49.31640625,134.27734375,-39.0625,0.0
1734585941.7140043,-27.83203125,-16.6015625,47.8515625,-32.71484375,0.0
1734585941.7179105,-30.76171875,-47.8515625,-66.40625,-24.4140625,0.0
1734585941.7384825,-43.45703125,-32.2265625,-49.31640625,-33.69140625,0.0
1734585941.7423887,-31.25,3.41796875,76.171875,-38.0859375,0.0
1734585941.746295,-40.0390625,-27.34375,16.11328125,-34.1796875,0.0
1734585941.7502012,-48.33984375,-43.45703125,-64.94140625,-38.0859375,0.0
1734585941.7541075,-33.69140625,-5.859375,67.87109375,-56.15234375,0.0
1734585941.7580137,-44.921875,-43.9453125,18.06640625,-33.69140625,0.0
1734585941.76192,-38.0859375,-82.03125,-178.22265625,-17.08984375,0.0
1734585941.7658262,-41.9921875,-78.61328125,-318.359375,-30.76171875,0.0
1734585941.7697325,-74.21875,6.8359375,-59.5703125,-38.0859375,0.0
1734585941.7736387,-65.91796875,11.23046875,100.5859375,-42.96875,0.0
1734585941.777545,-60.546875,-21.97265625,-19.04296875,-38.0859375,0.0
1734585941.7814512,-70.80078125,-14.6484375,-28.3203125,-46.875,0.0
1734585941.7779112,-47.36328125,5.859375,119.140625,-73.2421875,0.0
1734585941.7818174,-38.0859375,-12.6953125,105.46875,-72.265625,0.0
1734585941.7857237,-65.4296875,-41.9921875,-44.921875,-61.03515625,0.0
1734585941.78963,-76.171875,-22.4609375,8.30078125,-62.98828125,0.0
1734585941.7935362,-63.4765625,-9.765625,126.953125,-54.6875,0.0
1734585941.7974424,-48.828125,-71.2890625,-30.76171875,-36.1328125,0.0
1734585941.8013487,-58.59375,-67.3828125,-178.7109375,-45.41015625,0.0
1734585941.805255,-69.82421875,4.8828125,-15.13671875,-41.9921875,0.0
1734585941.8091612,-64.453125,12.6953125,129.8828125,-46.875,0.0
1734585941.8130674,-34.66796875,-17.08984375,82.03125,-59.08203125,0.0
1734585941.8169737,-8.30078125,-111.328125,-226.5625,-45.41015625,0.0
1734585941.82088,-42.48046875,-74.21875,-291.015625,-57.12890625,0.0
1734585941.8052993,-64.453125,0.48828125,-68.359375,-63.4765625,0.0
1734585941.8092055,-58.10546875,-29.78515625,-81.54296875,-61.5234375,0.0
1734585941.8131118,-56.15234375,-2.9296875,-39.55078125,-68.84765625,0.0
1734585941.817018,-42.96875,25.390625,84.9609375,-44.921875,0.0
1734585941.820924,-43.45703125,5.859375,121.58203125,-29.296875,0.0
1734585941.8248303,-20.99609375,-71.2890625,-142.08984375,-24.4140625,0.0
1734585941.8287365,-7.32421875,-60.05859375,-198.2421875,-8.30078125,0.0
1734585941.8326428,-19.53125,31.73828125,91.796875,-23.4375,0.0
1734585941.836549,-28.80859375,32.2265625,166.9921875,-35.64453125,0.0
1734585941.8404553,-13.671875,-73.73046875,-126.46484375,-12.6953125,0.0
1734585941.8443615,5.37109375,-98.6328125,-357.421875,-4.8828125,0.0
1734585941.8482678,-4.39453125,42.48046875,60.05859375,-40.0390625,0.0
1734585941.8748813,-10.25390625,23.92578125,155.2734375,-34.66796875,0.0
1734585941.8787875,-20.99609375,-28.80859375,-2.44140625,-20.5078125,0.0
1734585941.8826938,-11.23046875,-16.6015625,-25.87890625,-5.859375,0.0
1734585941.8866,0.0,2.44140625,56.15234375,-9.765625,0.0
1734585941.8905063,-9.765625,7.32421875,85.9375,-19.04296875,0.0
1734585941.8944125,-10.25390625,-45.41015625,-127.44140625,-4.39453125,0.0
1734585941.8983188,1.46484375,-21.484375,-98.6328125,-5.859375,0.0
1734585941.902225,6.8359375,28.80859375,123.046875,-35.64453125,0.0
1734585941.9061313,0.0,-0.48828125,72.75390625,-40.0390625,0.0
1734585941.9100375,-14.16015625,-68.84765625,-143.06640625,-9.765625,0.0
1734585941.9139438,-25.390625,-10.25390625,-33.69140625,-36.62109375,0.0
1734585941.91785,-36.1328125,28.80859375,146.484375,-54.6875,0.0
1734585941.9129827,-43.9453125,-60.546875,-68.359375,-43.45703125,0.0
1734585941.916889,-38.0859375,-35.64453125,-73.73046875,-45.8984375,0.0
1734585941.9207952,-34.66796875,21.484375,100.5859375,-47.36328125,0.0
1734585941.9247015,-35.64453125,13.18359375,130.37109375,-42.48046875,0.0
1734585941.9286077,-19.04296875,-30.2734375,25.87890625,-37.59765625,0.0
1734585941.932514,-15.13671875,-69.3359375,-192.3828125,-34.66796875,0.0
1734585941.9364202,-24.90234375,-41.015625,-182.12890625,-50.29296875,0.0
1734585941.9403265,-23.4375,-21.484375,-78.125,-47.36328125,0.0
1734585941.9442327,-28.3203125,-77.1484375,-238.76953125,-23.4375,0.0
1734585941.948139,-30.76171875,-64.453125,-248.046875,-36.62109375,0.0
1734585941.9520452,-17.578125,45.8984375,105.46875,-54.6875,0.0
1734585941.9559515,-6.8359375,30.76171875,140.13671875,-41.50390625,0.0
1734585941.9603915,-15.13671875,-62.98828125,-68.359375,-26.3671875,0.0
1734585941.9642978,-4.39453125,-37.59765625,-60.546875,-31.25,0.0
1734585941.968204,5.859375,36.1328125,131.8359375,-34.1796875,0.0
1734585941.9721103,-7.8125,1.46484375,99.609375,-31.73828125,0.0
1734585941.9760165,5.859375,-77.1484375,-117.67578125,-18.5546875,0.0
1734585941.9799228,-11.71875,-71.77734375,-247.55859375,7.32421875,0.0
1734585941.983829,-35.64453125,12.20703125,-17.08984375,-23.4375,0.0
1734585941.9877353,-41.9921875,24.90234375,146.484375,-45.41015625,0.0
1734585941.9916415,-45.8984375,-108.3984375,-240.72265625,-24.90234375,0.0
1734585941.9955478,-55.17578125,-78.125,-311.03515625,-46.875,0.0
1734585941.999454,-48.33984375,59.08203125,115.72265625,-54.6875,0.0
1734585942.0033603,-40.52734375,-1.46484375,91.30859375,-31.73828125,0.0
1734585942.0034165,-37.59765625,-62.5,-131.8359375,-19.53125,0.0
1734585942.0073228,-28.3203125,-23.92578125,-81.0546875,-15.13671875,0.0
1734585942.011229,-32.2265625,26.3671875,139.6484375,-34.1796875,0.0
1734585942.0151353,-46.875,-26.85546875,30.2734375,-36.62109375,0.0
1734585942.0190415,-50.29296875,-57.12890625,-69.3359375,-39.55078125,0.0
1734585942.0229478,-58.10546875,-48.828125,-39.55078125,-45.41015625,0.0
1734585942.026854,-74.70703125,-20.01953125,57.6171875,-46.875,0.0
1734585942.0307603,-75.1953125,-55.6640625,-58.59375,-48.33984375,0.0
1734585942.0346665,-71.77734375,-99.12109375,-332.03125,-46.875,0.0
1734585942.0385728,-83.0078125,18.06640625,-13.18359375,-62.98828125,0.0
1734585942.042479,-82.51953125,22.4609375,151.85546875,-61.03515625,0.0
1734585942.0463853,-65.91796875,-54.6875,-52.24609375,-41.9921875,0.0
1734585942.0500736,-69.3359375,-64.94140625,-164.0625,-31.73828125,0.0
1734585942.0539799,-82.03125,2.44140625,51.7578125,-37.109375,0.0
1734585942.0578861,-81.0546875,-14.16015625,111.81640625,-57.6171875,0.0
1734585942.0617924,-87.890625,-82.03125,-93.26171875,-45.41015625,0.0
1734585942.0656986,-82.51953125,-57.12890625,-61.5234375,-31.25,0.0
1734585942.0696049,-81.54296875,-52.734375,-23.92578125,-27.83203125,0.0
1734585942.0735111,-102.05078125,-47.36328125,-93.75,-41.9921875,0.0
1734585942.0774174,-112.3046875,-112.79296875,-344.23828125,-26.3671875,0.0
1734585942.0813236,-105.46875,-71.77734375,-259.27734375,-36.62109375,0.0
1734585942.0852299,-95.703125,42.96875,125.9765625,-68.359375,0.0
1734585942.0891361,-95.21484375,-20.5078125,11.71875,-52.734375,0.0
1734585942.0930424,-89.84375,-40.0390625,3.90625,-51.26953125,0.0
1734585942.0934157,-89.35546875,-44.921875,-24.90234375,-49.8046875,0.0
1734585942.097322,-104.98046875,-26.85546875,-34.66796875,-64.94140625,0.0
1734585942.1012282,-115.72265625,-34.66796875,1.46484375,-57.6171875,0.0
1734585942.1051345,-111.328125,-67.3828125,-167.48046875,-36.1328125,0.0
1734585942.1090407,-105.95703125,-11.23046875,-41.50390625,-39.0625,0.0
1734585942.112947,-95.703125,-22.94921875,41.015625,-37.109375,0.0
1734585942.1168532,-68.359375,-73.2421875,-118.65234375,-23.4375,0.0
1734585942.1207595,-70.80078125,-87.40234375,-302.24609375,-23.92578125,0.0
1734585942.1246657,-88.37890625,13.671875,-22.94921875,-49.8046875,0.0
1734585942.1285717,-85.44921875,38.57421875,170.8984375,-43.45703125,0.0
1734585942.132478,-86.42578125,-39.55078125,-60.05859375,-15.13671875,0.0
1734585942.1363842,-91.30859375,-44.921875,-98.6328125,-41.50390625,0.0
1734585942.1395314,-106.93359375,7.32421875,121.58203125,-78.125,0.0
1734585942.1434376,-109.86328125,-8.7890625,124.51171875,-68.84765625,0.0
1734585942.1473439,-99.12109375,-41.9921875,-26.3671875,-53.7109375,0.0
1734585942.1512501,-104.00390625,-20.01953125,8.7890625,-40.52734375,0.0
1734585942.1551564,-99.12109375,-19.04296875,96.6796875,-43.45703125,0.0
1734585942.1590626,-79.58984375,-61.03515625,-14.6484375,-34.66796875,0.0
1734585942.1629689,-69.82421875,-139.6484375,-375.48828125,-17.08984375,0.0
1734585942.1668751,-83.0078125,-81.54296875,-308.10546875,-35.15625,0.0
1734585942.1707814,-113.28125,38.0859375,148.4375,-64.453125,0.0
1734585942.1746876,-100.5859375,-11.71875,68.84765625,-44.43359375,0.0
1734585942.1785939,-87.40234375,-43.9453125,3.90625,-37.109375,0.0
1734585942.1825001,-88.37890625,-11.23046875,97.16796875,-58.10546875,0.0
1734585942.2033646,-78.125,-32.2265625,46.875,-52.734375,0.0
1734585942.2072709,-86.9140625,-80.56640625,-62.5,-45.8984375,0.0
1734585942.211177,-93.26171875,-62.5,-51.26953125,-46.875,0.0
1734585942.2150834,-91.30859375,-9.765625,72.265625,-49.31640625,0.0
1734585942.2189896,-86.9140625,-16.6015625,110.3515625,-48.828125,0.0
1734585942.2228959,-85.9375,-96.6796875,-119.140625,-52.24609375,0.0
1734585942.226802,-99.12109375,-122.55859375,-357.91015625,-41.9921875,0.0
1734585942.2307084,-98.14453125,7.8125,-25.87890625,-54.6875,0.0
1734585942.2346146,-72.265625,27.34375,159.66796875,-44.43359375,0.0
1734585942.2385209,-70.3125,-56.640625,-62.5,-13.18359375,0.0
1734585942.242427,-79.1015625,-35.64453125,-46.38671875,-45.8984375,0.0
1734585942.2463334,-88.37890625,6.34765625,117.67578125,-76.171875,0.0
1734585942.2616458,-70.80078125,-25.390625,82.51953125,-62.5,0.0
1734585942.265552,-62.98828125,-62.98828125,-65.4296875,-46.38671875,0.0
1734585942.2694583,-74.21875,-39.55078125,-27.34375,-39.0625,0.0
1734585942.2733645,-80.078125,-9.27734375,99.12109375,-39.55078125,0.0
1734585942.2772708,-83.984375,-26.3671875,68.84765625,-37.59765625,0.0
1734585942.281177,-71.2890625,-64.94140625,-133.30078125,-24.4140625,0.0
1734585942.2850833,-76.171875,-37.59765625,-169.43359375,-15.13671875,0.0
1734585942.2889895,-89.35546875,18.5546875,65.4296875,-25.390625,0.0
1734585942.2928958,-77.63671875,2.9296875,66.40625,-25.87890625,0.0
1734585942.2968023,-71.77734375,-103.515625,-288.0859375,-2.44140625,0.0
1734585942.3007085,-93.75,-53.7109375,-242.1875,-11.23046875,0.0
1734585942.3046148,-89.35546875,42.48046875,110.3515625,-12.6953125,0.0
1734585942.284766,-66.89453125,-35.15625,-40.0390625,2.44140625,0.0
1734585942.2886722,-40.52734375,-52.734375,-233.3984375,-12.6953125,0.0
1734585942.2925785,-44.43359375,-0.48828125,-97.65625,-31.25,0.0
1734585942.2964847,-66.89453125,43.9453125,138.671875,-39.55078125,0.0
1734585942.300391,-50.29296875,-20.01953125,-50.78125,-0.48828125,0.0
1734585942.3042972,-53.7109375,-85.44921875,-346.6796875,5.37109375,0.0
1734585942.3082035,-77.1484375,-3.41796875,-171.38671875,-58.10546875,0.0
1734585942.3121097,-49.31640625,53.7109375,123.046875,-49.31640625,0.0
1734585942.316016,-41.9921875,-23.4375,-121.09375,1.46484375,0.0
1734585942.3199222,-102.5390625,-38.57421875,-257.8125,-58.10546875,0.0
1734585942.3238285,-124.51171875,24.90234375,38.0859375,-108.88671875,0.0
1734585942.3277347,-123.046875,27.34375,104.4921875,-106.4453125,0.0
1734585942.334664,-137.6953125,-89.84375,-224.609375,-104.4921875,0.0
1734585942.3385704,-170.8984375,-101.07421875,-397.4609375,-124.0234375,0.0
1734585942.3424766,-207.51953125,43.45703125,26.3671875,-172.36328125,0.0
1734585942.3463829,-184.5703125,-4.39453125,18.06640625,-155.76171875,0.0
1734585942.350289,-169.921875,-61.5234375,-186.5234375,-147.94921875,0.0
1734585942.3541954,-177.24609375,-43.45703125,-250.9765625,-161.1328125,0.0
1734585942.3581016,-209.9609375,-17.578125,-204.1015625,-196.77734375,0.0
1734585942.3620079,-219.23828125,4.39453125,0.9765625,-181.15234375,0.0
1734585942.365914,-203.125,-101.5625,-257.8125,-146.484375,0.0
1734585942.3698204,-203.125,-62.01171875,-254.8828125,-175.78125,0.0
1734585942.3737266,-187.5,59.08203125,155.2734375,-206.0546875,0.0
1734585942.3776326,-185.05859375,-8.30078125,77.63671875,-177.24609375,0.0
1734585942.3785276,-162.109375,-68.84765625,-96.6796875,-132.32421875,0.0
1734585942.382434,-149.90234375,-31.25,-20.99609375,-149.90234375,0.0
1734585942.3863401,-156.25,20.01953125,171.875,-161.62109375,0.0
1734585942.3902464,-104.4921875,-26.85546875,58.59375,-132.32421875,0.0
1734585942.3941526,-84.9609375,-58.10546875,-31.73828125,-124.51171875,0.0
1734585942.398059,-92.7734375,-43.9453125,1.953125,-99.12109375,0.0
1734585942.4019651,-85.44921875,-20.5078125,91.30859375,-104.98046875,0.0
1734585942.4058714,-58.59375,-70.3125,-41.9921875,-76.66015625,0.0
1734585942.4097776,-25.87890625,-98.14453125,-305.6640625,-52.24609375,0.0
1734585942.413684,-43.9453125,28.80859375,2.44140625,-82.03125,0.0
1734585942.4175901,-50.29296875,38.0859375,210.9375,-73.73046875,0.0
1734585942.4214964,-45.41015625,-76.66015625,-66.40625,-75.1953125,0.0
1734585942.424559,-44.921875,-60.546875,-90.8203125,-67.87109375,0.0
1734585942.4284654,-0.48828125,22.94921875,187.5,-35.64453125,0.0
1734585942.4323716,14.16015625,-17.578125,157.71484375,-10.7421875,0.0
1734585942.4362776,3.90625,-55.6640625,67.3828125,-17.08984375,0.0
1734585942.4401839,27.83203125,-51.26953125,64.94140625,-23.4375,0.0
1734585942.4440901,67.87109375,-59.08203125,60.546875,4.39453125,0.0
1734585942.4479964,81.54296875,-52.24609375,102.5390625,19.04296875,0.0
1734585942.4519026,75.68359375,-128.90625,-175.29296875,35.15625,0.0
1734585942.4558089,77.63671875,-90.8203125,-198.2421875,35.15625,0.0
1734585942.4597151,48.33984375,11.23046875,178.7109375,20.5078125,0.0
1734585942.4636214,73.73046875,-49.8046875,78.61328125,57.12890625,0.0
1734585942.4675276,95.21484375,-54.6875,58.10546875,55.6640625,0.0
1734585942.4881892,42.48046875,-62.98828125,84.47265625,26.85546875,0.0
1734585942.4920955,13.18359375,-54.6875,132.8125,14.6484375,0.0
1734585942.4960017,0.0,-75.1953125,80.078125,20.5078125,0.0
1734585942.499908,17.08984375,-81.54296875,24.90234375,17.578125,0.0
1734585942.5038142,37.109375,-40.0390625,97.65625,27.83203125,0.0
1734585942.5077205,39.55078125,-70.3125,83.0078125,41.015625,0.0
1734585942.5116267,48.33984375,-108.3984375,-53.22265625,52.24609375,0.0
1734585942.515533,19.04296875,-125.0,-260.7421875,57.12890625,0.0
1734585942.5194392,10.25390625,-15.625,32.71484375,54.6875,0.0
1734585942.5233455,5.37109375,4.39453125,213.8671875,54.19921875,0.0
1734585942.5272517,10.25390625,-62.01171875,16.6015625,63.4765625,0.0
1734585942.531158,34.1796875,-49.8046875,28.80859375,82.03125,0.0
1734585942.509736,12.20703125,-20.5078125,169.921875,69.3359375,0.0
1734585942.5136423,17.08984375,-49.31640625,92.28515625,50.78125,0.0
1734585942.5175486,21.97265625,-83.49609375,-72.75390625,50.78125,0.0
1734585942.5214548,-5.37109375,-19.53125,24.4140625,35.64453125,0.0
1734585942.525361,-4.8828125,21.484375,145.01953125,40.52734375,0.0
1734585942.5292673,66.40625,-41.015625,9.27734375,122.55859375,0.0
1734585942.5331736,110.83984375,-35.64453125,-100.09765625,140.625,0.0
1734585942.5370798,66.89453125,51.26953125,40.52734375,22.94921875,0.0
1734585942.540986,41.9921875,112.3046875,161.1328125,-43.45703125,0.0
1734585942.5448923,77.63671875,146.97265625,135.25390625,-29.296875,0.0
1734585942.5487986,82.03125,61.5234375,-211.9140625,0.9765625,0.0
1734585942.5527048,42.96875,94.23828125,-194.3359375,-19.04296875,0.0
1734585942.5598996,3.41796875,167.48046875,127.44140625,-31.25,0.0
1734585942.5638056,-18.5546875,115.234375,45.41015625,-12.6953125,0.0
1734585942.5677118,-20.5078125,137.20703125,91.30859375,-19.04296875,0.0
1734585942.571618,-37.109375,153.3203125,160.15625,-41.9921875,0.0
1734585942.5755243,-32.2265625,134.27734375,152.34375,-53.22265625,0.0
1734585942.5794306,-19.04296875,86.42578125,9.765625,-10.7421875,0.0
1734585942.5833368,-48.828125,75.68359375,-189.94140625,-1.46484375,0.0
1734585942.587243,-90.33203125,194.3359375,62.01171875,-34.66796875,0.0
1734585942.5911493,-128.90625,189.94140625,252.44140625,-47.36328125,0.0
1734585942.5950556,-153.80859375,80.078125,66.89453125,-38.0859375,0.0
1734585942.5989618,-145.5078125,70.3125,83.984375,-56.640625,0.0
1734585942.602868,-118.65234375,106.93359375,229.00390625,-51.26953125,0.0
1734585942.6430802,-96.6796875,89.84375,212.890625,-26.3671875,0.0
1734585942.6469865,-110.83984375,38.0859375,149.90234375,-18.06640625,0.0
1734585942.6508927,-173.33984375,45.8984375,166.50390625,-40.0390625,0.0
1734585942.654799,-192.3828125,77.63671875,234.86328125,-74.21875,0.0
1734585942.6587052,-156.25,41.50390625,214.35546875,-71.2890625,0.0
1734585942.6626115,-148.92578125,-52.24609375,0.9765625,-53.22265625,0.0
1734585942.6665177,-192.87109375,-14.16015625,53.22265625,-41.015625,0.0
1734585942.670424,-227.5390625,41.50390625,201.171875,-57.12890625,0.0
1734585942.6743302,-221.19140625,-2.9296875,131.8359375,-79.1015625,0.0
1734585942.6782365,-236.81640625,-3.90625,42.96875,-50.78125,0.0
1734585942.6821427,-268.5546875,43.9453125,129.39453125,-31.73828125,0.0
1734585942.686049,-280.2734375,53.7109375,250.9765625,-61.03515625,0.0
1734585942.6776073,-279.78515625,-20.99609375,132.32421875,-72.265625,0.0
1734585942.6815138,-322.265625,-22.4609375,131.34765625,-68.359375,0.0
1734585942.68542,-360.3515625,55.6640625,225.5859375,-70.80078125,0.0
1734585942.6893263,-343.75,78.61328125,258.30078125,-52.734375,0.0
1734585942.6932325,-343.75,29.296875,161.62109375,-50.78125,0.0
1734585942.6971388,-332.51953125,-8.7890625,79.1015625,-67.3828125,0.0
1734585942.701045,-315.4296875,47.8515625,155.76171875,-63.96484375,0.0
1734585942.7049513,-291.50390625,101.07421875,284.1796875,-65.4296875,0.0
1734585942.7088575,-270.99609375,24.90234375,66.40625,-72.75390625,0.0
1734585942.7127638,-290.52734375,13.671875,-16.11328125,-34.1796875,0.0
1734585942.71667,-260.7421875,74.21875,166.50390625,-9.765625,0.0
1734585942.7205763,-235.83984375,85.44921875,217.28515625,-56.640625,0.0
1734585942.7249336,-241.69921875,20.01953125,-39.0625,-63.96484375,0.0
1734585942.7288399,-237.3046875,4.39453125,-181.640625,-41.50390625,0.0
1734585942.7327461,-229.4921875,171.38671875,219.23828125,-21.484375,0.0
1734585942.7366524,-174.31640625,179.6875,202.63671875,-58.10546875,0.0
1734585942.7405586,-134.765625,133.7890625,160.64453125,-109.375,0.0
1734585942.7444649,-139.16015625,107.421875,98.6328125,-67.3828125,0.0
1734585942.7483711,-139.6484375,131.8359375,140.13671875,-72.75390625,0.0
1734585942.7522774,-98.6328125,119.140625,176.7578125,-84.9609375,0.0
1734585942.7561836,-50.29296875,67.87109375,61.03515625,-48.828125,0.0
1734585942.7600899,-38.0859375,94.7265625,137.6953125,-50.78125,0.0
1734585942.7639961,4.39453125,102.5390625,215.8203125,-74.70703125,0.0
1734585942.7679024,32.2265625,56.15234375,176.7578125,-76.171875,0.0
1734585942.7499237,11.23046875,-51.7578125,-128.90625,-36.62109375,0.0
1734585942.75383,-5.37109375,-10.7421875,-113.76953125,-46.875,0.0
1734585942.7577362,-14.6484375,78.61328125,194.82421875,-77.63671875,0.0
1734585942.7616425,23.4375,42.96875,138.671875,-62.5,0.0
1734585942.7655487,60.05859375,16.11328125,121.58203125,-45.41015625,0.0
1734585942.769455,91.796875,1.46484375,126.953125,-51.7578125,0.0
1734585942.7733612,107.421875,-6.8359375,119.140625,-81.0546875,0.0
1734585942.7772675,103.515625,-30.2734375,-15.625,-62.01171875,0.0
1734585942.7811737,105.95703125,-7.8125,-45.8984375,-52.734375,0.0
1734585942.78508,114.2578125,62.5,185.05859375,-70.80078125,0.0
1734585942.7889862,101.5625,56.640625,256.34765625,-58.59375,0.0
1734585942.7928922,61.5234375,-56.15234375,-85.44921875,-43.45703125,0.0
1734585942.8001199,-15.13671875,-82.51953125,-228.515625,-51.26953125,0.0
1734585942.8040261,-94.7265625,62.01171875,189.94140625,-99.12109375,0.0
1734585942.8079324,-88.8671875,51.26953125,188.96484375,-91.30859375,0.0
1734585942.8118386,-81.0546875,12.20703125,72.265625,-70.80078125,0.0
1734585942.8157449,-70.80078125,32.71484375,83.0078125,-66.89453125,0.0
1734585942.819651,-31.73828125,31.73828125,85.9375,-37.109375,0.0
1734585942.8235571,-36.62109375,42.96875,91.30859375,-70.80078125,0.0
1734585942.8274634,-60.546875,-19.04296875,-205.078125,-83.984375,0.0
1734585942.8313696,-69.3359375,16.6015625,-227.5390625,-88.37890625,0.0
1734585942.835276,-80.078125,125.0,185.05859375,-108.3984375,0.0
1734585942.8391821,-100.5859375,76.171875,86.9140625,-83.984375,0.0
1734585942.8430884,-127.44140625,50.29296875,46.875,-60.05859375,0.0
1734585942.8440177,-94.7265625,42.48046875,53.22265625,-84.9609375,0.0
1734585942.847924,-46.38671875,61.5234375,75.68359375,-84.47265625,0.0
1734585942.8518302,-47.8515625,55.6640625,66.89453125,-82.51953125,0.0
1734585942.8557365,15.625,53.7109375,4.8828125,-101.07421875,0.0
1734585942.8596427,92.28515625,84.47265625,77.63671875,-106.4453125,0.0
1734585942.863549,94.7265625,39.55078125,64.94140625,-115.72265625,0.0
1734585942.8674552,98.14453125,0.9765625,-57.12890625,-92.28515625,0.0
1734585942.8713615,80.56640625,-5.859375,-287.109375,-56.15234375,0.0
1734585942.8752677,-4.39453125,81.0546875,-17.08984375,-83.49609375,0.0
1734585942.879174,-43.45703125,108.3984375,201.171875,-94.7265625,0.0
1734585942.8830802,-24.90234375,49.8046875,15.625,-67.87109375,0.0
1734585942.8869865,-26.85546875,51.7578125,13.671875,-66.40625,0.0
1734585942.8894026,-25.390625,83.984375,153.3203125,-79.1015625,0.0
1734585942.8933089,-25.87890625,71.2890625,154.78515625,-92.28515625,0.0
1734585942.8972151,-37.59765625,8.7890625,-39.55078125,-84.47265625,0.0
1734585942.9011214,-64.453125,44.921875,21.484375,-72.75390625,0.0
1734585942.9050276,-121.58203125,86.42578125,137.6953125,-73.73046875,0.0
1734585942.9089339,-131.34765625,49.8046875,78.125,-77.63671875,0.0
1734585942.9128401,-105.95703125,-5.859375,-231.93359375,-75.68359375,0.0
1734585942.9167464,-123.53515625,44.43359375,-232.91015625,-77.1484375,0.0
1734585942.9206526,-76.171875,166.015625,210.44921875,-70.80078125,0.0
1734585942.9245589,-18.06640625,122.0703125,131.8359375,-54.19921875,0.0
1734585942.9284651,0.9765625,84.47265625,94.23828125,-41.50390625,0.0
1734585942.9323714,-3.90625,117.1875,120.60546875,-58.59375,0.0
1734585942.9535933,-56.15234375,165.52734375,90.33203125,-90.33203125,0.0
1734585942.9574995,-66.40625,185.05859375,99.609375,-84.9609375,0.0
1734585942.9614058,-74.70703125,199.70703125,138.671875,-100.09765625,0.0
1734585942.965312,-96.19140625,233.3984375,185.05859375,-104.98046875,0.0
1734585942.9692183,-127.9296875,229.00390625,196.2890625,-87.890625,0.0
1734585942.9731245,-142.08984375,146.97265625,46.38671875,-55.6640625,0.0
1734585942.9770308,-99.609375,123.53515625,-181.640625,-35.64453125,0.0
1734585942.980937,-69.82421875,231.93359375,58.10546875,-41.9921875,0.0
1734585942.9848433,-70.3125,237.79296875,252.9296875,-30.76171875,0.0
1734585942.9887495,-89.35546875,174.31640625,93.75,-65.91796875,0.0
1734585942.9926558,-98.14453125,169.43359375,75.1953125,-69.3359375,0.0
1734585942.996562,-83.984375,194.82421875,203.125,-57.12890625,0.0
1734585942.9752293,-45.8984375,204.58984375,237.79296875,-62.5,0.0
1734585942.9791355,-6.8359375,161.1328125,167.48046875,-22.94921875,0.0
1734585942.9830418,-3.90625,133.7890625,113.28125,-37.59765625,0.0
1734585942.986948,8.30078125,180.17578125,195.3125,-36.1328125,0.0
1734585942.9908543,10.7421875,172.8515625,253.41796875,-5.859375,0.0
1734585942.9947605,-26.3671875,87.890625,52.24609375,-42.48046875,0.0
1734585942.9986668,-17.578125,124.0234375,77.63671875,-27.34375,0.0
1734585943.002573,6.8359375,192.87109375,278.80859375,-35.15625,0.0
1734585943.0064793,9.27734375,165.52734375,270.5078125,-67.87109375,0.0
1734585943.0103855,13.671875,73.2421875,-45.41015625,-14.6484375,0.0
1734585943.0142915,-6.34765625,135.7421875,-4.8828125,-15.625,0.0
1734585943.0181978,-23.92578125,235.3515625,320.3125,-52.734375,0.0
1734585943.0436225,-15.13671875,160.15625,203.61328125,-54.6875,0.0
1734585943.0475287,-11.23046875,148.92578125,193.359375,-42.48046875,0.0
1734585943.051435,-0.9765625,193.359375,283.69140625,-34.66796875,0.0
1734585943.0553412,34.1796875,217.28515625,328.61328125,-21.484375,0.0
1734585943.0592475,64.453125,170.8984375,223.6328125,16.6015625,0.0
1734585943.0631537,76.171875,126.46484375,142.578125,1.953125,0.0
1734585943.06706,74.21875,155.2734375,177.24609375,-32.2265625,0.0
1734585943.0709662,55.6640625,180.6640625,281.25,-24.90234375,0.0
1734585943.0748725,78.61328125,131.8359375,167.96875,-15.13671875,0.0
1734585943.0787787,102.5390625,116.69921875,63.4765625,23.4375,0.0
1734585943.082685,119.140625,223.14453125,310.546875,-3.90625,0.0
1734585943.0865912,135.25390625,190.4296875,324.70703125,-48.828125,0.0
1734585943.1020653,133.7890625,130.859375,225.09765625,-24.90234375,0.0
1734585943.1059716,128.41796875,154.78515625,237.79296875,-0.48828125,0.0
1734585943.1098778,124.0234375,163.0859375,319.82421875,-44.43359375,0.0
1734585943.113784,154.296875,144.53125,301.7578125,-64.453125,0.0
1734585943.1176903,162.59765625,128.90625,292.96875,-27.34375,0.0
1734585943.1215968,147.4609375,106.4453125,229.4921875,-2.9296875,0.0
1734585943.125503,156.73828125,132.32421875,235.3515625,-14.6484375,0.0
1734585943.1294093,166.50390625,146.484375,324.21875,-48.828125,0.0
1734585943.1333156,182.6171875,29.78515625,-9.27734375,-41.015625,0.0
1734585943.1372218,215.33203125,70.3125,-0.9765625,-27.83203125,0.0
1734585943.141128,218.75,184.5703125,361.81640625,-18.06640625,0.0
1734585943.1450343,187.5,112.3046875,279.296875,-7.32421875,0.0
1734585943.1250596,187.98828125,54.19921875,174.31640625,-35.15625,0.0
1734585943.1289659,190.91796875,90.8203125,256.8359375,-28.3203125,0.0
1734585943.132872,187.01171875,110.3515625,341.30859375,-13.671875,0.0
1734585943.1367784,188.96484375,50.78125,267.578125,-20.01953125,0.0
1734585943.1406846,168.9453125,13.671875,216.30859375,28.3203125,0.0
1734585943.1445906,171.38671875,31.25,200.1953125,35.15625,0.0
1734585943.1484969,140.13671875,55.6640625,283.203125,-38.57421875,0.0
1734585943.152403,124.0234375,0.0,195.80078125,-38.57421875,0.0
1734585943.1563094,153.80859375,-31.25,143.5546875,-18.06640625,0.0
1734585943.1602156,171.875,38.57421875,307.6171875,-49.8046875,0.0
1734585943.1641219,202.1484375,42.96875,361.328125,-34.66796875,0.0
1734585943.168028,161.1328125,-67.87109375,66.40625,13.18359375,0.0
1734585943.1939988,117.1875,-110.3515625,-26.85546875,-11.71875,0.0
1734585943.197905,96.19140625,2.9296875,353.02734375,-33.69140625,0.0
1734585943.2018113,48.828125,-27.34375,321.2890625,-19.04296875,0.0
1734585943.2057176,4.39453125,-79.1015625,274.90234375,-18.06640625,0.0
1734585943.2096238,-30.2734375,-64.453125,294.43359375,0.9765625,0.0
1734585943.21353,-52.734375,-76.66015625,233.88671875,-7.8125,0.0
1734585943.2174363,-70.3125,-80.56640625,259.27734375,-42.48046875,0.0
1734585943.2213426,-72.265625,-127.9296875,60.05859375,-27.83203125,0.0
1734585943.2252488,-88.8671875,-94.23828125,52.734375,-21.97265625,0.0
1734585943.229155,-98.14453125,13.671875,358.3984375,-2.9296875,0.0
1734585943.2330613,-83.984375,-21.97265625,271.484375,32.2265625,0.0
1734585943.2369676,-88.8671875,-66.89453125,211.42578125,3.90625,0.0
1734585943.2137556,-113.28125,-80.56640625,232.421875,-40.0390625,0.0
1734585943.2176619,-106.4453125,-45.8984375,284.1796875,-37.59765625,0.0
1734585943.221568,-88.37890625,-49.31640625,268.5546875,-18.5546875,0.0
1734585943.2254744,-98.14453125,-65.91796875,241.69921875,-15.625,0.0
1734585943.2293806,-70.80078125,-41.50390625,265.13671875,-40.0390625,0.0
1734585943.2332869,-64.453125,-59.08203125,231.93359375,-50.29296875,0.0
1734585943.237193,-103.515625,-86.9140625,117.1875,-34.1796875,0.0
1734585943.2410994,-115.234375,-62.5,131.8359375,-50.29296875,0.0
1734585943.2450056,-98.14453125,1.46484375,298.33984375,-55.17578125,0.0
1734585943.2489119,-74.70703125,0.9765625,361.81640625,-42.48046875,0.0
1734585943.2528179,-87.40234375,-106.4453125,91.30859375,-23.92578125,0.0
1734585943.256724,-78.61328125,-144.53125,-29.78515625,9.27734375,0.0
1734585943.2650898,-78.61328125,-26.3671875,324.21875,-21.97265625,0.0
1734585943.268996,-71.77734375,-35.15625,323.73046875,-67.3828125,0.0
1734585943.2729023,-77.63671875,-87.890625,249.0234375,-54.6875,0.0
1734585943.2768085,-71.77734375,-53.7109375,272.94921875,-9.765625,0.0
1734585943.2807148,-40.0390625,-30.2734375,258.30078125,-30.2734375,0.0
1734585943.284621,-42.96875,-57.12890625,256.8359375,-45.8984375,0.0
1734585943.2885273,-8.30078125,-104.4921875,-21.484375,1.953125,0.0
1734585943.2924335,6.8359375,-52.24609375,-43.45703125,1.46484375,0.0
1734585943.2963398,-38.57421875,53.22265625,354.00390625,-48.33984375,0.0
1734585943.300246,-50.78125,2.9296875,255.37109375,-25.390625,0.0
1734585943.3041523,-36.1328125,-21.484375,208.984375,-31.25,0.0
1734585943.3080585,-16.11328125,9.765625,284.66796875,-55.6640625,0.0
1734585943.3093483,13.18359375,-8.30078125,242.1875,-39.55078125,0.0
1734585943.3132546,25.87890625,-25.87890625,198.2421875,-28.80859375,0.0
1734585943.3171608,46.875,-3.41796875,221.6796875,-30.76171875,0.0
1734585943.321067,73.73046875,18.06640625,276.3671875,-0.9765625,0.0
1734585943.3249733,74.70703125,19.04296875,320.80078125,-4.39453125,0.0
1734585943.3288796,71.2890625,-46.38671875,180.17578125,-40.0390625,0.0
1734585943.3327858,58.10546875,-70.3125,-43.45703125,-17.578125,0.0
1734585943.336692,51.7578125,45.8984375,182.6171875,-4.8828125,0.0
1734585943.3405983,88.37890625,48.33984375,337.40234375,-26.3671875,0.0
1734585943.3445046,102.5390625,-28.3203125,145.99609375,-40.0390625,0.0
1734585943.3484108,79.1015625,-11.23046875,161.62109375,-44.921875,0.0
1734585943.352317,100.5859375,25.390625,294.43359375,-40.0390625,0.0
1734585943.3720193,140.13671875,15.13671875,285.64453125,-6.8359375,0.0
1734585943.3759255,128.41796875,-18.5546875,193.84765625,-15.625,0.0
1734585943.3798318,113.76953125,1.953125,191.89453125,-22.94921875,0.0
1734585943.383738,109.86328125,41.50390625,279.296875,-24.90234375,0.0
1734585943.3876443,104.98046875,24.90234375,261.71875,-32.2265625,0.0
1734585943.3915505,106.93359375,-24.90234375,105.95703125,-18.06640625,0.0
1734585943.3954568,103.02734375,9.27734375,128.41796875,-17.578125,0.0
1734585943.399363,123.046875,59.5703125,278.80859375,-31.25,0.0
1734585943.4032693,147.94921875,4.39453125,248.046875,-46.38671875,0.0
1734585943.4071755,125.0,-89.84375,48.828125,-21.97265625,0.0
1734585943.4110818,106.93359375,-72.75390625,104.00390625,-24.4140625,0.0
1734585943.414988,129.39453125,-42.96875,277.34375,-35.64453125,0.0
1734585943.433917,112.79296875,-82.03125,189.94140625,-38.0859375,0.0
1734585943.4378233,81.54296875,-120.60546875,128.41796875,-31.73828125,0.0
1734585943.4417295,69.82421875,-97.65625,189.453125,-43.45703125,0.0
1734585943.4456358,45.8984375,-57.12890625,272.4609375,-69.3359375,0.0
1734585943.4495423,61.5234375,-109.86328125,191.89453125,-64.453125,0.0
1734585943.4534485,87.40234375,-150.87890625,105.95703125,-50.78125,0.0
1734585943.4573548,78.61328125,-101.07421875,180.6640625,-35.15625,0.0
1734585943.461261,73.2421875,-51.7578125,297.36328125,-29.296875,0.0
1734585943.4651673,68.359375,-121.58203125,106.4453125,-37.109375,0.0
1734585943.4690735,74.21875,-172.8515625,-70.3125,-36.62109375,0.0
1734585943.4729798,62.01171875,-62.98828125,226.5625,-39.55078125,0.0
1734585943.476886,21.484375,-45.41015625,291.50390625,-65.91796875,0.0
1734585943.4545763,46.875,-86.9140625,167.96875,-54.19921875,0.0
1734585943.4584825,49.8046875,-67.87109375,192.87109375,-40.0390625,0.0
1734585943.4623888,16.11328125,-54.6875,286.62109375,-31.73828125,0.0
1734585943.466295,50.29296875,-96.6796875,216.796875,-2.9296875,0.0
1734585943.4702013,74.70703125,-111.81640625,185.05859375,-8.7890625,0.0
1734585943.4741075,60.546875,-107.421875,164.55078125,-56.640625,0.0
1734585943.4780138,36.62109375,-67.87109375,205.56640625,-67.3828125,0.0
1734585943.48192,42.48046875,-61.5234375,249.0234375,-51.7578125,0.0
1734585943.4858263,49.8046875,-96.19140625,199.21875,-45.41015625,0.0
1734585943.4897325,24.90234375,-66.40625,241.2109375,-50.29296875,0.0
1734585943.4936388,28.80859375,-61.5234375,280.2734375,-30.76171875,0.0
1734585943.497545,29.296875,-94.23828125,261.23046875,-16.6015625,0.0
1734585943.5048823,40.0390625,-188.4765625,-69.82421875,-24.90234375,0.0
1734585943.5087886,63.4765625,-142.08984375,24.4140625,-28.80859375,0.0
1734585943.5126948,52.734375,-59.5703125,327.1484375,-44.43359375,0.0
1734585943.516601,41.50390625,-111.328125,222.16796875,-50.29296875,0.0
1734585943.5205073,15.13671875,-119.140625,189.453125,-40.52734375,0.0
1734585943.5244136,1.46484375,-115.72265625,172.8515625,-46.875,0.0
1734585943.5283198,16.11328125,-109.86328125,188.96484375,-33.203125,0.0
1734585943.532226,18.5546875,-136.71875,104.00390625,-40.0390625,0.0
1734585943.5361323,11.23046875,-143.06640625,-15.625,-31.25,0.0
1734585943.5400386,-2.44140625,-46.38671875,219.23828125,-45.8984375,0.0
1734585943.5439448,-2.9296875,-50.78125,308.10546875,-41.50390625,0.0
1734585943.547851,-5.859375,-97.16796875,142.08984375,8.30078125,0.0
1734585943.54847,-27.34375,-90.33203125,172.8515625,-5.859375,0.0
1734585943.5523763,-44.921875,-69.82421875,291.015625,-23.4375,0.0
1734585943.5562825,-65.4296875,-83.0078125,247.55859375,-43.9453125,0.0
1734585943.5601888,-143.06640625,-106.4453125,213.8671875,-97.65625,0.0
1734585943.564095,-221.6796875,-100.5859375,213.8671875,-95.703125,0.0
1734585943.5680013,-253.90625,-102.5390625,131.34765625,-81.0546875,0.0
1734585943.5719075,-318.84765625,-82.03125,181.15234375,-122.0703125,0.0
1734585943.5758138,-396.97265625,-132.32421875,-104.98046875,-135.25390625,0.0
1734585943.57972,-502.44140625,-106.93359375,-171.38671875,-183.10546875,0.0
1734585943.5836263,-599.609375,-27.34375,195.3125,-248.53515625,0.0
1734585943.5875325,-648.92578125,-70.3125,88.37890625,-239.74609375,0.0
1734585943.5914388,-747.55859375,-56.640625,103.515625,-283.69140625,0.0
1734585943.6121418,-825.68359375,-52.734375,115.72265625,-312.01171875,0.0
1734585943.616048,-875.0,-37.109375,143.5546875,-295.8984375,0.0
1734585943.6199543,-925.78125,-39.0625,118.1640625,-319.3359375,0.0
1734585943.6238606,-919.43359375,-43.9453125,56.640625,-343.26171875,0.0
1734585943.6277668,-896.484375,12.6953125,153.3203125,-331.54296875,0.0
1734585943.631673,-890.625,-10.7421875,121.58203125,-304.19921875,0.0
1734585943.6355793,-885.25390625,-68.359375,-5.859375,-311.03515625,0.0
1734585943.6394856,-857.421875,-67.3828125,-165.0390625,-293.45703125,0.0
1734585943.6433918,-831.0546875,32.2265625,94.7265625,-281.25,0.0
1734585943.647298,-780.2734375,27.34375,282.71484375,-267.08984375,0.0
1734585943.6512043,-722.65625,-37.59765625,130.859375,-226.5625,0.0
1734585943.6551106,-721.6796875,-20.5078125,155.2734375,-225.5859375,0.0
1734585943.6354835,-674.31640625,-4.39453125,250.9765625,-229.4921875,0.0
1734585943.6393898,-592.7734375,-67.3828125,187.01171875,-187.01171875,0.0
1734585943.643296,-547.36328125,-93.26171875,193.359375,-186.5234375,0.0
1734585943.6472023,-494.62890625,-50.29296875,252.44140625,-188.4765625,0.0
1734585943.6511083,-458.984375,-42.96875,280.2734375,-158.69140625,0.0
1734585943.6550145,-417.96875,-102.05078125,222.16796875,-126.46484375,0.0
1734585943.6589208,-359.86328125,-109.375,174.31640625,-109.86328125,0.0
1734585943.662827,-302.24609375,-57.6171875,255.37109375,-95.21484375,0.0
1734585943.6667333,-258.30078125,-45.8984375,329.1015625,-52.24609375,0.0
1734585943.6706395,-181.15234375,-75.68359375,297.36328125,-7.32421875,0.0
1734585943.6745458,-123.53515625,-160.15625,-38.0859375,-3.41796875,0.0
1734585943.678452,-160.15625,-110.83984375,45.41015625,-20.01953125,0.0
1734585943.6847641,-159.66796875,-65.4296875,302.24609375,-32.71484375,0.0
1734585943.6886704,-129.39453125,-116.69921875,190.4296875,-46.38671875,0.0
1734585943.6925766,-105.46875,-80.56640625,267.08984375,-14.16015625,0.0
1734585943.696483,-55.17578125,-54.6875,315.4296875,10.7421875,0.0
1734585943.7003891,-13.18359375,-97.16796875,284.1796875,18.5546875,0.0
1734585943.7042954,19.53125,-145.5078125,195.80078125,37.109375,0.0
1734585943.7082016,46.38671875,-153.80859375,124.0234375,51.26953125,0.0
1734585943.712108,68.359375,-88.37890625,276.3671875,59.08203125,0.0
1734585943.7160141,69.82421875,-78.125,375.9765625,46.38671875,0.0
1734585943.7199204,15.625,-180.6640625,179.6875,28.3203125,0.0
1734585943.7238266,15.13671875,-208.0078125,192.87109375,14.6484375,0.0
1734585943.727733,38.57421875,-166.50390625,400.87890625,5.859375,0.0
1734585943.7288582,51.26953125,-215.33203125,372.0703125,28.80859375,0.0
1734585943.7327645,99.12109375,-266.6015625,295.41015625,44.43359375,0.0
1734585943.7366707,104.98046875,-266.6015625,335.9375,38.57421875,0.0
1734585943.740577,71.2890625,-276.85546875,426.7578125,32.71484375,0.0
1734585943.7444832,69.82421875,-328.125,416.9921875,25.87890625,0.0
1734585943.7483895,70.80078125,-385.7421875,388.671875,24.90234375,0.0
1734585943.7522957,23.92578125,-418.9453125,453.125,29.296875,0.0
1734585943.756202,12.20703125,-418.45703125,578.61328125,18.06640625,0.0
1734585943.7601082,23.92578125,-434.5703125,644.04296875,5.859375,0.0
1734585943.7640145,34.1796875,-519.04296875,606.4453125,21.484375,0.0
1734585943.7679205,-17.578125,-495.60546875,726.5625,40.0390625,0.0
1734585943.7718267,-90.33203125,-469.23828125,846.6796875,27.83203125,0.0
1734585943.7926478,-94.7265625,-537.59765625,814.453125,14.16015625,0.0
1734585943.796554,-85.44921875,-529.296875,818.359375,40.0390625,0.0
1734585943.8004603,-50.29296875,-490.234375,865.234375,62.01171875,0.0
1734585943.8043666,-48.33984375,-491.2109375,887.6953125,62.5,0.0
1734585943.8082728,-158.203125,-562.5,887.6953125,26.85546875,0.0
1734585943.812179,-255.37109375,-626.953125,890.625,-42.96875,0.0
1734585943.8160853,-247.0703125,-562.5,895.01953125,-21.97265625,0.0
1734585943.8199916,-221.19140625,-509.27734375,904.78515625,-10.25390625,0.0
1734585943.8238978,-208.49609375,-581.0546875,905.76171875,-9.27734375,0.0
1734585943.827804,-206.0546875,-630.859375,904.296875,9.27734375,0.0
1734585943.8317103,-228.02734375,-598.6328125,916.015625,2.44140625,0.0
1734585943.8356166,-209.47265625,-620.1171875,924.8046875,5.859375,0.0
1734585943.8334925,-181.15234375,-653.80859375,925.78125,-41.9921875,0.0
1734585943.8373988,-174.31640625,-625.48828125,934.08203125,-45.8984375,0.0
1734585943.841305,-158.69140625,-563.96484375,942.3828125,-18.5546875,0.0
1734585943.8452113,-136.71875,-532.2265625,947.265625,7.8125,0.0
1734585943.8491175,-131.8359375,-565.4296875,948.2421875,41.015625,0.0
1734585943.8530238,-140.625,-589.84375,949.21875,-12.6953125,0.0
1734585943.85693,-157.2265625,-534.66796875,956.54296875,-60.546875,0.0
1734585943.8608363,-84.47265625,-479.00390625,963.37890625,-36.1328125,0.0
1734585943.8647425,81.0546875,-487.79296875,960.9375,24.4140625,0.0
1734585943.8686488,145.99609375,-408.203125,965.8203125,19.53125,0.0
1734585943.872555,150.390625,-323.2421875,970.703125,-44.43359375,0.0
1734585943.8764613,184.5703125,-386.71875,968.26171875,-77.1484375,0.0
1734585943.9157298,186.03515625,-425.29296875,966.30859375,-52.734375,0.0
1734585943.919636,228.515625,-391.11328125,968.75,-20.99609375,0.0
1734585943.9235423,377.9296875,-313.4765625,969.7265625,-65.91796875,0.0
1734585943.9274485,483.88671875,-279.296875,968.75,-66.89453125,0.0
1734585943.9313548,468.75,-298.33984375,969.23828125,-42.48046875,0.0
1734585943.935261,465.8203125,-346.19140625,969.23828125,-65.4296875,0.0
1734585943.9391673,450.1953125,-356.4453125,969.7265625,-70.80078125,0.0
1734585943.9430735,386.23046875,-409.66796875,969.23828125,-60.05859375,0.0
1734585943.9469798,340.33203125,-471.6796875,969.23828125,-52.24609375,0.0
1734585943.950886,254.8828125,-404.78515625,969.23828125,-44.921875,0.0
1734585943.9547923,147.94921875,-462.40234375,969.7265625,-38.0859375,0.0
1734585943.9586987,72.265625,-574.70703125,969.23828125,-35.64453125,0.0
1734585943.9159122,17.08984375,-603.02734375,969.23828125,-44.43359375,0.0
1734585943.9198184,6.34765625,-592.28515625,969.23828125,-65.4296875,0.0
1734585943.9237247,56.640625,-582.03125,969.23828125,-98.14453125,0.0
1734585943.927631,110.3515625,-543.9453125,969.23828125,-95.21484375,0.0
1734585943.9315372,150.87890625,-471.19140625,969.23828125,-99.609375,0.0
1734585943.9354434,192.87109375,-375.0,969.23828125,-111.81640625,0.0
1734585943.9393494,215.33203125,-267.08984375,969.7265625,-73.73046875,0.0
1734585943.9432557,209.47265625,-199.70703125,969.23828125,-55.17578125,0.0
1734585943.947162,186.5234375,-155.76171875,969.23828125,-40.52734375,0.0
1734585943.9510682,144.53125,-152.34375,969.23828125,-80.56640625,0.0
1734585943.9549744,107.91015625,-222.16796875,969.23828125,-112.79296875,0.0
1734585943.9588807,56.640625,-274.90234375,969.23828125,-74.21875,0.0
1734585943.970791,-8.7890625,-278.3203125,969.23828125,-50.29296875,0.0
1734585943.9746974,-62.98828125,-249.0234375,969.23828125,-62.5,0.0
1734585943.9786036,-111.328125,-229.98046875,969.23828125,-89.35546875,0.0
1734585943.9825099,-128.90625,-263.671875,969.23828125,-60.546875,0.0
1734585943.986416,-147.94921875,-204.58984375,969.23828125,-41.50390625,0.0
1734585943.9903224,-201.171875,-165.52734375,969.23828125,-56.15234375,0.0
1734585943.9942286,-227.5390625,-202.63671875,969.23828125,-96.19140625,0.0
1734585943.9981349,-187.01171875,-193.359375,969.7265625,-90.8203125,0.0
1734585944.002041,-178.22265625,-120.1171875,969.23828125,-109.375,0.0
1734585944.0059474,-108.3984375,-94.23828125,969.23828125,-96.19140625,0.0
1734585944.0098536,30.2734375,-131.8359375,969.23828125,-54.6875,0.0
1734585944.0137599,81.0546875,-133.30078125,969.23828125,-74.70703125,0.0
1734585944.0134315,34.1796875,-102.5390625,969.23828125,-121.09375,0.0
1734585944.0173378,-3.41796875,-94.23828125,969.23828125,-125.0,0.0
1734585944.021244,-30.2734375,-98.6328125,969.23828125,-81.54296875,0.0
1734585944.0251503,-88.37890625,-52.24609375,969.23828125,-52.24609375,0.0
1734585944.0290565,-151.85546875,-27.34375,969.23828125,-83.49609375,0.0
1734585944.0329628,-201.171875,-33.69140625,969.23828125,-122.55859375,0.0
1734585944.036869,-219.23828125,-50.78125,969.23828125,-68.84765625,0.0
1734585944.040775,-256.8359375,14.6484375,969.23828125,-62.01171875,0.0
1734585944.0446813,-243.1640625,119.140625,969.23828125,-118.65234375,0.0
1734585944.0485876,-197.265625,100.09765625,969.23828125,-104.4921875,0.0
1734585944.0524938,-176.26953125,83.49609375,969.23828125,-78.125,0.0
1734585944.0564,-162.59765625,120.1171875,969.23828125,-60.546875,0.0
1734585944.0598533,-148.4375,152.34375,969.23828125,-43.45703125,0.0
1734585944.0637596,-125.9765625,130.37109375,969.23828125,-49.31640625,0.0
1734585944.0676656,-165.0390625,115.72265625,969.23828125,-65.91796875,0.0
1734585944.0715718,-211.9140625,145.5078125,969.23828125,-80.078125,0.0
1734585944.075478,-189.453125,145.01953125,969.23828125,-45.8984375,0.0
1734585944.0793843,-152.83203125,123.53515625,969.23828125,-12.20703125,0.0
1734585944.0832906,-169.43359375,175.78125,969.23828125,-21.97265625,0.0
1734585944.0871968,-125.9765625,311.5234375,969.23828125,-33.69140625,0.0
1734585944.091103,-45.41015625,361.81640625,969.23828125,-60.05859375,0.0
1734585944.0950093,-8.30078125,362.79296875,969.23828125,-41.50390625,0.0
1734585944.0989156,15.625,409.66796875,969.23828125,-35.15625,0.0
1734585944.1028218,9.27734375,421.38671875,969.23828125,-74.70703125,0.0
1734585944.1225266,-2.9296875,404.296875,969.23828125,-70.3125,0.0
1734585944.126433,31.25,376.46484375,969.23828125,-47.8515625,0.0
1734585944.1303391,85.44921875,362.79296875,969.23828125,-45.8984375,0.0
1734585944.1342454,137.20703125,375.0,969.23828125,-28.3203125,0.0
1734585944.1381516,172.8515625,362.79296875,969.23828125,-27.83203125,0.0
1734585944.142058,213.8671875,325.1953125,969.23828125,-69.3359375,0.0
1734585944.1459641,236.81640625,311.5234375,969.23828125,-65.91796875,0.0
1734585944.1498704,226.5625,316.89453125,969.23828125,-30.2734375,0.0
1734585944.1537766,250.0,285.15625,969.23828125,-28.80859375,0.0
1734585944.157683,273.92578125,244.140625,969.23828125,-16.11328125,0.0
1734585944.1615891,238.76953125,256.34765625,969.23828125,-21.97265625,0.0
1734585944.1654954,234.375,263.18359375,969.23828125,-70.3125,0.0
1734585944.1637871,288.0859375,227.5390625,969.23828125,-21.97265625,0.0
1734585944.1676934,308.59375,228.515625,969.23828125,11.71875,0.0
1734585944.1715996,326.171875,225.09765625,969.23828125,-26.3671875,0.0
1734585944.1755059,320.80078125,189.453125,969.23828125,-41.9921875,0.0
1734585944.1794121,324.70703125,201.66015625,969.23828125,-14.16015625,0.0
1734585944.1833184,360.3515625,206.0546875,969.23828125,-8.7890625,0.0
1734585944.1872246,364.74609375,180.6640625,969.23828125,-22.94921875,0.0
1734585944.1911309,350.5859375,207.03125,969.23828125,-41.9921875,0.0
1734585944.1950371,383.7890625,186.5234375,969.23828125,-49.8046875,0.0
1734585944.1989434,425.78125,151.85546875,969.23828125,-49.8046875,0.0
1734585944.2028496,440.91796875,220.21484375,969.23828125,-62.5,0.0
1734585944.2067559,495.60546875,239.74609375,969.23828125,-62.01171875,0.0
1734585944.2090812,544.921875,188.4765625,967.7734375,-29.296875,0.0
1734585944.2129874,562.98828125,174.8046875,968.75,6.34765625,0.0
1734585944.2168937,558.10546875,200.1953125,969.7265625,-39.55078125,0.0
1734585944.2208,559.08203125,190.4296875,969.23828125,-64.453125,0.0
1734585944.2247062,569.3359375,166.9921875,969.23828125,-28.3203125,0.0
1734585944.2286124,535.64453125,176.26953125,967.28515625,-18.5546875,0.0
1734585944.2325187,489.2578125,222.16796875,967.28515625,-37.109375,0.0
1734585944.236425,422.36328125,229.00390625,965.33203125,-54.6875,0.0
1734585944.2403312,399.90234375,164.0625,959.47265625,-3.41796875,0.0
1734585944.2442374,403.3203125,208.49609375,962.890625,5.859375,0.0
1734585944.2481437,322.265625,279.78515625,962.40234375,-80.078125,0.0
1734585944.25205,279.296875,248.046875,954.58984375,-91.30859375,0.0
1734585944.253828,301.26953125,249.51171875,0.0,-59.5703125,0.0
1734585944.2577343,321.2890625,287.109375,0.0,-56.640625,0.0
1734585944.2616405,295.41015625,298.828125,0.0,-54.6875,0.0
1734585944.2655468,232.421875,275.390625,0.0,-58.10546875,0.0
1734585944.269453,184.08203125,283.203125,0.0,-115.72265625,0.0
1734585944.2733593,190.4296875,278.80859375,0.0,-116.69921875,0.0
1734585944.2772653,215.8203125,285.15625,0.0,-80.56640625,0.0
1734585944.2811716,206.54296875,265.13671875,0.0,-111.328125,0.0
1734585944.2850778,229.00390625,245.60546875,0.0,-133.30078125,0.0
1734585944.288984,242.67578125,298.33984375,0.0,-115.72265625,0.0
1734585944.2928903,317.87109375,294.921875,0.0,-103.02734375,0.0
1734585944.2967966,367.1875,256.8359375,0.0,-111.328125,0.0
1734585944.2993753,327.1484375,250.0,934.08203125,-76.66015625,0.0
1734585944.3032815,292.96875,264.16015625,936.03515625,-31.73828125,0.0
1734585944.3071878,256.34765625,248.53515625,933.10546875,-78.61328125,0.0
1734585944.311094,214.84375,196.77734375,927.734375,-111.328125,0.0
1734585944.3150003,188.96484375,186.5234375,927.24609375,-103.515625,0.0
1734585944.3189065,201.171875,179.19921875,928.7109375,-95.21484375,0.0
1734585944.3228128,299.31640625,178.22265625,925.29296875,-76.171875,0.0
1734585944.326719,438.96484375,143.5546875,919.921875,-57.12890625,0.0
1734585944.3306253,504.8828125,132.8125,922.36328125,-73.73046875,0.0
1734585944.3345315,467.7734375,157.71484375,925.29296875,-80.56640625,0.0
1734585944.3384376,367.67578125,117.1875,920.41015625,-48.33984375,0.0
1734585944.3423438,301.26953125,116.69921875,915.52734375,-88.8671875,0.0
1734585944.3437834,257.32421875,128.90625,915.0390625,-120.1171875,0.0
1734585944.3476896,167.96875,135.7421875,916.9921875,-98.14453125,0.0
1734585944.3515959,89.84375,129.8828125,916.50390625,-58.59375,0.0
1734585944.3555021,25.87890625,131.34765625,915.52734375,-76.66015625,0.0
1734585944.3594084,-26.85546875,147.94921875,914.0625,-103.515625,0.0
1734585944.3633146,-51.26953125,134.27734375,911.1328125,-85.44921875,0.0
1734585944.3672209,-74.21875,124.0234375,908.203125,-59.5703125,0.0
1734585944.3711271,-87.40234375,134.765625,907.2265625,-47.36328125,0.0
1734585944.3750334,-150.87890625,191.40625,910.15625,-86.9140625,0.0
1734585944.3789396,-217.7734375,183.10546875,908.203125,-96.19140625,0.0
1734585944.3828459,-250.0,153.80859375,899.4140625,-54.19921875,0.0
1734585944.3867521,-283.203125,161.62109375,902.83203125,-46.875,0.0
1734585944.3895779,-336.9140625,174.8046875,907.2265625,-83.0078125,0.0
1734585944.393484,-382.32421875,175.78125,901.3671875,-88.8671875,0.0
1734585944.3973904,-434.5703125,166.9921875,898.92578125,-85.9375,0.0
1734585944.4012966,-470.21484375,177.734375,900.390625,-110.83984375,0.0
1734585944.4052026,-500.9765625,176.7578125,900.87890625,-97.16796875,0.0
1734585944.4091089,-565.4296875,169.43359375,896.97265625,-80.56640625,0.0
1734585944.4130151,-618.1640625,136.71875,890.13671875,-53.22265625,0.0
1734585944.4169214,-678.7109375,153.3203125,897.4609375,-55.6640625,0.0
1734585944.4208276,-736.81640625,206.0546875,903.3203125,-74.70703125,0.0
1734585944.4247339,-790.0390625,168.9453125,896.484375,-81.0546875,0.0
1734585944.4286401,-839.35546875,169.43359375,885.7421875,-99.609375,0.0
1734585944.4325464,-904.296875,203.125,895.01953125,-116.69921875,0.0
1734585944.4531574,-976.07421875,189.94140625,895.99609375,-110.83984375,0.0
1734585944.4570637,-1000.0,180.6640625,892.08984375,-92.7734375,0.0
1734585944.46097,-999.0234375,192.87109375,894.04296875,-131.8359375,0.0
1734585944.4648762,-1000.0,199.21875,891.6015625,-137.6953125,0.0
1734585944.4687824,-1000.0,192.3828125,895.01953125,-134.27734375,0.0
1734585944.4726887,-1000.0,163.0859375,885.25390625,-157.71484375,0.0
1734585944.476595,-1000.0,152.83203125,867.1875,-134.765625,0.0
1734585944.4805012,-1000.0,179.6875,890.13671875,-175.29296875,0.0
1734585944.4844074,-1000.0,150.87890625,889.16015625,-193.84765625,0.0
1734585944.4883137,-1000.0,124.0234375,870.60546875,-175.78125,0.0
1734585944.49222,-1000.0,149.4140625,884.765625,-185.05859375,0.0
1734585944.4961262,-1000.0,156.73828125,891.6015625,-173.828125,0.0
1734585944.493303,-1000.0,152.83203125,887.20703125,-175.29296875,0.0
1734585944.4972093,-1000.0,137.20703125,868.1640625,-151.85546875,0.0
1734585944.5011156,-1000.0,152.83203125,878.90625,-127.44140625,0.0
1734585944.5050218,-1000.0,174.8046875,891.6015625,-132.32421875,0.0
1734585944.508928,-1000.0,145.01953125,884.765625,-133.30078125,0.0
