timestamps,TP9,AF7,AF8,TP10,Right AUX
1734407822.2201898,115.234375,84.9609375,-5.859375,128.41796875,0.0
1734407822.2240958,91.796875,78.61328125,166.50390625,203.61328125,0.0
1734407822.2280018,120.60546875,72.75390625,212.890625,162.109375,0.0
1734407822.2319078,172.8515625,76.66015625,61.03515625,76.171875,0.0
1734407822.2358139,167.96875,82.51953125,-79.1015625,50.29296875,0.0
1734407822.2397199,113.76953125,81.54296875,21.484375,127.9296875,0.0
1734407822.243626,96.6796875,81.54296875,121.58203125,211.42578125,0.0
1734407822.2475321,138.18359375,82.51953125,69.82421875,205.078125,0.0
1734407822.2514381,177.24609375,82.51953125,-325.1953125,111.328125,0.0
1734407822.2553442,159.66796875,84.47265625,-211.9140625,57.6171875,0.0
1734407822.2592502,121.09375,83.0078125,73.73046875,121.58203125,0.0
1734407822.2631562,88.8671875,81.54296875,106.4453125,209.47265625,0.0
1734407822.2671304,174.31640625,78.125,181.15234375,207.03125,0.0
1734407822.2710364,143.06640625,85.44921875,156.73828125,105.46875,0.0
1734407822.2749426,108.88671875,90.8203125,94.7265625,43.45703125,0.0
1734407822.2788486,111.81640625,85.9375,74.21875,105.95703125,0.0
1734407822.2827547,152.83203125,86.42578125,135.25390625,196.2890625,0.0
1734407822.2866607,176.7578125,82.03125,122.0703125,206.54296875,0.0
1734407822.2905667,136.23046875,80.56640625,89.84375,108.88671875,0.0
1734407822.2944727,97.65625,76.66015625,-163.0859375,39.0625,0.0
1734407822.2983787,108.88671875,88.8671875,-226.5625,89.84375,0.0
1734407822.3022847,147.4609375,100.5859375,166.9921875,178.7109375,0.0
1734407822.3061907,169.921875,96.19140625,205.56640625,219.23828125,0.0
1734407822.310097,140.13671875,84.47265625,47.36328125,139.16015625,0.0
1734407822.3140545,0.0,82.51953125,61.5234375,51.7578125,0.0
1734407822.3179605,0.0,93.75,158.203125,78.61328125,0.0
1734407822.3218665,0.0,107.91015625,137.20703125,183.10546875,0.0
1734407822.3257725,0.0,102.05078125,83.0078125,218.75,0.0
1734407822.3296785,0.0,79.58984375,142.08984375,119.62890625,0.0
1734407822.3335845,0.0,74.70703125,-7.8125,34.1796875,0.0
1734407822.3374906,0.0,78.61328125,-133.30078125,69.82421875,0.0
1734407822.3413966,0.0,71.77734375,-294.921875,196.77734375,0.0
1734407822.3453026,0.0,76.171875,18.06640625,218.75,0.0
1734407822.3492088,0.0,68.84765625,218.75,107.421875,0.0
1734407822.3531148,0.0,60.546875,-96.6796875,18.5546875,0.0
1734407822.3570209,0.0,72.75390625,-152.34375,33.203125,0.0
1734407822.360935,100.09765625,81.0546875,122.0703125,134.27734375,0.0
1734407822.364841,153.80859375,84.47265625,212.890625,196.77734375,0.0
1734407822.368747,153.3203125,84.9609375,100.5859375,152.83203125,0.0
1734407822.372653,97.16796875,77.63671875,69.3359375,43.9453125,0.0
1734407822.376559,78.61328125,74.70703125,97.16796875,42.96875,0.0
1734407822.380465,112.3046875,79.1015625,110.3515625,135.7421875,0.0
1734407822.384371,148.92578125,71.2890625,-9.765625,208.0078125,0.0
1734407822.388277,145.01953125,74.70703125,-77.63671875,164.0625,0.0
1734407822.392183,97.16796875,82.03125,116.69921875,55.6640625,0.0
1734407822.3960893,75.68359375,70.80078125,128.41796875,41.9921875,0.0
1734407822.3999953,104.4921875,66.40625,75.1953125,122.0703125,0.0
1734407822.4039013,158.69140625,74.21875,166.9921875,207.03125,0.0
1734407822.4077213,167.48046875,75.68359375,241.2109375,178.22265625,0.0
1734407822.4116273,116.2109375,73.73046875,122.0703125,81.54296875,0.0
1734407822.4155333,86.42578125,82.03125,-92.7734375,40.0390625,0.0
1734407822.4194393,111.81640625,94.23828125,71.2890625,103.02734375,0.0
1734407822.4233453,161.1328125,91.796875,242.67578125,197.265625,0.0
1734407822.4272513,166.50390625,74.70703125,91.796875,171.875,0.0
1734407822.4311574,120.60546875,73.73046875,-333.0078125,78.125,0.0
1734407822.4350636,81.0546875,85.44921875,-85.44921875,31.25,0.0
1734407822.4389696,94.23828125,79.1015625,232.91015625,96.6796875,0.0
1734407822.4428756,142.578125,74.70703125,138.18359375,187.01171875,0.0
1734407822.4467816,147.4609375,73.73046875,126.46484375,162.109375,0.0
1734407822.4506876,114.2578125,75.1953125,137.6953125,55.17578125,0.0
1734407822.4544547,89.84375,73.2421875,109.375,9.765625,0.0
1734407822.4583607,104.00390625,70.3125,78.61328125,77.1484375,0.0
1734407822.4622667,148.4375,66.89453125,164.55078125,163.0859375,0.0
1734407822.4661727,161.1328125,51.7578125,220.21484375,169.921875,0.0
1734407822.4700787,126.953125,36.1328125,156.73828125,98.6328125,0.0
1734407822.4739847,72.75390625,31.73828125,-76.171875,37.59765625,0.0
1734407822.477891,75.68359375,39.55078125,-112.3046875,83.984375,0.0
1734407822.481797,125.0,41.50390625,101.07421875,170.8984375,0.0
1734407822.485703,147.4609375,45.41015625,195.80078125,174.8046875,0.0
1734407822.489609,122.0703125,39.55078125,-66.89453125,96.19140625,0.0
1734407822.493515,83.0078125,43.45703125,-182.6171875,24.4140625,0.0
1734407822.497421,84.9609375,47.36328125,132.32421875,52.734375,0.0
1734407822.5016239,126.46484375,44.921875,173.33984375,151.3671875,0.0
1734407822.5055299,152.83203125,42.96875,60.05859375,180.17578125,0.0
1734407822.509436,136.23046875,35.15625,117.67578125,101.5625,0.0
1734407822.513342,88.37890625,34.66796875,128.90625,17.08984375,0.0
1734407822.517248,73.2421875,35.15625,82.03125,35.15625,0.0
1734407822.521154,108.3984375,37.59765625,-30.76171875,158.203125,0.0
1734407822.5250602,140.625,46.875,58.10546875,206.0546875,0.0
1734407822.5289662,122.55859375,50.78125,197.265625,96.6796875,0.0
1734407822.5328722,77.1484375,49.31640625,11.71875,5.859375,0.0
1734407822.5367782,72.265625,53.22265625,-332.03125,42.96875,0.0
1734407822.5406842,112.3046875,58.10546875,-70.80078125,141.11328125,0.0
1734407822.5445902,149.4140625,58.59375,208.0078125,178.7109375,0.0
1734407822.5487292,152.83203125,63.96484375,122.0703125,124.51171875,0.0
1734407822.5526352,108.88671875,74.21875,75.68359375,41.9921875,0.0
1734407822.5565412,77.1484375,71.77734375,127.9296875,23.92578125,0.0
1734407822.5604472,104.00390625,72.265625,179.19921875,119.62890625,0.0
1734407822.5643532,154.296875,79.58984375,120.60546875,200.68359375,0.0
1734407822.5682592,161.1328125,83.0078125,63.96484375,161.62109375,0.0
1734407822.5721655,106.4453125,81.0546875,43.45703125,41.9921875,0.0
1734407822.5760715,68.359375,73.73046875,132.32421875,17.578125,0.0
1734407822.5799775,101.5625,65.91796875,-33.69140625,129.8828125,0.0
1734407822.5838835,136.23046875,69.3359375,-104.4921875,207.03125,0.0
1734407822.5877895,138.18359375,70.80078125,191.89453125,167.96875,0.0
1734407822.5916955,100.09765625,65.4296875,109.375,73.2421875,0.0
1734407822.5957432,0.0,62.98828125,-99.609375,32.2265625,0.0
1734407822.5996492,0.0,71.77734375,78.125,103.02734375,0.0
1734407822.6035552,0.0,74.21875,217.28515625,196.77734375,0.0
1734407822.6074615,0.0,66.89453125,141.11328125,160.64453125,0.0
1734407822.6113675,0.0,65.4296875,-20.5078125,41.50390625,0.0
1734407822.6152735,0.0,63.4765625,-99.609375,7.8125,0.0
1734407822.6191795,0.0,63.4765625,54.6875,81.54296875,0.0
1734407822.6230855,0.0,67.3828125,113.76953125,182.6171875,0.0
1734407822.6269915,0.0,61.5234375,-232.421875,182.6171875,0.0
1734407822.6308975,0.0,61.03515625,-58.59375,70.3125,0.0
1734407822.6348035,0.0,62.01171875,44.43359375,24.4140625,0.0
1734407822.6387098,0.0,56.15234375,34.1796875,90.33203125,0.0
1734407822.6427062,127.44140625,58.10546875,165.52734375,179.19921875,0.0
1734407822.6466122,150.390625,56.15234375,197.265625,173.828125,0.0
1734407822.6505182,107.421875,49.8046875,138.671875,70.3125,0.0
1734407822.6544242,56.15234375,54.6875,-38.57421875,-1.953125,0.0
1734407822.6583304,65.91796875,63.4765625,43.45703125,42.96875,0.0
1734407822.6622365,128.41796875,61.5234375,121.58203125,158.203125,0.0
1734407822.6661425,152.34375,53.7109375,127.44140625,184.5703125,0.0
1734407822.6700485,120.60546875,46.38671875,-89.84375,106.93359375,0.0
1734407822.6739545,70.80078125,52.24609375,-232.421875,28.3203125,0.0
1734407822.6778605,69.82421875,62.01171875,117.1875,35.64453125,0.0
1734407822.6817665,125.9765625,60.546875,183.10546875,159.66796875,0.0
1734407822.6856728,156.73828125,48.828125,76.171875,184.5703125,0.0
1734407822.6896164,125.0,52.734375,125.0,70.3125,0.0
1734407822.6935225,72.265625,60.546875,110.83984375,-8.7890625,0.0
1734407822.6974285,67.87109375,55.6640625,63.96484375,33.69140625,0.0
1734407822.7013345,113.76953125,57.12890625,44.921875,139.6484375,0.0
1734407822.7052405,146.97265625,56.640625,126.46484375,177.734375,0.0
1734407822.7091465,130.859375,59.08203125,90.33203125,104.00390625,0.0
1734407822.7130525,82.51953125,63.4765625,-117.67578125,16.11328125,0.0
1734407822.7169585,65.4296875,60.05859375,-389.6484375,41.50390625,0.0
1734407822.7208648,89.84375,65.91796875,8.30078125,141.6015625,0.0
1734407822.7247708,130.859375,68.359375,227.5390625,202.63671875,0.0
1734407822.7286768,133.7890625,71.2890625,54.19921875,131.34765625,0.0
1734407822.7325828,84.47265625,86.42578125,48.828125,20.01953125,0.0
1734407822.7364428,61.03515625,83.49609375,118.65234375,14.16015625,0.0
1734407822.7403488,98.14453125,73.2421875,173.828125,110.3515625,0.0
1734407822.744255,154.296875,69.82421875,131.34765625,185.05859375,0.0
1734407822.748161,148.92578125,78.125,162.109375,140.13671875,0.0
1734407822.752067,92.28515625,79.58984375,78.61328125,43.45703125,0.0
1734407822.755973,57.6171875,71.77734375,-29.78515625,1.953125,0.0
1734407822.759879,93.75,72.265625,-60.05859375,108.3984375,0.0
1734407822.7637851,157.71484375,84.47265625,-52.24609375,210.9375,0.0
1734407822.7676911,141.6015625,78.125,155.76171875,140.625,0.0
1734407822.7715971,82.03125,67.3828125,6.34765625,24.90234375,0.0
1734407822.7755034,49.8046875,73.73046875,-179.6875,6.8359375,0.0
1734407822.7794094,77.63671875,69.82421875,66.40625,85.9375,0.0
1734407822.7832258,134.765625,62.01171875,246.58203125,179.6875,0.0
1734407822.7871318,144.53125,59.08203125,151.85546875,163.57421875,0.0
1734407822.7910378,96.6796875,62.98828125,-34.1796875,62.01171875,0.0
1734407822.7949438,51.7578125,59.5703125,22.4609375,17.578125,0.0
1734407822.7988498,69.3359375,59.5703125,164.55078125,80.56640625,0.0
1734407822.802756,130.859375,57.12890625,74.70703125,182.6171875,0.0
1734407822.806662,145.5078125,48.828125,-258.30078125,188.4765625,0.0
1734407822.810568,75.1953125,57.12890625,-43.9453125,64.94140625,0.0
1734407822.814474,27.34375,54.6875,145.5078125,-10.25390625,0.0
1734407822.81838,64.94140625,52.734375,51.7578125,86.9140625,0.0
1734407822.8222861,136.23046875,68.84765625,58.10546875,208.984375,0.0
1734407822.8261921,152.34375,69.82421875,157.2265625,197.265625,0.0
1734407822.8299403,108.88671875,59.5703125,52.734375,71.77734375,0.0
1734407822.8338463,60.546875,60.05859375,-162.109375,4.39453125,0.0
1734407822.8377523,69.3359375,61.03515625,-13.18359375,62.5,0.0
1734407822.8416584,127.9296875,55.6640625,169.43359375,174.8046875,0.0
1734407822.8455644,157.71484375,58.10546875,170.41015625,193.84765625,0.0
1734407822.8494704,113.76953125,53.22265625,3.90625,83.49609375,0.0
1734407822.8533766,55.17578125,47.36328125,-268.06640625,0.0,0.0
1734407822.8572826,51.7578125,49.31640625,-82.03125,38.0859375,0.0
1734407822.8611887,100.5859375,57.6171875,199.70703125,145.99609375,0.0
1734407822.8650947,153.80859375,55.6640625,-23.92578125,198.73046875,0.0
1734407822.8690007,125.9765625,58.59375,-80.078125,108.3984375,0.0
1734407822.8729067,59.5703125,60.05859375,93.75,-8.30078125,0.0
1734407822.877041,51.7578125,60.546875,73.2421875,16.6015625,0.0
1734407822.880947,111.328125,70.80078125,37.59765625,140.13671875,0.0
1734407822.8848531,155.2734375,67.87109375,163.57421875,188.4765625,0.0
1734407822.8887591,135.25390625,66.40625,170.8984375,109.375,0.0
1734407822.8926651,87.890625,76.171875,-54.6875,11.71875,0.0
1734407822.8965712,76.171875,77.63671875,-191.89453125,36.62109375,0.0
1734407822.9004772,101.5625,73.73046875,23.92578125,139.6484375,0.0
1734407822.9043834,142.08984375,75.1953125,220.21484375,194.82421875,0.0
1734407822.9082894,121.58203125,64.94140625,109.86328125,132.32421875,0.0
1734407822.9121954,46.875,50.78125,-348.14453125,41.50390625,0.0
1734407822.9161015,32.2265625,52.734375,-225.5859375,29.78515625,0.0
1734407822.9200075,83.0078125,62.01171875,153.3203125,114.74609375,0.0
1734407822.9241843,134.765625,59.08203125,0.0,196.77734375,0.0
1734407822.9280903,123.046875,53.7109375,0.0,143.5546875,0.0
1734407822.9319963,57.12890625,61.03515625,0.0,12.20703125,0.0
1734407822.9359024,32.2265625,57.6171875,0.0,2.9296875,0.0
1734407822.9398084,89.84375,46.38671875,0.0,112.3046875,0.0
1734407822.9437144,155.2734375,53.22265625,0.0,191.89453125,0.0
1734407822.9476206,144.04296875,61.5234375,0.0,153.3203125,0.0
1734407822.9515266,76.171875,63.96484375,0.0,29.296875,0.0
1734407822.9554327,50.29296875,57.6171875,0.0,10.25390625,0.0
1734407822.9593387,90.33203125,55.17578125,0.0,104.98046875,0.0
1734407822.9632447,144.04296875,57.6171875,0.0,193.84765625,0.0
1734407822.9671507,158.69140625,48.828125,0.0,173.33984375,0.0
1734407822.9711776,0.0,39.0625,-88.8671875,45.41015625,0.0
1734407822.9750838,0.0,34.1796875,-24.4140625,-23.4375,0.0
1734407822.9789898,0.0,39.55078125,166.50390625,74.70703125,0.0
1734407822.9828959,0.0,42.48046875,138.18359375,188.96484375,0.0
1734407822.9868019,0.0,47.36328125,74.21875,179.6875,0.0
1734407822.9907079,0.0,54.6875,-31.25,69.82421875,0.0
1734407822.994614,0.0,55.17578125,-96.6796875,-0.9765625,0.0
1734407822.99852,0.0,47.36328125,45.8984375,76.171875,0.0
1734407823.0024261,0.0,37.59765625,-204.58984375,190.91796875,0.0
1734407823.0063322,0.0,43.45703125,-1.46484375,176.7578125,0.0
1734407823.0102382,0.0,43.45703125,109.375,65.91796875,0.0
1734407823.0141442,0.0,43.45703125,-170.41015625,-6.34765625,0.0
1734407823.0181139,58.59375,45.41015625,-52.24609375,48.33984375,0.0
1734407823.0220199,123.53515625,42.48046875,186.03515625,166.015625,0.0
1734407823.0259259,161.62109375,45.8984375,180.17578125,188.96484375,0.0
1734407823.029832,128.41796875,44.43359375,35.64453125,89.84375,0.0
1734407823.033738,65.91796875,45.41015625,-28.80859375,-3.90625,0.0
1734407823.037644,66.40625,46.875,-8.30078125,40.52734375,0.0
1734407823.04155,130.859375,47.36328125,113.76953125,167.96875,0.0
1734407823.0454562,169.43359375,41.50390625,-1.46484375,212.890625,0.0
1734407823.0493622,122.55859375,44.921875,-133.7890625,119.140625,0.0
1734407823.0532682,54.19921875,46.38671875,67.87109375,-1.953125,0.0
1734407823.0571742,74.70703125,41.015625,108.3984375,30.2734375,0.0
1734407823.0610802,145.01953125,37.109375,63.96484375,157.71484375,0.0
1734407823.064993,0.0,35.15625,151.85546875,202.63671875,0.0
1734407823.068899,0.0,31.73828125,144.53125,114.74609375,0.0
1734407823.072805,0.0,29.78515625,16.6015625,-8.30078125,0.0
1734407823.076711,0.0,32.2265625,-25.390625,4.39453125,0.0
1734407823.0806172,0.0,34.66796875,120.1171875,123.53515625,0.0
1734407823.0845232,0.0,32.2265625,142.578125,199.70703125,0.0
1734407823.0884292,0.0,33.203125,41.9921875,135.7421875,0.0
1734407823.0923352,0.0,32.2265625,-392.578125,25.390625,0.0
1734407823.0962412,0.0,38.57421875,-124.51171875,7.32421875,0.0
1734407823.1001472,0.0,42.48046875,205.56640625,116.69921875,0.0
1734407823.1040533,0.0,37.59765625,93.75,196.2890625,0.0
1734407823.1079595,0.0,40.0390625,160.15625,128.90625,0.0
1734407823.1105812,169.43359375,38.0859375,99.12109375,17.08984375,0.0
1734407823.1144872,120.1171875,43.9453125,87.40234375,2.9296875,0.0
1734407823.1183932,53.7109375,46.38671875,95.21484375,110.3515625,0.0
1734407823.1222992,56.15234375,43.9453125,123.046875,204.58984375,0.0
1734407823.1262052,119.140625,44.921875,101.5625,147.4609375,0.0
1734407823.1301112,160.15625,46.875,-15.13671875,33.69140625,0.0
1734407823.1340172,125.0,40.0390625,-234.86328125,25.87890625,0.0
1734407823.1379232,59.5703125,37.59765625,-128.90625,111.328125,0.0
1734407823.1418295,42.96875,40.0390625,225.5859375,198.2421875,0.0
1734407823.1457355,110.3515625,36.62109375,209.47265625,173.33984375,0.0
1734407823.1496415,162.109375,43.9453125,-34.1796875,47.36328125,0.0
1734407823.1535475,129.39453125,59.5703125,-0.48828125,1.46484375,0.0
1734407823.1573772,95.21484375,54.6875,189.453125,84.9609375,0.0
1734407823.1612833,159.66796875,47.8515625,161.62109375,202.1484375,0.0
1734407823.1651893,170.41015625,52.734375,50.29296875,187.5,0.0
1734407823.1690953,114.2578125,58.59375,74.21875,66.89453125,0.0
1734407823.1730015,62.5,47.8515625,89.35546875,9.27734375,0.0
1734407823.1769075,85.9375,37.109375,26.3671875,89.35546875,0.0
1734407823.1808136,148.92578125,34.66796875,-204.58984375,217.28515625,0.0
1734407823.1847196,163.0859375,32.71484375,-27.83203125,207.03125,0.0
1734407823.1886256,98.6328125,28.80859375,170.8984375,72.265625,0.0
1734407823.1925316,48.828125,27.83203125,-0.9765625,19.53125,0.0
1734407823.1964376,73.73046875,30.76171875,-58.10546875,88.8671875,0.0
1734407823.2003436,137.6953125,24.90234375,157.71484375,188.4765625,0.0
1734407823.2041132,172.36328125,22.94921875,207.03125,209.9609375,0.0
1734407823.2080193,122.0703125,18.06640625,37.109375,109.375,0.0
1734407823.2119255,49.31640625,17.578125,-35.64453125,7.32421875,0.0
1734407823.2158315,58.10546875,25.390625,110.83984375,39.55078125,0.0
1734407823.2197375,130.37109375,29.78515625,190.91796875,160.15625,0.0
1734407823.2236435,165.0390625,33.69140625,85.44921875,217.28515625,0.0
1734407823.2275496,115.72265625,39.55078125,11.23046875,109.86328125,0.0
1734407823.2314556,53.22265625,51.7578125,50.78125,-1.953125,0.0
1734407823.2353616,62.5,55.17578125,126.46484375,31.25,0.0
1734407823.2392676,117.67578125,41.9921875,-27.83203125,157.2265625,0.0
1734407823.2431736,138.18359375,40.52734375,-89.35546875,201.171875,0.0
1734407823.2470796,103.515625,52.24609375,152.34375,87.40234375,0.0
1734407823.251244,50.78125,52.734375,60.546875,-10.25390625,0.0
1734407823.25515,44.921875,52.24609375,-86.42578125,14.16015625,0.0
1734407823.259056,100.5859375,48.828125,83.984375,126.953125,0.0
1734407823.262962,154.296875,45.8984375,199.70703125,193.84765625,0.0
1734407823.266868,117.67578125,49.8046875,127.44140625,115.72265625,0.0
1734407823.2707744,42.96875,60.546875,-209.47265625,-2.9296875,0.0
1734407823.2746804,40.52734375,76.171875,-262.20703125,3.90625,0.0
1734407823.2785864,85.44921875,84.47265625,126.46484375,107.421875,0.0
1734407823.2824924,132.8125,80.56640625,154.78515625,176.7578125,0.0
1734407823.2863984,121.58203125,80.56640625,-237.3046875,136.71875,0.0
1734407823.2903044,47.8515625,97.16796875,-246.09375,0.9765625,0.0
1734407823.2942104,24.4140625,108.3984375,-4.39453125,-32.71484375,0.0
1734407823.298323,0.0,97.65625,95.21484375,85.9375,0.0
1734407823.302229,0.0,92.28515625,125.48828125,171.875,0.0
1734407823.306135,0.0,100.09765625,160.64453125,127.9296875,0.0
1734407823.310041,0.0,97.16796875,113.76953125,18.06640625,0.0
1734407823.313947,0.0,86.42578125,3.90625,-23.4375,0.0
1734407823.317853,0.0,86.9140625,9.765625,65.91796875,0.0
1734407823.3217592,0.0,102.05078125,124.51171875,166.50390625,0.0
1734407823.3256652,0.0,96.19140625,219.7265625,112.3046875,0.0
1734407823.3295712,0.0,79.58984375,-118.1640625,0.0,0.0
1734407823.3334773,0.0,83.0078125,-222.16796875,-33.69140625,0.0
1734407823.3373833,0.0,90.8203125,173.828125,42.96875,0.0
1734407823.3412893,0.0,82.03125,208.0078125,155.76171875,0.0
1734407823.3440893,80.56640625,75.1953125,68.84765625,138.18359375,0.0
1734407823.3479953,129.8828125,57.12890625,86.42578125,18.06640625,0.0
1734407823.3519013,124.0234375,10.7421875,123.53515625,-35.64453125,0.0
1734407823.3558073,63.96484375,-6.34765625,99.609375,47.36328125,0.0
1734407823.3597133,19.53125,-7.32421875,31.25,163.0859375,0.0
1734407823.3636193,60.546875,-3.90625,70.80078125,147.94921875,0.0
1734407823.3675253,132.32421875,2.44140625,73.2421875,35.64453125,0.0
1734407823.3714314,132.32421875,1.46484375,-60.05859375,-15.13671875,0.0
1734407823.3753374,65.91796875,4.8828125,-308.10546875,57.6171875,0.0
1734407823.3792436,12.6953125,20.01953125,14.6484375,165.52734375,0.0
1734407823.3831496,49.31640625,22.94921875,191.40625,185.546875,0.0
1734407823.3870556,124.51171875,22.4609375,33.203125,75.68359375,0.0
1734407823.3911169,37.109375,21.484375,-23.4375,-19.53125,0.0
1734407823.3950229,41.015625,23.4375,124.51171875,22.94921875,0.0
1734407823.3989289,107.421875,24.90234375,202.1484375,132.32421875,0.0
1734407823.402835,138.671875,22.4609375,117.67578125,166.015625,0.0
1734407823.406741,97.16796875,23.92578125,108.88671875,81.0546875,0.0
1734407823.4106472,26.3671875,17.578125,-65.4296875,-20.5078125,0.0
1734407823.4145532,20.99609375,14.6484375,-35.64453125,0.48828125,0.0
1734407823.4184592,100.5859375,22.94921875,26.85546875,128.90625,0.0
1734407823.4223652,138.671875,35.64453125,-20.5078125,174.8046875,0.0
1734407823.4262712,90.33203125,40.0390625,171.875,75.68359375,0.0
1734407823.4301772,32.2265625,30.76171875,88.8671875,-15.625,0.0
1734407823.4340832,35.64453125,36.1328125,-21.484375,10.25390625,0.0
1734407823.4380457,97.65625,57.6171875,127.9296875,130.37109375,0.0
1734407823.4419518,142.08984375,65.91796875,223.14453125,202.1484375,0.0
1734407823.4458578,118.65234375,59.5703125,129.8828125,130.37109375,0.0
1734407823.4497638,57.12890625,61.03515625,-81.0546875,12.6953125,0.0
1734407823.4536698,40.52734375,62.98828125,0.9765625,15.13671875,0.0
1734407823.4575758,92.28515625,55.6640625,133.30078125,136.23046875,0.0
1734407823.4614818,146.97265625,56.640625,75.68359375,206.0546875,0.0
1734407823.4653878,149.90234375,67.3828125,-207.51953125,149.90234375,0.0
1734407823.4692938,87.890625,82.03125,-41.015625,22.4609375,0.0
1734407823.4732,57.12890625,71.77734375,105.95703125,4.8828125,0.0
1734407823.477106,106.93359375,66.40625,33.203125,122.55859375,0.0
1734407823.481012,169.921875,72.265625,100.09765625,207.03125,0.0
1734407823.4849248,168.45703125,76.171875,154.78515625,155.76171875,0.0
1734407823.4888308,103.02734375,70.80078125,94.7265625,40.52734375,0.0
1734407823.4927368,59.5703125,61.03515625,-5.859375,20.99609375,0.0
1734407823.4966428,87.890625,66.40625,109.86328125,105.46875,0.0
1734407823.5005488,146.484375,66.40625,188.4765625,194.3359375,0.0
1734407823.5044549,142.08984375,57.12890625,154.78515625,175.29296875,0.0
1734407823.5083609,82.03125,54.6875,-94.7265625,66.40625,0.0
1734407823.5122669,48.33984375,66.89453125,-207.51953125,20.5078125,0.0
1734407823.5161731,75.68359375,69.82421875,138.671875,97.16796875,0.0
1734407823.5200791,146.97265625,65.4296875,199.21875,195.3125,0.0
1734407823.5239851,172.36328125,76.171875,80.078125,186.03515625,0.0
1734407823.5278912,125.0,84.9609375,85.9375,74.70703125,0.0
1734407823.5317469,72.75390625,88.37890625,123.046875,10.25390625,0.0
1734407823.5356529,103.02734375,87.40234375,106.93359375,104.00390625,0.0
1734407823.539559,175.78125,89.84375,43.9453125,224.609375,0.0
1734407823.543465,182.6171875,91.796875,166.015625,208.0078125,0.0
1734407823.547371,127.44140625,93.75,163.57421875,93.75,0.0
1734407823.5512772,74.70703125,91.30859375,-154.78515625,16.6015625,0.0
1734407823.5551832,88.8671875,86.42578125,-402.83203125,87.40234375,0.0
1734407823.5590892,150.87890625,94.23828125,24.90234375,202.1484375,0.0
1734407823.5629952,169.921875,90.33203125,279.78515625,196.2890625,0.0
1734407823.5669012,133.7890625,84.47265625,68.84765625,104.4921875,0.0
1734407823.5708072,69.82421875,79.1015625,-157.2265625,16.11328125,0.0
1734407823.5747132,68.84765625,85.44921875,65.4296875,46.875,0.0
1734407823.5785236,0.0,89.84375,223.14453125,164.0625,0.0
1734407823.5824296,0.0,68.84765625,131.8359375,198.73046875,0.0
1734407823.5863357,0.0,68.84765625,130.37109375,114.2578125,0.0
1734407823.590242,0.0,79.1015625,90.33203125,20.99609375,0.0
1734407823.594148,0.0,64.94140625,126.953125,41.50390625,0.0
1734407823.598054,0.0,53.7109375,54.6875,141.6015625,0.0
1734407823.60196,0.0,54.6875,-27.83203125,190.91796875,0.0
1734407823.605866,0.0,66.40625,139.6484375,121.58203125,0.0
1734407823.609772,0.0,76.171875,103.515625,21.484375,0.0
1734407823.613678,0.0,60.546875,-88.8671875,40.52734375,0.0
1734407823.617584,0.0,52.734375,52.734375,137.6953125,0.0
1734407823.62149,0.0,57.6171875,239.74609375,187.98828125,0.0
1734407823.6244423,136.23046875,56.640625,166.015625,125.9765625,0.0
1734407823.6283484,166.9921875,61.5234375,-71.2890625,25.390625,0.0
1734407823.6322544,144.04296875,68.359375,20.01953125,24.4140625,0.0
1734407823.6361604,85.9375,70.3125,202.1484375,122.55859375,0.0
1734407823.6400664,66.40625,68.359375,145.99609375,196.77734375,0.0
1734407823.6439724,105.95703125,62.01171875,-32.2265625,160.15625,0.0
1734407823.6478784,141.11328125,59.5703125,-35.64453125,44.43359375,0.0
1734407823.6517844,132.8125,58.59375,104.4921875,18.5546875,0.0
1734407823.6556904,81.54296875,60.546875,47.36328125,110.83984375,0.0
1734407823.6595964,58.10546875,54.19921875,-234.375,191.40625,0.0
1734407823.6635025,98.14453125,55.17578125,-23.4375,144.53125,0.0
1734407823.6674085,151.3671875,57.12890625,109.86328125,36.62109375,0.0
1734407823.6703415,151.85546875,54.6875,0.0,18.06640625,0.0
1734407823.6742475,98.6328125,58.10546875,0.0,95.21484375,0.0
1734407823.6781535,70.3125,60.05859375,0.0,177.24609375,0.0
1734407823.6820595,103.515625,58.10546875,0.0,151.3671875,0.0
1734407823.6859655,152.34375,61.03515625,0.0,57.6171875,0.0
1734407823.6898715,155.76171875,61.03515625,0.0,16.6015625,0.0
1734407823.6937776,92.7734375,55.6640625,0.0,82.51953125,0.0
1734407823.6976836,54.6875,56.640625,0.0,158.203125,0.0
1734407823.7015896,80.078125,43.9453125,0.0,144.04296875,0.0
1734407823.7054956,129.8828125,49.8046875,0.0,55.6640625,0.0
1734407823.7094016,141.6015625,59.5703125,0.0,-1.953125,0.0
1734407823.7133076,91.30859375,80.078125,0.0,47.8515625,0.0
1734407823.71744,112.3046875,118.65234375,49.8046875,151.85546875,0.0
1734407823.721346,139.16015625,126.953125,173.828125,164.55078125,0.0
1734407823.725252,107.421875,133.7890625,176.26953125,71.77734375,0.0
1734407823.729158,58.59375,143.06640625,50.78125,7.32421875,0.0
1734407823.7330642,53.22265625,145.5078125,1.953125,58.59375,0.0
1734407823.7369702,108.3984375,140.625,74.21875,166.015625,0.0
1734407823.7408762,141.11328125,141.6015625,154.296875,176.7578125,0.0
1734407823.7447822,116.2109375,139.6484375,97.65625,69.82421875,0.0
1734407823.7486882,61.03515625,125.0,-346.19140625,6.8359375,0.0
1734407823.7525942,38.0859375,165.0390625,-87.890625,38.57421875,0.0
1734407823.7565002,86.42578125,100.5859375,166.50390625,127.9296875,0.0
1734407823.7604063,135.7421875,294.921875,129.39453125,161.62109375,0.0
1734407823.7644992,0.0,893.5546875,176.7578125,78.61328125,0.0
1734407823.7684052,0.0,997.55859375,117.1875,-5.37109375,0.0
1734407823.7723112,0.0,944.3359375,104.00390625,27.83203125,0.0
1734407823.7762172,0.0,976.07421875,111.328125,141.6015625,0.0
1734407823.7801232,0.0,969.7265625,150.87890625,178.7109375,0.0
1734407823.7840292,0.0,969.23828125,100.09765625,114.74609375,0.0
1734407823.7879353,0.0,969.23828125,33.69140625,36.1328125,0.0
1734407823.7918413,0.0,969.7265625,-86.42578125,48.828125,0.0
1734407823.7957475,0.0,969.7265625,-99.12109375,138.18359375,0.0
1734407823.7996535,0.0,969.23828125,217.7734375,177.24609375,0.0
1734407823.8035595,0.0,969.7265625,228.515625,119.140625,0.0
1734407823.8074656,0.0,969.7265625,-47.8515625,23.92578125,0.0
1734407823.8102567,108.3984375,969.7265625,37.59765625,17.08984375,0.0
1734407823.8141627,43.45703125,970.21484375,219.7265625,125.9765625,0.0
1734407823.8180687,41.9921875,967.28515625,151.3671875,193.84765625,0.0
1734407823.8219748,97.16796875,971.6796875,89.35546875,135.7421875,0.0
1734407823.8258808,140.13671875,960.9375,53.7109375,20.01953125,0.0
1734407823.8297868,146.484375,888.671875,-32.71484375,11.23046875,0.0
1734407823.8336928,91.30859375,829.58984375,14.16015625,100.09765625,0.0
1734407823.8375988,62.98828125,794.43359375,-182.6171875,175.78125,0.0
1734407823.8415048,97.16796875,759.27734375,71.2890625,125.9765625,0.0
1734407823.8454108,140.625,721.19140625,148.4375,25.87890625,0.0
1734407823.8493168,140.13671875,684.5703125,-112.3046875,11.71875,0.0
1734407823.8532228,80.078125,649.4140625,67.3828125,72.265625,0.0
1734407823.8572142,99.12109375,615.72265625,211.9140625,151.85546875,0.0
1734407823.8611202,128.90625,588.37890625,200.1953125,131.8359375,0.0
1734407823.8650262,90.33203125,567.87109375,47.36328125,37.109375,0.0
1734407823.8689322,45.8984375,551.26953125,44.43359375,9.27734375,0.0
1734407823.8728383,60.546875,533.203125,135.25390625,83.984375,0.0
1734407823.8767443,125.9765625,513.18359375,161.1328125,174.31640625,0.0
1734407823.8806503,161.1328125,493.1640625,28.3203125,190.91796875,0.0
1734407823.8845563,122.0703125,476.07421875,-124.0234375,96.19140625,0.0
1734407823.8884623,67.3828125,447.265625,57.12890625,22.94921875,0.0
1734407823.8923683,67.3828125,422.36328125,79.58984375,88.37890625,0.0
1734407823.8962743,123.53515625,403.3203125,73.2421875,178.7109375,0.0
1734407823.9001803,157.71484375,387.6953125,172.36328125,169.43359375,0.0
1734407823.90411,122.0703125,365.72265625,170.41015625,74.21875,0.0
1734407823.908016,59.5703125,337.40234375,90.33203125,15.625,0.0
1734407823.911922,44.921875,329.58984375,9.27734375,58.10546875,0.0
1734407823.915828,99.609375,324.21875,134.27734375,156.25,0.0
1734407823.919734,151.85546875,311.5234375,234.86328125,182.12890625,0.0
1734407823.92364,126.953125,296.875,33.69140625,95.703125,0.0
1734407823.927546,67.87109375,281.25,-393.06640625,17.578125,0.0
1734407823.931452,49.8046875,280.2734375,-49.31640625,42.96875,0.0
1734407823.935358,95.21484375,272.4609375,269.53125,142.08984375,0.0
1734407823.939264,145.01953125,255.859375,144.53125,181.640625,0.0
1734407823.94317,128.90625,245.1171875,103.02734375,101.07421875,0.0
1734407823.947076,63.96484375,232.91015625,93.75,6.34765625,0.0
1734407823.9509614,48.828125,229.00390625,76.171875,43.45703125,0.0
1734407823.9548674,101.07421875,225.09765625,106.4453125,137.20703125,0.0
1734407823.9587734,146.484375,216.30859375,183.59375,170.8984375,0.0
1734407823.9626794,139.16015625,209.9609375,186.03515625,119.140625,0.0
1734407823.9665856,89.84375,196.2890625,127.9296875,13.671875,0.0
1734407823.9704916,62.5,183.10546875,-43.45703125,30.76171875,0.0
1734407823.9743977,87.890625,176.7578125,-67.3828125,142.08984375,0.0
1734407823.9783037,135.25390625,179.19921875,198.73046875,181.15234375,0.0
1734407823.9822097,140.13671875,169.43359375,224.12109375,124.51171875,0.0
1734407823.9861157,87.890625,156.73828125,-108.3984375,28.3203125,0.0
1734407823.9900217,58.59375,164.55078125,-78.125,19.53125,0.0
1734407823.9939277,87.890625,159.1796875,202.63671875,108.3984375,0.0
1734407823.9981942,0.0,142.08984375,0.0,179.19921875,0.0
1734407824.0021002,0.0,136.23046875,0.0,134.765625,0.0
1734407824.0060062,0.0,126.953125,0.0,11.71875,0.0
1734407824.0099123,0.0,124.51171875,0.0,-2.44140625,0.0
1734407824.0138183,0.0,124.51171875,0.0,110.83984375,0.0
1734407824.0177243,0.0,124.51171875,0.0,186.5234375,0.0
1734407824.0216303,0.0,136.71875,0.0,144.04296875,0.0
1734407824.0255363,0.0,134.27734375,0.0,37.59765625,0.0
1734407824.0294423,0.0,123.53515625,0.0,7.8125,0.0
1734407824.0333483,0.0,123.53515625,0.0,96.6796875,0.0
1734407824.0372543,0.0,127.44140625,0.0,176.26953125,0.0
1734407824.0411603,0.0,129.39453125,0.0,141.11328125,0.0
1734407824.0441177,140.13671875,132.8125,167.48046875,39.55078125,0.0
1734407824.0480237,145.99609375,137.20703125,62.01171875,7.32421875,0.0
1734407824.0519297,86.42578125,133.7890625,48.828125,79.58984375,0.0
1734407824.0558357,56.15234375,122.55859375,47.8515625,175.29296875,0.0
1734407824.0597417,91.30859375,113.28125,98.6328125,163.57421875,0.0
1734407824.0636477,145.01953125,112.79296875,-13.671875,67.87109375,0.0
1734407824.0675538,146.97265625,118.1640625,55.6640625,26.3671875,0.0
1734407824.0714598,107.421875,125.0,143.06640625,77.63671875,0.0
1734407824.0753658,75.68359375,115.234375,18.06640625,168.45703125,0.0
1734407824.0792718,76.171875,112.3046875,-258.30078125,172.36328125,0.0
1734407824.0831778,117.67578125,115.72265625,-13.18359375,66.89453125,0.0
1734407824.0870838,134.765625,116.2109375,225.09765625,-4.8828125,0.0
1734407824.0912657,50.78125,111.328125,0.48828125,41.015625,0.0
1734407824.0951717,114.74609375,109.86328125,137.20703125,151.3671875,0.0
1734407824.0990777,153.80859375,108.3984375,225.5859375,177.24609375,0.0
1734407824.1029837,131.8359375,99.609375,119.140625,90.8203125,0.0
1734407824.1068897,88.8671875,102.5390625,-77.1484375,16.11328125,0.0
1734407824.1107957,80.56640625,105.95703125,-33.203125,62.98828125,0.0
1734407824.1147017,116.69921875,103.515625,117.1875,172.8515625,0.0
1734407824.1186078,147.94921875,100.5859375,111.328125,204.1015625,0.0
1734407824.1225138,119.62890625,83.49609375,-252.44140625,104.98046875,0.0
1734407824.1264198,45.8984375,75.1953125,-214.84375,-0.48828125,0.0
1734407824.1303258,20.01953125,75.68359375,48.828125,32.71484375,0.0
1734407824.1342318,80.078125,76.171875,119.140625,124.0234375,0.0
1734407824.1383548,0.0,82.03125,202.1484375,155.2734375,0.0
1734407824.1422608,0.0,83.0078125,189.453125,83.49609375,0.0
1734407824.1461668,0.0,82.03125,95.21484375,-6.34765625,0.0
1734407824.1500728,0.0,77.1484375,35.64453125,2.44140625,0.0
1734407824.1539788,0.0,74.21875,125.0,99.609375,0.0
1734407824.1578848,0.0,80.078125,125.9765625,159.66796875,0.0
1734407824.1617908,0.0,78.61328125,100.5859375,99.609375,0.0
1734407824.1656969,0.0,69.82421875,-129.8828125,7.32421875,0.0
1734407824.1696029,0.0,78.125,-187.5,25.87890625,0.0
1734407824.173509,0.0,79.58984375,170.8984375,117.67578125,0.0
1734407824.177415,0.0,69.3359375,210.44921875,168.45703125,0.0
1734407824.181321,0.0,68.84765625,86.9140625,128.90625,0.0
1734407824.1853824,96.6796875,75.68359375,20.01953125,40.0390625,0.0
1734407824.1892884,52.24609375,74.70703125,97.16796875,16.6015625,0.0
1734407824.1931944,80.56640625,75.1953125,127.9296875,102.5390625,0.0
1734407824.1971004,148.92578125,80.56640625,62.98828125,197.265625,0.0
1734407824.2010064,163.57421875,81.54296875,156.25,159.1796875,0.0
1734407824.2049124,116.2109375,83.49609375,104.98046875,53.7109375,0.0
1734407824.2088184,72.75390625,75.1953125,-40.52734375,26.3671875,0.0
1734407824.2127244,87.890625,64.94140625,-256.8359375,124.51171875,0.0
1734407824.2166305,133.30078125,73.73046875,52.734375,198.73046875,0.0
1734407824.2205365,142.578125,68.359375,238.76953125,146.97265625,0.0
1734407824.2244425,112.79296875,59.5703125,3.90625,57.6171875,0.0
1734407824.2283485,69.82421875,62.98828125,-14.16015625,16.11328125,0.0
1734407824.2323413,67.87109375,61.03515625,157.2265625,74.21875,0.0
1734407824.2362473,123.046875,60.546875,216.796875,168.45703125,0.0
1734407824.2401533,158.203125,65.4296875,140.13671875,155.2734375,0.0
1734407824.2440596,117.1875,60.546875,42.48046875,46.38671875,0.0
1734407824.2479656,54.19921875,49.8046875,28.80859375,-8.7890625,0.0
1734407824.2518716,51.7578125,44.921875,101.07421875,59.5703125,0.0
1734407824.2557776,115.72265625,56.15234375,23.92578125,168.9453125,0.0
1734407824.2596836,159.1796875,62.5,-57.6171875,187.98828125,0.0
1734407824.2635896,119.140625,53.22265625,128.41796875,68.359375,0.0
1734407824.2674956,65.4296875,55.17578125,99.609375,-11.23046875,0.0
1734407824.2714016,66.40625,64.94140625,34.1796875,56.15234375,0.0
1734407824.2753077,107.91015625,72.75390625,147.4609375,159.1796875,0.0
1734407824.2792466,142.578125,76.171875,223.14453125,173.33984375,0.0
1734407824.2831526,125.48828125,68.84765625,117.1875,86.42578125,0.0
1734407824.2870586,69.3359375,64.94140625,-104.4921875,14.6484375,0.0
1734407824.2909646,54.19921875,75.1953125,51.7578125,49.31640625,0.0
1734407824.2948706,104.00390625,73.73046875,222.16796875,151.85546875,0.0
1734407824.2987766,152.83203125,63.4765625,109.375,184.5703125,0.0
1734407824.3026826,142.08984375,64.94140625,-294.43359375,103.515625,0.0
1734407824.3065886,76.66015625,69.3359375,-212.40234375,18.06640625,0.0
1734407824.3104947,39.55078125,62.98828125,146.97265625,22.4609375,0.0
1734407824.3144007,89.35546875,61.5234375,145.5078125,141.6015625,0.0
1734407824.3183067,151.3671875,65.91796875,121.58203125,196.77734375,0.0
1734407824.3222127,139.16015625,67.3828125,158.69140625,94.7265625,0.0
1734407824.3260815,78.125,62.5,104.4921875,1.953125,0.0
1734407824.3299875,49.31640625,57.6171875,70.3125,22.94921875,0.0
1734407824.3338935,80.56640625,56.640625,150.390625,115.234375,0.0
1734407824.3377995,141.6015625,56.640625,193.359375,180.6640625,0.0
1734407824.3417056,154.78515625,63.4765625,206.0546875,117.1875,0.0
1734407824.3456116,95.703125,66.40625,-76.171875,13.671875,0.0
1734407824.3495176,59.5703125,71.2890625,-149.90234375,16.6015625,0.0
1734407824.3534236,85.44921875,66.40625,153.80859375,103.02734375,0.0
1734407824.3573296,122.0703125,53.22265625,220.21484375,161.1328125,0.0
1734407824.3612356,125.48828125,46.38671875,9.765625,123.046875,0.0
1734407824.3651416,70.3125,51.26953125,-157.2265625,20.01953125,0.0
1734407824.3690476,32.2265625,57.6171875,82.03125,-5.37109375,0.0
1734407824.3733087,0.0,57.12890625,148.92578125,92.7734375,0.0
1734407824.3772147,0.0,66.40625,56.640625,176.7578125,0.0
1734407824.3811207,0.0,70.3125,138.18359375,132.32421875,0.0
1734407824.3850267,0.0,64.94140625,115.72265625,29.78515625,0.0
1734407824.3889327,0.0,67.87109375,36.1328125,12.6953125,0.0
1734407824.3928387,0.0,71.2890625,-60.546875,105.95703125,0.0
1734407824.3967447,0.0,65.4296875,75.68359375,178.22265625,0.0
1734407824.4006507,0.0,60.05859375,227.5390625,127.9296875,0.0
1734407824.4045568,0.0,64.94140625,43.45703125,44.921875,0.0
1734407824.4084628,0.0,63.96484375,-358.3984375,23.4375,0.0
1734407824.4123688,0.0,62.5,-164.55078125,70.80078125,0.0
1734407824.416275,0.0,61.5234375,206.0546875,160.64453125,0.0
1734407824.4205348,143.06640625,43.45703125,110.3515625,153.80859375,0.0
1734407824.4244409,96.19140625,40.0390625,-73.2421875,59.08203125,0.0
1734407824.4283469,38.0859375,48.828125,37.109375,6.8359375,0.0
1734407824.432253,41.50390625,56.640625,149.4140625,64.453125,0.0
1734407824.436159,106.93359375,61.5234375,96.6796875,167.96875,0.0
1734407824.4400651,140.625,57.6171875,50.29296875,177.734375,0.0
1734407824.4439712,105.95703125,62.5,49.8046875,64.94140625,0.0
1734407824.4478772,44.43359375,64.94140625,123.046875,-13.671875,0.0
1734407824.4517832,43.45703125,64.453125,-48.828125,48.33984375,0.0
1734407824.4556892,101.07421875,70.80078125,-89.35546875,159.1796875,0.0
1734407824.4595952,133.7890625,57.6171875,218.26171875,156.73828125,0.0
1734407824.4635012,113.28125,41.9921875,142.08984375,66.40625,0.0
1734407824.4676707,61.5234375,52.734375,-82.51953125,15.13671875,0.0
1734407824.4715767,38.0859375,64.453125,57.6171875,44.921875,0.0
1734407824.4754827,90.33203125,65.91796875,226.07421875,139.16015625,0.0
1734407824.4793887,137.20703125,65.4296875,137.6953125,166.9921875,0.0
1734407824.4832947,115.72265625,66.89453125,30.2734375,93.26171875,0.0
1734407824.4872007,70.3125,66.40625,-77.63671875,18.5546875,0.0
1734407824.4911067,53.7109375,65.91796875,-21.484375,43.9453125,0.0
1734407824.4950128,93.26171875,62.98828125,130.37109375,145.99609375,0.0
1734407824.498919,145.01953125,64.94140625,-194.82421875,205.56640625,0.0
1734407824.502825,135.25390625,78.61328125,-30.76171875,124.0234375,0.0
1734407824.506731,69.3359375,78.125,58.59375,14.6484375,0.0
1734407824.510637,41.50390625,64.453125,34.66796875,29.296875,0.0
1734407824.514748,79.1015625,63.4765625,184.5703125,114.2578125,0.0
1734407824.518654,121.58203125,62.98828125,211.42578125,162.59765625,0.0
1734407824.5225601,126.46484375,64.94140625,184.08203125,112.3046875,0.0
1734407824.5264661,75.1953125,66.40625,15.625,14.6484375,0.0
1734407824.5303721,41.9921875,68.359375,52.734375,21.484375,0.0
1734407824.5342782,69.82421875,61.03515625,98.6328125,120.60546875,0.0
1734407824.5381844,117.67578125,54.19921875,107.91015625,165.52734375,0.0
1734407824.5420904,131.34765625,55.17578125,-15.625,122.0703125,0.0
1734407824.5459964,73.2421875,58.10546875,-178.22265625,29.296875,0.0
1734407824.5499024,22.4609375,54.6875,80.078125,-11.23046875,0.0
1734407824.5538085,59.5703125,53.7109375,156.73828125,75.68359375,0.0
1734407824.5577145,128.41796875,50.78125,79.1015625,164.0625,0.0
1734407824.561767,133.30078125,44.921875,179.19921875,110.3515625,0.0
1734407824.565673,74.70703125,45.41015625,158.69140625,-8.30078125,0.0
1734407824.5695791,32.71484375,44.43359375,56.15234375,-18.5546875,0.0
1734407824.5734851,46.38671875,46.875,52.24609375,81.54296875,0.0
1734407824.5773911,105.46875,44.43359375,173.33984375,166.015625,0.0
1734407824.5812972,135.25390625,46.875,197.265625,143.06640625,0.0
1734407824.5852032,92.7734375,49.8046875,4.39453125,46.38671875,0.0
1734407824.5891092,54.19921875,51.26953125,-352.5390625,20.01953125,0.0
1734407824.5930152,62.98828125,62.98828125,-4.8828125,76.171875,0.0
1734407824.5969212,106.93359375,60.05859375,237.3046875,152.83203125,0.0
1734407824.6008272,131.8359375,53.7109375,88.37890625,141.11328125,0.0
1734407824.6047332,100.5859375,56.15234375,61.03515625,45.41015625,0.0
1734407824.6086965,58.59375,60.05859375,0.0,-6.34765625,0.0
1734407824.6126025,67.87109375,67.3828125,0.0,59.5703125,0.0
1734407824.6165085,125.9765625,69.3359375,0.0,159.66796875,0.0
1734407824.6204145,145.5078125,67.3828125,0.0,147.4609375,0.0
1734407824.6243205,100.5859375,59.08203125,0.0,58.59375,0.0
1734407824.6282265,47.8515625,53.22265625,0.0,2.44140625,0.0
1734407824.6321325,47.8515625,56.640625,0.0,48.33984375,0.0
1734407824.6360385,106.4453125,64.453125,0.0,163.0859375,0.0
1734407824.6399446,135.25390625,66.89453125,0.0,170.8984375,0.0
1734407824.6438506,109.375,63.4765625,0.0,62.5,0.0
1734407824.6477566,68.84765625,59.5703125,0.0,-2.9296875,0.0
1734407824.6516626,51.7578125,67.3828125,0.0,41.9921875,0.0
1734407824.655584,96.19140625,73.2421875,227.05078125,130.859375,0.0
1734407824.65949,143.06640625,72.265625,146.97265625,173.828125,0.0
1734407824.6633961,138.18359375,78.125,20.01953125,120.60546875,0.0
1734407824.6673021,87.40234375,84.47265625,36.1328125,3.41796875,0.0
1734407824.6712081,61.5234375,86.42578125,158.69140625,19.53125,0.0
1734407824.6751142,115.234375,81.54296875,85.9375,146.484375,0.0
1734407824.6790202,161.62109375,77.63671875,-216.30859375,199.21875,0.0
1734407824.6829262,145.5078125,87.890625,13.671875,116.2109375,0.0
1734407824.6868322,94.23828125,83.49609375,160.15625,26.85546875,0.0
1734407824.6907384,63.96484375,79.1015625,60.05859375,52.24609375,0.0
1734407824.6946445,93.75,87.40234375,85.9375,139.6484375,0.0
1734407824.6985505,142.578125,86.42578125,184.5703125,186.03515625,0.0
1734407824.7024186,0.0,80.56640625,182.6171875,119.62890625,0.0
1734407824.7063246,0.0,78.125,0.0,16.6015625,0.0
1734407824.7102306,0.0,76.171875,-5.37109375,9.765625,0.0
1734407824.7141366,0.0,65.91796875,155.2734375,103.515625,0.0
1734407824.7180426,0.0,65.4296875,167.48046875,166.50390625,0.0
1734407824.7219486,0.0,69.3359375,44.921875,121.09375,0.0
1734407824.7258546,0.0,71.77734375,-200.68359375,29.78515625,0.0
1734407824.7297606,0.0,77.1484375,-40.0390625,18.5546875,0.0
1734407824.7336667,0.0,76.171875,183.10546875,104.98046875,0.0
1734407824.7375727,0.0,70.80078125,-3.90625,183.59375,0.0
1734407824.7414787,0.0,80.078125,-0.48828125,155.2734375,0.0
1734407824.7453847,0.0,85.44921875,127.44140625,53.22265625,0.0
1734407824.7483876,147.4609375,79.1015625,66.89453125,30.2734375,0.0
1734407824.7522936,88.8671875,76.171875,16.11328125,122.0703125,0.0
1734407824.7561996,48.33984375,80.56640625,144.04296875,188.4765625,0.0
1734407824.7601056,68.359375,80.078125,228.02734375,148.4375,0.0
1734407824.7640119,120.1171875,66.89453125,94.23828125,59.08203125,0.0
1734407824.7679179,138.671875,65.91796875,-173.828125,22.94921875,0.0
1734407824.771824,95.703125,72.265625,-6.8359375,77.63671875,0.0
1734407824.77573,56.640625,68.359375,224.12109375,175.78125,0.0
1734407824.779636,76.171875,62.98828125,88.8671875,174.8046875,0.0
1734407824.783542,125.48828125,62.01171875,-310.05859375,77.1484375,0.0
1734407824.787448,140.625,66.40625,-247.0703125,27.34375,0.0
1734407824.791354,100.09765625,67.87109375,111.81640625,88.8671875,0.0
1734407824.794337,57.12890625,66.40625,151.85546875,0.0,0.0
1734407824.798243,66.40625,76.171875,185.05859375,0.0,0.0
1734407824.802149,127.9296875,72.75390625,153.80859375,0.0,0.0
1734407824.806055,160.64453125,57.6171875,84.47265625,0.0,0.0
1734407824.809961,118.1640625,61.03515625,62.01171875,0.0,0.0
1734407824.813867,79.58984375,69.3359375,80.56640625,0.0,0.0
1734407824.817773,78.125,73.73046875,136.23046875,0.0,0.0
1734407824.821679,143.06640625,74.21875,195.80078125,0.0,0.0
1734407824.8255851,175.29296875,60.546875,-91.30859375,0.0,0.0
1734407824.8294911,121.58203125,68.84765625,-161.62109375,0.0,0.0
1734407824.8333972,61.5234375,80.078125,197.265625,0.0,0.0
1734407824.8373032,56.640625,66.40625,153.80859375,0.0,0.0
1734407824.8414772,120.60546875,62.01171875,28.80859375,84.9609375,0.0
1734407824.8453832,60.546875,65.4296875,61.03515625,2.9296875,0.0
1734407824.8492892,49.8046875,59.08203125,153.80859375,38.57421875,0.0
1734407824.8531952,98.14453125,55.6640625,156.73828125,142.08984375,0.0
1734407824.8571012,139.6484375,58.10546875,87.40234375,169.43359375,0.0
1734407824.8610072,128.41796875,50.78125,61.5234375,90.33203125,0.0
1734407824.8649132,63.96484375,48.828125,59.08203125,3.90625,0.0
1734407824.8688192,40.0390625,52.734375,61.5234375,13.18359375,0.0
1734407824.8727252,91.30859375,51.7578125,-264.16015625,136.71875,0.0
1734407824.8766313,128.90625,55.6640625,-11.71875,180.17578125,0.0
1734407824.8805373,119.140625,47.8515625,216.30859375,93.26171875,0.0
1734407824.8844433,81.0546875,46.875,15.625,-4.8828125,0.0
1734407824.888535,50.29296875,60.05859375,44.43359375,14.6484375,0.0
1734407824.892441,86.42578125,67.3828125,190.4296875,117.67578125,0.0
1734407824.896347,142.08984375,62.5,160.15625,175.78125,0.0
1734407824.900253,146.484375,62.01171875,127.9296875,130.37109375,0.0
1734407824.904159,89.84375,62.98828125,114.2578125,22.94921875,0.0
1734407824.908065,51.7578125,57.12890625,45.8984375,16.6015625,0.0
1734407824.911971,83.0078125,59.5703125,119.140625,108.88671875,0.0
1734407824.915877,139.16015625,62.01171875,99.12109375,172.8515625,0.0
1734407824.919783,150.390625,64.453125,-23.4375,149.4140625,0.0
1734407824.9236891,94.23828125,67.3828125,128.41796875,40.0390625,0.0
1734407824.9275951,60.05859375,65.91796875,115.234375,2.44140625,0.0
1734407824.9315012,89.84375,68.359375,40.0390625,89.35546875,0.0
1734407824.935535,139.6484375,67.87109375,173.33984375,170.41015625,0.0
1734407824.939441,155.2734375,67.87109375,241.69921875,146.484375,0.0
1734407824.943347,115.234375,63.4765625,97.16796875,53.7109375,0.0
1734407824.947253,63.96484375,55.6640625,-20.01953125,22.4609375,0.0
1734407824.951159,67.87109375,58.10546875,118.1640625,83.49609375,0.0
1734407824.955065,133.7890625,69.82421875,162.109375,178.22265625,0.0
1734407824.958971,163.0859375,67.87109375,109.375,168.45703125,0.0
1734407824.962877,126.953125,62.5,-338.37890625,84.9609375,0.0
1734407824.966783,67.87109375,82.03125,-219.7265625,22.94921875,0.0
1734407824.970689,66.89453125,79.1015625,165.52734375,77.1484375,0.0
1734407824.974595,128.90625,70.80078125,117.67578125,185.546875,0.0
1734407824.978501,150.87890625,74.21875,192.87109375,157.2265625,0.0
1734407824.9824944,120.1171875,64.453125,168.45703125,60.546875,0.0
1734407824.9864006,63.4765625,57.12890625,99.609375,6.34765625,0.0
1734407824.9903066,51.26953125,58.59375,90.33203125,66.40625,0.0
1734407824.9942126,106.93359375,56.640625,196.77734375,166.015625,0.0
1734407824.9981186,148.92578125,53.22265625,200.1953125,172.36328125,0.0
1734407825.0020247,122.55859375,52.734375,100.5859375,83.984375,0.0
1734407825.0059307,61.03515625,54.19921875,-111.328125,22.4609375,0.0
1734407825.0098367,50.29296875,64.94140625,-145.01953125,85.9375,0.0
1734407825.0137427,103.515625,66.40625,143.06640625,154.78515625,0.0
1734407825.0176487,141.11328125,59.08203125,212.890625,166.015625,0.0
1734407825.0215547,118.1640625,50.29296875,80.078125,102.5390625,0.0
1734407825.0254607,65.4296875,53.22265625,66.40625,16.11328125,0.0
1734407825.0293953,45.41015625,60.546875,180.17578125,43.45703125,0.0
1734407825.0333014,87.40234375,61.03515625,183.10546875,145.99609375,0.0
1734407825.0372074,131.8359375,57.6171875,107.91015625,185.546875,0.0
1734407825.0411134,117.67578125,55.17578125,137.6953125,109.86328125,0.0
1734407825.0450194,49.8046875,56.640625,107.421875,6.34765625,0.0
1734407825.0489254,17.578125,51.7578125,1.46484375,32.71484375,0.0
1734407825.0528314,75.1953125,54.19921875,-224.12109375,150.390625,0.0
1734407825.0567374,136.23046875,64.453125,55.17578125,187.98828125,0.0
1734407825.0606434,128.90625,55.6640625,256.34765625,116.2109375,0.0
1734407825.0645494,66.40625,45.41015625,16.11328125,17.578125,0.0
1734407825.0684555,33.203125,41.015625,-123.53515625,11.71875,0.0
1734407825.0723615,74.21875,46.38671875,64.94140625,101.5625,0.0
1734407825.0762446,119.140625,52.734375,210.44921875,165.0390625,0.0
1734407825.0801506,128.90625,46.38671875,151.3671875,115.72265625,0.0
1734407825.0840566,67.87109375,49.8046875,48.33984375,17.578125,0.0
1734407825.0879626,25.87890625,63.4765625,101.07421875,23.4375,0.0
1734407825.0918686,56.640625,66.89453125,203.125,104.98046875,0.0
1734407825.0957747,115.72265625,63.96484375,53.22265625,167.48046875,0.0
1734407825.0996807,136.23046875,67.3828125,-41.9921875,138.671875,0.0
1734407825.1035867,80.56640625,70.3125,96.6796875,31.73828125,0.0
1734407825.1074927,33.69140625,65.91796875,97.65625,10.25390625,0.0
1734407825.1113987,50.29296875,63.4765625,14.6484375,103.02734375,0.0
1734407825.1153047,109.86328125,67.3828125,115.234375,165.0390625,0.0
1734407825.1192107,134.27734375,69.82421875,243.1640625,126.46484375,0.0
1734407825.123495,77.1484375,63.96484375,114.2578125,21.484375,0.0
1734407825.127401,18.5546875,58.10546875,-67.3828125,-19.04296875,0.0
1734407825.1313071,26.85546875,61.03515625,48.33984375,56.640625,0.0
1734407825.1352131,77.1484375,65.4296875,181.640625,140.625,0.0
1734407825.1391191,97.65625,62.98828125,144.53125,120.1171875,0.0
1734407825.1430252,55.6640625,60.05859375,-198.73046875,28.80859375,0.0
1734407825.1469312,5.37109375,66.40625,-208.984375,-19.53125,0.0
1734407825.1508372,11.23046875,72.265625,168.45703125,36.62109375,0.0
1734407825.1547432,57.12890625,63.96484375,141.6015625,126.46484375,0.0
1734407825.1586492,96.19140625,57.6171875,-208.984375,129.39453125,0.0
1734407825.1625552,79.1015625,64.94140625,-106.93359375,33.69140625,0.0
1734407825.1664612,-0.48828125,52.734375,21.97265625,-53.7109375,0.0
1734407825.1706638,-38.57421875,41.50390625,79.58984375,-22.4609375,0.0
1734407825.1745698,20.99609375,42.48046875,192.3828125,96.19140625,0.0
1734407825.1784759,64.94140625,37.59765625,205.078125,111.81640625,0.0
1734407825.1823819,37.59765625,34.66796875,160.15625,8.30078125,0.0
1734407825.1862879,-6.8359375,38.57421875,-17.08984375,-50.78125,0.0
1734407825.190194,-20.99609375,41.50390625,-97.16796875,-12.6953125,0.0
1734407825.1941,10.25390625,37.109375,61.03515625,86.9140625,0.0
1734407825.198006,54.6875,37.59765625,211.9140625,102.5390625,0.0
1734407825.201912,53.22265625,40.0390625,-9.765625,19.04296875,0.0
1734407825.205818,-14.6484375,39.55078125,-188.4765625,-44.921875,0.0
1734407825.209724,-46.38671875,33.203125,135.25390625,-33.69140625,0.0
1734407825.2136302,7.8125,28.80859375,204.1015625,78.125,0.0
1734407825.217749,55.6640625,34.1796875,119.62890625,131.8359375,0.0
1734407825.2216551,48.33984375,43.45703125,153.3203125,47.8515625,0.0
1734407825.2255611,6.34765625,43.9453125,128.90625,-34.1796875,0.0
1734407825.2294672,-18.06640625,38.0859375,113.28125,-15.13671875,0.0
1734407825.2333732,12.20703125,33.203125,78.125,68.84765625,0.0
1734407825.2372792,79.58984375,33.203125,94.23828125,122.0703125,0.0
1734407825.2411852,87.890625,42.96875,156.73828125,70.3125,0.0
1734407825.2450912,13.18359375,43.9453125,38.0859375,-10.25390625,0.0
1734407825.2489972,-16.11328125,40.0390625,-367.1875,3.90625,0.0
1734407825.2529032,10.7421875,44.43359375,-94.7265625,70.3125,0.0
1734407825.2568092,79.58984375,50.78125,209.9609375,130.37109375,0.0
1734407825.2607152,93.26171875,55.6640625,136.71875,79.58984375,0.0
1734407825.2648,0.0,50.78125,0.0,-24.90234375,0.0
1734407825.268706,0.0,44.921875,0.0,-19.53125,0.0
1734407825.272612,0.0,52.24609375,0.0,88.37890625,0.0
1734407825.276518,0.0,67.87109375,0.0,169.921875,0.0
1734407825.280424,0.0,77.63671875,0.0,121.09375,0.0
1734407825.2843301,0.0,65.4296875,0.0,19.04296875,0.0
1734407825.2882361,0.0,67.3828125,0.0,6.8359375,0.0
1734407825.2921424,0.0,74.21875,0.0,97.16796875,0.0
1734407825.2960484,0.0,68.359375,0.0,178.7109375,0.0
1734407825.2999544,0.0,60.05859375,0.0,132.8125,0.0
1734407825.3038604,0.0,60.05859375,0.0,31.25,0.0
1734407825.3077664,0.0,65.91796875,0.0,2.44140625,0.0
1734407825.3105478,51.7578125,73.2421875,74.70703125,75.68359375,0.0
1734407825.3144538,109.375,77.63671875,122.0703125,171.875,0.0
1734407825.3183599,134.765625,72.75390625,188.4765625,144.04296875,0.0
1734407825.3222659,97.65625,82.51953125,155.76171875,38.57421875,0.0
1734407825.3261719,43.45703125,87.890625,174.31640625,-7.32421875,0.0
1734407825.330078,54.19921875,80.56640625,32.2265625,62.01171875,0.0
1734407825.333984,127.44140625,82.51953125,9.765625,174.8046875,0.0
1734407825.33789,151.3671875,77.63671875,20.99609375,183.10546875,0.0
1734407825.341796,98.14453125,73.73046875,-43.45703125,64.94140625,0.0
1734407825.345702,57.12890625,72.265625,193.359375,8.30078125,0.0
1734407825.349608,64.453125,68.84765625,148.4375,73.2421875,0.0
1734407825.353514,117.67578125,77.63671875,-73.2421875,172.8515625,0.0
1734407825.3575108,156.25,81.0546875,226.5625,184.5703125,0.0
1734407825.3614168,129.39453125,76.66015625,178.22265625,84.47265625,0.0
1734407825.3653228,69.82421875,71.77734375,2.9296875,11.23046875,0.0
1734407825.3692288,59.08203125,81.54296875,-15.625,69.3359375,0.0
1734407825.3731349,116.2109375,82.51953125,164.0625,171.875,0.0
1734407825.3770409,154.78515625,63.96484375,179.6875,186.5234375,0.0
1734407825.3809469,136.23046875,60.05859375,-18.5546875,114.2578125,0.0
1734407825.384853,80.56640625,73.2421875,-189.453125,48.828125,0.0
1734407825.388759,54.6875,83.0078125,111.328125,68.84765625,0.0
1734407825.392665,108.88671875,82.51953125,210.44921875,172.8515625,0.0
1734407825.396571,162.109375,77.1484375,125.0,201.66015625,0.0
1734407825.400477,151.85546875,83.49609375,168.45703125,118.1640625,0.0
1734407825.404445,96.19140625,84.9609375,147.94921875,25.87890625,0.0
1734407825.408351,63.96484375,78.61328125,103.515625,41.9921875,0.0
1734407825.412257,102.05078125,76.66015625,74.70703125,145.99609375,0.0
1734407825.416163,139.16015625,66.89453125,181.15234375,181.15234375,0.0
1734407825.420069,128.41796875,64.453125,229.00390625,110.83984375,0.0
1734407825.423975,91.30859375,73.73046875,-59.08203125,29.78515625,0.0
1734407825.427881,74.21875,74.21875,-398.92578125,60.546875,0.0
1734407825.431787,90.33203125,81.0546875,-47.36328125,155.2734375,0.0
1734407825.435693,138.671875,73.2421875,296.38671875,197.265625,0.0
1734407825.4395993,151.85546875,59.08203125,161.62109375,138.671875,0.0
1734407825.4435053,99.609375,59.08203125,-115.72265625,37.109375,0.0
1734407825.4474113,58.59375,64.94140625,42.96875,23.92578125,0.0
1734407825.4512806,77.1484375,65.4296875,225.09765625,110.3515625,0.0
1734407825.4551866,129.8828125,61.5234375,167.96875,177.24609375,0.0
1734407825.4590926,136.71875,62.98828125,173.33984375,132.32421875,0.0
1734407825.4629986,87.40234375,67.3828125,101.07421875,31.25,0.0
1734407825.4669046,52.734375,64.453125,102.05078125,2.9296875,0.0
1734407825.4708107,66.89453125,63.4765625,36.1328125,83.984375,0.0
1734407825.4747167,122.55859375,66.40625,-3.90625,171.38671875,0.0
1734407825.4786227,143.06640625,59.5703125,198.73046875,132.32421875,0.0
1734407825.4825287,98.6328125,49.8046875,148.4375,25.390625,0.0
1734407825.4864347,52.734375,41.9921875,-63.96484375,7.32421875,0.0
1734407825.4903407,56.640625,43.9453125,72.75390625,89.35546875,0.0
1734407825.4942467,116.69921875,47.8515625,250.9765625,173.828125,0.0
1734407825.4985585,0.0,54.19921875,0.0,0.0,0.0
1734407825.5024645,0.0,63.96484375,0.0,0.0,0.0
1734407825.5063705,0.0,66.40625,0.0,0.0,0.0
1734407825.5102766,0.0,58.59375,0.0,0.0,0.0
1734407825.5141826,0.0,49.31640625,0.0,0.0,0.0
1734407825.5180886,0.0,46.875,0.0,0.0,0.0
1734407825.5219946,0.0,55.17578125,0.0,0.0,0.0
1734407825.5259006,0.0,60.546875,0.0,0.0,0.0
1734407825.5298066,0.0,67.87109375,0.0,0.0,0.0
1734407825.5337126,0.0,69.82421875,0.0,0.0,0.0
1734407825.5376186,0.0,66.40625,0.0,0.0,0.0
1734407825.5415246,0.0,66.89453125,0.0,0.0,0.0
1734407825.5462158,69.82421875,71.77734375,23.92578125,23.92578125,0.0
1734407825.5501218,51.26953125,73.73046875,53.7109375,67.3828125,0.0
1734407825.5540278,93.75,76.66015625,195.80078125,157.2265625,0.0
1734407825.557934,136.23046875,70.80078125,228.02734375,155.76171875,0.0
1734407825.56184,104.00390625,56.640625,44.43359375,51.26953125,0.0
1734407825.565746,28.80859375,56.15234375,-198.2421875,-10.25390625,0.0
1734407825.569652,7.32421875,68.359375,-69.82421875,16.6015625,0.0
1734407825.573558,56.640625,76.171875,205.078125,99.609375,0.0
1734407825.577464,110.3515625,76.66015625,74.21875,152.83203125,0.0
1734407825.58137,92.7734375,78.61328125,-90.33203125,72.265625,0.0
1734407825.5852761,28.3203125,74.21875,91.30859375,-37.109375,0.0
1734407825.5891821,13.671875,73.2421875,132.8125,-10.7421875,0.0
1734407825.5933332,45.41015625,70.80078125,96.19140625,85.44921875,0.0
1734407825.5972393,75.1953125,72.265625,181.15234375,113.76953125,0.0
1734407825.6011455,68.84765625,72.265625,220.21484375,42.48046875,0.0
1734407825.6050515,5.859375,58.59375,73.2421875,-45.8984375,0.0
1734407825.6089575,-28.80859375,56.15234375,-4.8828125,-28.80859375,0.0
1734407825.6128635,15.625,59.5703125,97.65625,59.08203125,0.0
1734407825.6167696,66.40625,56.640625,180.6640625,102.05078125,0.0
1734407825.6206756,63.96484375,49.8046875,132.8125,53.22265625,0.0
1734407825.6245816,-6.34765625,50.29296875,-85.9375,-42.96875,0.0
1734407825.6284876,-20.5078125,53.7109375,37.109375,-45.8984375,0.0
1734407825.6323936,31.73828125,61.03515625,176.7578125,62.98828125,0.0
1734407825.6362996,67.3828125,60.05859375,111.81640625,127.9296875,0.0
1734407825.640392,66.89453125,57.12890625,-205.078125,87.40234375,0.0
1734407825.644298,18.5546875,66.89453125,22.94921875,-20.5078125,0.0
1734407825.648204,1.953125,73.73046875,202.63671875,-24.90234375,0.0
1734407825.65211,42.96875,77.63671875,132.32421875,74.21875,0.0
1734407825.656016,93.75,76.171875,233.3984375,138.671875,0.0
1734407825.6599221,101.07421875,68.359375,156.25,108.3984375,0.0
1734407825.6638281,45.8984375,62.5,28.80859375,9.765625,0.0
1734407825.6677341,13.18359375,60.546875,-41.50390625,-12.20703125,0.0
1734407825.6716402,46.875,74.21875,-46.38671875,70.3125,0.0
1734407825.6755462,98.6328125,89.35546875,223.14453125,152.34375,0.0
1734407825.6794522,106.93359375,80.078125,250.9765625,116.2109375,0.0
1734407825.6833582,52.734375,66.89453125,34.66796875,9.27734375,0.0
1734407825.687389,0.0,73.73046875,0.0,-8.7890625,0.0
1734407825.6912951,0.0,79.58984375,0.0,67.87109375,0.0
1734407825.6952012,0.0,71.77734375,0.0,156.25,0.0
1734407825.6991072,0.0,66.89453125,0.0,130.37109375,0.0
1734407825.7030132,0.0,81.54296875,0.0,24.90234375,0.0
1734407825.7069192,0.0,89.84375,0.0,-25.87890625,0.0
1734407825.7108252,0.0,81.0546875,0.0,40.52734375,0.0
1734407825.7147312,0.0,76.171875,0.0,145.99609375,0.0
1734407825.7186372,0.0,83.0078125,0.0,125.0,0.0
1734407825.7225432,0.0,74.21875,0.0,23.92578125,0.0
1734407825.7264493,0.0,72.265625,0.0,-34.66796875,0.0
1734407825.7303553,0.0,83.49609375,0.0,14.6484375,0.0
1734407825.7330835,23.92578125,84.9609375,226.5625,118.1640625,0.0
1734407825.7369895,46.875,85.9375,218.75,121.58203125,0.0
1734407825.7408955,102.5390625,77.63671875,97.65625,35.64453125,0.0
1734407825.7448015,119.140625,77.1484375,72.265625,-15.13671875,0.0
1734407825.7487075,84.47265625,86.9140625,142.578125,12.20703125,0.0
1734407825.7526135,48.828125,86.42578125,161.62109375,92.28515625,0.0
1734407825.7565196,41.9921875,83.49609375,34.1796875,143.5546875,0.0
1734407825.7604256,94.23828125,84.47265625,-114.74609375,74.21875,0.0
1734407825.7643316,117.1875,90.8203125,93.26171875,-25.87890625,0.0
1734407825.7682376,79.58984375,86.42578125,165.52734375,14.16015625,0.0
1734407825.7721436,35.15625,75.1953125,105.46875,110.83984375,0.0
1734407825.7760499,33.69140625,72.265625,185.546875,135.25390625,0.0
1734407825.779999,114.74609375,80.078125,206.0546875,76.171875,0.0
1734407825.783905,58.10546875,72.75390625,10.7421875,-11.23046875,0.0
1734407825.787811,32.2265625,68.84765625,-18.06640625,7.8125,0.0
1734407825.791717,60.546875,83.0078125,162.109375,105.95703125,0.0
1734407825.795623,103.515625,89.84375,233.88671875,133.30078125,0.0
1734407825.799529,100.5859375,82.03125,104.4921875,73.2421875,0.0
1734407825.803435,53.7109375,83.984375,-338.37890625,10.25390625,0.0
1734407825.807341,32.71484375,96.6796875,-122.0703125,10.7421875,0.0
1734407825.811247,68.84765625,90.33203125,255.859375,94.7265625,0.0
1734407825.8151531,123.046875,85.9375,172.8515625,161.1328125,0.0
1734407825.8190591,122.55859375,86.9140625,127.44140625,104.98046875,0.0
1734407825.8229651,69.82421875,91.30859375,114.74609375,6.34765625,0.0
1734407825.826839,0.0,85.9375,120.60546875,-11.71875,0.0
1734407825.830745,0.0,77.1484375,148.4375,75.1953125,0.0
1734407825.834651,0.0,79.1015625,209.47265625,148.92578125,0.0
1734407825.838557,0.0,77.63671875,193.84765625,115.72265625,0.0
1734407825.842463,0.0,76.171875,70.3125,25.87890625,0.0
1734407825.846369,0.0,70.80078125,-93.26171875,-0.48828125,0.0
1734407825.8502753,0.0,81.0546875,-82.51953125,81.0546875,0.0
1734407825.8541813,0.0,87.40234375,217.7734375,159.1796875,0.0
1734407825.8580873,0.0,75.68359375,240.234375,125.48828125,0.0
1734407825.8619933,0.0,67.87109375,20.01953125,35.64453125,0.0
1734407825.8658993,0.0,72.265625,36.1328125,-2.44140625,0.0
1734407825.8698053,0.0,69.3359375,205.078125,58.10546875,0.0
1734407825.8740375,110.83984375,61.5234375,198.73046875,166.50390625,0.0
1734407825.8779435,137.20703125,62.01171875,111.81640625,166.015625,0.0
1734407825.8818495,94.23828125,63.4765625,116.69921875,51.26953125,0.0
1734407825.8857555,50.78125,56.15234375,137.20703125,-3.41796875,0.0
1734407825.8896616,56.640625,60.05859375,108.88671875,62.98828125,0.0
1734407825.8935676,107.91015625,70.80078125,0.48828125,173.33984375,0.0
1734407825.8974736,134.765625,70.80078125,90.33203125,159.66796875,0.0
1734407825.9013796,104.00390625,62.98828125,121.58203125,51.7578125,0.0
1734407825.9052858,55.17578125,62.5,3.90625,-5.37109375,0.0
1734407825.9091918,53.22265625,64.94140625,-262.20703125,51.7578125,0.0
1734407825.9130979,110.3515625,75.68359375,24.90234375,150.390625,0.0
1734407825.9170039,148.92578125,77.63671875,266.11328125,169.921875,0.0
1734407825.921186,130.859375,79.1015625,132.32421875,83.49609375,0.0
1734407825.925092,71.2890625,83.984375,114.2578125,-5.859375,0.0
1734407825.928998,56.15234375,76.171875,193.84765625,28.3203125,0.0
1734407825.932904,106.4453125,75.1953125,244.140625,141.6015625,0.0
1734407825.93681,149.90234375,75.1953125,149.4140625,166.9921875,0.0
1734407825.940716,136.71875,76.171875,66.89453125,90.33203125,0.0
1734407825.944622,73.2421875,77.1484375,36.62109375,17.08984375,0.0
1734407825.948528,54.19921875,79.58984375,168.9453125,42.96875,0.0
1734407825.952434,112.79296875,83.0078125,101.5625,154.296875,0.0
1734407825.95634,148.92578125,76.171875,-7.8125,195.3125,0.0
1734407825.960246,133.30078125,62.5,151.85546875,108.88671875,0.0
1734407825.9641523,88.37890625,64.453125,109.86328125,24.90234375,0.0
1734407825.9682586,0.0,71.2890625,55.17578125,43.45703125,0.0
1734407825.9721646,0.0,79.1015625,187.01171875,135.7421875,0.0
1734407825.9760706,0.0,80.56640625,271.97265625,196.2890625,0.0
1734407825.979977,0.0,74.21875,191.40625,143.06640625,0.0
1734407825.983883,0.0,67.3828125,1.46484375,57.12890625,0.0
1734407825.987789,0.0,71.2890625,30.2734375,56.640625,0.0
1734407825.991695,0.0,88.8671875,190.91796875,141.6015625,0.0
1734407825.995601,0.0,86.9140625,205.56640625,225.5859375,0.0
1734407825.999507,0.0,83.49609375,-126.953125,180.6640625,0.0
1734407826.003413,0.0,80.56640625,1.46484375,60.05859375,0.0
1734407826.007319,0.0,69.82421875,126.953125,56.640625,0.0
1734407826.011225,0.0,66.40625,123.53515625,137.6953125,0.0
1734407826.0152376,145.01953125,74.21875,239.74609375,177.24609375,0.0
1734407826.0191436,162.59765625,85.9375,212.40234375,141.6015625,0.0
1734407826.0230496,115.72265625,79.58984375,118.65234375,56.640625,0.0
1734407826.0269556,73.73046875,73.73046875,77.1484375,28.3203125,0.0
1734407826.0308616,97.65625,79.1015625,180.6640625,111.328125,0.0
1734407826.0347676,154.78515625,83.49609375,165.0390625,211.9140625,0.0
1734407826.0386736,164.0625,83.0078125,166.50390625,177.734375,0.0
1734407826.0425797,117.67578125,76.171875,-11.71875,63.96484375,0.0
1734407826.046486,71.2890625,85.9375,-141.11328125,29.296875,0.0
1734407826.050392,83.49609375,86.9140625,188.4765625,88.8671875,0.0
1734407826.054298,136.23046875,76.66015625,238.28125,179.6875,0.0
1734407826.058204,162.109375,79.1015625,148.4375,179.19921875,0.0
1734407826.0621948,121.09375,82.03125,150.390625,94.23828125,0.0
1734407826.0661008,65.91796875,81.54296875,155.76171875,49.8046875,0.0
1734407826.0700068,83.984375,84.9609375,156.25,107.91015625,0.0
1734407826.0739129,142.578125,81.0546875,136.23046875,195.3125,0.0
1734407826.0778189,162.59765625,77.63671875,167.96875,186.03515625,0.0
1734407826.081725,123.53515625,73.73046875,84.47265625,89.84375,0.0
1734407826.085631,66.40625,66.89453125,-26.3671875,28.3203125,0.0
1734407826.089537,74.70703125,76.66015625,-30.76171875,80.56640625,0.0
1734407826.093443,131.34765625,77.1484375,176.7578125,166.015625,0.0
1734407826.097349,149.90234375,57.12890625,256.8359375,162.109375,0.0
1734407826.101255,126.953125,57.12890625,53.22265625,88.37890625,0.0
1734407826.105161,89.84375,67.3828125,-279.296875,29.78515625,0.0
1734407826.1090827,74.70703125,70.80078125,32.2265625,64.453125,0.0
1734407826.1129887,124.0234375,66.89453125,269.04296875,154.296875,0.0
1734407826.1168947,170.41015625,65.91796875,156.73828125,174.8046875,0.0
1734407826.1208007,135.25390625,63.4765625,171.38671875,91.796875,0.0
1734407826.124707,78.61328125,64.94140625,115.72265625,17.578125,0.0
1734407826.128613,75.1953125,72.75390625,107.421875,49.8046875,0.0
1734407826.132519,121.09375,72.265625,33.69140625,162.109375,0.0
1734407826.136425,157.71484375,71.2890625,-98.6328125,206.54296875,0.0
1734407826.140331,145.99609375,71.77734375,122.55859375,109.86328125,0.0
1734407826.144237,100.5859375,59.5703125,137.20703125,14.16015625,0.0
1734407826.148143,95.703125,51.26953125,36.1328125,43.9453125,0.0
1734407826.152049,125.48828125,51.7578125,153.80859375,138.671875,0.0
1734407826.1559274,154.78515625,53.7109375,259.765625,175.29296875,0.0
1734407826.1598334,152.34375,50.78125,196.2890625,110.83984375,0.0
1734407826.1637394,95.703125,53.7109375,-19.53125,15.625,0.0
1734407826.1676455,55.6640625,65.4296875,70.80078125,24.90234375,0.0
1734407826.1715515,85.9375,70.80078125,212.40234375,128.90625,0.0
1734407826.1754575,138.18359375,69.82421875,108.88671875,195.80078125,0.0
1734407826.1793635,146.97265625,63.96484375,-205.078125,154.296875,0.0
1734407826.1832697,86.9140625,79.58984375,-62.98828125,53.7109375,0.0
1734407826.1871758,61.5234375,74.21875,182.12890625,27.83203125,0.0
1734407826.1910818,113.28125,63.96484375,146.97265625,115.72265625,0.0
1734407826.1949878,155.76171875,64.94140625,120.60546875,194.82421875,0.0
1734407826.1988938,151.85546875,60.05859375,148.4375,149.4140625,0.0
1734407826.2027268,0.0,49.8046875,110.83984375,42.48046875,0.0
1734407826.2066329,0.0,44.921875,57.12890625,9.27734375,0.0
1734407826.2105389,0.0,58.59375,146.97265625,101.07421875,0.0
1734407826.2144449,0.0,65.91796875,219.7265625,185.05859375,0.0
1734407826.218351,0.0,68.84765625,229.4921875,142.08984375,0.0
1734407826.222257,0.0,71.2890625,-56.640625,43.9453125,0.0
1734407826.226163,0.0,69.82421875,-246.09375,7.8125,0.0
1734407826.230069,0.0,73.2421875,115.234375,74.21875,0.0
1734407826.233975,0.0,75.1953125,244.140625,166.9921875,0.0
1734407826.237881,0.0,69.3359375,134.765625,146.97265625,0.0
1734407826.241787,0.0,64.453125,95.703125,39.55078125,0.0
1734407826.2456932,0.0,66.40625,115.234375,-3.90625,0.0
1734407826.2486289,88.37890625,80.56640625,146.484375,69.3359375,0.0
1734407826.2525349,43.45703125,86.42578125,83.0078125,182.12890625,0.0
1734407826.256441,69.82421875,86.42578125,99.12109375,175.78125,0.0
1734407826.2603471,122.55859375,87.890625,158.203125,64.94140625,0.0
1734407826.2642531,140.625,87.890625,72.75390625,5.859375,0.0
1734407826.2681592,96.6796875,86.42578125,-123.53515625,65.4296875,0.0
1734407826.2720652,45.41015625,90.8203125,35.15625,163.0859375,0.0
1734407826.2759712,54.6875,96.19140625,248.046875,168.45703125,0.0
1734407826.2798772,127.9296875,84.9609375,105.95703125,72.75390625,0.0
1734407826.2837832,155.2734375,81.0546875,-364.74609375,16.6015625,0.0
1734407826.2876892,106.4453125,89.84375,-142.08984375,43.45703125,0.0
1734407826.2915952,62.98828125,87.890625,251.46484375,131.34765625,0.0
1734407826.2957902,168.45703125,78.61328125,190.91796875,174.31640625,0.0
1734407826.2996962,137.6953125,79.1015625,138.671875,96.19140625,0.0
1734407826.3036022,71.77734375,79.58984375,107.421875,9.765625,0.0
1734407826.3075082,55.6640625,76.66015625,133.30078125,31.73828125,0.0
1734407826.3114142,112.79296875,74.70703125,110.3515625,141.6015625,0.0
1734407826.3153203,164.55078125,77.1484375,117.67578125,189.94140625,0.0
1734407826.3192263,139.16015625,79.1015625,66.40625,119.62890625,0.0
1734407826.3231323,73.73046875,83.0078125,34.66796875,17.08984375,0.0
1734407826.3270383,64.453125,86.9140625,-25.390625,28.80859375,0.0
1734407826.3309443,104.98046875,90.33203125,-70.80078125,141.6015625,0.0
1734407826.3348503,152.83203125,96.19140625,200.1953125,193.84765625,0.0
1734407826.3387563,156.25,96.19140625,198.73046875,132.8125,0.0
1734407826.3429086,100.5859375,94.7265625,-57.6171875,35.15625,0.0
1734407826.3468146,70.80078125,95.21484375,36.1328125,19.04296875,0.0
1734407826.3507206,112.79296875,91.796875,214.35546875,117.1875,0.0
1734407826.3546267,169.43359375,91.30859375,168.45703125,200.68359375,0.0
1734407826.3585327,159.1796875,83.0078125,85.44921875,141.11328125,0.0
1734407826.3624387,85.9375,74.21875,-49.31640625,19.53125,0.0
1734407826.3663447,52.734375,77.63671875,-28.3203125,3.41796875,0.0
1734407826.3702507,99.609375,77.1484375,111.81640625,112.3046875,0.0
1734407826.3741567,166.9921875,77.63671875,-169.43359375,208.49609375,0.0
1734407826.3780627,167.48046875,92.28515625,30.2734375,163.0859375,0.0
1734407826.3819687,102.05078125,86.42578125,82.03125,51.7578125,0.0
1734407826.3858747,67.87109375,88.8671875,9.27734375,20.5078125,0.0
1734407826.3899758,92.28515625,83.984375,186.03515625,92.7734375,0.0
1734407826.3938818,149.90234375,71.2890625,243.1640625,176.7578125,0.0
1734407826.3977878,160.15625,74.70703125,214.35546875,154.296875,0.0
1734407826.4016938,106.93359375,78.125,67.87109375,45.41015625,0.0
1734407826.4055998,66.40625,78.125,65.91796875,5.37109375,0.0
1734407826.4095058,92.7734375,83.49609375,88.8671875,101.5625,0.0
1734407826.413412,161.1328125,97.16796875,166.50390625,207.03125,0.0
1734407826.417318,183.10546875,99.12109375,98.14453125,193.84765625,0.0
1734407826.421224,124.0234375,96.19140625,-125.48828125,78.61328125,0.0
1734407826.4251301,62.01171875,91.796875,81.54296875,15.13671875,0.0
1734407826.4290361,61.5234375,82.03125,177.734375,80.56640625,0.0
1734407826.4329422,125.0,83.0078125,138.18359375,178.22265625,0.0
1734407826.4370306,159.66796875,86.9140625,0.0,175.78125,0.0
1734407826.4409368,108.88671875,87.40234375,0.0,47.8515625,0.0
1734407826.4448428,62.01171875,90.8203125,0.0,-6.8359375,0.0
1734407826.4487488,73.73046875,93.26171875,0.0,73.2421875,0.0
1734407826.4526548,128.90625,88.37890625,0.0,174.31640625,0.0
1734407826.4565609,156.25,80.078125,0.0,182.12890625,0.0
1734407826.4604669,117.67578125,80.56640625,0.0,71.77734375,0.0
1734407826.4643729,55.17578125,84.9609375,0.0,3.41796875,0.0
1734407826.468279,36.62109375,91.30859375,0.0,47.8515625,0.0
1734407826.472185,103.02734375,86.42578125,0.0,154.296875,0.0
1734407826.476091,151.85546875,85.9375,0.0,190.91796875,0.0
1734407826.479997,104.98046875,84.47265625,0.0,93.75,0.0
1734407826.4840145,38.57421875,81.0546875,109.86328125,1.46484375,0.0
1734407826.4879205,33.203125,79.1015625,133.7890625,41.50390625,0.0
1734407826.4918265,105.95703125,80.078125,153.80859375,154.78515625,0.0
1734407826.4957325,149.4140625,86.42578125,206.54296875,188.96484375,0.0
1734407826.4996386,117.1875,75.68359375,177.24609375,110.83984375,0.0
1734407826.5035446,70.3125,79.1015625,34.66796875,25.390625,0.0
1734407826.5074506,59.5703125,88.37890625,-88.8671875,41.50390625,0.0
1734407826.5113568,96.6796875,92.28515625,-109.86328125,145.01953125,0.0
1734407826.5152628,142.08984375,94.23828125,194.3359375,188.96484375,0.0
1734407826.5191689,126.46484375,84.47265625,225.5859375,118.1640625,0.0
1734407826.5230749,66.40625,68.84765625,-16.6015625,17.578125,0.0
1734407826.5269809,46.875,68.359375,51.7578125,22.94921875,0.0
1734407826.5309215,91.30859375,75.1953125,234.86328125,133.7890625,0.0
1734407826.5348275,157.71484375,78.61328125,201.66015625,207.51953125,0.0
1734407826.5387335,164.0625,83.984375,72.75390625,145.01953125,0.0
1734407826.5426395,85.44921875,76.66015625,62.01171875,9.27734375,0.0
1734407826.5465455,55.17578125,72.75390625,113.28125,-8.7890625,0.0
1734407826.5504515,104.98046875,78.61328125,81.54296875,112.79296875,0.0
1734407826.5543575,148.92578125,79.1015625,-203.61328125,209.47265625,0.0
1734407826.5582635,146.484375,94.7265625,-18.5546875,165.52734375,0.0
1734407826.5621696,89.84375,94.7265625,181.640625,37.59765625,0.0
1734407826.5660758,52.734375,83.49609375,30.76171875,1.46484375,0.0
1734407826.5699818,85.44921875,83.49609375,-0.48828125,108.88671875,0.0
1734407826.5738878,148.4375,87.890625,198.73046875,207.03125,0.0
1734407826.5777342,159.1796875,84.47265625,241.69921875,162.59765625,0.0
1734407826.5816402,100.09765625,78.125,34.66796875,38.0859375,0.0
1734407826.5855463,58.10546875,76.66015625,-4.8828125,-6.8359375,0.0
1734407826.5894523,79.58984375,78.61328125,150.87890625,78.61328125,0.0
1734407826.5933583,157.2265625,85.9375,232.91015625,187.01171875,0.0
1734407826.5972643,190.4296875,88.37890625,50.78125,185.546875,0.0
1734407826.6011705,118.1640625,95.703125,-142.08984375,63.4765625,0.0
1734407826.6050766,58.59375,111.81640625,79.1015625,-3.90625,0.0
1734407826.6089826,83.984375,107.421875,161.62109375,78.125,0.0
1734407826.6128886,140.625,101.07421875,116.69921875,186.5234375,0.0
1734407826.6167946,161.1328125,109.375,183.10546875,172.36328125,0.0
1734407826.6207006,120.60546875,119.140625,152.34375,53.7109375,0.0
1734407826.6249318,65.91796875,121.09375,53.7109375,0.0,0.0
1734407826.6288378,56.640625,112.79296875,0.0,0.0,0.0
1734407826.6327438,112.3046875,111.328125,141.6015625,0.0,0.0
1734407826.6366498,144.53125,104.4921875,232.421875,0.0,0.0
1734407826.6405559,100.5859375,96.19140625,120.60546875,0.0,0.0
1734407826.6444619,36.1328125,97.16796875,-258.30078125,0.0,0.0
1734407826.648368,26.3671875,100.5859375,-204.58984375,0.0,0.0
1734407826.652274,86.42578125,95.21484375,184.08203125,0.0,0.0
1734407826.65618,118.1640625,85.44921875,200.68359375,0.0,0.0
1734407826.660086,82.03125,81.54296875,-245.60546875,0.0,0.0
1734407826.6639922,21.97265625,75.1953125,-245.60546875,0.0,0.0
1734407826.6678982,20.5078125,78.61328125,122.0703125,0.0,0.0
1734407826.670812,74.21875,87.890625,164.0625,-20.5078125,0.0
1734407826.674718,121.09375,86.9140625,216.30859375,38.57421875,0.0
1734407826.678624,114.2578125,93.26171875,221.6796875,139.16015625,0.0
1734407826.68253,47.36328125,93.26171875,118.65234375,146.484375,0.0
1734407826.686436,31.73828125,92.7734375,58.59375,58.59375,0.0
1734407826.690342,95.21484375,99.12109375,100.5859375,-10.7421875,0.0
1734407826.694248,146.97265625,103.515625,164.55078125,22.94921875,0.0
1734407826.698154,125.9765625,100.5859375,233.88671875,120.1171875,0.0
1734407826.70206,64.453125,97.65625,-38.57421875,156.73828125,0.0
1734407826.705966,52.734375,116.2109375,-145.5078125,84.47265625,0.0
1734407826.709872,98.14453125,115.234375,213.37890625,-17.578125,0.0
1734407826.713778,146.97265625,92.7734375,240.234375,2.9296875,0.0
1734407826.7179291,143.06640625,92.7734375,121.09375,105.95703125,0.0
1734407826.7218351,82.03125,94.7265625,91.796875,-16.11328125,0.0
1734407826.7257411,46.38671875,101.5625,139.6484375,-10.25390625,0.0
1734407826.7296472,93.26171875,112.79296875,121.09375,107.91015625,0.0
1734407826.7335532,152.83203125,104.98046875,93.75,187.98828125,0.0
1734407826.7374592,158.69140625,82.51953125,109.375,140.13671875,0.0
1734407826.7413652,104.4921875,83.984375,82.51953125,21.97265625,0.0
1734407826.7452712,62.01171875,86.42578125,74.70703125,10.25390625,0.0
1734407826.7491772,85.44921875,80.078125,-176.7578125,111.81640625,0.0
1734407826.7530832,129.8828125,89.84375,52.734375,178.22265625,0.0
1734407826.7569895,148.4375,90.8203125,212.890625,140.625,0.0
1734407826.7608955,90.8203125,75.1953125,44.921875,20.5078125,0.0
1734407826.7649713,24.4140625,63.4765625,40.52734375,-31.73828125,0.0
1734407826.7688773,49.8046875,62.5,180.6640625,56.15234375,0.0
1734407826.7727833,116.2109375,71.77734375,240.234375,167.48046875,0.0
1734407826.7766893,132.8125,72.265625,168.9453125,145.5078125,0.0
1734407826.7805953,80.078125,70.3125,101.5625,26.85546875,0.0
1734407826.7845013,38.0859375,75.68359375,-67.87109375,-11.23046875,0.0
1734407826.7884073,54.6875,76.171875,42.48046875,52.734375,0.0
1734407826.7923133,126.953125,75.68359375,67.3828125,166.9921875,0.0
1734407826.7962193,156.73828125,81.54296875,-54.6875,183.10546875,0.0
1734407826.8001256,104.00390625,82.03125,144.53125,56.15234375,0.0
1734407826.8040316,63.96484375,81.54296875,106.4453125,-4.8828125,0.0
1734407826.8079376,81.0546875,93.26171875,53.7109375,77.1484375,0.0
1734407826.8119822,151.3671875,95.703125,187.98828125,194.82421875,0.0
1734407826.8158882,181.15234375,85.9375,253.41796875,194.3359375,0.0
1734407826.8197942,131.8359375,81.54296875,127.44140625,90.33203125,0.0
1734407826.8237002,79.1015625,80.56640625,-73.2421875,21.97265625,0.0
1734407826.8276062,70.80078125,75.68359375,57.6171875,59.5703125,0.0
1734407826.8315122,134.765625,78.61328125,175.29296875,165.0390625,0.0
1734407826.8354182,179.19921875,88.8671875,125.0,196.77734375,0.0
1734407826.8393242,141.11328125,85.44921875,-227.05078125,108.3984375,0.0
1734407826.8432302,75.68359375,91.796875,-140.625,5.859375,0.0
1734407826.8471363,68.359375,100.09765625,112.79296875,25.390625,0.0
1734407826.8510425,131.34765625,99.12109375,99.609375,145.01953125,0.0
1734407826.8549485,168.9453125,101.5625,165.52734375,192.87109375,0.0
1734407826.8589644,137.6953125,90.33203125,177.24609375,91.796875,0.0
1734407826.8628705,60.546875,71.77734375,95.21484375,-9.765625,0.0
1734407826.8667765,35.64453125,63.96484375,67.3828125,28.80859375,0.0
1734407826.8706825,85.44921875,69.82421875,186.03515625,144.04296875,0.0
1734407826.8745885,128.90625,62.98828125,219.7265625,196.2890625,0.0
1734407826.8784945,113.76953125,50.78125,151.85546875,112.3046875,0.0
1734407826.8824005,55.6640625,55.6640625,-118.1640625,4.39453125,0.0
1734407826.8863065,41.015625,73.2421875,-246.58203125,28.3203125,0.0
1734407826.8902125,97.16796875,82.03125,148.4375,129.39453125,0.0
1734407826.8941185,150.390625,63.96484375,237.3046875,179.19921875,0.0
1734407826.8980246,146.97265625,58.59375,120.1171875,125.48828125,0.0
1734407826.9019306,90.33203125,66.40625,79.58984375,19.53125,0.0
1734407826.9058855,51.7578125,62.01171875,80.56640625,5.37109375,0.0
1734407826.9097915,90.33203125,59.5703125,114.74609375,117.1875,0.0
1734407826.9136975,152.83203125,62.98828125,86.42578125,196.2890625,0.0
1734407826.9176035,156.73828125,63.96484375,177.734375,145.5078125,0.0
1734407826.9215095,93.75,65.4296875,140.13671875,24.90234375,0.0
1734407826.9254155,56.15234375,56.640625,-47.8515625,0.9765625,0.0
1734407826.9293218,87.40234375,53.7109375,-235.83984375,108.3984375,0.0
1734407826.9332278,141.6015625,74.70703125,59.5703125,198.73046875,0.0
1734407826.9371338,149.90234375,72.265625,293.45703125,153.80859375,0.0
1734407826.9410398,97.16796875,63.4765625,56.640625,31.73828125,0.0
1734407826.9449458,54.19921875,64.94140625,-131.34765625,-4.39453125,0.0
1734407826.9488518,68.359375,60.05859375,122.55859375,73.2421875,0.0
1734407826.952683,0.0,65.4296875,251.953125,179.19921875,0.0
1734407826.956589,0.0,64.453125,177.24609375,166.015625,0.0
1734407826.960495,0.0,63.96484375,132.32421875,49.8046875,0.0
1734407826.964401,0.0,75.68359375,69.82421875,9.765625,0.0
1734407826.968307,0.0,77.63671875,125.9765625,74.70703125,0.0
1734407826.972213,0.0,78.125,67.87109375,177.734375,0.0
1734407826.976119,0.0,85.9375,-28.80859375,182.12890625,0.0
1734407826.980025,0.0,79.58984375,134.27734375,50.29296875,0.0
1734407826.983931,0.0,79.58984375,123.046875,-13.671875,0.0
1734407826.9878373,0.0,85.44921875,46.875,62.01171875,0.0
1734407826.9917433,0.0,88.37890625,143.5546875,173.33984375,0.0
1734407826.9956493,0.0,86.42578125,248.046875,183.59375,0.0
1734407826.999876,125.0,71.2890625,0.0,83.984375,0.0
1734407827.003782,65.91796875,66.89453125,0.0,1.953125,0.0
1734407827.007688,60.546875,79.1015625,0.0,32.71484375,0.0
1734407827.011594,128.90625,78.61328125,0.0,157.71484375,0.0
1734407827.0155,172.36328125,75.1953125,0.0,195.3125,0.0
1734407827.0194063,140.13671875,82.51953125,0.0,98.6328125,0.0
1734407827.0233123,75.1953125,82.03125,0.0,4.39453125,0.0
1734407827.0272183,61.03515625,77.63671875,0.0,40.0390625,0.0
1734407827.0311244,111.81640625,72.265625,0.0,148.92578125,0.0
1734407827.0350304,157.71484375,68.359375,0.0,195.80078125,0.0
1734407827.0389364,144.04296875,70.80078125,0.0,107.91015625,0.0
1734407827.0428424,77.1484375,68.359375,0.0,-7.32421875,0.0
1734407827.0457406,0.0,76.171875,126.46484375,36.62109375,0.0
1734407827.0496466,0.0,90.8203125,-94.7265625,164.55078125,0.0
1734407827.0535526,0.0,101.07421875,41.9921875,196.77734375,0.0
1734407827.0574586,0.0,93.75,229.4921875,113.76953125,0.0
1734407827.0613647,0.0,79.58984375,192.87109375,5.37109375,0.0
1734407827.0652707,0.0,72.75390625,-112.3046875,6.8359375,0.0
1734407827.0691767,0.0,77.1484375,-292.96875,118.1640625,0.0
1734407827.0730827,0.0,67.87109375,-41.50390625,186.5234375,0.0
1734407827.0769887,0.0,53.22265625,146.97265625,117.67578125,0.0
1734407827.0808947,0.0,65.91796875,14.16015625,10.7421875,0.0
1734407827.0848007,0.0,63.4765625,28.80859375,-2.9296875,0.0
1734407827.0887067,0.0,64.453125,112.79296875,101.07421875,0.0
1734407827.0928507,136.23046875,68.84765625,151.85546875,181.640625,0.0
1734407827.0967567,120.60546875,67.87109375,162.109375,116.2109375,0.0
1734407827.1006627,61.5234375,62.01171875,110.83984375,-0.48828125,0.0
1734407827.1045687,25.390625,57.6171875,46.38671875,-28.3203125,0.0
1734407827.1084747,56.640625,68.359375,33.69140625,67.87109375,0.0
1734407827.1123807,114.2578125,74.21875,71.2890625,158.203125,0.0
1734407827.1162868,131.8359375,82.51953125,146.484375,128.90625,0.0
1734407827.1201928,72.265625,71.2890625,36.62109375,21.97265625,0.0
1734407827.1240988,22.94921875,62.01171875,-354.4921875,-2.9296875,0.0
1734407827.1280048,51.7578125,78.61328125,-13.671875,70.80078125,0.0
1734407827.1319108,119.140625,78.125,201.171875,159.1796875,0.0
1734407827.1358168,135.25390625,60.05859375,115.234375,139.16015625,0.0
1734407827.1398933,84.47265625,65.4296875,0.0,19.53125,0.0
1734407827.1437995,45.41015625,75.68359375,0.0,-28.80859375,0.0
1734407827.1477056,56.640625,73.73046875,0.0,53.22265625,0.0
1734407827.1516116,117.1875,74.21875,0.0,151.85546875,0.0
1734407827.1555176,143.06640625,79.1015625,0.0,153.80859375,0.0
1734407827.1594236,90.33203125,81.54296875,0.0,49.31640625,0.0
1734407827.1633296,40.0390625,84.9609375,0.0,-20.99609375,0.0
1734407827.1672356,45.8984375,72.75390625,0.0,50.29296875,0.0
1734407827.1711416,101.07421875,70.3125,0.0,167.48046875,0.0
1734407827.1750476,133.7890625,84.9609375,0.0,169.43359375,0.0
1734407827.1789536,110.83984375,85.9375,0.0,72.75390625,0.0
1734407827.1828597,52.734375,80.078125,0.0,-1.46484375,0.0
1734407827.1869211,32.71484375,72.265625,58.59375,28.3203125,0.0
1734407827.1908271,97.16796875,71.77734375,248.53515625,132.8125,0.0
1734407827.1947331,139.6484375,72.265625,205.56640625,166.015625,0.0
1734407827.1986392,104.4921875,70.3125,19.53125,71.77734375,0.0
1734407827.2025452,48.33984375,71.77734375,-74.21875,-16.11328125,0.0
1734407827.2064512,40.52734375,63.4765625,27.83203125,28.80859375,0.0
1734407827.2103574,100.5859375,53.7109375,93.26171875,149.4140625,0.0
1734407827.2142634,154.296875,54.6875,-158.69140625,204.1015625,0.0
1734407827.2181695,124.51171875,58.59375,45.41015625,98.14453125,0.0
1734407827.2220755,52.734375,52.734375,136.71875,-17.578125,0.0
1734407827.2259815,43.9453125,58.59375,19.04296875,13.18359375,0.0
1734407827.2298875,89.35546875,57.6171875,179.6875,121.09375,0.0
1734407827.2338614,146.97265625,52.734375,0.0,170.8984375,0.0
1734407827.2377675,144.04296875,58.10546875,0.0,99.12109375,0.0
1734407827.2416737,68.84765625,55.6640625,0.0,2.9296875,0.0
1734407827.2455797,36.1328125,55.17578125,0.0,14.16015625,0.0
1734407827.2494857,94.7265625,48.33984375,0.0,108.88671875,0.0
1734407827.2533917,161.1328125,55.17578125,0.0,180.17578125,0.0
1734407827.2572978,148.92578125,66.40625,0.0,133.30078125,0.0
1734407827.2612038,86.42578125,66.40625,0.0,35.64453125,0.0
1734407827.2651098,50.78125,61.5234375,0.0,23.92578125,0.0
1734407827.2690158,82.51953125,56.640625,0.0,117.1875,0.0
1734407827.2729218,146.484375,57.12890625,0.0,193.359375,0.0
1734407827.2768278,145.99609375,54.6875,0.0,139.16015625,0.0
1734407827.2807555,78.61328125,59.5703125,147.4609375,13.671875,0.0
1734407827.2846615,38.57421875,64.94140625,109.86328125,3.90625,0.0
1734407827.2885675,76.66015625,67.87109375,76.171875,118.65234375,0.0
1734407827.2924736,150.87890625,74.70703125,170.8984375,191.89453125,0.0
1734407827.2963796,158.203125,74.70703125,235.3515625,142.08984375,0.0
1734407827.3002856,100.09765625,80.078125,-0.9765625,35.64453125,0.0
1734407827.3041916,57.12890625,73.2421875,-411.62109375,14.6484375,0.0
1734407827.3080978,68.84765625,67.87109375,-95.21484375,93.75,0.0
1734407827.3120039,139.6484375,73.2421875,272.94921875,182.6171875,0.0
1734407827.3159099,163.57421875,74.70703125,151.85546875,171.875,0.0
1734407827.3198159,104.98046875,75.68359375,-68.359375,64.94140625,0.0
1734407827.323722,60.546875,75.68359375,-104.4921875,20.01953125,0.0
1734407827.3275464,0.0,70.80078125,119.140625,92.28515625,0.0
1734407827.3314524,0.0,68.359375,199.21875,183.10546875,0.0
1734407827.3353584,0.0,56.15234375,187.5,167.48046875,0.0
1734407827.3392644,0.0,48.828125,141.11328125,57.6171875,0.0
1734407827.3431704,0.0,49.8046875,113.28125,1.46484375,0.0
1734407827.3470764,0.0,43.45703125,-18.06640625,76.66015625,0.0
1734407827.3509824,0.0,49.31640625,-63.4765625,180.17578125,0.0
1734407827.3548884,0.0,46.38671875,188.4765625,169.43359375,0.0
1734407827.3587945,0.0,37.59765625,158.203125,57.12890625,0.0
1734407827.3627005,0.0,40.0390625,-59.5703125,-14.6484375,0.0
1734407827.3666065,0.0,44.43359375,49.8046875,48.828125,0.0
1734407827.3705125,0.0,39.0625,248.046875,148.4375,0.0
1734407827.374789,139.16015625,30.2734375,214.84375,164.55078125,0.0
1734407827.378695,109.375,38.57421875,-1.953125,79.58984375,0.0
1734407827.382601,48.33984375,54.6875,-52.734375,-9.27734375,0.0
1734407827.386507,39.0625,64.94140625,173.828125,23.4375,0.0
1734407827.390413,105.95703125,62.98828125,179.6875,146.484375,0.0
1734407827.394319,148.4375,62.98828125,-19.04296875,188.4765625,0.0
1734407827.398225,125.9765625,67.87109375,34.1796875,93.75,0.0
1734407827.402131,61.5234375,65.4296875,128.41796875,-15.625,0.0
1734407827.406037,46.38671875,61.5234375,97.16796875,7.8125,0.0
1734407827.409943,104.98046875,57.12890625,-168.9453125,127.44140625,0.0
1734407827.4138494,147.4609375,66.40625,25.390625,179.6875,0.0
1734407827.4177554,120.1171875,66.89453125,244.62890625,95.703125,0.0
1734407827.4219546,66.40625,64.94140625,15.625,4.8828125,0.0
1734407827.4258606,53.22265625,60.05859375,-1.953125,22.94921875,0.0
1734407827.4297667,91.30859375,56.640625,189.94140625,109.375,0.0
1734407827.4336727,135.7421875,56.15234375,228.515625,182.6171875,0.0
1734407827.4375787,140.625,56.640625,100.09765625,130.37109375,0.0
1734407827.441485,100.5859375,64.94140625,-153.80859375,37.59765625,0.0
1734407827.445391,67.87109375,64.453125,-172.8515625,23.4375,0.0
1734407827.449297,92.28515625,56.640625,147.94921875,112.79296875,0.0
1734407827.453203,157.71484375,49.31640625,97.65625,207.03125,0.0
1734407827.457109,148.92578125,48.33984375,-65.4296875,142.578125,0.0
1734407827.461015,71.2890625,48.828125,99.12109375,4.8828125,0.0
1734407827.464921,38.57421875,45.41015625,106.93359375,-8.30078125,0.0
1734407827.4690888,0.0,40.52734375,0.0,0.0,0.0
1734407827.4729948,0.0,37.109375,0.0,0.0,0.0
1734407827.476901,0.0,37.59765625,0.0,0.0,0.0
1734407827.480807,0.0,44.921875,0.0,0.0,0.0
1734407827.484713,0.0,49.31640625,0.0,0.0,0.0
1734407827.488619,0.0,56.640625,0.0,0.0,0.0
1734407827.492525,0.0,62.5,0.0,0.0,0.0
1734407827.496431,0.0,58.59375,0.0,0.0,0.0
1734407827.5003371,0.0,46.38671875,0.0,0.0,0.0
1734407827.5042431,0.0,44.921875,0.0,0.0,0.0
1734407827.5081491,0.0,53.7109375,0.0,0.0,0.0
1734407827.5120552,0.0,62.98828125,0.0,0.0,0.0
1734407827.5162003,153.80859375,63.96484375,208.0078125,162.109375,0.0
1734407827.5201063,117.67578125,58.59375,155.76171875,57.6171875,0.0
1734407827.5240123,57.6171875,54.19921875,78.61328125,-1.953125,0.0
1734407827.5279183,57.12890625,54.19921875,77.63671875,54.6875,0.0
1734407827.5318244,123.53515625,62.01171875,161.1328125,162.109375,0.0
1734407827.5357304,164.55078125,68.359375,90.33203125,162.109375,0.0
1734407827.5396364,131.34765625,65.4296875,55.17578125,72.265625,0.0
1734407827.5435426,80.078125,51.26953125,-120.1171875,3.41796875,0.0
1734407827.5474486,62.01171875,56.640625,-182.12890625,23.4375,0.0
1734407827.5513546,115.72265625,67.3828125,189.94140625,125.9765625,0.0
1734407827.5552607,148.92578125,56.15234375,229.4921875,159.66796875,0.0
1734407827.5591667,94.7265625,48.33984375,15.13671875,73.2421875,0.0
1734407827.5632372,0.0,45.8984375,0.0,-22.4609375,0.0
1734407827.5671432,0.0,37.109375,0.0,1.953125,0.0
1734407827.5710492,0.0,38.57421875,0.0,109.375,0.0
1734407827.5749552,0.0,47.36328125,0.0,152.34375,0.0
1734407827.5788615,0.0,49.31640625,0.0,73.2421875,0.0
1734407827.5827675,0.0,51.26953125,0.0,-28.80859375,0.0
1734407827.5866735,0.0,56.15234375,0.0,-17.578125,0.0
1734407827.5905795,0.0,56.15234375,0.0,100.5859375,0.0
1734407827.5944855,0.0,66.89453125,0.0,162.109375,0.0
1734407827.5983915,0.0,73.73046875,0.0,96.19140625,0.0
1734407827.6022975,0.0,69.3359375,0.0,0.48828125,0.0
1734407827.6062036,0.0,74.21875,0.0,18.5546875,0.0
1734407827.610134,83.0078125,73.73046875,189.453125,123.53515625,0.0
1734407827.61404,144.53125,68.84765625,227.05078125,188.96484375,0.0
1734407827.617946,120.1171875,64.453125,114.74609375,128.41796875,0.0
1734407827.621852,61.03515625,68.359375,57.12890625,-11.23046875,0.0
1734407827.625758,45.41015625,63.4765625,79.58984375,-14.6484375,0.0
1734407827.6296642,85.9375,61.5234375,150.390625,104.00390625,0.0
1734407827.6335702,128.90625,63.4765625,23.4375,180.6640625,0.0
1734407827.6374762,124.0234375,69.82421875,-144.04296875,132.32421875,0.0
1734407827.6413822,49.8046875,70.3125,72.265625,-8.30078125,0.0
1734407827.6452882,7.32421875,60.546875,111.328125,-34.1796875,0.0
1734407827.6491942,59.5703125,57.6171875,91.796875,75.1953125,0.0
1734407827.6531003,122.55859375,64.453125,184.5703125,157.2265625,0.0
1734407827.656961,127.9296875,64.453125,215.8203125,104.00390625,0.0
1734407827.6608672,66.89453125,59.5703125,102.05078125,-15.625,0.0
1734407827.6647732,18.06640625,65.91796875,-81.0546875,-22.94921875,0.0
1734407827.6686792,42.48046875,69.3359375,69.82421875,58.59375,0.0
1734407827.6725852,100.09765625,65.91796875,223.6328125,149.4140625,0.0
1734407827.6764913,124.0234375,62.98828125,131.34765625,134.27734375,0.0
1734407827.6803973,76.171875,55.6640625,-324.70703125,33.69140625,0.0
1734407827.6843033,13.671875,69.82421875,-260.7421875,-12.20703125,0.0
1734407827.6882093,34.66796875,77.1484375,177.24609375,55.17578125,0.0
1734407827.6921153,122.55859375,71.77734375,159.1796875,193.84765625,0.0
1734407827.6960216,150.87890625,73.73046875,99.609375,174.8046875,0.0
1734407827.6999276,99.12109375,70.3125,115.234375,46.875,0.0
1734407827.7037375,41.9921875,59.5703125,93.26171875,-4.39453125,0.0
1734407827.7076435,52.24609375,57.6171875,113.76953125,55.6640625,0.0
1734407827.7115495,122.0703125,65.4296875,184.5703125,164.0625,0.0
1734407827.7154558,147.94921875,62.98828125,209.47265625,174.8046875,0.0
1734407827.7193618,103.02734375,58.59375,159.66796875,66.89453125,0.0
1734407827.7232678,42.48046875,68.359375,-180.17578125,-17.578125,0.0
1734407827.7271738,42.48046875,72.265625,-172.36328125,45.8984375,0.0
1734407827.7310798,104.00390625,58.59375,208.0078125,156.25,0.0
1734407827.7349858,144.04296875,57.6171875,192.87109375,175.29296875,0.0
1734407827.7388918,129.8828125,73.73046875,-3.41796875,88.37890625,0.0
1734407827.7427979,77.63671875,76.171875,-59.08203125,10.25390625,0.0
1734407827.7467039,55.6640625,66.89453125,127.9296875,25.87890625,0.0
1734407827.7509212,0.0,67.3828125,179.19921875,135.25390625,0.0
1734407827.7548273,0.0,76.171875,113.28125,187.5,0.0
1734407827.7587333,0.0,80.078125,122.55859375,99.609375,0.0
1734407827.7626393,0.0,87.890625,90.33203125,5.859375,0.0
1734407827.7665453,0.0,83.49609375,73.2421875,17.08984375,0.0
1734407827.7704513,0.0,72.265625,-69.82421875,120.60546875,0.0
1734407827.7743573,0.0,71.2890625,47.8515625,172.36328125,0.0
1734407827.7782633,0.0,63.4765625,216.30859375,85.44921875,0.0
1734407827.7821693,0.0,50.29296875,-8.30078125,-7.32421875,0.0
1734407827.7860756,0.0,41.015625,-375.48828125,12.20703125,0.0
1734407827.7899816,0.0,44.43359375,-82.51953125,104.98046875,0.0
1734407827.7938876,0.0,37.109375,216.30859375,164.55078125,0.0
1734407827.798066,115.72265625,33.69140625,86.9140625,108.88671875,0.0
1734407827.801972,54.6875,38.57421875,-44.43359375,4.39453125,0.0
1734407827.805878,8.7890625,37.109375,59.5703125,-3.41796875,0.0
1734407827.809784,45.8984375,33.203125,176.26953125,84.47265625,0.0
1734407827.81369,110.83984375,38.0859375,138.671875,154.296875,0.0
1734407827.817596,114.74609375,39.55078125,80.078125,114.74609375,0.0
1734407827.821502,56.15234375,25.87890625,2.9296875,-0.48828125,0.0
1734407827.825408,20.01953125,20.5078125,120.1171875,-33.69140625,0.0
1734407827.8293142,57.6171875,22.4609375,40.0390625,87.40234375,0.0
1734407827.8332202,125.0,36.1328125,-73.2421875,188.4765625,0.0
1734407827.8371263,139.6484375,37.109375,198.2421875,125.0,0.0
1734407827.8410323,77.1484375,33.203125,146.97265625,17.578125,0.0
1734407827.8450928,30.2734375,44.43359375,0.0,-3.41796875,0.0
1734407827.8489988,69.3359375,55.6640625,0.0,66.40625,0.0
1734407827.8529048,121.09375,55.17578125,0.0,152.83203125,0.0
1734407827.8568108,121.09375,41.9921875,0.0,132.32421875,0.0
1734407827.860717,71.77734375,39.0625,0.0,21.97265625,0.0
1734407827.864623,36.1328125,50.29296875,0.0,-17.578125,0.0
1734407827.868529,45.8984375,56.640625,0.0,55.6640625,0.0
1734407827.872435,105.95703125,55.17578125,0.0,153.80859375,0.0
1734407827.876341,148.92578125,57.12890625,0.0,165.52734375,0.0
1734407827.880247,106.4453125,67.3828125,0.0,62.5,0.0
1734407827.8841531,47.8515625,69.3359375,0.0,5.37109375,0.0
1734407827.8880591,50.29296875,64.453125,0.0,54.6875,0.0
1734407827.8920822,96.19140625,66.40625,222.16796875,141.6015625,0.0
1734407827.8959882,117.67578125,57.6171875,229.4921875,143.5546875,0.0
1734407827.8998942,93.26171875,57.12890625,164.0625,54.19921875,0.0
1734407827.9038002,39.55078125,64.94140625,39.55078125,-15.625,0.0
1734407827.9077063,27.34375,59.08203125,107.91015625,16.6015625,0.0
1734407827.9116125,94.23828125,60.546875,127.9296875,136.23046875,0.0
1734407827.9155185,136.71875,60.05859375,148.4375,167.96875,0.0
1734407827.9194245,104.98046875,52.24609375,-14.16015625,74.70703125,0.0
1734407827.9233305,45.41015625,55.17578125,-234.86328125,-3.90625,0.0
1734407827.9272366,41.015625,66.89453125,92.7734375,36.1328125,0.0
1734407827.9311426,104.4921875,75.1953125,217.28515625,154.78515625,0.0
1734407827.9350486,141.6015625,66.89453125,126.953125,182.6171875,0.0
1734407827.9389644,107.91015625,62.01171875,153.80859375,71.77734375,0.0
1734407827.9428704,50.29296875,74.21875,131.34765625,-10.7421875,0.0
1734407827.9467764,45.41015625,67.3828125,98.6328125,30.2734375,0.0
1734407827.9506824,100.5859375,62.01171875,65.91796875,121.09375,0.0
1734407827.9545884,158.203125,83.984375,159.66796875,173.33984375,0.0
1734407827.9584944,143.5546875,84.47265625,133.7890625,112.79296875,0.0
1734407827.9624004,68.84765625,67.3828125,-53.22265625,12.6953125,0.0
1734407827.9663064,44.43359375,68.359375,-279.78515625,16.6015625,0.0
1734407827.9702127,93.75,74.21875,26.3671875,111.328125,0.0
1734407827.9741187,133.30078125,63.96484375,214.84375,163.57421875,0.0
1734407827.9780247,118.1640625,65.91796875,69.82421875,102.5390625,0.0
1734407827.9819307,50.78125,62.01171875,1.46484375,-4.39453125,0.0
1734407827.9857984,24.4140625,59.5703125,106.93359375,-3.90625,0.0
1734407827.9897044,78.125,70.80078125,202.63671875,111.328125,0.0
1734407827.9936104,131.34765625,64.94140625,181.15234375,182.12890625,0.0
1734407827.9975164,124.51171875,57.6171875,188.4765625,127.44140625,0.0
1734407828.0014224,75.1953125,63.96484375,89.35546875,19.04296875,0.0
1734407828.0053284,36.1328125,66.40625,30.76171875,11.23046875,0.0
1734407828.0092344,53.22265625,57.6171875,-21.97265625,102.5390625,0.0
1734407828.0131404,122.0703125,71.2890625,-117.67578125,177.24609375,0.0
1734407828.0170467,131.34765625,83.49609375,177.24609375,138.18359375,0.0
1734407828.0209527,68.359375,69.82421875,139.16015625,24.90234375,0.0
1734407828.0248587,23.4375,63.4765625,-25.87890625,-15.13671875,0.0
1734407828.0287647,44.921875,65.4296875,110.83984375,57.12890625,0.0
1734407828.0325882,109.86328125,59.5703125,177.734375,136.23046875,0.0
1734407828.0364943,120.60546875,57.12890625,167.48046875,113.76953125,0.0
1734407828.0404003,73.73046875,54.6875,-29.296875,11.23046875,0.0
1734407828.0443063,13.671875,53.22265625,0.0,-43.9453125,0.0
1734407828.0482123,27.83203125,55.6640625,181.640625,37.59765625,0.0
1734407828.0521185,105.95703125,56.15234375,118.1640625,158.203125,0.0
1734407828.0560246,131.34765625,51.7578125,-199.21875,165.0390625,0.0
1734407828.0599306,83.984375,63.96484375,-109.375,39.0625,0.0
1734407828.0638366,41.015625,77.63671875,130.37109375,-20.5078125,0.0
1734407828.0677426,58.10546875,66.89453125,87.40234375,49.8046875,0.0
1734407828.0716486,105.95703125,63.4765625,117.67578125,146.97265625,0.0
1734407828.0755546,111.328125,62.98828125,187.01171875,141.6015625,0.0
1734407828.079345,68.84765625,50.29296875,159.1796875,42.48046875,0.0
1734407828.083251,28.3203125,48.828125,45.41015625,-24.90234375,0.0
1734407828.0871572,29.296875,57.6171875,40.0390625,25.390625,0.0
1734407828.0910633,80.56640625,48.33984375,118.65234375,122.55859375,0.0
1734407828.0949693,121.58203125,45.8984375,208.0078125,132.8125,0.0
1734407828.0988753,93.26171875,51.26953125,-1.953125,71.77734375,0.0
1734407828.1027813,42.96875,65.4296875,-184.5703125,4.8828125,0.0
1734407828.1066873,38.0859375,70.3125,98.6328125,17.08984375,0.0
1734407828.1105933,91.796875,68.84765625,194.82421875,124.51171875,0.0
1734407828.1144993,133.7890625,70.3125,119.62890625,168.45703125,0.0
1734407828.1184053,91.30859375,64.94140625,88.37890625,77.1484375,0.0
1734407828.1223116,11.23046875,53.7109375,27.34375,-36.62109375,0.0
1734407828.1268523,0.0,57.6171875,71.77734375,-15.13671875,0.0
1734407828.1307583,0.0,58.59375,78.61328125,92.28515625,0.0
1734407828.1346643,0.0,51.7578125,152.34375,113.28125,0.0
1734407828.1385703,0.0,46.38671875,203.125,21.97265625,0.0
1734407828.1424766,0.0,42.96875,-9.765625,-71.2890625,0.0
1734407828.1463826,0.0,46.38671875,-255.37109375,-62.01171875,0.0
1734407828.1502886,0.0,49.8046875,-66.40625,27.34375,0.0
1734407828.1541946,0.0,50.78125,181.15234375,75.68359375,0.0
1734407828.1581006,0.0,49.8046875,145.99609375,26.3671875,0.0
1734407828.1620066,0.0,46.38671875,-370.1171875,-47.8515625,0.0
1734407828.1659126,0.0,47.36328125,-276.85546875,-71.77734375,0.0
1734407828.1698186,0.0,36.1328125,167.96875,-6.34765625,0.0
1734407828.1738753,32.2265625,40.52734375,170.41015625,83.49609375,0.0
1734407828.1777813,42.48046875,58.59375,170.41015625,53.22265625,0.0
1734407828.1816874,-13.671875,58.10546875,109.375,-58.10546875,0.0
1734407828.1855934,-53.22265625,56.640625,94.23828125,-78.61328125,0.0
1734407828.1894994,-18.5546875,56.15234375,122.0703125,16.11328125,0.0
1734407828.1934054,49.8046875,52.734375,97.16796875,104.00390625,0.0
1734407828.1973114,65.91796875,47.36328125,104.4921875,67.87109375,0.0
1734407828.2012174,5.37109375,41.015625,126.953125,-50.78125,0.0
1734407828.2051237,-38.0859375,37.59765625,-90.8203125,-85.9375,0.0
1734407828.2090297,-16.11328125,41.9921875,-174.8046875,6.8359375,0.0
1734407828.2129357,47.36328125,44.921875,191.89453125,99.609375,0.0
1734407828.2168417,65.91796875,41.50390625,238.28125,65.91796875,0.0
1734407828.2208748,0.0,40.52734375,-12.6953125,-33.69140625,0.0
1734407828.2247808,0.0,45.8984375,37.109375,-66.89453125,0.0
1734407828.228687,0.0,47.36328125,187.5,-3.41796875,0.0
1734407828.232593,0.0,48.828125,175.78125,99.609375,0.0
1734407828.236499,0.0,45.41015625,104.4921875,92.28515625,0.0
1734407828.240405,0.0,44.43359375,-1.46484375,-10.7421875,0.0
1734407828.244311,0.0,55.17578125,6.8359375,-60.546875,0.0
1734407828.248217,0.0,57.12890625,110.3515625,20.01953125,0.0
1734407828.252123,0.0,41.50390625,-129.39453125,140.13671875,0.0
1734407828.2560294,0.0,40.0390625,25.390625,147.4609375,0.0
1734407828.2599354,0.0,37.109375,126.953125,60.546875,0.0
1734407828.2638414,0.0,29.78515625,11.23046875,-33.203125,0.0
1734407828.2678163,-6.34765625,33.69140625,14.16015625,0.48828125,0.0
1734407828.2717223,74.21875,40.0390625,183.59375,117.67578125,0.0
1734407828.2756283,123.53515625,47.36328125,249.0234375,148.92578125,0.0
1734407828.2795343,100.5859375,50.78125,114.74609375,68.84765625,0.0
1734407828.2834404,51.26953125,53.7109375,60.546875,-22.94921875,0.0
1734407828.2873464,44.921875,60.05859375,68.84765625,26.3671875,0.0
1734407828.2912524,110.3515625,66.40625,150.390625,157.71484375,0.0
1734407828.2951586,159.66796875,55.6640625,74.21875,185.546875,0.0
1734407828.2990646,122.55859375,52.24609375,-129.39453125,92.7734375,0.0
1734407828.3029706,52.734375,62.01171875,81.0546875,-6.8359375,0.0
1734407828.3068767,46.875,59.5703125,168.9453125,21.484375,0.0
1734407828.3107827,95.703125,56.15234375,110.3515625,130.37109375,0.0
1734407828.314733,136.23046875,58.59375,187.5,180.6640625,0.0
1734407828.318639,127.9296875,66.40625,222.16796875,111.81640625,0.0
1734407828.322545,71.2890625,58.10546875,92.7734375,7.8125,0.0
1734407828.326451,56.640625,52.24609375,-61.03515625,21.484375,0.0
1734407828.330357,93.26171875,59.5703125,67.3828125,133.30078125,0.0
1734407828.334263,133.30078125,52.24609375,178.7109375,181.640625,0.0
1734407828.338169,127.9296875,37.59765625,107.421875,116.69921875,0.0
1734407828.3420753,78.125,41.9921875,-311.03515625,35.15625,0.0
1734407828.3459814,47.36328125,54.6875,-133.7890625,19.53125,0.0
1734407828.3498874,90.33203125,47.36328125,220.703125,108.3984375,0.0
1734407828.3537934,147.94921875,46.875,134.765625,186.03515625,0.0
1734407828.3576994,141.11328125,46.875,172.36328125,135.25390625,0.0
1734407828.3615851,92.28515625,43.9453125,114.2578125,37.59765625,0.0
1734407828.3654912,69.3359375,52.24609375,104.98046875,28.80859375,0.0
1734407828.3693972,101.5625,52.24609375,140.13671875,119.140625,0.0
1734407828.3733032,156.73828125,50.78125,171.38671875,197.265625,0.0
1734407828.3772094,166.9921875,54.6875,180.17578125,166.015625,0.0
1734407828.3811154,111.81640625,50.78125,24.90234375,57.6171875,0.0
1734407828.3850214,68.359375,48.828125,-265.625,14.16015625,0.0
1734407828.3889275,84.47265625,54.6875,-257.32421875,107.421875,0.0
1734407828.3928335,141.11328125,51.26953125,163.0859375,190.4296875,0.0
1734407828.3967395,168.45703125,46.875,248.53515625,162.109375,0.0
1734407828.4006455,135.25390625,56.15234375,-36.62109375,63.4765625,0.0
1734407828.4045517,80.56640625,62.98828125,-84.47265625,14.16015625,0.0
1734407828.4084144,84.9609375,62.98828125,143.06640625,86.42578125,0.0
1734407828.4123204,148.92578125,54.6875,155.76171875,189.453125,0.0
1734407828.4162264,150.87890625,46.38671875,55.6640625,161.1328125,0.0
1734407828.4201324,97.16796875,50.78125,71.2890625,43.45703125,0.0
1734407828.4240384,47.36328125,52.734375,59.08203125,-10.25390625,0.0
1734407828.4279447,63.4765625,63.4765625,5.859375,58.10546875,0.0
1734407828.4318507,142.578125,64.94140625,-239.74609375,184.5703125,0.0
1734407828.4357567,171.38671875,62.01171875,-61.5234375,197.265625,0.0
1734407828.4396627,109.375,57.12890625,166.015625,83.49609375,0.0
1734407828.4435687,46.875,55.17578125,-13.18359375,-0.48828125,0.0
1734407828.4474747,68.359375,60.546875,-156.73828125,63.96484375,0.0
1734407828.4513807,133.30078125,65.4296875,40.0390625,167.48046875,0.0
1734407828.4551136,154.78515625,56.640625,213.8671875,174.8046875,0.0
1734407828.45902,110.3515625,50.29296875,63.96484375,80.078125,0.0
1734407828.462926,58.10546875,55.6640625,-128.41796875,-1.46484375,0.0
1734407828.466832,59.5703125,49.8046875,26.3671875,38.57421875,0.0
1734407828.470738,123.53515625,42.96875,204.1015625,156.73828125,0.0
1734407828.474644,160.64453125,41.50390625,36.62109375,200.1953125,0.0
1734407828.47855,117.67578125,44.921875,-93.75,122.0703125,0.0
1734407828.482456,50.29296875,42.96875,62.98828125,22.94921875,0.0
1734407828.486362,44.43359375,42.48046875,129.8828125,28.3203125,0.0
1734407828.4902682,115.72265625,48.33984375,122.0703125,148.4375,0.0
1734407828.4941742,166.015625,57.6171875,169.43359375,203.125,0.0
1734407828.4980803,141.11328125,60.05859375,200.68359375,112.79296875,0.0
1734407828.5022402,83.49609375,54.19921875,93.75,0.0,0.0
1734407828.5061462,51.26953125,47.36328125,-42.96875,0.0,0.0
1734407828.5100524,85.44921875,47.36328125,106.93359375,0.0,0.0
1734407828.5139585,138.671875,50.78125,245.60546875,0.0,0.0
1734407828.5178645,141.11328125,57.12890625,167.48046875,0.0,0.0
1734407828.5217705,78.61328125,59.5703125,-217.28515625,0.0,0.0
1734407828.5256765,44.921875,75.1953125,-179.19921875,0.0,0.0
1734407828.5295825,92.28515625,90.8203125,214.35546875,0.0,0.0
1734407828.5334885,150.390625,83.984375,208.984375,0.0,0.0
1734407828.5373948,140.625,83.0078125,-176.7578125,0.0,0.0
1734407828.5413008,69.82421875,88.8671875,-250.9765625,0.0,0.0
1734407828.5452068,30.2734375,81.54296875,0.0,0.0,0.0
1734407828.549314,66.89453125,84.9609375,155.76171875,97.16796875,0.0
1734407828.55322,132.32421875,89.35546875,210.44921875,175.29296875,0.0
1734407828.557126,133.7890625,77.1484375,213.8671875,135.7421875,0.0
1734407828.561032,76.171875,81.0546875,143.5546875,21.484375,0.0
1734407828.564938,42.96875,86.42578125,-2.44140625,-15.625,0.0
1734407828.5688443,64.94140625,85.44921875,-11.23046875,68.84765625,0.0
1734407828.5727503,121.09375,81.54296875,142.08984375,164.55078125,0.0
1734407828.5766563,140.625,70.80078125,234.86328125,150.390625,0.0
1734407828.5805624,97.65625,64.94140625,-67.87109375,41.50390625,0.0
1734407828.5844684,50.78125,71.77734375,-224.12109375,-11.71875,0.0
1734407828.5883744,55.6640625,76.171875,151.3671875,55.17578125,0.0
1734407828.5922804,115.72265625,74.21875,237.79296875,159.66796875,0.0
1734407828.5963452,134.27734375,70.3125,0.0,152.83203125,0.0
1734407828.6002512,74.70703125,73.2421875,0.0,39.55078125,0.0
1734407828.6041574,27.34375,74.70703125,0.0,-26.3671875,0.0
1734407828.6080635,36.1328125,65.4296875,0.0,32.2265625,0.0
1734407828.6119695,92.7734375,67.3828125,0.0,144.04296875,0.0
1734407828.6158755,120.60546875,61.03515625,0.0,156.25,0.0
1734407828.6197815,80.56640625,60.05859375,0.0,46.38671875,0.0
1734407828.6236875,25.87890625,57.12890625,0.0,-26.3671875,0.0
1734407828.6275935,36.1328125,53.22265625,0.0,34.1796875,0.0
1734407828.6314998,100.5859375,61.5234375,0.0,132.8125,0.0
1734407828.6354058,129.39453125,62.01171875,0.0,148.4375,0.0
1734407828.6393118,97.65625,63.4765625,0.0,65.4296875,0.0
1734407828.64328,33.203125,60.05859375,14.6484375,-11.23046875,0.0
1734407828.6471863,27.83203125,61.5234375,157.2265625,19.53125,0.0
1734407828.6510923,108.3984375,71.2890625,247.55859375,137.20703125,0.0
1734407828.6549983,154.296875,72.265625,203.61328125,186.5234375,0.0
1734407828.6589043,115.72265625,69.82421875,196.77734375,93.75,0.0
1734407828.6628103,59.5703125,69.82421875,48.33984375,-3.41796875,0.0
1734407828.6667163,48.33984375,70.80078125,106.93359375,21.484375,0.0
1734407828.6706223,99.609375,62.5,87.890625,134.765625,0.0
1734407828.6745286,136.23046875,60.546875,-58.59375,192.3828125,0.0
1734407828.6784346,118.65234375,78.61328125,196.77734375,108.3984375,0.0
1734407828.6823406,69.82421875,79.58984375,103.515625,6.34765625,0.0
1734407828.6862466,44.43359375,67.3828125,33.203125,25.390625,0.0
1734407828.690177,87.890625,65.91796875,208.0078125,126.953125,0.0
1734407828.694083,136.71875,72.265625,296.38671875,180.17578125,0.0
1734407828.697989,130.859375,70.80078125,229.4921875,111.328125,0.0
1734407828.701895,61.5234375,71.2890625,38.57421875,7.8125,0.0
1734407828.705801,24.4140625,77.1484375,119.140625,0.0,0.0
1734407828.7097073,68.359375,72.75390625,211.9140625,95.703125,0.0
1734407828.7136133,124.51171875,70.80078125,174.31640625,167.96875,0.0
1734407828.7175193,120.1171875,65.4296875,-129.8828125,123.53515625,0.0
1734407828.7214253,61.03515625,78.61328125,-54.19921875,13.18359375,0.0
1734407828.7253313,39.0625,83.0078125,176.26953125,-12.6953125,0.0
1734407828.7292373,67.3828125,77.63671875,133.7890625,87.890625,0.0
1734407828.7331433,129.8828125,82.03125,230.95703125,177.24609375,0.0
1734407828.7370431,0.0,74.21875,274.90234375,146.484375,0.0
1734407828.7409492,0.0,73.73046875,144.04296875,32.71484375,0.0
1734407828.7448552,0.0,80.56640625,63.4765625,-5.859375,0.0
1734407828.7487614,0.0,79.58984375,202.1484375,76.66015625,0.0
1734407828.7526674,0.0,73.2421875,245.60546875,165.52734375,0.0
1734407828.7565734,0.0,71.77734375,215.33203125,134.27734375,0.0
1734407828.7604795,0.0,73.73046875,-12.6953125,23.4375,0.0
1734407828.7643855,0.0,82.03125,-243.1640625,-20.01953125,0.0
1734407828.7682915,0.0,91.796875,146.484375,55.6640625,0.0
1734407828.7721975,0.0,90.8203125,315.91796875,163.57421875,0.0
1734407828.7761037,0.0,91.30859375,220.703125,157.71484375,0.0
1734407828.7800097,0.0,92.7734375,195.80078125,46.38671875,0.0
1734407828.7838323,33.69140625,85.9375,191.40625,-24.90234375,0.0
1734407828.7877383,40.52734375,86.9140625,217.28515625,44.921875,0.0
1734407828.7916443,106.4453125,85.9375,183.59375,161.1328125,0.0
1734407828.7955503,137.6953125,89.35546875,261.71875,159.66796875,0.0
1734407828.7994566,103.02734375,94.7265625,244.62890625,51.26953125,0.0
1734407828.8033626,43.45703125,98.14453125,66.40625,-11.71875,0.0
1734407828.8072686,54.19921875,104.4921875,-96.6796875,54.6875,0.0
1734407828.8111746,112.79296875,109.375,152.34375,146.484375,0.0
1734407828.8150806,131.8359375,102.05078125,363.28125,150.87890625,0.0
1734407828.8189867,97.65625,91.796875,188.4765625,51.7578125,0.0
1734407828.8228927,39.0625,89.35546875,-115.234375,-26.85546875,0.0
1734407828.826799,28.3203125,88.37890625,137.6953125,4.39453125,0.0
1734407828.8305779,89.84375,83.0078125,337.890625,114.74609375,0.0
1734407828.8344839,132.8125,71.77734375,253.41796875,151.3671875,0.0
1734407828.8383899,78.61328125,68.359375,233.3984375,51.26953125,0.0
1734407828.842296,7.8125,68.359375,178.22265625,-48.828125,0.0
1734407828.846202,17.578125,63.4765625,229.4921875,-13.671875,0.0
1734407828.850108,90.33203125,64.94140625,161.62109375,110.3515625,0.0
1734407828.854014,128.90625,75.68359375,91.30859375,157.2265625,0.0
1734407828.85792,107.91015625,76.66015625,229.4921875,74.21875,0.0
1734407828.8618262,42.96875,70.80078125,138.671875,-16.11328125,0.0
1734407828.8657322,11.71875,72.265625,129.8828125,-3.41796875,0.0
1734407828.8696382,71.77734375,78.125,259.765625,97.65625,0.0
1734407828.8735442,128.41796875,79.1015625,336.42578125,158.203125,0.0
1734407828.8777204,120.60546875,73.73046875,284.1796875,102.05078125,0.0
1734407828.8816264,55.17578125,58.59375,111.328125,-7.32421875,0.0
1734407828.8855324,12.6953125,52.734375,168.45703125,-34.66796875,0.0
1734407828.8894384,65.91796875,59.5703125,302.734375,63.4765625,0.0
1734407828.8933444,131.8359375,61.03515625,279.78515625,151.3671875,0.0
1734407828.8972504,131.8359375,65.91796875,91.796875,105.46875,0.0
1734407828.9011564,74.70703125,66.40625,62.01171875,-0.9765625,0.0
1734407828.9050627,20.01953125,56.15234375,200.1953125,-48.828125,0.0
1734407828.9089687,49.8046875,56.640625,235.83984375,36.1328125,0.0
1734407828.9128747,124.51171875,56.15234375,-20.01953125,155.76171875,0.0
1734407828.9167807,126.46484375,45.8984375,98.6328125,103.515625,0.0
1734407828.9206867,41.9921875,46.38671875,174.8046875,-34.1796875,0.0
1734407828.9247577,0.0,49.31640625,0.0,-65.91796875,0.0
1734407828.9286637,0.0,45.8984375,0.0,27.34375,0.0
1734407828.93257,0.0,50.78125,0.0,127.9296875,0.0
1734407828.936476,0.0,57.6171875,0.0,105.95703125,0.0
1734407828.940382,0.0,62.98828125,0.0,-10.7421875,0.0
1734407828.944288,0.0,64.94140625,0.0,-64.453125,0.0
1734407828.948194,0.0,68.359375,0.0,9.27734375,0.0
1734407828.9521,0.0,68.84765625,0.0,112.79296875,0.0
1734407828.956006,0.0,70.3125,0.0,115.72265625,0.0
1734407828.9599123,0.0,82.03125,0.0,5.859375,0.0
1734407828.9638183,0.0,66.89453125,0.0,-80.078125,0.0
1734407828.9677243,0.0,53.7109375,0.0,-41.50390625,0.0
1734407828.9717462,28.3203125,52.24609375,215.8203125,70.80078125,0.0
1734407828.9756522,76.171875,55.17578125,291.9921875,87.40234375,0.0
1734407828.9795582,39.55078125,68.84765625,170.8984375,-24.90234375,0.0
1734407828.9834645,-21.484375,79.58984375,116.2109375,-99.12109375,0.0
1734407828.9873705,-17.578125,80.078125,146.97265625,-33.203125,0.0
1734407828.9912765,34.66796875,73.73046875,176.26953125,67.87109375,0.0
1734407828.9951825,71.77734375,73.73046875,242.67578125,78.125,0.0
1734407828.9990885,48.33984375,85.9375,182.6171875,-16.11328125,0.0
1734407829.0029945,-13.671875,93.75,-215.8203125,-95.21484375,0.0
1734407829.0069005,-38.57421875,87.890625,22.94921875,-71.77734375,0.0
1734407829.0108068,20.5078125,83.0078125,275.390625,35.15625,0.0
1734407829.0147128,82.03125,103.02734375,248.046875,85.9375,0.0
1734407829.0187058,0.0,105.46875,230.46875,0.0,0.0
1734407829.022612,0.0,80.078125,157.2265625,0.0,0.0
1734407829.026518,0.0,71.77734375,206.54296875,0.0,0.0
1734407829.030424,0.0,61.5234375,238.76953125,0.0,0.0
1734407829.0343301,0.0,58.10546875,262.20703125,0.0,0.0
1734407829.0382361,0.0,67.3828125,159.66796875,0.0,0.0
1734407829.0421422,0.0,74.70703125,77.1484375,0.0,0.0
1734407829.0460484,0.0,77.63671875,10.7421875,0.0,0.0
1734407829.0499544,0.0,83.49609375,-88.37890625,0.0,0.0
1734407829.0538604,0.0,78.125,240.234375,0.0,0.0
1734407829.0577664,0.0,64.94140625,281.25,0.0,0.0
1734407829.0616724,0.0,68.84765625,43.45703125,0.0,0.0
1734407829.0643551,-17.08984375,57.6171875,120.1171875,-8.30078125,0.0
1734407829.0682611,33.203125,50.78125,278.3203125,-121.09375,0.0
1734407829.0721672,113.28125,68.359375,258.30078125,-84.9609375,0.0
1734407829.0760732,117.67578125,82.03125,173.828125,33.203125,0.0
1734407829.0799792,51.26953125,80.078125,125.48828125,84.9609375,0.0
1734407829.0838854,21.97265625,87.890625,92.7734375,6.34765625,0.0
1734407829.0877914,62.98828125,92.28515625,116.69921875,-100.5859375,0.0
1734407829.0916975,115.234375,65.4296875,-92.28515625,-71.77734375,0.0
1734407829.0956035,115.234375,53.7109375,53.7109375,33.203125,0.0
1734407829.0995095,62.5,59.5703125,176.26953125,62.5,0.0
1734407829.1034155,21.97265625,48.33984375,17.578125,-3.90625,0.0
1734407829.1073215,39.55078125,33.69140625,121.58203125,-103.02734375,0.0
1734407829.1112084,116.2109375,43.45703125,233.88671875,66.40625,0.0
1734407829.1151145,138.18359375,54.6875,232.91015625,26.85546875,0.0
1734407829.1190205,75.1953125,37.109375,131.34765625,-111.328125,0.0
1734407829.1229265,33.69140625,34.66796875,144.53125,-156.25,0.0
1734407829.1268325,63.4765625,47.8515625,253.90625,-53.7109375,0.0
1734407829.1307387,129.39453125,44.921875,312.5,65.91796875,0.0
1734407829.1346447,154.296875,48.33984375,267.578125,61.03515625,0.0
1734407829.1385508,107.91015625,60.05859375,134.765625,-73.2421875,0.0
1734407829.1424568,50.78125,58.59375,349.609375,-170.8984375,0.0
1734407829.1463628,60.05859375,49.31640625,525.87890625,-82.03125,0.0
1734407829.1502688,136.71875,44.921875,552.24609375,68.84765625,0.0
1734407829.1541748,170.41015625,45.41015625,581.0546875,94.7265625,0.0
1734407829.158067,122.55859375,56.15234375,587.40234375,-21.484375,0.0
1734407829.161973,75.68359375,62.98828125,628.90625,-106.4453125,0.0
1734407829.165879,85.44921875,68.359375,724.12109375,-33.203125,0.0
1734407829.169785,136.71875,74.21875,804.19921875,103.515625,0.0
1734407829.1736913,173.828125,69.3359375,828.125,127.9296875,0.0
1734407829.1775973,151.85546875,68.84765625,786.62109375,6.8359375,0.0
1734407829.1815033,105.46875,77.63671875,666.50390625,-79.1015625,0.0
1734407829.1854093,88.37890625,80.078125,743.1640625,-36.1328125,0.0
1734407829.1893153,138.671875,76.171875,833.984375,106.4453125,0.0
1734407829.1932213,188.96484375,76.66015625,796.875,158.203125,0.0
1734407829.1971273,158.69140625,77.63671875,742.67578125,35.64453125,0.0
1734407829.2010334,84.9609375,82.03125,746.09375,-100.09765625,0.0
1734407829.204794,73.73046875,77.63671875,764.16015625,-76.66015625,0.0
1734407829.2087,133.30078125,78.61328125,756.8359375,71.77734375,0.0
1734407829.212606,177.24609375,82.03125,740.234375,136.23046875,0.0
1734407829.216512,153.80859375,79.58984375,707.51953125,28.80859375,0.0
1734407829.220418,83.49609375,79.1015625,670.8984375,-109.86328125,0.0
1734407829.224324,67.87109375,79.1015625,583.49609375,-88.8671875,0.0
1734407829.22823,118.65234375,85.9375,580.078125,51.26953125,0.0
1734407829.2321362,154.78515625,84.47265625,692.87109375,118.1640625,0.0
1734407829.2360423,137.6953125,65.4296875,666.9921875,25.87890625,0.0
1734407829.2399483,75.68359375,62.01171875,549.31640625,-117.1875,0.0
1734407829.2438543,44.921875,70.3125,554.6875,-130.37109375,0.0
1734407829.2477603,85.9375,75.68359375,633.30078125,-4.8828125,0.0
1734407829.2519295,142.08984375,71.2890625,0.0,92.28515625,0.0
1734407829.2558355,136.23046875,67.3828125,0.0,31.25,0.0
1734407829.2597415,81.54296875,71.2890625,0.0,-114.2578125,0.0
1734407829.2636476,56.640625,76.66015625,0.0,-135.7421875,0.0
1734407829.2675536,85.44921875,75.1953125,0.0,-13.671875,0.0
1734407829.2714596,147.4609375,79.1015625,0.0,100.5859375,0.0
1734407829.2753656,163.0859375,83.0078125,0.0,55.17578125,0.0
1734407829.2792716,99.609375,86.42578125,0.0,-91.796875,0.0
1734407829.2831779,53.22265625,85.9375,0.0,-139.6484375,0.0
1734407829.2870839,90.8203125,83.984375,0.0,-14.6484375,0.0
1734407829.2909899,154.78515625,94.23828125,0.0,105.46875,0.0
1734407829.294896,166.50390625,87.890625,0.0,70.3125,0.0
1734407829.2977521,0.0,79.1015625,621.58203125,-73.73046875,0.0
1734407829.3016582,0.0,78.125,585.9375,-145.01953125,0.0
1734407829.3055642,0.0,79.1015625,536.62109375,-48.828125,0.0
1734407829.3094702,0.0,77.63671875,546.38671875,99.12109375,0.0
1734407829.3133764,0.0,65.4296875,542.48046875,82.51953125,0.0
