timestamps,TP9,AF7,AF8,TP10,Right AUX
1733977635.8039017,-872.0703125,18.5546875,120.1171875,423.828125,0.0
1733977635.8078072,523.92578125,78.125,395.01953125,-664.0625,0.0
1733977635.811713,-817.87109375,69.82421875,392.578125,-590.8203125,0.0
1733977635.8156185,505.37109375,12.6953125,322.75390625,496.58203125,0.0
1733977635.819524,-944.82421875,-32.71484375,-86.42578125,-974.12109375,0.0
1733977635.8234298,-920.41015625,0.48828125,-305.17578125,519.04296875,0.0
1733977635.8273354,549.8046875,54.6875,81.0546875,-609.86328125,0.0
1733977635.8312411,-845.703125,68.359375,383.7890625,-727.5390625,0.0
1733977635.8351467,671.875,17.578125,303.7109375,317.3828125,0.0
1733977635.8390522,-795.41015625,-41.9921875,-92.7734375,998.53515625,0.0
1733977635.842958,-1000.0,-7.8125,-229.00390625,631.34765625,0.0
1733977635.8468704,453.125,62.01171875,264.16015625,-509.27734375,0.0
1733977635.8507762,-862.79296875,79.58984375,470.21484375,-810.05859375,0.0
1733977635.8546817,787.59765625,24.4140625,291.9921875,166.9921875,0.0
1733977635.8585873,-621.09375,-34.66796875,24.90234375,963.8671875,0.0
1733977635.862493,-1000.0,-12.20703125,-201.66015625,742.1875,0.0
1733977635.8663986,281.25,49.31640625,41.015625,-388.18359375,0.0
1733977635.870304,-858.3984375,84.9609375,324.21875,-838.8671875,0.0
1733977635.87421,808.59375,46.875,186.03515625,58.59375,0.0
1733977635.8781154,-558.59375,-8.7890625,41.9921875,927.24609375,0.0
1733977635.8820212,-1000.0,0.0,-187.01171875,868.1640625,0.0
1733977635.8859267,29.78515625,54.19921875,-46.38671875,-194.3359375,0.0
1733977635.8898323,-894.53125,105.46875,371.09375,-850.5859375,0.0
1733977635.893744,816.89453125,72.265625,381.8359375,-88.37890625,0.0
1733977635.8976495,-540.52734375,-9.765625,66.40625,881.8359375,0.0
1733977635.9015553,-1000.0,-15.625,-367.1875,937.01171875,0.0
1733977635.9054608,-342.28515625,57.6171875,-105.95703125,-70.3125,0.0
1733977635.9093664,967.7734375,110.3515625,421.875,-878.41796875,0.0
1733977635.9132721,930.6640625,66.89453125,282.2265625,-242.1875,0.0
1733977635.9171777,-443.359375,-7.8125,-240.234375,820.80078125,0.0
1733977635.9210835,-1000.0,1.953125,-397.4609375,991.2109375,0.0
1733977635.924989,-623.53515625,58.10546875,-99.609375,63.96484375,0.0
1733977635.9288945,790.0390625,97.65625,252.44140625,-846.19140625,0.0
1733977635.9328003,-933.59375,76.171875,273.92578125,-330.078125,0.0
1733977635.9367058,-286.62109375,17.578125,105.95703125,758.7890625,0.0
1733977635.9406161,-1000.0,-8.7890625,-262.20703125,-978.02734375,0.0
1733977635.944522,-747.0703125,34.1796875,-294.43359375,215.33203125,0.0
1733977635.9484274,627.9296875,91.30859375,246.58203125,-807.6171875,0.0
1733977635.9523332,-843.26171875,78.125,369.140625,-490.72265625,0.0
1733977635.9562387,39.55078125,11.71875,136.71875,636.23046875,0.0
1733977635.9601443,-1000.0,-41.50390625,-413.0859375,-963.8671875,0.0
1733977635.96405,-851.5625,-3.41796875,-416.9921875,373.53515625,0.0
1733977635.9679556,522.4609375,80.078125,225.5859375,-697.75390625,0.0
1733977635.9718611,-813.4765625,68.84765625,361.81640625,-563.96484375,0.0
1733977635.975767,386.23046875,-4.39453125,99.609375,551.7578125,0.0
1733977635.9796724,-997.0703125,-33.203125,-333.49609375,-962.890625,0.0
1733977635.9835782,-900.87890625,13.18359375,-313.96484375,483.3984375,0.0
1733977635.9874957,538.0859375,73.73046875,143.06640625,-630.859375,0.0
1733977635.9914012,-827.1484375,59.08203125,267.08984375,-645.01953125,0.0
1733977635.9953067,579.1015625,5.859375,121.09375,438.96484375,0.0
1733977635.9992125,-881.34765625,-42.48046875,-266.11328125,-981.93359375,0.0
1733977636.003118,-985.3515625,-30.76171875,-443.84765625,587.890625,0.0
1733977636.0070238,478.515625,24.90234375,-206.54296875,-511.23046875,0.0
1733977636.0109293,-843.75,53.7109375,199.70703125,-712.890625,0.0
1733977636.014835,702.1484375,18.06640625,224.609375,271.97265625,0.0
1733977636.0187407,-728.02734375,-47.36328125,-297.8515625,989.2578125,0.0
1733977636.0226462,-1000.0,-42.96875,-680.17578125,761.71875,0.0
1733977636.026552,310.546875,47.8515625,-156.73828125,-348.14453125,0.0
1733977636.0304575,-856.93359375,86.9140625,379.39453125,-762.20703125,0.0
1733977636.0343742,799.8046875,20.99609375,167.48046875,151.3671875,0.0
1733977636.0382798,-579.58984375,-41.015625,-313.4765625,952.63671875,0.0
1733977636.0421853,-1000.0,-11.71875,-466.796875,833.984375,0.0
1733977636.046091,101.5625,48.33984375,-118.1640625,-210.44921875,0.0
1733977636.0499966,-877.9296875,70.80078125,258.7890625,-753.90625,0.0
1733977636.0539024,807.6171875,27.83203125,137.20703125,70.3125,0.0
1733977636.057808,-544.43359375,-30.76171875,-270.99609375,924.8046875,0.0
1733977636.0617135,-1000.0,-14.6484375,-433.59375,926.7578125,0.0
1733977636.0656192,-287.109375,38.0859375,-314.453125,-37.109375,0.0
1733977636.0695248,-988.76953125,79.1015625,-9.27734375,-754.8828125,0.0
1733977636.0734303,862.79296875,59.08203125,248.53515625,-77.63671875,0.0
1733977636.077336,-538.0859375,-20.99609375,-62.98828125,871.09375,0.0
1733977636.0812597,-1000.0,-41.50390625,-528.80859375,972.16796875,0.0
1733977636.0851655,-583.0078125,29.78515625,-303.22265625,52.734375,0.0
1733977636.089071,849.12109375,87.890625,289.0625,-804.19921875,0.0
1733977636.0929766,990.72265625,52.24609375,285.64453125,-243.1640625,0.0
1733977636.0968823,-436.03515625,-20.99609375,-176.7578125,799.31640625,0.0
1733977636.1007879,-1000.0,-41.015625,-547.36328125,-979.4921875,0.0
1733977636.1046937,-741.69921875,23.92578125,-299.31640625,229.00390625,0.0
1733977636.1085992,678.22265625,88.8671875,226.07421875,-743.1640625,0.0
1733977636.1125047,-901.85546875,39.55078125,-59.5703125,-313.4765625,0.0
1733977636.1164105,-291.50390625,-7.32421875,-306.640625,766.6015625,0.0
1733977636.120316,-1000.0,-11.71875,-377.9296875,-968.26171875,0.0
1733977636.1242216,-826.171875,22.4609375,-410.15625,360.3515625,0.0
1733977636.1281357,526.85546875,82.51953125,23.4375,-659.66796875,0.0
1733977636.1320415,-822.265625,76.66015625,320.80078125,-429.19921875,0.0
1733977636.135947,64.453125,8.7890625,112.79296875,665.52734375,0.0
1733977636.1398528,-1000.0,-35.64453125,-411.1328125,-957.51953125,0.0
1733977636.1437583,-855.95703125,7.8125,-465.33203125,461.42578125,0.0
1733977636.1476638,516.6015625,76.171875,33.203125,-587.40234375,0.0
1733977636.1515696,-812.98828125,75.1953125,267.08984375,-552.24609375,0.0
1733977636.1554751,441.89453125,9.765625,36.62109375,508.30078125,0.0
1733977636.1593807,-971.19140625,-33.203125,-378.41796875,-966.30859375,0.0
1733977636.1632864,-918.9453125,2.44140625,-422.8515625,536.1328125,0.0
1733977636.167192,529.78515625,70.3125,22.4609375,-586.42578125,0.0
1733977636.1710978,-836.42578125,76.171875,195.3125,-699.21875,0.0
1733977636.1750112,643.06640625,21.97265625,-53.7109375,329.1015625,0.0
1733977636.1789167,-806.640625,-26.85546875,-315.4296875,990.234375,0.0
1733977636.1828225,-1000.0,-10.25390625,-445.3125,618.65234375,0.0
1733977636.186728,394.53125,37.59765625,-285.64453125,-493.1640625,0.0
1733977636.1906335,-850.09765625,67.3828125,173.33984375,-792.48046875,0.0
1733977636.1945393,758.30078125,20.99609375,124.51171875,135.7421875,0.0
1733977636.1984448,-651.3671875,-51.7578125,-398.4375,950.68359375,0.0
1733977636.2023506,-1000.0,-47.8515625,-685.546875,748.53515625,0.0
1733977636.2062562,244.140625,25.390625,-248.046875,-377.44140625,0.0
1733977636.2101617,-857.91015625,64.94140625,284.66796875,-872.55859375,0.0
1733977636.2140675,805.6640625,14.16015625,166.50390625,-22.4609375,0.0
1733977636.217973,-552.734375,-54.19921875,-262.6953125,909.1796875,0.0
1733977636.2218854,-1000.0,-47.8515625,-437.5,807.6171875,0.0
1733977636.225791,-54.19921875,14.16015625,-140.625,-298.33984375,0.0
1733977636.2296968,-914.0625,52.734375,255.859375,-947.75390625,0.0
1733977636.2336023,819.82421875,19.53125,268.5546875,-215.8203125,0.0
1733977636.237508,-546.38671875,-48.828125,-104.98046875,838.8671875,0.0
1733977636.2414136,-1000.0,-60.546875,-468.26171875,799.31640625,0.0
1733977636.2453191,-446.2890625,-5.859375,-402.34375,-231.4453125,0.0
1733977636.249225,937.01171875,50.29296875,-20.01953125,-952.1484375,0.0
1733977636.2531304,919.43359375,50.29296875,255.859375,-394.04296875,0.0
1733977636.2570362,-501.46484375,-9.765625,-55.17578125,745.1171875,0.0
1733977636.2609417,-1000.0,-35.64453125,-526.85546875,925.78125,0.0
1733977636.2648473,-698.73046875,26.3671875,-340.33203125,-93.75,0.0
1733977636.2687585,746.09375,95.703125,253.41796875,-969.7265625,0.0
1733977636.2726643,-956.54296875,63.96484375,277.83203125,-558.59375,0.0
1733977636.2765698,-395.01953125,-17.08984375,-184.5703125,613.76953125,0.0
1733977636.2804756,-1000.0,-26.3671875,-505.859375,974.12109375,0.0
1733977636.2843812,-820.3125,32.2265625,-382.32421875,37.109375,0.0
1733977636.2882867,563.96484375,77.63671875,23.92578125,-931.640625,0.0
1733977636.2921925,-854.4921875,46.875,-89.35546875,-639.6484375,0.0
1733977636.296098,-168.45703125,-3.41796875,-316.40625,502.9296875,0.0
1733977636.3000038,-1000.0,-40.52734375,-470.703125,984.86328125,0.0
1733977636.3039093,-837.40234375,-15.625,-539.0625,173.33984375,0.0
1733977636.3078148,513.671875,60.546875,-47.36328125,-890.625,0.0
1733977636.3117206,-812.5,59.08203125,263.18359375,-833.984375,0.0
1733977636.3156314,214.84375,-10.25390625,40.52734375,263.18359375,0.0
1733977636.319537,-1000.0,-62.01171875,-479.98046875,924.31640625,0.0
1733977636.3234427,-875.0,-20.5078125,-551.26953125,231.93359375,0.0
1733977636.3273482,525.390625,61.03515625,-59.5703125,-854.98046875,0.0
1733977636.331254,-817.87109375,67.3828125,262.6953125,-958.0078125,0.0
1733977636.3351595,521.97265625,-11.23046875,-87.40234375,53.7109375,0.0
1733977636.339065,-905.76171875,-70.80078125,-564.453125,862.79296875,0.0
1733977636.3429708,-996.09375,-17.08984375,-518.06640625,285.64453125,0.0
1733977636.3468764,436.5234375,48.33984375,-144.04296875,-809.08203125,0.0
1733977636.3507822,-833.984375,42.48046875,159.1796875,-1000.0,0.0
1733977636.3546877,683.10546875,-9.27734375,35.64453125,-133.7890625,0.0
1733977636.3585932,-739.2578125,-57.6171875,-399.4140625,781.73828125,0.0
1733977636.3625114,0.0,-39.55078125,-586.9140625,372.0703125,0.0
1733977636.366417,0.0,20.01953125,-340.33203125,-729.4921875,0.0
1733977636.3703227,0.0,53.22265625,141.6015625,-1000.0,0.0
1733977636.3742282,0.0,12.20703125,132.32421875,-286.1328125,0.0
1733977636.378134,0.0,-60.546875,-435.05859375,734.86328125,0.0
1733977636.3820395,0.0,-62.98828125,-757.32421875,546.38671875,0.0
1733977636.385945,0.0,14.6484375,-366.2109375,-566.89453125,0.0
1733977636.3898509,0.0,64.453125,215.8203125,-1000.0,0.0
1733977636.3937564,0.0,7.32421875,75.1953125,-323.2421875,0.0
1733977636.397662,0.0,-73.73046875,-593.75,795.41015625,0.0
1733977636.4015677,0.0,-44.921875,-663.0859375,734.86328125,0.0
1733977636.4054732,0.0,20.01953125,-307.12890625,-369.140625,0.0
1733977636.4093904,-990.72265625,45.8984375,93.75,-1000.0,0.0
1733977636.413296,865.72265625,18.06640625,138.18359375,-355.95703125,0.0
1733977636.4172018,-534.66796875,-41.9921875,-238.28125,775.390625,0.0
1733977636.4211073,-1000.0,-49.31640625,-531.25,931.15234375,0.0
1733977636.4250128,-585.44921875,-7.32421875,-462.40234375,-81.0546875,0.0
1733977636.4289186,842.28515625,36.62109375,-26.3671875,-896.97265625,0.0
1733977636.4328241,-998.046875,16.11328125,85.44921875,-346.6796875,0.0
1733977636.43673,-413.0859375,-46.875,-180.17578125,754.39453125,0.0
1733977636.4406354,-1000.0,-77.1484375,-610.3515625,-995.1171875,0.0
1733977636.444541,-733.3984375,-30.76171875,-627.44140625,149.4140625,0.0
1733977636.4484468,681.15234375,53.22265625,125.48828125,-811.5234375,0.0
1733977636.4523523,-894.53125,41.015625,263.18359375,-448.73046875,0.0
1733977636.4562678,0.0,-34.66796875,-229.98046875,668.45703125,0.0
1733977636.4601734,0.0,-53.7109375,-541.015625,-979.00390625,0.0
1733977636.4640791,0.0,0.0,-474.609375,234.375,0.0
1733977636.4679847,0.0,58.59375,-43.45703125,-774.4140625,0.0
1733977636.4718902,0.0,41.9921875,-15.625,-500.0,0.0
1733977636.475796,0.0,-25.390625,-329.1015625,570.80078125,0.0
1733977636.4797015,0.0,-57.12890625,-490.234375,-985.83984375,0.0
1733977636.4836073,0.0,-10.7421875,-475.09765625,352.5390625,0.0
1733977636.4875128,0.0,39.55078125,-282.71484375,-718.75,0.0
1733977636.4914184,0.0,55.17578125,117.67578125,-655.76171875,0.0
1733977636.4953241,0.0,13.18359375,123.53515625,390.625,0.0
1733977636.4992297,0.0,-44.43359375,-456.0546875,-996.09375,0.0
1733977636.503145,-922.8515625,-8.30078125,-554.19921875,505.37109375,0.0
1733977636.5070505,518.06640625,71.77734375,-27.34375,-626.46484375,0.0
1733977636.510956,-818.359375,86.42578125,288.0859375,-738.28125,0.0
1733977636.5148618,611.81640625,21.97265625,52.734375,317.3828125,0.0
1733977636.5187674,-828.61328125,-38.0859375,-415.0390625,994.62890625,0.0
1733977636.5226731,-763.18359375,-5.859375,-546.875,502.9296875,0.0
1733977636.5265787,505.859375,64.453125,-130.859375,-454.58984375,0.0
1733977636.5304842,-900.87890625,80.56640625,145.99609375,-600.09765625,0.0
1733977636.53439,780.76171875,30.76171875,-155.76171875,309.08203125,0.0
1733977636.5382955,-657.71484375,-14.16015625,-355.95703125,995.1171875,0.0
1733977636.542201,-1000.0,-1.953125,-462.40234375,837.40234375,0.0
1733977636.5461068,229.98046875,48.828125,-213.37890625,-169.43359375,0.0
1733977636.550021,-858.88671875,93.75,263.18359375,-622.55859375,0.0
1733977636.5539265,803.22265625,62.01171875,235.83984375,220.21484375,0.0
1733977636.5578322,-548.33984375,-16.11328125,-219.23828125,951.66015625,0.0
1733977636.5617378,-1000.0,-20.99609375,-620.1171875,918.9453125,0.0
1733977636.5656433,-112.79296875,50.78125,-257.8125,-23.92578125,0.0
1733977636.569549,-928.22265625,94.23828125,250.9765625,-633.7890625,0.0
1733977636.5734546,825.68359375,57.12890625,98.6328125,110.3515625,0.0
1733977636.5773604,-548.33984375,-16.6015625,-493.1640625,915.52734375,0.0
1733977636.581266,-1000.0,0.48828125,-682.12890625,962.890625,0.0
1733977636.5851715,-492.1875,66.40625,-356.93359375,97.16796875,0.0
1733977636.5890772,919.43359375,94.23828125,144.53125,-667.48046875,0.0
1733977636.5929828,924.8046875,60.546875,219.7265625,-63.4765625,0.0
1733977636.5968955,-508.7890625,-8.30078125,-138.18359375,860.3515625,0.0
1733977636.600801,-1000.0,-29.296875,-462.890625,993.65234375,0.0
1733977636.6047065,-671.38671875,16.6015625,-374.0234375,186.5234375,0.0
1733977636.6086123,760.25390625,76.66015625,198.2421875,-699.21875,0.0
1733977636.6125178,-944.3359375,58.59375,292.48046875,-255.859375,0.0
1733977636.6164236,-348.6328125,-12.20703125,-130.859375,773.4375,0.0
1733977636.6203291,-1000.0,-40.52734375,-568.84765625,-975.5859375,0.0
1733977636.6242347,-775.390625,10.7421875,-466.30859375,262.6953125,0.0
1733977636.6281404,604.4921875,88.8671875,204.58984375,-729.00390625,0.0
1733977636.632046,-848.14453125,69.3359375,331.54296875,-455.56640625,0.0
1733977636.6359518,-66.40625,-19.53125,-104.98046875,630.37109375,0.0
1733977636.6398573,-1000.0,-50.29296875,-494.140625,-975.5859375,0.0
1733977636.6437774,-844.23828125,8.7890625,-433.10546875,293.45703125,0.0
1733977636.647683,513.671875,64.453125,-17.08984375,-753.90625,0.0
1733977636.6515884,-811.03515625,47.36328125,182.12890625,-599.609375,0.0
1733977636.6554942,319.82421875,-5.859375,29.78515625,474.12109375,0.0
1733977636.6593997,-1000.0,-44.43359375,-375.48828125,-987.79296875,0.0
1733977636.6633055,-889.16015625,-18.5546875,-560.546875,405.76171875,0.0
1733977636.667211,532.71484375,45.41015625,-280.2734375,-685.05859375,0.0
1733977636.6711166,-827.1484375,73.2421875,182.6171875,-683.10546875,0.0
1733977636.6750224,595.21484375,23.4375,142.08984375,349.12109375,0.0
1733977636.678928,-882.32421875,-53.7109375,-464.35546875,995.1171875,0.0
1733977636.6828334,-965.33203125,-36.1328125,-706.54296875,570.3125,0.0
1733977636.6867392,518.5546875,63.96484375,-84.47265625,-551.26953125,0.0
1733977636.6906576,-852.05078125,80.078125,366.2109375,-749.51171875,0.0
1733977636.6945634,718.75,8.30078125,93.75,233.3984375,0.0
1733977636.698469,-719.23828125,-41.015625,-367.1875,969.7265625,0.0
1733977636.7023745,-1000.0,-14.16015625,-502.44140625,660.64453125,0.0
1733977636.7062802,350.5859375,44.921875,-158.203125,-433.59375,0.0
1733977636.7101858,-860.3515625,62.98828125,208.0078125,-754.39453125,0.0
1733977636.7140915,804.19921875,26.3671875,171.38671875,148.92578125,0.0
1733977636.717997,-572.75390625,-24.90234375,-239.74609375,947.75390625,0.0
1733977636.7219026,-1000.0,-18.06640625,-502.9296875,834.47265625,0.0
1733977636.7258084,120.1171875,33.203125,-261.71875,-190.91796875,0.0
1733977636.729714,-875.0,75.1953125,204.1015625,-689.453125,0.0
1733977636.7336197,806.640625,51.7578125,250.0,112.3046875,0.0
1733977636.737537,-544.921875,-17.578125,-182.6171875,921.38671875,0.0
1733977636.7414427,-1000.0,-26.85546875,-632.8125,951.171875,0.0
1733977636.7453482,-264.6484375,56.15234375,-289.0625,66.89453125,0.0
1733977636.7492537,-977.05078125,114.74609375,335.44921875,-560.546875,0.0
1733977636.7531595,847.16796875,64.453125,254.39453125,151.3671875,0.0
1733977636.757065,-555.17578125,-20.99609375,-363.76953125,915.0390625,0.0
1733977636.7609708,-1000.0,-29.78515625,-619.62890625,995.60546875,0.0
1733977636.7648764,-590.33203125,41.50390625,-270.5078125,302.24609375,0.0
1733977636.768782,846.19140625,95.21484375,199.70703125,-418.45703125,0.0
1733977636.7726877,987.3046875,60.546875,80.56640625,169.43359375,0.0
1733977636.7765932,-444.82421875,12.20703125,-97.65625,907.2265625,0.0
1733977636.7804987,-1000.0,-4.39453125,-341.796875,-989.74609375,0.0
1733977636.7844243,-734.375,34.1796875,-405.2734375,506.8359375,0.0
1733977636.7883298,685.05859375,91.30859375,-52.24609375,-278.3203125,0.0
1733977636.7922356,-897.4609375,88.37890625,266.6015625,152.83203125,0.0
1733977636.7961411,-294.43359375,20.01953125,75.1953125,901.85546875,0.0
1733977636.8000467,-1000.0,-15.13671875,-419.43359375,971.19140625,0.0
1733977636.8039525,-719.7265625,24.4140625,-401.85546875,579.58984375,0.0
1733977636.807858,570.3125,89.35546875,175.29296875,-209.9609375,0.0
1733977636.8117638,-839.84375,86.42578125,342.7734375,53.22265625,0.0
1733977636.8156693,69.3359375,18.06640625,8.30078125,856.93359375,0.0
1733977636.8195748,-1000.0,-14.16015625,-426.7578125,-969.23828125,0.0
1733977636.8234806,-856.4453125,28.3203125,-439.94140625,750.9765625,0.0
1733977636.8273861,517.578125,97.16796875,81.54296875,-127.9296875,0.0
1733977636.8313017,-812.98828125,89.35546875,257.32421875,-18.06640625,0.0
1733977636.8352072,428.22265625,33.69140625,30.2734375,830.56640625,0.0
1733977636.839113,-980.46875,-0.9765625,-307.12890625,-969.23828125,0.0
1733977636.8430185,-907.2265625,26.85546875,-413.0859375,812.01171875,0.0
1733977636.846924,542.96875,97.65625,-63.4765625,-108.3984375,0.0
1733977636.8508298,-838.37890625,113.76953125,250.48828125,-213.8671875,0.0
1733977636.8547354,644.53125,64.453125,125.0,699.70703125,0.0
1733977636.8586411,-817.3828125,13.671875,-330.078125,-963.8671875,0.0
1733977636.8625467,-1000.0,23.92578125,-599.609375,764.6484375,0.0
1733977636.8664522,440.4296875,96.6796875,-160.64453125,-182.6171875,0.0
1733977636.870358,-854.98046875,123.046875,359.86328125,-487.3046875,0.0
1733977636.8742635,763.671875,49.8046875,178.22265625,387.6953125,0.0
1733977636.8781786,-644.04296875,-26.85546875,-350.5859375,997.55859375,0.0
1733977636.8820841,-1000.0,-6.8359375,-516.11328125,762.6953125,0.0
1733977636.88599,252.44140625,66.40625,-125.0,-325.1953125,0.0
1733977636.8898954,-857.91015625,87.890625,260.7421875,-835.9375,0.0
1733977636.893801,806.15234375,32.2265625,-9.765625,-7.8125,0.0
1733977636.8977067,-553.7109375,-20.99609375,-391.11328125,904.296875,0.0
1733977636.9016123,-1000.0,-3.41796875,-486.81640625,702.1484375,0.0
1733977636.905518,-39.55078125,54.19921875,-234.86328125,-421.875,0.0
1733977636.9094236,-910.15625,89.84375,245.1171875,-1000.0,0.0
1733977636.9133291,819.82421875,52.24609375,283.203125,-423.828125,0.0
1733977636.917235,-546.875,-17.578125,-162.59765625,648.4375,0.0
1733977636.9211404,-1000.0,-21.97265625,-554.6875,576.66015625,0.0
1733977636.9250538,-416.9921875,45.8984375,-302.24609375,-497.55859375,0.0
1733977636.9289596,953.61328125,100.5859375,292.48046875,-1000.0,0.0
1733977636.9328651,902.34375,59.08203125,286.1328125,-683.59375,0.0
1733977636.936771,-519.04296875,-25.87890625,-279.78515625,352.5390625,0.0
1733977636.9406765,-1000.0,-14.16015625,-558.59375,462.40234375,0.0
1733977636.944582,-668.45703125,54.19921875,-315.91796875,-527.83203125,0.0
1733977636.9484878,771.484375,89.35546875,143.06640625,-1000.0,0.0
1733977636.9523933,-962.40234375,58.10546875,44.43359375,-829.1015625,0.0
1733977636.956299,-389.6484375,-0.48828125,-165.52734375,134.765625,0.0
1733977636.9602046,-1000.0,-20.5078125,-410.64453125,421.38671875,0.0
1733977636.9641101,-816.89453125,28.3203125,-414.55078125,-485.83984375,0.0
1733977636.968016,580.56640625,76.171875,-75.68359375,-1000.0,0.0
1733977636.9719286,-867.1875,74.70703125,251.953125,-941.40625,0.0
1733977636.9758341,-225.5859375,12.6953125,103.02734375,-60.05859375,0.0
1733977636.9797397,-1000.0,-35.64453125,-488.28125,415.52734375,0.0
1733977636.9836454,-836.9140625,10.25390625,-422.8515625,-387.20703125,0.0
1733977636.987551,517.08984375,79.1015625,190.91796875,-1000.0,0.0
1733977636.9914567,-816.89453125,63.96484375,262.20703125,-972.65625,0.0
1733977636.9953623,117.1875,-8.7890625,-80.078125,-117.67578125,0.0
1733977636.9992678,-1000.0,-52.24609375,-606.93359375,546.38671875,0.0
1733977637.0031736,-861.81640625,5.859375,-520.99609375,-152.34375,0.0
1733977637.0070791,518.5546875,75.68359375,49.31640625,-947.75390625,0.0
1733977637.0109847,-812.01171875,61.5234375,240.234375,-1000.0,0.0
1733977637.0148904,477.5390625,7.32421875,71.77734375,-182.6171875,0.0
1733977637.0188022,-932.12890625,-39.0625,-343.75,594.23828125,0.0
1733977637.022708,-985.3515625,-17.08984375,-482.421875,28.3203125,0.0
1733977637.0266135,434.08203125,46.875,-112.3046875,-890.625,0.0
1733977637.0305192,-827.1484375,63.96484375,279.296875,-1000.0,0.0
1733977637.0344248,652.34375,7.8125,152.83203125,-229.98046875,0.0
1733977637.0383303,-775.390625,-67.87109375,-427.24609375,648.4375,0.0
1733977637.042236,-1000.0,-58.59375,-744.140625,285.15625,0.0
1733977637.0461416,290.0390625,34.66796875,-177.24609375,-766.11328125,0.0
1733977637.0500474,-850.09765625,74.70703125,344.7265625,-1000.0,0.0
1733977637.053953,775.87890625,17.578125,91.796875,-249.51171875,0.0
1733977637.0578585,-609.86328125,-36.1328125,-366.69921875,680.17578125,0.0
1733977637.0617642,-1000.0,-25.87890625,-554.19921875,450.1953125,0.0
1733977637.0656748,97.16796875,44.43359375,-147.4609375,-610.3515625,0.0
1733977637.0695803,-878.90625,81.54296875,305.17578125,-1000.0,0.0
1733977637.073486,809.5703125,29.296875,236.328125,-327.1484375,0.0
1733977637.0773916,-546.38671875,-44.921875,-185.546875,742.67578125,0.0
1733977637.0812974,-1000.0,-41.015625,-446.77734375,633.7890625,0.0
1733977637.085203,-261.71875,15.13671875,-323.2421875,-449.21875,0.0
1733977637.0891085,-975.5859375,46.875,28.80859375,-1000.0,0.0
1733977637.0930142,844.7265625,28.3203125,270.99609375,-410.15625,0.0
1733977637.0969198,-557.6171875,-41.9921875,-70.80078125,705.078125,0.0
1733977637.1008255,-1000.0,-63.4765625,-485.3515625,773.92578125,0.0
1733977637.104731,-584.47265625,3.41796875,-256.8359375,-263.671875,0.0
1733977637.1086366,856.93359375,58.59375,289.55078125,-999.0234375,0.0
1733977637.1125543,0.0,26.85546875,273.4375,-526.3671875,0.0
1733977637.11646,0.0,-40.52734375,-172.36328125,629.8828125,0.0
1733977637.1203656,0.0,-52.24609375,-496.58203125,881.8359375,0.0
1733977637.1242714,0.0,8.30078125,-286.1328125,-61.5234375,0.0
1733977637.128177,0.0,72.75390625,240.234375,-936.5234375,0.0
1733977637.1320825,0.0,39.0625,131.34765625,-546.875,0.0
1733977637.1359882,0.0,-26.85546875,-109.86328125,604.4921875,0.0
1733977637.1398938,0.0,-41.50390625,-353.515625,-994.62890625,0.0
1733977637.1437995,0.0,-0.9765625,-391.6015625,181.15234375,0.0
1733977637.147705,0.0,45.41015625,-47.8515625,-804.6875,0.0
1733977637.1516106,0.0,45.8984375,262.20703125,-542.96875,0.0
1733977637.1555164,0.0,-16.11328125,111.328125,544.43359375,0.0
1733977637.159441,-1000.0,-62.5,-457.03125,-976.07421875,0.0
1733977637.1633465,-855.46875,-20.5078125,-421.38671875,377.44140625,0.0
1733977637.1672523,518.06640625,43.45703125,208.49609375,-699.70703125,0.0
1733977637.1711578,-812.5,32.71484375,336.42578125,-626.46484375,0.0
1733977637.1750634,384.27734375,-34.66796875,37.109375,454.58984375,0.0
1733977637.1789691,-996.58203125,-79.58984375,-451.171875,-975.09765625,0.0
1733977637.1828747,-904.78515625,-37.109375,-529.296875,542.96875,0.0
1733977637.1867805,531.25,37.59765625,-5.859375,-565.4296875,0.0
1733977637.190686,-830.078125,33.69140625,210.9375,-657.2265625,0.0
1733977637.1945915,611.328125,-26.3671875,-70.3125,356.93359375,0.0
1733977637.1984973,-838.37890625,-61.5234375,-336.9140625,994.62890625,0.0
1733977637.2024028,-1000.0,-37.109375,-446.77734375,630.37109375,0.0
1733977637.2063184,407.71484375,22.94921875,-124.51171875,-464.35546875,0.0
1733977637.210224,-843.26171875,47.8515625,294.921875,-719.7265625,0.0
1733977637.2141294,729.4921875,2.9296875,221.19140625,207.03125,0.0
1733977637.2180352,-684.5703125,-56.15234375,-276.85546875,959.47265625,0.0
1733977637.2219408,-1000.0,-38.0859375,-584.47265625,740.234375,0.0
1733977637.2258465,240.234375,35.64453125,-235.3515625,-354.4921875,0.0
1733977637.229752,-858.3984375,82.03125,273.4375,-823.2421875,0.0
1733977637.2336576,803.22265625,39.0625,190.4296875,15.625,0.0
1733977637.2375634,-549.8046875,-40.0390625,-443.359375,915.52734375,0.0
1733977637.241469,-1000.0,-23.4375,-627.9296875,818.84765625,0.0
1733977637.2453747,-87.890625,48.828125,-199.21875,-265.625,0.0
1733977637.2492802,-922.36328125,80.56640625,246.09375,-899.90234375,0.0
1733977637.253212,825.68359375,27.83203125,-48.828125,-982.421875,0.0
1733977637.2571175,-549.8046875,-25.390625,-258.30078125,229.4921875,0.0
1733977637.2610233,-1000.0,-17.578125,-382.8125,-717.28515625,0.0
1733977637.2649288,-424.31640625,30.2734375,-306.640625,-377.44140625,0.0
1733977637.2688346,951.171875,82.51953125,209.9609375,692.3828125,0.0
1733977637.2727401,902.83203125,65.4296875,239.2578125,-964.84375,0.0
1733977637.2766457,-519.53125,1.953125,-141.6015625,401.85546875,0.0
1733977637.2805514,-1000.0,-13.671875,-486.328125,-615.72265625,0.0
1733977637.284457,-627.44140625,41.50390625,-408.203125,-465.33203125,0.0
1733977637.2883627,801.26953125,110.3515625,261.23046875,600.5859375,0.0
1733977637.2922683,-961.42578125,85.9375,382.8125,-964.84375,0.0
1733977637.2961738,-359.375,0.48828125,-74.70703125,501.46484375,0.0
1733977637.3000956,-1000.0,-25.390625,-449.70703125,0.0,0.0
1733977637.3040013,-744.62890625,41.50390625,-222.16796875,0.0,0.0
1733977637.3079069,642.578125,102.5390625,318.359375,0.0,0.0
1733977637.3118124,-857.91015625,77.63671875,328.125,0.0,0.0
1733977637.3157182,-89.35546875,10.25390625,103.515625,0.0,0.0
1733977637.3196237,-1000.0,-26.3671875,-340.8203125,0.0,0.0
1733977637.3235295,-837.40234375,7.32421875,-404.78515625,0.0,0.0
1733977637.327435,522.94921875,66.89453125,107.421875,0.0,0.0
1733977637.3313406,-812.98828125,62.98828125,327.63671875,0.0,0.0
1733977637.3352463,263.671875,-2.9296875,99.12109375,0.0,0.0
1733977637.3391519,-1000.0,-46.875,-365.234375,0.0,0.0
1733977637.3430574,-881.34765625,-10.7421875,-512.6953125,0.0,0.0
1733977637.3469784,528.80859375,76.171875,132.8125,-573.73046875,0.0
1733977637.3508842,-824.21875,76.171875,430.6640625,-594.23828125,0.0
1733977637.3547897,572.75390625,-4.8828125,123.046875,460.9375,0.0
1733977637.3586955,-898.92578125,-57.12890625,-478.02734375,-975.5859375,0.0
1733977637.362601,-950.68359375,0.9765625,-447.265625,612.3046875,0.0
1733977637.3665066,530.76171875,66.40625,56.640625,-480.46875,0.0
1733977637.3704123,-849.12109375,62.01171875,224.12109375,-659.66796875,0.0
1733977637.374318,698.73046875,14.16015625,-23.4375,330.078125,0.0
1733977637.3782237,-746.09375,-24.4140625,-256.34765625,991.2109375,0.0
1733977637.3821292,-1000.0,0.9765625,-344.7265625,673.33984375,0.0
1733977637.3860347,371.58203125,64.453125,-51.7578125,-425.29296875,0.0
1733977637.3899405,-857.91015625,92.28515625,326.171875,-752.9296875,0.0
1733977637.3938518,0.0,52.734375,290.0390625,158.69140625,0.0
1733977637.3977573,0.0,-24.4140625,-171.38671875,948.2421875,0.0
1733977637.4016628,0.0,-18.5546875,-516.6015625,834.9609375,0.0
1733977637.4055686,0.0,65.4296875,-98.6328125,-212.890625,0.0
1733977637.4094741,0.0,98.14453125,381.8359375,-708.49609375,0.0
1733977637.41338,0.0,39.55078125,168.45703125,130.37109375,0.0
1733977637.4172854,0.0,-26.85546875,-364.2578125,931.15234375,0.0
1733977637.421191,0.0,-8.7890625,-530.2734375,938.96484375,0.0
1733977637.4250968,0.0,62.5,-186.03515625,17.578125,0.0
1733977637.4290023,0.0,96.6796875,205.56640625,-653.80859375,0.0
1733977637.432908,0.0,43.9453125,-74.70703125,38.57421875,0.0
1733977637.4368136,0.0,-10.7421875,-270.5078125,897.4609375,0.0
1733977637.440724,-1000.0,-5.859375,-391.11328125,970.703125,0.0
1733977637.4446297,-541.50390625,45.8984375,-283.69140625,115.234375,0.0
1733977637.4485352,879.8828125,97.65625,269.04296875,-701.171875,0.0
1733977637.452441,965.33203125,68.84765625,324.21875,-159.1796875,0.0
1733977637.4563465,-460.9375,-2.44140625,-37.109375,822.75390625,0.0
1733977637.460252,-1000.0,-25.87890625,-538.57421875,-994.62890625,0.0
1733977637.4641578,-708.0078125,35.15625,-398.92578125,187.01171875,0.0
1733977637.4680634,720.703125,107.421875,269.53125,-760.25390625,0.0
1733977637.4719691,-924.8046875,72.265625,310.05859375,-370.1171875,0.0
1733977637.4758747,-326.171875,-13.671875,-120.60546875,713.8671875,0.0
1733977637.4797802,-1000.0,-36.1328125,-538.57421875,-981.4453125,0.0
1733977637.483686,-818.359375,36.1328125,-338.37890625,216.30859375,0.0
1733977637.4876034,552.24609375,105.95703125,239.2578125,-811.5234375,0.0
1733977637.4915092,-837.890625,75.1953125,235.83984375,-574.21875,0.0
1733977637.4954147,-57.6171875,12.20703125,17.08984375,533.203125,0.0
1733977637.4993205,-1000.0,-5.37109375,-311.03515625,-982.91015625,0.0
1733977637.503226,-847.65625,34.66796875,-393.5546875,333.0078125,0.0
1733977637.5071316,516.6015625,83.49609375,-31.25,-734.375,0.0
1733977637.5110373,-811.03515625,81.0546875,253.41796875,-634.765625,0.0
1733977637.514943,275.87890625,31.25,153.3203125,434.08203125,0.0
1733977637.5188487,-1000.0,-20.5078125,-378.41796875,-986.328125,0.0
1733977637.5227542,-889.16015625,0.9765625,-641.11328125,521.97265625,0.0
1733977637.5266597,520.01953125,85.44921875,-4.39453125,-590.33203125,0.0
1733977637.5305655,-820.80078125,91.796875,402.34375,-687.01171875,0.0
1733977637.534482,0.0,18.5546875,101.5625,350.09765625,0.0
1733977637.5383878,0.0,-42.96875,-409.1796875,-997.0703125,0.0
1733977637.5422933,0.0,-15.625,-446.2890625,639.6484375,0.0
1733977637.546199,0.0,60.546875,25.87890625,-478.515625,0.0
1733977637.5501046,0.0,79.1015625,321.77734375,-729.4921875,0.0
1733977637.5540102,0.0,16.6015625,56.640625,263.671875,0.0
1733977637.557916,0.0,-35.15625,-388.18359375,980.46875,0.0
1733977637.5618215,0.0,-7.32421875,-469.7265625,732.91015625,0.0
1733977637.5657272,0.0,47.36328125,-159.1796875,-346.6796875,0.0
1733977637.5696328,0.0,83.0078125,261.23046875,-792.48046875,0.0
1733977637.5735383,0.0,52.24609375,233.3984375,62.01171875,0.0
1733977637.577444,0.0,-12.20703125,-208.984375,926.26953125,0.0
1733977637.58136,-1000.0,-12.6953125,-591.796875,844.23828125,0.0
1733977637.5852656,-37.59765625,53.7109375,-251.953125,-229.98046875,0.0
1733977637.5891714,-910.15625,94.23828125,339.35546875,-855.95703125,0.0
1733977637.593077,820.80078125,42.96875,197.265625,-94.7265625,0.0
1733977637.5969827,-548.828125,-37.59765625,-406.73828125,879.8828125,0.0
1733977637.6008883,-1000.0,-43.45703125,-618.65234375,911.62109375,0.0
1733977637.604794,-382.8125,20.99609375,-282.2265625,-106.4453125,0.0
1733977637.6086996,972.16796875,72.265625,238.76953125,-864.2578125,0.0
1733977637.612605,884.765625,18.5546875,-41.015625,-208.0078125,0.0
1733977637.6165109,-533.69140625,-46.875,-401.3671875,834.9609375,0.0
1733977637.6204164,-1000.0,-32.2265625,-407.71484375,959.9609375,0.0
1733977637.6243222,-626.953125,12.20703125,-323.73046875,17.578125,0.0
1733977637.6282449,810.546875,51.7578125,78.125,-875.9765625,0.0
1733977637.6321507,-979.4921875,39.55078125,265.625,-421.38671875,0.0
1733977637.6360562,-397.4609375,-23.92578125,-25.87890625,704.1015625,0.0
1733977637.6399617,-1000.0,-50.78125,-489.74609375,993.65234375,0.0
1733977637.6438675,-760.7421875,-0.9765625,-351.07421875,83.984375,0.0
1733977637.647773,648.92578125,54.19921875,220.703125,-895.01953125,0.0
1733977637.6516788,-880.37109375,32.2265625,267.08984375,-545.8984375,0.0
1733977637.6555843,-229.4921875,-41.9921875,-104.4921875,586.42578125,0.0
1733977637.6594899,-1000.0,-63.96484375,-581.54296875,-989.2578125,0.0
1733977637.6633956,-837.40234375,10.25390625,-363.28125,224.12109375,0.0
1733977637.6673012,518.06640625,79.58984375,231.93359375,-850.09765625,0.0
1733977637.671207,-818.359375,60.05859375,304.19921875,-696.77734375,0.0
1733977637.6751366,94.23828125,-2.9296875,88.8671875,547.36328125,0.0
1733977637.679042,-1000.0,-43.9453125,-322.265625,-621.58203125,0.0
1733977637.6829476,-865.72265625,-14.16015625,-418.45703125,-974.12109375,0.0
1733977637.6868534,525.87890625,57.6171875,-4.8828125,-60.05859375,0.0
1733977637.690759,-814.453125,78.125,300.29296875,890.625,0.0
1733977637.6946647,330.56640625,12.6953125,16.11328125,626.953125,0.0
1733977637.6985703,-1000.0,-33.203125,-491.69921875,-518.5546875,0.0
1733977637.7024758,-923.828125,7.8125,-569.82421875,-1000.0,0.0
1733977637.7063816,485.3515625,76.66015625,-47.36328125,-242.67578125,0.0
1733977637.710287,-827.63671875,83.984375,310.05859375,829.1015625,0.0
1733977637.7141929,639.16015625,27.83203125,123.046875,730.95703125,0.0
1733977637.7180984,-797.8515625,-30.2734375,-519.53125,-370.60546875,0.0
1733977637.7220366,0.0,-5.37109375,-536.1328125,0.0,0.0
1733977637.7259424,0.0,22.94921875,50.29296875,0.0,0.0
1733977637.729848,0.0,-3.90625,282.71484375,0.0,0.0
1733977637.7337537,0.0,-74.70703125,-29.78515625,0.0,0.0
1733977637.7376592,0.0,-118.1640625,-276.85546875,0.0,0.0
1733977637.7415648,0.0,-97.16796875,-472.16796875,0.0,0.0
1733977637.7454705,0.0,-26.85546875,-164.55078125,0.0,0.0
1733977637.749376,0.0,14.6484375,336.9140625,0.0,0.0
1733977637.7532818,0.0,-30.76171875,265.625,0.0,0.0
1733977637.7571874,0.0,-96.19140625,-111.81640625,0.0,0.0
1733977637.761093,0.0,-96.6796875,-520.01953125,0.0,0.0
1733977637.7649987,0.0,-21.484375,-223.6328125,0.0,0.0
1733977637.7689197,-931.640625,44.43359375,379.8828125,0.0,0.0
1733977637.7728255,829.1015625,1.46484375,304.6875,0.0,0.0
1733977637.776731,-550.78125,-82.03125,-221.19140625,0.0,0.0
1733977637.7806365,-1000.0,-66.89453125,-477.05078125,0.0,0.0
1733977637.7845423,-455.56640625,6.34765625,-129.39453125,0.0,0.0
1733977637.7884479,919.921875,48.828125,266.6015625,0.0,0.0
1733977637.7923536,955.078125,17.578125,133.30078125,0.0,0.0
1733977637.7962592,-442.87109375,-33.69140625,-7.8125,0.0,0.0
1733977637.8001647,-1000.0,-49.31640625,-343.26171875,0.0,0.0
1733977637.8040705,-669.921875,-4.39453125,-363.76953125,0.0,0.0
1733977637.807976,752.9296875,62.98828125,159.66796875,0.0,0.0
1733977637.8118818,-926.26953125,51.7578125,343.75,0.0,0.0
1733977637.815792,-304.6875,-13.18359375,0.0,504.8828125,0.0
1733977637.8196979,-1000.0,-48.828125,0.0,853.515625,0.0
1733977637.8236034,-806.640625,-6.34765625,0.0,-47.8515625,0.0
1733977637.8275092,569.82421875,65.4296875,0.0,-950.68359375,0.0
1733977637.8314147,-839.84375,49.8046875,0.0,-797.8515625,0.0
1733977637.8353202,-53.7109375,-32.2265625,0.0,351.5625,0.0
1733977637.839226,-1000.0,-78.61328125,0.0,943.359375,0.0
1733977637.8431315,-850.5859375,-10.7421875,0.0,106.4453125,0.0
1733977637.8470373,520.5078125,69.3359375,0.0,-917.96875,0.0
1733977637.8509429,-813.4765625,41.015625,0.0,-874.51171875,0.0
1733977637.8548484,230.46875,-33.203125,0.0,220.703125,0.0
1733977637.8587542,-1000.0,-50.78125,0.0,906.25,0.0
1733977637.8626974,-854.4921875,-11.23046875,330.56640625,-1000.0,0.0
1733977637.866603,790.0390625,53.7109375,0.0,-133.7890625,0.0
1733977637.8705087,-570.3125,74.70703125,-231.4453125,875.0,0.0
1733977637.8744142,-1000.0,17.08984375,-375.0,692.3828125,0.0
1733977637.87832,-62.01171875,-39.0625,-173.828125,-442.87109375,0.0
1733977637.8822255,-916.015625,-20.01953125,242.1875,-1000.0,0.0
1733977637.886131,823.73046875,53.22265625,207.03125,-306.15234375,0.0
1733977637.8900368,-549.8046875,76.171875,-93.75,786.1328125,0.0
1733977637.8939424,-1000.0,9.765625,-494.140625,748.046875,0.0
1733977637.8978481,-393.5546875,-58.10546875,-278.3203125,-338.37890625,0.0
1733977637.9017537,973.14453125,-24.4140625,314.94140625,-1000.0,0.0
1733977637.9056592,872.55859375,49.8046875,261.23046875,-481.93359375,0.0
1733977637.909579,0.0,66.40625,0.0,0.0,0.0
1733977637.9134846,0.0,6.34765625,0.0,0.0,0.0
1733977637.9173903,0.0,-39.0625,0.0,0.0,0.0
1733977637.921296,0.0,-16.6015625,0.0,0.0,0.0
1733977637.9252014,0.0,38.57421875,0.0,0.0,0.0
1733977637.9291072,0.0,70.80078125,0.0,0.0,0.0
1733977637.9330127,0.0,40.0390625,0.0,0.0,0.0
1733977637.9369185,0.0,-19.04296875,0.0,0.0,0.0
1733977637.940824,0.0,-24.90234375,0.0,0.0,0.0
1733977637.9447298,0.0,45.8984375,0.0,0.0,0.0
1733977637.9486353,0.0,106.4453125,0.0,0.0,0.0
1733977637.9525409,0.0,61.5234375,0.0,0.0,0.0
1733977637.9564564,-556.15234375,-20.01953125,-219.23828125,651.85546875,0.0
1733977637.9603622,-1000.0,-22.94921875,-512.20703125,745.60546875,0.0
1733977637.9642677,-637.6953125,41.9921875,-233.88671875,-268.06640625,0.0
1733977637.9681735,813.96484375,93.75,289.0625,-1000.0,0.0
1733977637.972079,999.0234375,52.24609375,98.6328125,-640.13671875,0.0
1733977637.9759846,-448.73046875,-13.671875,-268.5546875,495.1171875,0.0
1733977637.9798903,-1000.0,-22.4609375,-418.45703125,787.109375,0.0
1733977637.983796,-780.2734375,20.5078125,-303.7109375,-154.296875,0.0
1733977637.9877017,632.8125,53.22265625,42.48046875,-972.65625,0.0
1733977637.9916072,-889.6484375,57.12890625,179.19921875,-759.765625,0.0
1733977637.9955127,-285.15625,15.13671875,91.30859375,305.17578125,0.0
1733977637.9994185,-1000.0,-35.15625,-389.16015625,758.7890625,0.0
1733977638.003333,-832.03125,10.7421875,-363.76953125,-76.66015625,0.0
1733977638.0072386,515.13671875,81.0546875,260.7421875,-953.61328125,0.0
1733977638.0111442,-817.3828125,61.5234375,329.58984375,-912.109375,0.0
1733977638.01505,91.30859375,-3.90625,-24.90234375,83.49609375,0.0
1733977638.0189555,-1000.0,-31.73828125,-400.390625,712.890625,0.0
1733977638.0228612,-857.91015625,-1.46484375,-460.44921875,-13.671875,0.0
1733977638.0267668,517.08984375,64.453125,57.12890625,-921.875,0.0
1733977638.0306726,-813.4765625,56.15234375,223.6328125,-989.74609375,0.0
1733977638.034578,479.4921875,-14.16015625,-230.46875,-75.1953125,0.0
1733977638.0384836,-951.66015625,-34.1796875,-407.71484375,699.21875,0.0
1733977638.0423894,-935.546875,-0.9765625,-356.4453125,96.6796875,0.0
1733977638.046295,517.08984375,49.31640625,-28.3203125,-876.46484375,0.0
1733977638.0502088,-837.40234375,61.5234375,315.91796875,-1000.0,0.0
1733977638.0541143,656.25,5.859375,200.1953125,-151.85546875,0.0
1733977638.0580199,-793.9453125,-50.29296875,-323.73046875,742.1875,0.0
1733977638.0619256,-1000.0,-25.87890625,-567.3828125,297.36328125,0.0
1733977638.0658312,388.671875,48.33984375,-83.0078125,-771.97265625,0.0
1733977638.069737,-854.00390625,67.3828125,315.91796875,-1000.0,0.0
1733977638.0736425,772.94921875,15.13671875,117.1875,-249.0234375,0.0
1733977638.0775483,-630.859375,-50.29296875,-484.86328125,740.234375,0.0
1733977638.0814538,-1000.0,-26.85546875,-549.31640625,412.59765625,0.0
1733977638.0853593,232.91015625,51.7578125,-70.80078125,-694.3359375,0.0
1733977638.089265,-857.91015625,80.078125,294.43359375,-1000.0,0.0
1733977638.0931706,803.22265625,33.69140625,224.609375,-416.50390625,0.0
1733977638.097083,0.0,-25.390625,-100.09765625,604.4921875,0.0
1733977638.1009886,0.0,-15.625,-384.765625,487.3046875,0.0
1733977638.1048944,0.0,42.48046875,-168.9453125,-572.75390625,0.0
1733977638.1088,0.0,87.890625,325.68359375,-1000.0,0.0
1733977638.1127055,0.0,57.6171875,285.15625,-503.41796875,0.0
1733977638.1166112,0.0,-31.25,-164.0625,607.91015625,0.0
1733977638.1205168,0.0,-62.5,-533.69140625,700.68359375,0.0
1733977638.1244226,0.0,-15.13671875,-410.15625,-323.73046875,0.0
1733977638.128328,0.0,54.19921875,265.625,-1000.0,0.0
1733977638.1322339,0.0,20.5078125,311.03515625,-539.0625,0.0
1733977638.1361394,0.0,-58.10546875,-101.5625,632.8125,0.0
1733977638.140045,0.0,-55.6640625,-397.4609375,864.2578125,0.0
1733977638.1439567,-676.26953125,3.90625,-235.3515625,-123.046875,0.0
1733977638.1478624,755.37109375,51.26953125,279.296875,-961.9140625,0.0
1733977638.151768,-941.40625,20.99609375,269.04296875,-609.375,0.0
1733977638.1556735,-347.16796875,-35.15625,21.97265625,553.22265625,0.0
1733977638.1595793,-1000.0,-43.45703125,-338.37890625,941.40625,0.0
1733977638.1634848,-809.08203125,4.8828125,-395.99609375,34.66796875,0.0
1733977638.1673906,565.91796875,53.22265625,52.734375,-917.48046875,0.0
1733977638.1712961,-842.28515625,55.6640625,308.59375,-703.125,0.0
1733977638.1752017,-82.03125,3.41796875,107.91015625,386.71875,0.0
1733977638.1791074,-1000.0,-39.55078125,-454.1015625,914.55078125,0.0
1733977638.183013,-845.21484375,11.23046875,-383.30078125,128.41796875,0.0
1733977638.1869187,516.11328125,90.8203125,250.0,-901.3671875,0.0
1733977638.190829,-812.01171875,76.171875,354.00390625,-868.65234375,0.0
1733977638.1947346,257.32421875,-1.953125,55.6640625,188.96484375,0.0
1733977638.1986403,-1000.0,-41.015625,-368.1640625,854.4921875,0.0
1733977638.202546,-879.8828125,-2.44140625,-378.90625,175.78125,0.0
1733977638.2064514,527.83203125,59.5703125,134.27734375,-867.67578125,0.0
1733977638.2103572,-822.265625,53.22265625,224.609375,-965.8203125,0.0
1733977638.2142627,567.3828125,-3.90625,-97.16796875,8.30078125,0.0
1733977638.2181685,-884.27734375,-41.9921875,-318.84765625,806.640625,0.0
1733977638.222074,-994.62890625,-14.6484375,-380.859375,267.578125,0.0
1733977638.2259798,458.0078125,48.828125,-53.7109375,-800.29296875,0.0
1733977638.2298853,-841.796875,72.265625,312.01171875,-1000.0,0.0
1733977638.2337909,704.58984375,30.2734375,240.234375,-132.32421875,0.0
1733977638.2377083,-726.07421875,-27.83203125,-242.67578125,841.796875,0.0
1733977638.2416139,-1000.0,-15.13671875,-526.85546875,504.39453125,0.0
1733977638.2455196,317.3828125,53.7109375,-78.125,-657.71484375,0.0
1733977638.2494252,-859.375,78.61328125,373.046875,-1000.0,0.0
1733977638.253331,700.68359375,15.13671875,113.76953125,-78.125,0.0
1733977638.2572365,-608.3984375,-64.94140625,-497.55859375,894.04296875,0.0
1733977638.2611423,-1000.0,-43.9453125,-558.10546875,727.05078125,0.0
1733977638.2650478,76.66015625,33.203125,-44.43359375,-390.13671875,0.0
1733977638.2689533,-877.9296875,59.08203125,294.921875,-968.75,0.0
1733977638.272859,809.5703125,5.859375,-38.57421875,-181.15234375,0.0
1733977638.2767646,-545.41015625,-45.41015625,-233.88671875,858.88671875,0.0
1733977638.2806704,-1000.0,-35.15625,-386.23046875,843.75,0.0
1733977638.2845867,-286.1328125,27.34375,-237.79296875,-205.078125,0.0
1733977638.2884922,-988.28125,77.1484375,279.296875,-884.27734375,0.0
1733977638.2923977,863.28125,44.921875,287.59765625,-224.609375,0.0
1733977638.2963035,-537.109375,-18.5546875,-78.61328125,819.3359375,0.0
1733977638.300209,-1000.0,-26.85546875,-484.86328125,958.984375,0.0
1733977638.3041148,-588.37890625,26.3671875,-367.1875,37.109375,0.0
1733977638.3080204,843.75,78.61328125,200.68359375,-791.9921875,0.0
1733977638.311926,996.09375,54.6875,267.08984375,-312.98828125,0.0
1733977638.3158317,-425.78125,-25.390625,-144.04296875,757.8125,0.0
1733977638.3197372,-1000.0,-48.33984375,-566.40625,-990.234375,0.0
1733977638.323643,-729.4921875,22.94921875,-304.6875,163.57421875,0.0
1733977638.3275485,683.10546875,83.984375,264.6484375,-772.94921875,0.0
1733977638.3314722,-894.04296875,63.4765625,265.13671875,-417.48046875,0.0
1733977638.335378,-251.953125,4.39453125,17.08984375,667.48046875,0.0
1733977638.3392835,-1000.0,-25.390625,-356.93359375,-976.5625,0.0
1733977638.3431892,-824.70703125,9.27734375,-330.56640625,279.296875,0.0
1733977638.3470948,534.1796875,67.3828125,176.26953125,-739.2578125,0.0
1733977638.3510003,-823.2421875,54.19921875,282.71484375,-539.55078125,0.0
1733977638.354906,64.94140625,-17.08984375,1.46484375,542.48046875,0.0
1733977638.3588116,-1000.0,-50.78125,-365.234375,-978.515625,0.0
1733977638.3627174,-855.95703125,-19.04296875,-581.54296875,420.41015625,0.0
1733977638.366623,516.6015625,60.05859375,-55.17578125,-651.85546875,0.0
1733977638.3705287,-812.98828125,70.3125,357.421875,-646.484375,0.0
1733977638.3744342,446.77734375,6.8359375,95.703125,396.484375,0.0
1733977638.3783484,-972.16796875,-33.203125,-336.9140625,-995.60546875,0.0
1733977638.3822541,-912.109375,1.953125,-362.79296875,546.875,0.0
1733977638.3861597,541.9921875,64.94140625,112.79296875,-544.43359375,0.0
1733977638.3900654,-838.37890625,68.84765625,352.5390625,-685.05859375,0.0
1733977638.393971,645.99609375,11.23046875,168.9453125,301.7578125,0.0
1733977638.3978765,-805.6640625,-47.36328125,-368.65234375,985.83984375,0.0
1733977638.4017823,-1000.0,-18.5546875,-485.83984375,658.69140625,0.0
1733977638.4056878,400.390625,42.48046875,-41.50390625,-419.43359375,0.0
1733977638.4095936,-847.16796875,55.17578125,307.6171875,-737.3046875,0.0
1733977638.413499,745.60546875,10.7421875,223.14453125,145.01953125,0.0
1733977638.417405,-658.203125,-44.921875,-235.3515625,937.01171875,0.0
1733977638.4213104,-1000.0,-37.109375,-580.56640625,718.75,0.0
1733977638.4252236,207.51953125,33.203125,-203.61328125,-377.44140625,0.0
1733977638.4291294,-861.81640625,72.75390625,335.44921875,-900.87890625,0.0
1733977638.433035,804.6875,9.765625,159.66796875,-106.93359375,0.0
1733977638.4369404,-549.31640625,-64.94140625,-389.6484375,866.2109375,0.0
1733977638.4408462,-1000.0,-47.8515625,-515.625,723.14453125,0.0
1733977638.4447517,-122.0703125,17.08984375,-196.77734375,-363.28125,0.0
1733977638.4486575,-930.6640625,52.734375,202.1484375,-979.00390625,0.0
1733977638.452563,827.63671875,9.765625,6.34765625,-331.54296875,0.0
1733977638.4564688,-549.31640625,-43.9453125,-341.796875,729.98046875,0.0
1733977638.4603744,-1000.0,-32.2265625,-440.91796875,726.07421875,0.0
1733977638.46428,-488.28125,19.53125,-271.484375,-315.4296875,0.0
1733977638.4681857,925.29296875,53.22265625,114.2578125,-1000.0,0.0
1733977638.472098,914.55078125,36.62109375,281.25,-545.41015625,0.0
1733977638.4760036,-524.90234375,-25.87890625,4.8828125,582.03125,0.0
1733977638.4799094,-1000.0,-52.734375,-459.47265625,792.48046875,0.0
1733977638.483815,-668.9453125,3.90625,-305.6640625,-187.01171875,0.0
1733977638.4877207,768.5546875,56.15234375,261.23046875,-979.4921875,0.0
1733977638.4916263,-957.51953125,19.53125,245.60546875,-642.08984375,0.0
1733977638.4955318,-378.90625,-61.03515625,-176.26953125,476.5625,0.0
1733977638.4994376,-1000.0,-88.8671875,-646.484375,835.9375,0.0
1733977638.503343,-801.26953125,-21.484375,-361.328125,-78.61328125,0.0
1733977638.5072489,587.890625,36.62109375,260.7421875,-954.58984375,0.0
1733977638.5111544,-857.421875,0.0,256.8359375,-741.2109375,0.0
1733977638.51506,-162.59765625,-71.2890625,11.71875,332.03125,0.0
1733977638.5189714,-1000.0,-94.7265625,-348.6328125,854.98046875,0.0
1733977638.522877,-838.8671875,-50.29296875,-413.57421875,94.7265625,0.0
1733977638.5267828,515.13671875,4.39453125,13.18359375,-890.13671875,0.0
1733977638.5306883,-813.96484375,1.953125,296.875,-800.29296875,0.0
1733977638.534594,196.2890625,-55.17578125,107.91015625,248.53515625,0.0
1733977638.5384996,-1000.0,-103.02734375,-455.078125,895.01953125,0.0
1733977638.5424051,-872.0703125,-69.3359375,-694.82421875,257.32421875,0.0
1733977638.546311,523.92578125,13.671875,-84.9609375,-816.89453125,0.0
1733977638.5502164,-817.87109375,20.01953125,319.3359375,-850.09765625,0.0
1733977638.5541222,525.390625,-42.96875,47.8515625,176.26953125,0.0
1733977638.5580277,-916.015625,-85.9375,-358.3984375,937.5,0.0
1733977638.5619333,-969.7265625,-45.41015625,-403.3203125,437.98828125,0.0
1733977638.5658436,481.93359375,25.390625,0.0,-678.7109375,0.0
1733977638.569749,-836.9140625,31.25,0.0,-868.65234375,0.0
1733977638.573655,674.31640625,-30.2734375,0.0,76.66015625,0.0
1733977638.5775604,-752.9296875,-84.47265625,0.0,925.78125,0.0
1733977638.5814662,-1000.0,-55.6640625,0.0,600.5859375,0.0
1733977638.5853717,295.8984375,2.9296875,0.0,-527.34375,0.0
1733977638.5892773,-851.5625,21.97265625,0.0,-840.33203125,0.0
1733977638.593183,779.296875,-6.34765625,0.0,33.69140625,0.0
1733977638.5970886,-600.09765625,-64.94140625,0.0,907.71484375,0.0
1733977638.6009943,-1000.0,-64.453125,0.0,719.7265625,0.0
1733977638.6049,71.77734375,10.25390625,0.0,-362.79296875,0.0
1733977638.6088057,-883.30078125,54.19921875,0.0,-879.39453125,0.0
1733977638.6127005,0.0,9.765625,27.34375,-127.44140625,0.0
1733977638.616606,0.0,-58.10546875,333.0078125,858.3984375,0.0
1733977638.6205118,0.0,-48.33984375,188.4765625,825.1953125,0.0
1733977638.6244173,0.0,17.578125,-271.97265625,-218.26171875,0.0
1733977638.628323,0.0,56.15234375,-452.63671875,-888.18359375,0.0
1733977638.6322286,0.0,1.46484375,-130.859375,-230.46875,0.0
1733977638.6361344,0.0,-63.96484375,177.24609375,814.453125,0.0
1733977638.64004,0.0,-47.8515625,220.703125,895.99609375,0.0
1733977638.6439455,0.0,1.953125,-170.41015625,-101.5625,0.0
1733977638.6478512,0.0,41.015625,-496.09375,-895.01953125,0.0
1733977638.6517568,0.0,35.64453125,-155.76171875,-406.73828125,0.0
1733977638.6556625,0.0,-22.4609375,305.17578125,687.5,0.0
1733977638.6595793,-1000.0,-49.31640625,-486.328125,927.24609375,0.0
1733977638.663485,-739.2578125,8.30078125,-332.51953125,-19.04296875,0.0
1733977638.6673906,684.08203125,73.2421875,260.25390625,-929.19921875,0.0
1733977638.6712964,-910.64453125,53.22265625,329.58984375,-617.67578125,0.0
1733977638.675202,-311.5234375,-22.94921875,-57.12890625,500.48828125,0.0
1733977638.6791074,-1000.0,-59.08203125,-527.34375,885.25390625,0.0
1733977638.6830132,-823.73046875,1.953125,-396.484375,29.296875,0.0
1733977638.6869187,541.50390625,80.078125,265.625,-910.64453125,0.0
1733977638.6908245,-832.51953125,58.59375,250.48828125,-737.3046875,0.0
1733977638.69473,-23.4375,-10.7421875,-264.6484375,331.54296875,0.0
1733977638.6986358,-1000.0,-24.90234375,-416.015625,855.95703125,0.0
1733977638.7025414,-846.19140625,16.6015625,-288.0859375,137.20703125,0.0
1733977638.7064567,512.20703125,68.84765625,127.9296875,-875.48828125,0.0
1733977638.7103622,-806.15234375,73.73046875,361.81640625,-870.1171875,0.0
1733977638.7142677,399.90234375,23.92578125,209.47265625,171.875,0.0
1733977638.7181735,-987.79296875,-26.3671875,-283.203125,847.65625,0.0
1733977638.722079,-803.7109375,5.859375,-483.3984375,200.68359375,0.0
1733977638.7259848,574.70703125,83.0078125,-9.27734375,-822.265625,0.0
1733977638.7298903,-851.5625,101.07421875,330.078125,-901.85546875,0.0
1733977638.7337961,640.625,48.828125,155.2734375,90.33203125,0.0
1733977638.7377017,-831.0546875,-14.16015625,-485.83984375,927.24609375,0.0
1733977638.7416072,-1000.0,37.59765625,-517.578125,495.60546875,0.0
1733977638.745513,441.40625,113.76953125,130.37109375,-627.9296875,0.0
1733977638.7494185,-850.5859375,106.4453125,326.171875,-857.421875,0.0
1733977638.7533329,747.0703125,45.41015625,65.4296875,79.1015625,0.0
1733977638.7572386,-664.0625,-0.48828125,-177.24609375,924.31640625,0.0
1733977638.7611442,-1000.0,16.6015625,-343.75,663.0859375,0.0
1733977638.76505,253.90625,75.68359375,-58.59375,-448.73046875,0.0
1733977638.7689555,-857.421875,112.3046875,372.55859375,-895.01953125,0.0
1733977638.772861,801.26953125,57.12890625,213.8671875,-69.3359375,0.0
1733977638.7767668,-546.875,-4.39453125,-205.078125,877.9296875,0.0
1733977638.7806723,-1000.0,6.8359375,-482.421875,751.953125,0.0
1733977638.784578,-113.76953125,59.5703125,-314.453125,-303.7109375,0.0
1733977638.7884836,-928.7109375,116.69921875,298.33984375,-902.83203125,0.0
1733977638.7923894,829.1015625,75.68359375,336.42578125,-202.63671875,0.0
1733977638.796295,-551.7578125,-3.41796875,-140.625,833.0078125,0.0
1733977638.8002083,-1000.0,-1.46484375,-420.41015625,825.68359375,0.0
1733977638.804114,-431.640625,52.734375,-151.85546875,-224.609375,0.0
1733977638.8080196,950.68359375,93.26171875,325.68359375,-956.0546875,0.0
1733977638.8119254,897.4609375,52.734375,250.0,-379.8828125,0.0
1733977638.815831,-531.73828125,-16.6015625,-82.51953125,716.30859375,0.0
1733977638.8197365,-1000.0,-28.80859375,-436.5234375,877.44140625,0.0
1733977638.8236423,-673.33984375,25.390625,-354.00390625,-72.75390625,0.0
1733977638.8275478,775.87890625,65.91796875,135.7421875,-893.06640625,0.0
1733977638.8314536,-972.65625,46.38671875,291.50390625,-451.66015625,0.0
1733977638.835359,-429.6875,-7.8125,-14.6484375,654.78515625,0.0
1733977638.8392649,-1000.0,-26.3671875,-395.99609375,967.28515625,0.0
1733977638.8431704,-706.0546875,27.83203125,-236.328125,41.50390625,0.0
1733977638.847083,0.0,83.984375,271.97265625,-875.0,0.0
1733977638.8509886,0.0,74.21875,366.2109375,-544.43359375,0.0
1733977638.8548944,0.0,6.8359375,83.984375,550.29296875,0.0
1733977638.8588,0.0,-26.85546875,-342.7734375,998.046875,0.0
1733977638.8627057,0.0,15.13671875,-308.10546875,243.65234375,0.0
1733977638.8666112,0.0,73.2421875,246.58203125,-773.4375,0.0
1733977638.870517,0.0,57.6171875,276.85546875,-596.6796875,0.0
1733977638.8744226,0.0,-3.41796875,-199.70703125,480.95703125,0.0
1733977638.878328,0.0,-22.94921875,-374.0234375,-996.58203125,0.0
1733977638.8822339,0.0,10.25390625,-250.0,375.0,0.0
1733977638.8861394,0.0,68.359375,182.6171875,-692.3828125,0.0
1733977638.8900452,0.0,78.61328125,401.3671875,-703.125,0.0
1733977638.8939564,520.99609375,28.3203125,241.2109375,312.01171875,0.0
1733977638.8978622,-925.78125,-15.13671875,-236.328125,982.421875,0.0
1733977638.9017677,-950.68359375,11.23046875,-433.59375,540.0390625,0.0
1733977638.9056733,510.7421875,73.73046875,86.9140625,-553.7109375,0.0
1733977638.909579,-842.7734375,92.28515625,412.59765625,-657.71484375,0.0
1733977638.9134846,682.6171875,38.0859375,184.5703125,278.3203125,0.0
1733977638.9173903,-763.671875,-33.69140625,-461.9140625,961.42578125,0.0
1733977638.921296,-1000.0,-3.41796875,-439.94140625,742.67578125,0.0
1733977638.9252017,375.0,70.80078125,154.78515625,-335.44921875,0.0
1733977638.9291072,-859.375,92.7734375,343.75,-680.6640625,0.0
1733977638.9330127,796.875,52.24609375,228.515625,211.9140625,0.0
1733977638.9369185,-592.28515625,3.90625,-66.40625,954.58984375,0.0
1733977638.9408286,-1000.0,22.4609375,-285.15625,865.234375,0.0
1733977638.9447343,178.22265625,78.125,66.40625,-120.60546875,0.0
1733977638.9486399,-865.72265625,113.28125,431.640625,-590.8203125,0.0
1733977638.9525456,802.24609375,78.61328125,325.1953125,206.54296875,0.0
1733977638.9564512,-543.45703125,8.30078125,14.6484375,929.6875,0.0
1733977638.960357,-1000.0,-0.9765625,-416.015625,950.1953125,0.0
1733977638.9642625,-228.515625,58.59375,-367.1875,141.6015625,0.0
1733977638.968168,-964.84375,120.60546875,299.8046875,-537.109375,0.0
1733977638.9720738,840.8203125,81.54296875,399.90234375,104.4921875,0.0
1733977638.9759793,-555.6640625,2.9296875,-40.0390625,908.203125,0.0
1733977638.979885,-1000.0,8.30078125,-341.796875,981.4453125,0.0
1733977638.9837906,-543.45703125,74.70703125,-99.12109375,244.62890625,0.0
1733977638.9877083,884.27734375,123.046875,387.6953125,-519.53125,0.0
1733977638.991614,953.125,85.44921875,314.94140625,41.015625,0.0
1733977638.9955196,-483.88671875,20.99609375,55.17578125,886.71875,0.0
1733977638.9994254,-1000.0,8.30078125,-291.015625,-997.0703125,0.0
1733977639.003331,-736.328125,48.828125,-226.5625,352.5390625,0.0
1733977639.0072365,699.21875,98.14453125,219.23828125,-470.21484375,0.0
1733977639.0111423,-930.6640625,94.7265625,299.31640625,-49.31640625,0.0
1733977639.0150478,-360.83984375,39.0625,110.83984375,833.984375,0.0
1733977639.0189536,-1000.0,4.39453125,-328.125,-977.5390625,0.0
1733977639.022859,-827.63671875,35.15625,-462.40234375,452.1484375,0.0
1733977639.0267649,543.45703125,104.98046875,167.48046875,-505.37109375,0.0
1733977639.0306704,-839.84375,104.00390625,432.12890625,-278.3203125,0.0
1733977639.0345867,-98.6328125,29.78515625,106.4453125,719.23828125,0.0
1733977639.0384924,-1000.0,-10.25390625,-440.91796875,-970.21484375,0.0
1733977639.042398,-842.28515625,46.38671875,-337.890625,459.47265625,0.0
1733977639.0463037,514.16015625,112.79296875,270.01953125,-544.43359375,0.0
1733977639.0502093,-810.546875,91.30859375,355.46875,-477.05078125,0.0
1733977639.0541148,270.99609375,27.34375,94.7265625,535.64453125,0.0
1733977639.0580206,-1000.0,-7.32421875,-309.5703125,-978.02734375,0.0
1733977639.0619261,-885.7421875,31.25,-319.82421875,519.04296875,0.0
1733977639.065832,522.94921875,91.30859375,153.3203125,-542.48046875,0.0
1733977639.0697374,-821.2890625,102.5390625,372.0703125,-638.18359375,0.0
1733977639.0736432,567.87109375,51.7578125,244.62890625,317.3828125,0.0
1733977639.0775487,-869.62890625,-7.8125,-123.53515625,972.65625,0.0
1733977639.0814645,-1000.0,9.765625,-442.87109375,598.6328125,0.0
1733977639.0853703,399.4140625,81.54296875,-77.1484375,-494.62890625,0.0
1733977639.0892758,-836.9140625,116.69921875,442.87109375,-751.46484375,0.0
1733977639.0931816,708.0078125,61.5234375,299.31640625,165.52734375,0.0
1733977639.0970871,-710.9375,-5.859375,-291.9921875,940.91796875,0.0
1733977639.1009927,-1000.0,14.16015625,-504.39453125,705.56640625,0.0
1733977639.1048985,251.46484375,89.35546875,-25.390625,-350.09765625,0.0
1733977639.108804,-856.4453125,110.83984375,393.06640625,-744.140625,0.0
1733977639.1127098,800.78125,35.64453125,60.546875,99.609375,0.0
1733977639.1166153,-571.77734375,-16.6015625,-331.54296875,936.03515625,0.0
1733977639.120521,-1000.0,19.04296875,-322.265625,834.47265625,0.0
1733977639.1244266,30.76171875,74.21875,33.69140625,-183.10546875,0.0
1733977639.1283417,-893.06640625,103.02734375,395.5078125,-729.4921875,0.0
1733977639.1322474,814.453125,60.546875,354.98046875,0.9765625,0.0
1733977639.136153,-546.38671875,-11.23046875,13.671875,890.625,0.0
1733977639.1400585,-1000.0,-10.7421875,-376.953125,927.24609375,0.0
1733977639.1439643,-322.265625,56.15234375,-173.33984375,-46.875,0.0
1733977639.1478698,993.65234375,110.3515625,325.68359375,-781.73828125,0.0
1733977639.1517756,883.30078125,88.8671875,322.75390625,-171.38671875,0.0
1733977639.1556811,-517.08984375,22.4609375,-46.875,818.84765625,0.0
1733977639.159587,-1000.0,2.44140625,-517.578125,956.0546875,0.0
1733977639.1634924,-592.28515625,73.73046875,-134.765625,4.39453125,0.0
1733977639.167398,829.1015625,127.44140625,437.5,-875.48828125,0.0
1733977639.1713037,-975.09765625,90.33203125,333.49609375,-422.36328125,0.0
1733977639.1752172,-369.140625,25.390625,90.33203125,670.8984375,0.0
1733977639.1791227,-1000.0,8.30078125,-267.08984375,945.3125,0.0
1733977639.1830285,-729.4921875,58.10546875,-208.0078125,47.36328125,0.0
1733977639.186934,667.48046875,110.83984375,306.15234375,-886.71875,0.0
1733977639.1908398,-871.09375,98.6328125,384.765625,-584.9609375,0.0
1733977639.1947453,-145.01953125,37.59765625,72.75390625,529.296875,0.0
1733977639.198651,-1000.0,7.32421875,-393.06640625,992.1875,0.0
1733977639.2025566,-833.49609375,48.828125,-514.6484375,226.5625,0.0
1733977639.2064621,522.94921875,123.53515625,97.16796875,-809.08203125,0.0
1733977639.210368,-814.453125,116.69921875,367.67578125,-639.16015625,0.0
1733977639.2142735,215.33203125,45.8984375,160.15625,434.5703125,0.0
1733977639.2181792,-1000.0,6.34765625,-274.4140625,988.76953125,0.0
1733977639.2220912,0.0,45.8984375,-296.875,344.23828125,0.0
1733977639.225997,0.0,110.83984375,259.765625,-730.46875,0.0
1733977639.2299025,0.0,101.5625,407.2265625,-684.08203125,0.0
1733977639.2338083,0.0,47.36328125,214.84375,340.33203125,0.0
1733977639.2377138,0.0,12.6953125,-241.2109375,978.02734375,0.0
1733977639.2416196,0.0,42.96875,-411.62109375,488.76953125,0.0
1733977639.2455251,0.0,104.00390625,-5.859375,-574.21875,0.0
1733977639.2494307,0.0,109.86328125,186.03515625,-694.3359375,0.0
1733977639.2533364,0.0,75.1953125,208.984375,223.6328125,0.0
1733977639.257242,0.0,24.90234375,-125.48828125,947.75390625,0.0
1733977639.2611477,0.0,31.73828125,-449.70703125,619.62890625,0.0
1733977639.2650533,0.0,100.09765625,-57.6171875,-495.1171875,0.0
1733977639.268965,-852.5390625,127.9296875,400.390625,-811.5234375,0.0
1733977639.2728705,772.94921875,70.3125,267.08984375,53.22265625,0.0
1733977639.2767763,-623.53515625,1.46484375,-283.203125,909.1796875,0.0
1733977639.2806818,-1000.0,20.99609375,-469.23828125,699.21875,0.0
1733977639.2845876,185.05859375,86.42578125,-36.1328125,-416.9921875,0.0
1733977639.2884932,-865.234375,109.86328125,297.8515625,-887.6953125,0.0
1733977639.2923987,805.17578125,55.17578125,-23.92578125,-100.09765625,0.0
1733977639.2963045,-547.8515625,7.8125,-355.95703125,863.28125,0.0
1733977639.30021,-1000.0,25.390625,-397.94921875,711.9140625,0.0
1733977639.3041158,-159.1796875,73.73046875,-191.40625,-300.29296875,0.0
1733977639.3080213,-942.87109375,113.28125,263.18359375,-875.0,0.0
1733977639.311927,831.54296875,82.51953125,299.31640625,-255.859375,0.0
1733977639.3158376,-550.78125,18.06640625,-12.6953125,788.0859375,0.0
1733977639.3197432,-1000.0,6.8359375,-395.99609375,811.03515625,0.0
1733977639.3236487,-519.53125,62.5,-260.7421875,-200.68359375,0.0
1733977639.3275545,902.34375,118.1640625,323.2421875,-948.2421875,0.0
1733977639.33146,938.4765625,91.796875,364.2578125,-443.84765625,0.0
1733977639.3353658,-496.58203125,13.18359375,-110.83984375,673.33984375,0.0
1733977639.3392713,-1000.0,-7.8125,-630.37109375,876.953125,0.0
1733977639.343177,-692.87109375,73.2421875,-277.83203125,-103.02734375,0.0
1733977639.3470826,741.69921875,137.20703125,337.40234375,-954.58984375,0.0
1733977639.3509881,-938.4765625,110.83984375,259.765625,-579.1015625,0.0
1733977639.354894,-352.05078125,47.8515625,39.0625,520.01953125,0.0
1733977639.3587995,-1000.0,24.4140625,-314.94140625,856.4453125,0.0
1733977639.362717,0.0,66.89453125,-294.43359375,-3.41796875,0.0
1733977639.3666227,0.0,120.1171875,215.8203125,-923.33984375,0.0
1733977639.3705282,0.0,110.83984375,326.66015625,-696.77734375,0.0
1733977639.374434,0.0,54.6875,138.18359375,375.9765625,0.0
1733977639.3783395,0.0,16.6015625,-324.70703125,864.74609375,0.0
1733977639.382245,0.0,45.41015625,-532.2265625,141.6015625,0.0
1733977639.3861508,0.0,108.3984375,12.6953125,-846.19140625,0.0
1733977639.3900564,0.0,111.81640625,313.4765625,-749.51171875,0.0
1733977639.3939621,0.0,47.8515625,108.88671875,263.671875,0.0
1733977639.3978677,0.0,-13.18359375,-543.45703125,884.765625,0.0
1733977639.4017735,0.0,41.9921875,-466.796875,275.87890625,0.0
1733977639.405679,0.0,119.62890625,175.29296875,-799.8046875,0.0
1733977639.4095955,-821.2890625,103.02734375,332.03125,-839.35546875,0.0
1733977639.413501,554.6875,48.828125,145.5078125,163.57421875,0.0
1733977639.4174068,-886.71875,15.625,-285.64453125,909.66796875,0.0
1733977639.4213123,-1000.0,42.96875,-424.31640625,415.0390625,0.0
1733977639.4252179,437.98828125,95.21484375,-70.80078125,-686.03515625,0.0
1733977639.4291236,-836.42578125,101.07421875,215.33203125,-880.859375,0.0
1733977639.4330292,692.87109375,53.22265625,99.12109375,60.05859375,0.0
1733977639.436935,-723.14453125,4.8828125,-287.59765625,908.203125,0.0
1733977639.4408405,-1000.0,16.6015625,-582.03125,561.03515625,0.0
1733977639.4447463,246.09375,69.3359375,-335.9375,-532.2265625,0.0
1733977639.4486518,-855.95703125,107.91015625,265.13671875,-903.3203125,0.0
1733977639.4525573,797.36328125,68.84765625,186.03515625,-83.49609375,0.0
1733977639.4564729,-572.265625,5.37109375,-415.52734375,861.328125,0.0
1733977639.4603786,-1000.0,23.4375,-563.4765625,648.92578125,0.0
1733977639.4642842,2.44140625,88.37890625,-175.78125,-419.921875,0.0
1733977639.4681897,-899.90234375,121.58203125,247.0703125,-895.5078125,0.0
1733977639.4720955,815.91796875,76.171875,75.68359375,-155.2734375,0.0
1733977639.476001,-545.8984375,15.625,-415.52734375,848.6328125,0.0
1733977639.4799068,-1000.0,32.2265625,-553.22265625,822.265625,0.0
1733977639.4838123,-381.34765625,94.7265625,-252.9296875,-232.91015625,0.0
1733977639.4877179,979.4921875,125.48828125,-3.90625,-908.203125,0.0
1733977639.4916236,866.2109375,106.4453125,23.92578125,-291.9921875,0.0
1733977639.4955292,-561.5234375,70.80078125,-134.765625,738.28125,0.0
1733977639.499435,-1000.0,53.22265625,-529.296875,784.1796875,0.0
1733977639.5033493,0.0,101.5625,-372.55859375,-185.546875,0.0
1733977639.507255,0.0,159.1796875,227.05078125,-951.171875,0.0
1733977639.5111606,0.0,122.0703125,249.51171875,-510.7421875,0.0
1733977639.5150661,0.0,47.36328125,-222.65625,595.703125,0.0
1733977639.518972,0.0,39.55078125,-579.58984375,845.21484375,0.0
1733977639.5228775,0.0,94.23828125,-487.3046875,-61.5234375,0.0
1733977639.5267832,0.0,156.25,88.37890625,-931.640625,0.0
1733977639.5306888,0.0,128.90625,150.87890625,-619.62890625,0.0
1733977639.5345945,0.0,48.33984375,-432.6171875,510.7421875,0.0
1733977639.5385,0.0,46.875,-572.75390625,922.8515625,0.0
1733977639.5424056,0.0,91.796875,-412.109375,96.19140625,0.0
1733977639.5463114,0.0,134.765625,-17.578125,-861.328125,0.0
1733977639.5502024,-636.71875,131.8359375,221.19140625,-670.8984375,0.0
1733977639.5541081,814.94140625,73.2421875,34.66796875,398.4375,0.0
1733977639.5580137,997.0703125,27.34375,-470.703125,942.3828125,0.0
1733977639.5619195,-451.171875,58.10546875,-607.91015625,287.109375,0.0
1733977639.565825,-1000.0,124.51171875,-22.4609375,-735.83984375,0.0
1733977639.5697308,-782.2265625,118.65234375,219.7265625,-671.875,0.0
1733977639.5736363,641.6015625,56.15234375,-83.984375,372.0703125,0.0
1733977639.5775418,-906.25,9.27734375,-649.4140625,993.65234375,0.0
1733977639.5814476,-328.61328125,60.546875,-638.18359375,508.7890625,0.0
1733977639.5853531,-1000.0,127.44140625,-106.93359375,-545.41015625,0.0
1733977639.589259,-833.984375,120.1171875,215.8203125,-630.859375,0.0
1733977639.5931644,519.53125,68.84765625,25.87890625,320.80078125,0.0
1733977639.5970547,-824.70703125,19.53125,-412.109375,977.5390625,0.0
1733977639.6009603,19.53125,43.9453125,-521.97265625,635.7421875,0.0
1733977639.6048658,-1000.0,108.88671875,-151.85546875,-430.6640625,0.0
1733977639.6087716,-854.00390625,122.55859375,265.13671875,-717.7734375,0.0
1733977639.612677,518.06640625,70.80078125,125.9765625,152.83203125,0.0
1733977639.6165829,-811.03515625,4.8828125,-422.8515625,934.5703125,0.0
1733977639.6204884,351.5625,27.34375,-657.71484375,725.5859375,0.0
1733977639.6243942,-999.51171875,104.4921875,-425.29296875,-328.125,0.0
1733977639.6282997,-927.734375,151.3671875,190.91796875,-810.546875,0.0
1733977639.6322052,485.3515625,113.76953125,207.51953125,-32.71484375,0.0
1733977639.636111,-823.2421875,35.15625,-400.87890625,887.6953125,0.0
1733977639.6400166,613.76953125,40.0390625,-590.33203125,779.78515625,0.0
1733977639.6439288,-139.6484375,107.91015625,-225.5859375,-261.71875,0.0
1733977639.6478343,-936.5234375,143.06640625,231.4453125,-864.2578125,0.0
1733977639.6517398,829.58984375,97.65625,53.7109375,-182.6171875,0.0
1733977639.6556456,-549.8046875,41.50390625,-358.3984375,832.51953125,0.0
1733977639.6595511,-1000.0,47.36328125,-519.04296875,863.28125,0.0
1733977639.663457,-501.953125,90.8203125,-408.69140625,-129.39453125,0.0
1733977639.6673625,914.55078125,125.9765625,-1.953125,-833.49609375,0.0
1733977639.6712682,929.19921875,113.76953125,178.22265625,-278.3203125,0.0
1733977639.6751738,-504.39453125,49.8046875,-150.390625,750.48828125,0.0
1733977639.6790793,-1000.0,20.5078125,-606.93359375,883.7890625,0.0
1733977639.682985,-660.64453125,72.75390625,-536.62109375,-20.01953125,0.0
1733977639.6868906,767.08984375,134.27734375,154.78515625,-865.72265625,0.0
1733977639.6908016,0.0,108.3984375,294.43359375,-479.98046875,0.0
1733977639.6947072,0.0,37.59765625,-151.85546875,614.74609375,0.0
1733977639.698613,0.0,20.5078125,-518.06640625,952.63671875,0.0
1733977639.7025185,0.0,74.21875,-381.34765625,91.30859375,0.0
1733977639.706424,0.0,126.46484375,207.03125,-855.95703125,0.0
1733977639.7103298,0.0,98.14453125,141.6015625,-560.546875,0.0
1733977639.7142353,0.0,29.78515625,-356.4453125,537.109375,0.0
1733977639.718141,0.0,14.16015625,-511.23046875,985.83984375,0.0
1733977639.7220466,0.0,51.26953125,-370.1171875,231.4453125,0.0
1733977639.7259524,0.0,99.12109375,78.61328125,-761.71875,0.0
1733977639.729858,0.0,104.00390625,256.34765625,-626.46484375,0.0
1733977639.7337635,0.0,52.734375,52.734375,391.6015625,0.0
1733977639.7376812,-1000.0,7.32421875,-398.92578125,984.375,0.0
1733977639.7415867,-883.7890625,40.52734375,-540.52734375,399.90234375,0.0
1733977639.7454925,529.78515625,113.76953125,-22.4609375,-678.22265625,0.0
1733977639.749398,-825.68359375,124.0234375,312.01171875,-712.890625,0.0
1733977639.7533035,581.54296875,63.96484375,83.49609375,270.5078125,0.0
1733977639.7572093,-887.6953125,6.34765625,-552.24609375,938.4765625,0.0
1733977639.7611148,-968.26171875,37.59765625,-636.23046875,480.46875,0.0
1733977639.7650206,507.32421875,112.3046875,-45.8984375,-633.30078125,0.0
1733977639.7689261,-842.7734375,122.55859375,251.953125,-855.46875,0.0
1733977639.772832,684.5703125,56.640625,-247.55859375,100.5859375,0.0
1733977639.7767375,-752.9296875,20.99609375,-540.52734375,917.48046875,0.0
1733977639.780643,-1000.0,53.7109375,-460.9375,514.16015625,0.0
1733977639.7845595,342.28515625,98.6328125,-156.25,-615.234375,0.0
1733977639.788465,-858.3984375,119.140625,246.09375,-984.375,0.0
1733977639.7923708,799.8046875,81.54296875,135.25390625,-138.18359375,0.0
1733977639.7962763,-577.1484375,21.97265625,-364.2578125,798.33984375,0.0
1733977639.800182,-1000.0,37.109375,-636.71875,533.69140625,0.0
1733977639.8040876,109.375,98.14453125,-342.28515625,-537.109375,0.0
1733977639.8079932,-876.953125,130.859375,141.6015625,-1000.0,0.0
1733977639.811899,808.59375,88.8671875,165.0390625,-301.26953125,0.0
1733977639.8158045,-545.8984375,12.6953125,-348.14453125,714.84375,0.0
1733977639.8197103,-1000.0,11.71875,-596.19140625,602.05078125,0.0
1733977639.8236158,-255.859375,79.1015625,-247.55859375,-429.19921875,0.0
1733977639.8275216,-973.6328125,115.234375,252.9296875,-1000.0,0.0
1733977639.8314538,844.23828125,67.3828125,113.28125,-433.10546875,0.0
1733977639.8353593,-557.12890625,11.23046875,-361.81640625,647.94921875,0.0
1733977639.839265,-1000.0,14.6484375,-489.74609375,695.80078125,0.0
1733977639.8431706,-582.03125,62.98828125,-310.05859375,-283.203125,0.0
1733977639.8470762,856.93359375,104.00390625,142.08984375,-979.4921875,0.0
1733977639.850982,972.65625,74.70703125,137.20703125,-534.66796875,0.0
1733977639.8548875,-467.7734375,16.6015625,-234.86328125,536.62109375,0.0
1733977639.8587933,-1000.0,-2.44140625,-540.52734375,761.23046875,0.0
1733977639.8626988,-761.71875,27.83203125,-611.328125,-125.48828125,0.0
1733977639.8666046,661.62109375,94.7265625,-47.8515625,-948.73046875,0.0
1733977639.87051,-905.2734375,98.14453125,275.390625,-657.71484375,0.0
1733977639.8744156,-312.5,29.78515625,-105.46875,427.734375,0.0
1733977639.8783317,0.0,-4.39453125,-500.9765625,806.640625,0.0
1733977639.8822374,0.0,45.41015625,-363.76953125,-23.4375,0.0
1733977639.886143,0.0,110.3515625,179.6875,-914.55078125,0.0
1733977639.8900485,0.0,96.6796875,268.5546875,-708.49609375,0.0
1733977639.8939543,0.0,40.0390625,-27.34375,349.609375,0.0
1733977639.8978598,0.0,11.23046875,-445.3125,886.71875,0.0
1733977639.9017656,0.0,47.36328125,-507.8125,187.98828125,0.0
1733977639.9056711,0.0,108.88671875,-32.2265625,-827.1484375,0.0
1733977639.909577,0.0,112.3046875,274.90234375,-753.41796875,0.0
1733977639.9134824,0.0,49.8046875,16.11328125,343.75,0.0
1733977639.917388,0.0,-0.9765625,-457.03125,944.3359375,0.0
1733977639.9212937,0.0,31.25,-532.71484375,322.265625,0.0
1733977639.9252157,515.625,101.5625,-70.3125,-742.67578125,0.0
1733977639.9291213,-826.171875,112.79296875,314.453125,-845.21484375,0.0
1733977639.933027,619.140625,52.734375,133.30078125,119.140625,0.0
1733977639.9369326,-831.54296875,-3.90625,-487.79296875,869.140625,0.0
1733977639.940838,-1000.0,28.3203125,-564.453125,408.69140625,0.0
1733977639.9447439,406.25,90.33203125,-120.1171875,-678.7109375,0.0
1733977639.9486494,-840.8203125,104.00390625,219.23828125,-915.52734375,0.0
1733977639.9525552,720.21484375,48.33984375,-130.859375,-18.5546875,0.0
1733977639.9564607,-697.75390625,3.41796875,-599.12109375,851.07421875,0.0
1733977639.9603665,-1000.0,47.8515625,-519.53125,495.60546875,0.0
1733977639.964272,249.0234375,102.05078125,-142.578125,-607.91015625,0.0
1733977639.9681776,-858.88671875,120.1171875,216.30859375,-1000.0,0.0
1733977639.97209,807.12890625,88.8671875,210.9375,-220.21484375,0.0
1733977639.9759955,-556.15234375,26.3671875,-215.33203125,722.16796875,0.0
1733977639.9799013,-1000.0,23.92578125,-554.6875,541.50390625,0.0
1733977639.9838068,-16.11328125,90.33203125,-196.2890625,-501.46484375,0.0
1733977639.9877126,-904.296875,124.0234375,307.6171875,-1000.0,0.0
1733977639.9916182,818.84765625,75.68359375,145.01953125,-375.9765625,0.0
1733977639.995524,-547.8515625,11.71875,-332.51953125,664.0625,0.0
1733977639.9994295,-1000.0,20.99609375,-508.7890625,631.8359375,0.0
1733977640.0033352,-368.1640625,80.56640625,-234.375,-373.53515625,0.0
1733977640.0072408,975.09765625,122.0703125,279.78515625,-1000.0,0.0
1733977640.0111463,890.13671875,73.73046875,149.90234375,-465.33203125,0.0
1733977640.015052,-520.99609375,3.90625,-359.375,635.25390625,0.0
1733977640.0189638,-1000.0,17.08984375,-450.68359375,741.2109375,0.0
1733977640.0228693,-633.7890625,60.05859375,-255.859375,-219.23828125,0.0
1733977640.026775,798.33984375,98.14453125,188.4765625,-955.56640625,0.0
1733977640.0306807,-964.84375,78.61328125,269.53125,-538.57421875,0.0
1733977640.0345862,-375.48828125,18.5546875,-39.0625,529.296875,0.0
1733977640.038492,-1000.0,-5.37109375,-515.625,814.94140625,0.0
1733977640.0423975,-806.640625,31.25,-580.56640625,-30.76171875,0.0
1733977640.0463033,586.9140625,101.5625,142.08984375,-908.203125,0.0
1733977640.0502088,-862.79296875,88.37890625,308.10546875,-628.90625,0.0
1733977640.0541143,-191.40625,13.18359375,-134.27734375,481.93359375,0.0
1733977640.05802,-1000.0,-7.8125,-504.39453125,902.34375,0.0
1733977640.0619256,-837.890625,46.38671875,-370.1171875,111.81640625,0.0
1733977640.065836,515.625,108.88671875,189.453125,-848.6328125,0.0
1733977640.0697415,-814.94140625,100.09765625,267.08984375,-675.78125,0.0
1733977640.073647,164.55078125,47.8515625,-26.3671875,377.9296875,0.0
1733977640.0775528,-1000.0,12.20703125,-380.37109375,926.7578125,0.0
1733977640.0814583,-869.140625,43.45703125,-407.71484375,268.06640625,0.0
1733977640.085364,522.4609375,85.9375,-100.5859375,-735.83984375,0.0
1733977640.0892696,-814.453125,77.63671875,-33.203125,-692.3828125,0.0
1733977640.0931754,480.46875,47.8515625,-11.71875,273.4375,0.0
1733977640.097081,-938.96484375,2.44140625,-391.6015625,923.33984375,0.0
1733977640.1009865,-965.33203125,24.4140625,-548.828125,397.4609375,0.0
1733977640.1048923,469.7265625,95.703125,-46.38671875,-664.0625,0.0
1733977640.1087978,-830.078125,115.234375,294.921875,-786.1328125,0.0
1733977640.1127155,646.97265625,61.5234375,100.09765625,145.5078125,0.0
1733977640.116621,-782.2265625,0.9765625,-437.5,920.8984375,0.0
1733977640.1205266,-1000.0,23.4375,-534.1796875,543.9453125,0.0
1733977640.1244323,305.17578125,89.35546875,-75.1953125,-530.2734375,0.0
1733977640.1283379,-844.7265625,104.98046875,280.76171875,-799.31640625,0.0
1733977640.1322436,754.8828125,38.0859375,-76.171875,65.4296875,0.0
1733977640.1361492,-633.30078125,-25.87890625,-487.79296875,905.2734375,0.0
1733977640.140055,-1000.0,-5.859375,-457.03125,658.203125,0.0
1733977640.1439605,92.7734375,43.9453125,-240.234375,-402.83203125,0.0
1733977640.1478662,-880.37109375,57.6171875,-4.39453125,-820.80078125,0.0
1733977640.1517718,810.05859375,38.0859375,100.09765625,-11.71875,0.0
1733977640.1556773,-546.38671875,-16.11328125,-284.1796875,878.90625,0.0
1733977640.1595938,-1000.0,-17.08984375,-580.56640625,761.71875,0.0
1733977640.1634994,-262.20703125,39.0625,-371.09375,-246.58203125,0.0
1733977640.1674051,-975.5859375,92.28515625,201.171875,-856.4453125,0.0
1733977640.1713107,845.703125,71.77734375,260.25390625,-222.16796875,0.0
1733977640.1752162,-558.10546875,15.13671875,-228.02734375,787.109375,0.0
1733977640.179122,-1000.0,14.6484375,-569.82421875,826.171875,0.0
1733977640.1830275,-566.89453125,64.453125,-320.3125,-145.99609375,0.0
1733977640.1869333,876.46484375,112.79296875,256.34765625,-877.44140625,0.0
1733977640.1908388,944.3359375,78.125,124.51171875,-368.1640625,0.0
1733977640.1947446,-508.30078125,13.671875,-417.96875,699.70703125,0.0
1733977640.1986501,-1000.0,21.97265625,-487.79296875,839.84375,0.0
1733977640.2025557,-727.5390625,69.82421875,-284.1796875,-85.44921875,0.0
1733977640.2064712,701.171875,107.421875,159.1796875,-886.23046875,0.0
1733977640.2103767,-923.828125,85.9375,273.4375,-502.9296875,0.0
1733977640.2142825,-337.40234375,19.04296875,-89.84375,581.54296875,0.0
1733977640.218188,-1000.0,-3.90625,-474.12109375,896.484375,0.0
1733977640.2220938,-821.2890625,35.15625,-476.5625,50.78125,0.0
1733977640.2259994,546.875,87.40234375,8.7890625,-844.7265625,0.0
1733977640.229905,-836.42578125,87.40234375,221.19140625,-582.03125,0.0
1733977640.2338107,-51.7578125,38.0859375,8.30078125,463.8671875,0.0
1733977640.2377162,-1000.0,-3.90625,-604.4921875,940.91796875,0.0
1733977640.241622,-845.703125,48.828125,-556.15234375,229.4921875,0.0
1733977640.2455275,514.16015625,132.8125,192.3828125,-791.015625,0.0
1733977640.2494333,-810.546875,115.234375,276.85546875,-679.6875,0.0
1733977640.2533474,332.03125,57.12890625,-151.85546875,354.4921875,0.0
1733977640.2572532,-1000.0,44.921875,-426.7578125,951.66015625,0.0
1733977640.2611587,-900.87890625,80.56640625,-409.1796875,329.58984375,0.0
1733977640.2650645,543.9453125,121.58203125,-20.5078125,-773.92578125,0.0
1733977640.26897,-823.2421875,121.09375,273.92578125,-831.0546875,0.0
1733977640.2728758,388.671875,62.98828125,-42.48046875,223.14453125,0.0
1733977640.2767813,-934.5703125,19.04296875,-459.47265625,875.0,0.0
1733977640.2806869,-998.046875,44.43359375,-579.1015625,316.89453125,0.0
1733977640.2845926,384.27734375,99.12109375,-313.4765625,-735.3515625,0.0
1733977640.2884982,-834.9609375,135.7421875,236.328125,-997.0703125,0.0
1733977640.292404,719.23828125,87.40234375,151.3671875,-121.58203125,0.0
1733977640.2963095,-701.171875,17.08984375,-387.20703125,728.515625,0.0
1733977640.3002229,-1000.0,40.0390625,-511.23046875,350.5859375,0.0
1733977640.3041284,259.27734375,112.3046875,-108.88671875,-704.58984375,0.0
1733977640.3080342,-856.4453125,133.7890625,280.2734375,-1000.0,0.0
1733977640.3119397,797.36328125,82.51953125,-29.296875,-276.85546875,0.0
1733977640.3158455,-559.5703125,35.15625,-442.87109375,663.0859375,0.0
1733977640.319751,-1000.0,50.78125,-543.45703125,465.8203125,0.0
1733977640.3236568,-50.29296875,103.02734375,-347.65625,-561.03515625,0.0
1733977640.3275623,-914.0625,126.953125,8.30078125,-1000.0,0.0
1733977640.331468,624.51171875,92.28515625,37.59765625,-243.65234375,0.0
1733977640.3353736,-622.0703125,37.109375,-307.12890625,720.21484375,0.0
1733977640.3392792,-1000.0,28.3203125,-581.0546875,600.5859375,0.0
1733977640.343185,-470.21484375,76.66015625,-471.6796875,-368.65234375,0.0
1733977640.3470972,950.68359375,133.30078125,155.2734375,-997.0703125,0.0
1733977640.351003,890.625,103.02734375,267.578125,-439.94140625,0.0
1733977640.3549085,-548.828125,26.3671875,-209.47265625,625.0,0.0
1733977640.358814,-1000.0,10.7421875,-494.62890625,708.984375,0.0
1733977640.3627198,-649.4140625,56.15234375,-302.734375,-243.65234375,0.0
1733977640.3666253,807.12890625,95.21484375,150.87890625,-949.70703125,0.0
1733977640.370531,993.65234375,73.73046875,89.35546875,-478.515625,0.0
1733977640.3744366,-462.40234375,24.4140625,-286.62109375,586.9140625,0.0
1733977640.3783424,-1000.0,15.13671875,-499.0234375,817.87109375,0.0
1733977640.382248,-780.2734375,60.05859375,-376.46484375,-63.4765625,0.0
1733977640.3861535,633.7890625,112.79296875,86.42578125,-890.625,0.0
1733977640.3900592,-891.6015625,101.07421875,190.4296875,-545.41015625,0.0
1733977640.3939707,-289.55078125,43.45703125,-139.6484375,536.62109375,0.0
1733977640.3978763,-1000.0,14.16015625,-481.93359375,932.6171875,0.0
1733977640.401782,-831.54296875,43.9453125,-552.734375,124.51171875,0.0
1733977640.4056876,514.16015625,108.3984375,-89.84375,-817.87109375,0.0
1733977640.4095933,-817.3828125,104.98046875,228.515625,-635.7421875,0.0
1733977640.4134989,100.09765625,34.1796875,-128.90625,405.76171875,0.0
1733977640.4174047,-1000.0,-11.71875,-716.30859375,948.2421875,0.0
1733977640.4213102,-860.83984375,45.8984375,-583.0078125,268.5546875,0.0
1733977640.4252157,519.04296875,121.09375,1.46484375,-757.8125,0.0
1733977640.4291215,-812.98828125,103.515625,146.97265625,-693.359375,0.0
1733977640.433027,451.171875,48.828125,-134.27734375,311.5234375,0.0
1733977640.4369328,-961.9140625,11.71875,-464.35546875,958.984375,0.0
1733977640.4408429,-936.03515625,36.1328125,-494.140625,428.22265625,0.0
1733977640.4447486,506.34765625,89.84375,-133.7890625,-641.11328125,0.0
1733977640.4486542,-832.03125,96.19140625,197.265625,-730.95703125,0.0
1733977640.45256,639.6484375,46.38671875,-32.2265625,222.16796875,0.0
1733977640.4564655,-794.921875,3.90625,-436.03515625,949.21875,0.0
1733977640.460371,-1000.0,23.4375,-637.6953125,576.171875,0.0
1733977640.4642768,335.44921875,73.2421875,-470.21484375,-478.515625,0.0
1733977640.4681823,-848.14453125,105.46875,135.25390625,-759.27734375,0.0
1733977640.472088,763.671875,64.94140625,148.4375,95.703125,0.0
1733977640.4759936,-639.6484375,0.9765625,-431.640625,920.41015625,0.0
1733977640.4798994,-1000.0,19.53125,-574.21875,684.5703125,0.0
1733977640.483805,193.84765625,84.9609375,-149.4140625,-370.1171875,0.0
1733977640.4877229,-864.2578125,109.375,255.859375,-769.53125,0.0
1733977640.4916284,805.17578125,62.98828125,22.4609375,27.34375,0.0
1733977640.4955342,-548.33984375,5.37109375,-395.5078125,899.90234375,0.0
1733977640.4994397,-1000.0,16.11328125,-490.234375,817.87109375,0.0
1733977640.5033455,-148.92578125,68.359375,-267.578125,-159.1796875,0.0
1733977640.507251,-938.96484375,90.33203125,71.77734375,-695.80078125,0.0
1733977640.5111568,828.61328125,62.01171875,21.97265625,3.41796875,0.0
1733977640.5150623,-549.31640625,16.11328125,-329.1015625,886.71875,0.0
1733977640.5189679,-1000.0,12.6953125,-566.40625,899.90234375,0.0
1733977640.5228736,-564.453125,47.36328125,-560.05859375,-12.20703125,0.0
1733977640.5267792,881.34765625,106.4453125,63.4765625,-740.72265625,0.0
1733977640.530685,935.05859375,89.35546875,223.6328125,-205.078125,0.0
1733977640.5346093,-521.97265625,15.13671875,-207.03125,800.78125,0.0
1733977640.5385149,-1000.0,1.953125,-541.9921875,937.98828125,0.0
1733977640.5424206,-718.75,55.6640625,-392.08984375,18.5546875,0.0
1733977640.5463262,725.5859375,109.86328125,190.4296875,-808.10546875,0.0
1733977640.550232,-952.63671875,81.54296875,110.83984375,-410.64453125,0.0
1733977640.5541375,-397.94921875,13.671875,-377.9296875,647.4609375,0.0
1733977640.558043,-1000.0,-0.48828125,-571.77734375,935.05859375,0.0
1733977640.5619488,-821.2890625,43.45703125,-379.8828125,58.10546875,0.0
1733977640.5658543,562.01171875,88.37890625,53.22265625,-831.54296875,0.0
1733977640.56976,-853.515625,64.94140625,-157.71484375,-533.203125,0.0
1733977640.5736656,-163.57421875,21.97265625,-334.47265625,504.39453125,0.0
1733977640.5775714,-1000.0,-4.39453125,-455.56640625,945.3125,0.0
1733977640.5814888,-837.40234375,25.87890625,-498.046875,195.80078125,0.0
1733977640.5853944,512.6953125,99.12109375,-1.953125,-798.33984375,0.0
1733977640.5893002,-812.01171875,92.7734375,263.18359375,-643.06640625,0.0
1733977640.5932057,230.46875,28.80859375,27.83203125,392.578125,0.0
1733977640.5971115,-1000.0,-10.7421875,-528.80859375,955.078125,0.0
1733977640.601017,-876.953125,22.4609375,-628.41796875,332.51953125,0.0
1733977640.6049228,526.85546875,88.37890625,-64.94140625,-706.54296875,0.0
1733977640.6088283,-818.84765625,91.30859375,250.0,-728.02734375,0.0
1733977640.612734,530.76171875,21.484375,-190.91796875,246.58203125,0.0
1733977640.6166396,-902.34375,-25.390625,-580.078125,937.5,0.0
1733977640.6205451,-994.140625,12.6953125,-454.1015625,425.29296875,0.0
1733977640.624451,442.3828125,69.3359375,-110.83984375,-646.484375,0.0
1733977640.6283731,-833.49609375,69.3359375,-34.66796875,-787.109375,0.0
1733977640.632279,677.24609375,33.69140625,-35.64453125,116.69921875,0.0
1733977640.6361845,-745.1171875,-12.20703125,-311.5234375,894.04296875,0.0
1733977640.64009,-1000.0,-0.48828125,-571.2890625,517.578125,0.0
1733977640.6439958,269.53125,59.08203125,-188.4765625,-567.87109375,0.0
1733977640.6479013,-851.5625,82.03125,191.89453125,-877.9296875,0.0
1733977640.651807,781.73828125,40.0390625,46.38671875,-42.96875,0.0
1733977640.6557126,-591.30859375,-18.5546875,-428.7109375,865.234375,0.0
1733977640.6596184,-1000.0,-19.53125,-788.0859375,647.94921875,0.0
1733977640.663524,16.11328125,58.10546875,-265.13671875,-443.84765625,0.0
1733977640.6674294,-896.97265625,92.28515625,294.921875,-935.546875,0.0
1733977640.6713352,815.4296875,42.48046875,141.11328125,-217.28515625,0.0
1733977640.6752622,-545.8984375,-12.6953125,-234.86328125,759.765625,0.0
1733977640.679168,-1000.0,-3.90625,-461.9140625,669.43359375,0.0
1733977640.6830735,-357.421875,48.828125,-239.74609375,-351.5625,0.0
1733977640.6869793,990.72265625,81.54296875,151.85546875,-910.15625,0.0
1733977640.6908848,858.88671875,57.12890625,108.3984375,-310.05859375,0.0
1733977640.6947906,-564.94140625,7.32421875,-225.09765625,709.47265625,0.0
1733977640.6986961,-1000.0,4.8828125,-562.01171875,777.83203125,0.0
1733977640.7026017,-630.859375,55.17578125,-497.0703125,-191.40625,0.0
1733977640.7065074,824.21875,100.5859375,147.4609375,-926.26953125,0.0
1733977640.710413,986.81640625,73.2421875,234.86328125,-434.5703125,0.0
1733977640.7143188,-463.8671875,16.6015625,-113.76953125,638.18359375,0.0
1733977640.7182243,-1000.0,-1.953125,-526.3671875,836.42578125,0.0
1733977640.7221763,-760.25390625,50.29296875,-359.86328125,-743.65234375,0.0
1733977640.726082,669.921875,106.4453125,291.50390625,230.46875,0.0
1733977640.7299876,-915.52734375,70.3125,232.421875,871.58203125,0.0
1733977640.7338932,-339.84375,0.0,-303.7109375,305.17578125,0.0
1733977640.737799,-1000.0,-4.39453125,-475.09765625,-753.41796875,0.0
1733977640.7417045,-831.54296875,35.64453125,-395.5078125,-844.7265625,0.0
1733977640.7456102,523.4375,96.6796875,43.45703125,89.84375,0.0
1733977640.7495158,-826.66015625,103.02734375,266.11328125,799.31640625,0.0
1733977640.7534215,9.27734375,49.8046875,62.5,343.26171875,0.0
1733977640.757327,-1000.0,11.71875,-312.01171875,-709.9609375,0.0
1733977640.7612329,-852.5390625,32.71484375,-457.03125,-947.75390625,0.0
1733977640.7651384,517.08984375,79.1015625,-237.79296875,-94.7265625,0.0
1733977640.7690675,-811.5234375,99.609375,211.9140625,736.328125,0.0
1733977640.7729733,363.28125,49.8046875,184.5703125,420.8984375,0.0
1733977640.7768788,-998.046875,-15.13671875,-417.48046875,-608.88671875,0.0
1733977640.7807846,-919.43359375,20.01953125,-458.49609375,-1000.0,0.0
1733977640.7846901,502.9296875,91.30859375,77.63671875,-305.6640625,0.0
1733977640.788596,-820.3125,83.0078125,235.3515625,645.5078125,0.0
1733977640.7925014,574.21875,31.25,-118.1640625,475.09765625,0.0
1733977640.7964072,-850.09765625,2.44140625,-400.87890625,-547.36328125,0.0
1733977640.8003128,-1000.0,24.4140625,-426.26953125,-1000.0,0.0
1733977640.8042183,341.30859375,71.77734375,-163.57421875,-476.5625,0.0
1733977640.808124,-835.44921875,79.1015625,7.32421875,513.18359375,0.0
1733977640.8120296,716.796875,46.38671875,41.9921875,495.60546875,0.0
1733977640.8159797,-685.546875,4.8828125,-191.40625,0.0,0.0
1733977640.8198853,-1000.0,8.7890625,-488.28125,0.0,0.0
1733977640.823791,143.06640625,61.03515625,-165.0390625,0.0,0.0
1733977640.8276966,-871.58203125,96.6796875,304.19921875,0.0,0.0
1733977640.8316023,804.6875,58.10546875,201.66015625,0.0,0.0
1733977640.8355079,-552.24609375,-6.34765625,-332.51953125,0.0,0.0
1733977640.8394136,-1000.0,11.23046875,-564.94140625,0.0,0.0
1733977640.8433192,-195.3125,80.56640625,-167.48046875,0.0,0.0
1733977640.847225,-954.58984375,109.86328125,266.11328125,0.0,0.0
1733977640.8511305,837.40234375,72.75390625,85.44921875,0.0,0.0
1733977640.855036,-553.7109375,24.4140625,-324.70703125,0.0,0.0
1733977640.8589418,-1000.0,32.71484375,-488.76953125,0.0,0.0
1733977640.862869,-526.85546875,88.37890625,-208.0078125,-456.0546875,0.0
1733977640.8667748,908.203125,112.3046875,125.9765625,-1000.0,0.0
1733977640.8706803,913.0859375,71.2890625,-230.95703125,-557.12890625,0.0
1733977640.8745859,-542.48046875,40.0390625,-224.609375,428.22265625,0.0
1733977640.8784916,-1000.0,32.71484375,-355.46875,535.15625,0.0
1733977640.8823972,-706.0546875,66.40625,-490.72265625,-336.9140625,0.0
1733977640.886303,734.375,119.62890625,99.12109375,-995.1171875,0.0
1733977640.8902085,-949.70703125,107.91015625,324.70703125,-718.26171875,0.0
1733977640.8941143,-381.8359375,44.921875,-50.78125,302.24609375,0.0
1733977640.8980198,-1000.0,20.01953125,-560.546875,615.234375,0.0
1733977640.9019256,-793.9453125,80.56640625,-331.0546875,-210.9375,0.0
1733977640.905831,599.12109375,146.484375,296.875,-968.26171875,0.0
1733977640.909763,-862.3046875,120.1171875,281.73828125,-780.76171875,0.0
1733977640.9136689,-172.8515625,60.546875,-112.3046875,212.40234375,0.0
1733977640.9175744,-1000.0,46.38671875,-398.4375,646.97265625,0.0
1733977640.9214802,-837.890625,75.68359375,-281.25,-104.4921875,0.0
1733977640.9253857,514.16015625,119.140625,131.8359375,-934.5703125,0.0
1733977640.9292912,-813.4765625,102.05078125,-38.0859375,-816.89453125,0.0
1733977640.933197,200.68359375,49.8046875,-135.7421875,124.0234375,0.0
1733977640.9371026,-1000.0,30.2734375,-297.8515625,655.2734375,0.0
1733977640.9410083,-872.55859375,66.40625,-466.30859375,12.6953125,0.0
1733977640.9449139,524.4140625,118.65234375,-67.87109375,-895.01953125,0.0
1733977640.9488196,-820.3125,115.72265625,272.4609375,-953.125,0.0
1733977640.9527252,545.8984375,63.4765625,155.2734375,-75.68359375,0.0
1733977640.956664,-905.76171875,9.765625,-376.953125,599.12109375,0.0
1733977640.9605699,-967.28515625,20.5078125,-709.47265625,107.421875,0.0
1733977640.9644754,495.1171875,98.14453125,-120.60546875,-835.44921875,0.0
1733977640.9683812,-844.23828125,113.28125,305.17578125,-1000.0,0.0
1733977640.9722867,697.75390625,55.17578125,-71.2890625,-192.3828125,0.0
1733977640.9761922,-741.69921875,13.18359375,-470.703125,617.67578125,0.0
1733977640.980098,-1000.0,44.921875,-416.50390625,246.09375,0.0
1733977640.9840035,350.09765625,90.33203125,-99.12109375,-745.60546875,0.0
1733977640.9879093,-855.46875,95.21484375,83.49609375,-1000.0,0.0
1733977640.9918149,788.0859375,68.84765625,55.6640625,-181.640625,0.0
1733977640.9957206,-583.984375,35.64453125,-203.61328125,733.88671875,0.0
1733977640.9996262,-1000.0,45.41015625,-421.38671875,512.6953125,0.0
1733977641.003542,71.77734375,80.56640625,-193.359375,-487.3046875,0.0
1733977641.0074475,-883.30078125,108.3984375,272.94921875,-879.8828125,0.0
1733977641.0113533,810.05859375,83.49609375,280.76171875,-130.859375,0.0
1733977641.0152588,-545.41015625,24.90234375,-123.53515625,829.1015625,0.0
1733977641.0191643,-1000.0,8.30078125,-601.07421875,750.48828125,0.0
1733977641.02307,-308.10546875,70.80078125,-355.95703125,-218.75,0.0
1733977641.0269756,-991.69921875,121.09375,219.23828125,-744.62890625,0.0
1733977641.0308814,851.5625,84.47265625,197.265625,-117.67578125,0.0
1733977641.034787,-561.03515625,27.83203125,-177.24609375,833.984375,0.0
1733977641.0386927,-1000.0,26.85546875,-372.0703125,895.5078125,0.0
1733977641.0425982,-622.0703125,67.3828125,-199.21875,-2.9296875,0.0
1733977641.046504,833.984375,91.30859375,152.34375,-676.26953125,0.0
1733977641.050417,971.6796875,78.61328125,207.03125,-153.80859375,0.0
1733977641.0543227,-486.328125,38.0859375,27.83203125,802.24609375,0.0
1733977641.0582283,-1000.0,23.4375,-346.19140625,965.33203125,0.0
1733977641.062134,-766.11328125,50.78125,-403.3203125,146.97265625,0.0
1733977641.0660396,655.76171875,91.796875,144.53125,-641.11328125,0.0
1733977641.0699453,-899.90234375,83.0078125,227.05078125,-259.27734375,0.0
1733977641.0738509,-320.80078125,39.0625,-77.1484375,726.5625,0.0
1733977641.0777566,-1000.0,9.27734375,-547.36328125,-991.69921875,0.0
1733977641.0816622,-723.14453125,36.1328125,-610.83984375,232.421875,0.0
1733977641.0855677,567.87109375,108.3984375,55.6640625,-625.0,0.0
1733977641.0894735,-843.26171875,111.81640625,289.55078125,-382.32421875,0.0
1733977641.093379,39.0625,50.78125,33.69140625,583.984375,0.0
1733977641.0972996,-1000.0,18.5546875,-271.97265625,-993.65234375,0.0
1733977641.101205,-854.00390625,45.8984375,-266.11328125,327.63671875,0.0
1733977641.1051106,517.08984375,82.51953125,119.140625,-635.7421875,0.0
1733977641.1090164,-812.01171875,76.171875,187.5,-520.5078125,0.0
1733977641.112922,395.01953125,41.50390625,99.12109375,432.6171875,0.0
1733977641.1168277,-984.375,5.859375,-283.203125,974.609375,0.0
1733977641.1207333,-925.78125,25.390625,-467.7734375,411.62109375,0.0
1733977641.124639,503.41796875,68.84765625,-298.33984375,-609.375,0.0
1733977641.1285446,-829.1015625,102.05078125,175.78125,-689.94140625,0.0
1733977641.1324503,625.48828125,72.265625,234.86328125,224.609375,0.0
1733977641.1363559,-823.2421875,19.53125,-227.5390625,913.57421875,0.0
1733977641.1402617,-1000.0,36.1328125,-339.35546875,459.9609375,0.0
1733977641.1441815,396.484375,83.0078125,36.62109375,-572.75390625,0.0
1733977641.148087,-844.23828125,95.703125,304.6875,-772.94921875,0.0
1733977641.1519928,735.3515625,56.640625,143.06640625,94.23828125,0.0
1733977641.1558983,-667.48046875,23.92578125,-101.07421875,895.01953125,0.0
1733977641.1598039,-1000.0,30.2734375,-308.59375,561.5234375,0.0
1733977641.1637096,187.5,57.6171875,-196.77734375,-462.40234375,0.0
1733977641.1676152,-864.74609375,79.58984375,91.796875,-755.37109375,0.0
1733977641.171521,799.8046875,66.40625,181.640625,38.0859375,0.0
1733977641.1754265,-551.26953125,20.99609375,-105.46875,879.8828125,0.0
1733977641.1793323,-1000.0,14.6484375,-451.171875,678.7109375,0.0
1733977641.1832378,-187.98828125,46.875,-427.734375,-301.26953125,0.0
1733977641.1871436,-953.125,86.42578125,130.859375,-768.06640625,0.0
1733977641.1910777,0.0,72.75390625,291.015625,-102.5390625,0.0
1733977641.1949832,0.0,14.16015625,-83.984375,834.47265625,0.0
1733977641.198889,0.0,14.16015625,-354.4921875,787.59765625,0.0
1733977641.2027946,0.0,60.05859375,-168.45703125,-176.26953125,0.0
1733977641.2067003,0.0,84.47265625,278.80859375,-788.0859375,0.0
1733977641.2106059,0.0,52.24609375,169.921875,-215.33203125,0.0
1733977641.2145116,0.0,10.25390625,-151.3671875,791.9921875,0.0
1733977641.2184172,0.0,13.18359375,-304.6875,889.6484375,0.0
1733977641.222323,0.0,51.7578125,-183.10546875,-36.62109375,0.0
1733977641.2262285,0.0,76.171875,139.6484375,-758.7890625,0.0
1733977641.2301342,0.0,60.546875,100.09765625,-301.7578125,0.0
1733977641.2340398,0.0,29.78515625,71.2890625,697.75390625,0.0
1733977641.2379508,-1000.0,12.20703125,-206.0546875,929.19921875,0.0
1733977641.2418563,-797.8515625,36.62109375,-353.515625,105.46875,0.0
1733977641.245762,589.84375,80.56640625,66.89453125,-719.23828125,0.0
1733977641.2496676,-857.91015625,78.61328125,325.68359375,-423.33984375,0.0
1733977641.2535734,-155.76171875,24.90234375,108.3984375,584.47265625,0.0
1733977641.257479,-1000.0,-5.859375,-421.38671875,976.5625,0.0
1733977641.2613847,-841.30859375,34.66796875,-342.7734375,226.5625,0.0
1733977641.2652903,520.5078125,88.8671875,252.44140625,-704.1015625,0.0
1733977641.269196,-816.89453125,79.58984375,284.66796875,-534.1796875,0.0
1733977641.2731016,152.83203125,28.80859375,-107.421875,468.26171875,0.0
1733977641.2770073,-1000.0,19.53125,-349.609375,990.72265625,0.0
1733977641.2809129,-866.2109375,57.6171875,-232.91015625,356.4453125,0.0
1733977641.284845,521.484375,91.30859375,122.0703125,-644.04296875,0.0
1733977641.288751,-817.3828125,90.8203125,160.64453125,-618.65234375,0.0
1733977641.2926564,521.484375,53.22265625,150.87890625,319.82421875,0.0
1733977641.2965622,-912.109375,19.53125,-71.2890625,928.7109375,0.0
1733977641.3004677,-977.05078125,37.59765625,-368.1640625,405.2734375,0.0
1733977641.3043733,466.796875,58.10546875,-310.546875,-586.9140625,0.0
1733977641.308279,-835.9375,80.078125,163.57421875,-702.1484375,0.0
1733977641.3121846,674.8046875,66.40625,270.99609375,170.8984375,0.0
1733977641.3160903,-761.71875,15.13671875,-195.3125,893.06640625,0.0
1733977641.3199959,-1000.0,26.85546875,-362.3046875,476.5625,0.0
1733977641.3239017,328.125,82.51953125,21.484375,-566.89453125,0.0
1733977641.3278072,-845.703125,90.33203125,340.33203125,-821.77734375,0.0
1733977641.331731,0.0,46.38671875,133.30078125,1.953125,0.0
1733977641.3356369,0.0,14.6484375,-250.0,828.125,0.0
1733977641.3395424,0.0,38.0859375,-318.84765625,542.96875,0.0
1733977641.343448,0.0,73.73046875,-63.96484375,-485.3515625,0.0
1733977641.3473537,0.0,82.03125,202.63671875,-867.67578125,0.0
1733977641.3512592,0.0,55.6640625,146.97265625,-110.83984375,0.0
1733977641.355165,0.0,13.671875,-100.09765625,794.43359375,0.0
1733977641.3590705,0.0,21.484375,-315.91796875,623.53515625,0.0
1733977641.3629763,0.0,52.24609375,-319.3359375,-388.671875,0.0
1733977641.3668818,0.0,77.1484375,120.1171875,-900.87890625,0.0
1733977641.3707876,0.0,65.4296875,301.7578125,-279.78515625,0.0
1733977641.3746932,0.0,15.625,43.9453125,699.21875,0.0
1733977641.3786166,-1000.0,7.8125,-355.46875,716.30859375,0.0
1733977641.3825223,-568.359375,51.26953125,-177.24609375,-245.1171875,0.0
1733977641.3864279,874.0234375,92.28515625,341.30859375,-912.59765625,0.0
1733977641.3903334,945.3125,70.3125,271.97265625,-404.296875,0.0
1733977641.3942392,-507.8125,13.18359375,-163.0859375,609.375,0.0
1733977641.3981447,-1000.0,6.8359375,-395.01953125,737.79296875,0.0
1733977641.4020505,-734.375,49.31640625,-180.6640625,-142.08984375,0.0
1733977641.405956,695.80078125,80.56640625,201.66015625,-885.7421875,0.0
1733977641.4098618,-924.8046875,58.59375,130.37109375,-497.55859375,0.0
1733977641.4137673,-345.21484375,32.2265625,115.72265625,513.671875,0.0
1733977641.417673,-1000.0,19.53125,-104.98046875,788.57421875,0.0
1733977641.4215786,-829.1015625,37.109375,-307.6171875,-6.8359375,0.0
1733977641.425492,538.0859375,79.1015625,22.94921875,-849.609375,0.0
1733977641.4293978,-835.9375,92.28515625,323.73046875,-604.4921875,0.0
1733977641.4333034,-63.4765625,50.29296875,202.63671875,405.76171875,0.0
1733977641.4372091,-1000.0,12.20703125,-287.59765625,842.7734375,0.0
1733977641.4411147,-848.6328125,50.29296875,-309.5703125,142.08984375,0.0
1733977641.4450204,518.5546875,98.6328125,206.54296875,-808.59375,0.0
1733977641.448926,-808.10546875,81.54296875,278.80859375,-689.94140625,0.0
1733977641.4528315,236.81640625,41.015625,95.703125,328.125,0.0
1733977641.4567373,-1000.0,21.97265625,-77.1484375,851.07421875,0.0
1733977641.4606428,-777.34375,42.96875,-184.08203125,225.09765625,0.0
1733977641.4645486,561.5234375,81.54296875,125.9765625,-710.44921875,0.0
1733977641.4684541,-842.7734375,61.5234375,146.484375,-697.75390625,0.0
1733977641.4723668,611.81640625,26.85546875,78.61328125,237.3046875,0.0
1733977641.4762723,-848.6328125,13.671875,79.1015625,895.5078125,0.0
1733977641.480178,-1000.0,13.671875,-57.6171875,411.62109375,0.0
1733977641.4840837,413.57421875,55.6640625,81.0546875,-620.60546875,0.0
1733977641.4879894,-840.8203125,78.61328125,369.62890625,-792.96875,0.0
1733977641.491895,715.33203125,38.57421875,283.203125,85.44921875,0.0
1733977641.4958007,-707.51953125,-5.37109375,-117.67578125,882.32421875,0.0
1733977641.4997063,-1000.0,1.953125,-433.10546875,546.38671875,0.0
1733977641.5036118,270.01953125,59.5703125,112.3046875,-520.01953125,0.0
1733977641.5075176,-853.515625,76.66015625,471.19140625,-862.3046875,0.0
1733977641.511423,785.64453125,36.1328125,214.84375,-69.82421875,0.0
1733977641.515329,-574.70703125,0.48828125,-12.20703125,797.8515625,0.0
1733977641.519249,-1000.0,11.71875,12.20703125,564.94140625,0.0
1733977641.5231545,-60.05859375,46.875,166.9921875,-467.28515625,0.0
1733977641.5270603,-916.015625,67.3828125,298.828125,-913.57421875,0.0
1733977641.5309658,819.3359375,52.734375,282.2265625,-232.91015625,0.0
1733977641.5348716,-545.41015625,16.11328125,165.52734375,692.3828125,0.0
1733977641.538777,-1000.0,11.71875,-185.546875,609.86328125,0.0
1733977641.542683,-489.2578125,42.96875,-277.83203125,-360.3515625,0.0
1733977641.5465884,929.6875,84.47265625,255.37109375,-961.42578125,0.0
1733977641.5504942,893.5546875,71.77734375,381.8359375,-422.8515625,0.0
1733977641.5543997,-558.10546875,14.6484375,52.734375,576.66015625,0.0
1733977641.5583053,-1000.0,0.9765625,-321.2890625,629.39453125,0.0
1733977641.562211,-674.8046875,47.36328125,-76.171875,-307.6171875,0.0
1733977641.566121,788.57421875,90.33203125,425.78125,-978.515625,0.0
1733977641.5700269,991.69921875,57.12890625,323.73046875,-521.484375,0.0
1733977641.5739324,-479.00390625,-2.44140625,-103.02734375,524.4140625,0.0
1733977641.5778382,-1000.0,13.671875,-77.63671875,728.02734375,0.0
1733977641.5817437,-796.38671875,49.31640625,137.20703125,-124.0234375,0.0
1733977641.5856493,610.3515625,71.77734375,298.33984375,-891.11328125,0.0
1733977641.589555,-887.20703125,71.77734375,322.265625,-531.73828125,0.0
1733977641.5934606,-280.76171875,47.36328125,243.1640625,513.18359375,0.0
1733977641.5973663,-1000.0,28.3203125,118.65234375,853.515625,0.0
1733977641.6012719,-836.42578125,38.0859375,-26.85546875,85.9375,0.0
1733977641.6051776,520.5078125,62.98828125,59.5703125,-769.53125,0.0
1733977641.6090832,-823.73046875,77.63671875,355.46875,-582.51953125,0.0
1733977641.612992,37.109375,41.9921875,318.84765625,397.94921875,0.0
1733977641.6168978,-1000.0,1.953125,-94.23828125,895.01953125,0.0
1733977641.6208034,-856.93359375,26.85546875,-107.91015625,238.28125,0.0
1733977641.6247091,519.53125,79.1015625,313.4765625,-721.6796875,0.0
1733977641.6286147,-811.5234375,79.58984375,384.765625,-643.5546875,0.0
1733977641.6325204,350.5859375,28.3203125,149.4140625,329.1015625,0.0
1733977641.636426,-996.09375,8.7890625,-52.24609375,936.03515625,0.0
1733977641.6403317,-934.08203125,39.55078125,35.15625,385.7421875,0.0
1733977641.6442373,474.12109375,68.84765625,211.42578125,-624.0234375,0.0
1733977641.648143,-824.21875,60.546875,191.40625,-674.8046875,0.0
1733977641.6520486,622.0703125,45.8984375,231.4453125,236.328125,0.0
1733977641.6559544,-810.546875,20.99609375,121.58203125,921.38671875,0.0
1733977641.6598704,-1000.0,20.01953125,27.83203125,496.09375,0.0
1733977641.6637762,332.51953125,63.4765625,210.44921875,-532.2265625,0.0
1733977641.6676817,-844.7265625,81.54296875,380.859375,-757.8125,0.0
1733977641.6715875,750.9765625,42.48046875,330.56640625,74.70703125,0.0
1733977641.675493,-645.01953125,-6.34765625,19.04296875,889.16015625,0.0
1733977641.6793988,-1000.0,8.30078125,-259.765625,618.1640625,0.0
1733977641.6833043,143.5546875,67.87109375,105.46875,-405.2734375,0.0
1733977641.68721,-873.046875,109.86328125,463.37890625,-780.76171875,0.0
1733977641.6911156,809.5703125,90.8203125,270.5078125,-17.08984375,0.0
1733977641.6950212,-549.31640625,58.59375,16.11328125,870.1171875,0.0
1733977641.698927,-1000.0,75.68359375,42.48046875,707.51953125,0.0
1733977641.7028325,-177.734375,108.3984375,196.2890625,-272.4609375,0.0
1733977641.7067554,-949.21875,126.46484375,351.5625,-766.11328125,0.0
1733977641.710661,834.47265625,102.5390625,341.796875,-118.65234375,0.0
1733977641.7145667,-552.734375,55.6640625,224.609375,822.75390625,0.0
1733977641.7184722,-1000.0,40.52734375,55.17578125,800.29296875,0.0
1733977641.722378,-535.64453125,65.91796875,44.921875,-145.5078125,0.0
1733977641.7262836,891.11328125,103.02734375,283.203125,-747.0703125,0.0
1733977641.7301893,940.91796875,94.7265625,347.16796875,-201.171875,0.0
1733977641.7340949,-498.53515625,42.96875,218.75,770.99609375,0.0
1733977641.7380006,-1000.0,14.6484375,-234.375,910.15625,0.0
1733977641.7419062,-681.640625,53.22265625,-116.2109375,25.87890625,0.0
1733977641.7458117,758.30078125,108.3984375,449.70703125,-727.5390625,0.0
1733977641.7497175,-955.56640625,85.9375,362.3046875,-295.41015625,0.0
1733977641.753656,0.0,22.94921875,-40.52734375,713.8671875,0.0
1733977641.7575617,0.0,11.71875,-33.203125,965.33203125,0.0
1733977641.7614672,0.0,41.9921875,118.65234375,143.5546875,0.0
1733977641.765373,0.0,81.0546875,307.6171875,-687.01171875,0.0
1733977641.7692785,0.0,77.1484375,318.359375,-337.40234375,0.0
1733977641.7731843,0.0,36.1328125,147.94921875,616.2109375,0.0
1733977641.7770898,0.0,32.2265625,16.6015625,987.3046875,0.0
1733977641.7809956,0.0,59.5703125,-36.62109375,308.10546875,0.0
1733977641.7849011,0.0,84.9609375,68.359375,-620.60546875,0.0
1733977641.788807,0.0,97.16796875,348.14453125,-468.26171875,0.0
1733977641.7927125,0.0,55.6640625,300.29296875,490.72265625,0.0
1733977641.7966182,0.0,10.7421875,-155.76171875,997.55859375,0.0
1733977641.8005486,-885.7421875,37.59765625,-215.8203125,404.296875,0.0
1733977641.804454,530.76171875,90.33203125,284.66796875,-607.91015625,0.0
1733977641.8083599,-809.08203125,83.984375,362.3046875,-607.421875,0.0
1733977641.8122654,526.3671875,33.69140625,151.3671875,338.37890625,0.0
1733977641.8161712,-916.9921875,8.7890625,-58.59375,966.796875,0.0
1733977641.8200767,-677.24609375,39.0625,-212.890625,350.09765625,0.0
1733977641.8239825,617.67578125,82.03125,3.41796875,-576.171875,0.0
1733977641.827888,-895.01953125,85.9375,200.68359375,-605.95703125,0.0
1733977641.8317938,720.21484375,53.7109375,171.875,217.28515625,0.0
1733977641.8356993,-736.328125,19.53125,-98.6328125,938.4765625,0.0
1733977641.839605,-1000.0,34.1796875,-319.82421875,583.0078125,0.0
1733977641.8435106,294.921875,70.80078125,-115.234375,-443.359375,0.0
1733977641.8474388,-854.4921875,97.65625,298.828125,-727.05078125,0.0
1733977641.8513443,790.52734375,74.21875,296.875,72.265625,0.0
1733977641.8552501,-589.35546875,16.6015625,-86.42578125,897.4609375,0.0
1733977641.8591557,-1000.0,15.13671875,-460.44921875,687.01171875,0.0
1733977641.8630612,81.54296875,69.3359375,-93.26171875,-339.35546875,0.0
1733977641.866967,-882.32421875,92.7734375,282.2265625,-769.04296875,0.0
1733977641.8708725,805.17578125,63.96484375,131.8359375,-23.4375,0.0
1733977641.8747783,-539.55078125,26.85546875,-187.01171875,868.65234375,0.0
1733977641.8786838,-1000.0,37.59765625,-354.00390625,735.3515625,0.0
1733977641.8825896,-397.4609375,80.078125,-211.9140625,-245.1171875,0.0
1733977641.886495,973.6328125,113.76953125,168.9453125,-801.26953125,0.0
1733977641.890401,865.234375,92.28515625,222.16796875,-200.1953125,0.0
1733977641.894312,-569.82421875,44.921875,-2.44140625,777.34375,0.0
1733977641.8982177,-1000.0,37.109375,-288.0859375,793.45703125,0.0
1733977641.9021232,-678.22265625,60.05859375,-379.39453125,-149.4140625,0.0
1733977641.906029,794.921875,90.8203125,-157.2265625,-812.98828125,0.0
1733977641.9099345,971.19140625,97.16796875,214.35546875,-352.5390625,0.0
1733977641.9138403,-511.71875,39.55078125,-7.32421875,651.3671875,0.0
1733977641.9177458,-1000.0,10.7421875,-545.41015625,816.40625,0.0
1733977641.9216516,-756.34765625,65.91796875,-273.4375,-72.265625,0.0
1733977641.9255571,670.8984375,112.3046875,318.359375,-850.09765625,0.0
1733977641.929463,-917.48046875,88.8671875,208.984375,-482.421875,0.0
1733977641.9333684,-338.37890625,33.203125,-219.23828125,551.26953125,0.0
1733977641.9372742,-1000.0,21.97265625,-387.6953125,844.23828125,0.0
1733977641.9411845,-817.3828125,55.6640625,-209.9609375,35.64453125,0.0
1733977641.94509,537.59765625,91.30859375,187.5,-817.87109375,0.0
1733977641.9489958,-827.63671875,73.2421875,26.3671875,-555.17578125,0.0
1733977641.9529014,32.2265625,48.33984375,45.41015625,461.42578125,0.0
1733977641.9568071,-1000.0,30.76171875,-51.7578125,887.20703125,0.0
1733977641.9607127,-854.00390625,44.921875,-366.69921875,204.58984375,0.0
1733977641.9646184,516.6015625,84.9609375,-83.49609375,-723.6328125,0.0
1733977641.968524,-812.5,99.609375,313.96484375,-628.41796875,0.0
1733977641.9724298,401.85546875,58.10546875,257.8125,354.98046875,0.0
1733977641.9763353,-988.76953125,7.8125,-195.80078125,942.87109375,0.0
1733977641.980241,-907.71484375,38.57421875,-282.71484375,371.09375,0.0
1733977641.9841466,532.2265625,99.12109375,214.35546875,-620.60546875,0.0
1733977641.9880638,-826.66015625,97.16796875,350.09765625,910.15625,0.0
1733977641.9919693,589.84375,42.48046875,121.09375,761.71875,0.0
1733977641.9958751,-857.421875,12.6953125,-244.62890625,-233.88671875,0.0
1733977641.9997807,-1000.0,38.0859375,-364.74609375,-709.9609375,0.0
1733977642.0036864,411.62109375,85.9375,15.13671875,-13.671875,0.0
1733977642.007592,-839.84375,92.7734375,206.54296875,877.9296875,0.0
1733977642.0114977,714.35546875,65.91796875,102.5390625,858.88671875,0.0
1733977642.0154033,-691.40625,31.25,-64.94140625,-86.9140625,0.0
1733977642.019309,-1000.0,22.94921875,-361.81640625,-695.80078125,0.0
1733977642.0232146,190.4296875,57.12890625,-306.640625,-112.3046875,0.0
1733977642.02712,-865.234375,89.84375,206.0546875,828.61328125,0.0
1733977642.031026,805.17578125,68.359375,290.52734375,931.640625,0.0
1733977642.0349436,-562.01171875,10.7421875,-122.0703125,0.0,0.0
1733977642.038849,-1000.0,10.7421875,-433.10546875,0.0,0.0
1733977642.042755,-67.87109375,68.359375,-91.796875,0.0,0.0
1733977642.0466604,-917.48046875,102.5390625,344.7265625,0.0,0.0
1733977642.0505662,822.265625,62.98828125,195.3125,0.0,0.0
1733977642.0544717,-547.36328125,1.46484375,-354.00390625,0.0,0.0
1733977642.0583775,-1000.0,22.94921875,-479.4921875,0.0,0.0
1733977642.062283,-451.171875,75.1953125,-110.83984375,0.0,0.0
1733977642.0661888,949.21875,97.16796875,201.171875,0.0,0.0
1733977642.0700943,882.8125,75.1953125,141.11328125,0.0,0.0
1733977642.0740001,-562.01171875,39.55078125,6.34765625,0.0,0.0
1733977642.0779057,-1000.0,34.1796875,-305.6640625,0.0,0.0
1733977642.0818212,-708.984375,66.40625,-270.01953125,47.36328125,0.0
1733977642.085727,752.44140625,107.421875,223.14453125,-678.22265625,0.0
1733977642.0896325,-992.1875,89.35546875,294.921875,-220.703125,0.0
1733977642.0935383,-469.7265625,34.1796875,36.1328125,751.953125,0.0
1733977642.0974438,-1000.0,11.23046875,-451.66015625,981.4453125,0.0
1733977642.1013496,-830.078125,49.31640625,-415.52734375,170.8984375,0.0
1733977642.1052551,593.26171875,104.4921875,222.65625,-685.05859375,0.0
1733977642.109161,-911.1328125,91.30859375,300.29296875,-372.55859375,0.0
1733977642.1130664,-369.140625,14.6484375,-259.765625,641.11328125,0.0
1733977642.116972,-1000.0,-0.48828125,-547.36328125,-996.09375,0.0
1733977642.1208777,-833.984375,52.24609375,-299.31640625,266.11328125,0.0
1733977642.1247833,520.5078125,85.9375,85.44921875,-657.71484375,0.0
1733977642.1286979,0.0,78.125,239.2578125,-448.73046875,0.0
1733977642.1326034,0.0,26.85546875,115.72265625,539.55078125,0.0
1733977642.1365092,0.0,4.39453125,-266.11328125,-996.09375,0.0
1733977642.1404147,0.0,40.52734375,-402.83203125,380.37109375,0.0
1733977642.1443205,0.0,86.9140625,-6.8359375,-610.3515625,0.0
1733977642.148226,0.0,79.58984375,249.0234375,-556.640625,0.0
1733977642.1521316,0.0,36.1328125,116.2109375,396.97265625,0.0
1733977642.1560373,0.0,5.859375,-379.8828125,974.609375,0.0
1733977642.1599429,0.0,26.85546875,-601.07421875,452.63671875,0.0
1733977642.1638486,0.0,99.12109375,50.78125,-598.14453125,0.0
1733977642.1677542,0.0,104.4921875,374.0234375,-714.84375,0.0
1733977642.17166,0.0,51.7578125,114.2578125,198.73046875,0.0
1733977642.1755733,-841.30859375,12.6953125,-305.17578125,921.38671875,0.0
1733977642.179479,-1000.0,35.15625,-437.98828125,509.27734375,0.0
1733977642.1833847,301.7578125,94.7265625,-12.6953125,-544.921875,0.0
1733977642.1872902,-833.0078125,114.74609375,301.7578125,-774.4140625,0.0
1733977642.1911957,710.9375,84.9609375,157.71484375,104.00390625,0.0
1733977642.1951015,-679.19921875,46.875,-335.9375,899.90234375,0.0
1733977642.199007,-1000.0,63.96484375,-538.0859375,651.85546875,0.0
1733977642.2029128,48.828125,116.2109375,-322.75390625,-353.02734375,0.0
1733977642.2068183,-890.625,145.99609375,114.74609375,-725.5859375,0.0
1733977642.210724,815.4296875,118.1640625,175.29296875,56.640625,0.0
1733977642.2146297,-559.08203125,70.3125,-209.47265625,909.66796875,0.0
1733977642.2185354,-1000.0,75.68359375,-648.92578125,834.47265625,0.0
1733977642.2224476,-200.68359375,144.53125,-279.296875,-140.13671875,0.0
1733977642.2263534,-956.0546875,188.4765625,317.3828125,-664.55078125,0.0
1733977642.230259,837.890625,153.3203125,159.1796875,42.96875,0.0
1733977642.2341647,-554.19921875,105.95703125,-294.921875,891.6015625,0.0
1733977642.2380702,-1000.0,115.234375,-542.48046875,951.66015625,0.0
1733977642.241976,-529.296875,172.36328125,-312.98828125,112.79296875,0.0
1733977642.2458816,903.80859375,221.19140625,94.7265625,-539.0625,0.0
1733977642.2497873,920.8984375,192.87109375,-163.0859375,76.171875,0.0
1733977642.2536929,-530.76171875,144.04296875,-259.27734375,887.6953125,0.0
1733977642.2575986,-1000.0,127.9296875,-384.27734375,987.79296875,0.0
1733977642.2615042,-686.03515625,159.66796875,-372.55859375,271.97265625,0.0
1733977642.26541,746.58203125,207.03125,188.96484375,-509.27734375,0.0
1733977642.269329,-942.3828125,185.546875,278.80859375,-58.59375,0.0
1733977642.2732346,-357.421875,124.0234375,-53.7109375,832.03125,0.0
1733977642.2771401,-1000.0,104.98046875,-487.79296875,-987.3046875,0.0
1733977642.281046,-820.3125,158.69140625,-383.30078125,310.05859375,0.0
1733977642.2849514,561.5234375,206.0546875,157.2265625,-612.3046875,0.0
1733977642.2888572,-849.12109375,182.12890625,132.32421875,-337.40234375,0.0
1733977642.2927628,-138.671875,129.39453125,-290.52734375,676.26953125,0.0
1733977642.2966685,-1000.0,124.0234375,-579.1015625,990.72265625,0.0
1733977642.300574,-821.77734375,168.9453125,-438.4765625,175.29296875,0.0
1733977642.3044798,506.34765625,210.9375,-98.14453125,-860.83984375,0.0
1733977642.3083854,-814.94140625,208.0078125,27.83203125,-761.71875,0.0
1733977642.3122911,521.97265625,168.9453125,34.1796875,222.16796875,0.0
1733977642.3162093,0.0,135.7421875,-259.765625,664.55078125,0.0
1733977642.320115,0.0,145.01953125,-427.24609375,-67.3828125,0.0
1733977642.3240206,0.0,177.24609375,-102.05078125,-926.26953125,0.0
1733977642.3279262,0.0,186.5234375,204.1015625,-987.3046875,0.0
1733977642.331832,0.0,151.3671875,87.890625,-135.25390625,0.0
1733977642.3357375,0.0,104.4921875,-364.74609375,573.73046875,0.0
1733977642.3396432,0.0,117.67578125,-527.83203125,16.11328125,0.0
1733977642.3435488,0.0,170.8984375,-137.6953125,-888.18359375,0.0
1733977642.3474545,0.0,186.03515625,239.74609375,-993.65234375,0.0
1733977642.35136,0.0,137.20703125,-56.640625,-94.7265625,0.0
1733977642.3552659,0.0,83.984375,-616.2109375,780.2734375,0.0
1733977642.3591714,0.0,114.2578125,-598.14453125,374.0234375,0.0
1733977642.3630807,-347.65625,163.57421875,-213.8671875,-687.98828125,0.0
1733977642.3669865,-940.91796875,172.8515625,78.125,-855.95703125,0.0
1733977642.370892,585.9375,147.4609375,19.53125,98.14453125,0.0
1733977642.3747978,-828.61328125,111.328125,-335.9375,934.08203125,0.0
1733977642.3787034,-1000.0,119.62890625,-508.30078125,772.4609375,0.0
1733977642.3826091,-390.13671875,144.53125,-384.27734375,-238.76953125,0.0
1733977642.3865147,982.91015625,167.96875,22.4609375,-615.234375,0.0
1733977642.3904204,865.234375,154.78515625,104.98046875,227.05078125,0.0
1733977642.394326,-572.75390625,99.609375,-288.0859375,946.77734375,0.0
1733977642.3982315,-1000.0,77.1484375,-696.2890625,941.89453125,0.0
1733977642.4021373,-478.515625,121.58203125,-402.83203125,67.3828125,0.0
1733977642.4060428,939.453125,163.0859375,199.70703125,-531.73828125,0.0
1733977642.4099593,0.0,133.30078125,136.23046875,193.359375,0.0
1733977642.4138649,0.0,80.56640625,-259.765625,929.6875,0.0
1733977642.4177706,0.0,72.265625,-534.1796875,977.05078125,0.0
1733977642.4216762,0.0,108.3984375,-325.68359375,202.63671875,0.0
1733977642.425582,0.0,128.90625,93.26171875,-483.3984375,0.0
1733977642.4294875,0.0,97.16796875,-122.0703125,176.26953125,0.0
1733977642.4333932,0.0,59.5703125,-397.94921875,917.48046875,0.0
1733977642.4372988,0.0,47.8515625,-556.15234375,-997.55859375,0.0
1733977642.4412045,0.0,63.96484375,-675.78125,446.2890625,0.0
1733977642.44511,0.0,96.19140625,-370.60546875,-246.09375,0.0
1733977642.4490159,0.0,92.28515625,-201.171875,276.85546875,0.0
1733977642.4529214,0.0,46.38671875,-441.89453125,926.7578125,0.0
1733977642.4568443,-1000.0,25.87890625,-721.19140625,-988.76953125,0.0
1733977642.46075,-837.890625,58.59375,-722.65625,650.390625,0.0
1733977642.4646556,527.34375,99.12109375,-403.80859375,-97.65625,0.0
1733977642.4685614,-846.19140625,88.37890625,-403.3203125,258.7890625,0.0
1733977642.472467,-136.71875,39.55078125,-730.46875,915.52734375,0.0
1733977642.4763725,-1000.0,15.625,-917.48046875,-988.28125,0.0
1733977642.4802783,-831.54296875,50.78125,-927.24609375,669.43359375,0.0
1733977642.4841838,503.41796875,93.26171875,-808.59375,-258.30078125,0.0
1733977642.4880896,-810.05859375,76.66015625,-904.296875,-160.64453125,0.0
1733977642.491995,428.22265625,47.8515625,-991.2109375,757.8125,0.0
1733977642.4959009,-972.65625,42.48046875,-979.98046875,-970.703125,0.0
1733977642.4998064,-924.31640625,56.15234375,-1000.0,384.765625,0.0
1733977642.5037222,519.04296875,83.49609375,-998.53515625,-737.3046875,0.0
1733977642.5076277,-842.28515625,103.02734375,-1000.0,-836.9140625,0.0
1733977642.5115335,680.6640625,75.1953125,-1000.0,122.55859375,0.0
1733977642.515439,-770.5078125,38.57421875,-1000.0,698.2421875,0.0
1733977642.5193446,-1000.0,60.546875,-1000.0,22.94921875,0.0
1733977642.5232503,397.94921875,98.6328125,-1000.0,-896.97265625,0.0
1733977642.5271559,-859.86328125,122.0703125,-1000.0,-1000.0,0.0
1733977642.5310616,792.96875,103.02734375,-1000.0,-341.796875,0.0
1733977642.5349672,-613.76953125,61.03515625,-1000.0,373.53515625,0.0
1733977642.538873,-1000.0,88.37890625,-1000.0,-179.19921875,0.0
1733977642.5427785,259.765625,139.16015625,-1000.0,-931.640625,0.0
1733977642.5466843,-859.375,150.87890625,-1000.0,-1000.0,0.0
1733977642.5505977,809.08203125,137.6953125,-1000.0,-690.4296875,0.0
1733977642.5545032,-558.59375,114.74609375,-1000.0,-66.40625,0.0
1733977642.558409,-1000.0,105.95703125,-1000.0,-508.30078125,0.0
1733977642.5623145,17.578125,120.60546875,-1000.0,-1000.0,0.0
1733977642.5662203,-932.6171875,134.765625,-1000.0,-1000.0,0.0
1733977642.5701258,905.76171875,109.375,-1000.0,-963.8671875,0.0
1733977642.5740316,-396.484375,67.3828125,-1000.0,-756.8359375,0.0
1733977642.5779371,-1000.0,51.7578125,-1000.0,-917.96875,0.0
1733977642.581843,-298.828125,73.73046875,-1000.0,-1000.0,0.0
1733977642.5857484,936.03515625,108.88671875,-1000.0,-984.86328125,0.0
1733977642.589654,-977.05078125,92.28515625,-1000.0,-1000.0,0.0
1733977642.5935597,-176.7578125,40.52734375,-1000.0,-1000.0,0.0
1733977642.597472,-1000.0,33.69140625,-1000.0,-1000.0,0.0
1733977642.6013777,-583.49609375,58.10546875,-1000.0,-1000.0,0.0
1733977642.6052833,802.24609375,66.40625,-1000.0,-1000.0,0.0
1733977642.609189,-913.57421875,53.7109375,-1000.0,-1000.0,0.0
1733977642.6130946,-126.953125,30.76171875,-1000.0,-1000.0,0.0
1733977642.6170003,-1000.0,14.6484375,-1000.0,-1000.0,0.0
1733977642.6209059,-864.2578125,25.390625,-1000.0,-1000.0,0.0
