timestamps,TP9,AF7,AF8,TP10,Right AUX
1733977608.4712107,0.0,-555.6640625,0.0,785.15625,0.0
1733977608.4751165,0.0,-1000.0,0.0,-937.5,0.0
1733977608.479022,0.0,-583.0078125,0.0,-321.77734375,0.0
1733977608.4829276,0.0,891.11328125,0.0,-1000.0,0.0
1733977608.486833,0.0,911.1328125,0.0,-801.26953125,0.0
1733977608.4907386,0.0,-565.4296875,0.0,576.171875,0.0
1733977608.4946442,0.0,-1000.0,0.0,-840.33203125,0.0
1733977608.4985497,0.0,-724.12109375,0.0,-70.80078125,0.0
1733977608.5024552,0.0,726.07421875,0.0,-1000.0,0.0
1733977608.5063608,0.0,-956.0546875,0.0,-843.75,0.0
1733977608.5102663,0.0,-411.1328125,0.0,514.16015625,0.0
1733977608.5141718,0.0,-1000.0,0.0,-809.08203125,0.0
1733977608.5180843,-565.4296875,-817.87109375,-982.91015625,307.6171875,0.0
1733977608.5219898,863.28125,575.1953125,-908.69140625,-1000.0,0.0
1733977608.5258954,-998.53515625,-859.86328125,542.48046875,-887.6953125,0.0
1733977608.529801,-400.87890625,-224.12109375,-823.73046875,530.76171875,0.0
1733977608.5337064,-1000.0,-1000.0,505.859375,-816.89453125,0.0
1733977608.537612,-642.578125,-832.51953125,-935.05859375,542.48046875,0.0
1733977608.5415175,786.1328125,512.6953125,-942.3828125,-910.64453125,0.0
1733977608.545423,-938.4765625,-811.03515625,520.99609375,-983.88671875,0.0
1733977608.5493286,-319.3359375,164.0625,-818.359375,463.8671875,0.0
1733977608.553234,-1000.0,-1000.0,512.6953125,-823.73046875,0.0
1733977608.5571396,-772.94921875,-866.2109375,-864.2578125,626.46484375,0.0
1733977608.5610452,605.95703125,520.99609375,-1000.0,-798.33984375,0.0
1733977608.5649657,-841.796875,-802.734375,234.86328125,-1000.0,0.0
1733977608.5688713,-33.69140625,479.00390625,-798.828125,295.8984375,0.0
1733977608.5727768,-1000.0,-852.05078125,553.7109375,-853.02734375,0.0
1733977608.5766823,-834.9609375,-1000.0,-791.015625,773.92578125,0.0
1733977608.5805879,510.25390625,-1.953125,-1000.0,-522.4609375,0.0
1733977608.5844934,-834.9609375,-894.04296875,-241.2109375,-1000.0,0.0
1733977608.588399,686.5234375,804.19921875,-981.4453125,-699.70703125,0.0
1733977608.5923045,-740.72265625,-537.59765625,882.8125,678.22265625,0.0
1733977608.59621,-1000.0,-1000.0,-503.90625,-864.74609375,0.0
1733977608.6001155,291.015625,-659.1796875,-1000.0,-69.3359375,0.0
1733977608.604021,-841.30859375,835.44921875,-879.8828125,-1000.0,0.0
1733977608.6079266,743.1640625,917.96875,609.86328125,-784.1796875,0.0
1733977608.6118455,-741.69921875,-587.890625,946.77734375,603.02734375,0.0
1733977608.615751,-1000.0,-1000.0,-683.59375,-826.171875,0.0
1733977608.6196566,469.23828125,-473.14453125,-1000.0,209.47265625,0.0
1733977608.623562,-879.8828125,806.640625,23.4375,-1000.0,0.0
1733977608.6274676,849.609375,-959.47265625,954.58984375,-872.0703125,0.0
1733977608.6313732,-656.73828125,930.6640625,-927.24609375,522.94921875,0.0
1733977608.6352787,-937.01171875,-609.86328125,627.9296875,-815.4296875,0.0
1733977608.6391842,687.01171875,-654.296875,-797.8515625,545.41015625,0.0
1733977608.6430898,-956.0546875,982.421875,281.73828125,-917.96875,0.0
1733977608.6469953,996.09375,918.9453125,-907.2265625,-961.9140625,0.0
1733977608.6509008,-407.71484375,-940.4296875,991.69921875,500.0,0.0
1733977608.6548064,-895.01953125,708.49609375,776.3671875,-832.51953125,0.0
1733977608.6587238,792.48046875,-333.984375,-774.90234375,649.90234375,0.0
1733977608.6626294,986.328125,697.265625,70.80078125,-767.578125,0.0
1733977608.666535,-916.9921875,-888.18359375,-890.13671875,-1000.0,0.0
1733977608.6704404,95.703125,890.13671875,948.2421875,254.39453125,0.0
1733977608.674346,-619.140625,986.81640625,842.28515625,-852.05078125,0.0
1733977608.6782515,775.390625,969.7265625,-577.1484375,788.0859375,0.0
1733977608.682157,-773.92578125,969.7265625,-42.96875,-729.00390625,0.0
1733977608.6860626,67.3828125,970.21484375,-943.84765625,-990.72265625,0.0
1733977608.689968,-933.10546875,983.88671875,-983.88671875,575.1953125,0.0
1733977608.6938736,539.0625,899.90234375,686.03515625,-820.3125,0.0
1733977608.6977792,-801.26953125,-937.98828125,-690.4296875,318.359375,0.0
1733977608.7016847,-37.109375,630.37109375,-49.8046875,-969.23828125,0.0
1733977608.7056012,-1000.0,-919.921875,204.1015625,-1000.0,0.0
1733977608.7095068,-840.33203125,-926.7578125,-1000.0,454.58984375,0.0
1733977608.7134123,697.75390625,573.73046875,-590.8203125,-937.5,0.0
1733977608.7173178,-1000.0,-888.18359375,668.9453125,-540.52734375,0.0
1733977608.7212234,-512.6953125,836.9140625,-940.91796875,-1000.0,0.0
1733977608.725129,-1000.0,-644.04296875,690.4296875,-1000.0,0.0
1733977608.7290344,-715.8203125,-991.69921875,-735.83984375,-379.39453125,0.0
1733977608.73294,695.80078125,574.70703125,-134.27734375,966.30859375,0.0
1733977608.7368455,-851.5625,-861.81640625,-925.29296875,-264.6484375,0.0
1733977608.740751,-390.13671875,738.28125,936.03515625,-1000.0,0.0
1733977608.7446566,-1000.0,-779.78515625,912.109375,-793.9453125,0.0
1733977608.748562,469.23828125,-905.2734375,855.46875,492.1875,0.0
1733977608.7524774,-948.73046875,654.78515625,931.15234375,-819.82421875,0.0
1733977608.756383,-974.609375,-898.92578125,924.31640625,626.46484375,0.0
1733977608.7602885,69.82421875,826.66015625,-980.95703125,-750.48828125,0.0
1733977608.764194,-1000.0,-659.1796875,631.34765625,-1000.0,0.0
1733977608.7680995,189.94140625,-1000.0,-858.88671875,-934.08203125,0.0
1733977608.772005,-880.37109375,640.625,-889.6484375,-1000.0,0.0
1733977608.7759106,905.2734375,-927.24609375,579.58984375,-1000.0,0.0
1733977608.7798162,967.7734375,895.5078125,-901.3671875,-1000.0,0.0
1733977608.7837217,969.7265625,985.83984375,688.4765625,-1000.0,0.0
1733977608.7876272,985.83984375,986.81640625,-632.8125,-1000.0,0.0
1733977608.7915328,908.69140625,910.15625,-1000.0,-1000.0,0.0
1733977608.7954383,-985.3515625,-971.6796875,-880.859375,-1000.0,0.0
1733977608.7993526,891.6015625,833.49609375,-786.1328125,-1000.0,0.0
1733977608.8032582,-668.9453125,-556.640625,-873.046875,-1000.0,0.0
1733977608.8071637,-1000.0,-1000.0,-1000.0,-1000.0,0.0
1733977608.8110693,693.84765625,-310.546875,-794.43359375,-1000.0,0.0
1733977608.8149748,962.890625,649.90234375,117.1875,-1000.0,0.0
1733977608.8188803,-671.875,-556.640625,631.8359375,-1000.0,0.0
1733977608.8227859,-1000.0,-1000.0,255.37109375,-1000.0,0.0
1733977608.8266914,-925.78125,-931.15234375,-101.5625,-1000.0,0.0
1733977608.830597,-1000.0,-1000.0,-741.2109375,-1000.0,0.0
1733977608.8345025,-1000.0,-1000.0,-379.8828125,-1000.0,0.0
1733977608.838408,-1000.0,-1000.0,-539.0625,-1000.0,0.0
1733977608.8423135,-1000.0,-1000.0,-844.23828125,-1000.0,0.0
1733977608.8462355,-1000.0,-1000.0,-882.32421875,-1000.0,0.0
1733977608.850141,-1000.0,-1000.0,-286.62109375,-1000.0,0.0
1733977608.8540466,-1000.0,-1000.0,840.33203125,-1000.0,0.0
1733977608.857952,-1000.0,-1000.0,943.359375,-940.4296875,0.0
1733977608.8618577,-996.09375,-970.703125,847.16796875,-1000.0,0.0
1733977608.8657632,-1000.0,-1000.0,754.8828125,-327.1484375,0.0
1733977608.8696687,-964.84375,-938.96484375,805.6640625,966.30859375,0.0
1733977608.8735745,-944.82421875,-394.04296875,890.13671875,979.00390625,0.0
1733977608.87748,-1000.0,-759.765625,948.2421875,932.6171875,0.0
1733977608.8813856,-996.58203125,-1000.0,773.4375,979.98046875,0.0
1733977608.885291,-1000.0,-964.84375,-542.96875,969.7265625,0.0
1733977608.8891966,-973.6328125,-1000.0,-1000.0,987.3046875,0.0
1733977608.8931081,-955.56640625,-1000.0,-592.28515625,886.71875,0.0
1733977608.8970137,-1000.0,-1000.0,-746.09375,-889.16015625,0.0
1733977608.9009192,-1000.0,-1000.0,-1000.0,673.33984375,0.0
1733977608.9048247,-999.0234375,-1000.0,-992.67578125,-733.88671875,0.0
1733977608.9087303,-1000.0,-1000.0,-997.55859375,304.6875,0.0
1733977608.9126358,-1000.0,-1000.0,-1000.0,-811.03515625,0.0
1733977608.9165413,-1000.0,-1000.0,-1000.0,876.46484375,0.0
1733977608.9204469,-1000.0,-1000.0,-993.65234375,-408.203125,0.0
1733977608.9243524,-1000.0,-957.03125,-964.84375,-1000.0,0.0
1733977608.928258,-1000.0,-1000.0,-1000.0,145.01953125,0.0
1733977608.9321635,-1000.0,-1000.0,-300.29296875,-927.24609375,0.0
1733977608.936069,-1000.0,458.984375,827.1484375,921.38671875,0.0
1733977608.939989,-926.26953125,832.03125,938.96484375,962.40234375,0.0
1733977608.9438946,-1000.0,-904.78515625,869.140625,972.16796875,0.0
1733977608.9478002,-837.40234375,-800.78125,874.51171875,981.93359375,0.0
1733977608.9517057,457.03125,754.39453125,883.7890625,889.16015625,0.0
1733977608.9556112,-478.02734375,983.88671875,916.50390625,-878.41796875,0.0
1733977608.9595168,-1000.0,-414.55078125,803.7109375,542.48046875,0.0
1733977608.9634223,-909.66796875,-1000.0,-64.94140625,-709.47265625,0.0
1733977608.9673278,-1000.0,-940.4296875,-922.36328125,505.859375,0.0
1733977608.9712334,-1000.0,-1000.0,-20.99609375,-880.859375,0.0
1733977608.975139,-1000.0,-1000.0,861.328125,917.96875,0.0
1733977608.9790444,-1000.0,-983.3984375,499.51171875,732.421875,0.0
1733977608.98295,-926.7578125,-970.703125,246.09375,-187.01171875,0.0
1733977608.98687,0.0,-1000.0,185.546875,-111.328125,0.0
1733977608.9907756,0.0,10.25390625,621.58203125,908.203125,0.0
1733977608.9946811,0.0,-945.3125,827.63671875,-984.86328125,0.0
1733977608.9985867,0.0,933.59375,718.75,921.38671875,0.0
1733977609.0024922,0.0,957.03125,672.36328125,980.95703125,0.0
1733977609.0063977,0.0,974.12109375,536.1328125,969.7265625,0.0
1733977609.0103033,0.0,969.7265625,726.07421875,969.7265625,0.0
1733977609.0142088,0.0,969.7265625,892.578125,969.7265625,0.0
1733977609.0181143,0.0,969.7265625,923.828125,970.21484375,0.0
1733977609.0220199,0.0,969.7265625,587.40234375,970.21484375,0.0
1733977609.0259254,0.0,969.7265625,-706.54296875,969.7265625,0.0
1733977609.029831,0.0,984.375,-899.90234375,969.7265625,0.0
1733977609.033729,-1000.0,915.52734375,-282.2265625,0.0,0.0
1733977609.0376346,-668.9453125,-982.91015625,-729.98046875,0.0,0.0
1733977609.0415401,-969.23828125,869.140625,-1000.0,0.0,0.0
1733977609.0454457,645.99609375,-559.5703125,-974.609375,0.0,0.0
1733977609.0493512,-774.90234375,-1000.0,-1000.0,0.0,0.0
1733977609.0532568,509.765625,-928.7109375,-1000.0,0.0,0.0
1733977609.0571623,-847.65625,-1000.0,-1000.0,0.0,0.0
1733977609.0610678,876.953125,-1000.0,-1000.0,0.0,0.0
1733977609.0649734,984.86328125,-1000.0,-1000.0,0.0,0.0
1733977609.068879,968.75,-1000.0,-1000.0,0.0,0.0
1733977609.0727844,969.23828125,-1000.0,-1000.0,0.0,0.0
1733977609.07669,967.7734375,-1000.0,-1000.0,0.0,0.0
1733977609.0806096,-1000.0,-1000.0,-1000.0,164.0625,0.0
1733977609.084515,-1000.0,-1000.0,-1000.0,-1000.0,0.0
1733977609.0884206,-1000.0,-1000.0,-1000.0,-681.640625,0.0
1733977609.0923262,-1000.0,-1000.0,-1000.0,968.26171875,0.0
1733977609.0962317,-1000.0,-1000.0,-1000.0,649.4140625,0.0
1733977609.1001372,-1000.0,-1000.0,-1000.0,-860.3515625,0.0
1733977609.1040428,-1000.0,-1000.0,-1000.0,-1000.0,0.0
1733977609.1079483,-1000.0,-1000.0,-1000.0,-858.3984375,0.0
1733977609.1118538,-1000.0,-1000.0,-1000.0,525.87890625,0.0
1733977609.1157594,-1000.0,-1000.0,-1000.0,-808.59375,0.0
1733977609.119665,-1000.0,-1000.0,-1000.0,-306.15234375,0.0
1733977609.1235704,-1000.0,-1000.0,-1000.0,-1000.0,0.0
1733977609.1274858,-1000.0,-1000.0,-1000.0,355.46875,0.0
1733977609.1313913,-1000.0,-1000.0,-1000.0,-955.078125,0.0
1733977609.1352968,-1000.0,-1000.0,-1000.0,-978.02734375,0.0
1733977609.1392026,-1000.0,-1000.0,-1000.0,329.58984375,0.0
1733977609.1431081,-1000.0,-1000.0,-1000.0,-992.67578125,0.0
1733977609.1470137,-1000.0,-1000.0,-1000.0,-1000.0,0.0
1733977609.1509192,-1000.0,-1000.0,-1000.0,-961.42578125,0.0
1733977609.1548247,-1000.0,-1000.0,-1000.0,-1000.0,0.0
1733977609.1587303,-1000.0,-1000.0,-1000.0,-1000.0,0.0
1733977609.1626358,-1000.0,-1000.0,-1000.0,-987.79296875,0.0
1733977609.1665413,-1000.0,-1000.0,-1000.0,-1000.0,0.0
1733977609.1704469,-1000.0,-1000.0,-1000.0,-832.03125,0.0
1733977609.174361,-1000.0,-1000.0,-1000.0,-809.08203125,0.0
1733977609.1782665,-1000.0,-1000.0,-1000.0,-1000.0,0.0
1733977609.182172,-1000.0,-1000.0,-1000.0,-992.67578125,0.0
1733977609.1860776,-1000.0,-1000.0,-1000.0,-999.0234375,0.0
1733977609.1899834,-1000.0,-1000.0,-1000.0,-1000.0,0.0
1733977609.193889,-1000.0,-1000.0,-1000.0,-1000.0,0.0
1733977609.1977944,-1000.0,-1000.0,-961.9140625,-1000.0,0.0
1733977609.2017,-1000.0,-1000.0,-1000.0,-926.7578125,0.0
1733977609.2056055,-1000.0,-1000.0,-859.86328125,-1000.0,0.0
1733977609.209511,-1000.0,-1000.0,378.90625,-569.82421875,0.0
1733977609.2134166,-1000.0,-1000.0,801.7578125,872.55859375,0.0
1733977609.217322,-1000.0,-993.1640625,283.203125,-980.95703125,0.0
1733977609.2212346,-1000.0,-966.796875,606.93359375,914.0625,0.0
1733977609.22514,-1000.0,-1000.0,867.67578125,985.83984375,0.0
1733977609.2290456,-1000.0,-337.890625,865.234375,969.7265625,0.0
1733977609.2329512,-1000.0,729.98046875,845.21484375,969.23828125,0.0
1733977609.2368567,-1000.0,233.88671875,416.015625,969.7265625,0.0
1733977609.2407622,-1000.0,103.515625,98.6328125,970.21484375,0.0
1733977609.2446678,-1000.0,911.1328125,421.875,969.7265625,0.0
1733977609.2485733,-1000.0,-998.53515625,673.33984375,986.328125,0.0
1733977609.252479,-1000.0,940.4296875,704.58984375,893.5546875,0.0
1733977609.2563846,-927.24609375,976.5625,365.72265625,-874.0234375,0.0
1733977609.2602901,-1000.0,969.23828125,-301.7578125,599.609375,0.0
1733977609.2641957,-856.93359375,969.7265625,61.5234375,-149.90234375,0.0
1733977609.2681077,486.328125,969.7265625,820.3125,781.73828125,0.0
1733977609.2720132,-549.31640625,969.7265625,910.15625,-846.19140625,0.0
1733977609.2759187,-1000.0,969.7265625,447.75390625,643.5546875,0.0
1733977609.2798243,630.859375,970.21484375,-530.76171875,-765.625,0.0
1733977609.2837298,-974.12109375,970.21484375,-343.75,-1000.0,0.0
1733977609.2876353,-956.54296875,969.7265625,696.2890625,-933.10546875,0.0
1733977609.2915409,-118.65234375,969.7265625,558.10546875,-1000.0,0.0
1733977609.2954466,-984.86328125,969.7265625,-719.23828125,-1000.0,0.0
1733977609.2993522,553.7109375,970.21484375,-1000.0,-1000.0,0.0
1733977609.3032577,-849.12109375,969.7265625,-960.9375,-1000.0,0.0
1733977609.3071632,769.04296875,969.7265625,-730.46875,-1000.0,0.0
1733977609.3110688,-509.27734375,969.7265625,-359.375,-1000.0,0.0
1733977609.3149884,0.0,969.7265625,-807.6171875,-1000.0,0.0
1733977609.318894,0.0,969.7265625,-1000.0,-942.87109375,0.0
1733977609.3227994,0.0,970.21484375,-1000.0,-1000.0,0.0
1733977609.326705,0.0,970.21484375,-123.53515625,-873.53515625,0.0
1733977609.3306105,0.0,969.7265625,867.1875,497.55859375,0.0
1733977609.334516,0.0,969.7265625,-66.40625,-823.73046875,0.0
1733977609.3384216,0.0,970.21484375,-1000.0,655.2734375,0.0
1733977609.342327,0.0,970.21484375,-898.4375,-688.96484375,0.0
1733977609.3462327,0.0,969.7265625,409.1796875,-1000.0,0.0
1733977609.3501382,0.0,969.7265625,-946.77734375,-122.55859375,0.0
1733977609.3540437,0.0,969.7265625,757.8125,999.51171875,0.0
1733977609.3579493,0.0,969.7265625,598.14453125,957.03125,0.0
1733977609.361868,971.19140625,969.7265625,842.28515625,943.359375,0.0
1733977609.3657734,960.44921875,970.703125,987.79296875,977.05078125,0.0
1733977609.3696792,922.36328125,979.98046875,960.9375,969.7265625,0.0
1733977609.3735847,-936.03515625,889.6484375,938.96484375,969.7265625,0.0
1733977609.3774903,139.6484375,-873.046875,957.51953125,969.7265625,0.0
1733977609.3813958,-1000.0,441.40625,747.55859375,969.7265625,0.0
1733977609.3853014,-781.25,-727.05078125,399.90234375,970.21484375,0.0
1733977609.389207,690.4296875,561.5234375,814.453125,972.16796875,0.0
1733977609.3931124,-935.05859375,-866.2109375,-980.95703125,923.828125,0.0
1733977609.397018,897.4609375,882.32421875,941.40625,-879.8828125,0.0
1733977609.4009235,986.81640625,986.328125,973.14453125,290.52734375,0.0
1733977609.404829,969.23828125,969.7265625,969.7265625,124.51171875,0.0
1733977609.4087465,969.23828125,969.7265625,969.7265625,-992.1875,0.0
1733977609.412652,969.23828125,969.7265625,971.19140625,-983.3984375,0.0
1733977609.4165576,969.23828125,969.7265625,970.703125,825.1953125,0.0
1733977609.420463,968.75,969.7265625,965.8203125,-537.109375,0.0
1733977609.4243686,968.75,969.7265625,969.7265625,-1000.0,0.0
1733977609.4282742,969.23828125,984.375,796.875,-888.18359375,0.0
1733977609.4321797,969.23828125,918.45703125,545.8984375,670.41015625,0.0
1733977609.4360852,969.23828125,991.2109375,133.30078125,611.328125,0.0
1733977609.4399908,969.23828125,963.8671875,-763.18359375,-932.6171875,0.0
1733977609.4438963,969.23828125,-574.21875,-1000.0,-1000.0,0.0
1733977609.4478018,969.23828125,-1000.0,-941.40625,-845.21484375,0.0
1733977609.4517074,969.23828125,654.296875,-1000.0,503.41796875,0.0
1733977609.4556327,0.0,-926.26953125,-838.8671875,-807.12890625,0.0
1733977609.4595382,0.0,895.5078125,56.640625,90.8203125,0.0
1733977609.4634438,0.0,986.328125,179.6875,-1000.0,0.0
1733977609.4673493,0.0,969.7265625,-742.67578125,-348.6328125,0.0
1733977609.4712548,0.0,969.7265625,-688.96484375,896.484375,0.0
1733977609.4751604,0.0,969.7265625,-20.5078125,-922.8515625,0.0
1733977609.479066,0.0,969.7265625,312.5,626.953125,0.0
1733977609.4829714,0.0,969.7265625,-306.640625,-890.625,0.0
1733977609.486877,0.0,969.7265625,-976.07421875,-989.74609375,0.0
1733977609.4907827,0.0,969.7265625,-962.890625,626.953125,0.0
1733977609.4946883,0.0,969.7265625,-888.671875,-894.04296875,0.0
1733977609.4985938,0.0,969.7265625,-675.29296875,-375.0,0.0
1733977609.5024927,969.23828125,969.7265625,-736.328125,-1000.0,0.0
1733977609.5063982,968.75,969.7265625,-996.58203125,-1000.0,0.0
1733977609.5103037,968.75,971.6796875,-1000.0,73.73046875,0.0
1733977609.5142093,969.23828125,968.26171875,-994.62890625,715.8203125,0.0
1733977609.5181148,969.23828125,938.96484375,-1000.0,-895.5078125,0.0
1733977609.5220203,969.23828125,-956.54296875,-1000.0,-992.67578125,0.0
1733977609.5259259,969.23828125,562.01171875,-1000.0,-1000.0,0.0
1733977609.5298314,969.23828125,138.18359375,-999.51171875,-506.34765625,0.0
1733977609.533737,969.23828125,835.44921875,-1000.0,746.09375,0.0
1733977609.5376425,969.23828125,-964.84375,-1000.0,-575.68359375,0.0
1733977609.541548,969.23828125,937.01171875,-976.07421875,-1000.0,0.0
1733977609.5454535,969.23828125,388.671875,-985.83984375,-1000.0,0.0
1733977609.5493677,976.07421875,372.55859375,-983.3984375,-225.5859375,0.0
1733977609.5532732,967.7734375,979.98046875,-964.35546875,-934.5703125,0.0
1733977609.5571787,968.75,977.5390625,-520.01953125,913.57421875,0.0
1733977609.5610843,969.23828125,951.66015625,317.3828125,-721.19140625,0.0
1733977609.5649898,969.23828125,974.609375,481.4453125,-801.26953125,0.0
1733977609.5688953,969.23828125,969.7265625,527.34375,804.19921875,0.0
1733977609.5728009,968.75,969.7265625,736.81640625,-961.42578125,0.0
1733977609.5767064,969.23828125,969.7265625,664.0625,938.96484375,0.0
1733977609.580612,969.23828125,969.23828125,570.3125,-488.28125,0.0
1733977609.5845175,969.23828125,969.7265625,102.05078125,-1000.0,0.0
1733977609.588423,969.23828125,969.7265625,-633.30078125,640.13671875,0.0
1733977609.5923285,969.23828125,969.7265625,-784.66796875,-922.8515625,0.0
1733977609.5962417,968.75,969.7265625,-796.875,895.01953125,0.0
1733977609.6001472,968.75,969.7265625,-759.27734375,985.83984375,0.0
1733977609.6040528,969.23828125,969.7265625,-742.1875,969.7265625,0.0
1733977609.6079583,968.75,969.7265625,-772.94921875,969.7265625,0.0
1733977609.6118639,968.75,969.7265625,-190.91796875,969.23828125,0.0
1733977609.6157694,968.75,969.7265625,484.375,969.7265625,0.0
1733977609.619675,968.75,969.7265625,602.5390625,969.7265625,0.0
1733977609.6235805,969.23828125,969.7265625,566.40625,969.7265625,0.0
1733977609.627486,969.23828125,969.7265625,717.28515625,969.7265625,0.0
1733977609.6313915,968.75,969.7265625,891.11328125,969.7265625,0.0
1733977609.635297,969.23828125,969.7265625,923.33984375,969.23828125,0.0
1733977609.6392026,968.75,969.7265625,863.28125,969.7265625,0.0
1733977609.6431148,968.75,969.7265625,463.37890625,969.7265625,0.0
1733977609.6470203,969.23828125,969.7265625,440.91796875,969.7265625,0.0
1733977609.6509259,968.75,969.7265625,854.00390625,969.7265625,0.0
1733977609.6548314,968.75,969.7265625,938.4765625,969.7265625,0.0
1733977609.6587372,969.23828125,969.7265625,917.48046875,969.7265625,0.0
1733977609.6626427,968.75,969.7265625,936.5234375,969.7265625,0.0
1733977609.6665483,968.75,969.7265625,930.17578125,969.7265625,0.0
1733977609.6704538,969.23828125,969.7265625,938.4765625,969.7265625,0.0
1733977609.6743593,969.23828125,969.7265625,945.80078125,969.7265625,0.0
1733977609.6782649,968.75,969.7265625,937.98828125,969.7265625,0.0
1733977609.6821704,968.75,969.7265625,922.36328125,969.7265625,0.0
1733977609.686076,969.23828125,969.7265625,921.38671875,969.7265625,0.0
1733977609.689996,969.23828125,969.7265625,943.359375,969.7265625,0.0
1733977609.6939015,968.75,969.7265625,949.70703125,969.7265625,0.0
1733977609.697807,969.23828125,969.7265625,945.80078125,969.7265625,0.0
1733977609.7017126,968.75,969.7265625,946.2890625,969.7265625,0.0
1733977609.7056181,968.75,969.7265625,936.5234375,969.7265625,0.0
1733977609.7095237,968.75,969.7265625,926.7578125,969.7265625,0.0
1733977609.7134292,968.75,969.7265625,913.57421875,969.7265625,0.0
1733977609.7173347,969.23828125,969.7265625,901.85546875,969.7265625,0.0
1733977609.7212403,969.23828125,969.7265625,914.55078125,969.7265625,0.0
1733977609.7251458,968.75,969.7265625,890.13671875,969.7265625,0.0
1733977609.7290514,968.75,969.7265625,872.0703125,969.7265625,0.0
1733977609.732957,969.23828125,969.7265625,861.328125,969.23828125,0.0
1733977609.7368758,968.75,969.7265625,797.8515625,969.7265625,0.0
1733977609.7407813,968.75,969.7265625,763.18359375,969.7265625,0.0
1733977609.7446868,969.23828125,969.7265625,711.42578125,969.7265625,0.0
1733977609.7485924,968.75,969.7265625,722.65625,969.7265625,0.0
1733977609.752498,969.23828125,969.7265625,450.68359375,969.7265625,0.0
1733977609.7564034,969.23828125,969.7265625,-345.703125,969.7265625,0.0
1733977609.760309,968.75,969.7265625,-840.33203125,969.7265625,0.0
1733977609.7642145,969.23828125,969.7265625,-259.27734375,969.7265625,0.0
1733977609.7681203,969.23828125,969.7265625,753.41796875,969.7265625,0.0
1733977609.7720258,968.75,969.7265625,948.73046875,969.7265625,0.0
1733977609.7759314,969.23828125,969.23828125,885.25390625,969.7265625,0.0
1733977609.779837,968.75,969.7265625,933.59375,969.7265625,0.0
1733977609.7837543,968.75,969.7265625,928.7109375,969.7265625,0.0
1733977609.78766,969.23828125,969.7265625,911.62109375,969.7265625,0.0
1733977609.7915654,968.75,969.7265625,877.9296875,969.7265625,0.0
1733977609.795471,985.3515625,986.328125,799.8046875,969.7265625,0.0
1733977609.7993765,911.1328125,906.73828125,371.58203125,971.19140625,0.0
1733977609.803282,-977.05078125,-956.0546875,-635.25390625,971.6796875,0.0
1733977609.8071876,859.86328125,772.4609375,-1000.0,910.64453125,0.0
1733977609.811093,-597.16796875,-689.94140625,-961.9140625,-911.1328125,0.0
1733977609.8149986,-1000.0,-1000.0,-1000.0,261.71875,0.0
1733977609.8189042,-925.78125,-930.17578125,-1000.0,-1000.0,0.0
1733977609.8228097,-1000.0,-1000.0,-1000.0,-940.4296875,0.0
1733977609.8267152,-1000.0,-1000.0,-1000.0,-1000.0,0.0
1733977609.8306315,-1000.0,-1000.0,-1000.0,-362.79296875,0.0
1733977609.834537,-1000.0,-1000.0,-1000.0,962.40234375,0.0
1733977609.8384426,-1000.0,-1000.0,-1000.0,982.421875,0.0
1733977609.8423483,-1000.0,-1000.0,-1000.0,933.59375,0.0
1733977609.8462539,-1000.0,-1000.0,-1000.0,973.14453125,0.0
1733977609.8501594,-1000.0,-1000.0,-1000.0,923.33984375,0.0
1733977609.854065,-1000.0,-1000.0,-1000.0,-920.8984375,0.0
1733977609.8579705,-1000.0,-1000.0,-1000.0,95.703125,0.0
1733977609.861876,-1000.0,-1000.0,-1000.0,-1000.0,0.0
1733977609.8657815,-1000.0,-1000.0,-1000.0,-978.515625,0.0
1733977609.869687,-1000.0,-1000.0,-969.23828125,-979.00390625,0.0
1733977609.8735926,-1000.0,-1000.0,-1000.0,-1000.0,0.0
1733977609.8775084,0.0,-1000.0,-562.5,-1000.0,0.0
1733977609.881414,0.0,-1000.0,-337.890625,-1000.0,0.0
1733977609.8853195,0.0,-1000.0,-1000.0,-1000.0,0.0
1733977609.889225,0.0,-1000.0,-1000.0,-1000.0,0.0
1733977609.8931305,0.0,-1000.0,-983.88671875,-1000.0,0.0
1733977609.897036,0.0,-1000.0,-917.48046875,-1000.0,0.0
1733977609.9009416,0.0,-991.69921875,-895.01953125,-1000.0,0.0
1733977609.9048474,0.0,-955.078125,-1000.0,-1000.0,0.0
1733977609.908753,0.0,-1000.0,-930.17578125,-1000.0,0.0
1733977609.9126585,0.0,-199.70703125,465.33203125,-1000.0,0.0
1733977609.916564,0.0,-923.33984375,-956.0546875,-1000.0,0.0
1733977609.9204695,0.0,-201.66015625,-194.3359375,-1000.0,0.0
1733977609.9243836,-1000.0,-1000.0,-242.67578125,-1000.0,0.0
1733977609.9282892,-1000.0,431.640625,883.30078125,-1000.0,0.0
1733977609.9321947,-1000.0,-979.00390625,955.078125,-1000.0,0.0
1733977609.9361002,-1000.0,998.046875,948.73046875,-1000.0,0.0
1733977609.9400058,-1000.0,523.4375,796.875,-1000.0,0.0
1733977609.9439113,-941.89453125,-993.65234375,494.140625,-1000.0,0.0
1733977609.9478168,-1000.0,-558.59375,857.91015625,-1000.0,0.0
1733977609.9517224,-882.32421875,903.80859375,-999.51171875,-1000.0,0.0
1733977609.955628,577.63671875,999.51171875,952.63671875,-1000.0,0.0
1733977609.9595335,-913.57421875,928.22265625,958.0078125,-1000.0,0.0
1733977609.963439,894.53125,953.61328125,916.015625,-1000.0,0.0
1733977609.9673445,985.3515625,923.33984375,939.94140625,-1000.0,0.0
1733977609.9712574,0.0,975.5859375,971.6796875,-1000.0,0.0
1733977609.975163,0.0,969.7265625,972.16796875,-1000.0,0.0
1733977609.9790685,0.0,968.75,938.96484375,-1000.0,0.0
1733977609.982974,0.0,970.21484375,935.05859375,-1000.0,0.0
1733977609.9868796,0.0,975.09765625,971.19140625,-1000.0,0.0
1733977609.9907851,0.0,953.61328125,971.6796875,-1000.0,0.0
1733977609.994691,0.0,948.73046875,960.9375,-1000.0,0.0
1733977609.9985964,0.0,-916.50390625,933.59375,-1000.0,0.0
1733977610.002502,0.0,-6.8359375,914.55078125,-1000.0,0.0
1733977610.0064075,0.0,-81.54296875,946.2890625,-1000.0,0.0
1733977610.010313,0.0,939.453125,930.6640625,-1000.0,0.0
1733977610.0142186,0.0,-235.83984375,950.68359375,-1000.0,0.0
1733977610.0181303,-1000.0,-1000.0,835.44921875,-1000.0,0.0
1733977610.0220358,-1000.0,-966.796875,-58.10546875,-1000.0,0.0
1733977610.0259414,-1000.0,-994.62890625,-10.7421875,-1000.0,0.0
1733977610.029847,-1000.0,-1000.0,866.69921875,-1000.0,0.0
1733977610.0337527,-1000.0,-1000.0,200.68359375,-1000.0,0.0
1733977610.0376582,-1000.0,-1000.0,-913.57421875,-1000.0,0.0
1733977610.0415637,-1000.0,-1000.0,-1000.0,-1000.0,0.0
1733977610.0454693,-1000.0,-1000.0,-963.8671875,-1000.0,0.0
1733977610.0493748,-1000.0,-1000.0,-1000.0,-1000.0,0.0
1733977610.0532804,-1000.0,-1000.0,-1000.0,-957.03125,0.0
1733977610.057186,-1000.0,-1000.0,-999.51171875,-1000.0,0.0
1733977610.0610914,-1000.0,-1000.0,-1000.0,-992.1875,0.0
1733977610.065011,0.0,-1000.0,-973.6328125,389.6484375,0.0
1733977610.0689166,0.0,-996.58203125,-916.9921875,-894.04296875,0.0
1733977610.072822,0.0,-955.56640625,-732.421875,896.97265625,0.0
1733977610.0767276,0.0,-1000.0,187.01171875,979.98046875,0.0
1733977610.0806332,0.0,-282.2265625,909.66796875,969.7265625,0.0
1733977610.0845387,0.0,945.80078125,918.45703125,969.7265625,0.0
1733977610.0884442,0.0,919.921875,903.80859375,970.21484375,0.0
1733977610.0923498,0.0,-999.51171875,987.3046875,969.7265625,0.0
1733977610.0962553,0.0,829.58984375,960.44921875,969.7265625,0.0
1733977610.1001608,0.0,-647.94921875,-373.046875,969.7265625,0.0
1733977610.1040664,0.0,-1000.0,-1000.0,969.7265625,0.0
1733977610.107972,0.0,-927.24609375,-934.5703125,969.7265625,0.0
1733977610.1118908,-1000.0,-1000.0,-1000.0,969.7265625,0.0
1733977610.1157963,-1000.0,-1000.0,-1000.0,969.7265625,0.0
1733977610.1197019,-1000.0,-1000.0,-1000.0,969.7265625,0.0
1733977610.1236074,-1000.0,-1000.0,-1000.0,969.7265625,0.0
1733977610.127513,-1000.0,-1000.0,-999.0234375,969.7265625,0.0
1733977610.1314185,-1000.0,-1000.0,-993.1640625,969.7265625,0.0
1733977610.135324,-1000.0,-1000.0,-1000.0,969.7265625,0.0
1733977610.1392295,-1000.0,-1000.0,-916.9921875,969.7265625,0.0
1733977610.143135,-1000.0,-1000.0,-741.69921875,969.7265625,0.0
1733977610.1470406,-1000.0,-1000.0,-777.34375,969.7265625,0.0
1733977610.1509461,-1000.0,-1000.0,-705.56640625,969.7265625,0.0
1733977610.1548517,-1000.0,-1000.0,-95.21484375,969.7265625,0.0
1733977610.1587696,-1000.0,-994.62890625,391.11328125,969.7265625,0.0
1733977610.1626751,-1000.0,-969.7265625,330.56640625,969.7265625,0.0
1733977610.1665807,-1000.0,-1000.0,387.20703125,969.7265625,0.0
1733977610.1704862,-1000.0,-377.9296875,620.60546875,969.7265625,0.0
1733977610.1743917,-1000.0,797.8515625,692.3828125,969.7265625,0.0
1733977610.1782975,-1000.0,-990.72265625,687.5,969.7265625,0.0
1733977610.182203,-1000.0,929.19921875,692.3828125,969.7265625,0.0
1733977610.1861086,-1000.0,979.4921875,690.4296875,969.7265625,0.0
1733977610.1900141,-1000.0,970.21484375,719.23828125,969.7265625,0.0
1733977610.1939197,-1000.0,970.21484375,686.5234375,969.7265625,0.0
1733977610.1978252,-1000.0,969.7265625,781.25,969.7265625,0.0
1733977610.2017307,-1000.0,969.7265625,896.97265625,969.7265625,0.0
1733977610.205647,-1000.0,969.7265625,799.8046875,969.7265625,0.0
1733977610.2095525,-1000.0,969.7265625,728.515625,969.7265625,0.0
1733977610.213458,-1000.0,969.7265625,826.66015625,969.7265625,0.0
1733977610.2173636,-1000.0,969.7265625,865.72265625,969.7265625,0.0
1733977610.2212691,-1000.0,969.7265625,798.33984375,969.7265625,0.0
1733977610.225175,-1000.0,969.7265625,582.51953125,969.7265625,0.0
1733977610.2290804,-1000.0,970.21484375,313.96484375,969.7265625,0.0
1733977610.232986,-1000.0,970.21484375,568.84765625,982.421875,0.0
1733977610.2368915,-1000.0,969.7265625,858.3984375,923.828125,0.0
1733977610.240797,-1000.0,969.7265625,337.890625,992.67578125,0.0
1733977610.2447026,-1000.0,970.21484375,-459.47265625,949.70703125,0.0
1733977610.248608,-1000.0,969.7265625,-219.23828125,-445.80078125,0.0
1733977610.2525237,-1000.0,969.7265625,234.86328125,-1000.0,0.0
1733977610.2564292,-1000.0,970.21484375,436.5234375,-926.7578125,0.0
1733977610.2603347,-1000.0,969.7265625,346.6796875,-1000.0,0.0
1733977610.2642403,-1000.0,970.21484375,-458.984375,-1000.0,0.0
1733977610.2681458,-1000.0,970.21484375,-847.16796875,-1000.0,0.0
1733977610.2720513,-1000.0,970.21484375,-893.5546875,-1000.0,0.0
1733977610.2759569,-1000.0,970.21484375,-981.4453125,-1000.0,0.0
1733977610.2798624,-1000.0,970.21484375,-1000.0,-1000.0,0.0
1733977610.283768,-1000.0,969.7265625,-997.0703125,-1000.0,0.0
1733977610.2876735,-1000.0,969.7265625,-1000.0,-1000.0,0.0
1733977610.291579,-1000.0,969.7265625,-1000.0,-1000.0,0.0
1733977610.2954845,-1000.0,969.7265625,-994.140625,-1000.0,0.0
1733977610.299399,0.0,987.3046875,-1000.0,-1000.0,0.0
1733977610.3033044,0.0,902.34375,-1000.0,-1000.0,0.0
1733977610.30721,0.0,-942.87109375,-848.6328125,-1000.0,0.0
1733977610.3111155,0.0,731.4453125,-932.12890625,-1000.0,0.0
1733977610.315021,0.0,-709.47265625,-1000.0,-1000.0,0.0
1733977610.3189266,0.0,-1000.0,-988.76953125,-1000.0,0.0
1733977610.322832,0.0,-936.03515625,-1000.0,-1000.0,0.0
1733977610.3267376,0.0,-1000.0,-1000.0,-1000.0,0.0
1733977610.3306432,0.0,-999.51171875,-1000.0,-1000.0,0.0
1733977610.334549,0.0,-1000.0,-1000.0,-1000.0,0.0
1733977610.3384545,0.0,-1000.0,-1000.0,-1000.0,0.0
1733977610.34236,0.0,-1000.0,-1000.0,-1000.0,0.0
1733977610.3462908,-1000.0,-1000.0,-1000.0,-1000.0,0.0
1733977610.3501964,-1000.0,-1000.0,-1000.0,-1000.0,0.0
1733977610.354102,-1000.0,-1000.0,-1000.0,-1000.0,0.0
1733977610.3580074,-1000.0,-1000.0,-1000.0,-1000.0,0.0
1733977610.3619132,-1000.0,-1000.0,-1000.0,-1000.0,0.0
1733977610.3658187,-1000.0,-1000.0,-1000.0,-1000.0,0.0
1733977610.3697243,-1000.0,-1000.0,-1000.0,-1000.0,0.0
1733977610.3736298,-1000.0,-1000.0,-1000.0,-1000.0,0.0
1733977610.3775353,-1000.0,-1000.0,-1000.0,-1000.0,0.0
1733977610.3814409,-1000.0,-1000.0,-1000.0,-1000.0,0.0
1733977610.3853464,-1000.0,-1000.0,-1000.0,-1000.0,0.0
1733977610.389252,-1000.0,-1000.0,-1000.0,-1000.0,0.0
1733977610.393164,-1000.0,-1000.0,-1000.0,-1000.0,0.0
1733977610.3970695,-1000.0,-1000.0,-1000.0,-1000.0,0.0
1733977610.400975,-1000.0,-1000.0,-1000.0,-1000.0,0.0
1733977610.4048805,-1000.0,-1000.0,-1000.0,-1000.0,0.0
1733977610.408786,-1000.0,-1000.0,-1000.0,-1000.0,0.0
1733977610.4126916,-1000.0,-1000.0,-1000.0,-1000.0,0.0
1733977610.4165971,-1000.0,-1000.0,-1000.0,-1000.0,0.0
1733977610.4205027,-1000.0,-1000.0,-1000.0,-1000.0,0.0
1733977610.4244082,-1000.0,-1000.0,-1000.0,-1000.0,0.0
1733977610.4283137,-1000.0,-1000.0,-1000.0,-1000.0,0.0
1733977610.4322193,-1000.0,-935.546875,-1000.0,-1000.0,0.0
1733977610.4361248,-1000.0,-1000.0,-1000.0,-1000.0,0.0
1733977610.4400444,-1000.0,-593.26171875,-1000.0,-1000.0,0.0
1733977610.44395,-1000.0,810.546875,-1000.0,-1000.0,0.0
1733977610.4478555,-1000.0,-971.6796875,-1000.0,-1000.0,0.0
1733977610.451761,-1000.0,914.0625,-1000.0,-1000.0,0.0
1733977610.4556665,-1000.0,984.375,-1000.0,-1000.0,0.0
1733977610.459572,-1000.0,969.7265625,-1000.0,-1000.0,0.0
1733977610.4634776,-1000.0,969.7265625,-1000.0,-1000.0,0.0
1733977610.4673831,-1000.0,969.7265625,-1000.0,-1000.0,0.0
1733977610.471289,-1000.0,969.7265625,-1000.0,-1000.0,0.0
1733977610.4751945,-1000.0,969.7265625,-1000.0,-1000.0,0.0
1733977610.4791,-1000.0,970.21484375,-1000.0,-1000.0,0.0
1733977610.4830055,-1000.0,970.21484375,-1000.0,-1000.0,0.0
1733977610.486924,0.0,969.7265625,-1000.0,-1000.0,0.0
1733977610.4908295,0.0,970.21484375,-1000.0,-912.109375,0.0
1733977610.494735,0.0,981.93359375,-1000.0,-1000.0,0.0
1733977610.4986405,0.0,900.390625,-1000.0,-594.23828125,0.0
1733977610.502546,0.0,-913.57421875,-1000.0,480.46875,0.0
1733977610.5064516,0.0,489.74609375,-1000.0,-813.96484375,0.0
1733977610.5103571,0.0,-916.015625,-1000.0,-1000.0,0.0
1733977610.5142627,0.0,-1000.0,-932.6171875,539.0625,0.0
1733977610.5181682,0.0,-948.73046875,-1000.0,-831.54296875,0.0
1733977610.5220737,0.0,-1000.0,-812.5,661.62109375,0.0
1733977610.5259793,0.0,-1000.0,158.69140625,595.703125,0.0
1733977610.5298848,0.0,-1000.0,-703.61328125,-973.14453125,0.0
1733977610.533803,-62.98828125,-1000.0,-1000.0,-537.59765625,0.0
1733977610.5377085,38.0859375,-1000.0,-914.0625,-1000.0,0.0
1733977610.541614,-1000.0,-1000.0,-1000.0,490.234375,0.0
1733977610.5455196,-948.2421875,-1000.0,-1000.0,-521.97265625,0.0
1733977610.5494251,-456.54296875,-1000.0,-999.51171875,-1000.0,0.0
1733977610.5533307,-753.41796875,-1000.0,-1000.0,545.41015625,0.0
1733977610.5572362,-1000.0,-1000.0,-1000.0,-805.17578125,0.0
1733977610.5611417,-1000.0,-1000.0,-1000.0,242.67578125,0.0
1733977610.5650473,-919.43359375,-1000.0,-1000.0,-924.8046875,0.0
1733977610.5689528,-727.5390625,-1000.0,-1000.0,-890.13671875,0.0
1733977610.5728586,-981.93359375,-1000.0,-1000.0,-951.171875,0.0
1733977610.576764,-1000.0,-1000.0,-1000.0,-1000.0,0.0
1733977610.5806808,-985.83984375,-1000.0,-1000.0,0.0,0.0
1733977610.5845866,-1000.0,-1000.0,-989.2578125,0.0,0.0
1733977610.5884922,-1000.0,-1000.0,-1000.0,0.0,0.0
1733977610.5923977,-1000.0,-1000.0,-921.875,0.0,0.0
1733977610.5963032,-1000.0,-958.49609375,-520.01953125,0.0,0.0
1733977610.6002088,-1000.0,-1000.0,-488.28125,0.0,0.0
1733977610.6041143,-1000.0,-996.58203125,-197.75390625,0.0,0.0
1733977610.6080198,-1000.0,371.58203125,398.4375,0.0,0.0
1733977610.6119254,-1000.0,-895.01953125,732.421875,0.0,0.0
1733977610.615831,-1000.0,898.4375,917.96875,0.0,0.0
1733977610.6197364,-1000.0,979.00390625,895.99609375,0.0,0.0
1733977610.623642,-1000.0,969.7265625,889.16015625,0.0,0.0
1733977610.6275573,-1000.0,969.7265625,889.16015625,-1000.0,0.0
1733977610.6314628,-1000.0,969.7265625,909.66796875,-1000.0,0.0
1733977610.6353683,-1000.0,970.21484375,914.55078125,-1000.0,0.0
1733977610.639274,-1000.0,969.7265625,909.1796875,-1000.0,0.0
1733977610.6431794,-1000.0,969.7265625,897.4609375,-1000.0,0.0
1733977610.647085,-1000.0,969.7265625,899.4140625,-1000.0,0.0
1733977610.6509905,-1000.0,970.21484375,914.55078125,-1000.0,0.0
1733977610.654896,-1000.0,970.21484375,917.96875,-1000.0,0.0
1733977610.6588016,-1000.0,969.7265625,928.22265625,-1000.0,0.0
1733977610.662707,-1000.0,969.7265625,935.05859375,-1000.0,0.0
1733977610.6666126,-1000.0,970.21484375,934.08203125,-1000.0,0.0
1733977610.6705182,-1000.0,970.21484375,937.5,-1000.0,0.0
1733977610.6744323,-1000.0,970.21484375,942.3828125,-1000.0,0.0
1733977610.6783378,-1000.0,969.7265625,940.91796875,-1000.0,0.0
1733977610.6822433,-1000.0,969.7265625,934.5703125,-1000.0,0.0
1733977610.6861491,-1000.0,969.7265625,933.10546875,-1000.0,0.0
1733977610.6900547,-1000.0,969.7265625,937.98828125,-1000.0,0.0
1733977610.6939602,-1000.0,970.21484375,945.3125,-1000.0,0.0
1733977610.6978657,-1000.0,969.7265625,939.94140625,-1000.0,0.0
1733977610.7017713,-1000.0,970.21484375,940.4296875,-1000.0,0.0
1733977610.7056768,-1000.0,970.21484375,950.68359375,-1000.0,0.0
1733977610.7095823,-1000.0,970.21484375,946.2890625,-1000.0,0.0
1733977610.7134879,-1000.0,970.21484375,950.1953125,-1000.0,0.0
1733977610.7173934,-1000.0,970.21484375,953.61328125,-1000.0,0.0
1733977610.7213063,0.0,969.7265625,950.68359375,-1000.0,0.0
1733977610.7252119,0.0,969.7265625,944.3359375,-1000.0,0.0
1733977610.7291174,0.0,970.21484375,942.3828125,-1000.0,0.0
1733977610.733023,0.0,970.21484375,949.70703125,-1000.0,0.0
1733977610.7369285,0.0,969.7265625,951.171875,-1000.0,0.0
1733977610.7408342,0.0,969.7265625,943.84765625,-1000.0,0.0
1733977610.7447398,0.0,969.7265625,931.640625,-1000.0,0.0
1733977610.7486453,0.0,970.21484375,938.96484375,-1000.0,0.0
1733977610.7525508,0.0,969.7265625,948.2421875,-1000.0,0.0
1733977610.7564564,0.0,969.7265625,948.2421875,-1000.0,0.0
1733977610.760362,0.0,969.7265625,949.70703125,-1000.0,0.0
1733977610.7642674,0.0,969.7265625,948.2421875,-1000.0,0.0
1733977610.7681625,-1000.0,970.21484375,951.171875,-1000.0,0.0
1733977610.772068,-1000.0,969.7265625,960.44921875,-1000.0,0.0
1733977610.7759736,-1000.0,969.7265625,968.26171875,-1000.0,0.0
1733977610.7798793,-1000.0,969.7265625,969.7265625,-1000.0,0.0
1733977610.7837849,-1000.0,969.7265625,969.7265625,-1000.0,0.0
1733977610.7876904,-1000.0,970.21484375,970.21484375,-1000.0,0.0
1733977610.791596,-1000.0,969.7265625,969.7265625,-1000.0,0.0
1733977610.7955015,-1000.0,969.7265625,969.7265625,-1000.0,0.0
1733977610.799407,-1000.0,970.21484375,969.7265625,-1000.0,0.0
1733977610.8033125,-1000.0,970.21484375,970.21484375,-1000.0,0.0
1733977610.807218,-1000.0,969.7265625,969.7265625,-1000.0,0.0
1733977610.8111236,-1000.0,969.7265625,969.7265625,-1000.0,0.0
1733977610.8150437,-987.79296875,969.7265625,969.7265625,-1000.0,0.0
1733977610.8189492,-1000.0,969.7265625,969.7265625,-1000.0,0.0
1733977610.8228548,-976.5625,969.7265625,969.7265625,-1000.0,0.0
1733977610.8267603,-985.83984375,969.7265625,970.21484375,-1000.0,0.0
1733977610.830666,-1000.0,969.7265625,969.7265625,-1000.0,0.0
1733977610.8345716,-999.51171875,969.7265625,969.7265625,-1000.0,0.0
1733977610.8384771,-999.51171875,969.7265625,969.7265625,-1000.0,0.0
1733977610.8423827,-998.046875,969.7265625,969.7265625,-1000.0,0.0
1733977610.8462882,-1000.0,969.7265625,970.21484375,-1000.0,0.0
1733977610.8501937,-1000.0,969.7265625,970.21484375,-1000.0,0.0
1733977610.8540993,-979.00390625,969.7265625,969.7265625,-1000.0,0.0
1733977610.8580048,-966.30859375,969.7265625,970.703125,-1000.0,0.0
1733977610.8619232,-993.65234375,969.7265625,962.40234375,-1000.0,0.0
1733977610.8658288,-993.65234375,970.21484375,955.078125,-1000.0,0.0
1733977610.8697343,-990.72265625,969.7265625,952.63671875,-1000.0,0.0
1733977610.8736398,-973.6328125,969.7265625,946.2890625,-1000.0,0.0
1733977610.8775454,-982.91015625,969.7265625,937.98828125,-1000.0,0.0
1733977610.881451,-1000.0,970.21484375,927.734375,-1000.0,0.0
1733977610.8853564,-992.1875,970.21484375,902.83203125,-1000.0,0.0
1733977610.8892622,-992.67578125,972.16796875,902.34375,-1000.0,0.0
1733977610.8931677,-1000.0,941.40625,824.70703125,-1000.0,0.0
1733977610.8970733,-988.76953125,-958.984375,745.1171875,-1000.0,0.0
1733977610.9009788,-893.06640625,690.4296875,700.1953125,-1000.0,0.0
1733977610.9048843,-967.7734375,389.16015625,700.68359375,-1000.0,0.0
1733977610.9088023,-1000.0,906.25,856.4453125,-1000.0,0.0
1733977610.9127078,-906.25,-994.62890625,912.59765625,-1000.0,0.0
1733977610.9166136,-900.390625,945.80078125,919.43359375,-1000.0,0.0
1733977610.920519,-942.3828125,974.609375,933.59375,-1000.0,0.0
1733977610.9244246,-974.609375,969.7265625,938.96484375,-1000.0,0.0
1733977610.9283302,-1000.0,969.7265625,955.078125,-1000.0,0.0
1733977610.9322357,-962.890625,969.7265625,967.7734375,-1000.0,0.0
1733977610.9361413,-938.96484375,969.7265625,968.75,-1000.0,0.0
1733977610.9400468,-979.98046875,977.05078125,964.84375,-1000.0,0.0
1733977610.9439523,-909.1796875,949.70703125,965.33203125,-1000.0,0.0
1733977610.9478579,-935.05859375,960.44921875,967.28515625,-1000.0,0.0
1733977610.9517634,-962.890625,962.890625,969.7265625,-995.60546875,0.0
1733977610.9556804,-930.17578125,34.1796875,969.7265625,-1000.0,0.0
1733977610.959586,-836.9140625,-961.9140625,967.7734375,-891.6015625,0.0
1733977610.9634914,-861.81640625,-1000.0,962.40234375,-1000.0,0.0
1733977610.967397,-960.44921875,-976.5625,954.1015625,-717.28515625,0.0
1733977610.9713025,-896.484375,-1000.0,959.9609375,753.41796875,0.0
1733977610.975208,-947.265625,-1000.0,968.26171875,-948.2421875,0.0
1733977610.9791136,-1000.0,-1000.0,968.26171875,904.78515625,0.0
1733977610.983019,-984.375,-1000.0,962.890625,986.328125,0.0
1733977610.986925,-977.5390625,-1000.0,960.44921875,969.7265625,0.0
1733977610.9908304,-961.42578125,-1000.0,968.26171875,969.7265625,0.0
1733977610.994736,-824.70703125,-1000.0,969.7265625,969.7265625,0.0
1733977610.9986415,-899.4140625,-943.359375,969.23828125,969.7265625,0.0
1733977611.0025566,-916.015625,-1000.0,969.23828125,970.21484375,0.0
1733977611.006462,-907.71484375,-897.4609375,969.7265625,969.7265625,0.0
1733977611.0103676,-900.87890625,566.40625,971.19140625,969.7265625,0.0
1733977611.0142732,-864.2578125,-946.77734375,982.421875,969.7265625,0.0
1733977611.0181787,-759.765625,901.3671875,913.57421875,969.7265625,0.0
1733977611.0220842,-921.875,997.0703125,-975.09765625,969.7265625,0.0
1733977611.0259898,-1000.0,-328.61328125,701.171875,969.7265625,0.0
1733977611.0298955,-987.3046875,-1000.0,-712.40234375,969.7265625,0.0
1733977611.033801,-1000.0,-936.5234375,-1000.0,969.7265625,0.0
1733977611.0377066,-1000.0,-1000.0,-933.59375,969.7265625,0.0
1733977611.0416121,-942.87109375,-1000.0,-1000.0,969.7265625,0.0
1733977611.0455177,-1000.0,-940.4296875,-942.87109375,969.7265625,0.0
1733977611.0494318,-891.11328125,-1000.0,-1000.0,969.7265625,0.0
1733977611.0533373,566.40625,-869.62890625,-891.11328125,969.7265625,0.0
1733977611.0572429,-911.62109375,594.7265625,566.40625,969.7265625,0.0
1733977611.0611484,894.53125,-915.52734375,-911.1328125,969.7265625,0.0
1733977611.065054,984.86328125,895.99609375,895.01953125,969.7265625,0.0
1733977611.0689595,968.75,985.83984375,985.83984375,969.7265625,0.0
1733977611.072865,968.75,969.7265625,969.7265625,969.7265625,0.0
1733977611.0767705,968.75,969.7265625,969.7265625,969.7265625,0.0
1733977611.080676,969.23828125,969.7265625,969.7265625,969.7265625,0.0
1733977611.0845819,969.23828125,969.7265625,970.21484375,969.7265625,0.0
1733977611.0884874,969.23828125,985.83984375,968.26171875,969.7265625,0.0
1733977611.092393,969.23828125,905.76171875,965.8203125,969.7265625,0.0
1733977611.0963058,969.23828125,-970.703125,972.65625,969.7265625,0.0
1733977611.1002114,969.23828125,824.21875,962.40234375,969.7265625,0.0
1733977611.104117,969.23828125,-779.78515625,938.4765625,969.7265625,0.0
1733977611.1080225,969.23828125,-892.578125,955.56640625,969.7265625,0.0
1733977611.111928,969.23828125,743.65234375,972.16796875,969.7265625,0.0
1733977611.1158338,969.23828125,-948.73046875,968.26171875,969.7265625,0.0
1733977611.1197393,968.75,899.4140625,969.23828125,969.23828125,0.0
1733977611.1236448,968.75,986.81640625,969.7265625,969.7265625,0.0
1733977611.1275504,968.75,986.81640625,971.19140625,969.7265625,0.0
1733977611.131456,968.75,907.71484375,971.19140625,969.7265625,0.0
1733977611.1353614,968.75,-971.19140625,953.125,969.7265625,0.0
1733977611.139267,969.23828125,837.890625,-991.2109375,969.7265625,0.0
1733977611.1431785,969.23828125,-638.671875,728.02734375,969.7265625,0.0
1733977611.147084,969.23828125,-1000.0,575.1953125,969.7265625,0.0
1733977611.1509895,968.75,222.65625,956.54296875,969.7265625,0.0
1733977611.154895,968.75,-974.12109375,983.3984375,969.7265625,0.0
1733977611.1588006,969.23828125,910.15625,956.54296875,969.7265625,0.0
1733977611.1627061,969.23828125,-967.7734375,965.8203125,969.7265625,0.0
1733977611.1666117,969.23828125,-363.76953125,902.83203125,969.7265625,0.0
1733977611.1705174,968.75,-1000.0,902.34375,969.7265625,0.0
1733977611.174423,969.23828125,699.21875,910.15625,969.7265625,0.0
1733977611.1783285,969.23828125,979.00390625,-987.3046875,969.7265625,0.0
1733977611.182234,969.23828125,-558.10546875,538.57421875,983.3984375,0.0
1733977611.1861396,969.23828125,-1000.0,-376.953125,920.41015625,0.0
1733977611.1900594,969.23828125,-665.0390625,563.96484375,-997.0703125,0.0
1733977611.193965,969.23828125,701.66015625,-894.04296875,918.9453125,0.0
1733977611.1978705,969.23828125,-943.359375,908.69140625,-491.2109375,0.0
1733977611.201776,969.23828125,903.3203125,885.7421875,-1000.0,0.0
1733977611.2056816,969.23828125,986.328125,641.11328125,-927.24609375,0.0
1733977611.2095873,969.23828125,969.7265625,818.359375,-1000.0,0.0
1733977611.2134929,969.23828125,969.7265625,989.74609375,-1000.0,0.0
1733977611.2173984,969.23828125,969.7265625,960.44921875,-1000.0,0.0
1733977611.221304,969.23828125,969.7265625,961.9140625,-1000.0,0.0
1733977611.2252095,969.23828125,969.7265625,937.01171875,-1000.0,0.0
1733977611.229115,969.23828125,969.7265625,948.73046875,-1000.0,0.0
1733977611.2330205,969.23828125,969.7265625,973.14453125,-1000.0,0.0
1733977611.236939,969.23828125,969.7265625,969.23828125,-1000.0,0.0
1733977611.2408445,969.23828125,969.7265625,969.7265625,-1000.0,0.0
1733977611.24475,969.23828125,969.7265625,969.7265625,-1000.0,0.0
1733977611.2486556,969.23828125,969.7265625,969.7265625,-1000.0,0.0
1733977611.252561,969.23828125,970.21484375,970.21484375,-1000.0,0.0
1733977611.2564666,969.23828125,969.7265625,970.21484375,-1000.0,0.0
1733977611.2603722,969.23828125,970.21484375,970.21484375,-1000.0,0.0
1733977611.2642777,969.23828125,969.7265625,969.7265625,-1000.0,0.0
1733977611.2681832,969.23828125,969.7265625,969.7265625,-1000.0,0.0
1733977611.2720888,969.23828125,983.88671875,970.21484375,-1000.0,0.0
1733977611.2759945,969.23828125,894.04296875,969.23828125,-1000.0,0.0
1733977611.2799,969.23828125,-903.3203125,971.19140625,-1000.0,0.0
1733977611.2838173,969.23828125,702.1484375,966.796875,-1000.0,0.0
1733977611.2877228,969.23828125,-554.6875,964.35546875,-1000.0,0.0
1733977611.2916284,969.23828125,426.7578125,969.7265625,-1000.0,0.0
1733977611.295534,969.23828125,-735.83984375,969.7265625,-1000.0,0.0
1733977611.2994394,969.23828125,160.64453125,970.703125,-1000.0,0.0
1733977611.303345,968.75,-921.38671875,925.29296875,-1000.0,0.0
1733977611.3072505,969.23828125,-1000.0,912.109375,-1000.0,0.0
1733977611.311156,969.23828125,-452.1484375,963.8671875,-1000.0,0.0
1733977611.3150616,969.23828125,824.70703125,968.75,-1000.0,0.0
1733977611.318967,969.23828125,-899.90234375,974.12109375,-1000.0,0.0
1733977611.3228729,969.23828125,248.53515625,953.125,-1000.0,0.0
1733977611.3267784,969.23828125,-1000.0,894.04296875,-1000.0,0.0
1733977611.3306952,969.23828125,-546.875,939.94140625,-1000.0,0.0
1733977611.3346007,969.23828125,894.53125,978.02734375,-1000.0,0.0
1733977611.3385062,969.23828125,-991.69921875,966.30859375,-1000.0,0.0
1733977611.3424118,969.23828125,916.50390625,969.7265625,-1000.0,0.0
1733977611.3463173,969.23828125,984.375,970.21484375,-1000.0,0.0
1733977611.3502228,969.23828125,970.21484375,969.7265625,-1000.0,0.0
1733977611.3541284,969.23828125,969.7265625,970.21484375,-1000.0,0.0
1733977611.358034,969.23828125,969.7265625,969.7265625,-1000.0,0.0
1733977611.3619394,969.23828125,969.7265625,957.51953125,-1000.0,0.0
1733977611.365845,968.75,969.7265625,955.56640625,-1000.0,0.0
1733977611.3697505,969.23828125,969.7265625,968.75,-1000.0,0.0
1733977611.3736563,969.23828125,969.7265625,970.21484375,-1000.0,0.0
1733977611.377571,968.75,969.7265625,968.75,-1000.0,0.0
1733977611.3814769,969.23828125,969.7265625,971.19140625,-1000.0,0.0
1733977611.3853824,969.23828125,969.7265625,963.8671875,-1000.0,0.0
1733977611.389288,968.75,970.21484375,961.9140625,-1000.0,0.0
1733977611.3931935,968.75,970.21484375,970.703125,-1000.0,0.0
1733977611.397099,969.23828125,969.7265625,969.7265625,-1000.0,0.0
1733977611.4010046,969.23828125,969.7265625,970.21484375,-1000.0,0.0
1733977611.40491,969.23828125,969.7265625,955.56640625,-1000.0,0.0
1733977611.4088156,969.23828125,970.21484375,957.03125,-1000.0,0.0
1733977611.4127212,969.23828125,969.7265625,971.6796875,-1000.0,0.0
1733977611.4166267,969.23828125,969.7265625,969.7265625,-1000.0,0.0
1733977611.4205322,969.23828125,969.7265625,969.7265625,-1000.0,0.0
1733977611.4244468,969.23828125,969.7265625,969.7265625,-1000.0,0.0
1733977611.4283524,968.75,969.7265625,970.21484375,-1000.0,0.0
1733977611.432258,969.23828125,969.7265625,969.7265625,-1000.0,0.0
1733977611.4361634,969.23828125,969.7265625,969.7265625,-1000.0,0.0
1733977611.440069,968.75,969.7265625,969.7265625,-1000.0,0.0
1733977611.4439745,969.23828125,969.7265625,969.7265625,-1000.0,0.0
1733977611.4478803,968.75,969.7265625,969.7265625,-1000.0,0.0
1733977611.4517858,968.75,970.21484375,970.703125,-1000.0,0.0
1733977611.4556913,969.23828125,968.75,969.23828125,-1000.0,0.0
1733977611.4595969,969.23828125,963.8671875,963.37890625,-1000.0,0.0
1733977611.4635024,968.75,995.1171875,993.65234375,-1000.0,0.0
1733977611.467408,969.23828125,839.84375,823.73046875,-996.09375,0.0
1733977611.4713206,969.23828125,849.12109375,820.80078125,-954.1015625,0.0
1733977611.4752262,969.23828125,997.55859375,996.58203125,-1000.0,0.0
1733977611.4791317,969.23828125,961.9140625,965.33203125,-278.80859375,0.0
1733977611.4830372,969.23828125,970.21484375,940.91796875,895.99609375,0.0
1733977611.4869428,969.23828125,986.81640625,941.40625,875.48828125,0.0
1733977611.4908483,969.23828125,908.203125,859.86328125,915.0390625,0.0
1733977611.4947538,968.75,-979.4921875,-993.1640625,989.2578125,0.0
1733977611.4986594,969.23828125,868.65234375,569.82421875,962.40234375,0.0
1733977611.502565,969.23828125,-687.98828125,-806.640625,971.19140625,0.0
1733977611.5064704,969.23828125,-1000.0,-1000.0,969.7265625,0.0
1733977611.510376,969.23828125,533.69140625,-189.453125,969.7265625,0.0
1733977611.5142815,969.23828125,-921.875,998.53515625,969.7265625,0.0
1733977611.518193,968.75,929.19921875,717.28515625,969.7265625,0.0
1733977611.5220985,969.23828125,-273.4375,-718.26171875,970.21484375,0.0
1733977611.526004,969.23828125,-1000.0,-1000.0,969.7265625,0.0
1733977611.5299096,985.83984375,-962.40234375,-1000.0,969.7265625,0.0
1733977611.5338151,909.1796875,-999.0234375,-208.984375,969.7265625,0.0
1733977611.5377207,-971.19140625,-484.86328125,938.4765625,969.7265625,0.0
1733977611.5416262,838.8671875,-773.92578125,-45.8984375,969.7265625,0.0
1733977611.5455317,-624.0234375,-1000.0,-1000.0,969.7265625,0.0
1733977611.5494375,-1000.0,-1000.0,-501.46484375,969.7265625,0.0
1733977611.553343,-926.26953125,-939.453125,801.26953125,969.7265625,0.0
1733977611.5572486,-1000.0,124.51171875,-994.140625,970.21484375,0.0
1733977611.5611541,-1000.0,-473.6328125,901.3671875,984.375,0.0
1733977611.565074,0.0,-1000.0,945.80078125,911.62109375,0.0
1733977611.5689795,0.0,-883.7890625,950.1953125,-968.26171875,0.0
1733977611.572885,0.0,449.70703125,986.328125,773.92578125,0.0
1733977611.5767906,0.0,-944.82421875,918.45703125,-664.55078125,0.0
1733977611.580696,0.0,918.9453125,-994.140625,-1000.0,0.0
1733977611.5846016,0.0,961.42578125,910.64453125,-925.78125,0.0
1733977611.5885072,0.0,-440.4296875,-511.71875,-972.65625,0.0
1733977611.5924127,0.0,-1000.0,-1000.0,-1000.0,0.0
1733977611.5963182,0.0,-943.84765625,-938.96484375,-368.1640625,0.0
1733977611.6002238,0.0,-953.61328125,-968.26171875,895.5078125,0.0
1733977611.6041293,0.0,-1000.0,-1000.0,244.140625,0.0
1733977611.6080348,0.0,-873.53515625,-957.03125,-937.01171875,0.0
1733977611.6119537,-1000.0,497.55859375,347.65625,-1000.0,0.0
1733977611.6158593,-1000.0,-818.84765625,-803.7109375,106.4453125,0.0
1733977611.6197648,-1000.0,634.765625,616.2109375,-934.08203125,0.0
1733977611.6236703,-1000.0,-752.44140625,-770.01953125,936.5234375,0.0
1733977611.6275759,-1000.0,-1000.0,-1000.0,859.375,0.0
1733977611.6314814,-1000.0,-933.10546875,-415.0390625,896.484375,0.0
1733977611.635387,-1000.0,-1000.0,-56.15234375,952.1484375,0.0
1733977611.6392925,-1000.0,-1000.0,364.74609375,939.94140625,0.0
1733977611.643198,-1000.0,-1000.0,590.8203125,979.4921875,0.0
1733977611.6471035,-1000.0,-1000.0,-267.578125,979.00390625,0.0
1733977611.651009,-1000.0,-1000.0,-493.1640625,898.92578125,0.0
1733977611.6549146,-1000.0,-1000.0,-806.640625,-945.80078125,0.0
1733977611.6588323,-1000.0,-1000.0,-1000.0,741.69921875,0.0
1733977611.6627378,-1000.0,-1000.0,-967.7734375,-729.4921875,0.0
1733977611.6666434,-1000.0,-1000.0,-998.046875,-1000.0,0.0
1733977611.670549,-1000.0,-1000.0,-1000.0,-931.640625,0.0
1733977611.6744545,-1000.0,-1000.0,-694.82421875,-1000.0,0.0
1733977611.67836,-1000.0,-1000.0,-711.9140625,-1000.0,0.0
1733977611.6822655,-1000.0,-1000.0,-1000.0,-1000.0,0.0
1733977611.686171,-1000.0,-1000.0,-986.81640625,-1000.0,0.0
1733977611.6900766,-1000.0,-1000.0,-1000.0,-1000.0,0.0
1733977611.6939821,-1000.0,-1000.0,-955.56640625,-1000.0,0.0
1733977611.697888,-1000.0,-1000.0,-1000.0,-1000.0,0.0
1733977611.7017934,-1000.0,-1000.0,-957.51953125,-1000.0,0.0
1733977611.7057092,-1000.0,-1000.0,222.16796875,-1000.0,0.0
1733977611.7096148,-1000.0,-1000.0,635.7421875,-1000.0,0.0
1733977611.7135203,-1000.0,-1000.0,227.5390625,-1000.0,0.0
1733977611.7174258,-1000.0,-1000.0,224.12109375,-1000.0,0.0
1733977611.7213314,-1000.0,-1000.0,368.65234375,-1000.0,0.0
1733977611.725237,-1000.0,-1000.0,190.4296875,-1000.0,0.0
1733977611.7291424,-1000.0,-1000.0,31.25,-1000.0,0.0
1733977611.733048,-1000.0,-1000.0,181.15234375,-1000.0,0.0
1733977611.7369535,-1000.0,-1000.0,3.41796875,-1000.0,0.0
1733977611.7408593,-1000.0,-1000.0,-475.09765625,-1000.0,0.0
1733977611.7447648,-1000.0,-1000.0,-877.9296875,-1000.0,0.0
1733977611.7486703,-1000.0,-1000.0,-945.3125,-1000.0,0.0
1733977611.7525852,-1000.0,-1000.0,-797.8515625,-1000.0,0.0
1733977611.7564907,-1000.0,-1000.0,-872.55859375,-1000.0,0.0
1733977611.7603962,-1000.0,-1000.0,-988.28125,-1000.0,0.0
1733977611.764302,-1000.0,-1000.0,-987.3046875,-1000.0,0.0
1733977611.7682076,-1000.0,-1000.0,-1000.0,-1000.0,0.0
1733977611.772113,-1000.0,-1000.0,-1000.0,-1000.0,0.0
1733977611.7760186,-1000.0,-1000.0,-1000.0,-1000.0,0.0
1733977611.7799242,-1000.0,-1000.0,-996.09375,-1000.0,0.0
1733977611.7838297,-1000.0,-1000.0,-957.51953125,-1000.0,0.0
1733977611.7877352,-1000.0,-1000.0,-1000.0,-943.359375,0.0
1733977611.7916408,-1000.0,-1000.0,-502.9296875,-1000.0,0.0
1733977611.7955463,-1000.0,-1000.0,556.640625,-587.890625,0.0
1733977611.7994604,-1000.0,-1000.0,-445.3125,775.87890625,0.0
1733977611.803366,-1000.0,-1000.0,-1000.0,-967.7734375,0.0
1733977611.8072715,-1000.0,-1000.0,-940.4296875,914.55078125,0.0
1733977611.811177,-1000.0,-1000.0,-984.375,983.3984375,0.0
1733977611.8150826,-1000.0,-1000.0,-845.21484375,969.7265625,0.0
1733977611.8189883,-1000.0,-1000.0,-947.265625,969.7265625,0.0
1733977611.8228939,-1000.0,-1000.0,-1000.0,969.7265625,0.0
1733977611.8267994,-1000.0,-1000.0,-992.1875,969.7265625,0.0
1733977611.830705,-1000.0,-1000.0,-1000.0,969.7265625,0.0
1733977611.8346105,-1000.0,-1000.0,-1000.0,969.7265625,0.0
1733977611.838516,-1000.0,-1000.0,-1000.0,969.7265625,0.0
1733977611.8424215,-1000.0,-1000.0,-1000.0,970.21484375,0.0
1733977611.8463345,-1000.0,-1000.0,-1000.0,969.7265625,0.0
1733977611.85024,-1000.0,-1000.0,-1000.0,969.7265625,0.0
1733977611.8541455,-942.3828125,-1000.0,-1000.0,969.7265625,0.0
1733977611.858051,-1000.0,-1000.0,-993.65234375,970.21484375,0.0
1733977611.8619566,-890.13671875,-940.4296875,-955.078125,969.7265625,0.0
1733977611.8658621,567.87109375,-1000.0,-1000.0,969.7265625,0.0
1733977611.8697677,-911.62109375,-865.72265625,-172.36328125,969.7265625,0.0
1733977611.8736732,894.53125,597.65625,996.58203125,969.7265625,0.0
1733977611.877579,984.86328125,-916.50390625,957.03125,969.7265625,0.0
1733977611.8814845,969.23828125,895.99609375,945.3125,969.7265625,0.0
1733977611.88539,969.23828125,986.328125,976.07421875,969.7265625,0.0
1733977611.8892956,969.23828125,969.7265625,969.7265625,969.7265625,0.0
1733977611.8932168,0.0,969.7265625,969.7265625,969.7265625,0.0
1733977611.8971224,0.0,969.7265625,969.7265625,969.7265625,0.0
1733977611.901028,0.0,969.7265625,969.7265625,969.7265625,0.0
1733977611.9049335,0.0,969.7265625,961.42578125,969.7265625,0.0
1733977611.908839,0.0,969.7265625,962.40234375,969.7265625,0.0
1733977611.9127448,0.0,969.7265625,971.19140625,969.7265625,0.0
1733977611.9166503,0.0,969.7265625,968.75,969.7265625,0.0
1733977611.9205558,0.0,969.7265625,972.16796875,969.23828125,0.0
1733977611.9244614,0.0,969.7265625,957.51953125,969.7265625,0.0
1733977611.928367,0.0,973.14453125,952.1484375,969.7265625,0.0
1733977611.9322724,0.0,966.30859375,971.19140625,969.7265625,0.0
1733977611.936178,0.0,913.0859375,970.21484375,969.7265625,0.0
1733977611.9400978,969.23828125,-909.1796875,956.54296875,969.7265625,0.0
1733977611.9440033,968.75,282.71484375,923.828125,969.7265625,0.0
1733977611.9479089,968.75,-713.8671875,932.6171875,969.7265625,0.0
1733977611.9518144,969.23828125,579.1015625,969.7265625,969.7265625,0.0
1733977611.95572,968.75,-824.70703125,969.7265625,969.7265625,0.0
1733977611.9596255,968.75,-56.15234375,942.87109375,969.7265625,0.0
1733977611.963531,969.23828125,-1000.0,935.05859375,969.7265625,0.0
1733977611.9674366,969.23828125,-839.35546875,969.23828125,969.7265625,0.0
1733977611.971342,968.75,693.84765625,948.73046875,969.7265625,0.0
1733977611.9752476,968.75,282.2265625,950.68359375,969.7265625,0.0
1733977611.9791532,969.23828125,-1000.0,904.78515625,969.7265625,0.0
1733977611.9830587,969.23828125,-991.2109375,-9.765625,969.7265625,0.0
1733977611.986977,969.23828125,-970.21484375,-800.29296875,969.7265625,0.0
1733977611.9908826,969.23828125,-1000.0,138.18359375,969.7265625,0.0
1733977611.9947884,968.75,-1000.0,456.54296875,969.7265625,0.0
1733977611.998694,969.23828125,-1000.0,-505.37109375,969.7265625,0.0
1733977612.0025995,969.23828125,-1000.0,-1000.0,969.7265625,0.0
1733977612.006505,969.23828125,-1000.0,-975.5859375,969.7265625,0.0
1733977612.0104105,969.23828125,-1000.0,122.55859375,969.7265625,0.0
1733977612.014316,968.75,-1000.0,-942.87109375,969.7265625,0.0
1733977612.0182216,968.75,-1000.0,684.5703125,969.7265625,0.0
1733977612.0221272,969.23828125,-1000.0,86.9140625,969.7265625,0.0
1733977612.0260327,969.23828125,-1000.0,437.5,969.7265625,0.0
1733977612.0299382,969.23828125,-1000.0,879.8828125,969.7265625,0.0
1733977612.0338564,969.23828125,-1000.0,842.7734375,969.7265625,0.0
1733977612.037762,969.23828125,-1000.0,690.91796875,969.7265625,0.0
1733977612.0416675,969.23828125,-1000.0,612.3046875,969.7265625,0.0
1733977612.045573,969.23828125,-1000.0,632.32421875,969.7265625,0.0
1733977612.0494785,969.23828125,-1000.0,623.53515625,974.609375,0.0
1733977612.053384,969.23828125,-1000.0,585.9375,960.9375,0.0
1733977612.0572896,968.75,-1000.0,571.2890625,930.6640625,0.0
1733977612.0611951,969.23828125,-1000.0,372.0703125,-928.22265625,0.0
1733977612.0651007,969.23828125,-1000.0,0.0,188.4765625,0.0
1733977612.0690062,969.23828125,-1000.0,205.56640625,-355.95703125,0.0
1733977612.072912,969.23828125,-1000.0,364.74609375,792.48046875,0.0
1733977612.0768175,969.23828125,-1000.0,83.0078125,-929.6875,0.0
1733977612.0807343,969.23828125,-1000.0,-242.67578125,870.1171875,0.0
1733977612.0846398,969.23828125,-1000.0,-295.8984375,-468.26171875,0.0
1733977612.0885456,969.23828125,-1000.0,12.20703125,-663.57421875,0.0
1733977612.092451,969.23828125,-1000.0,254.39453125,851.07421875,0.0
1733977612.0963566,968.75,-1000.0,372.0703125,-970.21484375,0.0
1733977612.1002622,968.75,-1000.0,443.84765625,910.15625,0.0
1733977612.1041677,969.23828125,-1000.0,576.66015625,984.375,0.0
1733977612.1080732,969.23828125,-1000.0,727.5390625,969.7265625,0.0
1733977612.1119788,969.23828125,-1000.0,804.19921875,969.7265625,0.0
1733977612.1158843,969.23828125,-1000.0,888.18359375,967.7734375,0.0
1733977612.1197898,969.23828125,-1000.0,885.7421875,972.16796875,0.0
1733977612.1236954,969.23828125,-1000.0,892.578125,968.26171875,0.0
1733977612.127611,969.23828125,-1000.0,899.4140625,928.7109375,0.0
1733977612.1315165,969.23828125,-1000.0,908.203125,954.58984375,0.0
1733977612.135422,969.23828125,-1000.0,911.62109375,976.07421875,0.0
1733977612.1393275,969.23828125,-1000.0,909.66796875,966.30859375,0.0
1733977612.143233,969.23828125,-1000.0,916.9921875,970.703125,0.0
1733977612.1471386,969.23828125,-1000.0,920.8984375,969.7265625,0.0
1733977612.1510441,969.23828125,-1000.0,922.36328125,969.7265625,0.0
1733977612.1549497,969.23828125,-1000.0,926.7578125,969.7265625,0.0
1733977612.1588552,969.23828125,-1000.0,937.01171875,969.7265625,0.0
1733977612.1627607,969.23828125,-973.6328125,944.82421875,969.7265625,0.0
1733977612.1666665,969.23828125,-1000.0,956.54296875,970.21484375,0.0
1733977612.170572,969.23828125,-797.36328125,968.26171875,969.7265625,0.0
1733977612.1744869,968.75,-401.85546875,969.7265625,969.23828125,0.0
1733977612.1783924,969.23828125,-865.72265625,968.75,969.7265625,0.0
1733977612.182298,969.23828125,-1000.0,967.7734375,969.7265625,0.0
1733977612.1862035,983.88671875,-970.21484375,969.7265625,971.6796875,0.0
1733977612.190109,907.2265625,-1000.0,969.23828125,974.609375,0.0
1733977612.1940145,-954.1015625,-1000.0,970.21484375,915.52734375,0.0
1733977612.19792,722.16796875,-1000.0,955.078125,-944.82421875,0.0
1733977612.2018256,-717.7734375,-1000.0,946.2890625,462.890625,0.0
1733977612.2057312,-1000.0,-1000.0,952.63671875,-856.4453125,0.0
1733977612.209637,-934.08203125,-1000.0,943.359375,-1000.0,0.0
1733977612.2135425,-1000.0,-1000.0,942.3828125,-952.1484375,0.0
1733977612.217448,-1000.0,-1000.0,940.4296875,-1000.0,0.0
1733977612.2213614,-1000.0,-1000.0,928.7109375,-1000.0,0.0
1733977612.225267,-1000.0,-1000.0,916.50390625,-1000.0,0.0
1733977612.2291725,-1000.0,-1000.0,908.69140625,-1000.0,0.0
1733977612.2330782,-1000.0,-1000.0,893.06640625,-1000.0,0.0
1733977612.2369838,-1000.0,-1000.0,894.53125,-1000.0,0.0
1733977612.2408893,-1000.0,-1000.0,819.3359375,-1000.0,0.0
1733977612.2447948,-1000.0,-1000.0,659.66796875,-1000.0,0.0
1733977612.2487004,-1000.0,-1000.0,691.89453125,-1000.0,0.0
1733977612.252606,-1000.0,-1000.0,718.26171875,-1000.0,0.0
1733977612.2565114,-1000.0,-1000.0,619.140625,-1000.0,0.0
1733977612.260417,-1000.0,-1000.0,556.15234375,-1000.0,0.0
1733977612.2643225,-1000.0,-1000.0,417.96875,-1000.0,0.0
1733977612.2682343,-1000.0,-1000.0,116.2109375,-1000.0,0.0
1733977612.2721398,-1000.0,-1000.0,-234.86328125,-1000.0,0.0
1733977612.2760453,-1000.0,-1000.0,-767.08984375,-1000.0,0.0
1733977612.2799509,-1000.0,-1000.0,-1000.0,-1000.0,0.0
1733977612.2838564,-1000.0,-1000.0,-985.3515625,-1000.0,0.0
1733977612.2877622,-1000.0,-1000.0,-1000.0,-1000.0,0.0
1733977612.2916677,-1000.0,-1000.0,-1000.0,-1000.0,0.0
1733977612.2955732,-1000.0,-1000.0,-1000.0,-1000.0,0.0
1733977612.2994788,-1000.0,-1000.0,-1000.0,-1000.0,0.0
1733977612.3033843,-1000.0,-1000.0,-1000.0,-1000.0,0.0
1733977612.3072898,-1000.0,-1000.0,-1000.0,-1000.0,0.0
1733977612.3111954,-1000.0,-1000.0,-964.35546875,-1000.0,0.0
1733977612.3151152,-1000.0,-1000.0,-1000.0,-1000.0,0.0
1733977612.3190207,-1000.0,-1000.0,-749.51171875,-1000.0,0.0
1733977612.3229263,-1000.0,-1000.0,152.83203125,-1000.0,0.0
1733977612.326832,-1000.0,-1000.0,48.33984375,-1000.0,0.0
1733977612.3307376,-1000.0,-1000.0,-495.60546875,-1000.0,0.0
1733977612.3346431,-1000.0,-1000.0,-467.28515625,-1000.0,0.0
1733977612.3385487,-1000.0,-1000.0,-402.34375,-1000.0,0.0
1733977612.3424542,-1000.0,-1000.0,-836.9140625,-1000.0,0.0
1733977612.3463597,-1000.0,-1000.0,-1000.0,-1000.0,0.0
1733977612.3502653,-1000.0,-1000.0,-979.98046875,-1000.0,0.0
1733977612.3541708,-1000.0,-1000.0,-1000.0,-1000.0,0.0
1733977612.3580763,-1000.0,-1000.0,-1000.0,-1000.0,0.0
1733977612.3619947,-1000.0,-1000.0,-984.86328125,-1000.0,0.0
1733977612.3659003,-1000.0,-1000.0,-979.98046875,-1000.0,0.0
1733977612.3698058,-1000.0,-1000.0,-1000.0,-1000.0,0.0
1733977612.3737113,-1000.0,-1000.0,-224.609375,-1000.0,0.0
1733977612.377617,-1000.0,-1000.0,584.47265625,-1000.0,0.0
1733977612.3815224,-942.87109375,-1000.0,239.74609375,-1000.0,0.0
1733977612.3854282,-1000.0,-929.19921875,38.57421875,-1000.0,0.0
1733977612.3893337,-891.11328125,-1000.0,590.8203125,-1000.0,0.0
1733977612.3932393,565.91796875,-696.77734375,978.515625,-1000.0,0.0
1733977612.3971448,-911.62109375,778.80859375,936.5234375,-1000.0,0.0
1733977612.4010503,894.04296875,-954.1015625,947.265625,-1000.0,0.0
1733977612.4049559,984.86328125,904.78515625,933.10546875,-1000.0,0.0
1733977612.4088733,969.23828125,987.3046875,927.734375,-1000.0,0.0
1733977612.4127789,969.23828125,970.21484375,938.96484375,-1000.0,0.0
1733977612.4166844,969.23828125,969.7265625,946.77734375,-1000.0,0.0
1733977612.42059,969.23828125,969.7265625,943.359375,-1000.0,0.0
1733977612.4244955,969.23828125,969.7265625,938.4765625,-996.09375,0.0
1733977612.428401,969.23828125,970.21484375,943.84765625,-957.51953125,0.0
1733977612.4323065,969.23828125,969.7265625,945.80078125,-1000.0,0.0
1733977612.436212,969.23828125,969.7265625,940.4296875,-200.1953125,0.0
1733977612.4401176,968.75,969.7265625,934.5703125,963.37890625,0.0
1733977612.4440231,968.75,969.7265625,938.4765625,971.6796875,0.0
1733977612.447929,969.23828125,969.7265625,946.2890625,939.453125,0.0
1733977612.4518344,969.23828125,969.7265625,954.58984375,978.515625,0.0
1733977612.4557514,969.23828125,969.23828125,951.66015625,969.7265625,0.0
1733977612.459657,969.23828125,969.7265625,947.265625,969.7265625,0.0
1733977612.4635625,968.75,969.7265625,944.3359375,969.23828125,0.0
1733977612.467468,969.23828125,969.7265625,934.5703125,969.7265625,0.0
1733977612.4713736,969.23828125,969.7265625,939.94140625,969.7265625,0.0
1733977612.475279,969.23828125,969.7265625,944.3359375,969.7265625,0.0
1733977612.4791846,969.23828125,969.7265625,943.359375,969.7265625,0.0
1733977612.4830902,968.75,969.7265625,938.4765625,969.7265625,0.0
1733977612.4869957,969.23828125,969.7265625,936.03515625,969.7265625,0.0
1733977612.4909012,968.75,969.7265625,946.2890625,969.23828125,0.0
1733977612.4948068,969.23828125,969.7265625,946.77734375,969.7265625,0.0
1733977612.4987125,969.23828125,969.7265625,944.82421875,969.23828125,0.0
1733977612.502628,0.0,969.7265625,943.84765625,969.7265625,0.0
1733977612.5065336,0.0,969.7265625,939.453125,969.7265625,0.0
1733977612.5104392,0.0,969.7265625,932.12890625,969.7265625,0.0
1733977612.5143447,0.0,969.7265625,931.640625,969.7265625,0.0
1733977612.5182502,0.0,969.7265625,933.59375,969.7265625,0.0
1733977612.5221558,0.0,969.7265625,929.19921875,969.7265625,0.0
1733977612.5260613,0.0,969.7265625,924.8046875,969.7265625,0.0
1733977612.5299668,0.0,969.7265625,916.9921875,969.7265625,0.0
1733977612.5338726,0.0,969.7265625,924.31640625,969.7265625,0.0
1733977612.5377781,0.0,969.7265625,929.19921875,969.7265625,0.0
1733977612.5416837,0.0,969.7265625,917.48046875,969.7265625,0.0
1733977612.5455892,0.0,969.7265625,911.1328125,969.7265625,0.0
1733977612.5495038,968.75,969.7265625,903.80859375,969.7265625,0.0
1733977612.5534093,969.23828125,969.7265625,895.01953125,969.7265625,0.0
1733977612.5573149,968.75,969.7265625,879.39453125,969.7265625,0.0
1733977612.5612204,968.75,969.7265625,848.14453125,969.7265625,0.0
1733977612.565126,969.23828125,969.7265625,716.796875,969.7265625,0.0
1733977612.5690317,969.23828125,969.7265625,335.44921875,969.7265625,0.0
1733977612.5729373,969.23828125,969.7265625,-481.93359375,969.7265625,0.0
1733977612.5768428,969.23828125,969.7265625,-997.55859375,969.7265625,0.0
1733977612.5807483,969.23828125,970.21484375,-986.328125,970.21484375,0.0
1733977612.5846539,969.23828125,969.7265625,-996.58203125,979.98046875,0.0
1733977612.5885594,969.23828125,969.7265625,-1000.0,913.0859375,0.0
1733977612.592465,969.23828125,969.7265625,-1000.0,-958.984375,0.0
1733977612.5963776,969.23828125,969.7265625,-1000.0,648.92578125,0.0
1733977612.6002831,969.23828125,969.7265625,-1000.0,-736.81640625,0.0
1733977612.604189,969.23828125,970.21484375,-1000.0,-1000.0,0.0
1733977612.6080945,969.23828125,969.7265625,-1000.0,-939.453125,0.0
1733977612.612,969.23828125,969.7265625,-1000.0,-1000.0,0.0
1733977612.6159055,969.23828125,969.7265625,-1000.0,-1000.0,0.0
1733977612.619811,969.23828125,969.7265625,-1000.0,-1000.0,0.0
1733977612.6237166,969.23828125,970.21484375,-1000.0,-1000.0,0.0
1733977612.6276221,969.23828125,969.7265625,-1000.0,-1000.0,0.0
1733977612.6315277,969.23828125,969.7265625,-1000.0,-1000.0,0.0
1733977612.6354332,969.23828125,969.7265625,-1000.0,-1000.0,0.0
1733977612.6393387,969.23828125,969.7265625,-1000.0,-1000.0,0.0
1733977612.6432507,0.0,969.7265625,-1000.0,-1000.0,0.0
1733977612.6471562,0.0,970.21484375,-1000.0,-1000.0,0.0
1733977612.6510618,0.0,970.21484375,-1000.0,-1000.0,0.0
1733977612.6549673,0.0,969.7265625,-1000.0,-1000.0,0.0
1733977612.6588728,0.0,969.7265625,-1000.0,-1000.0,0.0
1733977612.6627784,0.0,969.7265625,-1000.0,-1000.0,0.0
1733977612.666684,0.0,970.21484375,-1000.0,-1000.0,0.0
1733977612.6705894,0.0,970.21484375,-1000.0,-1000.0,0.0
1733977612.674495,0.0,969.7265625,-1000.0,-1000.0,0.0
1733977612.6784005,0.0,969.7265625,-1000.0,-1000.0,0.0
1733977612.682306,0.0,969.7265625,-1000.0,-1000.0,0.0
1733977612.6862118,0.0,971.19140625,-1000.0,-1000.0,0.0
1733977612.6901066,969.23828125,972.65625,-1000.0,-1000.0,0.0
1733977612.6940122,969.23828125,946.2890625,-1000.0,-1000.0,0.0
1733977612.697918,969.23828125,978.515625,-1000.0,-1000.0,0.0
1733977612.7018235,969.23828125,756.8359375,-1000.0,-964.35546875,0.0
1733977612.705729,969.23828125,-229.4921875,-1000.0,-1000.0,0.0
1733977612.7096345,969.23828125,-971.6796875,-1000.0,-883.30078125,0.0
1733977612.71354,969.23828125,-988.28125,-1000.0,358.88671875,0.0
1733977612.7174456,969.23828125,-980.46875,-1000.0,-944.82421875,0.0
1733977612.7213511,969.23828125,-1000.0,-1000.0,820.3125,0.0
1733977612.7252567,969.23828125,-1000.0,-1000.0,913.0859375,0.0
1733977612.7291622,969.23828125,-1000.0,-1000.0,989.74609375,0.0
1733977612.7330678,969.23828125,-1000.0,-1000.0,962.890625,0.0
1733977612.7369866,969.23828125,-1000.0,-1000.0,971.19140625,0.0
1733977612.7408922,969.23828125,-1000.0,-1000.0,969.7265625,0.0
1733977612.7447977,969.23828125,-1000.0,-1000.0,969.7265625,0.0
1733977612.7487035,969.23828125,-1000.0,-1000.0,969.7265625,0.0
1733977612.752609,969.23828125,-1000.0,-1000.0,969.7265625,0.0
1733977612.7565145,969.23828125,-1000.0,-1000.0,969.7265625,0.0
1733977612.76042,969.23828125,-1000.0,-1000.0,969.7265625,0.0
1733977612.7643256,969.23828125,-1000.0,-1000.0,969.7265625,0.0
1733977612.7682312,968.75,-1000.0,-1000.0,969.7265625,0.0
1733977612.7721367,969.23828125,-1000.0,-1000.0,969.7265625,0.0
1733977612.7760422,969.23828125,-1000.0,-1000.0,970.21484375,0.0
1733977612.7799478,969.23828125,-1000.0,-1000.0,969.7265625,0.0
1733977612.7838655,969.23828125,-952.1484375,-999.0234375,969.7265625,0.0
1733977612.787771,969.23828125,-1000.0,-1000.0,969.7265625,0.0
1733977612.7916765,969.23828125,-807.12890625,-1000.0,969.7265625,0.0
1733977612.7955823,969.23828125,237.79296875,-961.42578125,969.7265625,0.0
1733977612.7994878,969.23828125,-476.07421875,-980.46875,969.7265625,0.0
1733977612.8033934,969.23828125,-1000.0,-1000.0,969.7265625,0.0
1733977612.807299,969.23828125,-967.28515625,-1000.0,969.7265625,0.0
1733977612.8112044,969.23828125,-859.375,-913.57421875,969.7265625,0.0
1733977612.81511,969.23828125,-202.1484375,-834.9609375,969.7265625,0.0
1733977612.8190155,969.23828125,-559.5703125,-945.3125,969.7265625,0.0
1733977612.822921,969.23828125,-1000.0,-1000.0,969.7265625,0.0
1733977612.8268266,969.23828125,-1000.0,-1000.0,969.7265625,0.0
1733977612.8307428,969.23828125,-554.19921875,-579.1015625,969.7265625,0.0
1733977612.8346484,969.23828125,345.21484375,-183.59375,969.7265625,0.0
1733977612.838554,969.23828125,-408.69140625,-586.42578125,969.7265625,0.0
1733977612.8424594,969.23828125,-1000.0,-1000.0,969.7265625,0.0
1733977612.846365,969.23828125,-1000.0,-929.19921875,969.7265625,0.0
1733977612.8502705,969.23828125,-662.59765625,231.4453125,969.7265625,0.0
1733977612.854176,969.23828125,729.98046875,935.546875,969.7265625,0.0
1733977612.8580816,969.23828125,461.42578125,527.83203125,969.7265625,0.0
1733977612.861987,969.23828125,-926.26953125,-566.40625,969.7265625,0.0
1733977612.8658926,969.23828125,-1000.0,-687.98828125,969.7265625,0.0
1733977612.8697984,969.23828125,-626.46484375,506.34765625,969.7265625,0.0
1733977612.873704,969.23828125,450.68359375,826.171875,969.7265625,0.0
1733977612.8776188,968.75,252.9296875,356.4453125,969.7265625,0.0
1733977612.8815243,969.23828125,-909.1796875,-736.328125,969.7265625,0.0
1733977612.8854299,969.23828125,-1000.0,-1000.0,969.7265625,0.0
1733977612.8893354,969.23828125,-932.6171875,-313.96484375,969.7265625,0.0
1733977612.893241,969.23828125,-10.25390625,628.90625,969.7265625,0.0
1733977612.8971465,968.75,93.26171875,402.83203125,969.7265625,0.0
1733977612.901052,969.23828125,-874.0234375,-740.234375,969.7265625,0.0
1733977612.9049575,969.23828125,-1000.0,-1000.0,969.23828125,0.0
1733977612.9088633,968.75,-727.5390625,-60.05859375,969.23828125,0.0
1733977612.9127688,968.75,754.39453125,926.26953125,969.7265625,0.0
1733977612.9166744,969.23828125,920.8984375,814.94140625,969.7265625,0.0
1733977612.92058,969.23828125,-606.4453125,-358.88671875,969.7265625,0.0
1733977612.9244938,969.23828125,-1000.0,-1000.0,969.7265625,0.0
1733977612.9283993,969.23828125,-674.31640625,20.99609375,969.7265625,0.0
1733977612.932305,968.75,741.2109375,949.70703125,969.7265625,0.0
1733977612.9362106,969.23828125,999.51171875,835.44921875,969.7265625,0.0
1733977612.9401162,969.23828125,-448.73046875,330.56640625,969.7265625,0.0
1733977612.9440217,969.23828125,-1000.0,41.50390625,969.7265625,0.0
1733977612.9479272,969.23828125,-684.5703125,452.63671875,969.7265625,0.0
1733977612.9518328,969.23828125,682.12890625,931.15234375,969.7265625,0.0
1733977612.9557383,969.23828125,-904.296875,909.66796875,969.7265625,0.0
1733977612.9596438,969.23828125,-46.38671875,690.91796875,969.7265625,0.0
1733977612.9635494,968.75,-1000.0,568.84765625,969.7265625,0.0
1733977612.967455,968.75,-774.90234375,768.5546875,969.7265625,0.0
1733977612.9713678,969.23828125,633.30078125,953.125,969.7265625,0.0
1733977612.9752734,969.23828125,-870.60546875,945.3125,969.7265625,0.0
1733977612.979179,968.75,299.31640625,901.3671875,969.23828125,0.0
1733977612.9830844,969.23828125,-973.14453125,862.79296875,969.7265625,0.0
1733977612.98699,969.23828125,-849.12109375,904.296875,970.21484375,0.0
1733977612.9908957,969.23828125,605.95703125,953.61328125,969.23828125,0.0
1733977612.9948013,969.23828125,-880.37109375,958.49609375,969.7265625,0.0
1733977612.9987068,969.23828125,718.75,932.6171875,970.21484375,0.0
1733977613.0026124,969.23828125,-713.8671875,898.92578125,969.7265625,0.0
1733977613.006518,968.75,-969.23828125,912.59765625,969.7265625,0.0
1733977613.0104234,969.23828125,631.8359375,955.56640625,969.7265625,0.0
1733977613.014329,969.23828125,-933.10546875,975.5859375,969.7265625,0.0
1733977613.0182407,968.75,918.45703125,953.125,969.7265625,0.0
1733977613.0221462,969.23828125,549.8046875,920.8984375,969.7265625,0.0
1733977613.0260518,968.75,279.296875,930.6640625,969.7265625,0.0
1733977613.0299575,968.75,798.33984375,958.49609375,969.7265625,0.0
1733977613.033863,968.75,-969.7265625,976.07421875,969.7265625,0.0
1733977613.0377686,968.75,931.640625,951.171875,969.7265625,0.0
1733977613.0416741,969.23828125,-378.41796875,908.203125,969.7265625,0.0
1733977613.0455797,968.75,-1000.0,911.1328125,969.7265625,0.0
1733977613.0494852,969.23828125,441.40625,941.89453125,969.7265625,0.0
1733977613.0533907,969.23828125,-861.328125,957.03125,969.7265625,0.0
1733977613.0572963,969.23828125,821.77734375,941.40625,969.7265625,0.0
1733977613.0612018,969.23828125,-527.34375,838.37890625,969.7265625,0.0
1733977613.065122,0.0,-1000.0,0.0,969.7265625,0.0
1733977613.0690277,0.0,91.796875,0.0,969.7265625,0.0
1733977613.0729332,0.0,-917.48046875,0.0,969.7265625,0.0
1733977613.0768387,0.0,864.2578125,0.0,969.7265625,0.0
1733977613.0807443,0.0,-454.1015625,0.0,969.7265625,0.0
1733977613.0846498,0.0,-1000.0,0.0,969.7265625,0.0
1733977613.0885553,0.0,-340.33203125,0.0,969.7265625,0.0
1733977613.0924609,0.0,961.9140625,0.0,969.7265625,0.0
1733977613.0963664,0.0,910.15625,0.0,969.7265625,0.0
1733977613.100272,0.0,-499.0234375,0.0,969.7265625,0.0
1733977613.1041775,0.0,-1000.0,0.0,969.7265625,0.0
1733977613.108083,0.0,-450.68359375,0.0,969.7265625,0.0
1733977613.1120014,969.23828125,871.09375,955.56640625,969.7265625,0.0
1733977613.1159072,969.23828125,-989.2578125,938.4765625,969.7265625,0.0
1733977613.1198127,969.23828125,-237.79296875,811.03515625,969.7265625,0.0
1733977613.1237183,969.23828125,-1000.0,580.078125,969.7265625,0.0
1733977613.1276238,969.23828125,-751.953125,705.078125,969.7265625,0.0
1733977613.1315293,968.75,656.73828125,939.453125,969.7265625,0.0
1733977613.1354349,968.75,-889.6484375,939.453125,969.7265625,0.0
1733977613.1393404,969.23828125,-71.77734375,813.96484375,969.7265625,0.0
1733977613.143246,969.23828125,-1000.0,415.52734375,969.7265625,0.0
1733977613.1471515,969.23828125,-856.93359375,479.00390625,969.7265625,0.0
1733977613.151057,969.23828125,543.9453125,919.43359375,969.7265625,0.0
1733977613.1549625,969.23828125,-839.84375,954.1015625,969.7265625,0.0
1733977613.15888,969.23828125,102.05078125,837.40234375,969.7265625,0.0
1733977613.1627855,969.23828125,-1000.0,509.27734375,969.7265625,0.0
1733977613.166691,968.75,-887.6953125,517.578125,969.7265625,0.0
1733977613.1705966,969.23828125,505.37109375,868.1640625,969.23828125,0.0
1733977613.1745021,969.23828125,-820.80078125,967.7734375,969.7265625,0.0
1733977613.1784077,969.23828125,362.3046875,816.40625,969.7265625,0.0
1733977613.1823132,969.23828125,-912.109375,347.16796875,969.7265625,0.0
1733977613.1862187,969.23828125,-1000.0,286.1328125,969.7265625,0.0
1733977613.1901245,969.23828125,183.10546875,775.390625,969.7265625,0.0
1733977613.19403,981.93359375,-868.65234375,969.7265625,969.7265625,0.0
1733977613.1979356,911.1328125,636.23046875,819.3359375,969.7265625,0.0
1733977613.201841,-945.3125,-752.44140625,181.15234375,969.7265625,0.0
1733977613.2057574,839.35546875,-1000.0,-310.05859375,969.7265625,0.0
1733977613.209663,-270.99609375,-84.9609375,553.22265625,969.7265625,0.0
1733977613.2135684,445.3125,-941.89453125,-949.21875,969.23828125,0.0
1733977613.217474,-916.015625,743.65234375,764.6484375,969.7265625,0.0
1733977613.2213795,977.05078125,-679.19921875,62.01171875,969.7265625,0.0
1733977613.225285,305.17578125,-1000.0,-244.140625,969.7265625,0.0
1733977613.2291908,-1000.0,-416.50390625,543.9453125,969.7265625,0.0
1733977613.2330964,-840.8203125,878.90625,983.3984375,969.7265625,0.0
1733977613.237002,647.4609375,851.5625,793.9453125,969.7265625,0.0
1733977613.2409074,-888.671875,-632.32421875,54.6875,969.7265625,0.0
1733977613.244813,-59.08203125,-1000.0,-586.42578125,969.7265625,0.0
1733977613.2487185,-1000.0,-626.953125,202.63671875,969.7265625,0.0
1733977613.2526336,-946.2890625,763.671875,956.0546875,969.7265625,0.0
1733977613.256539,356.4453125,966.30859375,851.07421875,969.7265625,0.0
1733977613.2604446,-836.9140625,-499.51171875,378.90625,969.7265625,0.0
1733977613.2643502,277.34375,-1000.0,-502.44140625,969.7265625,0.0
1733977613.2682557,-982.421875,-620.60546875,38.57421875,969.7265625,0.0
1733977613.2721612,-931.15234375,767.08984375,972.65625,969.7265625,0.0
1733977613.2760668,480.95703125,-980.95703125,850.09765625,969.7265625,0.0
1733977613.2799723,-886.23046875,-342.28515625,380.37109375,969.7265625,0.0
1733977613.2838778,871.58203125,-1000.0,-311.03515625,970.21484375,0.0
1733977613.2877836,-605.95703125,-680.6640625,28.3203125,969.7265625,0.0
1733977613.2916892,-851.07421875,673.33984375,911.62109375,969.7265625,0.0
1733977613.2955947,761.23046875,-895.01953125,883.7890625,969.7265625,0.0
1733977613.2995093,996.58203125,272.94921875,575.1953125,969.7265625,0.0
1733977613.3034148,-970.21484375,-947.265625,47.36328125,969.7265625,0.0
1733977613.3073204,159.1796875,-911.62109375,15.625,969.7265625,0.0
1733977613.311226,-526.85546875,551.26953125,803.22265625,969.7265625,0.0
1733977613.3151314,753.90625,-858.88671875,914.55078125,969.7265625,0.0
1733977613.319037,-989.2578125,225.09765625,619.140625,969.7265625,0.0
1733977613.3229425,-966.30859375,-959.9609375,-73.73046875,969.7265625,0.0
1733977613.326848,122.0703125,-959.9609375,-448.2421875,969.7265625,0.0
1733977613.3307538,-896.97265625,407.71484375,568.84765625,969.7265625,0.0
1733977613.3346593,509.765625,-838.8671875,991.69921875,969.7265625,0.0
1733977613.3385649,-926.26953125,390.625,714.35546875,969.7265625,0.0
1733977613.3424704,993.65234375,-901.3671875,-3.41796875,969.7265625,0.0
1733977613.3463833,98.14453125,-987.3046875,-369.62890625,969.7265625,0.0
1733977613.3502889,-1000.0,348.14453125,570.3125,969.7265625,0.0
1733977613.3541944,312.01171875,-858.3984375,-1000.0,969.7265625,0.0
1733977613.3581,-963.37890625,681.640625,756.34765625,969.7265625,0.0
1733977613.3620055,-968.75,-689.453125,-65.91796875,969.7265625,0.0
1733977613.3659112,549.8046875,-1000.0,-505.37109375,969.7265625,0.0
1733977613.3698168,-777.34375,-86.9140625,514.6484375,969.7265625,0.0
1733977613.3737223,340.8203125,974.609375,998.046875,969.7265625,0.0
1733977613.3776278,-921.875,875.48828125,771.484375,969.7265625,0.0
1733977613.3815334,989.74609375,-585.9375,-15.625,969.7265625,0.0
1733977613.385439,793.9453125,-1000.0,-495.60546875,969.7265625,0.0
1733977613.3893445,-665.0390625,110.3515625,511.23046875,969.7265625,0.0
1733977613.3932562,160.64453125,-936.5234375,-978.02734375,969.7265625,0.0
1733977613.3971617,-920.8984375,881.34765625,769.04296875,969.7265625,0.0
1733977613.4010673,971.6796875,-453.125,134.27734375,969.7265625,0.0
1733977613.4049728,802.24609375,-1000.0,-357.421875,969.7265625,0.0
1733977613.4088783,-783.69140625,-75.68359375,400.87890625,969.7265625,0.0
1733977613.4127839,-484.86328125,-985.83984375,962.40234375,969.23828125,0.0
1733977613.4166894,884.765625,927.734375,834.9609375,969.7265625,0.0
1733977613.4205952,-955.56640625,-310.05859375,370.1171875,969.7265625,0.0
1733977613.4245007,840.8203125,-1000.0,-414.55078125,969.7265625,0.0
1733977613.4284062,-681.640625,-505.37109375,110.3515625,969.7265625,0.0
1733977613.4323118,-413.0859375,794.43359375,934.5703125,969.7265625,0.0
1733977613.4362173,961.42578125,-968.75,866.2109375,969.7265625,0.0
1733977613.4401374,982.421875,-81.0546875,417.48046875,969.7265625,0.0
1733977613.444043,967.28515625,-1000.0,-529.296875,969.7265625,0.0
1733977613.4479485,-47.8515625,-657.71484375,-96.19140625,969.7265625,0.0
1733977613.451854,66.89453125,783.69140625,943.359375,969.7265625,0.0
1733977613.4557595,-963.37890625,-959.47265625,859.86328125,969.7265625,0.0
1733977613.459665,933.10546875,-221.6796875,203.125,969.7265625,0.0
1733977613.4635706,-968.75,-1000.0,-665.0390625,969.23828125,0.0
1733977613.4674761,377.9296875,-772.4609375,-293.9453125,969.7265625,0.0
1733977613.4713817,200.68359375,626.46484375,820.80078125,972.16796875,0.0
1733977613.4752872,971.19140625,-877.9296875,878.41796875,957.03125,0.0
1733977613.4791927,930.17578125,82.03125,298.828125,986.328125,0.0
1733977613.4830985,-917.48046875,-1000.0,-551.26953125,954.1015625,0.0
1733977613.4870174,227.05078125,-916.9921875,-537.109375,707.51953125,0.0
1733977613.490923,-552.734375,464.84375,605.46875,873.53515625,0.0
1733977613.4948287,730.46875,-842.28515625,962.40234375,975.5859375,0.0
1733977613.4987342,-987.3046875,353.515625,561.5234375,999.0234375,0.0
1733977613.5026398,-954.1015625,-904.296875,-413.0859375,906.25,0.0
1733977613.5065453,261.23046875,-981.4453125,-630.37109375,233.88671875,0.0
1733977613.5104508,-772.94921875,376.953125,531.73828125,667.96875,0.0
1733977613.5143564,601.07421875,-837.40234375,-978.02734375,-961.42578125,0.0
1733977613.518262,-953.125,516.6015625,659.66796875,970.703125,0.0
1733977613.5221674,-984.375,-869.140625,-489.2578125,886.71875,0.0
1733977613.526073,637.20703125,-999.51171875,-627.9296875,99.12109375,0.0
1733977613.5299785,-393.06640625,388.671875,577.63671875,549.31640625,0.0
1733977613.5338964,0.0,-863.76953125,993.1640625,-942.3828125,0.0
1733977613.537802,0.0,739.74609375,742.67578125,954.1015625,0.0
1733977613.5417075,0.0,-662.109375,-192.87109375,937.98828125,0.0
1733977613.545613,0.0,-1000.0,-572.75390625,214.84375,0.0
1733977613.5495186,0.0,151.3671875,524.4140625,521.97265625,0.0
1733977613.5534241,0.0,-920.8984375,-991.69921875,-940.91796875,0.0
1733977613.55733,0.0,830.56640625,745.1171875,931.640625,0.0
1733977613.5612354,0.0,-560.546875,-170.41015625,-996.09375,0.0
1733977613.565141,0.0,-1000.0,-778.80859375,498.046875,0.0
1733977613.5690465,0.0,-27.34375,278.80859375,499.51171875,0.0
1733977613.572952,0.0,-949.21875,-983.88671875,-998.53515625,0.0
1733977613.5768576,0.0,860.3515625,779.296875,948.73046875,0.0
1733977613.5807748,978.515625,-519.53125,-25.390625,-983.88671875,0.0
1733977613.5846803,930.6640625,-1000.0,-676.26953125,443.359375,0.0
1733977613.5885859,-82.03125,-242.1875,173.33984375,229.4921875,0.0
1733977613.5924914,435.546875,968.26171875,966.30859375,948.2421875,0.0
1733977613.596397,-918.45703125,932.6171875,848.6328125,970.703125,0.0
1733977613.6003025,941.40625,-403.80859375,50.29296875,979.98046875,0.0
1733977613.604208,972.16796875,-1000.0,-722.65625,714.35546875,0.0
1733977613.6081138,24.90234375,-518.06640625,14.16015625,407.2265625,0.0
1733977613.6120193,354.4921875,793.45703125,914.55078125,911.1328125,0.0
1733977613.6159248,-924.31640625,-960.9375,847.16796875,986.81640625,0.0
1733977613.6198304,933.59375,-70.3125,303.7109375,982.91015625,0.0
1733977613.623736,995.60546875,-1000.0,-582.51953125,902.83203125,0.0
1733977613.6276517,499.51171875,-664.0625,-148.4375,575.68359375,0.0
1733977613.6315572,634.27734375,756.34765625,921.38671875,884.27734375,0.0
1733977613.6354628,-959.9609375,-921.38671875,863.28125,995.60546875,0.0
1733977613.6393683,923.828125,-4.39453125,261.71875,973.6328125,0.0
1733977613.6432738,-958.0078125,-1000.0,-556.15234375,937.5,0.0
1733977613.6471796,537.109375,-822.75390625,-411.62109375,609.375,0.0
1733977613.6510851,396.97265625,600.09765625,729.98046875,855.95703125,0.0
1733977613.6549907,986.81640625,-863.76953125,916.015625,-999.51171875,0.0
1733977613.6588962,922.36328125,199.70703125,333.49609375,969.7265625,0.0
1733977613.6628017,-912.109375,-998.046875,-502.9296875,953.125,0.0
1733977613.6667073,305.6640625,-902.34375,-547.8515625,571.77734375,0.0
1733977613.6706128,-447.265625,515.625,562.98828125,805.6640625,0.0
1733977613.6745274,0.0,-845.21484375,-998.53515625,-988.28125,0.0
1733977613.678433,0.0,480.95703125,642.08984375,963.37890625,0.0
1733977613.6823385,0.0,-875.0,-483.3984375,963.8671875,0.0
1733977613.6862442,0.0,-951.66015625,-696.2890625,555.6640625,0.0
1733977613.6901498,0.0,511.23046875,542.48046875,772.4609375,0.0
1733977613.6940553,0.0,-839.35546875,-965.8203125,-977.05078125,0.0
1733977613.6979609,0.0,617.67578125,650.390625,953.125,0.0
1733977613.7018664,0.0,-797.8515625,-573.2421875,978.02734375,0.0
1733977613.705772,0.0,-1000.0,-707.51953125,656.25,0.0
1733977613.7096775,0.0,393.06640625,549.31640625,791.9921875,0.0
1733977613.713583,0.0,-867.1875,-988.28125,-982.91015625,0.0
1733977613.7174885,0.0,774.90234375,708.984375,947.75390625,0.0
1733977613.7214015,979.00390625,-622.0703125,-387.20703125,995.1171875,0.0
1733977613.725307,854.4921875,-1000.0,-705.078125,771.97265625,0.0
1733977613.7292125,-45.41015625,154.78515625,458.0078125,804.6875,0.0
1733977613.7331183,629.39453125,-913.0859375,-983.88671875,-993.1640625,0.0
1733977613.7370238,-950.1953125,834.9609375,744.62890625,947.265625,0.0
1733977613.7409294,977.05078125,-538.0859375,-252.44140625,-997.55859375,0.0
1733977613.744835,891.11328125,-1000.0,-888.671875,854.4921875,0.0
1733977613.7487404,-149.90234375,-117.1875,93.26171875,775.390625,0.0
1733977613.752646,489.2578125,-973.14453125,966.30859375,980.46875,0.0
1733977613.7565515,-917.48046875,879.8828125,800.78125,946.2890625,0.0
1733977613.760457,947.75390625,-493.65234375,-50.78125,-971.19140625,0.0
1733977613.7643626,948.2421875,-1000.0,-738.76953125,699.70703125,0.0
1733977613.768275,-49.31640625,-304.6875,71.77734375,405.2734375,0.0
1733977613.7721806,399.90234375,925.29296875,938.96484375,925.29296875,0.0
1733977613.776086,-916.015625,979.98046875,840.8203125,971.6796875,0.0
1733977613.7799916,934.08203125,-181.640625,155.76171875,-986.328125,0.0
1733977613.7838974,985.3515625,-1000.0,-710.44921875,740.72265625,0.0
1733977613.787803,316.89453125,-613.28125,-138.671875,308.10546875,0.0
1733977613.7917085,542.96875,761.71875,892.578125,865.72265625,0.0
1733977613.795614,-940.4296875,-931.15234375,861.81640625,996.09375,0.0
1733977613.7995195,934.5703125,42.48046875,187.5,986.81640625,0.0
1733977613.803425,995.1171875,-1000.0,-754.39453125,884.765625,0.0
1733977613.8073306,748.046875,-775.87890625,-406.25,389.6484375,0.0
1733977613.8112361,791.9921875,673.828125,809.08203125,806.15234375,0.0
1733977613.8151557,-989.2578125,-886.23046875,900.87890625,-986.328125,0.0
1733977613.8190613,944.3359375,97.65625,193.84765625,973.6328125,0.0
1733977613.8229668,-995.1171875,-1000.0,-625.9765625,922.8515625,0.0
1733977613.8268723,832.03125,-839.35546875,-492.67578125,411.62109375,0.0
1733977613.830778,759.27734375,593.75,650.390625,768.5546875,0.0
1733977613.8346834,989.2578125,-858.88671875,931.640625,-980.95703125,0.0
1733977613.838589,937.01171875,321.77734375,416.015625,972.65625,0.0
1733977613.8424945,-967.7734375,-921.875,-440.91796875,929.19921875,0.0
1733977613.8464,800.78125,-953.125,-592.28515625,356.4453125,0.0
1733977613.8503056,382.8125,425.78125,492.67578125,718.75,0.0
1733977613.8542113,879.8828125,-852.05078125,997.55859375,-965.8203125,0.0
1733977613.8581169,971.6796875,603.02734375,684.5703125,957.51953125,0.0
1733977613.8620355,-973.14453125,-808.10546875,-406.25,959.47265625,0.0
1733977613.865941,788.57421875,-1000.0,-625.0,379.39453125,0.0
1733977613.8698466,1.953125,480.95703125,573.2421875,665.0390625,0.0
1733977613.873752,708.0078125,-848.6328125,-987.3046875,-957.51953125,0.0
1733977613.8776577,-968.26171875,502.44140625,523.92578125,947.75390625,0.0
1733977613.8815632,989.74609375,-802.734375,-474.12109375,951.66015625,0.0
1733977613.8854687,851.07421875,-1000.0,-630.859375,388.18359375,0.0
1733977613.8893743,17.08984375,322.265625,516.6015625,583.0078125,0.0
1733977613.89328,654.78515625,-871.58203125,994.62890625,-964.84375,0.0
1733977613.8971856,-934.5703125,793.9453125,696.2890625,942.87109375,0.0
1733977613.901091,947.265625,-573.73046875,-227.5390625,-999.0234375,0.0
1733977613.9049966,934.08203125,-1000.0,-683.10546875,496.58203125,0.0
1733977613.9089146,450.1953125,7.8125,347.16796875,516.11328125,0.0
1733977613.91282,774.4140625,-970.703125,979.00390625,-988.76953125,0.0
1733977613.9167256,-977.5390625,713.8671875,635.25390625,943.84765625,0.0
1733977613.9206312,959.9609375,-493.65234375,-124.51171875,-982.91015625,0.0
1733977613.9245367,955.078125,-1000.0,-782.71484375,584.9609375,0.0
1733977613.9284422,544.43359375,-303.7109375,2.44140625,399.90234375,0.0
1733977613.9323478,785.15625,958.984375,929.6875,957.03125,0.0
1733977613.9362535,-986.328125,924.8046875,828.125,960.44921875,0.0
1733977613.940159,954.58984375,-445.3125,-123.046875,-981.4453125,0.0
1733977613.9440646,990.234375,-1000.0,-856.93359375,601.5625,0.0
1733977613.9479702,363.28125,-479.98046875,-29.78515625,198.73046875,0.0
1733977613.9518757,550.78125,834.47265625,902.34375,871.58203125,0.0
1733977613.955793,-968.26171875,-985.83984375,830.56640625,986.328125,0.0
1733977613.9596984,927.734375,-152.34375,173.33984375,-989.74609375,0.0
1733977613.963604,-954.58984375,-1000.0,-683.59375,640.13671875,0.0
1733977613.9675095,31.73828125,-742.67578125,-247.55859375,18.5546875,0.0
1733977613.971415,-193.359375,696.2890625,844.7265625,756.8359375,0.0
1733977613.9753206,915.52734375,-926.26953125,846.6796875,-979.4921875,0.0
1733977613.979226,967.7734375,-136.23046875,133.7890625,993.1640625,0.0
1733977613.9831316,-961.42578125,-1000.0,-701.171875,608.88671875,0.0
1733977613.9870374,20.99609375,-871.09375,-575.68359375,-168.9453125,0.0
1733977613.990943,-532.71484375,513.671875,641.6015625,645.99609375,0.0
1733977613.9948485,803.22265625,-854.98046875,917.48046875,-951.171875,0.0
1733977613.998754,991.69921875,75.1953125,159.66796875,977.05078125,0.0
1733977614.0026698,-958.0078125,-1000.0,-660.64453125,533.203125,0.0
1733977614.0065753,362.79296875,-891.11328125,-636.71875,-464.84375,0.0
1733977614.0104809,-442.87109375,499.51171875,497.0703125,450.68359375,0.0
1733977614.0143864,730.46875,-837.40234375,957.51953125,-917.48046875,0.0
1733977614.018292,-991.69921875,386.71875,483.88671875,955.56640625,0.0
1733977614.0221975,-959.47265625,-869.140625,-585.9375,566.40625,0.0
1733977614.026103,527.34375,-1000.0,-801.26953125,-563.96484375,0.0
1733977614.0300086,-547.8515625,162.59765625,371.09375,205.078125,0.0
1733977614.033914,601.5625,-898.4375,956.0546875,-933.59375,0.0
1733977614.0378199,-953.61328125,633.30078125,661.62109375,957.03125,0.0
1733977614.0417254,-979.98046875,-802.734375,-570.80078125,581.0546875,0.0
1733977614.045631,619.62890625,-1000.0,-815.4296875,-671.875,0.0
1733977614.0495448,0.0,233.3984375,472.65625,-199.21875,0.0
1733977614.0534503,0.0,-875.48828125,-988.28125,967.28515625,0.0
1733977614.057356,0.0,705.56640625,661.62109375,997.0703125,0.0
1733977614.0612617,0.0,-686.03515625,-483.3984375,534.66796875,0.0
1733977614.0651672,0.0,-1000.0,-850.09765625,-754.8828125,0.0
1733977614.0690727,0.0,-166.50390625,276.3671875,-481.4453125,0.0
1733977614.0729783,0.0,986.81640625,956.0546875,858.88671875,0.0
1733977614.0768838,0.0,836.42578125,667.96875,-973.6328125,0.0
1733977614.0807893,0.0,-599.609375,-427.24609375,646.484375,0.0
1733977614.0846949,0.0,-1000.0,-943.359375,-609.86328125,0.0
1733977614.0886004,0.0,-348.6328125,26.85546875,-639.6484375,0.0
1733977614.092506,0.0,899.90234375,891.11328125,779.296875,0.0
1733977614.096419,-983.3984375,914.55078125,789.0625,-963.8671875,0.0
1733977614.1003246,988.76953125,-506.8359375,-157.71484375,853.515625,0.0
1733977614.1042302,877.44140625,-1000.0,-943.359375,-249.0234375,0.0
1733977614.1081357,-664.0625,-506.8359375,-121.09375,-687.01171875,0.0
1733977614.1120412,-448.73046875,847.16796875,891.6015625,709.9609375,0.0
1733977614.1159468,908.69140625,948.73046875,812.98828125,-958.49609375,0.0
1733977614.1198523,-988.28125,-481.93359375,-174.8046875,958.0078125,0.0
1733977614.1237578,890.625,-1000.0,-966.30859375,56.640625,0.0
1733977614.1276634,-627.9296875,-689.94140625,-241.2109375,-701.171875,0.0
1733977614.1315691,-906.25,690.4296875,812.98828125,623.046875,0.0
1733977614.1354747,665.0390625,-935.546875,819.3359375,-936.03515625,0.0
1733977614.1393802,-906.25,-175.29296875,129.39453125,957.03125,0.0
1733977614.1432922,836.9140625,-1000.0,-751.46484375,203.61328125,0.0
1733977614.1471977,-590.8203125,-909.1796875,-534.1796875,-713.37890625,0.0
1733977614.1511033,-1000.0,398.92578125,649.4140625,523.92578125,0.0
1733977614.155009,435.546875,995.1171875,738.28125,-917.96875,0.0
1733977614.1589146,-883.7890625,-122.0703125,86.9140625,953.125,0.0
1733977614.16282,851.07421875,-1000.0,-694.82421875,431.15234375,0.0
1733977614.1667256,-516.6015625,-983.3984375,-770.5078125,-537.109375,0.0
1733977614.1706312,-1000.0,178.7109375,444.3359375,471.19140625,0.0
1733977614.1745367,233.88671875,-911.1328125,856.93359375,-916.9921875,0.0
1733977614.1784422,-941.89453125,123.53515625,296.38671875,957.51953125,0.0
1733977614.1823478,947.75390625,-993.1640625,-549.31640625,723.6328125,0.0
1733977614.1862533,-240.72265625,-1000.0,-741.69921875,-102.05078125,0.0
1733977614.1901734,-1000.0,-13.671875,323.73046875,565.91796875,0.0
1733977614.194079,76.171875,-937.98828125,868.1640625,-922.36328125,0.0
1733977614.1979845,979.4921875,501.953125,621.58203125,932.12890625,0.0
1733977614.20189,-964.84375,-805.6640625,-356.4453125,970.21484375,0.0
1733977614.2057955,363.28125,-1000.0,-740.72265625,557.6171875,0.0
1733977614.209701,-968.26171875,-558.59375,225.09765625,758.7890625,0.0
1733977614.2136066,-69.82421875,793.45703125,817.87109375,-965.8203125,0.0
1733977614.2175121,986.328125,760.25390625,704.58984375,941.40625,0.0
1733977614.221418,-978.515625,-756.34765625,-240.234375,982.91015625,0.0
1733977614.2253234,708.49609375,-1000.0,-813.4765625,925.29296875,0.0
1733977614.229229,-812.5,-462.890625,160.64453125,923.828125,0.0
1733977614.2331345,-337.40234375,822.75390625,868.65234375,979.00390625,0.0
1733977614.237053,939.453125,866.2109375,698.2421875,967.28515625,0.0
1733977614.2409585,-984.375,-644.53125,-115.72265625,970.21484375,0.0
1733977614.244864,840.33203125,-1000.0,-660.64453125,967.7734375,0.0
1733977614.2487695,-710.44921875,-573.73046875,90.8203125,966.796875,0.0
1733977614.252675,-742.67578125,622.55859375,755.37109375,970.21484375,0.0
1733977614.2565808,769.04296875,816.89453125,611.328125,969.7265625,0.0
1733977614.2604864,-945.80078125,-485.3515625,197.265625,969.23828125,0.0
1733977614.264392,877.9296875,-1000.0,-495.1171875,969.7265625,0.0
1733977614.2682974,-591.30859375,-962.40234375,-184.5703125,969.7265625,0.0
1733977614.272203,-979.00390625,-309.5703125,571.77734375,969.7265625,0.0
1733977614.2761085,602.5390625,838.37890625,742.1875,969.7265625,0.0
1733977614.280014,-908.69140625,-19.04296875,400.87890625,969.7265625,0.0
1733977614.2839315,879.39453125,-1000.0,-536.62109375,969.7265625,0.0
1733977614.287837,-482.91015625,-894.04296875,-255.37109375,969.7265625,0.0
1733977614.2917428,-1000.0,192.87109375,670.8984375,969.7265625,0.0
1733977614.2956483,350.09765625,-990.72265625,763.671875,969.7265625,0.0
1733977614.2995539,-899.4140625,139.6484375,431.640625,969.7265625,0.0
1733977614.3034594,860.83984375,-906.73828125,-491.69921875,969.7265625,0.0
1733977614.307365,-413.0859375,-1000.0,-506.8359375,969.7265625,0.0
1733977614.3112705,-1000.0,-231.93359375,507.32421875,969.7265625,0.0
1733977614.315176,-301.26953125,896.484375,666.015625,969.7265625,0.0
1733977614.3190815,927.24609375,321.77734375,363.28125,969.7265625,0.0
1733977614.322987,921.38671875,-828.61328125,-226.5625,969.7265625,0.0
1733977614.3268926,-455.078125,-1000.0,-605.95703125,969.7265625,0.0
1733977614.3308096,-1000.0,-575.68359375,285.64453125,969.7265625,0.0
1733977614.3347151,-656.73828125,803.22265625,773.92578125,969.7265625,0.0
1733977614.3386207,720.21484375,511.23046875,478.515625,969.7265625,0.0
1733977614.3425262,-967.28515625,-791.50390625,-125.9765625,969.7265625,0.0
1733977614.3464317,-297.36328125,-1000.0,-619.62890625,969.7265625,0.0
1733977614.3503373,-1000.0,-814.94140625,166.015625,969.7265625,0.0
1733977614.3542428,-752.44140625,588.8671875,780.2734375,969.7265625,0.0
1733977614.3581483,619.140625,650.87890625,631.34765625,969.7265625,0.0
1733977614.362054,-887.20703125,-794.921875,-108.3984375,969.7265625,0.0
1733977614.3659596,100.09765625,-1000.0,-625.0,969.7265625,0.0
1733977614.3698652,-1000.0,-725.5859375,200.68359375,969.7265625,0.0
1733977614.3737707,-832.03125,514.16015625,789.55078125,969.7265625,0.0
1733977614.3776858,0.0,948.73046875,0.0,969.23828125,0.0
1733977614.3815913,0.0,-217.7734375,0.0,970.703125,0.0
1733977614.3854969,0.0,-1000.0,0.0,966.30859375,0.0
1733977614.3894024,0.0,-936.5234375,0.0,965.33203125,0.0
1733977614.393308,0.0,350.09765625,0.0,970.21484375,0.0
1733977614.3972135,0.0,-999.0234375,0.0,969.7265625,0.0
1733977614.401119,0.0,-214.84375,0.0,969.7265625,0.0
1733977614.4050248,0.0,-1000.0,0.0,969.7265625,0.0
1733977614.4089303,0.0,-985.83984375,0.0,969.7265625,0.0
1733977614.4128358,0.0,77.1484375,0.0,970.21484375,0.0
1733977614.4167414,0.0,-996.09375,0.0,968.75,0.0
1733977614.420647,0.0,80.078125,0.0,972.16796875,0.0
1733977614.4245615,767.08984375,-920.8984375,-176.7578125,962.40234375,0.0
1733977614.428467,-603.02734375,-1000.0,-57.12890625,957.03125,0.0
1733977614.4323726,-1000.0,-241.2109375,632.32421875,972.65625,0.0
1733977614.436278,23.4375,912.59765625,793.45703125,964.35546875,0.0
1733977614.4401836,-937.01171875,368.1640625,596.6796875,980.95703125,0.0
1733977614.4440894,785.15625,-812.01171875,-216.30859375,943.359375,0.0
1733977614.447995,-597.16796875,-1000.0,-285.15625,896.484375,0.0
1733977614.4519005,-1000.0,-792.48046875,446.2890625,969.7265625,0.0
1733977614.455806,-427.24609375,639.16015625,728.515625,961.42578125,0.0
1733977614.4597116,875.0,424.31640625,612.3046875,988.76953125,0.0
1733977614.463617,922.36328125,-862.3046875,-126.46484375,930.17578125,0.0
1733977614.4675226,-521.484375,-1000.0,-223.14453125,769.04296875,0.0
1733977614.4714355,-1000.0,-430.6640625,602.5390625,933.10546875,0.0
1733977614.475341,-405.76171875,807.12890625,802.734375,983.88671875,0.0
1733977614.4792466,799.31640625,740.234375,641.11328125,969.23828125,0.0
1733977614.4831522,-926.26953125,-456.54296875,202.63671875,956.0546875,0.0
1733977614.487058,45.8984375,-1000.0,-94.7265625,832.03125,0.0
1733977614.4909635,-1000.0,-671.38671875,505.859375,932.6171875,0.0
1733977614.494869,-285.64453125,575.1953125,771.97265625,986.328125,0.0
1733977614.4987745,876.46484375,860.83984375,617.67578125,961.9140625,0.0
1733977614.50268,-935.546875,-219.7265625,298.33984375,972.16796875,0.0
1733977614.5065856,559.5703125,-1000.0,-261.23046875,933.59375,0.0
1733977614.5104911,-904.296875,-836.42578125,253.41796875,954.1015625,0.0
1733977614.5143967,-510.25390625,547.8515625,772.94921875,974.609375,0.0
1733977614.518309,841.796875,887.20703125,676.7578125,967.28515625,0.0
1733977614.5222147,-934.08203125,-235.83984375,276.3671875,976.07421875,0.0
1733977614.5261202,552.734375,-1000.0,-442.3828125,911.1328125,0.0
1733977614.5300257,-870.60546875,-967.28515625,47.36328125,931.640625,0.0
1733977614.5339313,-910.64453125,385.7421875,737.3046875,975.09765625,0.0
1733977614.537837,592.28515625,852.5390625,680.17578125,967.28515625,0.0
1733977614.5417426,-858.88671875,-547.36328125,150.390625,986.328125,0.0
1733977614.545648,391.6015625,-1000.0,-508.30078125,771.484375,0.0
1733977614.5495536,-863.76953125,-990.72265625,-96.19140625,838.8671875,0.0
1733977614.5534592,-1000.0,-185.546875,593.26171875,995.60546875,0.0
1733977614.5573647,257.32421875,926.7578125,680.17578125,953.61328125,0.0
1733977614.5612702,-852.5390625,228.515625,317.3828125,-993.1640625,0.0
1733977614.5651903,344.23828125,-898.4375,-494.140625,496.58203125,0.0
1733977614.5690958,-847.65625,-1000.0,-379.39453125,493.1640625,0.0
1733977614.5730016,-1000.0,-158.203125,498.046875,990.72265625,0.0
1733977614.5769072,-211.9140625,996.09375,739.2578125,955.078125,0.0
1733977614.5808127,-962.890625,495.60546875,373.046875,-999.51171875,0.0
1733977614.5847182,389.6484375,-793.45703125,-558.10546875,346.6796875,0.0
1733977614.5886238,-857.421875,-1000.0,-475.09765625,96.19140625,0.0
1733977614.5925293,-1000.0,-273.4375,481.4453125,878.90625,0.0
1733977614.5964348,-624.0234375,936.03515625,768.5546875,995.1171875,0.0
1733977614.6003404,854.4921875,285.64453125,406.25,959.47265625,0.0
1733977614.604246,606.93359375,-891.6015625,-501.953125,167.48046875,0.0
1733977614.6081517,-804.6875,-1000.0,-449.70703125,-324.70703125,0.0
1733977614.6120706,0.0,-618.1640625,370.1171875,729.00390625,0.0
1733977614.615976,0.0,763.18359375,707.51953125,-961.42578125,0.0
1733977614.6198816,0.0,874.51171875,611.328125,904.296875,0.0
1733977614.6237872,0.0,-527.83203125,-176.7578125,167.48046875,0.0
1733977614.627693,0.0,-1000.0,-505.37109375,-442.87109375,0.0
1733977614.6315985,0.0,-747.55859375,145.99609375,634.765625,0.0
1733977614.635504,0.0,641.6015625,693.359375,-950.1953125,0.0
1733977614.6394095,0.0,-955.078125,649.4140625,948.73046875,0.0
1733977614.643315,0.0,-248.53515625,-96.19140625,437.01171875,0.0
1733977614.6472206,0.0,-1000.0,-638.671875,-279.78515625,0.0
1733977614.6511261,0.0,-655.76171875,83.49609375,605.46875,0.0
1733977614.6550317,0.0,678.22265625,745.60546875,-954.1015625,0.0
1733977614.658949,656.25,-914.55078125,630.37109375,969.7265625,0.0
1733977614.6628544,-889.16015625,166.50390625,158.203125,651.3671875,0.0
1733977614.66676,94.23828125,-1000.0,-433.59375,-149.90234375,0.0
1733977614.6706655,-1000.0,-721.19140625,98.6328125,569.82421875,0.0
1733977614.674571,-697.75390625,671.38671875,738.28125,-949.70703125,0.0
1733977614.6784766,677.24609375,-908.203125,671.875,967.28515625,0.0
1733977614.682382,-880.859375,270.5078125,282.71484375,836.9140625,0.0
1733977614.6862876,522.4609375,-885.25390625,-431.15234375,58.59375,0.0
1733977614.6901934,-901.85546875,-937.98828125,-78.61328125,570.3125,0.0
1733977614.694099,-758.30078125,300.78125,675.78125,-944.82421875,0.0
1733977614.6980045,700.68359375,-885.7421875,818.359375,950.1953125,0.0
1733977614.70191,-906.25,546.875,407.71484375,951.171875,0.0
1733977614.7058263,0.0,-829.58984375,-396.484375,242.1875,0.0
1733977614.709732,0.0,-866.2109375,0.48828125,515.625,0.0
1733977614.7136376,0.0,558.10546875,735.3515625,-954.1015625,0.0
1733977614.7175431,0.0,-893.5546875,805.6640625,944.3359375,0.0
1733977614.7214487,0.0,791.50390625,478.02734375,985.83984375,0.0
1733977614.7253542,0.0,-630.859375,-401.3671875,572.265625,0.0
1733977614.7292597,0.0,-987.3046875,-186.5234375,666.50390625,0.0
1733977614.7331653,0.0,498.046875,666.9921875,-976.5625,0.0
1733977614.7370708,0.0,-901.85546875,746.58203125,946.2890625,0.0
1733977614.7409766,0.0,812.01171875,447.75390625,995.1171875,0.0
1733977614.744882,0.0,-492.1875,-203.61328125,823.2421875,0.0
1733977614.7487876,0.0,-881.34765625,-80.078125,803.22265625,0.0
1733977614.7527032,-662.109375,501.953125,666.9921875,993.1640625,0.0
1733977614.7566087,815.4296875,-938.4765625,826.171875,963.37890625,0.0
1733977614.7605143,996.09375,954.58984375,585.9375,974.609375,0.0
1733977614.7644198,-972.65625,-300.29296875,-194.3359375,948.73046875,0.0
1733977614.7683253,361.328125,-719.7265625,-125.48828125,930.17578125,0.0
1733977614.7722309,-205.078125,645.01953125,657.2265625,972.65625,0.0
1733977614.7761364,839.84375,-954.1015625,875.48828125,970.21484375,0.0
1733977614.780042,-994.140625,925.78125,706.0546875,968.26171875,0.0
1733977614.7839477,997.55859375,-312.98828125,-170.41015625,969.7265625,0.0
1733977614.7878532,709.9609375,-649.90234375,-125.0,969.7265625,0.0
1733977614.7917588,348.14453125,777.83203125,720.703125,969.7265625,0.0
1733977614.7956643,911.1328125,999.0234375,882.32421875,969.23828125,0.0
1733977614.7995782,-994.140625,998.046875,744.62890625,969.7265625,0.0
1733977614.8034837,950.68359375,174.31640625,-148.4375,969.7265625,0.0
1733977614.8073895,949.21875,-1000.0,-773.4375,969.23828125,0.0
1733977614.811295,908.69140625,-51.7578125,112.3046875,969.23828125,0.0
1733977614.8152006,969.7265625,957.03125,854.4921875,969.23828125,0.0
1733977614.819106,971.19140625,-912.59765625,748.046875,969.7265625,0.0
1733977614.8230116,967.28515625,424.31640625,-64.94140625,969.7265625,0.0
1733977614.8269172,966.30859375,-684.08203125,-603.02734375,969.7265625,0.0
1733977614.8308227,964.35546875,553.7109375,503.90625,969.7265625,0.0
1733977614.8347282,969.7265625,-944.82421875,987.3046875,969.7265625,0.0
1733977614.838634,968.26171875,-987.3046875,821.77734375,969.23828125,0.0
1733977614.8425395,970.703125,713.37890625,239.74609375,969.7265625,0.0
1733977614.8464527,0.0,-604.98046875,-564.94140625,969.7265625,0.0
1733977614.8503582,0.0,443.84765625,419.921875,969.7265625,0.0
1733977614.8542638,0.0,-910.64453125,-987.79296875,969.7265625,0.0
1733977614.8581693,0.0,976.07421875,896.97265625,969.23828125,0.0
1733977614.8620749,0.0,841.796875,508.7890625,969.7265625,0.0
1733977614.8659806,0.0,-599.609375,-546.38671875,969.7265625,0.0
1733977614.8698862,0.0,179.6875,296.875,969.7265625,0.0
1733977614.8737917,0.0,-919.921875,-979.4921875,969.7265625,0.0
1733977614.8776972,0.0,976.5625,902.34375,969.7265625,0.0
1733977614.8816028,0.0,882.8125,554.6875,969.7265625,0.0
1733977614.8855083,0.0,-522.4609375,-435.546875,969.7265625,0.0
1733977614.8894138,0.0,130.859375,347.16796875,969.7265625,0.0
1733977614.8933256,719.23828125,-906.25,-988.28125,969.7265625,0.0
1733977614.8972313,-961.9140625,923.33984375,915.52734375,969.7265625,0.0
1733977614.9011369,942.87109375,-998.046875,765.13671875,969.7265625,0.0
1733977614.9050424,994.140625,-351.07421875,-168.9453125,969.7265625,0.0
1733977614.908948,540.0390625,-297.36328125,316.89453125,969.7265625,0.0
1733977614.9128535,686.03515625,964.35546875,987.79296875,969.23828125,0.0
1733977614.916759,-970.703125,958.984375,914.0625,969.23828125,0.0
1733977614.9206645,932.12890625,-980.95703125,830.56640625,969.7265625,0.0
1733977614.92457,-968.75,-210.9375,-20.01953125,969.7265625,0.0
1733977614.9284759,466.30859375,-680.17578125,129.8828125,969.7265625,0.0
1733977614.9323814,388.18359375,735.3515625,886.71875,969.7265625,0.0
1733977614.936287,994.140625,-966.796875,937.5,969.23828125,0.0
1733977614.9402065,930.6640625,981.4453125,0.0,969.7265625,0.0
1733977614.944112,-938.4765625,-277.34375,0.0,969.7265625,0.0
1733977614.9480176,387.6953125,-981.4453125,0.0,969.7265625,0.0
1733977614.9519231,-174.31640625,556.640625,0.0,969.7265625,0.0
1733977614.9558287,816.40625,-944.3359375,0.0,969.7265625,0.0
1733977614.9597342,982.91015625,978.515625,0.0,969.7265625,0.0
1733977614.96364,-952.1484375,-3.90625,0.0,969.23828125,0.0
1733977614.9675455,481.93359375,-1000.0,0.0,969.7265625,0.0
1733977614.971451,-444.3359375,93.26171875,0.0,969.7265625,0.0
1733977614.9753566,655.2734375,-968.26171875,0.0,969.7265625,0.0
1733977614.979262,-966.796875,975.09765625,0.0,969.7265625,0.0
1733977614.9831676,-979.98046875,-3.41796875,0.0,969.7265625,0.0
1733977614.9870863,482.91015625,-1000.0,-724.12109375,969.7265625,0.0
1733977614.9909918,-849.12109375,-520.5078125,159.1796875,969.7265625,0.0
1733977614.9948974,208.0078125,760.7421875,914.55078125,969.7265625,0.0
1733977614.998803,-927.734375,-899.4140625,871.09375,969.7265625,0.0
1733977615.0027084,984.86328125,361.328125,293.9453125,969.7265625,0.0
1733977615.006614,339.84375,-1000.0,-819.3359375,969.7265625,0.0
1733977615.0105195,-1000.0,-747.0703125,-180.17578125,969.7265625,0.0
1733977615.014425,-360.83984375,682.6171875,881.8359375,969.7265625,0.0
1733977615.0183306,877.44140625,-888.18359375,920.41015625,969.7265625,0.0
1733977615.0222363,-950.1953125,656.73828125,458.49609375,969.7265625,0.0
1733977615.026142,355.95703125,-817.87109375,-740.72265625,969.7265625,0.0
1733977615.0300474,-982.421875,-846.19140625,-241.69921875,970.21484375,0.0
1733977615.0339649,-690.4296875,668.9453125,856.4453125,969.7265625,0.0
1733977615.0378704,721.19140625,-896.484375,937.98828125,969.23828125,0.0
1733977615.041776,-901.3671875,791.50390625,597.65625,970.703125,0.0
1733977615.0456815,446.77734375,-686.03515625,-666.015625,964.84375,0.0
1733977615.049587,-914.55078125,-1000.0,-483.3984375,964.84375,0.0
1733977615.0534925,-810.546875,531.25,719.23828125,970.703125,0.0
1733977615.0573983,653.3203125,-868.1640625,957.03125,967.28515625,0.0
1733977615.0613039,-884.27734375,771.484375,633.7890625,979.4921875,0.0
1733977615.0652094,604.98046875,-648.92578125,-643.5546875,914.55078125,0.0
1733977615.069115,-816.89453125,-1000.0,-682.6171875,919.921875,0.0
1733977615.0730205,-900.390625,300.78125,603.02734375,979.4921875,0.0
1733977615.076926,597.65625,-879.39453125,974.12109375,958.0078125,0.0
1733977615.0808425,-872.0703125,791.50390625,686.5234375,-997.55859375,0.0
1733977615.084748,668.45703125,-554.19921875,-559.5703125,764.16015625,0.0
1733977615.0886536,-713.37890625,-1000.0,-862.79296875,724.609375,0.0
1733977615.0925593,-1000.0,-265.625,354.4921875,983.88671875,0.0
1733977615.0964649,262.20703125,962.890625,963.37890625,956.0546875,0.0
1733977615.1003704,-880.859375,904.296875,677.734375,-995.60546875,0.0
1733977615.104276,703.125,-499.51171875,-530.76171875,636.71875,0.0
1733977615.1081815,-663.57421875,-1000.0,-965.33203125,455.078125,0.0
1733977615.112087,-1000.0,-467.28515625,-31.73828125,930.17578125,0.0
1733977615.1159925,-62.98828125,834.9609375,885.7421875,976.07421875,0.0
1733977615.119898,-981.4453125,-990.234375,783.69140625,993.1640625,0.0
1733977615.1238039,843.26171875,-300.78125,-469.7265625,627.44140625,0.0
1733977615.1277184,-584.9609375,-1000.0,-1000.0,312.98828125,0.0
1733977615.1316242,-1000.0,-607.421875,-176.7578125,862.3046875,0.0
1733977615.1355298,-45.41015625,718.26171875,835.9375,-999.51171875,0.0
1733977615.1394353,978.515625,-899.4140625,842.28515625,974.609375,0.0
1733977615.1433408,956.54296875,84.47265625,-145.99609375,585.44921875,0.0
1733977615.1472464,-317.87109375,-1000.0,-936.5234375,221.19140625,0.0
1733977615.151152,-1000.0,-767.578125,-301.7578125,816.89453125,0.0
1733977615.1550574,-247.55859375,635.7421875,781.73828125,-991.2109375,0.0
1733977615.158963,884.765625,-861.328125,869.140625,961.42578125,0.0
1733977615.1628687,-988.76953125,395.99609375,118.65234375,557.12890625,0.0
1733977615.1667743,-74.70703125,-945.80078125,-907.71484375,-10.7421875,0.0
1733977615.1706798,-1000.0,-905.2734375,-532.2265625,646.484375,0.0
1733977615.1745937,-575.68359375,552.734375,680.6640625,-951.171875,0.0
1733977615.1784992,761.23046875,-851.07421875,923.828125,903.3203125,0.0
1733977615.1824048,-947.75390625,587.40234375,346.19140625,411.62109375,0.0
1733977615.1863103,-23.4375,-807.6171875,-832.51953125,-276.3671875,0.0
1733977615.1902158,-1000.0,-1000.0,-704.1015625,271.484375,0.0
1733977615.1941214,-843.75,443.84765625,570.80078125,981.93359375,0.0
1733977615.198027,569.3359375,-854.98046875,956.54296875,916.9921875,0.0
1733977615.2019324,-884.765625,743.1640625,524.90234375,265.625,0.0
1733977615.2058382,90.8203125,-660.64453125,-706.0546875,-485.83984375,0.0
1733977615.2097437,-999.51171875,-1000.0,-785.15625,-92.7734375,0.0
1733977615.2136493,-954.1015625,218.75,478.515625,765.625,0.0
1733977615.2175548,394.53125,-895.01953125,985.83984375,878.41796875,0.0
1733977615.2214766,-856.93359375,822.265625,680.17578125,56.15234375,0.0
1733977615.225382,328.61328125,-545.41015625,-574.21875,-770.99609375,0.0
1733977615.2292876,-888.18359375,-1000.0,-944.3359375,-604.00390625,0.0
1733977615.2331932,-1000.0,-126.46484375,253.90625,221.19140625,0.0
1733977615.2370987,272.4609375,-996.09375,967.7734375,576.66015625,0.0
1733977615.2410042,-866.2109375,912.59765625,746.58203125,-239.74609375,0.0
1733977615.2449098,580.078125,-441.89453125,-416.015625,-962.40234375,0.0
1733977615.2488153,-766.11328125,-1000.0,-1000.0,-814.94140625,0.0
1733977615.252721,-1000.0,-387.6953125,-33.69140625,-154.78515625,0.0
1733977615.2566266,172.36328125,865.234375,914.0625,318.359375,0.0
1733977615.2605321,-908.69140625,-980.95703125,795.8984375,-412.59765625,0.0
1733977615.2644377,791.50390625,-179.6875,-235.83984375,-1000.0,0.0
1733977615.2683492,-608.88671875,-1000.0,-962.40234375,-927.734375,0.0
1733977615.2722547,-1000.0,-666.50390625,-154.296875,-414.55078125,0.0
1733977615.2761602,21.97265625,715.33203125,871.09375,80.078125,0.0
1733977615.2800658,-974.12109375,-910.15625,851.07421875,-525.87890625,0.0
1733977615.2839713,884.765625,-34.1796875,-30.2734375,-1000.0,0.0
1733977615.2878768,-479.98046875,-1000.0,-875.0,-970.703125,0.0
1733977615.2917826,-1000.0,-849.609375,-392.578125,-611.81640625,0.0
1733977615.2956882,-245.1171875,571.77734375,750.0,-123.53515625,0.0
1733977615.2995937,921.875,-858.88671875,890.625,-624.51171875,0.0
1733977615.3034992,931.640625,62.98828125,34.66796875,-1000.0,0.0
1733977615.3074048,-412.59765625,-1000.0,-890.625,-983.88671875,0.0
1733977615.3113103,-1000.0,-907.2265625,-621.09375,-862.79296875,0.0
1733977615.3152304,-562.5,467.7734375,599.609375,-477.05078125,0.0
1733977615.319136,764.6484375,-830.56640625,920.41015625,-747.0703125,0.0
1733977615.3230414,-991.2109375,380.37109375,177.24609375,-1000.0,0.0
1733977615.326947,-300.29296875,-903.3203125,-866.69921875,-988.76953125,0.0
1733977615.3308527,-1000.0,-1000.0,-770.5078125,-997.55859375,0.0
1733977615.3347583,-775.87890625,331.54296875,473.6328125,-655.76171875,0.0
1733977615.3386638,635.25390625,-845.21484375,929.6875,-761.71875,0.0
1733977615.3425694,-934.5703125,598.14453125,366.2109375,-1000.0,0.0
1733977615.346475,-208.984375,-756.8359375,-787.59765625,-990.72265625,0.0
1733977615.3503804,-1000.0,-1000.0,-951.66015625,-986.81640625,0.0
1733977615.354286,-890.13671875,98.14453125,253.90625,-682.6171875,0.0
1733977615.3581915,501.46484375,-899.4140625,927.734375,-715.33203125,0.0
1733977615.3621106,-897.4609375,755.37109375,490.72265625,-1000.0,0.0
1733977615.3660161,-90.8203125,-682.12890625,-731.93359375,-992.1875,0.0
1733977615.3699217,-1000.0,-1000.0,-952.63671875,-1000.0,0.0
1733977615.3738272,-937.01171875,135.7421875,251.953125,-639.16015625,0.0
1733977615.3777328,368.65234375,-957.03125,959.9609375,-473.14453125,0.0
1733977615.3816383,-862.79296875,945.80078125,752.44140625,-934.5703125,0.0
1733977615.3855438,340.8203125,-346.19140625,-366.2109375,-1000.0,0.0
1733977615.3894496,-894.53125,-1000.0,-803.22265625,-808.59375,0.0
1733977615.3933551,-979.4921875,216.796875,323.2421875,-190.4296875,0.0
1733977615.3972607,375.48828125,-964.35546875,963.8671875,218.26171875,0.0
1733977615.4011662,-862.3046875,979.00390625,773.4375,-429.19921875,0.0
1733977615.4050717,650.390625,49.8046875,-152.34375,-947.75390625,0.0
1733977615.408989,0.0,-1000.0,-909.1796875,-509.765625,0.0
1733977615.4128945,0.0,-214.84375,-62.5,323.73046875,0.0
1733977615.4168,0.0,958.0078125,896.97265625,708.49609375,0.0
1733977615.4207056,0.0,-984.375,780.2734375,102.5390625,0.0
1733977615.424611,0.0,16.11328125,-216.796875,-553.22265625,0.0
1733977615.4285166,0.0,-1000.0,-981.4453125,-279.78515625,0.0
1733977615.4324224,0.0,-410.64453125,-177.24609375,539.55078125,0.0
1733977615.436328,0.0,851.5625,869.140625,915.0390625,0.0
1733977615.4402335,0.0,-936.5234375,820.3125,472.65625,0.0
1733977615.444139,0.0,271.97265625,-39.55078125,-161.62109375,0.0
1733977615.4480445,0.0,-1000.0,-809.5703125,-110.83984375,0.0
1733977615.45195,0.0,-727.5390625,-245.1171875,655.76171875,0.0
1733977615.4558668,-99.12109375,705.56640625,794.43359375,969.7265625,0.0
1733977615.4597723,968.26171875,-886.23046875,857.421875,512.20703125,0.0
1733977615.463678,835.44921875,306.15234375,109.86328125,-182.12890625,0.0
1733977615.4675834,-453.125,-967.28515625,-766.11328125,-257.32421875,0.0
1733977615.471489,-1000.0,-881.34765625,-465.33203125,577.1484375,0.0
1733977615.4753945,-289.0625,562.01171875,654.296875,980.95703125,0.0
1733977615.4793,853.02734375,-854.4921875,906.73828125,562.01171875,0.0
1733977615.4832058,-966.796875,515.625,354.98046875,-91.30859375,0.0
1733977615.4871113,-71.77734375,-871.09375,-625.0,-242.1875,0.0
1733977615.4910169,-1000.0,-916.50390625,-454.58984375,573.2421875,0.0
1733977615.4949224,-277.34375,569.3359375,663.57421875,-976.5625,0.0
1733977615.498828,855.95703125,-871.09375,909.1796875,737.79296875,0.0
1733977615.5027435,-948.73046875,733.88671875,491.2109375,143.5546875,0.0
1733977615.5066493,279.78515625,-712.40234375,-549.8046875,-92.28515625,0.0
1733977615.5105548,-981.93359375,-1000.0,-548.33984375,659.66796875,0.0
1733977615.5144603,-426.26953125,503.41796875,567.87109375,-957.51953125,0.0
1733977615.5183659,822.75390625,-866.69921875,912.109375,845.703125,0.0
1733977615.5222714,-934.08203125,760.7421875,537.109375,314.94140625,0.0
