timestamps,TP9,AF7,AF8,TP10,Right AUX
1733977659.4766676,561.03515625,30.2734375,485.3515625,-462.40234375,0.0
1733977659.4805734,-824.21875,14.16015625,487.3046875,-189.94140625,0.0
1733977659.484479,155.76171875,5.859375,399.90234375,250.0,0.0
1733977659.4883847,-1000.0,-10.7421875,307.12890625,266.11328125,0.0
1733977659.4922905,-860.83984375,0.0,301.26953125,-162.59765625,0.0
1733977659.496196,526.3671875,21.97265625,397.4609375,-489.2578125,0.0
1733977659.5001018,-822.265625,19.53125,381.8359375,-314.94140625,0.0
1733977659.5040073,557.12890625,15.13671875,407.71484375,169.43359375,0.0
1733977659.507913,-915.52734375,15.625,386.71875,270.01953125,0.0
1733977659.511819,-928.7109375,14.6484375,347.65625,-129.39453125,0.0
1733977659.5157244,559.08203125,25.87890625,410.15625,-504.39453125,0.0
1733977659.5196369,0.0,28.80859375,499.51171875,-384.27734375,0.0
1733977659.5235424,0.0,11.23046875,490.234375,100.09765625,0.0
1733977659.5274482,0.0,-8.30078125,367.67578125,266.11328125,0.0
1733977659.531354,0.0,-1.953125,361.328125,-89.35546875,0.0
1733977659.5352595,0.0,16.11328125,454.1015625,-484.86328125,0.0
1733977659.5391653,0.0,20.5078125,479.98046875,-372.0703125,0.0
1733977659.543071,0.0,10.7421875,416.50390625,128.90625,0.0
1733977659.5469766,0.0,-9.27734375,183.59375,362.79296875,0.0
1733977659.5508823,0.0,-5.859375,261.71875,10.7421875,0.0
1733977659.554788,0.0,3.41796875,445.80078125,-435.05859375,0.0
1733977659.5586936,0.0,12.20703125,491.2109375,-387.6953125,0.0
1733977659.5625994,0.0,10.25390625,521.97265625,60.05859375,0.0
1733977659.5665095,-552.734375,-6.34765625,467.7734375,344.7265625,0.0
1733977659.5704153,-1000.0,-10.7421875,415.52734375,104.98046875,0.0
1733977659.5743208,1.46484375,-2.44140625,470.703125,-369.140625,0.0
1733977659.5782266,-903.80859375,11.71875,574.21875,-435.05859375,0.0
1733977659.5821323,813.4765625,0.9765625,580.56640625,15.625,0.0
1733977659.5860379,-542.96875,-27.83203125,423.828125,354.4921875,0.0
1733977659.5899436,-1000.0,-28.3203125,293.9453125,182.6171875,0.0
1733977659.5938494,-455.078125,-4.8828125,438.96484375,-276.85546875,0.0
1733977659.597755,932.12890625,16.11328125,617.1875,-391.11328125,0.0
1733977659.6016607,917.48046875,2.44140625,541.50390625,-5.859375,0.0
1733977659.6055665,-508.7890625,-22.4609375,379.39453125,363.76953125,0.0
1733977659.609472,-1000.0,-18.06640625,400.87890625,232.421875,0.0
1733977659.6133816,-662.59765625,-5.859375,484.86328125,-238.28125,0.0
1733977659.6172872,765.625,2.44140625,562.5,-402.83203125,0.0
1733977659.621193,-949.70703125,-0.48828125,565.91796875,-35.15625,0.0
1733977659.6250987,-356.93359375,-14.6484375,500.48828125,376.46484375,0.0
1733977659.6290042,-1000.0,-19.53125,446.2890625,284.66796875,0.0
1733977659.63291,-813.4765625,-15.625,393.5546875,-163.57421875,0.0
1733977659.6368158,569.82421875,-6.8359375,399.4140625,-366.2109375,0.0
1733977659.6407213,-847.65625,4.39453125,562.5,-88.8671875,0.0
1733977659.644627,-148.92578125,-6.8359375,529.78515625,320.80078125,0.0
1733977659.6485329,-1000.0,-17.08984375,372.55859375,319.3359375,0.0
1733977659.6524384,-838.8671875,2.44140625,437.01171875,-134.765625,0.0
1733977659.6563442,525.390625,15.625,583.984375,-441.40625,0.0
1733977659.66026,-814.94140625,4.8828125,596.19140625,-192.3828125,0.0
1733977659.6641657,125.0,-13.671875,489.2578125,265.13671875,0.0
1733977659.6680713,-1000.0,-24.4140625,383.30078125,291.015625,0.0
1733977659.671977,-863.28125,-10.25390625,440.91796875,-150.390625,0.0
1733977659.6758826,520.99609375,8.30078125,559.5703125,-496.09375,0.0
1733977659.6797884,-813.96484375,-4.8828125,512.6953125,-293.45703125,0.0
1733977659.6836941,456.0546875,-7.8125,463.37890625,149.90234375,0.0
1733977659.6875997,-920.8984375,-2.9296875,464.35546875,242.67578125,0.0
1733977659.6915054,-1000.0,-11.23046875,422.36328125,-139.6484375,0.0
1733977659.6954112,376.46484375,-7.32421875,403.3203125,-529.78515625,0.0
1733977659.6993167,-819.3359375,9.765625,542.96875,-405.76171875,0.0
1733977659.7032225,634.27734375,2.44140625,580.56640625,51.26953125,0.0
1733977659.707137,-774.90234375,-14.16015625,449.21875,205.078125,0.0
1733977659.7110426,-1000.0,-9.27734375,417.96875,-128.41796875,0.0
1733977659.7149484,226.5625,11.71875,531.73828125,-518.06640625,0.0
1733977659.7188542,-836.9140625,19.53125,588.37890625,-434.08203125,0.0
1733977659.7227597,722.65625,0.48828125,550.29296875,28.3203125,0.0
1733977659.7266655,-646.484375,-13.671875,438.4765625,264.6484375,0.0
1733977659.7305713,-1000.0,-7.32421875,394.53125,6.34765625,0.0
1733977659.7344768,-88.37890625,5.859375,505.37109375,-434.08203125,0.0
1733977659.7383826,-918.9453125,12.6953125,513.18359375,-436.5234375,0.0
1733977659.742288,810.05859375,3.90625,407.71484375,53.7109375,0.0
1733977659.746194,-565.91796875,11.23046875,479.4921875,356.4453125,0.0
1733977659.7500997,-1000.0,16.6015625,471.6796875,130.859375,0.0
1733977659.7540133,-459.47265625,16.11328125,462.890625,-306.640625,0.0
1733977659.7579188,948.73046875,29.296875,557.12890625,-351.5625,0.0
1733977659.7618246,875.48828125,26.3671875,566.89453125,70.80078125,0.0
1733977659.7657301,-574.21875,0.9765625,446.2890625,420.8984375,0.0
1733977659.769636,-1000.0,-9.27734375,349.12109375,267.578125,0.0
1733977659.7735417,-666.9921875,5.37109375,359.375,-158.69140625,0.0
1733977659.7774472,794.921875,24.90234375,499.0234375,-263.671875,0.0
1733977659.781353,990.72265625,23.4375,520.99609375,110.83984375,0.0
1733977659.7852588,-472.16796875,-1.953125,264.16015625,520.5078125,0.0
1733977659.7891643,-1000.0,2.9296875,283.69140625,432.6171875,0.0
1733977659.79307,-751.953125,28.3203125,418.45703125,-29.296875,0.0
1733977659.7969759,663.0859375,35.15625,461.42578125,-204.58984375,0.0
1733977659.8008885,-897.94921875,27.83203125,458.49609375,143.06640625,0.0
1733977659.8047943,-278.80859375,15.625,443.359375,561.5234375,0.0
1733977659.8086998,-1000.0,4.39453125,362.3046875,500.0,0.0
1733977659.8126056,-833.0078125,10.7421875,347.65625,39.0625,0.0
1733977659.8165114,530.2734375,28.3203125,466.30859375,-223.14453125,0.0
1733977659.820417,-830.078125,25.87890625,442.87109375,62.98828125,0.0
1733977659.8243227,16.11328125,14.16015625,398.92578125,499.0234375,0.0
1733977659.8282285,-1000.0,2.9296875,286.1328125,492.1875,0.0
1733977659.832134,-850.09765625,6.8359375,128.41796875,79.58984375,0.0
1733977659.8360398,513.671875,30.2734375,380.859375,-227.5390625,0.0
1733977659.8399456,-812.5,27.83203125,511.23046875,-4.39453125,0.0
1733977659.843851,451.66015625,7.8125,377.44140625,464.35546875,0.0
1733977659.8477633,-965.8203125,0.48828125,288.0859375,531.25,0.0
1733977659.851669,-923.33984375,7.32421875,374.51171875,122.55859375,0.0
1733977659.8555746,526.3671875,14.16015625,471.19140625,-241.2109375,0.0
1733977659.8594804,-838.37890625,9.765625,460.9375,-62.98828125,0.0
1733977659.8633862,655.2734375,-2.44140625,443.359375,430.17578125,0.0
1733977659.8672917,-791.015625,-17.08984375,322.75390625,579.58984375,0.0
1733977659.8711975,-1000.0,-12.6953125,256.8359375,209.9609375,0.0
1733977659.8751032,377.9296875,0.48828125,325.68359375,-184.08203125,0.0
1733977659.8790088,-851.5625,11.23046875,462.40234375,-60.05859375,0.0
1733977659.8829145,764.6484375,6.34765625,505.859375,390.625,0.0
1733977659.8868203,-631.8359375,-16.11328125,359.86328125,568.359375,0.0
1733977659.8907259,-1000.0,-20.01953125,275.390625,236.81640625,0.0
1733977659.8946366,180.17578125,-6.34765625,427.734375,-199.70703125,0.0
1733977659.8985424,-865.234375,0.0,521.484375,-161.62109375,0.0
1733977659.9024482,798.828125,-9.765625,449.21875,286.1328125,0.0
1733977659.9063537,-555.17578125,-23.4375,334.9609375,548.828125,0.0
1733977659.9102595,-1000.0,-17.08984375,365.234375,267.08984375,0.0
1733977659.9141653,-180.17578125,-12.6953125,367.1875,-197.265625,0.0
1733977659.9180708,-950.68359375,-8.30078125,435.05859375,-204.58984375,0.0
1733977659.9219766,835.44921875,-14.16015625,503.90625,231.93359375,0.0
1733977659.9258823,-553.7109375,-33.69140625,384.765625,525.87890625,0.0
1733977659.9297879,-1000.0,-40.52734375,299.31640625,311.03515625,0.0
1733977659.9336936,-509.27734375,-33.203125,346.6796875,-134.765625,0.0
1733977659.9375994,901.85546875,-21.97265625,458.0078125,-194.3359375,0.0
1733977659.9415097,939.94140625,-23.4375,518.5546875,191.89453125,0.0
1733977659.9454153,-492.1875,-41.50390625,434.08203125,526.3671875,0.0
1733977659.949321,-1000.0,-51.26953125,361.328125,375.9765625,0.0
1733977659.9532268,-714.84375,-34.1796875,421.38671875,-96.19140625,0.0
1733977659.9571323,734.86328125,-15.625,531.25,-241.69921875,0.0
1733977659.961038,826.171875,-27.83203125,422.8515625,180.17578125,0.0
1733977659.964944,-523.92578125,-47.8515625,254.39453125,573.2421875,0.0
1733977659.9688494,-1000.0,-39.55078125,312.5,448.2421875,0.0
1733977659.9727552,-861.328125,-15.13671875,448.73046875,-32.71484375,0.0
1733977659.976661,575.1953125,-5.859375,469.7265625,-256.8359375,0.0
1733977659.9805665,-901.3671875,-13.18359375,428.22265625,89.84375,0.0
1733977659.9844723,-346.19140625,-25.390625,468.75,529.296875,0.0
1733977659.9883814,-1000.0,-30.2734375,390.13671875,467.28515625,0.0
1733977659.9922872,-831.0546875,-26.85546875,364.2578125,15.625,0.0
1733977659.996193,515.625,-12.6953125,478.02734375,-250.48828125,0.0
1733977660.0000985,-826.171875,-4.39453125,518.5546875,10.7421875,0.0
1733977660.0040042,81.54296875,-9.765625,491.2109375,482.421875,0.0
1733977660.00791,-1000.0,-30.2734375,289.0625,509.27734375,0.0
1733977660.0118155,-856.4453125,-33.203125,122.55859375,78.61328125,0.0
1733977660.0157213,516.11328125,-0.48828125,455.56640625,-250.0,0.0
1733977660.019627,-819.3359375,0.48828125,535.64453125,-40.52734375,0.0
1733977660.0235326,548.828125,-15.13671875,372.55859375,444.3359375,0.0
1733977660.0274384,-896.484375,-14.16015625,313.4765625,535.64453125,0.0
1733977660.0313442,-981.4453125,-7.8125,382.8125,107.421875,0.0
1733977660.03526,473.14453125,-1.953125,474.12109375,-291.015625,0.0
1733977660.0391655,-844.23828125,-11.23046875,448.2421875,-130.859375,0.0
1733977660.0430713,709.9609375,-25.87890625,449.21875,380.859375,0.0
1733977660.046977,-711.42578125,-28.80859375,398.92578125,542.96875,0.0
1733977660.0508826,-1000.0,-24.90234375,351.07421875,164.0625,0.0
1733977660.0547884,276.85546875,-23.4375,378.90625,-267.578125,0.0
1733977660.0586941,-854.00390625,-18.5546875,418.9453125,-180.17578125,0.0
1733977660.0625997,787.109375,-11.71875,484.375,300.78125,0.0
1733977660.0665054,-583.49609375,-19.04296875,369.62890625,526.3671875,0.0
1733977660.070411,-1000.0,-27.34375,137.6953125,211.42578125,0.0
1733977660.0743167,18.06640625,-6.34765625,347.16796875,-248.046875,0.0
1733977660.0782225,-897.94921875,13.18359375,531.73828125,-219.7265625,0.0
1733977660.0821373,818.359375,-6.8359375,438.4765625,254.39453125,0.0
1733977660.0860431,-550.29296875,-28.3203125,311.03515625,538.0859375,0.0
1733977660.0899487,-1000.0,-14.6484375,335.9375,266.11328125,0.0
1733977660.0938544,-290.52734375,0.48828125,402.83203125,-212.890625,0.0
1733977660.09776,-991.2109375,3.41796875,461.42578125,-241.2109375,0.0
1733977660.1016657,863.28125,-4.8828125,391.6015625,211.9140625,0.0
1733977660.1055715,-539.0625,-19.53125,294.43359375,544.43359375,0.0
1733977660.109477,-1000.0,-19.53125,352.05078125,317.87109375,0.0
1733977660.1133828,-592.7734375,-19.53125,293.9453125,-165.52734375,0.0
1733977660.1172886,833.0078125,-14.16015625,262.20703125,-241.2109375,0.0
1733977660.1211941,-993.65234375,5.37109375,435.546875,155.2734375,0.0
1733977660.1251,-407.2265625,-5.859375,403.80859375,523.92578125,0.0
1733977660.1290138,-1000.0,-24.90234375,250.48828125,366.69921875,0.0
1733977660.1329195,-712.40234375,-19.53125,297.36328125,-158.69140625,0.0
1733977660.136825,700.1953125,-9.27734375,463.37890625,-350.5859375,0.0
1733977660.1407309,-900.390625,-14.16015625,458.0078125,20.01953125,0.0
1733977660.1446366,-250.48828125,-33.203125,299.31640625,439.453125,0.0
1733977660.1485422,-1000.0,-37.109375,211.9140625,351.07421875,0.0
1733977660.152448,-811.5234375,-22.94921875,288.0859375,-136.71875,0.0
1733977660.1563535,540.52734375,-9.765625,423.828125,-395.01953125,0.0
1733977660.1602592,-820.80078125,-14.6484375,300.29296875,-97.65625,0.0
1733977660.164165,138.18359375,-14.6484375,332.03125,343.75,0.0
1733977660.1680706,-1000.0,-13.18359375,357.91015625,308.10546875,0.0
1733977660.1719763,-865.72265625,-21.484375,275.87890625,-173.828125,0.0
1733977660.1758895,521.484375,-12.20703125,349.609375,-488.28125,0.0
1733977660.179795,-814.453125,-3.90625,426.26953125,-226.07421875,0.0
1733977660.1837008,459.47265625,-17.578125,383.30078125,237.79296875,0.0
1733977660.1876066,-957.03125,-24.4140625,262.6953125,281.73828125,0.0
1733977660.191512,-939.453125,-8.7890625,250.9765625,-146.97265625,0.0
1733977660.195418,504.8828125,6.34765625,326.66015625,-499.51171875,0.0
1733977660.1993234,-826.66015625,9.27734375,374.51171875,-276.3671875,0.0
1733977660.2032292,602.05078125,0.48828125,302.24609375,191.89453125,0.0
1733977660.207135,-826.66015625,-14.6484375,31.73828125,298.828125,0.0
1733977660.2110405,-1000.0,1.46484375,172.8515625,-77.63671875,0.0
1733977660.2149463,345.21484375,24.90234375,398.4375,-482.91015625,0.0
1733977660.218852,-838.8671875,20.01953125,343.26171875,-353.515625,0.0
1733977660.2227643,0.0,10.7421875,343.75,146.97265625,0.0
1733977660.22667,0.0,4.8828125,289.0625,334.47265625,0.0
1733977660.2305758,0.0,6.8359375,204.58984375,-20.5078125,0.0
1733977660.2344813,0.0,15.625,277.83203125,-451.171875,0.0
1733977660.238387,0.0,27.83203125,390.13671875,-373.53515625,0.0
1733977660.242293,0.0,21.97265625,333.984375,118.65234375,0.0
1733977660.2461984,0.0,6.8359375,142.578125,412.59765625,0.0
1733977660.2501042,0.0,9.27734375,-31.25,128.41796875,0.0
1733977660.25401,0.0,24.90234375,167.96875,-362.3046875,0.0
1733977660.2579155,0.0,36.62109375,420.41015625,-359.86328125,0.0
1733977660.2618213,0.0,23.92578125,301.7578125,118.65234375,0.0
1733977660.265727,0.0,2.9296875,-109.375,460.44921875,0.0
1733977660.2696383,-1000.0,9.765625,34.66796875,0.0,0.0
1733977660.2735438,-450.1953125,14.16015625,286.62109375,0.0,0.0
1733977660.2774496,930.6640625,20.99609375,309.5703125,0.0,0.0
1733977660.2813554,929.19921875,28.3203125,319.82421875,0.0,0.0
1733977660.285261,-486.81640625,9.765625,187.01171875,0.0,0.0
1733977660.2891667,-1000.0,-5.859375,83.49609375,0.0,0.0
1733977660.2930725,-651.85546875,1.953125,67.3828125,0.0,0.0
1733977660.296978,776.3671875,12.20703125,71.2890625,0.0,0.0
1733977660.3008838,-954.1015625,16.11328125,252.44140625,0.0,0.0
1733977660.3047895,-356.93359375,0.48828125,182.12890625,0.0,0.0
1733977660.308695,-1000.0,-2.9296875,19.53125,0.0,0.0
1733977660.3126009,-759.765625,15.13671875,111.81640625,0.0,0.0
1733977660.3165112,624.51171875,24.4140625,291.9921875,-379.39453125,0.0
1733977660.320417,-858.3984375,13.671875,291.50390625,-44.43359375,0.0
1733977660.3243225,-102.05078125,-10.7421875,88.8671875,420.8984375,0.0
1733977660.3282282,-1000.0,-14.6484375,36.1328125,369.62890625,0.0
1733977660.3321338,-831.54296875,-2.44140625,137.20703125,-135.7421875,0.0
1733977660.3360395,523.92578125,2.44140625,174.8046875,-409.1796875,0.0
1733977660.3399453,-812.5,-4.8828125,75.1953125,-104.4921875,0.0
1733977660.3438509,302.734375,-4.8828125,151.85546875,373.53515625,0.0
1733977660.3477566,-1000.0,-5.37109375,164.0625,373.046875,0.0
1733977660.3516624,-887.20703125,-4.39453125,90.33203125,-97.16796875,0.0
1733977660.355568,531.73828125,7.8125,171.875,-433.10546875,0.0
1733977660.3594737,-826.171875,6.8359375,264.6484375,-209.9609375,0.0
1733977660.3633833,578.61328125,-7.32421875,278.80859375,283.69140625,0.0
1733977660.3672888,-888.671875,-16.11328125,83.984375,386.23046875,0.0
1733977660.3711946,-966.30859375,-6.34765625,-11.23046875,-20.99609375,0.0
1733977660.3751004,508.7890625,9.765625,238.28125,-419.921875,0.0
1733977660.379006,-847.16796875,15.625,312.5,-262.6953125,0.0
1733977660.3829117,700.1953125,4.39453125,155.2734375,263.18359375,0.0
1733977660.3868175,-744.140625,-14.6484375,-259.765625,463.37890625,0.0
1733977660.390723,-1000.0,3.41796875,-125.9765625,78.61328125,0.0
1733977660.3946288,368.65234375,19.53125,229.98046875,-372.0703125,0.0
1733977660.3985345,-859.375,14.6484375,181.15234375,-263.671875,0.0
1733977660.40244,795.41015625,12.6953125,230.95703125,237.79296875,0.0
1733977660.4063458,-583.984375,0.48828125,174.31640625,470.21484375,0.0
1733977660.4102619,-1000.0,-2.44140625,95.21484375,157.2265625,0.0
1733977660.4141676,122.55859375,11.23046875,143.06640625,-307.12890625,0.0
1733977660.4180732,-876.46484375,25.87890625,221.19140625,-268.06640625,0.0
1733977660.421979,811.03515625,21.484375,259.765625,206.0546875,0.0
1733977660.4258847,-550.29296875,3.41796875,131.34765625,508.7890625,0.0
1733977660.4297903,-1000.0,4.39453125,-220.21484375,281.73828125,0.0
1733977660.433696,-194.3359375,27.83203125,-163.0859375,-208.0078125,0.0
1733977660.4376018,-963.37890625,41.9921875,203.61328125,-276.3671875,0.0
1733977660.4415073,860.3515625,26.3671875,121.09375,158.203125,0.0
1733977660.445413,-533.203125,3.41796875,-306.640625,521.484375,0.0
1733977660.4493186,-1000.0,12.20703125,-320.80078125,316.89453125,0.0
1733977660.4532244,-409.66796875,29.78515625,-70.80078125,-195.3125,0.0
1733977660.4571393,0.0,39.0625,89.35546875,-319.82421875,0.0
1733977660.461045,0.0,29.78515625,104.98046875,79.58984375,0.0
1733977660.4649506,0.0,13.671875,0.9765625,460.44921875,0.0
1733977660.4688563,0.0,9.27734375,-188.96484375,323.2421875,0.0
1733977660.4727619,0.0,6.8359375,-280.76171875,-186.5234375,0.0
1733977660.4766676,0.0,10.25390625,-202.1484375,-390.13671875,0.0
1733977660.4805734,0.0,17.08984375,-74.70703125,-27.83203125,0.0
1733977660.484479,0.0,7.8125,-37.109375,399.90234375,0.0
1733977660.4883847,0.0,-6.34765625,-387.20703125,321.77734375,0.0
1733977660.4922905,0.0,-5.37109375,-548.828125,-134.765625,0.0
1733977660.496196,0.0,20.01953125,-29.296875,-405.2734375,0.0
1733977660.5001018,0.0,23.92578125,89.84375,-140.625,0.0
1733977660.503995,919.921875,14.16015625,0.0,334.9609375,0.0
1733977660.5079007,976.07421875,18.5546875,0.0,360.83984375,0.0
1733977660.5118062,-389.16015625,28.3203125,0.0,-90.33203125,0.0
1733977660.515712,-1000.0,44.43359375,0.0,-401.3671875,0.0
1733977660.5196178,-684.5703125,38.0859375,0.0,-145.01953125,0.0
1733977660.5235233,729.4921875,16.11328125,0.0,325.1953125,0.0
1733977660.527429,-913.0859375,6.34765625,0.0,410.64453125,0.0
1733977660.5313349,-281.25,14.16015625,0.0,-6.34765625,0.0
1733977660.5352404,-1000.0,18.5546875,0.0,-365.72265625,0.0
1733977660.5391462,-825.1953125,24.90234375,0.0,-187.98828125,0.0
1733977660.543052,541.015625,20.5078125,0.0,282.2265625,0.0
1733977660.5469575,-833.0078125,-1.953125,0.0,439.94140625,0.0
1733977660.5508707,-1000.0,-0.48828125,-476.5625,99.12109375,0.0
1733977660.5547764,456.0546875,26.85546875,-261.71875,-309.08203125,0.0
1733977660.558682,-849.609375,26.3671875,-247.55859375,-233.3984375,0.0
1733977660.5625877,735.83984375,10.7421875,-372.0703125,238.28125,0.0
1733977660.5664935,-671.38671875,9.765625,-434.5703125,467.7734375,0.0
1733977660.570399,-1000.0,10.7421875,-529.296875,171.875,0.0
1733977660.5743048,231.93359375,22.4609375,-420.41015625,-258.7890625,0.0
1733977660.5782106,-856.4453125,27.83203125,-359.86328125,-232.421875,0.0
1733977660.5821161,791.015625,16.11328125,-538.57421875,215.33203125,0.0
1733977660.586022,-576.171875,9.27734375,-525.390625,487.3046875,0.0
1733977660.5899277,-1000.0,14.16015625,-466.30859375,248.53515625,0.0
1733977660.5938332,-42.96875,16.6015625,-431.640625,-195.80078125,0.0
1733977660.5977454,-913.0859375,22.4609375,-317.87109375,-232.91015625,0.0
1733977660.601651,823.73046875,22.94921875,-293.9453125,161.1328125,0.0
1733977660.6055567,-551.26953125,9.765625,-455.078125,470.21484375,0.0
1733977660.6094625,-1000.0,5.859375,-620.60546875,305.17578125,0.0
1733977660.613368,-360.83984375,15.625,-497.0703125,-167.96875,0.0
1733977660.6172738,974.12109375,21.484375,-409.66796875,-250.48828125,0.0
1733977660.6211796,892.578125,18.5546875,-461.42578125,108.3984375,0.0
1733977660.625085,-521.484375,0.9765625,-708.0078125,467.7734375,0.0
1733977660.628991,-1000.0,3.41796875,-671.38671875,348.6328125,0.0
1733977660.6328967,-577.1484375,19.53125,-465.33203125,-125.48828125,0.0
1733977660.6368022,826.66015625,20.99609375,-428.22265625,-274.4140625,0.0
1733977660.640708,-976.07421875,13.18359375,-395.99609375,48.828125,0.0
1733977660.6446192,-368.65234375,6.8359375,-495.1171875,423.33984375,0.0
1733977660.648525,-1000.0,4.39453125,-576.66015625,363.28125,0.0
1733977660.6524305,-754.8828125,0.48828125,-572.265625,-72.75390625,0.0
1733977660.6563363,645.01953125,7.32421875,-448.2421875,-305.17578125,0.0
1733977660.660242,-877.9296875,13.671875,-380.859375,-22.4609375,0.0
1733977660.6641476,-187.5,-2.44140625,-534.1796875,414.55078125,0.0
1733977660.6680534,-1000.0,-13.671875,-700.68359375,427.24609375,0.0
1733977660.6719592,-836.9140625,-3.41796875,-761.71875,21.97265625,0.0
1733977660.6758647,525.87890625,15.625,-507.32421875,-254.8828125,0.0
1733977660.6797705,-821.77734375,13.671875,-454.58984375,-57.6171875,0.0
1733977660.6836762,126.46484375,-0.9765625,-562.98828125,372.55859375,0.0
1733977660.6875818,-1000.0,-7.32421875,-555.17578125,437.98828125,0.0
1733977660.691492,-862.3046875,3.90625,-525.390625,40.0390625,0.0
1733977660.6953979,519.04296875,18.5546875,-418.45703125,-291.9921875,0.0
1733977660.6993036,-819.3359375,14.6484375,-449.21875,-117.1875,0.0
1733977660.7032092,540.0390625,-5.859375,-454.1015625,327.1484375,0.0
1733977660.707115,-913.57421875,-15.625,-514.16015625,430.17578125,0.0
1733977660.7110205,-952.63671875,-8.7890625,-653.80859375,86.42578125,0.0
1733977660.7149262,516.6015625,4.39453125,-677.734375,-267.08984375,0.0
1733977660.718832,-850.5859375,15.625,-476.5625,-163.0859375,0.0
1733977660.7227376,711.42578125,10.25390625,-364.2578125,272.4609375,0.0
1733977660.7266433,-751.46484375,-6.8359375,-544.921875,442.87109375,0.0
1733977660.730549,-1000.0,-4.8828125,-616.2109375,107.421875,0.0
1733977660.7344546,437.98828125,14.6484375,-434.08203125,-299.8046875,0.0
1733977660.738364,-862.79296875,10.7421875,-415.0390625,-237.79296875,0.0
1733977660.7422695,788.57421875,-8.7890625,-518.5546875,207.51953125,0.0
1733977660.7461753,-604.00390625,-14.16015625,-570.3125,459.47265625,0.0
1733977660.750081,-1000.0,-9.27734375,-574.21875,181.15234375,0.0
1733977660.7539866,196.77734375,-5.859375,-457.51953125,-273.4375,0.0
1733977660.7578924,-867.67578125,-8.30078125,-508.30078125,-239.74609375,0.0
1733977660.7617981,802.734375,-19.04296875,-614.2578125,182.6171875,0.0
1733977660.7657037,-543.9453125,-20.5078125,-548.828125,424.8046875,0.0
1733977660.7696095,-1000.0,-20.99609375,-598.6328125,191.40625,0.0
1733977660.7735152,-216.796875,-17.08984375,-589.84375,-260.7421875,0.0
1733977660.7774208,-962.890625,-4.8828125,-427.24609375,-333.0078125,0.0
1733977660.7813265,839.84375,-5.859375,-343.75,53.22265625,0.0
1733977660.7852423,-555.17578125,-24.4140625,-486.328125,389.16015625,0.0
1733977660.789148,-1000.0,-34.1796875,-673.828125,202.1484375,0.0
1733977660.7930536,-561.03515625,-21.484375,-543.45703125,-284.66796875,0.0
1733977660.7969594,873.046875,-7.8125,-393.5546875,-398.4375,0.0
1733977660.8008652,950.68359375,-12.6953125,-435.05859375,-0.48828125,0.0
1733977660.8047707,-495.1171875,-31.25,-665.0390625,391.6015625,0.0
1733977660.8086765,-1000.0,-20.99609375,-656.73828125,257.32421875,0.0
1733977660.8125823,-729.98046875,-1.46484375,-458.984375,-240.234375,0.0
1733977660.8164878,700.1953125,4.8828125,-377.9296875,-419.921875,0.0
1733977660.8203936,-927.734375,-5.37109375,-517.08984375,-69.82421875,0.0
1733977660.8242993,-344.7265625,-15.625,-506.8359375,347.16796875,0.0
1733977660.8282049,-1000.0,-19.04296875,-474.12109375,268.5546875,0.0
1733977660.8321197,0.0,-15.625,0.0,-208.0078125,0.0
1733977660.8360255,0.0,0.48828125,0.0,-448.73046875,0.0
1733977660.839931,0.0,8.30078125,0.0,-159.66796875,0.0
1733977660.8438368,0.0,-4.39453125,0.0,291.50390625,0.0
1733977660.8477426,0.0,-23.92578125,0.0,277.34375,0.0
1733977660.851648,0.0,-24.90234375,0.0,-180.6640625,0.0
1733977660.8555539,0.0,-3.90625,0.0,-467.7734375,0.0
1733977660.8594596,0.0,6.34765625,0.0,-232.421875,0.0
1733977660.8633652,0.0,-10.25390625,0.0,230.95703125,0.0
1733977660.867271,0.0,-28.3203125,0.0,301.26953125,0.0
1733977660.8711767,0.0,-10.25390625,0.0,-134.765625,0.0
1733977660.8750823,0.0,6.34765625,0.0,-496.09375,0.0
1733977660.8789964,-813.4765625,-3.41796875,-300.29296875,-297.36328125,0.0
1733977660.882902,520.99609375,-12.20703125,-304.6875,185.05859375,0.0
1733977660.8868077,-883.30078125,-20.01953125,-398.92578125,301.26953125,0.0
1733977660.8907135,-1000.0,-18.5546875,-461.42578125,-82.03125,0.0
1733977660.894619,360.83984375,-4.8828125,-403.3203125,-470.21484375,0.0
1733977660.8985248,-828.61328125,0.48828125,-358.88671875,-329.1015625,0.0
1733977660.9024305,682.12890625,-8.30078125,-320.3125,173.828125,0.0
1733977660.906336,-731.93359375,-14.6484375,-380.859375,375.9765625,0.0
1733977660.9102418,-1000.0,-13.18359375,-640.625,42.48046875,0.0
1733977660.9141476,219.7265625,6.8359375,-419.921875,-400.390625,0.0
1733977660.9180532,-854.00390625,22.4609375,-198.73046875,-346.6796875,0.0
1733977660.921959,782.71484375,11.71875,-248.53515625,125.9765625,0.0
1733977660.925872,-582.51953125,-8.7890625,-336.9140625,391.6015625,0.0
1733977660.9297779,-1000.0,-9.765625,-403.3203125,103.515625,0.0
1733977660.9336836,-70.3125,2.9296875,-257.8125,-375.9765625,0.0
1733977660.9375892,-918.45703125,7.8125,-114.74609375,-368.1640625,0.0
1733977660.941495,818.84765625,2.44140625,-185.05859375,104.00390625,0.0
1733977660.9454007,-548.33984375,-7.32421875,-387.6953125,428.7109375,0.0
1733977660.9493062,-1000.0,-2.9296875,-417.48046875,214.84375,0.0
1733977660.953212,-486.328125,3.90625,-395.99609375,-272.94921875,0.0
1733977660.9571178,931.640625,-0.48828125,-471.6796875,-327.1484375,0.0
1733977660.9610233,901.3671875,-3.41796875,-271.484375,97.16796875,0.0
1733977660.964929,-558.59375,-16.11328125,-264.16015625,442.87109375,0.0
1733977660.9688349,-1000.0,-16.6015625,-427.734375,264.6484375,0.0
1733977660.972747,-583.49609375,-1.953125,-337.40234375,-237.79296875,0.0
1733977660.9766526,815.4296875,6.34765625,-206.0546875,-354.4921875,0.0
1733977660.9805584,978.02734375,1.953125,-216.796875,63.4765625,0.0
1733977660.9844642,-472.65625,-10.25390625,-375.0,468.75,0.0
1733977660.9883697,-1000.0,-8.30078125,-406.73828125,335.9375,0.0
1733977660.9922755,-820.80078125,0.48828125,-380.37109375,-148.4375,0.0
1733977660.9961812,580.078125,9.765625,-258.7890625,-333.49609375,0.0
1733977661.0000868,-880.859375,5.859375,-324.70703125,11.71875,0.0
1733977661.0039926,-267.08984375,-8.30078125,-322.265625,454.1015625,0.0
1733977661.0078983,-1000.0,-6.34765625,-248.046875,385.7421875,0.0
1733977661.0118039,-832.03125,-4.39453125,-329.1015625,-105.46875,0.0
1733977661.0157096,512.20703125,0.48828125,-159.66796875,-370.60546875,0.0
1733977661.019621,-815.91796875,1.46484375,111.328125,-82.51953125,0.0
1733977661.0235267,161.1328125,-9.765625,54.6875,402.34375,0.0
1733977661.0274324,-1000.0,-15.625,-284.1796875,410.64453125,0.0
1733977661.031338,-869.140625,-13.671875,-351.07421875,-68.359375,0.0
1733977661.0352437,522.94921875,-0.9765625,-100.09765625,-420.41015625,0.0
1733977661.0391495,-816.89453125,4.39453125,36.1328125,-173.828125,0.0
1733977661.043055,484.375,-5.37109375,-142.578125,337.890625,0.0
1733977661.0469608,-939.94140625,-11.71875,-537.109375,399.4140625,0.0
1733977661.0508666,-948.2421875,3.41796875,-424.8046875,-70.80078125,0.0
1733977661.0547721,500.9765625,12.6953125,-152.83203125,-462.40234375,0.0
1733977661.058678,-836.42578125,9.765625,-60.05859375,-285.15625,0.0
1733977661.0625837,662.59765625,-0.48828125,-3.41796875,205.078125,0.0
1733977661.0664945,-772.4609375,-8.7890625,-216.30859375,346.6796875,0.0
1733977661.0704,-1000.0,-4.39453125,-352.05078125,-52.24609375,0.0
1733977661.0743058,333.49609375,4.39453125,-245.60546875,-482.421875,0.0
1733977661.0782115,-849.609375,9.27734375,-45.41015625,-370.60546875,0.0
1733977661.082117,769.53125,2.44140625,29.78515625,123.53515625,0.0
1733977661.0860229,-619.62890625,-13.18359375,-327.1484375,328.61328125,0.0
1733977661.0899286,-1000.0,-20.01953125,-606.4453125,-0.9765625,0.0
1733977661.0938342,126.953125,1.46484375,-370.1171875,-465.33203125,0.0
1733977661.09774,-874.0234375,15.13671875,-122.55859375,-425.78125,0.0
1733977661.1016457,804.19921875,0.0,-29.78515625,66.40625,0.0
1733977661.1055512,-555.6640625,-19.04296875,-281.73828125,348.14453125,0.0
1733977661.109457,-1000.0,-17.08984375,-430.17578125,68.359375,0.0
1733977661.1133661,-204.58984375,0.0,-234.86328125,-420.8984375,0.0
1733977661.117272,-958.984375,10.7421875,-83.0078125,-428.7109375,0.0
1733977661.1211777,837.40234375,5.37109375,-147.4609375,34.1796875,0.0
1733977661.1250832,-553.7109375,0.0,-287.59765625,365.72265625,0.0
1733977661.128989,-1000.0,5.859375,-378.41796875,143.06640625,0.0
1733977661.1328948,-580.56640625,7.8125,-451.171875,-336.9140625,0.0
1733977661.1368003,863.76953125,12.20703125,-498.53515625,-382.32421875,0.0
1733977661.140706,953.125,19.04296875,-200.1953125,28.3203125,0.0
1733977661.1446118,-498.53515625,4.39453125,-275.87890625,399.90234375,0.0
1733977661.1485174,-1000.0,-7.32421875,-516.6015625,251.46484375,0.0
1733977661.1524231,-730.46875,3.90625,-397.94921875,-232.91015625,0.0
1733977661.156329,708.49609375,18.06640625,-267.08984375,-386.71875,0.0
1733977661.1602373,-940.4296875,17.08984375,-163.0859375,-4.8828125,0.0
1733977661.164143,-374.51171875,-2.9296875,-353.515625,430.17578125,0.0
1733977661.1680489,-1000.0,-7.8125,-471.19140625,335.9375,0.0
1733977661.1719544,-822.265625,1.46484375,-357.91015625,-160.64453125,0.0
1733977661.1758602,554.6875,9.765625,-208.984375,-385.7421875,0.0
1733977661.179766,-898.92578125,4.8828125,-337.40234375,-8.7890625,0.0
1733977661.1836715,-150.87890625,-2.44140625,-427.24609375,455.078125,0.0
1733977661.1875772,-1000.0,-0.9765625,-374.0234375,378.41796875,0.0
1733977661.191483,-839.84375,2.44140625,-406.25,-113.28125,0.0
1733977661.1953886,509.27734375,3.90625,-428.7109375,-398.92578125,0.0
1733977661.1992943,-805.6640625,9.27734375,-256.34765625,-127.44140625,0.0
1733977661.2032,341.796875,1.953125,-199.21875,365.234375,0.0
1733977661.2071147,-1000.0,-15.13671875,-405.76171875,405.76171875,0.0
1733977661.2110205,-794.921875,-13.18359375,-559.5703125,-63.4765625,0.0
1733977661.214926,569.82421875,3.41796875,-359.86328125,-411.1328125,0.0
1733977661.2188318,-846.19140625,11.71875,-195.80078125,-181.640625,0.0
1733977661.2227376,608.3984375,-4.39453125,-330.56640625,324.21875,0.0
1733977661.226643,-864.2578125,-23.92578125,-521.484375,429.19921875,0.0
1733977661.2305489,-993.65234375,-15.625,-475.09765625,5.37109375,0.0
1733977661.2344544,474.12109375,6.34765625,-216.796875,-396.97265625,0.0
1733977661.2383602,-847.65625,2.44140625,-270.99609375,-235.83984375,0.0
1733977661.242266,721.19140625,-8.7890625,-406.73828125,251.46484375,0.0
1733977661.2461715,-699.21875,-0.48828125,-381.34765625,416.50390625,0.0
1733977661.2500772,-1000.0,0.48828125,-452.63671875,28.3203125,0.0
1733977661.2539911,276.3671875,5.859375,-381.8359375,-429.19921875,0.0
1733977661.257897,-855.95703125,20.99609375,-248.046875,-336.9140625,0.0
1733977661.2618024,792.96875,8.7890625,-240.234375,160.64453125,0.0
1733977661.2657082,-573.73046875,-12.20703125,-397.94921875,395.99609375,0.0
1733977661.269614,-1000.0,-13.18359375,-584.47265625,55.17578125,0.0
1733977661.2735195,-7.32421875,0.0,-468.26171875,-413.57421875,0.0
1733977661.2774253,-904.78515625,13.671875,-327.1484375,-387.20703125,0.0
1733977661.281331,819.3359375,10.7421875,-332.03125,75.68359375,0.0
1733977661.2852366,-548.828125,-3.90625,-616.2109375,367.67578125,0.0
1733977661.2891424,-1000.0,3.41796875,-582.51953125,117.1875,0.0
1733977661.2930481,-353.02734375,17.578125,-308.10546875,-374.0234375,0.0
1733977661.2969537,980.46875,22.94921875,-263.18359375,-432.12890625,0.0
1733977661.3008668,883.30078125,13.671875,-250.9765625,12.6953125,0.0
1733977661.3047724,-529.296875,-0.48828125,-336.9140625,383.30078125,0.0
1733977661.3086782,-1000.0,-1.46484375,-443.359375,190.4296875,0.0
1733977661.312584,-637.6953125,7.32421875,-406.25,-304.6875,0.0
1733977661.3164895,804.19921875,21.97265625,-255.37109375,-383.7890625,0.0
1733977661.3203952,-990.234375,19.04296875,-277.34375,33.69140625,0.0
1733977661.324301,-425.78125,5.37109375,-403.3203125,440.4296875,0.0
1733977661.3282065,-1000.0,-0.9765625,-484.375,321.77734375,0.0
1733977661.3321123,-773.92578125,3.90625,-583.0078125,-164.55078125,0.0
1733977661.336018,628.90625,22.4609375,-351.5625,-354.00390625,0.0
1733977661.3399236,-879.8828125,20.01953125,-160.15625,4.39453125,0.0
1733977661.3438294,-220.21484375,-2.44140625,-255.37109375,444.82421875,0.0
1733977661.3477414,-1000.0,-12.20703125,-403.80859375,369.62890625,0.0
1733977661.3516471,-824.21875,0.0,-343.26171875,-122.55859375,0.0
1733977661.3555527,531.25,12.6953125,-133.30078125,-379.39453125,0.0
1733977661.3594584,-819.3359375,8.7890625,-182.6171875,-78.61328125,0.0
1733977661.3633642,152.34375,0.9765625,-257.32421875,394.53125,0.0
1733977661.3672698,-1000.0,-5.859375,-410.64453125,378.90625,0.0
1733977661.3711755,-868.1640625,0.0,-471.6796875,-77.1484375,0.0
1733977661.3750813,522.94921875,7.32421875,-443.359375,-398.92578125,0.0
1733977661.3789868,-815.91796875,15.13671875,-243.1640625,-169.921875,0.0
1733977661.3828926,467.28515625,13.18359375,-7.8125,324.70703125,0.0
1733977661.3867984,-949.70703125,-8.7890625,-260.7421875,396.484375,0.0
1733977661.390704,-944.3359375,-12.20703125,-438.4765625,-33.69140625,0.0
1733977661.394615,500.0,10.25390625,-200.1953125,-405.2734375,0.0
1733977661.3985207,-832.03125,20.99609375,96.6796875,-234.86328125,0.0
1733977661.4024265,639.6484375,4.8828125,-33.203125,261.71875,0.0
1733977661.406332,-796.875,-4.39453125,-340.33203125,411.1328125,0.0
1733977661.4102378,-1000.0,-0.48828125,-373.046875,2.9296875,0.0
1733977661.4141436,345.21484375,7.32421875,-230.46875,-425.29296875,0.0
1733977661.418049,-849.609375,9.27734375,-255.859375,-293.9453125,0.0
1733977661.4219549,765.625,-5.37109375,-443.359375,223.14453125,0.0
1733977661.4258606,-627.44140625,-8.30078125,-412.59765625,424.8046875,0.0
1733977661.4297662,-1000.0,-3.41796875,-439.453125,69.82421875,0.0
1733977661.433672,150.87890625,8.7890625,-349.12109375,-396.97265625,0.0
1733977661.4375777,-872.0703125,20.99609375,-105.46875,-346.19140625,0.0
1733977661.441488,808.10546875,16.11328125,39.55078125,138.671875,0.0
1733977661.4453936,-548.828125,-1.953125,-224.12109375,406.73828125,0.0
1733977661.4492993,-1000.0,-6.34765625,-502.9296875,126.46484375,0.0
1733977661.453205,-184.5703125,5.859375,-350.09765625,-353.02734375,0.0
1733977661.4571106,-952.63671875,20.99609375,-36.1328125,-382.8125,0.0
1733977661.4610164,835.44921875,9.27734375,-170.41015625,78.61328125,0.0
1733977661.4649222,-553.22265625,-13.671875,-525.87890625,431.640625,0.0
1733977661.4688277,-1000.0,-8.7890625,-499.51171875,210.44921875,0.0
1733977661.4727335,-548.33984375,9.765625,-244.140625,-303.7109375,0.0
1733977661.4766393,886.23046875,16.6015625,-45.41015625,-393.5546875,0.0
1733977661.4805448,934.5703125,6.8359375,-180.17578125,33.203125,0.0
1733977661.4844506,-518.06640625,-3.90625,-332.03125,413.0859375,0.0
1733977661.4883673,-1000.0,-2.44140625,-357.91015625,250.48828125,0.0
1733977661.492273,-748.53515625,2.9296875,-361.81640625,-251.46484375,0.0
1733977661.4961789,698.2421875,13.18359375,-249.0234375,-405.2734375,0.0
1733977661.5000844,-952.1484375,12.20703125,-177.734375,-1.953125,0.0
1733977661.5039902,-410.64453125,-8.7890625,-284.1796875,427.734375,0.0
1733977661.507896,-1000.0,-16.6015625,-510.7421875,330.078125,0.0
1733977661.5118015,-831.54296875,-6.8359375,-660.15625,-113.76953125,0.0
1733977661.5157073,555.6640625,19.04296875,-259.765625,-346.19140625,0.0
1733977661.519613,-863.28125,28.80859375,-86.9140625,-30.2734375,0.0
1733977661.5235186,-195.3125,12.6953125,-353.02734375,441.40625,0.0
1733977661.5274243,-1000.0,9.27734375,-420.41015625,404.296875,0.0
1733977661.53133,-838.37890625,20.99609375,-379.8828125,-68.359375,0.0
1733977661.535246,515.625,28.3203125,-166.9921875,-359.86328125,0.0
1733977661.5391514,-816.89453125,24.90234375,-194.3359375,-83.984375,0.0
1733977661.5430572,177.734375,17.08984375,-300.29296875,410.64453125,0.0
1733977661.546963,-1000.0,4.8828125,-369.140625,436.03515625,0.0
1733977661.5508685,-880.859375,4.39453125,-421.38671875,-32.2265625,0.0
1733977661.5547743,510.25390625,14.16015625,-438.4765625,-359.375,0.0
1733977661.55868,-816.40625,19.04296875,-319.3359375,-143.5546875,0.0
1733977661.5625856,499.0234375,13.671875,-226.5625,340.33203125,0.0
1733977661.5664914,-904.296875,1.46484375,-403.3203125,434.08203125,0.0
1733977661.5703971,-1000.0,1.46484375,-682.12890625,34.66796875,0.0
1733977661.5743027,397.4609375,26.85546875,-385.7421875,-342.7734375,0.0
1733977661.5782084,-824.70703125,42.48046875,-150.87890625,-186.5234375,0.0
1733977661.5821233,653.80859375,29.78515625,-312.98828125,328.125,0.0
1733977661.586029,-761.23046875,14.6484375,-417.48046875,479.00390625,0.0
1733977661.5899346,-1000.0,21.484375,-453.125,84.47265625,0.0
1733977661.5938404,243.1640625,38.0859375,-290.0390625,-343.26171875,0.0
1733977661.5977461,-846.6796875,37.109375,-294.921875,-237.79296875,0.0
1733977661.6016517,761.23046875,24.90234375,-412.109375,249.51171875,0.0
1733977661.6055574,-608.88671875,21.97265625,-438.96484375,484.375,0.0
1733977661.6094632,-1000.0,28.80859375,-445.80078125,155.76171875,0.0
1733977661.6133687,-37.109375,27.83203125,-450.68359375,-316.40625,0.0
1733977661.6172745,-910.64453125,29.78515625,-506.8359375,-261.23046875,0.0
1733977661.6211803,821.77734375,36.62109375,-328.61328125,192.3828125,0.0
1733977661.6250858,-549.31640625,18.5546875,-387.20703125,459.9609375,0.0
1733977661.6289997,-1000.0,5.37109375,-561.03515625,205.56640625,0.0
1733977661.6329055,-372.55859375,17.578125,-437.98828125,-283.69140625,0.0
1733977661.6368113,978.515625,32.2265625,-271.484375,-336.9140625,0.0
1733977661.6407168,873.046875,21.97265625,-267.578125,115.72265625,0.0
1733977661.6446226,-551.26953125,8.30078125,-496.58203125,458.49609375,0.0
1733977661.6485283,-1000.0,12.20703125,-634.765625,250.0,0.0
1733977661.6524339,-618.1640625,22.94921875,-465.8203125,-221.6796875,0.0
1733977661.6563396,823.73046875,30.2734375,-286.1328125,-336.9140625,0.0
1733977661.6602454,992.67578125,15.13671875,-504.39453125,73.2421875,0.0
1733977661.664151,-447.265625,7.8125,-513.18359375,475.5859375,0.0
1733977661.6680567,-1000.0,15.13671875,-422.36328125,321.2890625,0.0
1733977661.6719625,-764.6484375,19.04296875,-439.453125,-187.98828125,0.0
1733977661.6758754,644.04296875,25.87890625,-309.5703125,-364.74609375,0.0
1733977661.6797812,-889.16015625,20.5078125,-246.09375,13.671875,0.0
1733977661.6836867,-252.9296875,6.34765625,-344.23828125,441.89453125,0.0
1733977661.6875925,-1000.0,3.90625,-517.08984375,359.375,0.0
1733977661.6914983,-831.54296875,15.625,-521.97265625,-96.6796875,0.0
1733977661.6954038,535.15625,39.0625,-363.76953125,-329.1015625,0.0
1733977661.6993096,-829.58984375,56.640625,-310.546875,-24.4140625,0.0
1733977661.7032154,24.90234375,61.5234375,-422.36328125,450.1953125,0.0
1733977661.707121,-1000.0,60.05859375,-675.29296875,441.40625,0.0
1733977661.7110267,-851.5625,75.68359375,-548.828125,-14.6484375,0.0
1733977661.7149324,514.6484375,87.890625,-241.69921875,-324.21875,0.0
1733977661.718838,-812.01171875,81.0546875,-235.3515625,-90.8203125,0.0
1733977661.7227502,435.05859375,70.80078125,-304.6875,383.30078125,0.0
1733977661.726656,-966.30859375,62.5,-396.97265625,451.171875,0.0
1733977661.7305615,-937.98828125,56.640625,-448.73046875,25.390625,0.0
1733977661.7344673,500.48828125,63.4765625,-375.48828125,-329.1015625,0.0
1733977661.738373,-825.68359375,65.91796875,-291.015625,-141.11328125,0.0
1733977661.7422786,592.28515625,45.8984375,-349.12109375,349.609375,0.0
1733977661.7461843,-831.0546875,28.3203125,-512.20703125,489.74609375,0.0
1733977661.7500901,-1000.0,28.80859375,-697.265625,109.86328125,0.0
1733977661.7539957,345.21484375,53.7109375,-406.73828125,-298.828125,0.0
1733977661.7579014,-836.9140625,59.5703125,-167.48046875,-193.359375,0.0
1733977661.7618072,717.7734375,36.62109375,-278.80859375,288.57421875,0.0
1733977661.7657127,-681.15234375,20.99609375,-440.91796875,490.234375,0.0
1733977661.7696319,0.0,34.1796875,-476.07421875,142.08984375,0.0
1733977661.7735376,0.0,49.31640625,-289.55078125,-315.91796875,0.0
1733977661.7774432,0.0,45.41015625,-278.80859375,-249.0234375,0.0
1733977661.781349,0.0,37.109375,-323.2421875,227.5390625,0.0
1733977661.7852547,0.0,27.34375,-394.04296875,486.328125,0.0
1733977661.7891603,0.0,26.3671875,-483.3984375,215.33203125,0.0
1733977661.793066,0.0,38.57421875,-479.98046875,-250.0,0.0
1733977661.7969718,0.0,47.36328125,-518.5546875,-264.6484375,0.0
1733977661.8008773,0.0,52.24609375,-316.40625,185.546875,0.0
1733977661.804783,0.0,34.1796875,-412.109375,493.1640625,0.0
1733977661.8086889,0.0,32.71484375,-562.5,244.62890625,0.0
1733977661.8125944,0.0,53.7109375,-370.60546875,-256.34765625,0.0
1733977661.8164914,-1000.0,61.5234375,-173.828125,-343.75,0.0
1733977661.8203971,142.578125,50.29296875,-190.91796875,77.63671875,0.0
1733977661.824303,-869.62890625,27.34375,-440.91796875,436.5234375,0.0
1733977661.8282084,794.921875,30.2734375,-482.91015625,263.671875,0.0
1733977661.8321142,-564.94140625,47.8515625,-325.68359375,-232.91015625,0.0
1733977661.83602,-1000.0,49.8046875,-304.6875,-365.72265625,0.0
1733977661.8399255,-194.82421875,38.57421875,-422.36328125,28.3203125,0.0
1733977661.8438313,-956.0546875,31.25,-408.203125,434.08203125,0.0
1733977661.847737,839.35546875,27.34375,-395.5078125,324.70703125,0.0
1733977661.8516426,-555.6640625,22.94921875,-420.8984375,-170.8984375,0.0
1733977661.8555484,-1000.0,20.5078125,-504.39453125,-379.39453125,0.0
1733977661.8594542,-490.72265625,31.25,-343.75,-36.62109375,0.0
1733977661.8633428,918.45703125,25.87890625,-279.296875,407.71484375,0.0
1733977661.8672485,915.52734375,5.37109375,-477.5390625,364.2578125,0.0
1733977661.8711543,-525.390625,14.6484375,-449.70703125,-97.16796875,0.0
1733977661.8750598,-1000.0,33.69140625,-264.6484375,-382.8125,0.0
1733977661.8789656,-699.21875,37.109375,-232.421875,-114.2578125,0.0
1733977661.8828714,739.74609375,21.97265625,-426.7578125,383.30078125,0.0
1733977661.886777,-953.125,3.90625,-728.02734375,430.6640625,0.0
1733977661.8906827,-385.25390625,24.90234375,-529.78515625,-42.96875,0.0
1733977661.8945885,-1000.0,40.0390625,-297.8515625,-398.92578125,0.0
1733977661.898494,-808.59375,28.80859375,-371.58203125,-178.22265625,0.0
1733977661.9023998,565.4296875,22.94921875,-370.60546875,315.91796875,0.0
1733977661.9063056,-847.16796875,20.01953125,-449.70703125,397.4609375,0.0
1733977661.9102216,-991.2109375,16.6015625,-488.28125,-27.34375,0.0
1733977661.9141273,459.47265625,19.53125,-391.11328125,-396.484375,0.0
1733977661.918033,-840.8203125,23.92578125,-302.24609375,-234.86328125,0.0
1733977661.9219387,698.2421875,20.01953125,-306.15234375,258.30078125,0.0
1733977661.9258444,-725.5859375,12.6953125,-471.6796875,427.734375,0.0
1733977661.92975,-1000.0,14.6484375,-646.484375,66.40625,0.0
1733977661.9336557,283.69140625,28.3203125,-470.21484375,-341.30859375,0.0
1733977661.9375615,-854.00390625,38.0859375,-281.25,-220.21484375,0.0
1733977661.941467,788.0859375,27.34375,-316.40625,257.32421875,0.0
1733977661.9453728,-598.14453125,-1.46484375,-643.06640625,483.3984375,0.0
1733977661.9492786,-1000.0,14.6484375,-617.1875,175.78125,0.0
1733977661.9531841,104.98046875,41.50390625,-327.63671875,-303.22265625,0.0
1733977661.957099,-880.37109375,35.15625,-296.38671875,-274.90234375,0.0
1733977661.9610045,812.5,27.34375,-308.59375,208.0078125,0.0
1733977661.9649103,-550.29296875,20.99609375,-407.2265625,502.44140625,0.0
1733977661.968816,-1000.0,23.4375,-470.703125,228.02734375,0.0
1733977661.9727216,-210.9375,33.203125,-417.48046875,-265.625,0.0
1733977661.9766273,-970.21484375,33.203125,-382.32421875,-281.73828125,0.0
1733977661.9805331,858.3984375,30.76171875,-325.68359375,170.41015625,0.0
1733977661.9844387,-523.92578125,26.85546875,-357.91015625,488.76953125,0.0
1733977661.9883444,-1000.0,18.5546875,-548.33984375,282.2265625,0.0
1733977661.9922502,-601.5625,20.5078125,-633.7890625,-211.42578125,0.0
1733977661.9961557,839.35546875,42.96875,-299.8046875,-326.66015625,0.0
1733977662.0000615,982.91015625,41.015625,-204.58984375,72.75390625,0.0
1733977662.003983,-457.51953125,21.484375,-437.5,458.0078125,0.0
1733977662.0078888,-1000.0,26.3671875,-472.16796875,307.6171875,0.0
1733977662.0117946,-748.53515625,44.921875,-368.1640625,-204.58984375,0.0
1733977662.0157,683.10546875,53.22265625,-250.0,-384.765625,0.0
1733977662.0196059,-922.8515625,41.015625,-343.75,-9.27734375,0.0
1733977662.0235116,-344.7265625,22.94921875,-503.90625,438.96484375,0.0
1733977662.0274172,-1000.0,22.4609375,-459.9609375,354.98046875,0.0
1733977662.031323,-833.49609375,31.73828125,-391.11328125,-150.390625,0.0
1733977662.0352287,529.78515625,33.203125,-492.1875,-378.41796875,0.0
1733977662.0391343,-836.9140625,34.66796875,-333.49609375,-46.38671875,0.0
1733977662.04304,-33.69140625,32.71484375,-262.6953125,412.109375,0.0
1733977662.0469458,-1000.0,21.97265625,-501.953125,383.30078125,0.0
1733977662.0508587,-847.16796875,33.69140625,-447.75390625,-85.9375,0.0
1733977662.0547643,513.18359375,59.5703125,-154.296875,-389.6484375,0.0
1733977662.05867,-811.5234375,56.640625,9.27734375,-125.48828125,0.0
1733977662.0625758,386.71875,36.1328125,-152.83203125,381.34765625,0.0
1733977662.0664814,-987.3046875,28.80859375,-388.671875,431.640625,0.0
1733977662.0703871,-924.8046875,34.1796875,-468.75,-12.6953125,0.0
1733977662.074293,503.90625,50.78125,-296.38671875,-361.328125,0.0
1733977662.0781984,-825.1953125,55.17578125,-208.0078125,-177.24609375,0.0
1733977662.0821042,590.8203125,41.015625,-308.10546875,303.7109375,0.0
1733977662.08601,-837.890625,31.73828125,-379.8828125,415.52734375,0.0
1733977662.0899155,-1000.0,39.55078125,-354.98046875,4.39453125,0.0
1733977662.0938213,365.234375,46.38671875,-301.26953125,-403.80859375,0.0
1733977662.0977411,-842.28515625,44.921875,-261.23046875,-268.5546875,0.0
1733977662.101647,734.86328125,40.52734375,-96.19140625,227.05078125,0.0
1733977662.1055527,-663.57421875,22.94921875,-320.80078125,418.45703125,0.0
1733977662.1094582,-1000.0,17.08984375,-534.1796875,67.3828125,0.0
1733977662.113364,160.64453125,37.109375,-287.59765625,-386.71875,0.0
1733977662.1172698,-863.76953125,43.45703125,-222.16796875,-302.24609375,0.0
1733977662.1211753,786.62109375,33.203125,-276.85546875,181.640625,0.0
1733977662.125081,-580.56640625,16.6015625,-530.76171875,436.03515625,0.0
1733977662.1289868,-1000.0,25.390625,-529.78515625,139.16015625,0.0
1733977662.1328924,-135.25390625,45.8984375,-229.00390625,-349.609375,0.0
1733977662.1367981,-938.4765625,49.8046875,-98.6328125,-327.1484375,0.0
1733977662.140704,832.03125,41.015625,-198.2421875,153.80859375,0.0
1733977662.1446154,-552.734375,26.3671875,-353.02734375,463.37890625,0.0
1733977662.1485212,-1000.0,27.34375,-356.93359375,214.84375,0.0
1733977662.1524267,-448.2421875,34.1796875,-342.7734375,-284.1796875,0.0
1733977662.1563325,938.4765625,43.9453125,-236.81640625,-353.02734375,0.0
1733977662.1602383,908.69140625,43.9453125,-160.64453125,72.265625,0.0
1733977662.1641438,-520.5078125,29.296875,-376.953125,417.48046875,0.0
1733977662.1680496,-1000.0,31.25,-565.4296875,230.46875,0.0
1733977662.1719553,-673.828125,41.9921875,-457.51953125,-293.9453125,0.0
1733977662.175861,768.5546875,51.26953125,-197.75390625,-456.54296875,0.0
1733977662.1797667,-966.30859375,42.96875,-225.5859375,-61.5234375,0.0
1733977662.1836724,-398.92578125,21.484375,-452.63671875,342.7734375,0.0
1733977662.187578,-1000.0,13.18359375,-591.796875,212.40234375,0.0
1733977662.1914887,-805.17578125,32.71484375,-351.07421875,-306.15234375,0.0
1733977662.1953945,588.8671875,41.9921875,-32.71484375,-531.73828125,0.0
1733977662.1993,-868.1640625,35.15625,-140.13671875,-165.0390625,0.0
1733977662.2032058,-194.82421875,29.78515625,-317.3828125,306.640625,0.0
1733977662.2071116,-1000.0,32.2265625,-352.5390625,252.44140625,0.0
1733977662.2110171,-837.890625,31.25,-406.25,-218.75,0.0
1733977662.214923,515.13671875,36.62109375,-424.31640625,-465.33203125,0.0
1733977662.2188287,-815.91796875,45.41015625,-185.546875,-156.73828125,0.0
1733977662.2227342,186.5234375,37.109375,-43.45703125,314.94140625,0.0
1733977662.22664,-1000.0,21.484375,-379.39453125,346.6796875,0.0
1733977662.2305458,-871.58203125,25.390625,-429.19921875,-92.28515625,0.0
1733977662.2344513,523.92578125,41.50390625,-110.83984375,-418.9453125,0.0
1733977662.238361,-818.84765625,41.50390625,86.9140625,-169.43359375,0.0
1733977662.2422667,523.92578125,21.97265625,-62.98828125,336.42578125,0.0
1733977662.2461724,-912.109375,12.20703125,-328.125,422.36328125,0.0
1733977662.250078,-974.609375,18.5546875,-330.078125,8.7890625,0.0
1733977662.2539837,473.6328125,31.25,-97.16796875,-360.83984375,0.0
1733977662.2578895,-826.66015625,25.87890625,-190.4296875,-170.8984375,0.0
1733977662.261795,601.5625,11.23046875,-484.86328125,361.328125,0.0
1733977662.2657008,-801.26953125,20.99609375,-371.58203125,496.09375,0.0
1733977662.2696066,-1000.0,29.296875,-317.87109375,100.09765625,0.0
1733977662.2735121,271.484375,34.66796875,-297.36328125,-305.17578125,0.0
1733977662.277418,-849.609375,42.48046875,-103.02734375,-197.265625,0.0
1733977662.2813237,774.90234375,35.15625,48.33984375,283.203125,0.0
1733977662.2852318,-606.4453125,21.97265625,-258.7890625,504.8828125,0.0
1733977662.2891376,-1000.0,24.90234375,-439.94140625,187.5,0.0
1733977662.2930434,61.03515625,40.52734375,-162.109375,-288.57421875,0.0
1733977662.296949,-887.20703125,45.8984375,105.46875,-254.39453125,0.0
1733977662.3008547,809.08203125,36.1328125,68.359375,228.515625,0.0
1733977662.3047605,-555.6640625,15.625,-362.79296875,513.18359375,0.0
1733977662.308666,-1000.0,17.578125,-453.125,241.69921875,0.0
1733977662.3125718,-269.53125,36.62109375,-161.62109375,-257.8125,0.0
1733977662.3164775,-979.4921875,41.015625,55.17578125,-299.8046875,0.0
1733977662.320383,848.14453125,20.99609375,-197.75390625,158.69140625,0.0
1733977662.3242888,-556.15234375,20.5078125,-328.61328125,476.07421875,0.0
1733977662.3281946,-1000.0,22.94921875,-251.46484375,238.28125,0.0
1733977662.3321092,-586.9140625,24.90234375,-282.71484375,-262.6953125,0.0
1733977662.336015,851.5625,45.8984375,-107.91015625,-340.8203125,0.0
1733977662.3399205,972.65625,49.8046875,93.75,81.0546875,0.0
1733977662.3438263,-470.21484375,30.2734375,-158.69140625,446.2890625,0.0
1733977662.347732,-1000.0,22.94921875,-431.15234375,287.109375,0.0
1733977662.3516376,-767.08984375,29.296875,-380.859375,-215.33203125,0.0
1733977662.3555434,660.64453125,41.50390625,-83.0078125,-377.44140625,0.0
1733977662.3594491,-915.0390625,41.50390625,124.0234375,-9.765625,0.0
1733977662.3633547,-336.9140625,20.5078125,-159.66796875,417.48046875,0.0
1733977662.3672605,-1000.0,17.578125,-413.0859375,344.7265625,0.0
1733977662.3711662,-829.58984375,38.57421875,-297.8515625,-171.875,0.0
1733977662.3750718,535.15625,48.828125,-46.875,-428.7109375,0.0
1733977662.3789854,-836.9140625,44.43359375,-15.625,-95.703125,0.0
1733977662.3828912,-29.78515625,36.62109375,-211.42578125,378.90625,0.0
1733977662.386797,-1000.0,40.0390625,-267.08984375,345.703125,0.0
1733977662.3907025,-853.02734375,45.41015625,-268.06640625,-129.39453125,0.0
1733977662.3946083,520.01953125,55.17578125,-210.9375,-416.015625,0.0
1733977662.398514,-814.453125,57.6171875,-204.58984375,-145.01953125,0.0
1733977662.4024196,282.71484375,47.8515625,-247.55859375,349.609375,0.0
1733977662.4063253,-1000.0,41.50390625,-352.05078125,396.484375,0.0
1733977662.410231,-896.484375,37.59765625,-541.015625,-42.96875,0.0
1733977662.4141366,511.71875,52.24609375,-216.796875,-395.99609375,0.0
1733977662.4180424,-834.47265625,61.5234375,167.48046875,-211.9140625,0.0
1733977662.4219482,654.296875,56.15234375,20.99609375,282.71484375,0.0
1733977662.4258611,-817.87109375,50.78125,-241.69921875,405.2734375,0.0
1733977662.4297667,-1000.0,62.01171875,-311.5234375,-10.7421875,0.0
1733977662.4336724,475.09765625,81.0546875,-55.17578125,-418.9453125,0.0
1733977662.4375782,-857.421875,75.1953125,78.61328125,-276.85546875,0.0
1733977662.4414837,758.7890625,60.546875,-78.61328125,226.07421875,0.0
1733977662.4453895,-645.5078125,45.41015625,-314.94140625,410.15625,0.0
1733977662.4492953,-1000.0,51.26953125,-350.09765625,34.66796875,0.0
1733977662.4532008,234.86328125,68.84765625,-206.0546875,-406.25,0.0
1733977662.4571066,-860.3515625,62.01171875,-342.28515625,-306.640625,0.0
1733977662.4610124,800.78125,56.15234375,-194.3359375,158.203125,0.0
1733977662.464918,-564.94140625,44.43359375,-224.12109375,396.484375,0.0
1733977662.4688237,-1000.0,40.0390625,-366.69921875,98.14453125,0.0
1733977662.4727356,-43.45703125,55.6640625,-83.49609375,-378.90625,0.0
1733977662.4766414,-913.0859375,64.94140625,175.78125,-365.234375,0.0
1733977662.480547,819.82421875,57.12890625,139.16015625,100.09765625,0.0
1733977662.4844527,-546.38671875,43.45703125,-120.60546875,401.3671875,0.0
1733977662.4883585,-1000.0,39.55078125,-264.6484375,148.4375,0.0
1733977662.492264,-437.01171875,42.96875,-189.94140625,-350.5859375,0.0
1733977662.4961698,945.80078125,51.26953125,49.8046875,-406.25,0.0
1733977662.5000756,900.87890625,36.62109375,-103.02734375,49.31640625,0.0
1733977662.503981,-530.76171875,25.87890625,-271.97265625,397.94921875,0.0
1733977662.507887,-1000.0,36.62109375,-158.203125,189.94140625,0.0
1733977662.5117927,-625.48828125,35.15625,-133.30078125,-313.96484375,0.0
1733977662.5156982,791.50390625,45.41015625,20.01953125,-431.640625,0.0
1733977662.5196092,932.12890625,52.24609375,133.30078125,-16.11328125,0.0
1733977662.523515,-415.52734375,34.1796875,-94.7265625,370.60546875,0.0
1733977662.5274205,-1000.0,29.78515625,-353.02734375,231.4453125,0.0
1733977662.5313263,-795.8984375,39.55078125,-236.81640625,-259.27734375,0.0
1733977662.535232,611.81640625,47.8515625,67.87109375,-460.9375,0.0
1733977662.5391376,-872.0703125,47.36328125,100.5859375,-106.93359375,0.0
1733977662.5430434,-194.3359375,25.87890625,-130.859375,360.83984375,0.0
1733977662.5469491,-1000.0,13.671875,-488.28125,314.453125,0.0
1733977662.5508547,-837.40234375,29.296875,-362.3046875,-191.89453125,0.0
1733977662.5547605,514.16015625,42.96875,-147.4609375,-463.37890625,0.0
1733977662.5586662,-815.4296875,42.48046875,-69.3359375,-149.90234375,0.0
1733977662.5625718,188.96484375,26.85546875,-11.71875,324.21875,0.0
1733977662.5664825,-1000.0,15.13671875,-213.37890625,323.2421875,0.0
1733977662.5703883,-876.46484375,14.6484375,-319.82421875,-138.18359375,0.0
1733977662.5742939,528.3203125,19.53125,-253.90625,-458.984375,0.0
1733977662.5781996,-815.91796875,20.5078125,-47.8515625,-223.14453125,0.0
1733977662.5821054,414.55078125,4.8828125,-64.94140625,264.16015625,0.0
1733977662.586011,-950.68359375,-11.23046875,-393.5546875,361.81640625,0.0
1733977662.5899167,-982.91015625,-6.34765625,-598.14453125,-37.109375,0.0
1733977662.5938225,416.9921875,17.08984375,-314.453125,-409.1796875,0.0
1733977662.597728,-824.70703125,29.296875,60.546875,-240.234375,0.0
1733977662.6016338,651.3671875,14.16015625,-96.19140625,261.71875,0.0
1733977662.6055396,-771.97265625,-6.34765625,-432.6171875,409.1796875,0.0
1733977662.609445,-1000.0,1.46484375,-428.7109375,15.625,0.0
1733977662.6133542,277.83203125,18.5546875,-200.68359375,-407.2265625,0.0
1733977662.61726,-844.7265625,17.578125,-210.9375,-279.78515625,0.0
1733977662.6211658,753.41796875,4.39453125,-297.36328125,221.19140625,0.0
1733977662.6250713,-620.60546875,-4.39453125,-373.046875,430.6640625,0.0
1733977662.628977,-1000.0,0.48828125,-424.31640625,95.703125,0.0
1733977662.6328828,4.39453125,7.8125,-435.05859375,-341.30859375,0.0
1733977662.6367884,-901.85546875,10.7421875,-529.296875,-256.8359375,0.0
1733977662.6406941,712.890625,19.04296875,-376.46484375,215.8203125,0.0
1733977662.6446,-597.65625,8.30078125,-438.4765625,471.6796875,0.0
1733977662.6485054,-1000.0,0.0,-568.359375,193.359375,0.0
1733977662.6524112,-287.59765625,11.71875,-387.6953125,-292.96875,0.0
1733977662.656317,-979.4921875,19.53125,-275.390625,-322.75390625,0.0
1733977662.6602252,848.6328125,12.6953125,-312.5,113.76953125,0.0
1733977662.664131,-559.5703125,-4.8828125,-473.14453125,431.640625,0.0
1733977662.6680367,-1000.0,-4.8828125,-537.59765625,210.9375,0.0
1733977662.6719422,-555.6640625,-0.48828125,-412.109375,-296.875,0.0
1733977662.675848,869.140625,7.32421875,-321.2890625,-389.6484375,0.0
1733977662.6797538,683.10546875,5.37109375,-464.84375,103.02734375,0.0
1733977662.6836593,-585.44921875,-0.9765625,-553.7109375,440.91796875,0.0
1733977662.687565,-1000.0,0.0,-470.703125,214.84375,0.0
1733977662.6914709,-748.53515625,4.8828125,-434.08203125,-271.484375,0.0
1733977662.6953764,705.56640625,4.8828125,-539.0625,-423.33984375,0.0
1733977662.6992822,-914.55078125,11.23046875,-425.78125,-45.8984375,0.0
1733977662.703188,-310.05859375,13.18359375,-437.01171875,368.65234375,0.0
1733977662.7071028,0.0,1.46484375,-550.29296875,264.16015625,0.0
1733977662.7110085,0.0,6.34765625,-476.5625,-223.14453125,0.0
1733977662.714914,0.0,22.4609375,-333.984375,-439.94140625,0.0
1733977662.7188199,0.0,17.578125,-308.10546875,-112.3046875,0.0
1733977662.7227256,0.0,-2.44140625,-437.01171875,341.796875,0.0
1733977662.7266312,0.0,-8.7890625,-589.35546875,333.984375,0.0
1733977662.730537,0.0,4.39453125,-518.5546875,-127.9296875,0.0
1733977662.7344427,0.0,16.11328125,-314.94140625,-444.3359375,0.0
1733977662.7383482,0.0,10.7421875,-412.59765625,-172.36328125,0.0
1733977662.742254,0.0,-0.9765625,-546.875,333.49609375,0.0
1733977662.7461598,0.0,1.46484375,-498.53515625,366.2109375,0.0
1733977662.7500653,0.0,9.27734375,-510.7421875,-86.42578125,0.0
1733977662.7539792,524.90234375,20.5078125,-422.8515625,-435.05859375,0.0
1733977662.757885,-830.56640625,25.390625,-361.81640625,-228.02734375,0.0
1733977662.7617905,622.55859375,17.08984375,-434.5703125,272.94921875,0.0
1733977662.7656963,-827.1484375,7.8125,-519.53125,390.625,0.0
1733977662.769602,-1000.0,4.39453125,-616.2109375,-14.6484375,0.0
1733977662.7735076,405.2734375,13.671875,-532.71484375,-397.4609375,0.0
1733977662.7774134,-849.12109375,22.94921875,-392.08984375,-228.515625,0.0
1733977662.7813191,749.51171875,15.625,-386.23046875,272.4609375,0.0
1733977662.7852247,-663.0859375,-2.9296875,-708.49609375,452.1484375,0.0
1733977662.7891304,-1000.0,13.18359375,-670.8984375,84.9609375,0.0
1733977662.7930362,250.0,28.3203125,-381.34765625,-354.98046875,0.0
1733977662.7969418,-856.93359375,9.27734375,-454.1015625,-270.5078125,0.0
1733977662.8008633,0.0,-0.9765625,0.0,0.0,0.0
1733977662.804769,0.0,-0.9765625,0.0,0.0,0.0
1733977662.8086746,0.0,0.48828125,0.0,0.0,0.0
1733977662.8125803,0.0,7.32421875,0.0,0.0,0.0
1733977662.8164861,0.0,17.08984375,0.0,0.0,0.0
1733977662.8203917,0.0,13.18359375,0.0,0.0,0.0
1733977662.8242974,0.0,-0.48828125,0.0,0.0,0.0
1733977662.8282032,0.0,1.953125,0.0,0.0,0.0
1733977662.8321087,0.0,11.71875,0.0,0.0,0.0
1733977662.8360145,0.0,27.83203125,0.0,0.0,0.0
1733977662.8399203,0.0,29.296875,0.0,0.0,0.0
1733977662.8438258,0.0,3.90625,0.0,0.0,0.0
1733977662.847725,798.828125,0.0,-618.1640625,231.4453125,0.0
1733977662.8516307,-562.5,16.11328125,-523.4375,-283.69140625,0.0
1733977662.8555362,-1000.0,24.90234375,-430.6640625,-396.97265625,0.0
1733977662.859442,-36.62109375,20.5078125,-484.86328125,-0.48828125,0.0
1733977662.8633478,-912.109375,2.44140625,-576.171875,389.6484375,0.0
1733977662.8672533,625.48828125,-6.34765625,-666.9921875,274.4140625,0.0
1733977662.871159,-624.51171875,1.46484375,-664.0625,-200.1953125,0.0
1733977662.8750648,-1000.0,9.765625,-641.11328125,-386.71875,0.0
1733977662.8789704,-425.78125,10.7421875,-552.24609375,-37.59765625,0.0
1733977662.8828762,952.63671875,5.37109375,-540.52734375,407.71484375,0.0
1733977662.886782,909.1796875,5.37109375,-642.08984375,332.03125,0.0
1733977662.8906875,-508.30078125,4.39453125,-780.2734375,-133.30078125,0.0
1733977662.8945987,512.20703125,28.80859375,-568.359375,-367.67578125,0.0
1733977662.8985045,-812.5,44.43359375,-416.9921875,-67.3828125,0.0
1733977662.90241,221.6796875,27.83203125,-564.453125,409.1796875,0.0
1733977662.9063158,-1000.0,17.578125,-645.5078125,408.203125,0.0
1733977662.9102216,-883.30078125,18.5546875,-652.83203125,-43.45703125,0.0
1733977662.914127,533.203125,21.97265625,-593.75,-345.21484375,0.0
1733977662.918033,-816.89453125,19.53125,-603.02734375,-95.703125,0.0
1733977662.9219387,371.58203125,7.8125,-768.5546875,412.109375,0.0
1733977662.9258442,-979.4921875,8.7890625,-754.39453125,488.76953125,0.0
1733977662.92975,-948.73046875,13.18359375,-729.00390625,55.6640625,0.0
1733977662.9336557,460.9375,21.97265625,-592.28515625,-298.33984375,0.0
1733977662.9375613,-836.42578125,21.97265625,-496.09375,-96.19140625,0.0
1733977662.9414723,687.5,20.01953125,-569.82421875,369.140625,0.0
1733977662.9453778,-753.90625,19.04296875,-645.5078125,488.28125,0.0
1733977662.9492836,-1000.0,3.41796875,-727.5390625,104.98046875,0.0
1733977662.9531894,351.07421875,14.6484375,-556.640625,-291.50390625,0.0
1733977662.957095,-853.515625,22.94921875,-467.28515625,-168.45703125,0.0
1733977662.9610007,779.296875,6.34765625,-589.35546875,315.91796875,0.0
1733977662.9649065,-607.91015625,-12.20703125,-788.57421875,533.203125,0.0
1733977662.968812,-1000.0,3.90625,-741.2109375,180.17578125,0.0
1733977662.9727178,136.23046875,33.69140625,-499.51171875,-287.109375,0.0
1733977662.9766235,-874.51171875,33.69140625,-493.65234375,-226.5625,0.0
1733977662.980529,809.08203125,17.08984375,-620.1171875,244.140625,0.0
1733977662.9844348,-548.828125,14.6484375,-625.48828125,495.1171875,0.0
1733977662.9883442,-1000.0,12.6953125,-604.4921875,200.1953125,0.0
1733977662.99225,-202.63671875,11.71875,-561.03515625,-287.109375,0.0
1733977662.9961555,-959.9609375,20.99609375,-494.140625,-302.24609375,0.0
1733977663.0000613,839.35546875,27.83203125,-522.4609375,155.76171875,0.0
1733977663.003967,-547.8515625,21.97265625,-570.3125,456.0546875,0.0
1733977663.0078726,-1000.0,8.30078125,-681.640625,220.21484375,0.0
1733977663.0117784,-608.3984375,8.30078125,-791.015625,-247.0703125,0.0
1733977663.0156841,838.37890625,33.203125,-498.046875,-330.56640625,0.0
1733977663.0195897,981.93359375,31.73828125,-372.55859375,63.4765625,0.0
1733977663.0234954,-459.9609375,13.18359375,-594.7265625,418.9453125,0.0
1733977663.0274012,-1000.0,19.53125,-604.98046875,255.859375,0.0
1733977663.0313067,-695.80078125,31.73828125,-486.81640625,-231.93359375,0.0
1733977663.0352228,721.6796875,41.015625,-392.578125,-373.046875,0.0
1733977663.0391285,-914.55078125,35.64453125,-408.69140625,-6.8359375,0.0
1733977663.0430343,-291.50390625,15.13671875,-492.67578125,390.13671875,0.0
1733977663.0469398,-1000.0,9.27734375,-537.59765625,295.8984375,0.0
1733977663.0508456,-818.84765625,21.97265625,-505.859375,-168.9453125,0.0
1733977663.0547514,551.26953125,22.4609375,-520.5078125,-347.16796875,0.0
1733977663.058657,-837.40234375,22.4609375,-478.02734375,-14.6484375,0.0
1733977663.0625627,-20.99609375,22.94921875,-392.578125,428.22265625,0.0
1733977663.0664685,-1000.0,18.5546875,-478.515625,386.71875,0.0
1733977663.070374,-849.609375,20.99609375,-670.8984375,-79.58984375,0.0
1733977663.0742798,515.625,39.0625,-418.45703125,-358.88671875,0.0
1733977663.0781856,-812.5,41.9921875,-230.95703125,-88.37890625,0.0
1733977663.0821002,360.3515625,20.5078125,-362.3046875,399.90234375,0.0
1733977663.086006,-1000.0,7.8125,-473.6328125,422.8515625,0.0
1733977663.0899117,-908.203125,14.16015625,-458.0078125,-24.4140625,0.0
1733977663.0938172,521.484375,29.296875,-295.8984375,-344.23828125,0.0
1733977663.097723,-822.75390625,28.80859375,-303.22265625,-125.48828125,0.0
1733977663.1016288,556.15234375,14.6484375,-423.828125,354.4921875,0.0
1733977663.1055343,-866.69921875,11.23046875,-482.421875,463.37890625,0.0
1733977663.10944,-1000.0,22.94921875,-410.64453125,46.875,0.0
1733977663.1133459,377.9296875,27.83203125,-359.86328125,-334.47265625,0.0
1733977663.1172514,-832.03125,18.5546875,-506.34765625,-135.7421875,0.0
1733977663.1211572,689.94140625,25.390625,-370.60546875,338.8671875,0.0
1733977663.125063,-717.28515625,24.90234375,-336.9140625,486.81640625,0.0
1733977663.1289768,-1000.0,15.625,-441.89453125,124.0234375,0.0
1733977663.1328826,191.40625,27.34375,-286.62109375,-315.4296875,0.0
1733977663.1367884,-859.375,33.203125,-175.29296875,-221.19140625,0.0
1733977663.140694,787.59765625,17.08984375,-182.12890625,248.53515625,0.0
1733977663.1445997,-578.61328125,-1.46484375,-413.0859375,450.1953125,0.0
1733977663.1485054,-1000.0,-2.9296875,-533.203125,152.83203125,0.0
1733977663.152411,-91.30859375,12.6953125,-278.80859375,-297.36328125,0.0
1733977663.1563168,-919.921875,27.34375,-41.015625,-288.0859375,0.0
1733977663.1602225,812.5,23.4375,-332.03125,188.96484375,0.0
1733977663.1641283,-566.89453125,16.11328125,-435.05859375,482.421875,0.0
1733977663.1680338,-1000.0,14.16015625,-294.921875,196.2890625,0.0
1733977663.1719396,-431.640625,17.578125,-265.625,-281.25,0.0
1733977663.1758525,0.0,20.5078125,-215.33203125,-318.84765625,0.0
1733977663.1797583,0.0,17.08984375,-166.50390625,101.07421875,0.0
1733977663.183664,0.0,13.671875,-174.31640625,444.3359375,0.0
1733977663.1875696,0.0,4.39453125,-354.4921875,262.20703125,0.0
1733977663.1914754,0.0,8.30078125,-303.7109375,-229.98046875,0.0
1733977663.1953812,0.0,25.390625,-169.43359375,-344.7265625,0.0
1733977663.1992867,0.0,25.390625,-132.32421875,44.921875,0.0
1733977663.2031925,0.0,10.25390625,-234.86328125,435.05859375,0.0
1733977663.2070982,0.0,1.46484375,-547.36328125,312.5,0.0
1733977663.2110038,0.0,19.04296875,-347.65625,-190.4296875,0.0
1733977663.2149096,0.0,35.64453125,82.03125,-379.39453125,0.0
1733977663.2188153,0.0,32.2265625,92.28515625,-15.625,0.0
1733977663.2227273,-178.22265625,22.4609375,14.16015625,411.62109375,0.0
1733977663.226633,-1000.0,20.5078125,-127.9296875,333.0078125,0.0
1733977663.2305388,-831.0546875,27.34375,-208.984375,-140.625,0.0
1733977663.2344444,522.4609375,34.66796875,-79.58984375,-377.44140625,0.0
1733977663.2383502,-815.4296875,37.109375,0.48828125,-51.7578125,0.0
1733977663.242256,206.0546875,37.109375,-50.29296875,391.11328125,0.0
1733977663.2461615,-1000.0,33.203125,-271.97265625,375.48828125,0.0
1733977663.2500672,-873.046875,27.83203125,-447.265625,-72.265625,0.0
1733977663.253973,524.4140625,42.48046875,-187.98828125,-372.0703125,0.0
1733977663.2578788,-822.265625,51.26953125,190.91796875,-131.8359375,0.0
1733977663.2617843,555.17578125,35.15625,89.35546875,354.4921875,0.0
1733977663.26569,-906.73828125,23.92578125,-229.98046875,416.50390625,0.0
1733977663.2696013,-951.66015625,33.69140625,-207.51953125,-23.4375,0.0
1733977663.273507,522.94921875,50.78125,106.4453125,-381.8359375,0.0
1733977663.2774127,-845.21484375,50.29296875,152.83203125,-186.03515625,0.0
1733977663.2813184,687.98828125,40.52734375,96.6796875,312.5,0.0
1733977663.2852242,-751.953125,31.73828125,-12.6953125,434.08203125,0.0
1733977663.2891297,-1000.0,35.64453125,-219.7265625,56.640625,0.0
1733977663.2930355,349.609375,48.828125,-189.453125,-326.171875,0.0
1733977663.2969413,-851.07421875,51.7578125,-241.2109375,-190.91796875,0.0
1733977663.3008468,769.53125,46.875,0.0,273.4375,0.0
1733977663.3047526,-617.1875,30.76171875,-119.140625,455.56640625,0.0
1733977663.3086584,-1000.0,32.2265625,-321.77734375,109.86328125,0.0
1733977663.312564,124.0234375,42.96875,-44.43359375,-353.515625,0.0
1733977663.316475,-875.48828125,52.24609375,184.5703125,-317.87109375,0.0
1733977663.3203804,808.10546875,44.43359375,188.4765625,131.8359375,0.0
1733977663.3242862,-549.31640625,17.08984375,-98.14453125,388.671875,0.0
1733977663.328192,-1000.0,27.83203125,-177.734375,86.9140625,0.0
1733977663.3320975,-223.6328125,42.48046875,35.15625,-407.71484375,0.0
1733977663.3360033,-963.8671875,39.0625,159.66796875,-417.48046875,0.0
1733977663.339909,837.40234375,34.1796875,-66.89453125,26.3671875,0.0
1733977663.3438146,-559.08203125,26.3671875,-243.1640625,318.359375,0.0
1733977663.3477204,-1000.0,38.0859375,-15.625,77.63671875,0.0
1733977663.3516262,-566.89453125,41.9921875,57.12890625,-420.41015625,0.0
1733977663.3555317,867.67578125,38.0859375,9.765625,-510.25390625,0.0
1733977663.3594375,959.47265625,40.52734375,131.8359375,-99.609375,0.0
1733977663.363347,0.0,32.2265625,105.95703125,259.27734375,0.0
1733977663.3672528,0.0,25.390625,-88.8671875,97.65625,0.0
1733977663.3711584,0.0,40.0390625,-127.9296875,-398.92578125,0.0
1733977663.3750641,0.0,54.6875,138.671875,-549.31640625,0.0
1733977663.37897,0.0,55.6640625,224.12109375,-172.8515625,0.0
1733977663.3828754,0.0,41.015625,-56.15234375,252.44140625,0.0
1733977663.3867812,0.0,22.94921875,-454.1015625,194.82421875,0.0
1733977663.390687,0.0,45.8984375,-166.50390625,-297.36328125,0.0
1733977663.3945925,0.0,62.98828125,195.80078125,-518.5546875,0.0
1733977663.3984983,0.0,56.640625,114.2578125,-141.6015625,0.0
1733977663.402404,0.0,54.19921875,127.9296875,327.1484375,0.0
1733977663.4063096,0.0,50.29296875,104.98046875,290.0390625,0.0
1733977663.4102042,-482.91015625,47.8515625,74.21875,-150.390625,0.0
1733977663.41411,-1000.0,50.78125,109.375,-387.6953125,0.0
1733977663.4180155,-735.3515625,45.8984375,145.99609375,-102.05078125,0.0
1733977663.4219213,702.1484375,40.0390625,213.8671875,392.578125,0.0
1733977663.425827,-936.5234375,36.62109375,106.4453125,451.66015625,0.0
1733977663.4297326,-368.65234375,28.80859375,-205.56640625,25.390625,0.0
1733977663.4336383,-1000.0,44.921875,-43.45703125,-287.59765625,0.0
1733977663.437544,-824.70703125,63.4765625,280.76171875,-60.05859375,0.0
1733977663.4414496,545.8984375,52.24609375,201.66015625,430.17578125,0.0
1733977663.4453554,-843.75,36.1328125,-171.875,523.92578125,0.0
1733977663.4492612,-79.1015625,46.875,-60.05859375,123.53515625,0.0
1733977663.4531667,-1000.0,59.5703125,254.8828125,-244.140625,0.0
1733977663.4570823,-838.37890625,56.640625,219.7265625,-91.796875,0.0
1733977663.460988,706.0546875,42.48046875,124.0234375,390.625,0.0
1733977663.4648936,-711.42578125,31.73828125,83.0078125,548.828125,0.0
1733977663.4687994,-1000.0,35.64453125,53.22265625,188.96484375,0.0
1733977663.4727051,250.48828125,41.50390625,141.11328125,-229.4921875,0.0
1733977663.4766107,-853.02734375,39.0625,152.34375,-139.6484375,0.0
1733977663.4805164,783.69140625,31.73828125,93.75,325.1953125,0.0
1733977663.4844222,-570.80078125,28.3203125,105.46875,542.96875,0.0
1733977663.4883277,-1000.0,24.4140625,-84.9609375,231.4453125,0.0
1733977663.4922335,-103.02734375,27.34375,-321.2890625,-208.49609375,0.0
1733977663.4961393,-927.734375,51.7578125,104.00390625,-195.80078125,0.0
1733977663.5000448,834.47265625,46.875,267.08984375,226.07421875,0.0
1733977663.503959,-559.5703125,25.87890625,-31.25,497.0703125,0.0
1733977663.5078645,-1000.0,33.203125,-94.7265625,237.79296875,0.0
1733977663.5117702,-291.9921875,49.8046875,80.56640625,-239.74609375,0.0
1733977663.515676,-999.0234375,58.10546875,189.453125,-278.80859375,0.0
1733977663.5195816,876.46484375,45.8984375,144.04296875,150.390625,0.0
1733977663.5234873,-520.99609375,28.3203125,-77.63671875,484.86328125,0.0
1733977663.527393,-1000.0,34.1796875,-213.37890625,283.203125,0.0
1733977663.5312986,-604.4921875,39.55078125,-54.19921875,-207.51953125,0.0
1733977663.5352044,818.84765625,37.59765625,-76.66015625,-315.91796875,0.0
1733977663.5391102,-983.88671875,44.921875,-48.828125,70.80078125,0.0
1733977663.5430157,-395.99609375,41.50390625,103.02734375,441.89453125,0.0
1733977663.5469215,-1000.0,34.1796875,-24.4140625,310.546875,0.0
1733977663.5508347,-754.39453125,40.52734375,-143.06640625,-162.109375,0.0
1733977663.5547404,647.4609375,51.26953125,108.88671875,-346.19140625,0.0
1733977663.5586462,-874.51171875,51.7578125,231.4453125,0.9765625,0.0
1733977663.5625517,-207.03125,37.59765625,69.82421875,433.59375,0.0
1733977663.5664575,-1000.0,29.78515625,-185.546875,362.3046875,0.0
1733977663.5703633,-745.60546875,31.25,-268.06640625,-124.51171875,0.0
1733977663.5742688,569.82421875,43.45703125,60.05859375,-361.328125,0.0
1733977663.5781746,-843.26171875,45.8984375,135.7421875,-56.15234375,0.0
1733977663.5820804,-20.01953125,29.78515625,-311.03515625,410.64453125,0.0
1733977663.585986,-1000.0,31.73828125,-349.12109375,402.83203125,0.0
1733977663.5898917,-648.4375,40.52734375,-117.1875,-97.16796875,0.0
1733977663.5937974,585.44921875,47.36328125,39.55078125,-372.0703125,0.0
1733977663.5977094,0.0,49.8046875,163.0859375,-92.7734375,0.0
1733977663.6016152,0.0,39.55078125,171.38671875,362.79296875,0.0
1733977663.605521,0.0,33.69140625,13.18359375,404.296875,0.0
1733977663.6094265,0.0,36.62109375,-231.93359375,-9.765625,0.0
1733977663.6133323,0.0,52.24609375,-20.99609375,-354.4921875,0.0
1733977663.617238,0.0,51.7578125,133.7890625,-166.50390625,0.0
1733977663.6211436,0.0,39.55078125,36.1328125,322.265625,0.0
1733977663.6250494,0.0,30.76171875,-290.0390625,457.03125,0.0
1733977663.6289551,0.0,38.57421875,-334.47265625,81.0546875,0.0
1733977663.6328607,0.0,56.640625,64.94140625,-340.8203125,0.0
1733977663.6367664,0.0,54.6875,146.97265625,-230.95703125,0.0
1733977663.6406722,0.0,44.43359375,13.18359375,250.48828125,0.0
1733977663.644563,-848.14453125,41.9921875,10.7421875,428.22265625,0.0
1733977663.6484685,517.08984375,41.50390625,-78.61328125,89.35546875,0.0
1733977663.6523743,-939.453125,50.29296875,-109.86328125,-336.9140625,0.0
1733977663.65628,-947.265625,60.05859375,105.46875,-262.20703125,0.0
1733977663.6601856,507.8125,55.17578125,145.99609375,198.2421875,0.0
1733977663.6640913,-833.984375,38.57421875,-168.45703125,454.58984375,0.0
1733977663.6679971,643.06640625,35.64453125,-366.2109375,193.84765625,0.0
1733977663.6719027,-794.43359375,41.9921875,-369.140625,-264.6484375,0.0
1733977663.6758084,-1000.0,56.640625,4.8828125,-293.45703125,0.0
1733977663.6797142,347.65625,50.29296875,125.9765625,146.484375,0.0
1733977663.68362,-845.21484375,33.69140625,-87.890625,457.51953125,0.0
1733977663.6875255,748.53515625,34.1796875,-180.17578125,234.86328125,0.0
1733977663.6914358,-557.12890625,40.52734375,-33.69140625,-243.1640625,0.0
1733977663.6953416,880.37109375,46.38671875,185.05859375,-316.40625,0.0
1733977663.6992474,940.91796875,42.96875,112.3046875,95.703125,0.0
1733977663.703153,-510.25390625,32.71484375,38.57421875,447.75390625,0.0
1733977663.7070587,-1000.0,29.296875,5.859375,287.109375,0.0
1733977663.7109644,-743.65234375,33.69140625,-125.9765625,-194.3359375,0.0
1733977663.71487,695.3125,41.015625,-126.46484375,-321.77734375,0.0
1733977663.7187757,-938.4765625,47.36328125,-46.875,53.22265625,0.0
1733977663.7226815,-378.41796875,37.59765625,152.83203125,425.78125,0.0
1733977663.726587,-1000.0,16.6015625,19.04296875,321.77734375,0.0
1733977663.7304928,-824.70703125,18.06640625,-198.73046875,-156.25,0.0
1733977663.7343986,553.22265625,37.59765625,116.2109375,-386.23046875,0.0
1733977663.738308,-850.5859375,41.9921875,269.04296875,-52.24609375,0.0
1733977663.7422137,-125.48828125,27.83203125,83.0078125,389.16015625,0.0
1733977663.7461195,-1000.0,17.578125,-112.3046875,343.26171875,0.0
1733977663.750025,-839.84375,30.76171875,-2.44140625,-100.09765625,0.0
1733977663.7539308,511.71875,45.41015625,213.37890625,-380.37109375,0.0
1733977663.7578366,-811.5234375,39.55078125,95.21484375,-122.0703125,0.0
1733977663.761742,299.8046875,26.85546875,-8.30078125,359.375,0.0
1733977663.765648,-1000.0,25.87890625,82.51953125,366.2109375,0.0
1733977663.7695537,-887.20703125,27.34375,26.3671875,-70.3125,0.0
1733977663.7734594,532.2265625,36.62109375,37.109375,-375.9765625,0.0
1733977663.777365,-825.68359375,41.50390625,18.06640625,-163.0859375,0.0
1733977663.7812707,578.125,38.0859375,187.5,298.828125,0.0
1733977663.7851791,-871.58203125,29.78515625,124.0234375,391.6015625,0.0
1733977663.789085,-1000.0,28.80859375,-42.48046875,-6.34765625,0.0
1733977663.7929907,446.2890625,44.43359375,173.33984375,-395.5078125,0.0
1733977663.7968962,-840.8203125,51.7578125,277.34375,-235.3515625,0.0
1733977663.800802,704.58984375,41.015625,231.93359375,237.3046875,0.0
1733977663.8047078,-714.84375,23.4375,-74.70703125,387.20703125,0.0
1733977663.8086133,-1000.0,32.2265625,-243.1640625,55.6640625,0.0
1733977663.812519,259.27734375,49.8046875,157.71484375,-362.79296875,0.0
1733977663.8164248,-841.796875,48.33984375,283.69140625,-275.87890625,0.0
1733977663.8203304,742.1875,31.73828125,9.27734375,204.1015625,0.0
1733977663.8242362,-625.48828125,23.92578125,0.48828125,412.59765625,0.0
1733977663.828142,-1000.0,26.85546875,119.62890625,70.3125,0.0
1733977663.832057,-49.8046875,27.34375,75.1953125,-357.421875,0.0
1733977663.8359628,-917.48046875,32.71484375,142.08984375,-310.05859375,0.0
1733977663.8398683,823.2421875,29.78515625,238.28125,126.953125,0.0
1733977663.843774,-548.828125,20.5078125,192.3828125,396.484375,0.0
1733977663.8476799,-1000.0,20.99609375,34.1796875,114.2578125,0.0
1733977663.8515854,-408.203125,30.2734375,-62.98828125,-310.546875,0.0
1733977663.8554912,961.42578125,48.33984375,160.64453125,-323.73046875,0.0
1733977663.859397,889.6484375,47.8515625,300.29296875,88.8671875,0.0
1733977663.8633025,-537.109375,22.4609375,56.15234375,418.45703125,0.0
1733977663.8672082,-1000.0,15.625,-206.0546875,236.81640625,0.0
1733977663.871114,-598.6328125,44.43359375,102.05078125,-255.859375,0.0
1733977663.8750196,827.1484375,55.6640625,304.6875,-374.51171875,0.0
1733977663.8789413,-990.72265625,37.59765625,174.8046875,0.9765625,0.0
1733977663.882847,-408.203125,27.83203125,134.27734375,365.234375,0.0
1733977663.8867528,-1000.0,30.76171875,139.16015625,233.3984375,0.0
1733977663.8906586,-772.4609375,33.69140625,110.3515625,-255.859375,0.0
1733977663.8945642,642.08984375,42.48046875,180.6640625,-426.7578125,0.0
1733977663.89847,-892.08984375,42.96875,210.9375,-59.5703125,0.0
1733977663.9023757,-272.94921875,35.64453125,168.45703125,364.2578125,0.0
1733977663.9062812,-1000.0,41.015625,131.34765625,282.2265625,0.0
1733977663.910187,-833.49609375,43.9453125,-23.92578125,-178.7109375,0.0
1733977663.9140928,515.13671875,59.5703125,166.015625,-417.96875,0.0
1733977663.9179983,-818.84765625,62.98828125,344.23828125,-134.27734375,0.0
1733977663.921904,110.83984375,46.38671875,216.796875,330.078125,0.0
1733977663.925817,-1000.0,34.66796875,-9.765625,332.03125,0.0
1733977663.9297228,-863.76953125,46.38671875,115.234375,-121.09375,0.0
1733977663.9336283,520.99609375,60.05859375,313.4765625,-415.0390625,0.0
1733977663.937534,-813.4765625,48.828125,282.71484375,-182.12890625,0.0
1733977663.9414399,435.546875,39.0625,227.5390625,297.36328125,0.0
1733977663.9453454,-964.35546875,31.25,96.6796875,370.60546875,0.0
1733977663.9492512,-941.89453125,33.69140625,81.0546875,-47.36328125,0.0
1733977663.953157,493.65234375,58.10546875,247.0703125,-399.90234375,0.0
1733977663.9570625,-826.171875,65.4296875,278.80859375,-221.19140625,0.0
1733977663.9609683,606.93359375,57.12890625,217.28515625,259.27734375,0.0
1733977663.964874,-811.03515625,55.6640625,191.40625,375.48828125,0.0
1733977663.9687796,-1000.0,49.8046875,22.4609375,-5.37109375,0.0
1733977663.9726923,306.640625,57.6171875,-19.04296875,-377.44140625,0.0
1733977663.976598,-843.26171875,71.2890625,298.828125,-266.11328125,0.0
1733977663.9805038,750.9765625,59.08203125,323.73046875,194.3359375,0.0
1733977663.9844093,-642.578125,41.015625,146.97265625,393.5546875,0.0
1733977663.988315,-1000.0,47.8515625,134.765625,52.734375,0.0
1733977663.9922209,122.55859375,61.03515625,164.0625,-380.859375,0.0
1733977663.9961264,-865.234375,65.91796875,215.8203125,-303.22265625,0.0
1733977664.0000322,771.97265625,55.17578125,97.65625,171.875,0.0
1733977664.003938,-593.75,45.8984375,-53.22265625,418.45703125,0.0
1733977664.0078435,-1000.0,56.640625,72.75390625,120.1171875,0.0
1733977664.0117493,-211.9140625,63.96484375,106.4453125,-334.9609375,0.0
1733977664.015655,-960.9375,68.84765625,146.97265625,-318.84765625,0.0
1733977664.0195668,841.30859375,61.5234375,231.4453125,127.44140625,0.0
1733977664.0234723,-556.640625,45.41015625,179.19921875,422.8515625,0.0
1733977664.027378,-1000.0,44.921875,35.15625,199.70703125,0.0
1733977664.0312839,-493.1640625,51.7578125,-10.25390625,-281.25,0.0
1733977664.0351894,910.64453125,61.03515625,216.796875,-362.3046875,0.0
1733977664.0390952,933.10546875,58.59375,218.75,68.84765625,0.0
1733977664.043001,-496.09375,47.8515625,-12.20703125,433.10546875,0.0
1733977664.0469065,-1000.0,37.109375,-328.61328125,272.94921875,0.0
1733977664.0508122,-686.5234375,49.8046875,-43.9453125,-223.6328125,0.0
1733977664.054718,743.1640625,59.08203125,223.6328125,-378.90625,0.0
1733977664.0586238,-938.4765625,51.26953125,159.1796875,0.48828125,0.0
1733977664.0625293,-343.26171875,44.43359375,164.0625,401.85546875,0.0
1733977664.0664399,-1000.0,37.109375,96.6796875,291.015625,0.0
1733977664.0703454,-806.15234375,35.64453125,34.66796875,-181.640625,0.0
1733977664.0742512,568.84765625,41.015625,153.80859375,-400.390625,0.0
1733977664.078157,-844.23828125,41.50390625,238.28125,-96.19140625,0.0
1733977664.0820625,-70.80078125,32.2265625,212.40234375,335.9375,0.0
1733977664.0859683,-1000.0,19.53125,1.46484375,295.8984375,0.0
1733977664.089874,-842.7734375,19.53125,-231.93359375,-142.578125,0.0
1733977664.0937796,511.71875,37.109375,-4.39453125,-409.1796875,0.0
1733977664.0976853,-811.03515625,49.8046875,297.8515625,-153.80859375,0.0
1733977664.101591,358.3984375,36.1328125,219.7265625,318.359375,0.0
1733977664.1054966,-1000.0,22.94921875,0.0,355.46875,0.0
1733977664.1094024,-895.5078125,32.2265625,78.125,-97.65625,0.0
1733977664.1133118,0.0,49.8046875,299.31640625,-441.40625,0.0
1733977664.1172175,0.0,43.9453125,250.9765625,-222.65625,0.0
1733977664.121123,0.0,32.71484375,145.01953125,269.04296875,0.0
1733977664.1250288,0.0,26.85546875,110.83984375,342.28515625,0.0
1733977664.1289346,0.0,27.83203125,94.7265625,-93.26171875,0.0
1733977664.1328402,0.0,36.62109375,118.65234375,-442.87109375,0.0
1733977664.136746,0.0,35.15625,-23.92578125,-258.30078125,0.0
1733977664.1406517,0.0,38.57421875,171.875,211.9140625,0.0
1733977664.1445572,0.0,27.83203125,140.13671875,361.81640625,0.0
1733977664.148463,0.0,29.78515625,-84.9609375,21.484375,0.0
1733977664.1523688,0.0,46.38671875,81.54296875,-398.4375,0.0
1733977664.1562743,0.0,56.15234375,262.20703125,-310.546875,0.0
1733977664.160183,782.71484375,55.6640625,231.93359375,168.45703125,0.0
1733977664.1640887,-584.9609375,38.57421875,5.37109375,394.04296875,0.0
1733977664.1679943,-1000.0,32.71484375,-18.06640625,92.28515625,0.0
1733977664.1719,-0.48828125,43.9453125,161.1328125,-347.65625,0.0
1733977664.1758058,-892.578125,43.45703125,238.76953125,-310.546875,0.0
1733977664.1797113,783.69140625,23.92578125,74.70703125,162.109375,0.0
1733977664.183617,-581.54296875,14.16015625,-112.3046875,463.37890625,0.0
1733977664.187523,-1000.0,20.99609375,-88.8671875,203.61328125,0.0
1733977664.1914284,-426.26953125,27.34375,-96.19140625,-269.53125,0.0
1733977664.1953342,960.44921875,40.0390625,18.5546875,-297.8515625,0.0
1733977664.19924,874.51171875,47.36328125,148.92578125,139.16015625,0.0
1733977664.2031455,-563.96484375,37.59765625,122.0703125,448.73046875,0.0
1733977664.207061,-1000.0,34.1796875,-6.8359375,256.8359375,0.0
1733977664.2109666,-649.4140625,33.203125,-233.88671875,-199.21875,0.0
1733977664.2148724,808.10546875,43.9453125,82.03125,-309.5703125,0.0
1733977664.2187781,990.72265625,48.33984375,294.43359375,80.078125,0.0
1733977664.2226837,-466.30859375,33.203125,54.6875,453.61328125,0.0
1733977664.2265894,-1000.0,28.80859375,-250.0,337.40234375,0.0
1733977664.2304952,-780.76171875,35.15625,-180.6640625,-141.6015625,0.0
1733977664.2344007,665.0390625,44.43359375,218.75,-346.19140625,0.0
1733977664.2383065,-946.2890625,38.0859375,153.3203125,7.8125,0.0
1733977664.2422123,-411.1328125,19.04296875,-233.88671875,437.01171875,0.0
1733977664.2461178,-1000.0,26.3671875,-165.0390625,346.6796875,0.0
1733977664.2500236,-825.68359375,38.57421875,-108.3984375,-121.09375,0.0
1733977664.2539375,522.94921875,48.33984375,46.875,-354.4921875,0.0
1733977664.2578433,-827.63671875,56.640625,194.82421875,-58.59375,0.0
1733977664.261749,25.390625,44.43359375,147.94921875,403.3203125,0.0
1733977664.2656546,-1000.0,32.71484375,22.4609375,376.953125,0.0
1733977664.2695603,-854.4921875,39.0625,-218.75,-99.12109375,0.0
1733977664.273466,517.578125,51.26953125,-123.046875,-385.7421875,0.0
1733977664.2773716,-812.98828125,56.640625,85.44921875,-153.3203125,0.0
1733977664.2812774,386.71875,43.9453125,72.265625,317.3828125,0.0
1733977664.2851832,-987.3046875,26.85546875,-389.16015625,383.7890625,0.0
1733977664.289089,-922.36328125,45.8984375,-393.06640625,-56.15234375,0.0
1733977664.2929945,506.34765625,74.21875,82.03125,-416.015625,0.0
1733977664.2969003,-830.56640625,64.453125,113.28125,-221.19140625,0.0
1733977664.3008132,634.765625,49.8046875,-41.9921875,254.39453125,0.0
1733977664.304719,-807.12890625,44.921875,-229.00390625,359.375,0.0
1733977664.3086247,-1000.0,44.921875,-358.88671875,-6.34765625,0.0
1733977664.3125303,363.76953125,64.94140625,-171.875,-379.8828125,0.0
1733977664.316436,-838.37890625,73.2421875,-114.2578125,-259.765625,0.0
1733977664.3203418,717.7734375,60.546875,-263.671875,211.9140625,0.0
1733977664.3242476,-672.36328125,49.31640625,-392.578125,395.5078125,0.0
1733977664.3281531,-1000.0,50.29296875,-458.0078125,57.12890625,0.0
1733977664.332059,107.91015625,54.6875,-525.87890625,-352.5390625,0.0
1733977664.3359647,-878.41796875,70.80078125,-311.03515625,-289.0625,0.0
1733977664.3398702,815.91796875,66.40625,-138.671875,167.96875,0.0
1733977664.343776,-570.80078125,42.96875,-363.76953125,412.59765625,0.0
1733977664.3476958,0.0,41.9921875,-442.3828125,117.67578125,0.0
1733977664.3516016,0.0,49.8046875,-247.0703125,-345.21484375,0.0
1733977664.3555074,0.0,48.828125,-153.80859375,-339.84375,0.0
1733977664.359413,0.0,37.59765625,-263.18359375,93.26171875,0.0
1733977664.3633187,0.0,30.76171875,-385.7421875,389.16015625,0.0
1733977664.3672245,0.0,34.66796875,-473.14453125,176.7578125,0.0
1733977664.37113,0.0,45.8984375,-438.96484375,-297.8515625,0.0
1733977664.3750358,0.0,49.8046875,-474.609375,-375.9765625,0.0
1733977664.3789415,0.0,50.78125,-388.18359375,34.1796875,0.0
1733977664.382847,0.0,45.8984375,-351.5625,375.0,0.0
1733977664.3867528,0.0,39.0625,-486.81640625,208.984375,0.0
1733977664.3906586,0.0,46.38671875,-504.8828125,-266.11328125,0.0
1733977664.3945696,765.625,59.5703125,-351.07421875,-412.109375,0.0
1733977664.3984754,-958.49609375,56.15234375,-277.83203125,-37.109375,0.0
1733977664.4023812,-383.30078125,36.62109375,-455.078125,363.76953125,0.0
1733977664.4062867,-1000.0,32.2265625,-540.0390625,262.6953125,0.0
1733977664.4101925,-820.80078125,45.41015625,-471.6796875,-204.58984375,0.0
1733977664.4140983,580.078125,54.6875,-410.64453125,-400.87890625,0.0
1733977664.4180038,-876.953125,53.7109375,-430.17578125,-57.6171875,0.0
1733977664.4219096,-230.46875,45.8984375,-504.8828125,374.0234375,0.0
1733977664.4258153,-1000.0,41.9921875,-597.16796875,321.77734375,0.0
1733977664.4297209,-833.0078125,49.31640625,-580.56640625,-119.62890625,0.0
1733977664.4336267,509.765625,59.5703125,-482.91015625,-374.0234375,0.0
1733977664.4375324,-812.01171875,56.15234375,-559.5703125,-89.35546875,0.0
1733977664.4414427,225.5859375,58.10546875,-447.75390625,363.76953125,0.0
1733977664.4453483,-1000.0,53.7109375,-495.1171875,371.58203125,0.0
1733977664.449254,-876.46484375,60.546875,-630.37109375,-57.12890625,0.0
1733977664.4531598,526.3671875,80.078125,-436.5234375,-369.62890625,0.0
1733977664.4570653,-821.2890625,81.0546875,-374.51171875,-157.71484375,0.0
1733977664.460971,540.0390625,64.453125,-539.55078125,333.984375,0.0
1733977664.464877,-904.78515625,45.41015625,-755.859375,447.75390625,0.0
1733977664.4687827,-971.19140625,50.78125,-700.68359375,47.36328125,0.0
1733977664.4726882,486.81640625,71.2890625,-417.96875,-333.0078125,0.0
1733977664.476594,-846.19140625,69.3359375,-424.31640625,-185.05859375,0.0
1733977664.4804997,709.9609375,57.6171875,-582.51953125,292.96875,0.0
1733977664.4844053,-727.5390625,51.7578125,-652.83203125,447.75390625,0.0
1733977664.4883149,0.0,55.6640625,-648.92578125,82.03125,0.0
1733977664.4922204,0.0,68.359375,-500.48828125,-338.8671875,0.0
1733977664.4961262,0.0,67.87109375,-432.6171875,-258.7890625,0.0
1733977664.500032,0.0,62.01171875,-470.703125,187.5,0.0
1733977664.5039375,0.0,51.26953125,-572.75390625,403.3203125,0.0
1733977664.5078433,0.0,51.7578125,-727.5390625,115.72265625,0.0
1733977664.511749,0.0,58.59375,-754.8828125,-332.51953125,0.0
1733977664.5156548,0.0,75.68359375,-476.5625,-327.1484375,0.0
1733977664.5195603,0.0,63.96484375,-415.0390625,127.44140625,0.0
1733977664.523466,0.0,34.66796875,-660.15625,414.55078125,0.0
1733977664.527372,0.0,41.50390625,-652.34375,157.71484375,0.0
1733977664.5312774,0.0,60.546875,-497.0703125,-309.08203125,0.0
1733977664.5351858,-977.05078125,67.87109375,-429.19921875,-340.8203125,0.0
1733977664.5390916,852.5390625,54.6875,-486.328125,93.75,0.0
1733977664.5429974,-546.38671875,40.52734375,-617.1875,431.640625,0.0
1733977664.546903,-1000.0,41.015625,-662.109375,227.05078125,0.0
1733977664.5508087,-559.08203125,51.7578125,-548.828125,-261.23046875,0.0
1733977664.5547144,857.91015625,50.78125,-555.6640625,-347.16796875,0.0
1733977664.55862,985.83984375,43.45703125,-501.46484375,61.5234375,0.0
1733977664.5625257,-433.59375,39.0625,-499.0234375,421.38671875,0.0
1733977664.5664315,-1000.0,32.71484375,-624.0234375,275.87890625,0.0
1733977664.570337,-749.51171875,35.64453125,-735.83984375,-182.12890625,0.0
1733977664.5742428,666.015625,51.26953125,-518.06640625,-338.37890625,0.0
1733977664.5781486,-895.5078125,47.8515625,-363.76953125,15.13671875,0.0
1733977664.5820634,-271.484375,33.69140625,-542.48046875,420.8984375,0.0
1733977664.5859692,-1000.0,31.25,-633.7890625,329.1015625,0.0
1733977664.5898747,-822.265625,38.57421875,-557.6171875,-116.2109375,0.0
1733977664.5937805,545.41015625,49.8046875,-423.33984375,-347.16796875,0.0
1733977664.5976863,-832.51953125,49.31640625,-458.984375,-56.15234375,0.0
1733977664.6015918,6.8359375,32.71484375,-631.34765625,416.9921875,0.0
1733977664.6054976,-1000.0,25.390625,-673.828125,405.76171875,0.0
1733977664.6094034,-849.12109375,28.80859375,-578.61328125,-61.03515625,0.0
1733977664.613309,512.6953125,35.15625,-531.25,-345.21484375,0.0
1733977664.6172147,-812.5,29.296875,-613.76953125,-82.51953125,0.0
1733977664.6211205,445.80078125,26.3671875,-507.32421875,368.65234375,0.0
1733977664.625026,-970.21484375,22.4609375,-550.78125,405.76171875,0.0
1733977664.6289403,-916.015625,22.94921875,-642.578125,-22.94921875,0.0
1733977664.632846,536.1328125,32.71484375,-479.98046875,-368.1640625,0.0
1733977664.636752,-837.890625,37.59765625,-390.625,-176.7578125,0.0
1733977664.6406574,646.97265625,30.76171875,-437.01171875,293.9453125,0.0
1733977664.6445632,-806.15234375,19.53125,-619.140625,396.484375,0.0
1733977664.648469,-1000.0,21.484375,-685.546875,39.55078125,0.0
1733977664.6523745,402.83203125,38.57421875,-443.359375,-333.984375,0.0
1733977664.6562803,-839.35546875,45.41015625,-358.3984375,-230.95703125,0.0
1733977664.660186,708.0078125,27.83203125,-623.53515625,239.2578125,0.0
1733977664.6640918,-708.0078125,18.06640625,-711.42578125,421.38671875,0.0
1733977664.6679974,-1000.0,28.80859375,-535.15625,83.49609375,0.0
1733977664.6719031,241.2109375,32.71484375,-396.97265625,-324.21875,0.0
1733977664.675816,-858.3984375,26.3671875,-391.6015625,-259.765625,0.0
1733977664.6797218,795.8984375,24.90234375,-374.51171875,198.73046875,0.0
1733977664.6836274,-559.08203125,19.04296875,-458.984375,446.77734375,0.0
1733977664.6875331,-1000.0,18.5546875,-561.03515625,166.50390625,0.0
1733977664.691439,-104.4921875,26.85546875,-473.14453125,-280.2734375,0.0
1733977664.6953444,-927.24609375,36.1328125,-421.875,-271.484375,0.0
1733977664.6992502,821.77734375,29.78515625,-446.2890625,180.17578125,0.0
1733977664.703156,-550.29296875,13.18359375,-567.87109375,468.26171875,0.0
1733977664.7070615,-1000.0,8.7890625,-637.6953125,250.48828125,0.0
1733977664.7109673,-527.34375,21.97265625,-516.6015625,-208.984375,0.0
1733977664.714873,914.55078125,35.15625,-361.81640625,-283.203125,0.0
1733977664.7187788,892.578125,25.390625,-408.69140625,115.234375,0.0
1733977664.7226913,0.0,4.8828125,-558.59375,457.51953125,0.0
1733977664.726597,0.0,10.25390625,-524.4140625,283.69140625,0.0
1733977664.7305028,0.0,23.4375,-453.61328125,-208.49609375,0.0
1733977664.7344084,0.0,27.34375,-405.2734375,-335.9375,0.0
1733977664.7383142,0.0,24.4140625,-358.3984375,32.2265625,0.0
1733977664.74222,0.0,11.71875,-501.46484375,402.83203125,0.0
1733977664.7461255,0.0,11.23046875,-591.796875,321.2890625,0.0
1733977664.7500312,0.0,20.01953125,-619.140625,-140.625,0.0
1733977664.753937,0.0,38.57421875,-419.921875,-351.07421875,0.0
1733977664.7578425,0.0,38.57421875,-238.76953125,-18.5546875,0.0
1733977664.7617483,0.0,12.6953125,-415.52734375,406.25,0.0
1733977664.765654,0.0,7.8125,-566.40625,350.09765625,0.0
1733977664.7695658,-842.7734375,19.04296875,-464.84375,-104.98046875,0.0
1733977664.7734714,522.4609375,28.80859375,-302.24609375,-365.72265625,0.0
1733977664.7773771,-825.1953125,26.85546875,-335.9375,-88.37890625,0.0
1733977664.781283,103.515625,19.04296875,-425.29296875,382.8125,0.0
1733977664.7851884,-1000.0,15.625,-541.015625,398.92578125,0.0
1733977664.7890942,-868.65234375,22.94921875,-554.6875,-43.9453125,0.0
1733977664.793,526.85546875,29.78515625,-439.453125,-354.4921875,0.0
1733977664.7969055,-816.89453125,28.80859375,-532.71484375,-124.51171875,0.0
1733977664.8008113,351.5625,26.3671875,-447.75390625,332.51953125,0.0
1733977664.804717,-977.05078125,11.23046875,-480.95703125,407.2265625,0.0
1733977664.8086228,-953.61328125,13.671875,-559.08203125,10.25390625,0.0
1733977664.8125284,445.3125,34.66796875,-318.359375,-360.83984375,0.0
1733977664.8164387,0.0,37.109375,-218.26171875,-211.42578125,0.0
1733977664.8203444,0.0,24.4140625,-312.98828125,249.0234375,0.0
1733977664.8242502,0.0,11.23046875,-461.42578125,388.18359375,0.0
1733977664.8281558,0.0,13.671875,-451.171875,40.0390625,0.0
1733977664.8320615,0.0,27.34375,-294.921875,-370.1171875,0.0
1733977664.8359673,0.0,29.78515625,-329.58984375,-268.06640625,0.0
1733977664.8398728,0.0,12.20703125,-458.0078125,220.703125,0.0
1733977664.8437786,0.0,-0.48828125,-515.625,421.875,0.0
1733977664.8476844,0.0,6.34765625,-395.01953125,99.609375,0.0
1733977664.85159,0.0,9.765625,-283.203125,-337.890625,0.0
1733977664.8554957,0.0,5.37109375,-417.48046875,-301.26953125,0.0
1733977664.8594015,0.0,7.8125,-290.0390625,148.92578125,0.0
1733977664.8633108,-546.38671875,-1.953125,-273.92578125,407.71484375,0.0
1733977664.8672163,-1000.0,-4.8828125,-420.8984375,154.296875,0.0
1733977664.8711221,-257.32421875,10.7421875,-324.21875,-300.29296875,0.0
1733977664.875028,-975.09765625,17.578125,-78.125,-342.28515625,0.0
1733977664.8789334,845.703125,6.8359375,11.71875,76.171875,0.0
1733977664.8828392,-558.59375,-10.7421875,-349.609375,424.8046875,0.0
1733977664.886745,-1000.0,-12.6953125,-661.62109375,251.46484375,0.0
1733977664.8906507,-557.12890625,12.6953125,-337.890625,-248.53515625,0.0
1733977664.8945563,865.234375,22.94921875,-5.859375,-370.60546875,0.0
1733977664.898462,972.65625,8.30078125,-207.51953125,26.85546875,0.0
1733977664.9023678,-456.54296875,-1.46484375,-397.94921875,405.76171875,0.0
1733977664.9062734,-1000.0,5.859375,-358.3984375,269.04296875,0.0
1733977664.910182,-722.65625,19.04296875,-257.32421875,-207.51953125,0.0
1733977664.9140875,698.73046875,23.92578125,-84.47265625,-376.953125,0.0
1733977664.9179933,-913.0859375,25.390625,40.52734375,-23.4375,0.0
1733977664.921899,-306.640625,14.6484375,-49.31640625,395.01953125,0.0
1733977664.9258046,-1000.0,7.32421875,-289.55078125,314.453125,0.0
1733977664.9297104,-836.9140625,9.765625,-437.98828125,-140.13671875,0.0
1733977664.9336162,523.92578125,25.87890625,-188.4765625,-358.3984375,0.0
1733977664.9375217,-830.56640625,29.78515625,111.81640625,-65.91796875,0.0
1733977664.9414275,-6.34765625,13.671875,8.30078125,372.55859375,0.0
1733977664.9453332,-1000.0,4.39453125,-444.3359375,354.00390625,0.0
1733977664.949239,-854.4921875,12.20703125,-362.79296875,-120.1171875,0.0
1733977664.9531446,520.5078125,26.85546875,75.68359375,-408.69140625,0.0
1733977664.9570673,-815.91796875,20.5078125,85.9375,-162.59765625,0.0
1733977664.960973,302.734375,6.34765625,-175.78125,299.31640625,0.0
1733977664.9648786,-1000.0,10.25390625,-311.5234375,350.09765625,0.0
1733977664.9687843,-903.3203125,22.4609375,-233.3984375,-108.88671875,0.0
1733977664.97269,511.23046875,11.71875,-56.640625,-460.9375,0.0
1733977664.9765956,-815.91796875,-2.9296875,-145.99609375,-283.69140625,0.0
1733977664.9805014,559.08203125,9.27734375,-150.390625,166.50390625,0.0
1733977664.9844072,-844.23828125,8.30078125,-129.39453125,258.7890625,0.0
1733977664.9883127,-965.33203125,-5.37109375,-341.30859375,-167.48046875,0.0
1733977664.9922185,355.46875,-1.953125,-282.2265625,-547.36328125,0.0
1733977664.9961243,-846.19140625,11.71875,106.4453125,-424.8046875,0.0
1733977665.0000298,703.125,11.23046875,145.01953125,29.296875,0.0
1733977665.0039442,-716.796875,0.9765625,-126.953125,198.73046875,0.0
1733977665.00785,-1000.0,3.90625,-266.6015625,-156.73828125,0.0
1733977665.0117557,177.24609375,13.671875,-45.8984375,-583.49609375,0.0
1733977665.0156615,-857.91015625,10.25390625,156.25,-504.8828125,0.0
1733977665.019567,772.4609375,-3.41796875,-26.85546875,-41.015625,0.0
1733977665.0234728,-597.65625,-14.6484375,-280.2734375,183.10546875,0.0
1733977665.0273786,-1000.0,-9.765625,-333.984375,-100.09765625,0.0
1733977665.031284,-95.21484375,7.32421875,-132.8125,-527.83203125,0.0
1733977665.0351899,-924.8046875,9.765625,-24.4140625,-500.48828125,0.0
1733977665.0390956,822.265625,3.90625,41.50390625,-62.5,0.0
1733977665.0430012,-545.8984375,-2.9296875,94.7265625,225.09765625,0.0
1733977665.046907,-1000.0,-2.9296875,-51.26953125,15.13671875,0.0
1733977665.0508199,-540.52734375,0.0,0.0,-428.22265625,0.0
1733977665.0547256,899.4140625,17.08984375,0.0,-477.05078125,0.0
1733977665.0586312,920.41015625,15.13671875,0.0,-41.015625,0.0
1733977665.062537,-534.1796875,-1.953125,0.0,333.0078125,0.0
1733977665.0664427,-1000.0,-5.859375,0.0,176.26953125,0.0
1733977665.0703483,-677.24609375,-11.71875,0.0,-268.5546875,0.0
1733977665.074254,779.78515625,0.0,0.0,-381.8359375,0.0
1733977665.0781598,893.5546875,9.765625,0.0,21.97265625,0.0
1733977665.0820653,-512.20703125,-8.30078125,0.0,429.6875,0.0
1733977665.085971,-1000.0,-11.71875,0.0,309.08203125,0.0
1733977665.089877,-791.9921875,-10.7421875,0.0,-172.36328125,0.0
1733977665.0937824,603.515625,-4.8828125,0.0,-359.375,0.0
1733977665.0976946,-863.28125,2.44140625,165.52734375,-5.37109375,0.0
1733977665.1016004,-159.1796875,-8.30078125,138.18359375,415.52734375,0.0
1733977665.1055062,-1000.0,-13.671875,30.76171875,357.91015625,0.0
1733977665.1094117,-832.03125,-16.6015625,-52.24609375,-83.49609375,0.0
1733977665.1133175,520.99609375,-9.765625,114.74609375,-333.0078125,0.0
1733977665.1172233,-813.4765625,-10.7421875,155.76171875,-57.6171875,0.0
1733977665.1211288,238.76953125,-20.99609375,103.515625,389.16015625,0.0
1733977665.1250346,-1000.0,-30.2734375,-271.484375,403.80859375,0.0
1733977665.1289403,-877.9296875,-21.484375,-239.2578125,-4.8828125,0.0
1733977665.1328459,527.34375,-8.7890625,246.09375,-315.91796875,0.0
1733977665.1367517,-822.75390625,-21.484375,211.9140625,-115.234375,0.0
1733977665.1406574,552.24609375,-35.64453125,35.64453125,350.5859375,0.0
1733977665.1445687,-906.73828125,-37.59765625,35.64453125,423.33984375,0.0
1733977665.1484742,-954.58984375,-31.25,100.09765625,3.90625,0.0
1733977665.15238,518.06640625,-24.4140625,176.26953125,-346.6796875,0.0
1733977665.1562858,-845.703125,-25.87890625,151.85546875,-181.15234375,0.0
1733977665.1601913,694.82421875,-31.73828125,174.8046875,263.671875,0.0
1733977665.164097,-733.3984375,-42.96875,-21.484375,408.69140625,0.0
1733977665.1680028,-1000.0,-43.45703125,-252.9296875,68.84765625,0.0
1733977665.1719084,307.12890625,-36.62109375,-254.39453125,-326.171875,0.0
1733977665.1758142,-856.93359375,-23.4375,84.9609375,-250.9765625,0.0
1733977665.17972,797.8515625,-30.76171875,180.6640625,202.63671875,0.0
1733977665.1836255,-607.91015625,-43.45703125,-120.60546875,399.4140625,0.0
1733977665.1875312,-1000.0,-35.15625,-144.53125,76.171875,0.0
1733977665.1914415,217.7734375,-25.87890625,133.7890625,-357.421875,0.0
1733977665.1953473,-866.69921875,-22.4609375,217.7734375,-318.84765625,0.0
1733977665.199253,805.17578125,-32.2265625,106.93359375,118.65234375,0.0
1733977665.2031586,-548.33984375,-35.15625,69.82421875,370.60546875,0.0
1733977665.2070644,-1000.0,-27.34375,55.17578125,112.3046875,0.0
1733977665.2109702,-148.92578125,-21.97265625,44.921875,-341.30859375,0.0
1733977665.2148757,-947.75390625,-17.08984375,28.3203125,-342.28515625,0.0
1733977665.2187815,838.8671875,-13.671875,-19.53125,79.1015625,0.0
1733977665.2226872,-537.109375,-15.625,86.42578125,374.0234375,0.0
1733977665.2265928,-1000.0,-18.5546875,34.66796875,172.8515625,0.0
1733977665.2304986,-559.08203125,-10.7421875,-28.3203125,-285.15625,0.0
1733977665.2344043,869.62890625,-1.953125,176.7578125,-367.67578125,0.0
1733977665.2383137,962.40234375,-9.27734375,244.140625,20.99609375,0.0
1733977665.2422194,-475.5859375,-26.3671875,71.2890625,384.27734375,0.0
1733977665.2461252,-1000.0,-31.73828125,-120.1171875,250.9765625,0.0
1733977665.2500308,-757.8125,-19.04296875,25.87890625,-200.68359375,0.0
1733977665.2539365,702.63671875,-8.7890625,215.8203125,-355.95703125,0.0
1733977665.2578423,-973.14453125,-21.97265625,91.30859375,1.46484375,0.0
1733977665.2617478,-453.61328125,-41.9921875,-344.7265625,429.6875,0.0
1733977665.2656536,-1000.0,-29.296875,-270.99609375,337.40234375,0.0
1733977665.2695594,-828.125,-18.5546875,1.46484375,-136.71875,0.0
1733977665.273465,535.15625,-13.671875,65.91796875,-326.66015625,0.0
1733977665.2773707,-842.7734375,-7.32421875,173.33984375,-11.23046875,0.0
1733977665.2812765,-76.171875,-20.99609375,170.8984375,390.13671875,0.0
1733977665.285185,-1000.0,-35.64453125,25.390625,353.515625,0.0
1733977665.2890906,-844.23828125,-30.2734375,-82.51953125,-83.49609375,0.0
1733977665.2929964,513.671875,-11.23046875,103.515625,-367.1875,0.0
1733977665.2969022,-812.5,-12.20703125,200.1953125,-113.76953125,0.0
1733977665.300808,329.58984375,-25.390625,152.83203125,344.7265625,0.0
1733977665.3047135,-1000.0,-32.71484375,-218.75,388.18359375,0.0
1733977665.3086193,-910.15625,-22.4609375,-291.50390625,-20.5078125,0.0
1733977665.312525,519.04296875,-4.8828125,159.66796875,-345.21484375,0.0
1733977665.3164306,-818.84765625,-16.11328125,208.0078125,-173.828125,0.0
1733977665.3203363,448.2421875,-35.15625,-94.23828125,286.1328125,0.0
1733977665.324242,-923.828125,-31.25,-211.9140625,395.5078125,0.0
1733977665.3281476,-1000.0,-18.5546875,-147.4609375,4.8828125,0.0
1733977665.3320625,0.0,-7.32421875,40.52734375,-377.9296875,0.0
1733977665.335968,0.0,-6.34765625,65.91796875,-242.1875,0.0
1733977665.3398738,0.0,-11.71875,122.55859375,226.07421875,0.0
1733977665.3437796,0.0,-18.5546875,63.96484375,390.625,0.0
1733977665.347685,0.0,-18.06640625,-107.91015625,46.38671875,0.0
1733977665.3515909,0.0,-8.7890625,-126.46484375,-355.46875,0.0
1733977665.3554966,0.0,-2.9296875,72.75390625,-287.109375,0.0
1733977665.3594022,0.0,-0.9765625,208.0078125,145.5078125,0.0
1733977665.363308,0.0,-15.625,-84.47265625,383.30078125,0.0
1733977665.3672137,0.0,-22.4609375,-430.17578125,109.375,0.0
1733977665.3711193,0.0,-9.765625,-64.94140625,-324.21875,0.0
1733977665.375025,0.0,-10.25390625,181.15234375,-282.2265625,0.0
1733977665.3789394,812.5,-21.97265625,58.59375,115.234375,0.0
1733977665.382845,-559.5703125,-28.80859375,-10.25390625,376.46484375,0.0
1733977665.3867507,-1000.0,-22.4609375,6.34765625,167.48046875,0.0
1733977665.3906565,-396.484375,-14.16015625,73.73046875,-273.92578125,0.0
1733977665.3945622,962.890625,-15.13671875,82.51953125,-316.40625,0.0
1733977665.3984678,890.625,-18.5546875,74.21875,94.7265625,0.0
1733977665.4023736,-531.73828125,-29.296875,-87.40234375,418.45703125,0.0
1733977665.4062793,-1000.0,-24.90234375,-144.04296875,246.09375,0.0
1733977665.4101849,-685.05859375,-18.5546875,-305.6640625,-192.87109375,0.0
1733977665.4140906,757.32421875,-0.48828125,-154.78515625,-310.546875,0.0
1733977665.4179964,-961.42578125,5.859375,199.70703125,51.26953125,0.0
1733977665.421902,-392.08984375,-19.04296875,50.29296875,426.26953125,0.0
1733977665.4258156,0.0,-28.3203125,-266.6015625,299.31640625,0.0
1733977665.429721,0.0,-17.08984375,-190.4296875,-158.203125,0.0
1733977665.433627,0.0,-12.20703125,143.5546875,-344.7265625,0.0
1733977665.4375327,0.0,-22.94921875,148.92578125,-8.7890625,0.0
1733977665.4414382,0.0,-34.66796875,-4.39453125,407.71484375,0.0
1733977665.445344,0.0,-37.59765625,-272.94921875,349.12109375,0.0
1733977665.4492497,0.0,-26.85546875,-220.21484375,-90.8203125,0.0
1733977665.4531553,0.0,-15.13671875,58.10546875,-332.03125,0.0
1733977665.457061,0.0,-23.92578125,-211.42578125,-39.55078125,0.0
1733977665.4609668,0.0,-29.296875,-109.86328125,387.6953125,0.0
1733977665.4648724,0.0,-26.3671875,67.87109375,360.83984375,0.0
1733977665.4687781,0.0,-29.296875,-158.203125,-53.7109375,0.0
1733977665.4726703,-1000.0,-20.5078125,-86.9140625,-332.03125,0.0
1733977665.476576,-775.390625,-10.25390625,189.94140625,-108.88671875,0.0
1733977665.4804819,628.41796875,-20.99609375,170.8984375,350.5859375,0.0
1733977665.4843874,-877.44140625,-37.109375,-83.984375,414.0625,0.0
1733977665.4882932,-234.86328125,-28.3203125,-206.54296875,-11.23046875,0.0
1733977665.492199,-1000.0,-9.765625,-30.2734375,-340.8203125,0.0
1733977665.4961045,-824.21875,-9.765625,122.0703125,-150.390625,0.0
1733977665.5000103,517.578125,-26.3671875,-30.2734375,323.2421875,0.0
1733977665.503916,-813.96484375,-32.2265625,-219.23828125,442.87109375,0.0
1733977665.5078216,203.61328125,-18.5546875,14.6484375,58.10546875,0.0
1733977665.5117273,-1000.0,-5.37109375,146.484375,-315.91796875,0.0
1733977665.515633,-872.55859375,-8.7890625,57.12890625,-207.51953125,0.0
1733977665.5195463,784.1796875,-9.27734375,151.3671875,247.0703125,0.0
1733977665.523452,-597.65625,-7.8125,125.48828125,441.40625,0.0
1733977665.5273576,-1000.0,-10.7421875,4.39453125,142.08984375,0.0
1733977665.5312634,129.39453125,-2.9296875,2.9296875,-261.71875,0.0
1733977665.5351691,-875.0,0.48828125,151.3671875,-233.88671875,0.0
1733977665.5390747,813.4765625,-12.6953125,185.546875,194.82421875,0.0
1733977665.5429804,-559.5703125,-29.296875,-70.3125,448.73046875,0.0
1733977665.5468862,-1000.0,-30.2734375,-386.71875,196.77734375,0.0
1733977665.5507917,-87.890625,-8.7890625,-20.5078125,-255.37109375,0.0
1733977665.5546975,-920.8984375,-0.9765625,184.08203125,-269.53125,0.0
1733977665.5586033,822.265625,-7.8125,86.42578125,162.59765625,0.0
1733977665.5625088,-547.36328125,-12.6953125,73.73046875,456.54296875,0.0
1733977665.5664194,-1000.0,-12.20703125,63.4765625,250.9765625,0.0
1733977665.5703251,-498.53515625,-2.44140625,110.83984375,-190.91796875,0.0
1733977665.574231,895.5078125,0.9765625,109.375,-258.7890625,0.0
1733977665.5781364,958.984375,-3.41796875,172.36328125,122.55859375,0.0
1733977665.5820422,-459.47265625,-12.6953125,104.00390625,466.796875,0.0
1733977665.585948,-1000.0,-22.94921875,-163.57421875,340.8203125,0.0
1733977665.5898535,-752.44140625,-15.13671875,-329.1015625,-90.33203125,0.0
1733977665.5937593,668.45703125,1.46484375,-90.8203125,-224.12109375,0.0
1733977665.597665,-904.78515625,6.8359375,229.98046875,100.5859375,0.0
1733977665.6015706,-302.24609375,-5.859375,113.76953125,484.375,0.0
1733977665.6054764,-1000.0,-18.06640625,-152.83203125,413.0859375,0.0
1733977665.6093822,-812.01171875,-11.23046875,-25.390625,-38.0859375,0.0
1733977665.6132915,572.75390625,-0.48828125,208.49609375,-267.08984375,0.0
1733977665.6171973,-853.515625,-10.7421875,98.14453125,20.99609375,0.0
1733977665.621103,-93.26171875,-17.08984375,1.46484375,455.078125,0.0
1733977665.6250086,-1000.0,-14.16015625,8.30078125,421.875,0.0
1733977665.6289144,-848.14453125,-4.8828125,47.36328125,-16.11328125,0.0
1733977665.6328201,519.04296875,-2.44140625,33.69140625,-280.76171875,0.0
1733977665.6367257,-815.4296875,-12.6953125,-250.9765625,-16.11328125,0.0
1733977665.6406314,231.93359375,-8.7890625,-4.8828125,415.52734375,0.0
1733977665.6445372,-1000.0,-13.18359375,19.53125,409.1796875,0.0
1733977665.6484427,-906.25,-17.08984375,-345.703125,0.9765625,0.0
1733977665.6523485,488.28125,-1.46484375,-145.99609375,-307.6171875,0.0
1733977665.6562543,-813.96484375,-0.48828125,149.90234375,-126.953125,0.0
1733977665.66017,0.0,-16.6015625,93.26171875,337.40234375,0.0
1733977665.6640756,0.0,-24.90234375,-217.7734375,440.91796875,0.0
1733977665.6679814,0.0,-21.97265625,-321.2890625,43.9453125,0.0
1733977665.6718872,0.0,-5.859375,-67.3828125,-324.21875,0.0
1733977665.675793,0.0,-0.9765625,72.265625,-187.98828125,0.0
1733977665.6796985,0.0,-12.6953125,-129.8828125,273.92578125,0.0
1733977665.6836042,0.0,-19.53125,-359.375,459.9609375,0.0
1733977665.68751,0.0,-12.20703125,-331.54296875,100.5859375,0.0
1733977665.6914155,0.0,-2.44140625,-116.2109375,-309.08203125,0.0
1733977665.6953213,0.0,-4.39453125,-172.8515625,-206.0546875,0.0
1733977665.699227,0.0,-4.39453125,-170.41015625,232.91015625,0.0
1733977665.7031326,0.0,-13.18359375,-165.52734375,446.77734375,0.0
1733977665.707048,-1000.0,-16.6015625,-353.02734375,176.7578125,0.0
1733977665.7109537,-156.25,-6.34765625,-284.66796875,-262.6953125,0.0
1733977665.7148592,-939.94140625,6.34765625,-11.23046875,-240.234375,0.0
1733977665.718765,825.1953125,1.953125,72.265625,193.359375,0.0
1733977665.7226708,-560.05859375,-16.6015625,-281.73828125,464.84375,0.0
1733977665.7265766,-1000.0,-18.06640625,-497.0703125,254.39453125,0.0
1733977665.730482,-495.60546875,-2.44140625,-342.7734375,-184.5703125,0.0
1733977665.7343879,934.08203125,2.44140625,-194.3359375,-258.30078125,0.0
1733977665.7382936,881.34765625,-3.41796875,-270.01953125,138.18359375,0.0
1733977665.7421992,-578.125,-10.25390625,-551.7578125,481.93359375,0.0
1733977665.746105,-1000.0,-1.953125,-448.2421875,296.875,0.0
1733977665.7500107,-687.98828125,6.34765625,-279.296875,-173.828125,0.0
1733977665.753925,0.0,9.765625,-256.8359375,-281.73828125,0.0
1733977665.7578309,0.0,6.34765625,-196.2890625,81.54296875,0.0
1733977665.7617364,0.0,-3.90625,-247.0703125,424.31640625,0.0
1733977665.7656422,0.0,-3.41796875,-370.1171875,293.9453125,0.0
1733977665.769548,0.0,3.90625,-409.1796875,-140.625,0.0
1733977665.7734535,0.0,10.7421875,-334.47265625,-303.22265625,0.0
1733977665.7773592,0.0,11.71875,-258.7890625,15.625,0.0
1733977665.781265,0.0,-3.90625,-302.24609375,409.1796875,0.0
1733977665.7851708,0.0,-19.04296875,-577.1484375,335.9375,0.0
1733977665.7890763,0.0,-6.8359375,-498.046875,-97.65625,0.0
1733977665.792982,0.0,12.6953125,-225.09765625,-322.75390625,0.0
1733977665.7968879,0.0,6.8359375,-317.3828125,-71.2890625,0.0
1733977665.8008008,-96.6796875,-7.8125,-455.078125,352.5390625,0.0
1733977665.8047066,-1000.0,-8.30078125,-410.64453125,344.23828125,0.0
1733977665.808612,-836.42578125,-2.44140625,-376.953125,-74.70703125,0.0
1733977665.812518,505.37109375,4.39453125,-328.125,-344.23828125,0.0
1733977665.8164237,-811.03515625,2.9296875,-267.578125,-118.1640625,0.0
1733977665.8203294,470.21484375,-8.30078125,-375.48828125,329.58984375,0.0
1733977665.824235,-929.19921875,-8.7890625,-489.74609375,398.92578125,0.0
1733977665.8281407,-987.3046875,0.0,-498.046875,20.01953125,0.0
1733977665.8320465,432.12890625,-1.46484375,-569.82421875,-304.19921875,0.0
1733977665.835952,-837.40234375,8.30078125,-390.625,-159.1796875,0.0
1733977665.8398578,699.70703125,3.41796875,-256.8359375,292.48046875,0.0
1733977665.8437636,-746.09375,-20.5078125,-450.1953125,433.10546875,0.0
1733977665.8476903,-1000.0,-12.20703125,-456.54296875,69.82421875,0.0
1733977665.851596,361.328125,5.37109375,-285.15625,-313.96484375,0.0
1733977665.8555017,-856.4453125,-0.9765625,-323.73046875,-187.01171875,0.0
1733977665.8594074,788.0859375,-3.41796875,-376.46484375,261.23046875,0.0
1733977665.8633132,-592.7734375,-0.9765625,-405.76171875,437.98828125,0.0
1733977665.8672187,-1000.0,0.48828125,-494.62890625,155.2734375,0.0
1733977665.8711245,118.1640625,10.7421875,-415.0390625,-239.2578125,0.0
1733977665.8750303,-876.46484375,7.8125,-436.03515625,-182.6171875,0.0
1733977665.8789358,807.12890625,2.9296875,-385.25390625,241.69921875,0.0
1733977665.8828416,-543.9453125,5.37109375,-335.9375,459.9609375,0.0
1733977665.8867474,-1000.0,-1.953125,-447.265625,213.8671875,0.0
1733977665.890653,-276.85546875,4.8828125,-476.07421875,-218.75,0.0
1733977665.8945646,-982.421875,20.5078125,-328.125,-223.14453125,0.0
1733977665.8984704,851.5625,12.20703125,-257.8125,193.359375,0.0
1733977665.902376,-553.22265625,-0.9765625,-412.109375,484.375,0.0
1733977665.9062817,-1000.0,-2.44140625,-499.51171875,297.8515625,0.0
1733977665.9101875,-581.0546875,2.9296875,-441.89453125,-132.32421875,0.0
1733977665.914093,859.375,3.41796875,-377.9296875,-197.75390625,0.0
1733977665.9179988,962.890625,-5.37109375,-428.7109375,166.015625,0.0
1733977665.9219046,-483.3984375,-11.23046875,-469.7265625,481.93359375,0.0
1733977665.9258103,-1000.0,-10.7421875,-489.2578125,325.68359375,0.0
1733977665.9297159,-751.953125,-7.8125,-537.59765625,-121.58203125,0.0
1733977665.9336216,668.9453125,2.9296875,-445.80078125,-259.27734375,0.0
1733977665.9375274,-905.76171875,7.8125,-371.58203125,80.078125,0.0
1733977665.941438,-307.12890625,-2.9296875,0.0,440.4296875,0.0
1733977665.9453437,-1000.0,-12.20703125,0.0,342.7734375,0.0
1733977665.9492495,-833.0078125,-15.13671875,0.0,-76.66015625,0.0
1733977665.953155,524.90234375,-0.9765625,0.0,-278.80859375,0.0
1733977665.9570608,-827.63671875,9.765625,0.0,-7.32421875,0.0
1733977665.9609666,13.18359375,-6.8359375,0.0,427.24609375,0.0
1733977665.9648721,-1000.0,-18.06640625,0.0,403.80859375,0.0
1733977665.968778,-850.5859375,-9.27734375,0.0,-37.109375,0.0
1733977665.9726837,514.6484375,10.25390625,0.0,-309.08203125,0.0
1733977665.9765892,-812.98828125,15.13671875,0.0,-70.80078125,0.0
1733977665.980495,422.8515625,4.39453125,0.0,347.16796875,0.0
1733977665.9844007,-981.4453125,-7.8125,0.0,371.58203125,0.0
1733977665.98831,-906.73828125,-5.37109375,-509.27734375,-19.53125,0.0
1733977665.9922156,541.50390625,2.44140625,-421.875,-322.265625,0.0
1733977665.9961214,-835.9375,-5.859375,-392.578125,-132.8125,0.0
1733977666.0000272,634.27734375,-16.6015625,-413.57421875,290.52734375,0.0
1733977666.0039327,-803.7109375,-20.5078125,-484.86328125,356.93359375,0.0
1733977666.0078385,-1000.0,-31.25,-646.97265625,-4.8828125,0.0
1733977666.0117443,353.515625,-28.80859375,-701.171875,-330.078125,0.0
1733977666.0156498,-839.84375,-8.7890625,-444.82421875,-197.75390625,0.0
1733977666.0195556,727.5390625,-16.11328125,-391.11328125,223.6328125,0.0
1733977666.0234613,-685.05859375,-33.203125,-632.32421875,354.00390625,0.0
1733977666.027367,-1000.0,-23.4375,-599.609375,-3.90625,0.0
1733977666.0312726,216.30859375,-15.625,-450.1953125,-412.59765625,0.0
1733977666.0351808,-853.515625,-16.6015625,-419.43359375,-343.26171875,0.0
1733977666.0390866,778.3203125,-25.390625,-452.63671875,77.63671875,0.0
1733977666.042992,-584.47265625,-33.69140625,-541.015625,279.296875,0.0
1733977666.046898,-1000.0,-24.4140625,-542.96875,-3.90625,0.0
1733977666.0508037,-94.23828125,-17.578125,-467.7734375,-415.0390625,0.0
1733977666.0547094,-924.31640625,-13.671875,-530.2734375,-361.81640625,0.0
1733977666.058615,822.75390625,-6.8359375,-486.328125,78.125,0.0
1733977666.0625207,-545.8984375,-12.20703125,-459.9609375,334.9609375,0.0
1733977666.0664265,-1000.0,-23.4375,-576.66015625,113.76953125,0.0
1733977666.070332,-514.6484375,-20.99609375,-670.41015625,-333.49609375,0.0
1733977666.0742378,910.64453125,-5.859375,-458.49609375,-383.30078125,0.0
1733977666.0781436,927.24609375,-8.7890625,-328.125,29.296875,0.0
1733977666.0820582,-515.13671875,-20.5078125,-515.625,337.40234375,0.0
1733977666.085964,-1000.0,-20.5078125,-609.375,149.4140625,0.0
1733977666.0898697,-623.046875,-13.18359375,-551.7578125,-298.828125,0.0
1733977666.0937755,809.5703125,-7.8125,-456.54296875,-402.34375,0.0
1733977666.097681,-985.83984375,-18.06640625,-437.01171875,-43.45703125,0.0
1733977666.1015868,-410.15625,-31.25,-583.49609375,318.84765625,0.0
1733977666.1054926,-1000.0,-25.390625,-596.6796875,206.0546875,0.0
1733977666.1093981,-774.90234375,-18.06640625,-497.0703125,-255.37109375,0.0
1733977666.113304,615.72265625,-15.13671875,-461.9140625,-428.22265625,0.0
1733977666.1172097,-865.72265625,-19.04296875,-484.86328125,-88.8671875,0.0
1733977666.1211152,-162.109375,-26.3671875,-458.0078125,301.7578125,0.0
1733977666.125021,-1000.0,-33.69140625,-488.76953125,240.234375,0.0
1733977666.1289349,-839.35546875,-31.25,-570.80078125,-166.50390625,0.0
1733977666.1328404,515.13671875,-15.625,-446.2890625,-380.859375,0.0
1733977666.1367462,-813.96484375,-9.27734375,-312.01171875,-93.75,0.0
1733977666.140652,204.58984375,-21.97265625,-387.6953125,342.7734375,0.0
1733977666.1445577,-1000.0,-35.15625,-540.52734375,319.82421875,0.0
1733977666.1484632,-880.859375,-34.66796875,-613.76953125,-71.77734375,0.0
1733977666.152369,532.2265625,-18.06640625,-443.359375,-331.54296875,0.0
1733977666.1562748,-815.91796875,-11.71875,-368.65234375,-118.1640625,0.0
1733977666.1601803,359.375,-24.4140625,-548.33984375,336.42578125,0.0
1733977666.164086,-982.421875,-27.34375,-554.19921875,398.92578125,0.0
1733977666.1679919,-954.58984375,-21.484375,-450.68359375,-0.9765625,0.0
1733977666.1718974,445.3125,-14.16015625,-421.38671875,-316.89453125,0.0
1733977666.1758103,-827.1484375,-7.32421875,-386.71875,-151.3671875,0.0
1733977666.179716,653.3203125,-8.7890625,-330.56640625,282.71484375,0.0
1733977666.183622,-770.01953125,-16.6015625,-402.83203125,403.3203125,0.0
1733977666.1875277,-1000.0,-19.53125,-498.53515625,61.5234375,0.0
1733977666.1914332,280.2734375,-4.39453125,-365.234375,-295.41015625,0.0
1733977666.195339,-845.21484375,-2.44140625,-372.55859375,-170.8984375,0.0
1733977666.1992447,757.32421875,-13.671875,-369.140625,277.34375,0.0
1733977666.2031503,-624.51171875,-23.4375,-483.3984375,450.1953125,0.0
1733977666.207056,-1000.0,-33.203125,-750.0,177.734375,0.0
1733977666.2109618,50.78125,-11.23046875,-503.41796875,-230.95703125,0.0
1733977666.2148674,-882.32421875,1.46484375,-350.09765625,-194.82421875,0.0
1733977666.2187731,790.52734375,-2.44140625,-400.390625,229.4921875,0.0
1733977666.2226853,0.0,-13.18359375,-439.94140625,445.80078125,0.0
1733977666.2265909,0.0,-17.578125,-456.54296875,185.546875,0.0
1733977666.2304966,0.0,-6.8359375,-388.18359375,-233.3984375,0.0
1733977666.2344024,0.0,2.44140625,-351.5625,-249.51171875,0.0
1733977666.2383082,0.0,-0.9765625,-330.078125,166.015625,0.0
1733977666.2422137,0.0,-18.5546875,-480.46875,462.40234375,0.0
1733977666.2461195,0.0,-16.11328125,-549.8046875,243.1640625,0.0
1733977666.2500253,0.0,-3.41796875,-566.40625,-200.68359375,0.0
1733977666.2539308,0.0,11.71875,-418.45703125,-271.484375,0.0
1733977666.2578366,0.0,12.6953125,-225.5859375,103.515625,0.0
1733977666.2617424,0.0,-5.859375,-399.4140625,439.94140625,0.0
1733977666.265648,0.0,-22.4609375,-663.57421875,295.41015625,0.0
1733977666.2695591,-756.8359375,-12.20703125,-504.8828125,-153.3203125,0.0
1733977666.2734647,680.6640625,2.9296875,-301.26953125,-279.78515625,0.0
