timestamps,TP9,AF7,AF8,TP10,Right AUX
1733977668.5234349,-1000.0,-34.1796875,-371.58203125,495.1171875,0.0
1733977668.5273404,-836.9140625,-22.94921875,-393.06640625,49.31640625,0.0
1733977668.5312462,578.125,-1.46484375,-283.69140625,-121.09375,0.0
1733977668.535152,-902.83203125,4.8828125,51.7578125,201.171875,0.0
1733977668.5390575,-350.09765625,-20.99609375,-125.48828125,616.2109375,0.0
1733977668.5429633,-1000.0,-37.59765625,-522.94921875,570.3125,0.0
1733977668.546869,-842.28515625,-25.390625,-627.44140625,136.23046875,0.0
1733977668.5507748,533.203125,6.8359375,-172.36328125,-113.28125,0.0
1733977668.5546803,-844.23828125,10.7421875,140.625,154.78515625,0.0
1733977668.5585861,-130.859375,-13.18359375,-102.5390625,599.609375,0.0
1733977668.562492,-1000.0,-30.2734375,-425.29296875,612.79296875,0.0
1733977668.5664024,-873.046875,-13.18359375,-420.41015625,193.359375,0.0
1733977668.5703082,456.54296875,12.20703125,-93.26171875,-109.375,0.0
1733977668.5742137,-801.26953125,14.16015625,51.7578125,109.375,0.0
1733977668.5781195,285.64453125,0.0,-12.6953125,570.3125,0.0
1733977668.5820253,-991.69921875,-20.99609375,-350.09765625,654.296875,0.0
1733977668.5859308,-991.69921875,-9.765625,-510.25390625,272.4609375,0.0
1733977668.5898366,343.26171875,15.625,-319.3359375,-90.8203125,0.0
1733977668.5937424,-817.87109375,18.06640625,-104.98046875,59.5703125,0.0
1733977668.5976481,647.94921875,1.953125,73.2421875,499.51171875,0.0
1733977668.6015537,-788.0859375,-26.3671875,-280.2734375,632.32421875,0.0
1733977668.6054595,-1000.0,-24.90234375,-547.36328125,288.57421875,0.0
1733977668.6093652,312.5,5.37109375,-187.01171875,-130.859375,0.0
1733977668.6132817,-854.98046875,16.11328125,198.2421875,-57.6171875,0.0
1733977668.6171873,788.57421875,-3.90625,103.02734375,385.25390625,0.0
1733977668.621093,-604.4921875,-24.90234375,-333.49609375,582.51953125,0.0
1733977668.6249988,-1000.0,-20.5078125,-426.7578125,263.671875,0.0
1733977668.6289046,155.2734375,0.9765625,-117.67578125,-187.98828125,0.0
1733977668.63281,-873.046875,14.16015625,94.7265625,-166.50390625,0.0
1733977668.636716,815.4296875,0.9765625,-165.52734375,271.97265625,0.0
1733977668.6406217,-559.5703125,-14.16015625,-238.76953125,528.3203125,0.0
1733977668.6445272,-1000.0,-17.578125,-293.45703125,259.765625,0.0
1733977668.648433,-34.1796875,-9.765625,-297.8515625,-201.66015625,0.0
1733977668.6523387,-958.984375,6.8359375,32.2265625,-265.13671875,0.0
1733977668.6562445,954.58984375,3.90625,224.609375,119.62890625,0.0
1733977668.6601527,-350.5859375,-17.08984375,-11.23046875,451.171875,0.0
1733977668.6640584,-1000.0,-25.87890625,-351.5625,255.859375,0.0
1733977668.667964,-102.5390625,-12.20703125,-192.3828125,-230.95703125,0.0
1733977668.6718698,970.21484375,1.953125,228.515625,-363.28125,0.0
1733977668.6757755,-949.70703125,-5.37109375,256.8359375,3.41796875,0.0
1733977668.6796813,80.078125,-29.296875,-62.98828125,410.64453125,0.0
1733977668.6835868,-1000.0,-32.2265625,-304.6875,293.45703125,0.0
1733977668.6874926,-346.19140625,-17.08984375,-147.4609375,-196.77734375,0.0
1733977668.6913984,891.6015625,-6.8359375,228.515625,-421.38671875,0.0
1733977668.695304,-908.69140625,-17.578125,132.8125,-105.46875,0.0
1733977668.6992097,500.9765625,-33.203125,-64.94140625,334.9609375,0.0
1733977668.7031155,-1000.0,-37.109375,-61.5234375,269.53125,0.0
1733977668.70703,-630.859375,-27.34375,12.20703125,-217.7734375,0.0
1733977668.7109356,778.80859375,-8.7890625,181.15234375,-485.83984375,0.0
1733977668.7148414,-894.04296875,-10.25390625,280.76171875,-233.88671875,0.0
1733977668.7187471,646.97265625,-25.390625,246.58203125,216.796875,0.0
1733977668.7226527,-866.2109375,-43.45703125,29.296875,242.67578125,0.0
1733977668.7265584,-946.2890625,-41.50390625,-226.5625,-186.03515625,0.0
1733977668.7304642,558.59375,-16.11328125,82.03125,-540.52734375,0.0
1733977668.73437,-835.9375,-10.25390625,361.81640625,-389.6484375,0.0
1733977668.7382755,610.83984375,-28.80859375,167.48046875,101.5625,0.0
1733977668.7421813,-804.19921875,-42.96875,-287.59765625,249.0234375,0.0
1733977668.746087,-1000.0,-28.80859375,-104.4921875,-167.96875,0.0
1733977668.7499926,287.109375,-11.23046875,253.41796875,-615.72265625,0.0
1733977668.7539067,-799.8046875,0.9765625,230.46875,-528.3203125,0.0
1733977668.7578123,507.8125,2.44140625,226.5625,-40.0390625,0.0
1733977668.761718,-804.19921875,-9.765625,85.9375,153.3203125,0.0
1733977668.7656238,-1000.0,-3.90625,-4.8828125,-250.48828125,0.0
1733977668.7695293,-282.2265625,12.20703125,59.5703125,-746.09375,0.0
1733977668.773435,-910.64453125,22.4609375,132.8125,-752.44140625,0.0
1733977668.777341,485.3515625,32.2265625,169.921875,-323.73046875,0.0
1733977668.7812467,-876.46484375,24.90234375,37.109375,-81.0546875,0.0
1733977668.7851522,-1000.0,20.01953125,-326.66015625,-442.87109375,0.0
1733977668.789058,-637.20703125,49.31640625,-181.15234375,-928.7109375,0.0
1733977668.7929637,320.80078125,69.3359375,241.2109375,-1000.0,0.0
1733977668.7968693,-311.5234375,61.5234375,196.77734375,-745.1171875,0.0
1733977668.8007824,-972.16796875,43.9453125,-289.0625,-440.4296875,0.0
1733977668.804688,-1000.0,51.7578125,-411.1328125,-697.265625,0.0
1733977668.8085938,-800.29296875,73.2421875,-181.640625,-987.3046875,0.0
1733977668.8124995,-198.73046875,85.44921875,30.2734375,-1000.0,0.0
1733977668.8164053,-630.859375,84.47265625,2.9296875,-927.734375,0.0
1733977668.8203108,-935.05859375,69.3359375,-294.43359375,-643.06640625,0.0
1733977668.8242166,-1000.0,67.3828125,-476.07421875,-775.390625,0.0
1733977668.8281224,-930.6640625,78.125,-420.8984375,-995.1171875,0.0
1733977668.832028,49.8046875,87.890625,-390.13671875,-1000.0,0.0
1733977668.8359337,408.203125,97.16796875,-262.6953125,-962.890625,0.0
1733977668.8398395,-607.421875,77.1484375,-267.578125,-646.484375,0.0
1733977668.8437452,-1000.0,52.24609375,-521.484375,-714.84375,0.0
1733977668.8476574,-881.34765625,63.4765625,-561.5234375,-978.02734375,0.0
1733977668.851563,588.37890625,85.44921875,-208.984375,-1000.0,0.0
1733977668.8554688,-971.19140625,76.171875,-132.32421875,-971.19140625,0.0
1733977668.8593745,-533.203125,53.22265625,-317.3828125,-584.47265625,0.0
1733977668.8632803,-1000.0,36.1328125,-457.03125,-557.6171875,0.0
1733977668.8671858,-675.78125,36.1328125,-536.62109375,-928.22265625,0.0
1733977668.8710916,613.76953125,46.38671875,-362.79296875,-1000.0,0.0
1733977668.8749974,-943.84765625,47.36328125,-332.51953125,-962.40234375,0.0
1733977668.878903,-388.18359375,33.69140625,-376.953125,-546.875,0.0
1733977668.8828087,-1000.0,20.99609375,-394.04296875,-491.2109375,0.0
1733977668.8867145,-921.38671875,20.01953125,-484.375,-898.4375,0.0
1733977668.8906202,332.03125,37.59765625,-417.48046875,-1000.0,0.0
1733977668.8945312,-791.9921875,45.8984375,-181.15234375,-975.5859375,0.0
1733977668.8984368,168.45703125,23.4375,-101.5625,-571.77734375,0.0
1733977668.9023426,-1000.0,0.48828125,-396.97265625,-396.484375,0.0
1733977668.9062483,-1000.0,-1.46484375,-525.390625,-772.94921875,0.0
1733977668.9101539,229.4921875,14.16015625,-280.76171875,-1000.0,0.0
1733977668.9140596,-804.6875,12.6953125,-211.9140625,-963.37890625,0.0
1733977668.9179654,629.39453125,-7.32421875,-341.796875,-488.76953125,0.0
1733977668.9218712,-761.71875,-28.80859375,-642.578125,-211.9140625,0.0
1733977668.9257767,-1000.0,-18.06640625,-580.078125,-593.26171875,0.0
1733977668.9296825,93.26171875,-3.41796875,-345.21484375,-978.02734375,0.0
1733977668.9335883,-881.8359375,-5.859375,-274.4140625,-864.74609375,0.0
1733977668.9374938,789.0625,-20.99609375,-194.82421875,-369.140625,0.0
1733977668.941404,-573.73046875,-40.52734375,-324.70703125,-99.609375,0.0
1733977668.9453099,-1000.0,-43.9453125,-472.65625,-385.25390625,0.0
1733977668.9492154,-303.22265625,-34.66796875,-407.71484375,-832.03125,0.0
1733977668.9531212,-986.81640625,-22.94921875,-194.82421875,-789.55078125,0.0
1733977668.957027,842.7734375,-26.85546875,-47.36328125,-299.31640625,0.0
1733977668.9609327,-569.3359375,-53.22265625,-338.37890625,17.08984375,0.0
1733977668.9648383,-1000.0,-62.01171875,-606.4453125,-205.078125,0.0
1733977668.968744,-643.06640625,-41.50390625,-444.3359375,-676.7578125,0.0
1733977668.9726498,850.09765625,-26.3671875,-48.828125,-736.328125,0.0
1733977668.9765553,910.15625,-33.69140625,75.1953125,-285.64453125,0.0
1733977668.9804611,-595.703125,-51.7578125,-345.21484375,94.23828125,0.0
1733977668.984367,-1000.0,-54.6875,-510.25390625,-71.77734375,0.0
1733977668.9882762,-801.26953125,-40.52734375,-292.48046875,-562.98828125,0.0
1733977668.992182,687.01171875,-23.92578125,-48.828125,-684.5703125,0.0
1733977668.9960878,972.65625,-21.484375,-127.44140625,-270.01953125,0.0
1733977668.9999936,-586.42578125,-35.15625,-279.78515625,130.37109375,0.0
1733977669.003899,-1000.0,-42.48046875,-391.11328125,20.99609375,0.0
1733977669.0078049,-763.671875,-33.203125,-458.0078125,-434.08203125,0.0
1733977669.0117106,612.3046875,-18.5546875,-505.859375,-589.35546875,0.0
1733977669.0156164,-977.05078125,-6.8359375,-191.40625,-240.72265625,0.0
1733977669.019522,-474.12109375,-19.53125,-52.24609375,172.8515625,0.0
1733977669.0234277,-1000.0,-33.69140625,-436.03515625,118.65234375,0.0
1733977669.0273335,-847.65625,-20.01953125,-427.24609375,-329.58984375,0.0
1733977669.031239,544.43359375,-5.37109375,-72.75390625,-571.77734375,0.0
1733977669.0351474,-874.0234375,-1.46484375,123.53515625,-278.80859375,0.0
1733977669.0390532,-261.23046875,-8.7890625,-68.84765625,200.68359375,0.0
1733977669.042959,-1000.0,-17.578125,-340.33203125,241.69921875,0.0
1733977669.0468647,-859.375,-4.8828125,-352.5390625,-191.40625,0.0
1733977669.0507703,453.61328125,13.671875,-41.015625,-524.4140625,0.0
1733977669.054676,-800.78125,14.16015625,-29.296875,-262.6953125,0.0
1733977669.0585818,274.4140625,13.18359375,-188.4765625,257.32421875,0.0
1733977669.0624874,-988.28125,2.9296875,-273.4375,316.40625,0.0
1733977669.0663931,-1000.0,1.953125,-417.48046875,-102.5390625,0.0
1733977669.070299,320.3125,20.01953125,-359.375,-437.5,0.0
1733977669.0742047,-815.91796875,23.92578125,-104.98046875,-263.671875,0.0
1733977669.0781102,653.3203125,13.18359375,118.1640625,200.68359375,0.0
1733977669.082025,-763.671875,-11.23046875,-234.375,362.3046875,0.0
1733977669.0859308,-1000.0,-15.13671875,-531.25,20.5078125,0.0
1733977669.0898364,239.74609375,16.11328125,-187.5,-378.90625,0.0
1733977669.0937421,-861.81640625,20.01953125,142.08984375,-270.99609375,0.0
1733977669.097648,713.8671875,-4.39453125,55.6640625,220.21484375,0.0
1733977669.1015537,-607.91015625,-21.484375,-340.8203125,451.66015625,0.0
1733977669.1054592,-1000.0,-20.99609375,-486.81640625,146.97265625,0.0
1733977669.109365,108.88671875,-9.765625,-212.40234375,-338.8671875,0.0
1733977669.1132708,-875.9765625,-16.6015625,-45.8984375,-338.8671875,0.0
1733977669.1171763,821.2890625,-34.66796875,-314.94140625,132.32421875,0.0
1733977669.121082,-564.453125,-54.6875,-366.2109375,375.0,0.0
1733977669.1249878,-1000.0,-96.19140625,-421.38671875,71.77734375,0.0
1733977669.1289027,-18.5546875,-107.91015625,-435.05859375,-439.453125,0.0
1733977669.1328084,-938.4765625,-95.703125,-170.41015625,-519.04296875,0.0
1733977669.1367142,904.296875,-107.421875,92.28515625,-110.3515625,0.0
1733977669.1406198,-418.45703125,-137.6953125,-119.62890625,205.56640625,0.0
1733977669.1445255,-1000.0,-165.0390625,-455.078125,-41.9921875,0.0
1733977669.1484313,-296.875,-165.0390625,-439.453125,-572.265625,0.0
1733977669.1523368,931.640625,-142.578125,-104.98046875,-712.40234375,0.0
1733977669.1562426,-967.28515625,-157.71484375,176.26953125,-331.0546875,0.0
1733977669.1601484,-176.7578125,-212.40234375,-168.45703125,67.3828125,0.0
1733977669.1640542,-1000.0,-220.703125,-429.6875,-76.66015625,0.0
1733977669.1679597,-466.796875,-223.6328125,-203.125,-596.19140625,0.0
1733977669.1718655,850.09765625,-223.14453125,93.26171875,-812.5,0.0
1733977669.175779,-947.265625,-197.75390625,95.703125,-466.796875,0.0
1733977669.1796849,447.265625,-203.61328125,94.23828125,-20.5078125,0.0
1733977669.1835904,-662.109375,-220.21484375,-54.19921875,-76.171875,0.0
1733977669.1874962,-684.08203125,-224.609375,-323.2421875,-553.22265625,0.0
1733977669.191402,723.6328125,-217.28515625,-46.38671875,-831.0546875,0.0
1733977669.1953077,-925.78125,-225.09765625,152.83203125,-528.80859375,0.0
1733977669.1992133,729.98046875,-244.140625,129.39453125,2.9296875,0.0
1733977669.203119,-162.109375,-249.0234375,-39.0625,58.59375,0.0
1733977669.2070248,-769.53125,-255.37109375,-409.1796875,-373.046875,0.0
1733977669.2109303,527.34375,-238.28125,20.01953125,-674.31640625,0.0
1733977669.2148361,-861.81640625,-218.26171875,373.53515625,-414.55078125,0.0
1733977669.218742,769.04296875,-219.23828125,297.8515625,142.08984375,0.0
1733977669.2226543,-159.66796875,-233.88671875,202.63671875,295.41015625,0.0
1733977669.22656,-755.859375,-226.07421875,185.546875,-102.5390625,0.0
1733977669.2304657,546.38671875,-203.125,326.66015625,-462.890625,0.0
1733977669.2343714,-924.8046875,-208.0078125,347.65625,-253.41796875,0.0
1733977669.2382772,914.0625,-203.61328125,340.8203125,323.73046875,0.0
1733977669.2421827,573.73046875,-212.890625,136.71875,549.31640625,0.0
1733977669.2460885,-501.46484375,-227.05078125,-56.15234375,191.40625,0.0
1733977669.2499943,458.0078125,-227.5390625,-58.10546875,-262.6953125,0.0
1733977669.2539,-886.23046875,-221.19140625,23.4375,-178.22265625,0.0
1733977669.2578056,913.57421875,-227.05078125,229.4921875,350.09765625,0.0
1733977669.2617114,-991.69921875,-288.57421875,-93.75,629.39453125,0.0
1733977669.2656171,0.9765625,-337.890625,-501.953125,335.9375,0.0
1733977669.2695284,0.0,-344.23828125,-375.0,-159.1796875,0.0
1733977669.2734342,0.0,-348.14453125,-210.44921875,-167.48046875,0.0
1733977669.2773397,0.0,-380.859375,-149.4140625,342.7734375,0.0
1733977669.2812455,0.0,-436.5234375,-401.3671875,662.59765625,0.0
1733977669.2851512,0.0,-451.171875,-659.1796875,365.72265625,0.0
1733977669.289057,0.0,-468.75,-710.44921875,-226.5625,0.0
1733977669.2929626,0.0,-498.53515625,-683.59375,-336.9140625,0.0
1733977669.2968683,0.0,-523.4375,-720.703125,137.20703125,0.0
1733977669.300774,0.0,-556.15234375,-696.77734375,549.8046875,0.0
1733977669.3046796,0.0,-577.1484375,-735.3515625,386.23046875,0.0
1733977669.3085854,0.0,-583.0078125,-769.04296875,-200.68359375,0.0
1733977669.3124912,0.0,-587.890625,-511.71875,-412.59765625,0.0
1733977669.3164015,939.94140625,-582.03125,-224.12109375,27.34375,0.0
1733977669.320307,-929.6875,-591.796875,-302.24609375,516.6015625,0.0
1733977669.3242128,24.90234375,-604.98046875,-559.08203125,406.73828125,0.0
1733977669.3281186,-778.3203125,-590.33203125,-567.3828125,-206.54296875,0.0
1733977669.3320243,705.56640625,-577.1484375,-384.765625,-512.20703125,0.0
1733977669.3359299,-839.84375,-556.640625,-261.23046875,-121.58203125,0.0
1733977669.3398356,221.19140625,-548.33984375,-353.02734375,439.453125,0.0
1733977669.3437414,-1000.0,-534.1796875,-456.0546875,436.03515625,0.0
1733977669.347647,-893.06640625,-497.55859375,-408.203125,-140.625,0.0
1733977669.3515527,537.59765625,-468.75,-159.66796875,-492.1875,0.0
1733977669.3554585,-816.40625,-448.73046875,92.7734375,-149.4140625,0.0
1733977669.3593643,279.78515625,-434.5703125,214.84375,433.10546875,0.0
1733977669.3632736,-1000.0,-426.7578125,68.84765625,498.53515625,0.0
1733977669.3671792,-936.03515625,-408.69140625,-216.796875,-15.625,0.0
1733977669.371085,419.43359375,-374.51171875,17.08984375,-428.7109375,0.0
1733977669.3749907,-804.19921875,-337.890625,363.28125,-171.38671875,0.0
1733977669.3788962,446.77734375,-324.70703125,449.70703125,463.8671875,0.0
1733977669.382802,-872.55859375,-313.4765625,220.21484375,661.62109375,0.0
1733977669.3867078,-1000.0,-289.0625,-185.05859375,204.1015625,0.0
1733977669.3906136,-704.58984375,-243.65234375,190.4296875,-288.57421875,0.0
1733977669.394519,629.39453125,-212.890625,493.1640625,-130.37109375,0.0
1733977669.3984249,770.5078125,-206.54296875,429.6875,532.71484375,0.0
1733977669.4023306,-837.890625,-194.3359375,357.421875,833.0078125,0.0
1733977669.4062364,-1000.0,-184.5703125,202.63671875,430.6640625,0.0
1733977669.4101448,-1000.0,-165.52734375,250.9765625,-110.3515625,0.0
1733977669.4140506,145.01953125,-137.6953125,314.453125,-29.78515625,0.0
1733977669.4179564,913.57421875,-118.65234375,417.48046875,607.421875,0.0
1733977669.421862,-687.5,-121.58203125,299.8046875,985.83984375,0.0
1733977669.4257677,-1000.0,-120.1171875,-20.99609375,663.57421875,0.0
1733977669.4296734,-1000.0,-105.46875,-203.125,73.2421875,0.0
1733977669.433579,-114.2578125,-87.890625,-13.18359375,70.3125,0.0
1733977669.4374847,909.1796875,-71.2890625,340.8203125,647.94921875,0.0
1733977669.4413905,-608.3984375,-78.61328125,203.125,-994.62890625,0.0
1733977669.4452963,-1000.0,-86.9140625,-306.15234375,809.5703125,0.0
1733977669.4492018,-968.75,-68.84765625,-407.71484375,200.68359375,0.0
1733977669.4531076,-90.8203125,-52.734375,-122.0703125,62.98828125,0.0
1733977669.4570224,875.48828125,-53.7109375,115.72265625,604.4921875,0.0
1733977669.460928,-573.73046875,-62.5,-222.16796875,992.1875,0.0
1733977669.4648337,-1000.0,-63.96484375,-504.8828125,867.1875,0.0
1733977669.4687395,-998.046875,-59.08203125,-482.421875,241.69921875,0.0
1733977669.4726453,-258.30078125,-42.96875,-401.85546875,-19.53125,0.0
1733977669.4765508,905.76171875,-30.76171875,-238.76953125,488.28125,0.0
1733977669.4804566,-429.6875,-36.1328125,-257.8125,965.33203125,0.0
1733977669.4843624,-1000.0,-45.41015625,-477.5390625,901.3671875,0.0
1733977669.488268,-1000.0,-51.26953125,-606.93359375,258.30078125,0.0
1733977669.4921737,-826.171875,-39.0625,-489.74609375,-121.58203125,0.0
1733977669.4960794,740.72265625,-17.08984375,-36.62109375,282.71484375,0.0
1733977669.4999852,-67.3828125,-28.80859375,121.09375,893.06640625,0.0
1733977669.503899,-1000.0,-53.22265625,-267.08984375,898.4375,0.0
1733977669.5078046,-991.69921875,-52.734375,-563.4765625,236.328125,0.0
1733977669.5117104,-931.15234375,-23.4375,-250.0,-211.42578125,0.0
1733977669.5156162,683.10546875,-3.41796875,157.71484375,140.625,0.0
1733977669.5195217,286.62109375,-9.765625,196.2890625,802.24609375,0.0
1733977669.5234275,-1000.0,-19.53125,-47.36328125,889.6484375,0.0
1733977669.5273333,-1000.0,-20.5078125,-293.45703125,278.3203125,0.0
1733977669.531239,-935.05859375,-3.90625,31.25,-227.5390625,0.0
1733977669.5351446,654.78515625,3.90625,283.69140625,54.19921875,0.0
1733977669.5390503,678.7109375,4.39453125,323.2421875,770.01953125,0.0
1733977669.542956,-871.58203125,-0.48828125,264.6484375,963.8671875,0.0
1733977669.546862,-1000.0,-15.625,35.64453125,411.1328125,0.0
1733977669.5507748,-884.765625,-8.7890625,70.3125,-166.50390625,0.0
1733977669.5546806,478.02734375,17.08984375,358.88671875,6.34765625,0.0
1733977669.5585864,-938.4765625,29.78515625,537.59765625,714.84375,0.0
1733977669.562492,37.109375,17.578125,356.93359375,-999.51171875,0.0
1733977669.5663977,-987.79296875,2.44140625,6.34765625,502.9296875,0.0
1733977669.5703034,-938.4765625,7.32421875,84.47265625,-108.3984375,0.0
1733977669.574209,428.7109375,29.296875,369.140625,-12.6953125,0.0
1733977669.5781147,-841.796875,25.390625,483.3984375,659.66796875,0.0
1733977669.5820205,771.484375,-16.6015625,159.66796875,-993.65234375,0.0
1733977669.5859263,-724.609375,-30.2734375,36.62109375,590.8203125,0.0
1733977669.5898318,-420.8984375,-17.08984375,182.12890625,-115.72265625,0.0
1733977669.5937376,896.484375,-7.32421875,291.9921875,-158.69140625,0.0
1733977669.5976496,0.0,-6.8359375,415.52734375,496.09375,0.0
1733977669.6015553,0.0,-26.85546875,317.87109375,934.5703125,0.0
1733977669.605461,0.0,-55.17578125,-1.46484375,579.1015625,0.0
1733977669.6093667,0.0,-57.12890625,-250.9765625,-185.05859375,0.0
1733977669.6132724,0.0,-34.66796875,-76.171875,-361.81640625,0.0
1733977669.617178,0.0,-27.83203125,229.98046875,260.25390625,0.0
1733977669.6210837,0.0,-48.828125,126.953125,802.734375,0.0
1733977669.6249895,0.0,-80.56640625,-395.5078125,510.7421875,0.0
1733977669.6288953,0.0,-89.35546875,-578.125,-271.484375,0.0
1733977669.6328008,0.0,-69.82421875,-275.390625,-542.96875,0.0
1733977669.6367066,0.0,-70.3125,90.33203125,-9.765625,0.0
1733977669.6406124,0.0,-95.21484375,-54.19921875,573.2421875,0.0
1733977669.6445239,-75.1953125,-115.234375,-441.40625,382.32421875,0.0
1733977669.6484296,-863.28125,-128.41796875,-559.08203125,-398.4375,0.0
1733977669.6523354,729.4921875,-118.1640625,-472.65625,-761.71875,0.0
1733977669.656241,997.0703125,-106.4453125,-160.15625,-286.62109375,0.0
1733977669.6601467,-929.6875,-129.39453125,-38.57421875,359.86328125,0.0
1733977669.6640525,376.46484375,-164.0625,-425.29296875,268.5546875,0.0
1733977669.6679583,-805.6640625,-186.03515625,-700.68359375,-502.44140625,0.0
1733977669.6718638,586.42578125,-181.15234375,-679.19921875,-979.98046875,0.0
1733977669.6757696,-955.56640625,-161.62109375,-158.69140625,-618.1640625,0.0
1733977669.6796753,-965.33203125,-167.96875,212.890625,62.5,0.0
1733977669.683581,620.60546875,-177.24609375,-38.0859375,57.12890625,0.0
1733977669.6874866,-755.37109375,-176.7578125,-445.80078125,-679.6875,0.0
1733977669.6913972,416.015625,-153.3203125,-456.0546875,-1000.0,0.0
1733977669.695303,-921.38671875,-136.23046875,-334.47265625,-932.12890625,0.0
1733977669.6992087,997.55859375,-148.4375,-469.23828125,-389.16015625,0.0
1733977669.7031145,798.828125,-155.2734375,-733.3984375,-309.08203125,0.0
1733977669.70702,-526.85546875,-164.55078125,-939.94140625,-897.94921875,0.0
1733977669.7109258,449.70703125,-166.9921875,-989.74609375,-1000.0,0.0
1733977669.7148316,-902.83203125,-155.2734375,-936.5234375,-985.3515625,0.0
1733977669.7187371,970.21484375,-161.62109375,-915.0390625,-901.85546875,0.0
1733977669.722643,875.0,-187.01171875,-977.5390625,-884.765625,0.0
1733977669.7265487,-510.7421875,-208.984375,-1000.0,-1000.0,0.0
1733977669.7304544,334.9609375,-218.26171875,-997.55859375,-994.140625,0.0
1733977669.73436,-882.32421875,-195.80078125,-1000.0,-1000.0,0.0
1733977669.7382698,940.4296875,-187.98828125,-984.375,-948.2421875,0.0
1733977669.7421756,944.3359375,-220.21484375,-993.65234375,-848.6328125,0.0
1733977669.7460814,-575.68359375,-238.28125,-1000.0,-969.7265625,0.0
1733977669.749987,-2.9296875,-225.5859375,-1000.0,-997.55859375,0.0
1733977669.7538927,-893.5546875,-214.35546875,-991.69921875,-1000.0,0.0
1733977669.7577984,922.36328125,-212.890625,-966.30859375,-791.50390625,0.0
1733977669.7617042,-998.046875,-238.28125,-989.2578125,-382.32421875,0.0
1733977669.7656097,-495.60546875,-274.90234375,-1000.0,-682.12890625,0.0
1733977669.7695155,-620.1171875,-280.2734375,-1000.0,-1000.0,0.0
1733977669.7734213,837.40234375,-264.6484375,-989.74609375,-1000.0,0.0
1733977669.7773268,-995.60546875,-279.296875,-898.4375,-605.46875,0.0
1733977669.7812326,974.12109375,-319.3359375,-944.3359375,-38.0859375,0.0
1733977669.7851415,-311.5234375,-350.5859375,-1000.0,-356.93359375,0.0
1733977669.7890472,-1000.0,-375.48828125,-996.09375,-939.453125,0.0
1733977669.7929528,233.3984375,-380.37109375,-1000.0,-1000.0,0.0
1733977669.7968585,-937.5,-410.15625,-1000.0,-666.9921875,0.0
1733977669.8007643,958.984375,-479.4921875,-1000.0,-175.29296875,0.0
1733977669.8046699,-166.015625,-540.52734375,-1000.0,-512.20703125,0.0
1733977669.8085756,-1000.0,-594.7265625,-1000.0,-987.79296875,0.0
1733977669.8124814,-484.375,-634.27734375,-1000.0,-1000.0,0.0
1733977669.8163872,842.28515625,-668.9453125,-1000.0,-973.14453125,0.0
1733977669.8202927,-910.64453125,-727.05078125,-1000.0,-835.44921875,0.0
1733977669.8241985,15.13671875,-811.5234375,-1000.0,-931.15234375,0.0
1733977669.8281043,-1000.0,-905.2734375,-1000.0,-1000.0,0.0
1733977669.832019,-585.44921875,-983.88671875,-1000.0,-990.234375,0.0
1733977669.8359246,762.20703125,-1000.0,-1000.0,-1000.0,0.0
1733977669.8398304,-871.58203125,-998.046875,-1000.0,-1000.0,0.0
1733977669.8437362,431.640625,-1000.0,-1000.0,-1000.0,0.0
1733977669.847642,-970.21484375,-1000.0,-1000.0,-1000.0,0.0
1733977669.8515475,-948.73046875,-1000.0,-1000.0,-1000.0,0.0
1733977669.8554533,601.07421875,-1000.0,-1000.0,-1000.0,0.0
1733977669.859359,-863.28125,-1000.0,-1000.0,-1000.0,0.0
1733977669.8632646,-275.390625,-1000.0,-1000.0,-1000.0,0.0
1733977669.8671703,-1000.0,-1000.0,-1000.0,-1000.0,0.0
1733977669.871076,-947.75390625,-1000.0,-1000.0,-1000.0,0.0
1733977669.8749819,-985.3515625,-1000.0,-1000.0,-1000.0,0.0
1733977669.8788958,-981.93359375,-1000.0,-1000.0,-1000.0,0.0
1733977669.8828015,-1000.0,-1000.0,-1000.0,-1000.0,0.0
1733977669.886707,-1000.0,-1000.0,-1000.0,-1000.0,0.0
1733977669.8906128,-1000.0,-1000.0,-1000.0,-1000.0,0.0
1733977669.8945186,-1000.0,-999.51171875,-1000.0,-1000.0,0.0
1733977669.8984244,-1000.0,-994.140625,-1000.0,-1000.0,0.0
1733977669.90233,-1000.0,-1000.0,-1000.0,-1000.0,0.0
1733977669.9062357,-1000.0,-886.71875,-1000.0,-1000.0,0.0
1733977669.9101415,-1000.0,-769.04296875,-1000.0,-1000.0,0.0
1733977669.9140472,-1000.0,-1000.0,-1000.0,-1000.0,0.0
1733977669.9179528,-1000.0,-969.23828125,-1000.0,-1000.0,0.0
1733977669.9218585,-1000.0,430.17578125,-1000.0,-1000.0,0.0
1733977669.9257715,-1000.0,-903.80859375,-1000.0,-1000.0,0.0
1733977669.9296772,-1000.0,898.92578125,-1000.0,-1000.0,0.0
1733977669.933583,-1000.0,980.46875,-1000.0,-1000.0,0.0
1733977669.9374886,-1000.0,970.21484375,-1000.0,-1000.0,0.0
1733977669.9413943,-1000.0,969.7265625,-1000.0,-1000.0,0.0
1733977669.9453,-1000.0,969.7265625,-1000.0,-1000.0,0.0
1733977669.9492059,-1000.0,969.7265625,-1000.0,-1000.0,0.0
1733977669.9531114,-1000.0,969.7265625,-1000.0,-1000.0,0.0
1733977669.9570172,-1000.0,969.7265625,-1000.0,-1000.0,0.0
1733977669.960923,-1000.0,969.7265625,-1000.0,-1000.0,0.0
1733977669.9648285,-1000.0,969.7265625,-1000.0,-1000.0,0.0
1733977669.9687343,-1000.0,969.7265625,-1000.0,-1000.0,0.0
1733977669.9726462,0.0,970.21484375,-1000.0,-1000.0,0.0
1733977669.976552,0.0,970.21484375,-1000.0,-1000.0,0.0
1733977669.9804578,0.0,969.7265625,-1000.0,-1000.0,0.0
1733977669.9843633,0.0,970.21484375,-1000.0,-1000.0,0.0
1733977669.988269,0.0,970.21484375,-966.30859375,-1000.0,0.0
1733977669.9921749,0.0,970.21484375,-1000.0,-994.62890625,0.0
1733977669.9960806,0.0,969.7265625,-766.11328125,-1000.0,0.0
1733977669.9999862,0.0,969.7265625,138.671875,-990.234375,0.0
1733977670.003892,0.0,970.21484375,541.50390625,-712.890625,0.0
1733977670.0077977,0.0,969.7265625,566.40625,-357.91015625,0.0
1733977670.0117033,0.0,969.7265625,485.83984375,273.4375,0.0
1733977670.015609,0.0,970.21484375,337.890625,913.57421875,0.0
1733977670.0195198,-1000.0,969.7265625,267.578125,976.07421875,0.0
1733977670.0234256,-1000.0,970.21484375,-39.0625,953.125,0.0
1733977670.0273314,-1000.0,969.23828125,-474.609375,975.09765625,0.0
1733977670.031237,-1000.0,971.19140625,-514.16015625,969.7265625,0.0
1733977670.0351427,-1000.0,953.125,-160.64453125,969.7265625,0.0
1733977670.0390484,-1000.0,989.2578125,270.5078125,969.7265625,0.0
1733977670.0429542,-1000.0,958.0078125,184.08203125,969.7265625,0.0
1733977670.0468597,-1000.0,572.75390625,-265.13671875,969.7265625,0.0
1733977670.0507655,-1000.0,780.76171875,-9.27734375,969.7265625,0.0
1733977670.0546713,-1000.0,-973.14453125,286.62109375,969.7265625,0.0
1733977670.0585768,-950.68359375,942.87109375,448.73046875,969.7265625,0.0
1733977670.0624826,-1000.0,974.609375,502.9296875,969.7265625,0.0
1733977670.066393,-968.75,968.75,380.859375,969.7265625,0.0
1733977670.0702987,409.66796875,969.7265625,460.44921875,969.7265625,0.0
1733977670.0742044,-903.3203125,965.33203125,588.8671875,969.7265625,0.0
1733977670.07811,898.92578125,965.33203125,710.9375,969.7265625,0.0
1733977670.0820158,979.00390625,970.703125,751.46484375,969.7265625,0.0
1733977670.0859215,969.23828125,969.7265625,680.6640625,969.7265625,0.0
1733977670.089827,969.23828125,968.75,651.3671875,969.7265625,0.0
1733977670.0937328,968.75,967.7734375,757.32421875,969.7265625,0.0
1733977670.0976386,969.23828125,970.21484375,885.25390625,969.7265625,0.0
1733977670.1015444,969.23828125,969.7265625,879.39453125,969.7265625,0.0
1733977670.10545,969.23828125,969.7265625,875.9765625,969.7265625,0.0
1733977670.1093557,969.23828125,969.7265625,887.20703125,969.7265625,0.0
1733977670.1132727,0.0,969.7265625,0.0,0.0,0.0
1733977670.1171784,0.0,969.7265625,0.0,0.0,0.0
1733977670.1210842,0.0,969.7265625,0.0,0.0,0.0
1733977670.1249897,0.0,969.7265625,0.0,0.0,0.0
1733977670.1288955,0.0,969.7265625,0.0,0.0,0.0
1733977670.1328013,0.0,969.7265625,0.0,0.0,0.0
1733977670.136707,0.0,969.7265625,0.0,0.0,0.0
1733977670.1406126,0.0,969.7265625,0.0,0.0,0.0
1733977670.1445184,0.0,969.7265625,0.0,0.0,0.0
1733977670.1484241,0.0,969.7265625,0.0,0.0,0.0
1733977670.1523297,0.0,969.7265625,0.0,0.0,0.0
1733977670.1562355,0.0,969.23828125,0.0,0.0,0.0
1733977670.160144,969.23828125,971.6796875,661.62109375,969.7265625,0.0
1733977670.1640496,968.75,962.40234375,207.03125,969.7265625,0.0
1733977670.1679554,969.23828125,954.58984375,-386.23046875,969.7265625,0.0
1733977670.1718612,969.23828125,936.03515625,-594.23828125,969.7265625,0.0
1733977670.175767,969.23828125,-993.65234375,-565.4296875,971.19140625,0.0
1733977670.1796725,969.23828125,529.78515625,-747.0703125,962.40234375,0.0
1733977670.1835783,969.23828125,-264.6484375,-958.49609375,982.91015625,0.0
1733977670.187484,969.23828125,-117.1875,-984.86328125,942.3828125,0.0
1733977670.1913898,969.23828125,76.66015625,-990.234375,830.078125,0.0
1733977670.1952953,969.23828125,-300.78125,-999.51171875,921.875,0.0
1733977670.199201,969.23828125,-277.83203125,-973.14453125,975.5859375,0.0
1733977670.2031069,969.23828125,-15.625,-986.81640625,979.4921875,0.0
1733977670.2070215,969.23828125,-386.23046875,-1000.0,638.671875,0.0
1733977670.2109272,969.23828125,-796.875,-1000.0,198.73046875,0.0
1733977670.2148328,969.23828125,-401.3671875,-987.3046875,476.07421875,0.0
1733977670.2187386,969.23828125,166.50390625,-957.03125,933.59375,0.0
1733977670.2226443,969.23828125,61.5234375,-981.4453125,982.91015625,0.0
1733977670.22655,969.23828125,-661.62109375,-998.046875,528.80859375,0.0
1733977670.2304556,969.23828125,-523.4375,-999.0234375,26.85546875,0.0
1733977670.2343614,969.23828125,340.8203125,-959.47265625,275.87890625,0.0
1733977670.2382672,969.23828125,564.453125,-858.3984375,867.67578125,0.0
1733977670.242173,969.23828125,-78.125,-938.96484375,-995.1171875,0.0
1733977670.2460785,969.23828125,196.2890625,-967.28515625,592.28515625,0.0
1733977670.2499843,969.23828125,708.984375,-892.08984375,62.01171875,0.0
1733977670.2538981,969.23828125,757.8125,-845.21484375,262.6953125,0.0
1733977670.2578037,969.23828125,871.58203125,-571.77734375,858.3984375,0.0
1733977670.2617095,969.23828125,971.6796875,-452.63671875,-981.4453125,0.0
1733977670.2656152,969.23828125,965.33203125,-643.06640625,736.328125,0.0
1733977670.269521,969.23828125,916.50390625,-675.29296875,210.9375,0.0
1733977670.2734265,969.23828125,931.15234375,-485.3515625,352.5390625,0.0
1733977670.2773323,969.23828125,958.984375,-7.8125,884.27734375,0.0
1733977670.281238,969.23828125,-996.58203125,181.640625,-992.67578125,0.0
1733977670.2851436,969.23828125,867.1875,-367.1875,892.578125,0.0
1733977670.2890494,969.23828125,773.4375,-496.58203125,400.87890625,0.0
1733977670.2929552,968.75,977.05078125,-64.453125,406.73828125,0.0
1733977670.296861,968.75,975.5859375,301.7578125,895.5078125,0.0
1733977670.3007736,969.23828125,962.40234375,277.34375,999.0234375,0.0
1733977670.3046792,969.23828125,970.21484375,106.4453125,939.453125,0.0
1733977670.308585,969.23828125,970.21484375,83.49609375,507.8125,0.0
1733977670.3124907,969.23828125,968.26171875,185.546875,443.84765625,0.0
1733977670.3163965,969.23828125,966.796875,350.09765625,895.5078125,0.0
1733977670.320302,969.23828125,969.7265625,470.21484375,990.72265625,0.0
1733977670.3242078,969.23828125,970.703125,394.53125,961.9140625,0.0
1733977670.3281136,969.23828125,968.26171875,254.8828125,631.8359375,0.0
1733977670.3320193,969.23828125,965.33203125,153.80859375,525.87890625,0.0
1733977670.3359249,968.75,969.23828125,454.1015625,909.66796875,0.0
1733977670.3398306,969.23828125,970.21484375,653.3203125,983.3984375,0.0
1733977670.3437364,969.23828125,969.7265625,502.9296875,975.09765625,0.0
1733977670.3476555,969.23828125,969.7265625,404.78515625,774.4140625,0.0
1733977670.3515613,968.75,969.7265625,498.046875,633.30078125,0.0
1733977670.3554668,969.23828125,970.21484375,619.62890625,914.55078125,0.0
1733977670.3593726,969.23828125,968.26171875,645.99609375,979.00390625,0.0
1733977670.3632784,969.23828125,968.26171875,541.015625,982.91015625,0.0
1733977670.367184,969.23828125,970.21484375,338.8671875,851.5625,0.0
1733977670.3710897,968.75,969.7265625,408.69140625,653.3203125,0.0
1733977670.3749955,968.75,969.7265625,548.33984375,892.08984375,0.0
1733977670.3789012,969.23828125,969.7265625,596.19140625,982.91015625,0.0
1733977670.3828068,969.23828125,969.7265625,609.86328125,983.3984375,0.0
1733977670.3867126,968.75,969.7265625,468.75,854.4921875,0.0
1733977670.3906183,968.75,969.7265625,438.4765625,575.68359375,0.0
1733977670.3945293,969.23828125,969.23828125,594.7265625,820.3125,0.0
1733977670.398435,968.75,970.21484375,751.46484375,984.86328125,0.0
1733977670.402341,968.75,967.7734375,621.09375,980.95703125,0.0
1733977670.4062464,969.23828125,965.8203125,399.90234375,880.859375,0.0
1733977670.4101522,969.23828125,969.23828125,482.421875,516.11328125,0.0
1733977670.414058,969.23828125,970.703125,613.76953125,701.171875,0.0
1733977670.4179637,969.23828125,967.7734375,660.15625,970.703125,0.0
1733977670.4218693,969.23828125,965.8203125,604.00390625,986.328125,0.0
1733977670.425775,969.23828125,969.7265625,543.45703125,892.578125,0.0
1733977670.4296808,968.75,970.21484375,514.16015625,465.8203125,0.0
1733977670.4335866,968.75,969.7265625,573.2421875,582.51953125,0.0
1733977670.4374921,969.23828125,969.7265625,689.453125,942.87109375,0.0
1733977670.4414032,969.23828125,969.7265625,750.0,992.1875,0.0
1733977670.4453087,968.75,970.21484375,592.7734375,908.69140625,0.0
1733977670.4492145,968.75,968.75,493.1640625,419.921875,0.0
1733977670.4531202,969.23828125,971.19140625,591.796875,447.265625,0.0
1733977670.4570258,969.23828125,960.9375,742.67578125,905.76171875,0.0
1733977670.4609315,968.75,990.234375,699.21875,999.0234375,0.0
1733977670.4648373,969.23828125,914.55078125,430.17578125,918.45703125,0.0
1733977670.468743,969.23828125,853.515625,292.96875,375.0,0.0
1733977670.4726486,968.75,973.14453125,505.859375,248.53515625,0.0
1733977670.4765544,968.75,974.12109375,664.55078125,802.734375,0.0
1733977670.4804602,969.23828125,965.33203125,633.7890625,-977.5390625,0.0
1733977670.484366,968.75,968.75,465.33203125,885.7421875,0.0
1733977670.4882753,969.23828125,970.21484375,332.03125,249.0234375,0.0
1733977670.492181,969.23828125,963.8671875,362.3046875,60.546875,0.0
1733977670.4960866,968.75,956.54296875,475.5859375,654.78515625,0.0
1733977670.4999924,969.23828125,952.1484375,593.26171875,-997.0703125,0.0
1733977670.5038981,969.23828125,989.2578125,468.26171875,906.73828125,0.0
1733977670.507804,968.75,916.50390625,162.109375,249.51171875,0.0
1733977670.5117095,969.23828125,522.94921875,44.43359375,-75.68359375,0.0
1733977670.5156152,969.23828125,775.87890625,481.93359375,483.3984375,0.0
1733977670.519521,968.75,-962.890625,648.92578125,962.40234375,0.0
1733977670.5234265,968.75,920.8984375,407.2265625,958.0078125,0.0
1733977670.5273323,969.23828125,940.4296875,276.85546875,350.5859375,0.0
1733977670.531238,969.23828125,967.7734375,336.9140625,-96.19140625,0.0
1733977670.5351465,968.75,970.21484375,539.55078125,398.92578125,0.0
1733977670.5390522,968.75,965.8203125,630.37109375,939.453125,0.0
1733977670.542958,969.23828125,965.8203125,507.32421875,979.98046875,0.0
1733977670.5468636,969.23828125,958.49609375,277.34375,454.58984375,0.0
1733977670.5507693,968.75,976.5625,293.9453125,-73.73046875,0.0
1733977670.554675,968.75,912.109375,425.78125,312.5,0.0
1733977670.5585809,969.23828125,878.90625,538.0859375,910.15625,0.0
1733977670.5624864,968.75,976.07421875,536.62109375,996.58203125,0.0
1733977670.5663922,968.75,973.6328125,319.82421875,530.2734375,0.0
1733977670.570298,969.23828125,844.23828125,235.83984375,-75.68359375,0.0
1733977670.5742037,969.23828125,885.7421875,453.125,197.75390625,0.0
1733977670.5781093,969.23828125,998.53515625,651.3671875,865.72265625,0.0
1733977670.5820246,968.75,955.56640625,553.7109375,-985.3515625,0.0
1733977670.5859303,968.75,863.28125,243.1640625,619.140625,0.0
1733977670.5898361,969.23828125,920.41015625,232.91015625,-77.1484375,0.0
1733977670.5937417,969.23828125,990.234375,454.58984375,39.0625,0.0
1733977670.5976474,969.23828125,947.265625,558.59375,793.9453125,0.0
1733977670.6015532,968.75,898.92578125,413.57421875,-967.28515625,0.0
1733977670.605459,969.23828125,891.6015625,238.76953125,656.73828125,0.0
1733977670.6093645,969.23828125,953.61328125,236.328125,-133.7890625,0.0
1733977670.6132703,970.21484375,937.5,310.546875,-195.80078125,0.0
1733977670.617176,965.33203125,805.17578125,450.1953125,618.65234375,0.0
1733977670.6210818,977.05078125,931.640625,592.7734375,-967.7734375,0.0
1733977670.6249874,949.70703125,990.72265625,411.1328125,662.109375,0.0
1733977670.628902,0.0,916.015625,202.63671875,-223.14453125,0.0
1733977670.6328075,0.0,928.7109375,339.84375,-449.70703125,0.0
1733977670.6367133,0.0,964.35546875,600.09765625,345.703125,0.0
1733977670.640619,0.0,986.81640625,638.18359375,983.88671875,0.0
1733977670.6445246,0.0,911.62109375,359.375,666.50390625,0.0
1733977670.6484303,0.0,667.96875,132.8125,-291.50390625,0.0
1733977670.6523361,0.0,803.22265625,302.24609375,-639.6484375,0.0
1733977670.656242,0.0,-975.5859375,601.07421875,17.08984375,0.0
1733977670.6601474,0.0,884.27734375,601.5625,678.7109375,0.0
1733977670.6640532,0.0,803.22265625,414.0625,250.48828125,0.0
1733977670.667959,0.0,966.30859375,336.9140625,-777.83203125,0.0
1733977670.6718647,0.0,969.7265625,371.09375,-1000.0,0.0
1733977670.6757782,903.80859375,960.44921875,575.1953125,-653.80859375,0.0
1733977670.679684,996.09375,963.8671875,724.12109375,121.58203125,0.0
1733977670.6835897,955.078125,983.3984375,615.234375,56.15234375,0.0
1733977670.6874952,14.6484375,933.10546875,371.58203125,-782.2265625,0.0
1733977670.691401,-75.1953125,854.98046875,327.1484375,-1000.0,0.0
1733977670.6953068,884.765625,939.94140625,578.125,-718.26171875,0.0
1733977670.6992123,996.09375,996.58203125,785.64453125,150.87890625,0.0
1733977670.703118,973.6328125,957.51953125,706.0546875,300.29296875,0.0
1733977670.7070239,366.2109375,556.15234375,388.18359375,-539.55078125,0.0
1733977670.7109296,289.55078125,736.81640625,546.38671875,-1000.0,0.0
1733977670.7148352,946.2890625,-969.7265625,827.1484375,-685.05859375,0.0
1733977670.718741,966.30859375,946.77734375,873.53515625,295.41015625,0.0
1733977670.7226536,995.1171875,971.6796875,874.51171875,617.67578125,0.0
1733977670.7265594,699.70703125,969.7265625,877.9296875,-172.8515625,0.0
1733977670.730465,504.39453125,969.7265625,881.8359375,-863.76953125,0.0
1733977670.7343707,911.62109375,969.23828125,898.4375,-430.6640625,0.0
1733977670.7382765,947.75390625,969.23828125,918.45703125,646.97265625,0.0
1733977670.742182,-951.171875,969.7265625,915.0390625,-973.6328125,0.0
1733977670.7460878,449.70703125,971.19140625,908.203125,416.50390625,0.0
1733977670.7499936,-522.4609375,964.35546875,901.3671875,-380.859375,0.0
1733977670.7538993,415.52734375,963.37890625,907.2265625,-125.9765625,0.0
1733977670.7578049,-971.19140625,970.703125,930.17578125,771.97265625,0.0
1733977670.7617106,-987.3046875,969.7265625,927.734375,-962.40234375,0.0
1733977670.7656164,451.171875,969.7265625,916.015625,630.859375,0.0
1733977670.7695282,-949.70703125,969.7265625,912.59765625,-183.59375,0.0
1733977670.773434,-270.99609375,970.21484375,924.8046875,-104.4921875,0.0
1733977670.7773395,997.0703125,969.23828125,929.19921875,775.390625,0.0
1733977670.7812452,967.7734375,968.75,919.921875,-960.9375,0.0
1733977670.785151,-216.796875,970.21484375,916.50390625,846.19140625,0.0
1733977670.7890568,-1000.0,969.23828125,904.78515625,132.32421875,0.0
1733977670.7929623,-915.52734375,968.75,901.85546875,15.625,0.0
1733977670.796868,506.8359375,966.796875,906.25,764.16015625,0.0
1733977670.8007739,-918.45703125,968.26171875,911.62109375,-963.37890625,0.0
1733977670.8046796,-413.57421875,969.7265625,903.80859375,851.07421875,0.0
1733977670.8085852,-1000.0,970.703125,890.625,22.4609375,0.0
1733977670.812491,-1000.0,966.30859375,896.97265625,-208.0078125,0.0
1733977670.8164012,-396.97265625,932.12890625,902.34375,673.828125,0.0
1733977670.820307,-87.890625,-982.91015625,903.3203125,-972.65625,0.0
1733977670.8242126,-905.2734375,380.37109375,892.578125,923.33984375,0.0
1733977670.8281183,-1000.0,-837.890625,875.48828125,235.3515625,0.0
1733977670.832024,-1000.0,-1000.0,854.4921875,-335.9375,0.0
1733977670.8359299,-766.6015625,-957.03125,878.41796875,230.46875,0.0
1733977670.8398354,-424.31640625,-1000.0,779.296875,886.71875,0.0
1733977670.8437412,-900.87890625,-1000.0,538.57421875,490.72265625,0.0
1733977670.847647,-985.3515625,-1000.0,228.515625,-657.2265625,0.0
1733977670.8515527,-1000.0,-1000.0,-286.62109375,-1000.0,0.0
1733977670.8554583,-559.5703125,-1000.0,-792.48046875,-882.8125,0.0
1733977670.859364,864.2578125,-1000.0,-965.33203125,-481.4453125,0.0
1733977670.8632734,298.828125,-1000.0,-986.328125,-672.8515625,0.0
1733977670.8671792,-949.21875,-1000.0,-1000.0,-1000.0,0.0
1733977670.8710847,-1000.0,-1000.0,-1000.0,-989.74609375,0.0
1733977670.8749905,-208.0078125,-1000.0,-1000.0,-995.1171875,0.0
1733977670.8788962,-978.02734375,-1000.0,-1000.0,-1000.0,0.0
1733977670.882802,811.5234375,-1000.0,-1000.0,-1000.0,0.0
1733977670.8867075,-654.296875,-1000.0,-996.09375,-999.0234375,0.0
1733977670.8906133,-1000.0,-1000.0,-998.53515625,-991.2109375,0.0
1733977670.894519,-30.76171875,-1000.0,-972.16796875,-1000.0,0.0
1733977670.8984249,979.98046875,-1000.0,-792.48046875,-849.609375,0.0
1733977670.9023304,-998.53515625,-1000.0,-586.42578125,-702.63671875,0.0
1733977670.9062362,-284.1796875,-976.07421875,-367.1875,-921.875,0.0
1733977670.9101448,-982.91015625,-1000.0,100.5859375,-1000.0,0.0
1733977670.9140506,443.359375,-787.109375,472.16796875,-955.078125,0.0
1733977670.917956,-958.0078125,226.5625,717.7734375,-198.2421875,0.0
1733977670.921862,993.65234375,953.61328125,858.3984375,331.54296875,0.0
1733977670.9257677,485.83984375,956.54296875,862.3046875,-201.66015625,0.0
1733977670.9296732,-38.0859375,955.078125,838.37890625,-832.03125,0.0
1733977670.933579,766.6015625,971.6796875,860.83984375,-581.0546875,0.0
1733977670.9374847,-986.328125,970.21484375,894.53125,385.25390625,0.0
1733977670.9413905,990.72265625,969.7265625,891.11328125,896.97265625,0.0
1733977670.945296,755.859375,969.7265625,877.44140625,444.82421875,0.0
1733977670.9492018,511.71875,969.7265625,870.1171875,-250.0,0.0
1733977670.9531076,942.3828125,969.7265625,879.8828125,-152.34375,0.0
1733977670.957023,962.40234375,969.7265625,873.53515625,631.34765625,0.0
1733977670.9609287,-984.375,969.7265625,853.515625,-981.4453125,0.0
1733977670.9648342,788.57421875,969.23828125,787.59765625,683.10546875,0.0
1733977670.96874,418.45703125,969.7265625,699.21875,1.46484375,0.0
1733977670.9726458,842.28515625,969.7265625,614.2578125,-76.66015625,0.0
1733977670.9765513,-983.3984375,969.7265625,539.0625,562.01171875,0.0
1733977670.980457,940.91796875,969.7265625,557.6171875,927.24609375,0.0
1733977670.9843628,-174.8046875,969.7265625,550.29296875,479.98046875,0.0
1733977670.9882686,-1000.0,969.7265625,386.71875,-302.734375,0.0
1733977670.9921741,-937.5,969.7265625,215.33203125,-488.76953125,0.0
1733977670.99608,-485.3515625,969.7265625,361.328125,-23.92578125,0.0
1733977670.9999857,-774.4140625,969.7265625,382.32421875,327.1484375,0.0
1733977671.0038996,-1000.0,970.21484375,161.62109375,-36.62109375,0.0
1733977671.0078053,-967.7734375,969.7265625,0.48828125,-789.0625,0.0
1733977671.0117111,-1000.0,969.7265625,59.5703125,-1000.0,0.0
1733977671.0156167,-1000.0,969.7265625,242.1875,-628.90625,0.0
1733977671.0195224,-1000.0,969.7265625,-112.79296875,-181.640625,0.0
1733977671.0234282,-1000.0,969.7265625,-126.46484375,-425.29296875,0.0
1733977671.027334,-1000.0,969.7265625,743.1640625,-921.875,0.0
1733977671.0312395,-1000.0,986.328125,896.484375,-1000.0,0.0
1733977671.0351453,-1000.0,909.1796875,779.78515625,-857.91015625,0.0
1733977671.039051,-1000.0,-973.6328125,815.4296875,-395.01953125,0.0
1733977671.0429566,-1000.0,840.8203125,871.09375,-461.42578125,0.0
1733977671.0468624,-1000.0,-615.234375,860.83984375,-916.015625,0.0
1733977671.0507753,0.0,-1000.0,856.4453125,-1000.0,0.0
1733977671.054681,0.0,-927.24609375,859.86328125,-819.82421875,0.0
1733977671.0585868,0.0,-1000.0,869.62890625,-293.45703125,0.0
1733977671.0624924,0.0,-1000.0,851.07421875,-223.14453125,0.0
1733977671.0663981,0.0,-1000.0,842.7734375,-725.09765625,0.0
1733977671.070304,0.0,-1000.0,860.3515625,-1000.0,0.0
1733977671.0742097,0.0,-1000.0,871.09375,-708.984375,0.0
1733977671.0781152,0.0,-1000.0,851.5625,-147.94921875,0.0
1733977671.082021,0.0,-1000.0,798.828125,-32.2265625,0.0
1733977671.0859268,0.0,-1000.0,811.03515625,-490.234375,0.0
1733977671.0898325,0.0,-1000.0,815.4296875,-848.6328125,0.0
1733977671.093738,0.0,-1000.0,796.38671875,-584.47265625,0.0
1733977671.0976503,-1000.0,-1000.0,802.734375,26.3671875,0.0
1733977671.101556,-1000.0,-1000.0,851.5625,210.44921875,0.0
1733977671.1054616,-1000.0,-1000.0,846.6796875,-190.4296875,0.0
1733977671.1093674,-1000.0,-1000.0,836.9140625,-550.29296875,0.0
1733977671.1132731,-1000.0,-1000.0,857.91015625,-364.2578125,0.0
1733977671.117179,-1000.0,-1000.0,872.0703125,223.6328125,0.0
1733977671.1210845,-1000.0,-1000.0,873.53515625,492.1875,0.0
1733977671.1249902,-1000.0,-1000.0,854.98046875,163.57421875,0.0
1733977671.128896,-1000.0,-995.60546875,853.02734375,-258.30078125,0.0
1733977671.1328018,-1000.0,-988.76953125,882.8125,-151.3671875,0.0
1733977671.1367073,-1000.0,-980.46875,885.7421875,385.7421875,0.0
1733977671.140613,-1000.0,-611.81640625,887.6953125,654.78515625,0.0
1733977671.1445246,-1000.0,273.92578125,886.71875,370.1171875,0.0
1733977671.14843,-1000.0,913.57421875,888.671875,-56.15234375,0.0
1733977671.152336,-1000.0,969.7265625,895.01953125,-19.04296875,0.0
1733977671.1562417,-1000.0,955.56640625,901.85546875,470.703125,0.0
1733977671.1601474,-1000.0,974.12109375,906.25,782.2265625,0.0
1733977671.164053,-1000.0,969.7265625,903.80859375,548.33984375,0.0
1733977671.1679587,-1000.0,970.21484375,902.34375,87.890625,0.0
1733977671.1718645,-1000.0,969.7265625,903.80859375,64.94140625,0.0
1733977671.1757703,-1000.0,970.21484375,916.015625,483.88671875,0.0
1733977671.1796758,-1000.0,970.21484375,923.33984375,817.3828125,0.0
1733977671.1835816,-969.23828125,969.7265625,922.8515625,666.9921875,0.0
1733977671.1874874,-1000.0,969.7265625,924.8046875,218.75,0.0
1733977671.1913977,0.0,969.7265625,931.15234375,119.140625,0.0
1733977671.1953032,0.0,969.7265625,934.08203125,456.0546875,0.0
1733977671.199209,0.0,969.7265625,932.12890625,811.03515625,0.0
1733977671.2031147,0.0,969.7265625,931.15234375,701.66015625,0.0
1733977671.2070205,0.0,970.21484375,929.19921875,223.14453125,0.0
1733977671.210926,0.0,969.7265625,931.640625,29.78515625,0.0
1733977671.2148318,0.0,969.7265625,927.734375,346.19140625,0.0
1733977671.2187376,0.0,969.7265625,928.7109375,740.234375,0.0
1733977671.2226431,0.0,969.7265625,934.08203125,671.875,0.0
1733977671.226549,0.0,969.7265625,932.6171875,242.1875,0.0
1733977671.2304547,0.0,969.7265625,925.78125,11.23046875,0.0
1733977671.2343605,0.0,969.7265625,926.26953125,236.81640625,0.0
1733977671.238284,958.984375,969.7265625,934.5703125,618.65234375,0.0
1733977671.2421896,971.19140625,969.7265625,926.7578125,608.3984375,0.0
1733977671.2460954,969.23828125,969.7265625,921.875,187.98828125,0.0
1733977671.2500012,973.6328125,969.7265625,922.36328125,-73.73046875,0.0
1733977671.253907,948.73046875,969.7265625,924.31640625,144.53125,0.0
1733977671.2578125,995.60546875,969.7265625,920.41015625,620.1171875,0.0
1733977671.2617183,939.94140625,969.7265625,900.390625,753.41796875,0.0
1733977671.265624,521.484375,969.7265625,888.671875,403.3203125,0.0
1733977671.2695296,702.63671875,970.21484375,885.7421875,111.81640625,0.0
1733977671.2734354,-879.39453125,969.7265625,885.7421875,315.4296875,0.0
1733977671.2773411,615.234375,969.7265625,888.671875,764.16015625,0.0
1733977671.281247,-768.5546875,969.7265625,885.7421875,895.01953125,0.0
1733977671.2851555,0.0,969.7265625,885.25390625,566.40625,0.0
1733977671.2890613,0.0,969.7265625,884.765625,209.47265625,0.0
1733977671.2929668,0.0,969.7265625,886.71875,277.83203125,0.0
1733977671.2968726,0.0,970.21484375,889.6484375,695.80078125,0.0
1733977671.3007784,0.0,969.7265625,893.5546875,886.71875,0.0
1733977671.3046842,0.0,969.7265625,889.6484375,572.75390625,0.0
1733977671.3085897,0.0,970.21484375,897.4609375,241.69921875,0.0
1733977671.3124955,0.0,969.7265625,916.50390625,325.1953125,0.0
1733977671.3164012,0.0,969.7265625,925.29296875,727.5390625,0.0
1733977671.320307,0.0,970.21484375,929.19921875,960.44921875,0.0
1733977671.3242126,0.0,970.21484375,932.12890625,737.79296875,0.0
1733977671.3281183,0.0,969.7265625,939.453125,358.88671875,0.0
1733977671.3320332,-1000.0,970.21484375,944.82421875,351.5625,0.0
1733977671.335939,-1000.0,970.21484375,943.84765625,716.796875,0.0
1733977671.3398447,-1000.0,969.7265625,948.73046875,978.515625,0.0
1733977671.3437502,-1000.0,969.7265625,953.61328125,826.66015625,0.0
1733977671.347656,-1000.0,969.7265625,950.1953125,417.48046875,0.0
1733977671.3515618,-1000.0,969.7265625,950.68359375,337.890625,0.0
1733977671.3554676,-1000.0,969.7265625,955.56640625,673.828125,0.0
1733977671.359373,-1000.0,969.7265625,961.9140625,950.1953125,0.0
1733977671.3632789,-988.28125,969.7265625,956.0546875,812.5,0.0
1733977671.3671846,-1000.0,969.23828125,955.078125,400.87890625,0.0
1733977671.3710902,-1000.0,969.7265625,964.84375,243.65234375,0.0
1733977671.374996,-549.8046875,970.21484375,966.30859375,520.99609375,0.0
1733977671.3789098,-626.953125,969.7265625,967.28515625,839.84375,0.0
1733977671.3828156,-1000.0,969.7265625,965.8203125,739.2578125,0.0
1733977671.3867211,-420.41015625,969.7265625,965.33203125,308.10546875,0.0
1733977671.390627,857.421875,969.7265625,968.75,104.4921875,0.0
1733977671.3945327,-993.1640625,970.21484375,967.7734375,347.65625,0.0
1733977671.3984385,923.33984375,969.7265625,967.28515625,696.77734375,0.0
1733977671.402344,980.95703125,966.796875,969.23828125,650.87890625,0.0
1733977671.4062498,969.23828125,976.5625,970.21484375,220.703125,0.0
1733977671.4101555,969.23828125,903.80859375,966.796875,-28.3203125,0.0
1733977671.414061,968.75,833.49609375,966.30859375,183.10546875,0.0
1733977671.4179668,968.75,808.59375,970.21484375,515.625,0.0
1733977671.4218726,969.23828125,680.6640625,968.75,497.0703125,0.0
1733977671.4257874,0.0,548.33984375,968.26171875,104.00390625,0.0
1733977671.4296932,0.0,487.3046875,969.23828125,-198.2421875,0.0
1733977671.433599,0.0,413.0859375,970.21484375,-68.84765625,0.0
1733977671.4375048,0.0,325.1953125,968.26171875,279.296875,0.0
1733977671.4414103,0.0,219.23828125,964.84375,281.73828125,0.0
1733977671.445316,0.0,158.69140625,967.28515625,-100.09765625,0.0
1733977671.4492218,0.0,121.58203125,966.796875,-399.90234375,0.0
1733977671.4531276,0.0,39.55078125,964.84375,-290.0390625,0.0
1733977671.4570332,0.0,-58.10546875,965.8203125,73.73046875,0.0
1733977671.460939,0.0,-86.42578125,965.33203125,139.6484375,0.0
1733977671.4648447,0.0,-106.93359375,964.84375,-206.0546875,0.0
1733977671.4687505,0.0,-157.71484375,964.84375,-560.05859375,0.0
1733977671.472644,968.75,-153.3203125,964.35546875,-502.9296875,0.0
1733977671.4765496,968.75,-128.41796875,964.35546875,-142.578125,0.0
1733977671.4804554,969.23828125,-155.2734375,961.42578125,19.04296875,0.0
1733977671.4843612,969.23828125,-227.5390625,955.56640625,-238.28125,0.0
1733977671.488267,969.23828125,-258.7890625,956.54296875,-595.703125,0.0
1733977671.4921725,969.23828125,-283.69140625,955.078125,-563.96484375,0.0
1733977671.4960783,968.75,-334.47265625,955.56640625,-178.22265625,0.0
1733977671.499984,968.75,-435.546875,950.68359375,51.7578125,0.0
1733977671.5038898,969.23828125,-634.27734375,941.40625,-141.6015625,0.0
1733977671.5077953,969.23828125,-650.390625,949.21875,-516.6015625,0.0
1733977671.511701,969.23828125,-645.5078125,951.66015625,-543.9453125,0.0
1733977671.5156069,969.23828125,-709.47265625,950.1953125,-205.56640625,0.0
1733977671.5195181,969.23828125,-730.95703125,948.73046875,33.203125,0.0
1733977671.523424,969.23828125,-795.41015625,947.265625,-140.13671875,0.0
1733977671.5273294,968.75,-828.125,942.3828125,-533.69140625,0.0
1733977671.5312352,968.75,-817.3828125,941.40625,-614.74609375,0.0
1733977671.535141,969.23828125,-802.734375,942.3828125,-299.8046875,0.0
1733977671.5390468,969.23828125,-830.56640625,940.4296875,-14.16015625,0.0
1733977671.5429523,968.75,-858.88671875,935.546875,-145.01953125,0.0
1733977671.546858,969.23828125,-866.2109375,928.7109375,-545.41015625,0.0
1733977671.5507638,969.23828125,-772.94921875,935.05859375,-688.4765625,0.0
1733977671.5546694,969.23828125,-734.375,936.5234375,-434.08203125,0.0
1733977671.5585752,968.75,-759.27734375,934.08203125,-118.1640625,0.0
1733977671.562481,969.23828125,-772.94921875,933.59375,-191.40625,0.0
1733977671.5663912,969.23828125,-775.390625,933.10546875,-577.63671875,0.0
1733977671.570297,969.23828125,-730.46875,933.59375,-761.71875,0.0
1733977671.5742028,969.23828125,-747.55859375,931.640625,-494.62890625,0.0
1733977671.5781085,969.23828125,-759.765625,930.17578125,-91.796875,0.0
1733977671.582014,969.23828125,-733.3984375,929.6875,-98.14453125,0.0
1733977671.5859199,969.23828125,-722.65625,924.8046875,-474.12109375,0.0
1733977671.5898256,969.23828125,-683.59375,915.0390625,-662.109375,0.0
1733977671.5937312,968.75,-589.35546875,920.41015625,-437.01171875,0.0
1733977671.597637,969.23828125,-562.01171875,927.24609375,-37.109375,0.0
1733977671.6015427,968.75,-629.39453125,922.36328125,30.2734375,0.0
1733977671.6054485,968.75,-703.125,912.109375,-318.359375,0.0
1733977671.609354,969.23828125,-672.8515625,912.59765625,-586.9140625,0.0
1733977671.6132638,969.23828125,-595.703125,919.921875,-418.45703125,0.0
1733977671.6171696,969.23828125,-581.54296875,917.96875,-10.7421875,0.0
1733977671.6210752,969.23828125,-616.2109375,913.0859375,80.078125,0.0
1733977671.624981,969.23828125,-615.72265625,907.71484375,-233.3984375,0.0
1733977671.6288867,969.23828125,-573.2421875,911.1328125,-559.08203125,0.0
1733977671.6327922,969.23828125,-615.72265625,906.73828125,-453.61328125,0.0
1733977671.636698,968.75,-641.11328125,903.80859375,-18.06640625,0.0
1733977671.6406038,969.23828125,-572.75390625,908.203125,115.72265625,0.0
1733977671.6445096,969.23828125,-574.70703125,904.78515625,-221.19140625,0.0
1733977671.648415,969.23828125,-595.703125,897.94921875,-596.6796875,0.0
1733977671.6523209,969.23828125,-584.47265625,898.4375,-549.8046875,0.0
1733977671.6562266,969.23828125,-533.69140625,905.2734375,-187.5,0.0
1733977671.6601348,968.75,-548.33984375,903.80859375,-18.5546875,0.0
1733977671.6640406,969.7265625,-586.9140625,899.90234375,-299.31640625,0.0
1733977671.6679463,967.28515625,-562.98828125,898.4375,-714.84375,0.0
1733977671.671852,967.7734375,-557.6171875,900.390625,-742.67578125,0.0
1733977671.6757576,974.12109375,-577.63671875,899.90234375,-409.66796875,0.0
1733977671.6796634,891.6015625,-623.53515625,888.18359375,-206.54296875,0.0
1733977671.6835692,835.9375,-626.953125,886.23046875,-428.7109375,0.0
1733977671.687475,932.6171875,-569.82421875,893.5546875,-883.7890625,0.0
1733977671.6913805,971.19140625,-564.94140625,895.99609375,-983.88671875,0.0
1733977671.6952863,982.91015625,-598.6328125,893.06640625,-644.04296875,0.0
1733977671.699192,747.0703125,-588.8671875,889.16015625,-371.58203125,0.0
1733977671.7030978,451.171875,-573.73046875,890.625,-556.640625,0.0
1733977671.7070127,739.74609375,-583.49609375,889.6484375,-931.15234375,0.0
1733977671.7109184,981.4453125,-597.65625,890.13671875,-1000.0,0.0
1733977671.7148242,981.4453125,-572.265625,892.578125,-803.22265625,0.0
1733977671.7187297,678.7109375,-561.5234375,890.13671875,-470.703125,0.0
1733977671.7226355,-76.66015625,-582.51953125,883.7890625,-582.51953125,0.0
1733977671.7265413,-2.9296875,-579.58984375,880.37109375,-931.15234375,0.0
1733977671.730447,812.01171875,-486.328125,884.765625,-1000.0,0.0
1733977671.7343526,-916.015625,-416.50390625,888.671875,-884.765625,0.0
1733977671.7382584,436.5234375,-423.828125,881.8359375,-549.8046875,0.0
1733977671.7421641,-925.78125,-423.33984375,874.51171875,-633.7890625,0.0
1733977671.74607,-914.55078125,-330.078125,881.8359375,-941.40625,0.0
1733977671.7499754,578.125,-254.39453125,885.7421875,-1000.0,0.0
1733977671.7538893,-852.05078125,-258.30078125,882.32421875,-930.6640625,0.0
1733977671.757795,187.98828125,-253.41796875,884.765625,-559.08203125,0.0
1733977671.7617006,-965.8203125,-247.0703125,883.7890625,-537.109375,0.0
1733977671.7656064,-1000.0,-243.65234375,881.34765625,-884.27734375,0.0
1733977671.7695122,112.3046875,-230.95703125,875.9765625,-1000.0,0.0
1733977671.773418,-995.60546875,-221.6796875,874.51171875,-913.57421875,0.0
1733977671.7773235,168.9453125,-200.1953125,881.8359375,-504.39453125,0.0
1733977671.7812293,-955.078125,-183.59375,883.30078125,-388.671875,0.0
1733977671.785135,-1000.0,-213.8671875,871.09375,-721.6796875,0.0
1733977671.7890406,-278.3203125,-194.3359375,871.09375,-976.07421875,0.0
1733977671.7929463,782.2265625,-125.9765625,882.8125,-794.921875,0.0
1733977671.796852,306.15234375,-156.25,878.41796875,-346.19140625,0.0
1733977671.8007648,0.0,-216.796875,875.48828125,-196.2890625,0.0
1733977671.8046706,0.0,-200.68359375,874.51171875,-487.3046875,0.0
1733977671.8085763,0.0,-153.3203125,879.8828125,-810.05859375,0.0
1733977671.812482,0.0,-157.71484375,875.48828125,-697.265625,0.0
1733977671.8163877,0.0,-180.6640625,871.09375,-266.6015625,0.0
1733977671.8202934,0.0,-194.3359375,875.48828125,-61.03515625,0.0
1733977671.8241992,0.0,-168.45703125,875.9765625,-302.24609375,0.0
1733977671.8281047,0.0,-115.234375,872.0703125,-645.5078125,0.0
1733977671.8320105,0.0,-125.9765625,857.91015625,-579.1015625,0.0
1733977671.8359163,0.0,-82.03125,865.72265625,-164.55078125,0.0
1733977671.839822,0.0,-60.546875,874.51171875,71.77734375,0.0
1733977671.8437276,0.0,-99.12109375,871.58203125,-148.92578125,0.0
1733977671.8476398,-781.73828125,-77.63671875,870.60546875,-531.25,0.0
1733977671.8515453,397.94921875,-29.78515625,875.9765625,-528.3203125,0.0
1733977671.855451,560.05859375,-23.92578125,877.9296875,-147.4609375,0.0
1733977671.8593569,-719.7265625,-53.7109375,862.3046875,132.8125,0.0
1733977671.8632627,-1000.0,-57.6171875,861.81640625,-40.0390625,0.0
1733977671.8671682,-888.18359375,-35.15625,865.234375,-436.5234375,0.0
1733977671.871074,93.26171875,-8.7890625,870.1171875,-480.95703125,0.0
1733977671.8749797,375.9765625,-23.4375,855.46875,-116.2109375,0.0
1733977671.8788855,-731.93359375,-29.78515625,846.19140625,191.40625,0.0
1733977671.882791,-1000.0,30.2734375,874.51171875,55.17578125,0.0
1733977671.8866968,-930.17578125,33.203125,870.60546875,-350.09765625,0.0
1733977671.8906026,-0.9765625,16.6015625,868.65234375,-488.28125,0.0
1733977671.8945208,448.73046875,40.0390625,870.1171875,-157.71484375,0.0
1733977671.8984265,-631.34765625,37.109375,872.55859375,209.9609375,0.0
1733977671.9023323,-1000.0,27.34375,860.83984375,108.88671875,0.0
1733977671.9062378,-940.4296875,46.875,854.98046875,-311.5234375,0.0
1733977671.9101436,15.625,79.1015625,866.69921875,-483.3984375,0.0
1733977671.9140494,495.1171875,66.40625,867.67578125,-187.5,0.0
1733977671.9179552,-570.80078125,11.71875,852.5390625,181.640625,0.0
1733977671.9218607,-1000.0,-49.31640625,808.10546875,158.69140625,0.0
1733977671.9257665,-967.7734375,20.99609375,831.0546875,-250.0,0.0
1733977671.9296722,-224.12109375,48.828125,860.83984375,-515.625,0.0
1733977671.933578,446.2890625,56.15234375,861.328125,-286.62109375,0.0
1733977671.9374835,-413.57421875,184.5703125,867.67578125,115.234375,0.0
1733977671.941394,-1000.0,272.4609375,863.76953125,143.06640625,0.0
1733977671.9452999,-994.62890625,233.3984375,862.79296875,-218.75,0.0
1733977671.9492056,-345.703125,198.2421875,854.98046875,-494.62890625,0.0
1733977671.9531112,451.171875,200.1953125,860.3515625,-325.1953125,0.0
1733977671.957017,-223.14453125,181.640625,863.76953125,88.8671875,0.0
1733977671.9609227,-1000.0,86.9140625,848.14453125,187.5,0.0
1733977671.9648285,-1000.0,-29.296875,809.5703125,-140.625,0.0
1733977671.968734,-459.9609375,-44.921875,825.68359375,-458.49609375,0.0
1733977671.9726398,539.55078125,-27.83203125,857.421875,-334.9609375,0.0
1733977671.9765456,109.375,-27.83203125,860.83984375,69.82421875,0.0
1733977671.9804513,-912.109375,-53.22265625,789.0625,218.75,0.0
1733977671.9843569,-1000.0,2.44140625,763.18359375,-70.3125,0.0
1733977671.9882736,-531.25,98.14453125,854.00390625,-423.33984375,0.0
1733977671.9921794,770.99609375,114.2578125,840.33203125,-335.9375,0.0
1733977671.996085,646.484375,118.1640625,829.58984375,64.94140625,0.0
1733977671.9999907,-741.2109375,147.4609375,830.078125,240.72265625,0.0
1733977672.0038965,-1000.0,192.3828125,838.37890625,-24.4140625,0.0
1733977672.0078022,-542.96875,241.69921875,809.5703125,-406.25,0.0
1733977672.0117078,865.234375,270.5078125,744.140625,-373.53515625,0.0
1733977672.0156136,872.0703125,305.17578125,818.359375,0.9765625,0.0
1733977672.0195193,-617.67578125,321.2890625,849.609375,220.21484375,0.0
1733977672.0234249,-1000.0,366.2109375,814.94140625,13.18359375,0.0
1733977672.0273306,-579.1015625,445.3125,841.796875,-397.4609375,0.0
1733977672.0312364,811.03515625,484.375,854.4921875,-455.56640625,0.0
1733977672.0351448,971.19140625,432.6171875,857.91015625,-87.890625,0.0
1733977672.0390506,-475.5859375,339.35546875,835.44921875,187.5,0.0
1733977672.0429564,-1000.0,335.44921875,820.80078125,3.41796875,0.0
1733977672.046862,-613.76953125,346.6796875,838.8671875,-430.6640625,0.0
1733977672.0507677,740.72265625,305.17578125,852.05078125,-551.7578125,0.0
1733977672.0546734,-939.453125,268.06640625,800.78125,-231.4453125,0.0
1733977672.0585792,-198.73046875,242.67578125,798.33984375,86.9140625,0.0
1733977672.0624847,-1000.0,219.23828125,839.84375,-48.828125,0.0
1733977672.0663905,-679.6875,211.9140625,833.0078125,-481.4453125,0.0
1733977672.0702963,667.48046875,215.33203125,792.48046875,-645.01953125,0.0
1733977672.074202,-876.46484375,218.75,796.875,-358.88671875,0.0
1733977672.0781076,274.90234375,205.078125,843.26171875,-14.16015625,0.0
1733977672.0820224,0.0,179.6875,0.0,-87.40234375,0.0
1733977672.0859282,0.0,134.27734375,0.0,-484.375,0.0
1733977672.089834,0.0,128.90625,0.0,-688.96484375,0.0
1733977672.0937397,0.0,158.69140625,0.0,-436.5234375,0.0
1733977672.0976453,0.0,160.15625,0.0,-7.32421875,0.0
1733977672.101551,0.0,162.59765625,0.0,39.55078125,0.0
1733977672.1054568,0.0,250.0,0.0,-318.359375,0.0
1733977672.1093624,0.0,383.30078125,0.0,-575.68359375,0.0
1733977672.1132681,0.0,431.15234375,0.0,-368.1640625,0.0
1733977672.117174,0.0,418.45703125,0.0,72.265625,0.0
1733977672.1210797,0.0,470.21484375,0.0,137.20703125,0.0
1733977672.1249852,0.0,483.3984375,0.0,-221.19140625,0.0
1733977672.128899,808.59375,477.5390625,761.23046875,-516.6015625,0.0
1733977672.1328049,-971.19140625,493.65234375,778.80859375,-352.5390625,0.0
1733977672.1367106,913.57421875,482.91015625,806.640625,71.2890625,0.0
1733977672.1406162,243.1640625,456.0546875,771.484375,179.6875,0.0
1733977672.144522,36.1328125,412.59765625,705.078125,-130.859375,0.0
1733977672.1484277,779.296875,386.23046875,691.40625,-469.7265625,0.0
1733977672.1523335,-975.5859375,412.109375,735.3515625,-370.1171875,0.0
1733977672.156239,944.3359375,405.2734375,778.3203125,39.55078125,0.0
1733977672.1601448,93.75,328.61328125,681.15234375,213.37890625,0.0
1733977672.1640506,-353.515625,319.82421875,651.85546875,-42.96875,0.0
1733977672.1679564,649.90234375,354.00390625,764.16015625,-421.875,0.0
1733977672.171862,-945.3125,328.125,764.6484375,-380.859375,0.0
1733977672.175782,0.0,299.31640625,0.0,37.59765625,0.0
1733977672.1796877,0.0,295.41015625,0.0,269.53125,0.0
1733977672.1835935,0.0,277.34375,0.0,53.22265625,0.0
1733977672.187499,0.0,241.69921875,0.0,-297.8515625,0.0
1733977672.1914048,0.0,225.09765625,0.0,-275.87890625,0.0
1733977672.1953106,0.0,198.2421875,0.0,111.328125,0.0
1733977672.1992164,0.0,181.15234375,0.0,395.01953125,0.0
1733977672.203122,0.0,166.015625,0.0,229.4921875,0.0
1733977672.2070277,0.0,119.140625,0.0,-141.6015625,0.0
1733977672.2109334,0.0,137.20703125,0.0,-184.08203125,0.0
1733977672.2148392,0.0,131.34765625,0.0,145.01953125,0.0
1733977672.2187448,0.0,55.17578125,0.0,438.96484375,0.0
1733977672.222657,-1000.0,-26.3671875,744.140625,322.265625,0.0
1733977672.2265627,-534.66796875,-90.33203125,777.34375,-83.49609375,0.0
1733977672.2304685,801.26953125,-123.046875,792.96875,-209.9609375,0.0
1733977672.234374,-923.828125,-158.69140625,771.97265625,113.28125,0.0
1733977672.2382798,60.05859375,-193.84765625,776.85546875,450.1953125,0.0
1733977672.2421856,-1000.0,-218.75,748.046875,370.1171875,0.0
1733977672.2460914,-742.1875,-192.87109375,745.60546875,-21.484375,0.0
1733977672.249997,657.2265625,-180.17578125,746.09375,-196.77734375,0.0
1733977672.2539027,-867.67578125,-171.38671875,761.23046875,68.84765625,0.0
1733977672.2578084,289.0625,-161.62109375,830.56640625,432.6171875,0.0
1733977672.261714,-1000.0,-174.31640625,785.15625,397.4609375,0.0
1733977672.2656198,-865.234375,-144.04296875,714.35546875,26.85546875,0.0
1733977672.269531,578.125,-1.46484375,751.953125,-173.33984375,0.0
1733977672.2734368,-849.609375,79.1015625,812.01171875,58.10546875,0.0
1733977672.2773423,525.390625,22.4609375,763.18359375,448.73046875,0.0
1733977672.281248,-876.46484375,-22.4609375,719.7265625,476.5625,0.0
1733977672.2851539,-943.359375,-50.78125,734.375,105.46875,0.0
1733977672.2890596,536.62109375,-92.28515625,740.72265625,-166.9921875,0.0
1733977672.2929652,-852.05078125,-87.40234375,714.84375,26.3671875,0.0
1733977672.296871,646.97265625,-104.00390625,668.9453125,429.6875,0.0
1733977672.3007767,-779.296875,-98.14453125,704.58984375,494.62890625,0.0
1733977672.3046825,-1000.0,-89.35546875,736.81640625,145.5078125,0.0
1733977672.308588,453.61328125,-111.328125,741.2109375,-180.6640625,0.0
1733977672.3124938,-862.79296875,-118.1640625,759.765625,-69.3359375,0.0
1733977672.316404,776.3671875,-124.51171875,797.8515625,326.66015625,0.0
1733977672.3203099,-643.06640625,-158.69140625,786.1328125,446.2890625,0.0
1733977672.3242157,-1000.0,-180.17578125,738.28125,135.7421875,0.0
1733977672.3281214,306.15234375,-159.66796875,750.0,-227.5390625,0.0
1733977672.332027,-880.37109375,-166.50390625,774.90234375,-155.76171875,0.0
1733977672.3359327,821.2890625,-207.51953125,763.671875,253.41796875,0.0
1733977672.3398385,-558.59375,-249.0234375,685.546875,438.4765625,0.0
1733977672.3437443,-1000.0,-255.859375,640.625,173.33984375,0.0
1733977672.3476498,72.265625,-210.9375,765.625,-232.91015625,0.0
1733977672.3515556,-938.4765625,-203.61328125,777.34375,-215.8203125,0.0
1733977672.3554614,888.18359375,-196.77734375,752.9296875,173.828125,0.0
1733977672.3593671,-445.3125,-156.25,754.8828125,382.8125,0.0
1733977672.3632836,-1000.0,-155.76171875,736.81640625,154.78515625,0.0
1733977672.3671892,-166.9921875,-189.94140625,730.95703125,-232.421875,0.0
1733977672.371095,972.16796875,-218.75,723.14453125,-275.87890625,0.0
1733977672.3750007,962.890625,-244.62890625,748.046875,71.77734375,0.0
1733977672.3789065,-254.8828125,-279.296875,752.44140625,341.30859375,0.0
1733977672.382812,-1000.0,-304.6875,662.109375,164.0625,0.0
1733977672.3867178,-498.046875,-343.75,643.5546875,-258.7890625,0.0
1733977672.3906236,821.2890625,-320.3125,750.9765625,-371.58203125,0.0
1733977672.394529,-948.73046875,-315.4296875,750.0,-70.3125,0.0
1733977672.3984349,-96.19140625,-358.3984375,687.5,220.703125,0.0
1733977672.4023407,-1000.0,-370.60546875,651.3671875,104.4921875,0.0
1733977672.4062464,-655.2734375,-324.21875,732.91015625,-324.70703125,0.0
1733977672.4101548,706.54296875,-314.94140625,776.3671875,-491.2109375,0.0
1733977672.4140606,-888.18359375,-335.44921875,773.92578125,-223.6328125,0.0
1733977672.4179664,182.6171875,-300.29296875,763.18359375,80.078125,0.0
1733977672.421872,-1000.0,-294.43359375,750.0,-12.20703125,0.0
1733977672.4257777,-813.96484375,-312.01171875,745.1171875,-423.828125,0.0
1733977672.4296834,616.2109375,-326.66015625,698.73046875,-629.39453125,0.0
1733977672.4335892,-855.46875,-328.125,711.42578125,-387.20703125,0.0
1733977672.4374948,371.58203125,-337.40234375,739.74609375,-31.73828125,0.0
1733977672.4414005,-953.125,-381.8359375,725.09765625,-64.453125,0.0
1733977672.4453063,-918.9453125,-408.203125,662.59765625,-433.59375,0.0
1733977672.449212,529.78515625,-370.1171875,661.62109375,-654.296875,0.0
1733977672.4531176,-842.7734375,-334.9609375,745.60546875,-441.89453125,0.0
1733977672.457033,537.109375,-374.51171875,715.33203125,-42.48046875,0.0
1733977672.4609387,-846.6796875,-403.3203125,681.15234375,9.765625,0.0
1733977672.4648445,-996.09375,-376.953125,694.82421875,-327.63671875,0.0
1733977672.46875,449.70703125,-360.83984375,722.65625,-603.02734375,0.0
1733977672.4726558,-842.7734375,-374.0234375,686.5234375,-431.640625,0.0
1733977672.4765615,655.2734375,-393.06640625,619.62890625,17.578125,0.0
1733977672.4804673,-726.5625,-383.30078125,642.578125,122.0703125,0.0
1733977672.4843729,-1000.0,-367.1875,695.3125,-227.5390625,0.0
1733977672.4882786,200.68359375,-385.7421875,659.66796875,-539.55078125,0.0
1733977672.4921844,-866.69921875,-411.1328125,566.89453125,-404.78515625,0.0
1733977672.4960902,701.171875,-373.53515625,668.9453125,-23.92578125,0.0
1733977672.4999957,-660.64453125,-373.53515625,696.2890625,121.58203125,0.0
1733977672.5039098,-1000.0,-394.53125,654.296875,-158.203125,0.0
1733977672.5078154,-240.234375,-378.41796875,674.8046875,-501.46484375,0.0
1733977672.5117211,-991.2109375,-362.79296875,702.1484375,-422.8515625,0.0
1733977672.515627,795.8984375,-368.65234375,682.12890625,-23.92578125,0.0
1733977672.5195327,-633.7890625,-381.8359375,625.48828125,171.38671875,0.0
1733977672.5234382,-1000.0,-383.30078125,603.515625,-67.87109375,0.0
1733977672.527344,-509.27734375,-359.86328125,628.41796875,-433.59375,0.0
1733977672.5312498,872.0703125,-347.65625,674.31640625,-433.10546875,0.0
1733977672.5351555,900.87890625,-378.41796875,622.0703125,-61.03515625,0.0
1733977672.539061,-569.82421875,-375.9765625,626.953125,193.359375,0.0
1733977672.5429668,-1000.0,-362.3046875,643.5546875,-9.765625,0.0
1733977672.5468726,-579.58984375,-369.62890625,625.0,-433.10546875,0.0
1733977672.5507855,784.66796875,-389.16015625,598.14453125,-488.28125,0.0
1733977672.554691,-984.86328125,-367.1875,600.09765625,-116.2109375,0.0
1733977672.5585968,-351.07421875,-350.5859375,646.484375,176.26953125,0.0
1733977672.5625026,-1000.0,-372.55859375,593.26171875,15.625,0.0
1733977672.5664084,-652.34375,-369.62890625,555.6640625,-401.3671875,0.0
1733977672.570314,702.1484375,-344.7265625,579.1015625,-501.46484375,0.0
1733977672.5742197,-907.71484375,-332.03125,601.5625,-161.1328125,0.0
1733977672.5781255,-36.1328125,-349.609375,590.8203125,184.5703125,0.0
1733977672.5820312,-1000.0,-383.7890625,454.1015625,98.6328125,0.0
1733977672.5859368,-753.90625,-350.09765625,541.015625,-310.05859375,0.0
1733977672.5898426,630.37109375,-313.96484375,658.203125,-476.5625,0.0
1733977672.5937483,-863.76953125,-310.546875,627.44140625,-168.45703125,0.0
1733977672.5976605,362.3046875,-297.36328125,641.11328125,205.56640625,0.0
1733977672.6015663,-969.7265625,-294.921875,619.62890625,174.8046875,0.0
1733977672.605472,-845.703125,-288.57421875,597.16796875,-185.05859375,0.0
1733977672.6093779,615.72265625,-279.78515625,586.42578125,-371.58203125,0.0
1733977672.6132834,-875.48828125,-265.625,589.35546875,-112.3046875,0.0
1733977672.6171892,685.546875,-270.99609375,587.890625,321.77734375,0.0
1733977672.621095,-734.86328125,-274.4140625,582.03125,371.58203125,0.0
1733977672.6250007,-914.55078125,-274.4140625,496.58203125,24.4140625,0.0
1733977672.6289062,615.72265625,-263.671875,487.3046875,-189.94140625,0.0
1733977672.632812,-898.92578125,-237.79296875,584.47265625,27.34375,0.0
1733977672.6367178,832.03125,-266.6015625,556.640625,461.42578125,0.0
1733977672.6406236,-238.76953125,-286.1328125,544.43359375,563.96484375,0.0
1733977672.6445346,-482.421875,-264.16015625,542.48046875,230.46875,0.0
1733977672.6484404,705.56640625,-246.09375,566.89453125,-48.33984375,0.0
1733977672.6523461,-944.82421875,-255.859375,538.0859375,123.046875,0.0
1733977672.6562517,907.71484375,-269.04296875,495.60546875,528.80859375,0.0
1733977672.6601574,196.2890625,-269.04296875,519.04296875,645.01953125,0.0
1733977672.6640632,-88.8671875,-276.85546875,473.6328125,360.3515625,0.0
1733977672.667969,750.0,-265.13671875,442.3828125,33.203125,0.0
1733977672.6718745,-963.8671875,-267.08984375,354.98046875,131.34765625,0.0
1733977672.6757803,931.15234375,-242.1875,461.42578125,529.296875,0.0
1733977672.679686,346.6796875,-229.98046875,509.27734375,699.21875,0.0
1733977672.6835918,33.203125,-226.5625,474.12109375,431.640625,0.0
1733977672.6874974,728.515625,-206.0546875,495.1171875,49.31640625,0.0
1733977672.6914077,-977.5390625,-193.359375,489.2578125,120.60546875,0.0
1733977672.6953132,956.0546875,-207.03125,459.9609375,477.5390625,0.0
1733977672.699219,324.21875,-215.8203125,464.35546875,665.0390625,0.0
1733977672.7031248,-267.08984375,-198.73046875,478.02734375,448.73046875,0.0
1733977672.7070305,486.328125,-188.4765625,485.83984375,41.50390625,0.0
1733977672.710936,-969.7265625,-200.68359375,493.1640625,18.5546875,0.0
1733977672.7148418,962.40234375,-210.44921875,445.3125,384.27734375,0.0
1733977672.7187476,236.81640625,-187.5,442.87109375,644.53125,0.0
1733977672.7226534,-676.7578125,-156.25,531.73828125,446.77734375,0.0
1733977672.726559,-20.01953125,-168.45703125,527.34375,22.94921875,0.0
1733977672.7304647,943.359375,-207.51953125,495.60546875,-57.12890625,0.0
1733977672.7343705,-983.3984375,-182.12890625,510.25390625,282.71484375,0.0
1733977672.7382798,328.125,-155.2734375,546.38671875,565.4296875,0.0
1733977672.7421854,-831.54296875,-179.6875,465.33203125,426.7578125,0.0
1733977672.7460911,-517.08984375,-191.40625,417.48046875,35.15625,0.0
1733977672.749997,771.484375,-169.43359375,491.2109375,-101.07421875,0.0
1733977672.7539027,-905.76171875,-167.48046875,502.9296875,193.84765625,0.0
1733977672.7578082,384.27734375,-187.98828125,421.875,547.8515625,0.0
1733977672.761714,-956.0546875,-211.42578125,272.4609375,492.1875,0.0
1733977672.7656198,-816.40625,-174.31640625,419.43359375,79.58984375,0.0
1733977672.7695255,646.484375,-164.55078125,521.484375,-137.20703125,0.0
1733977672.773431,-871.09375,-200.1953125,417.96875,130.37109375,0.0
1733977672.7773368,511.71875,-198.2421875,403.3203125,523.92578125,0.0
1733977672.7812426,-878.90625,-174.31640625,493.65234375,494.140625,0.0
1733977672.785151,-906.73828125,-179.19921875,500.0,104.98046875,0.0
1733977672.7890568,581.0546875,-180.6640625,480.95703125,-121.58203125,0.0
1733977672.7929626,-861.81640625,-154.296875,512.6953125,83.0078125,0.0
1733977672.7968683,678.22265625,-154.78515625,551.26953125,471.19140625,0.0
1733977672.8007739,-750.0,-168.9453125,530.2734375,507.32421875,0.0
1733977672.8046796,-1000.0,-186.5234375,413.0859375,154.78515625,0.0
1733977672.8085854,444.3359375,-168.9453125,421.875,-112.79296875,0.0
1733977672.8124912,-855.95703125,-141.6015625,532.2265625,26.85546875,0.0
1733977672.8163967,740.72265625,-183.10546875,511.23046875,422.8515625,0.0
1733977672.8203025,-677.24609375,-189.94140625,470.21484375,530.2734375,0.0
1733977672.8242083,-1000.0,-155.2734375,479.4921875,185.05859375,0.0
1733977672.828114,312.5,-151.3671875,525.87890625,-171.875,0.0
1733977672.8320286,0.0,-160.64453125,523.4375,-61.03515625,0.0
1733977672.8359342,0.0,-173.33984375,511.71875,355.95703125,0.0
1733977672.83984,0.0,-167.96875,511.23046875,484.86328125,0.0
1733977672.8437457,0.0,-164.0625,502.9296875,180.6640625,0.0
1733977672.8476515,0.0,-159.1796875,470.21484375,-182.12890625,0.0
1733977672.851557,0.0,-167.96875,362.3046875,-105.95703125,0.0
1733977672.8554628,0.0,-156.25,443.359375,289.0625,0.0
1733977672.8593686,0.0,-149.90234375,539.55078125,460.9375,0.0
1733977672.8632743,0.0,-179.6875,437.5,199.70703125,0.0
1733977672.8671799,0.0,-166.50390625,347.16796875,-188.4765625,0.0
1733977672.8710856,0.0,-136.23046875,458.984375,-200.1953125,0.0
1733977672.8749914,0.0,-160.64453125,507.32421875,156.73828125,0.0
1733977672.8789124,-419.43359375,-176.7578125,447.265625,387.6953125,0.0
1733977672.8828182,-1000.0,-170.8984375,336.42578125,177.734375,0.0
1733977672.8867238,-543.45703125,-128.41796875,482.91015625,-261.23046875,0.0
1733977672.8906295,807.12890625,-114.2578125,538.0859375,-321.2890625,0.0
1733977672.8945353,-991.2109375,-124.51171875,472.65625,28.80859375,0.0
1733977672.898441,-329.1015625,-128.41796875,443.84765625,290.0390625,0.0
1733977672.9023466,-1000.0,-117.1875,464.35546875,120.60546875,0.0
1733977672.9062524,-739.2578125,-100.09765625,524.4140625,-288.0859375,0.0
1733977672.9101582,661.62109375,-97.65625,463.8671875,-406.73828125,0.0
1733977672.914064,-915.52734375,-72.75390625,459.47265625,-92.7734375,0.0
1733977672.9179695,-186.03515625,-60.546875,541.9921875,223.14453125,0.0
1733977672.9218752,-1000.0,-70.3125,476.07421875,109.86328125,0.0
1733977672.9257882,-860.83984375,-74.70703125,0.0,-292.96875,0.0
1733977672.929694,526.3671875,-57.6171875,0.0,-452.1484375,0.0
1733977672.9335997,-858.3984375,-49.31640625,0.0,-184.08203125,0.0
1733977672.9375052,18.06640625,-61.5234375,0.0,168.9453125,0.0
1733977672.941411,-1000.0,-88.37890625,0.0,132.32421875,0.0
1733977672.9453168,-939.94140625,-77.1484375,0.0,-247.0703125,0.0
1733977672.9492226,382.8125,-53.7109375,0.0,-447.265625,0.0
1733977672.953128,-847.16796875,-62.5,0.0,-220.21484375,0.0
1733977672.9570339,197.265625,-92.7734375,0.0,166.015625,0.0
1733977672.9609396,-976.5625,-103.515625,0.0,173.828125,0.0
1733977672.9648454,-998.53515625,-89.35546875,0.0,-209.9609375,0.0
1733977672.968751,226.5625,-89.84375,0.0,-454.58984375,0.0
1733977672.9726632,0.0,-109.375,391.6015625,-250.48828125,0.0
1733977672.9765687,0.0,-77.63671875,533.69140625,147.4609375,0.0
1733977672.9804745,0.0,-87.40234375,572.265625,204.1015625,0.0
1733977672.9843802,0.0,-118.1640625,493.1640625,-141.6015625,0.0
1733977672.988286,0.0,-88.8671875,537.109375,-431.15234375,0.0
1733977672.9921916,0.0,-80.56640625,546.875,-285.15625,0.0
1733977672.9960973,0.0,-97.65625,558.59375,133.30078125,0.0
1733977673.000003,0.0,-118.1640625,467.7734375,271.484375,0.0
1733977673.0039089,0.0,-104.00390625,397.4609375,-25.390625,0.0
1733977673.0078144,0.0,-47.36328125,553.7109375,-375.0,0.0
1733977673.0117202,0.0,-52.24609375,573.73046875,-294.921875,0.0
1733977673.015626,0.0,-87.40234375,551.7578125,110.3515625,0.0
1733977673.0195372,-672.8515625,-81.54296875,548.828125,281.25,0.0
1733977673.023443,-1000.0,-76.171875,540.52734375,11.71875,0.0
1733977673.0273488,-443.359375,-86.42578125,523.4375,-369.140625,0.0
1733977673.0312543,896.484375,-82.51953125,480.46875,-339.35546875,0.0
1733977673.03516,886.23046875,-67.3828125,542.48046875,58.59375,0.0
1733977673.0390658,-572.265625,-85.9375,539.55078125,282.71484375,0.0
1733977673.0429716,-1000.0,-100.09765625,466.796875,64.453125,0.0
1733977673.0468771,-564.94140625,-107.91015625,373.53515625,-315.91796875,0.0
1733977673.050783,800.29296875,-77.1484375,504.8828125,-328.61328125,0.0
1733977673.0546887,992.1875,-69.82421875,555.17578125,25.87890625,0.0
1733977673.0585945,-407.2265625,-96.19140625,527.34375,278.80859375,0.0
1733977673.0625,-1000.0,-99.12109375,549.31640625,99.12109375,0.0
1733977673.066411,-614.74609375,-87.890625,552.24609375,-306.640625,0.0
1733977673.0703166,733.88671875,-81.54296875,542.48046875,-369.140625,0.0
1733977673.0742223,-935.546875,-95.21484375,509.765625,-14.16015625,0.0
1733977673.078128,-131.34765625,-104.98046875,512.20703125,287.109375,0.0
1733977673.0820339,-1000.0,-94.23828125,447.265625,145.01953125,0.0
1733977673.0859394,-748.046875,-82.51953125,414.0625,-249.0234375,0.0
1733977673.0898452,640.13671875,-83.49609375,370.1171875,-357.91015625,0.0
1733977673.093751,-876.46484375,-83.49609375,315.91796875,-40.52734375,0.0
1733977673.0976567,145.99609375,-60.05859375,446.2890625,299.31640625,0.0
1733977673.1015623,-1000.0,-69.82421875,415.52734375,222.16796875,0.0
1733977673.105468,-846.19140625,-92.7734375,344.7265625,-157.2265625,0.0
1733977673.1093738,577.63671875,-75.1953125,372.55859375,-333.984375,0.0
1733977673.1132832,-851.07421875,-64.453125,363.76953125,-75.1953125,0.0
1733977673.117189,416.015625,-70.3125,362.3046875,290.0390625,0.0
1733977673.1210945,-922.36328125,-92.28515625,264.16015625,272.4609375,0.0
1733977673.1250002,-924.8046875,-84.47265625,274.4140625,-106.93359375,0.0
1733977673.128906,533.69140625,-69.3359375,311.03515625,-345.21484375,0.0
1733977673.1328118,-846.6796875,-94.23828125,186.5234375,-123.046875,0.0
1733977673.1367173,560.546875,-122.55859375,-47.36328125,286.62109375,0.0
1733977673.140623,-825.1953125,-85.9375,121.09375,315.91796875,0.0
1733977673.1445289,-1000.0,-71.77734375,228.02734375,-51.7578125,0.0
1733977673.1484346,437.01171875,-79.1015625,98.14453125,-327.63671875,0.0
1733977673.1523402,-856.93359375,-59.08203125,131.8359375,-159.1796875,0.0
1733977673.156246,747.0703125,-48.33984375,208.0078125,250.9765625,0.0
1733977673.1601543,-665.52734375,-49.31640625,156.73828125,342.28515625,0.0
1733977673.16406,-1000.0,-52.24609375,-38.57421875,17.08984375,0.0
1733977673.167966,294.921875,-47.36328125,-104.98046875,-297.36328125,0.0
1733977673.1718717,-878.41796875,-33.69140625,-19.04296875,-182.6171875,0.0
1733977673.1757772,804.19921875,-7.8125,58.59375,243.65234375,0.0
1733977673.179683,-575.1953125,-28.80859375,-202.1484375,404.78515625,0.0
1733977673.1835887,-1000.0,-38.57421875,-333.984375,120.1171875,0.0
1733977673.1874945,27.83203125,1.953125,-162.59765625,-236.328125,0.0
1733977673.1914,-936.5234375,7.32421875,-157.2265625,-183.59375,0.0
1733977673.1953058,848.14453125,-15.625,-254.39453125,228.02734375,0.0
1733977673.1992116,-520.5078125,-25.390625,-275.390625,450.1953125,0.0
1733977673.2031174,-1000.0,-27.34375,-285.15625,203.61328125,0.0
1733977673.2070324,-265.625,-33.69140625,-324.21875,-178.22265625,0.0
1733977673.2109382,955.56640625,-30.76171875,-395.5078125,-169.921875,0.0
1733977673.214844,928.22265625,-8.30078125,-297.8515625,197.75390625,0.0
1733977673.2187498,-422.8515625,-10.7421875,-254.39453125,425.29296875,0.0
1733977673.2226553,-1000.0,-27.34375,-377.44140625,226.07421875,0.0
1733977673.226561,-569.3359375,-40.0390625,-532.2265625,-154.78515625,0.0
1733977673.2304668,792.96875,-20.01953125,-470.21484375,-211.9140625,0.0
1733977673.2343726,-983.88671875,1.46484375,-322.75390625,118.1640625,0.0
1733977673.2382782,-322.75390625,-20.99609375,-372.0703125,387.6953125,0.0
1733977673.242184,-1000.0,-48.828125,-605.46875,237.79296875,0.0
1733977673.2460897,-729.98046875,-16.6015625,-444.82421875,-177.734375,0.0
1733977673.2499955,666.9921875,5.859375,-308.59375,-302.24609375,0.0
1733977673.2539232,-915.0390625,-1.953125,-397.94921875,162.109375,0.0
1733977673.2578287,-158.203125,-18.5546875,-379.39453125,-225.09765625,0.0
1733977673.2617345,-1000.0,-28.80859375,-394.04296875,-497.55859375,0.0
1733977673.2656403,-833.0078125,-34.1796875,-429.6875,-312.01171875,0.0
1733977673.269546,569.3359375,-30.76171875,-435.546875,91.30859375,0.0
1733977673.2734516,-864.74609375,-28.80859375,-443.359375,151.3671875,0.0
1733977673.2773573,27.34375,-15.625,-360.3515625,-190.4296875,0.0
1733977673.281263,-1000.0,-17.578125,-384.765625,-492.1875,0.0
1733977673.285169,-928.22265625,-36.62109375,-487.79296875,-349.609375,0.0
1733977673.2890744,431.640625,-19.04296875,-449.70703125,51.7578125,0.0
1733977673.2929802,-834.9609375,1.953125,-357.421875,157.71484375,0.0
1733977673.296886,197.265625,-6.34765625,-337.890625,-159.1796875,0.0
1733977673.3008068,-972.16796875,-43.9453125,-532.71484375,0.0,0.0
1733977673.3047125,-1000.0,-22.94921875,-523.4375,0.0,0.0
1733977673.3086183,203.125,8.30078125,-385.25390625,0.0,0.0
1733977673.312524,-864.2578125,-5.859375,-401.85546875,0.0,0.0
1733977673.3164299,326.66015625,-22.4609375,-476.07421875,0.0,0.0
1733977673.3203354,-903.3203125,-30.76171875,-531.73828125,0.0,0.0
1733977673.3242412,-1000.0,-22.4609375,-511.71875,0.0,0.0
1733977673.328147,-119.140625,-6.34765625,-485.3515625,0.0,0.0
1733977673.3320527,-969.23828125,-10.7421875,-560.05859375,0.0,0.0
1733977673.3359582,510.7421875,-8.7890625,-510.7421875,0.0,0.0
1733977673.339864,-820.80078125,-8.30078125,-457.03125,0.0,0.0
1733977673.3437698,-1000.0,-34.1796875,-584.47265625,0.0,0.0
1733977673.3476818,-512.6953125,-39.55078125,-641.11328125,-482.421875,0.0
1733977673.3515875,718.75,-1.953125,-508.30078125,-382.8125,0.0
1733977673.3554933,583.984375,3.90625,-422.8515625,9.765625,0.0
1733977673.3593988,-775.390625,-18.06640625,-532.2265625,177.734375,0.0
1733977673.3633046,-1000.0,-11.71875,-590.33203125,-80.56640625,0.0
1733977673.3672104,-637.20703125,-5.37109375,-548.33984375,-427.734375,0.0
1733977673.3711162,497.55859375,8.30078125,-519.53125,-399.4140625,0.0
1733977673.3750217,584.47265625,3.41796875,-527.83203125,-27.83203125,0.0
1733977673.3789275,-700.1953125,-10.7421875,-504.39453125,193.84765625,0.0
1733977673.3828332,-1000.0,-2.44140625,-480.46875,-40.0390625,0.0
1733977673.386739,-778.80859375,-6.8359375,-479.98046875,-429.19921875,0.0
1733977673.3906446,575.68359375,-32.2265625,-589.84375,-437.01171875,0.0
1733977673.3945558,896.484375,-25.87890625,-572.265625,-62.5,0.0
1733977673.3984616,-567.87109375,1.46484375,-400.87890625,183.10546875,0.0
1733977673.4023674,-1000.0,-22.94921875,-446.77734375,4.39453125,0.0
1733977673.4062731,-791.50390625,-36.62109375,-571.2890625,-379.39453125,0.0
1733977673.4101787,636.71875,-27.34375,-523.4375,-457.51953125,0.0
1733977673.4140844,-969.23828125,-23.4375,-433.10546875,-118.65234375,0.0
1733977673.4179902,-438.4765625,-32.71484375,-453.125,195.80078125,0.0
1733977673.421896,-1000.0,-50.78125,-620.60546875,86.42578125,0.0
1733977673.4258015,-809.5703125,-24.4140625,-507.32421875,-316.89453125,0.0
1733977673.4297073,573.2421875,-14.6484375,-375.0,-448.2421875,0.0
1733977673.433613,-886.23046875,-17.08984375,-384.27734375,-125.0,0.0
1733977673.4375188,-113.76953125,-12.20703125,-304.6875,225.09765625,0.0
1733977673.4414291,0.0,-11.71875,-305.17578125,143.06640625,0.0
1733977673.445335,0.0,-16.11328125,-355.95703125,-250.0,0.0
1733977673.4492407,0.0,-17.578125,-380.37109375,-435.05859375,0.0
1733977673.4531465,0.0,-17.08984375,-296.38671875,-187.01171875,0.0
1733977673.457052,0.0,-29.296875,-238.28125,188.96484375,0.0
1733977673.4609578,0.0,-43.9453125,-363.76953125,168.45703125,0.0
1733977673.4648635,0.0,-54.19921875,-455.56640625,-200.68359375,0.0
1733977673.4687693,0.0,-50.29296875,-452.1484375,-416.50390625,0.0
1733977673.4726748,0.0,-5.37109375,-244.140625,-219.23828125,0.0
1733977673.4765806,0.0,-10.25390625,-146.484375,159.66796875,0.0
1733977673.4804864,0.0,-41.9921875,-284.1796875,200.68359375,0.0
1733977673.4843922,0.0,-30.2734375,-304.6875,-161.62109375,0.0
1733977673.4882815,-1000.0,-10.25390625,-106.93359375,-448.2421875,0.0
1733977673.492187,-824.21875,-21.484375,41.9921875,-284.66796875,0.0
1733977673.4960928,553.22265625,-44.921875,-91.30859375,113.76953125,0.0
1733977673.4999986,-844.7265625,-35.64453125,-38.0859375,194.82421875,0.0
1733977673.5039043,339.84375,-21.97265625,41.015625,-144.04296875,0.0
1733977673.5078099,-959.47265625,-32.71484375,-154.78515625,-445.80078125,0.0
1733977673.5117157,-917.96875,-47.36328125,-397.4609375,-312.01171875,0.0
1733977673.5156214,517.08984375,-15.13671875,-107.91015625,71.77734375,0.0
1733977673.5195272,-847.16796875,-11.23046875,94.7265625,201.66015625,0.0
1733977673.5234327,613.28125,-36.1328125,-224.12109375,-93.26171875,0.0
1733977673.5273385,-806.15234375,-20.01953125,-219.23828125,-449.21875,0.0
1733977673.5312443,-996.58203125,3.41796875,37.59765625,-386.71875,0.0
1733977673.5351527,845.703125,1.953125,173.33984375,5.37109375,0.0
1733977673.5390584,-532.2265625,-23.92578125,49.31640625,194.82421875,0.0
1733977673.5429642,-1000.0,-27.34375,-76.66015625,-61.5234375,0.0
1733977673.5468698,-246.58203125,-7.8125,70.3125,-446.77734375,0.0
1733977673.5507755,977.05078125,-0.48828125,158.69140625,-433.59375,0.0
1733977673.5546813,899.90234375,-27.34375,-23.92578125,-41.50390625,0.0
1733977673.558587,-491.69921875,-36.1328125,-187.01171875,215.8203125,0.0
1733977673.5624926,-1000.0,-14.6484375,-29.296875,10.7421875,0.0
1733977673.5663984,-506.34765625,-12.6953125,112.79296875,-389.16015625,0.0
1733977673.5703042,822.265625,-24.90234375,-4.8828125,-443.84765625,0.0
1733977673.57421,-992.67578125,-17.578125,-24.90234375,-79.58984375,0.0
1733977673.5781155,-317.87109375,-11.71875,138.671875,204.58984375,0.0
1733977673.5820303,-1000.0,-26.3671875,104.00390625,53.22265625,0.0
1733977673.585936,-681.640625,-41.9921875,-93.26171875,-326.171875,0.0
1733977673.5898418,689.94140625,-24.4140625,1.46484375,-425.29296875,0.0
1733977673.5937476,-908.69140625,-6.34765625,210.44921875,-122.55859375,0.0
1733977673.5976532,-66.89453125,-25.390625,163.57421875,205.078125,0.0
1733977673.601559,-1000.0,-52.24609375,-153.3203125,134.765625,0.0
1733977673.6054647,-780.2734375,-36.1328125,-127.9296875,-251.46484375,0.0
1733977673.6093705,621.09375,-9.765625,215.8203125,-427.24609375,0.0
1733977673.613276,-865.72265625,-31.25,161.1328125,-145.99609375,0.0
1733977673.6171818,176.26953125,-74.70703125,-139.6484375,245.1171875,0.0
1733977673.6210876,-1000.0,-45.41015625,61.03515625,182.6171875,0.0
1733977673.6249933,-847.16796875,-30.76171875,203.61328125,-208.49609375,0.0
1733977673.628914,572.265625,-41.50390625,175.29296875,-401.85546875,0.0
1733977673.63282,-851.5625,-33.69140625,247.0703125,-171.875,0.0
1733977673.6367257,535.15625,-28.3203125,258.30078125,229.4921875,0.0
1733977673.6406314,-863.28125,-36.62109375,220.21484375,235.83984375,0.0
1733977673.644537,-948.73046875,-48.33984375,122.55859375,-119.62890625,0.0
1733977673.6484427,530.2734375,-41.9921875,141.11328125,-343.75,0.0
1733977673.6523485,-862.3046875,-29.296875,191.89453125,-146.97265625,0.0
1733977673.6562543,726.07421875,-14.16015625,273.4375,262.20703125,0.0
1733977673.6601598,-718.75,-40.52734375,112.3046875,340.33203125,0.0
1733977673.6640656,-1000.0,-54.19921875,-44.921875,19.53125,0.0
1733977673.6679714,483.3984375,-5.37109375,255.37109375,-262.20703125,0.0
1733977673.6718771,-885.7421875,-4.8828125,284.66796875,-125.48828125,0.0
1733977673.67579,836.42578125,-31.73828125,214.35546875,282.2265625,0.0
1733977673.6796956,-518.06640625,-31.25,258.7890625,409.1796875,0.0
1733977673.6836014,-1000.0,-28.3203125,223.14453125,98.6328125,0.0
1733977673.6875072,374.51171875,-33.203125,225.09765625,-219.23828125,0.0
1733977673.691413,-895.99609375,-42.48046875,170.41015625,-94.23828125,0.0
1733977673.6953185,872.55859375,-37.59765625,177.24609375,294.43359375,0.0
1733977673.6992242,-368.65234375,-24.90234375,236.328125,444.3359375,0.0
1733977673.70313,-1000.0,-28.80859375,184.08203125,163.0859375,0.0
1733977673.7070358,110.3515625,-42.48046875,61.5234375,-201.171875,0.0
1733977673.7109413,-943.359375,-29.296875,196.2890625,-151.3671875,0.0
1733977673.714847,915.52734375,-8.30078125,345.703125,203.61328125,0.0
1733977673.7187529,-242.67578125,-24.90234375,269.04296875,413.57421875,0.0
1733977673.7226648,-1000.0,-63.4765625,-36.62109375,214.84375,0.0
1733977673.7265706,-245.60546875,-17.578125,180.6640625,-193.359375,0.0
1733977673.7304764,970.703125,2.44140625,378.41796875,-233.88671875,0.0
1733977673.7343822,949.70703125,-21.97265625,293.45703125,123.53515625,0.0
1733977673.7382877,-320.80078125,-24.4140625,322.75390625,359.375,0.0
1733977673.7421935,-1000.0,-33.203125,247.55859375,161.62109375,0.0
1733977673.7460992,-592.7734375,-29.296875,262.6953125,-227.5390625,0.0
1733977673.750005,766.11328125,-35.15625,245.60546875,-306.15234375,0.0
1733977673.7539105,-953.61328125,-44.43359375,210.9375,3.90625,0.0
1733977673.7578163,-206.0546875,-34.66796875,343.26171875,272.4609375,0.0
1733977673.761722,-1000.0,-53.7109375,288.57421875,155.2734375,0.0
1733977673.7656279,-764.16015625,-79.58984375,190.4296875,-232.421875,0.0
1733977673.769539,626.953125,-58.59375,286.1328125,-388.671875,0.0
1733977673.7734447,-879.39453125,-40.52734375,350.5859375,-113.28125,0.0
1733977673.7773504,38.57421875,-59.08203125,295.41015625,213.8671875,0.0
1733977673.7812562,-1000.0,-80.078125,189.453125,141.11328125,0.0
1733977673.785162,-845.21484375,-72.75390625,225.09765625,-246.58203125,0.0
1733977673.7890675,572.75390625,-70.80078125,258.30078125,-430.6640625,0.0
1733977673.7929733,-850.5859375,-80.56640625,197.75390625,-182.12890625,0.0
1733977673.796879,204.58984375,-107.421875,66.40625,179.19921875,0.0
1733977673.8007848,-1000.0,-102.5390625,190.91796875,157.71484375,0.0
1733977673.8046904,-910.64453125,-90.8203125,281.73828125,-216.796875,0.0
1733977673.8085961,494.62890625,-87.890625,317.87109375,-449.21875,0.0
1733977673.812502,-838.8671875,-86.9140625,345.703125,-281.25,0.0
1733977673.8164122,499.51171875,-100.5859375,361.328125,74.21875,0.0
1733977673.820318,-850.09765625,-115.234375,334.47265625,120.1171875,0.0
1733977673.8242238,-1000.0,-125.0,252.44140625,-221.6796875,0.0
1733977673.8281293,388.18359375,-107.91015625,328.61328125,-491.2109375,0.0
1733977673.832035,-846.6796875,-97.65625,375.9765625,-347.65625,0.0
1733977673.8359408,671.875,-113.76953125,312.98828125,42.48046875,0.0
1733977673.8398466,-730.46875,-123.53515625,232.91015625,157.71484375,0.0
1733977673.8437521,-1000.0,-108.3984375,250.0,-147.4609375,0.0
1733977673.847658,271.484375,-84.47265625,348.6328125,-464.84375,0.0
1733977673.8515637,-871.09375,-81.0546875,336.42578125,-331.54296875,0.0
1733977673.8554695,770.01953125,-98.6328125,281.25,90.8203125,0.0
1733977673.859375,-624.51171875,-91.30859375,282.71484375,235.3515625,0.0
1733977673.8632846,-1000.0,-79.1015625,272.4609375,-31.25,0.0
1733977673.8671904,43.45703125,-75.68359375,255.37109375,-363.76953125,0.0
1733977673.8710961,-935.05859375,-59.5703125,196.77734375,-293.9453125,0.0
1733977673.8750017,850.09765625,-29.78515625,247.55859375,113.28125,0.0
1733977673.8789074,-517.578125,-19.53125,257.8125,319.82421875,0.0
1733977673.8828132,-1000.0,-45.41015625,78.61328125,98.14453125,0.0
1733977673.886719,-270.5078125,-59.08203125,-223.6328125,-237.79296875,0.0
1733977673.8906245,944.82421875,-14.16015625,-42.48046875,-249.51171875,0.0
1733977673.8945303,938.4765625,5.859375,195.80078125,85.9375,0.0
1733977673.898436,-407.71484375,-24.4140625,5.859375,319.3359375,0.0
1733977673.9023418,-1000.0,-31.73828125,-106.4453125,118.65234375,0.0
1733977673.9062474,-460.9375,-22.4609375,19.53125,-295.41015625,0.0
1733977673.910156,0.0,-26.3671875,103.02734375,-374.0234375,0.0
1733977673.9140615,0.0,-40.0390625,13.18359375,-50.78125,0.0
1733977673.9179673,0.0,-49.8046875,-39.0625,207.03125,0.0
1733977673.921873,0.0,-53.7109375,-91.796875,32.2265625,0.0
1733977673.9257789,0.0,-58.10546875,-212.40234375,-397.94921875,0.0
1733977673.9296844,0.0,-76.171875,-306.15234375,-550.29296875,0.0
1733977673.9335902,0.0,-67.87109375,-291.015625,-267.08984375,0.0
1733977673.937496,0.0,-44.921875,-208.49609375,24.90234375,0.0
1733977673.9414017,0.0,-64.453125,-346.6796875,-132.32421875,0.0
1733977673.9453073,0.0,-88.8671875,-618.65234375,-580.078125,0.0
1733977673.949213,0.0,-67.87109375,-644.53125,-788.0859375,0.0
1733977673.9531188,0.0,-48.33984375,-616.2109375,-584.9609375,0.0
1733977673.9570336,-125.9765625,-67.87109375,-777.34375,-276.3671875,0.0
1733977673.9609394,-1000.0,-98.14453125,-966.796875,-389.16015625,0.0
1733977673.9648452,-947.265625,-94.23828125,-1000.0,-826.66015625,0.0
1733977673.968751,223.14453125,-78.61328125,-993.65234375,-1000.0,0.0
1733977673.9726565,-924.31640625,-81.54296875,-1000.0,-950.68359375,0.0
1733977673.9765623,140.625,-102.5390625,-1000.0,-761.23046875,0.0
1733977673.980468,-1000.0,-102.5390625,-1000.0,-861.328125,0.0
1733977673.9843738,-974.12109375,-74.70703125,-1000.0,-1000.0,0.0
1733977673.9882793,271.97265625,-83.984375,-1000.0,-994.140625,0.0
1733977673.992185,-851.07421875,-108.88671875,-1000.0,-999.0234375,0.0
1733977673.996091,523.92578125,-81.0546875,-1000.0,-1000.0,0.0
1733977673.9999967,-800.29296875,-75.1953125,-1000.0,-1000.0,0.0
1733977674.0039103,-1000.0,-95.703125,-1000.0,-1000.0,0.0
1733977674.007816,9.27734375,-82.03125,-1000.0,-1000.0,0.0
1733977674.0117218,-921.38671875,-53.22265625,-1000.0,-1000.0,0.0
1733977674.0156276,680.17578125,-58.10546875,-1000.0,-1000.0,0.0
1733977674.0195332,-705.078125,-75.1953125,-1000.0,-1000.0,0.0
1733977674.023439,-1000.0,-79.1015625,-1000.0,-1000.0,0.0
1733977674.0273447,-264.16015625,-54.19921875,-1000.0,-1000.0,0.0
1733977674.0312505,934.5703125,-33.69140625,-1000.0,-1000.0,0.0
1733977674.035156,561.03515625,-52.734375,-1000.0,-1000.0,0.0
1733977674.0390618,-849.609375,-52.734375,-1000.0,-1000.0,0.0
1733977674.0429676,-1000.0,-35.64453125,-1000.0,-1000.0,0.0
1733977674.0468733,-923.828125,-44.921875,-1000.0,-1000.0,0.0
1733977674.0507867,-985.83984375,-92.28515625,-1000.0,-1000.0,0.0
1733977674.0546925,-1000.0,-99.609375,-1000.0,-1000.0,0.0
1733977674.0585983,-1000.0,-95.21484375,-1000.0,-1000.0,0.0
1733977674.0625038,-1000.0,-128.90625,-1000.0,-1000.0,0.0
1733977674.0664096,-1000.0,-145.99609375,-1000.0,-1000.0,0.0
1733977674.0703154,-1000.0,-153.80859375,-1000.0,-1000.0,0.0
1733977674.0742211,-1000.0,-146.484375,-1000.0,-1000.0,0.0
1733977674.0781267,-1000.0,-124.51171875,-1000.0,-1000.0,0.0
1733977674.0820324,-1000.0,-138.671875,-1000.0,-1000.0,0.0
1733977674.0859382,-1000.0,-97.16796875,-1000.0,-1000.0,0.0
1733977674.089844,-1000.0,-41.9921875,-1000.0,-1000.0,0.0
1733977674.0937495,-1000.0,-41.015625,-1000.0,-1000.0,0.0
1733977674.0976622,0.0,-28.80859375,-1000.0,-1000.0,0.0
1733977674.101568,0.0,-17.578125,-1000.0,-1000.0,0.0
1733977674.1054738,0.0,13.18359375,-1000.0,-1000.0,0.0
1733977674.1093793,0.0,83.0078125,-1000.0,-1000.0,0.0
1733977674.113285,0.0,125.0,-1000.0,-1000.0,0.0
1733977674.1171908,0.0,113.28125,-1000.0,-1000.0,0.0
1733977674.1210966,0.0,107.421875,-1000.0,-1000.0,0.0
1733977674.1250024,0.0,97.65625,-1000.0,-1000.0,0.0
1733977674.128908,0.0,105.46875,-1000.0,-1000.0,0.0
1733977674.1328137,0.0,140.13671875,-1000.0,-1000.0,0.0
1733977674.1367195,0.0,112.3046875,-1000.0,-1000.0,0.0
1733977674.1406252,0.0,68.84765625,-1000.0,-1000.0,0.0
1733977674.144537,-1000.0,30.2734375,-1000.0,-1000.0,0.0
1733977674.1484425,-418.45703125,-55.6640625,-1000.0,-1000.0,0.0
1733977674.1523483,272.4609375,-142.578125,-1000.0,-1000.0,0.0
1733977674.156254,-433.10546875,-195.80078125,-1000.0,-1000.0,0.0
1733977674.1601598,-1000.0,-204.58984375,-1000.0,-1000.0,0.0
1733977674.1640654,-1000.0,-208.49609375,-1000.0,-1000.0,0.0
1733977674.1679711,-536.62109375,-201.171875,-1000.0,-1000.0,0.0
1733977674.171877,130.37109375,-203.61328125,-1000.0,-1000.0,0.0
1733977674.1757827,-446.2890625,-170.8984375,-1000.0,-1000.0,0.0
1733977674.1796882,-1000.0,-172.36328125,-1000.0,-1000.0,0.0
1733977674.183594,-979.4921875,-218.26171875,-1000.0,-1000.0,0.0
1733977674.1874998,-991.69921875,-221.6796875,-1000.0,-1000.0,0.0
1733977674.191411,0.0,-206.0546875,-1000.0,-1000.0,0.0
1733977674.1953168,0.0,-233.3984375,-1000.0,-1000.0,0.0
1733977674.1992226,0.0,-358.88671875,-1000.0,-1000.0,0.0
1733977674.2031283,0.0,-504.8828125,-1000.0,-1000.0,0.0
1733977674.2070339,0.0,-627.9296875,-1000.0,-1000.0,0.0
1733977674.2109396,0.0,-750.9765625,-1000.0,-1000.0,0.0
1733977674.2148454,0.0,-850.5859375,-1000.0,-1000.0,0.0
1733977674.2187512,0.0,-874.0234375,-1000.0,-1000.0,0.0
1733977674.2226567,0.0,-808.10546875,-1000.0,-1000.0,0.0
1733977674.2265625,0.0,-815.91796875,-1000.0,-1000.0,0.0
1733977674.2304683,0.0,-810.05859375,-1000.0,-1000.0,0.0
1733977674.234374,0.0,-690.91796875,-1000.0,-1000.0,0.0
1733977674.238264,-1000.0,-578.125,-1000.0,-1000.0,0.0
1733977674.2421699,-1000.0,-400.390625,-1000.0,-1000.0,0.0
1733977674.2460756,-1000.0,213.8671875,-1000.0,-1000.0,0.0
1733977674.2499814,-1000.0,864.2578125,-1000.0,-1000.0,0.0
1733977674.253887,-1000.0,981.4453125,-1000.0,-1000.0,0.0
1733977674.2577927,-1000.0,952.1484375,-1000.0,-1000.0,0.0
1733977674.2616985,-1000.0,974.12109375,-1000.0,-997.0703125,0.0
1733977674.2656043,-1000.0,970.21484375,-1000.0,-988.76953125,0.0
1733977674.2695098,-1000.0,970.21484375,-1000.0,-1000.0,0.0
1733977674.2734156,-1000.0,970.21484375,-1000.0,-711.42578125,0.0
1733977674.2773213,-1000.0,971.6796875,-1000.0,-120.1171875,0.0
1733977674.281227,-1000.0,964.35546875,-1000.0,147.94921875,0.0
1733977674.2851353,-935.546875,958.49609375,-1000.0,62.01171875,0.0
1733977674.289041,92.28515625,908.203125,-1000.0,169.43359375,0.0
1733977674.2929468,-947.265625,439.453125,-1000.0,643.06640625,0.0
1733977674.2968526,243.65234375,-401.85546875,-1000.0,956.0546875,0.0
1733977674.3007581,-1000.0,-842.28515625,-1000.0,965.8203125,0.0
1733977674.304664,-816.40625,-912.59765625,-1000.0,963.8671875,0.0
1733977674.3085697,639.16015625,-396.484375,-1000.0,972.16796875,0.0
1733977674.3124754,-924.31640625,644.04296875,-1000.0,969.7265625,0.0
1733977674.316381,860.3515625,-998.046875,-999.51171875,969.7265625,0.0
1733977674.3202868,-37.59765625,938.96484375,-999.0234375,969.7265625,0.0
1733977674.3241925,-468.26171875,971.6796875,-1000.0,969.7265625,0.0
1733977674.3280983,694.82421875,971.19140625,-971.19140625,969.7265625,0.0
1733977674.3320198,-927.734375,970.21484375,-918.9453125,969.7265625,0.0
1733977674.3359256,894.53125,970.21484375,-889.16015625,969.7265625,0.0
1733977674.3398314,701.171875,969.7265625,-854.4921875,969.7265625,0.0
1733977674.343737,641.6015625,970.21484375,-879.39453125,969.7265625,0.0
1733977674.3476427,924.8046875,969.23828125,-878.41796875,969.7265625,0.0
1733977674.3515484,985.3515625,969.23828125,-877.44140625,969.23828125,0.0
1733977674.3554542,956.0546875,962.890625,-752.44140625,969.23828125,0.0
1733977674.3593597,972.16796875,980.46875,-793.45703125,969.7265625,0.0
1733977674.3632655,969.23828125,952.63671875,-960.9375,969.7265625,0.0
1733977674.3671713,969.23828125,855.95703125,-987.3046875,969.7265625,0.0
1733977674.371077,969.23828125,941.40625,-892.578125,969.7265625,0.0
1733977674.3749826,969.23828125,984.375,-755.37109375,969.7265625,0.0
1733977674.3789036,968.75,961.42578125,-810.546875,969.7265625,0.0
1733977674.3828094,969.23828125,970.703125,-908.69140625,969.7265625,0.0
1733977674.3867152,969.23828125,969.23828125,-877.44140625,969.7265625,0.0
1733977674.3906207,968.75,971.6796875,-829.1015625,969.7265625,0.0
1733977674.3945265,969.23828125,960.9375,-770.99609375,969.7265625,0.0
1733977674.3984323,969.23828125,951.66015625,-756.8359375,969.7265625,0.0
1733977674.402338,969.23828125,956.54296875,-807.6171875,969.7265625,0.0
1733977674.4062436,970.703125,972.16796875,-788.0859375,969.7265625,0.0
1733977674.4101493,967.7734375,945.80078125,-730.95703125,969.7265625,0.0
1733977674.414055,952.1484375,940.91796875,-482.91015625,969.7265625,0.0
1733977674.417961,-980.95703125,970.703125,-300.29296875,969.7265625,0.0
1733977674.4218667,675.78125,965.8203125,-459.9609375,969.7265625,0.0
1733977674.4257867,536.62109375,893.06640625,-565.91796875,969.7265625,0.0
1733977674.4296923,943.84765625,909.1796875,-386.23046875,969.7265625,0.0
1733977674.433598,979.00390625,974.12109375,-14.6484375,969.7265625,0.0
1733977674.4375038,853.02734375,996.58203125,209.9609375,969.7265625,0.0
1733977674.4414096,-216.30859375,689.94140625,-120.1171875,969.7265625,0.0
1733977674.4453151,-739.2578125,554.19921875,-282.71484375,969.7265625,0.0
1733977674.449221,620.1171875,938.4765625,147.94921875,971.19140625,0.0
1733977674.4531267,-842.7734375,963.8671875,393.5546875,966.30859375,0.0
1733977674.4570324,271.97265625,799.8046875,381.34765625,964.84375,0.0
1733977674.460938,-889.6484375,891.11328125,428.22265625,975.09765625,0.0
1733977674.4648438,-1000.0,994.140625,478.02734375,782.2265625,0.0
1733977674.4687495,21.97265625,934.5703125,483.88671875,527.83203125,0.0
1733977674.4726617,0.0,730.46875,465.33203125,625.48828125,0.0
1733977674.4765675,0.0,882.8125,631.8359375,842.28515625,0.0
1733977674.480473,0.0,947.75390625,622.0703125,869.140625,0.0
1733977674.4843788,0.0,826.171875,566.40625,740.72265625,0.0
1733977674.4882846,0.0,913.0859375,637.6953125,636.71875,0.0
1733977674.4921904,0.0,965.33203125,692.87109375,805.17578125,0.0
1733977674.4960961,0.0,961.9140625,792.96875,969.7265625,0.0
1733977674.5000017,0.0,944.3359375,785.64453125,969.23828125,0.0
1733977674.5039074,0.0,943.359375,751.46484375,962.890625,0.0
1733977674.5078132,0.0,968.26171875,809.08203125,947.75390625,0.0
1733977674.511719,0.0,984.86328125,842.7734375,962.890625,0.0
1733977674.5156245,0.0,918.45703125,837.890625,972.65625,0.0
1733977674.519536,533.203125,887.20703125,834.9609375,968.26171875,0.0
1733977674.5234418,-149.90234375,978.515625,854.98046875,969.7265625,0.0
1733977674.5273476,531.73828125,970.21484375,844.7265625,969.7265625,0.0
1733977674.5312533,-917.48046875,967.28515625,856.93359375,969.7265625,0.0
1733977674.5351589,916.50390625,969.7265625,874.51171875,969.7265625,0.0
1733977674.5390646,980.95703125,970.21484375,869.62890625,969.7265625,0.0
1733977674.5429704,939.453125,967.7734375,834.47265625,969.7265625,0.0
1733977674.5468762,939.453125,962.890625,792.96875,969.7265625,0.0
1733977674.5507817,975.5859375,968.26171875,829.1015625,969.7265625,0.0
1733977674.5546875,967.28515625,970.21484375,865.72265625,969.7265625,0.0
1733977674.5585933,969.23828125,969.23828125,858.3984375,969.7265625,0.0
1733977674.562499,969.23828125,969.7265625,842.28515625,969.7265625,0.0
1733977674.566409,969.23828125,969.7265625,836.42578125,969.7265625,0.0
1733977674.570315,973.14453125,970.21484375,837.890625,969.7265625,0.0
1733977674.5742204,944.82421875,969.7265625,844.7265625,969.7265625,0.0
1733977674.5781262,-978.515625,969.7265625,855.46875,969.7265625,0.0
1733977674.582032,813.96484375,969.23828125,833.49609375,969.7265625,0.0
1733977674.5859377,570.80078125,971.19140625,821.2890625,969.7265625,0.0
1733977674.5898433,938.4765625,965.8203125,800.29296875,969.7265625,0.0
1733977674.593749,961.9140625,963.8671875,802.24609375,969.7265625,0.0
1733977674.5976548,-984.86328125,970.703125,854.98046875,970.21484375,0.0
1733977674.6015606,816.40625,969.7265625,844.7265625,969.7265625,0.0
1733977674.6054661,325.1953125,969.7265625,802.24609375,969.7265625,0.0
1733977674.609372,825.68359375,969.7265625,811.03515625,969.7265625,0.0
1733977674.6132815,991.2109375,969.7265625,862.79296875,969.23828125,0.0
1733977674.6171873,-989.74609375,969.7265625,857.421875,969.7265625,0.0
1733977674.621093,789.55078125,969.7265625,840.33203125,970.21484375,0.0
1733977674.6249986,47.36328125,969.7265625,827.63671875,969.7265625,0.0
1733977674.6289043,699.21875,969.7265625,833.984375,969.23828125,0.0
1733977674.63281,-971.6796875,969.23828125,839.84375,969.7265625,0.0
1733977674.636716,980.95703125,968.75,809.5703125,969.7265625,0.0
1733977674.6406214,818.359375,969.7265625,821.77734375,969.7265625,0.0
1733977674.6445272,-268.06640625,969.7265625,830.56640625,969.7265625,0.0
1733977674.648433,179.19921875,969.7265625,805.6640625,969.7265625,0.0
1733977674.6523387,-967.28515625,969.7265625,835.44921875,970.703125,0.0
1733977674.6562443,908.69140625,969.7265625,852.05078125,963.8671875,0.0
1733977674.660153,9.765625,969.7265625,839.84375,977.05078125,0.0
1733977674.6640587,-929.6875,969.7265625,793.45703125,937.01171875,0.0
1733977674.6679642,-915.52734375,970.21484375,784.66796875,789.0625,0.0
1733977674.67187,-101.07421875,968.75,816.40625,808.10546875,0.0
1733977674.6757758,269.04296875,972.65625,840.33203125,956.54296875,0.0
1733977674.6796815,-776.3671875,960.9375,780.2734375,978.515625,0.0
1733977674.683587,-1000.0,956.0546875,721.19140625,786.1328125,0.0
1733977674.6874928,-956.0546875,971.19140625,815.91796875,656.25,0.0
1733977674.6913986,-990.72265625,969.7265625,844.7265625,721.6796875,0.0
1733977674.6953044,-902.34375,969.7265625,847.16796875,859.375,0.0
1733977674.6992102,-983.88671875,969.7265625,866.69921875,884.27734375,0.0
1733977674.7031157,-1000.0,969.7265625,880.859375,675.29296875,0.0
1733977674.7070303,-994.62890625,969.7265625,887.6953125,523.4375,0.0
1733977674.710936,-1000.0,969.7265625,907.2265625,724.12109375,0.0
1733977674.7148418,-1000.0,969.7265625,944.3359375,952.1484375,0.0
1733977674.7187476,-1000.0,969.7265625,956.0546875,976.5625,0.0
1733977674.7226532,-1000.0,969.7265625,930.6640625,684.08203125,0.0
1733977674.726559,-1000.0,970.21484375,922.36328125,337.40234375,0.0
1733977674.7304647,-1000.0,970.21484375,906.25,-245.60546875,0.0
1733977674.7343705,-1000.0,969.7265625,907.71484375,-932.12890625,0.0
1733977674.738276,-1000.0,969.7265625,822.265625,-1000.0,0.0
1733977674.7421818,-1000.0,969.7265625,496.09375,-981.4453125,0.0
1733977674.7460876,-1000.0,970.21484375,-92.28515625,-1000.0,0.0
1733977674.7499933,-1000.0,970.21484375,-812.98828125,-1000.0,0.0
1733977674.7539072,-1000.0,969.7265625,-1000.0,-1000.0,0.0
1733977674.757813,-1000.0,970.21484375,-978.515625,-1000.0,0.0
1733977674.7617185,-1000.0,970.21484375,-1000.0,-1000.0,0.0
1733977674.7656243,-1000.0,973.6328125,-1000.0,-992.67578125,0.0
1733977674.76953,-1000.0,970.21484375,-927.24609375,-1000.0,0.0
1733977674.7734358,-1000.0,929.6875,-828.61328125,-969.7265625,0.0
1733977674.7773414,-1000.0,-982.91015625,-793.9453125,-724.609375,0.0
1733977674.7812471,-1000.0,462.890625,-816.40625,-468.26171875,0.0
1733977674.785153,-1000.0,-799.31640625,-282.2265625,-354.98046875,0.0
1733977674.7890587,-1000.0,-1000.0,769.04296875,48.33984375,0.0
1733977674.7929642,-1000.0,-950.68359375,-998.53515625,675.29296875,0.0
1733977674.79687,-1000.0,-1000.0,931.640625,879.8828125,0.0
1733977674.80079,0.0,-1000.0,970.21484375,958.0078125,0.0
1733977674.8046958,0.0,-1000.0,953.125,843.75,0.0
1733977674.8086014,0.0,-1000.0,941.89453125,438.4765625,0.0
1733977674.8125072,0.0,-1000.0,925.78125,277.83203125,0.0
1733977674.816413,0.0,-1000.0,915.52734375,281.73828125,0.0
1733977674.8203187,0.0,-1000.0,892.08984375,166.50390625,0.0
1733977674.8242245,0.0,-1000.0,884.27734375,-14.6484375,0.0
1733977674.82813,0.0,-1000.0,879.39453125,-186.5234375,0.0
1733977674.8320358,0.0,-1000.0,819.3359375,-195.80078125,0.0
1733977674.8359416,0.0,-1000.0,777.34375,-162.59765625,0.0
1733977674.8398473,0.0,-1000.0,689.94140625,-301.26953125,0.0
1733977674.8437529,0.0,-1000.0,519.53125,-436.03515625,0.0
1733977674.8476653,-1000.0,-1000.0,341.796875,-340.8203125,0.0
1733977674.851571,-982.91015625,-1000.0,-167.48046875,81.54296875,0.0
1733977674.8554769,-54.19921875,-1000.0,-648.4375,519.53125,0.0
1733977674.8593824,838.37890625,-1000.0,-847.65625,643.06640625,0.0
1733977674.8632882,954.1015625,-1000.0,-894.53125,511.71875,0.0
1733977674.867194,956.54296875,-1000.0,-857.91015625,407.71484375,0.0
1733977674.8710997,970.703125,-1000.0,-735.3515625,562.01171875,0.0
1733977674.8750052,970.21484375,-1000.0,-591.30859375,821.77734375,0.0
1733977674.878911,969.23828125,-1000.0,-559.5703125,895.01953125,0.0
1733977674.8828168,969.23828125,-954.1015625,-636.23046875,737.79296875,0.0
1733977674.8867226,969.7265625,-1000.0,-516.11328125,575.68359375,0.0
1733977674.890628,979.4921875,-936.03515625,-333.984375,632.32421875,0.0
1733977674.8945465,916.50390625,446.77734375,-35.64453125,879.39453125,0.0
1733977674.898452,-973.6328125,-905.76171875,375.0,982.421875,0.0
1733977674.9023578,729.98046875,899.90234375,419.921875,710.9375,0.0
1733977674.9062636,-643.5546875,980.46875,502.44140625,245.1171875,0.0
1733977674.9101694,-1000.0,970.21484375,587.890625,75.1953125,0.0
1733977674.914075,-721.6796875,970.21484375,443.84765625,381.34765625,0.0
1733977674.9179807,-847.16796875,969.7265625,662.59765625,708.0078125,0.0
1733977674.9218864,-1000.0,970.21484375,890.13671875,819.82421875,0.0
1733977674.9257922,-979.4921875,970.21484375,897.94921875,685.546875,0.0
1733977674.9296978,-993.65234375,969.7265625,920.41015625,733.88671875,0.0
1733977674.9336035,-1000.0,969.7265625,910.15625,955.56640625,0.0
1733977674.9375093,-547.36328125,972.16796875,872.55859375,974.609375,0.0
1733977674.9414198,-266.6015625,965.33203125,727.05078125,962.40234375,0.0
1733977674.9453256,-904.78515625,919.921875,733.88671875,971.6796875,0.0
1733977674.9492311,-1000.0,-919.921875,878.41796875,969.7265625,0.0
1733977674.953137,236.81640625,152.83203125,865.234375,969.7265625,0.0
1733977674.9570427,-971.6796875,-1000.0,910.64453125,969.7265625,0.0
1733977674.9609485,953.61328125,-987.79296875,796.875,969.7265625,0.0
1733977674.964854,120.1171875,-974.12109375,423.33984375,969.7265625,0.0
1733977674.9687598,-828.125,-1000.0,653.3203125,969.7265625,0.0
1733977674.9726655,-52.734375,-1000.0,912.59765625,969.7265625,0.0
1733977674.9765713,953.125,-1000.0,909.66796875,969.7265625,0.0
1733977674.9804769,976.5625,-1000.0,946.2890625,969.7265625,0.0
1733977674.9843826,666.50390625,-1000.0,956.0546875,969.7265625,0.0
1733977674.988292,788.0859375,-1000.0,983.88671875,969.7265625,0.0
1733977674.9921978,-989.74609375,-1000.0,922.36328125,969.7265625,0.0
1733977674.9961035,955.56640625,-1000.0,997.0703125,969.7265625,0.0
1733977675.000009,969.23828125,-1000.0,925.78125,969.7265625,0.0
1733977675.0039148,969.23828125,-1000.0,-458.0078125,969.7265625,0.0
1733977675.0078206,969.23828125,-1000.0,-1000.0,969.7265625,0.0
1733977675.0117264,969.23828125,-1000.0,-930.17578125,969.7265625,0.0
1733977675.015632,969.23828125,-1000.0,-1000.0,969.7265625,0.0
1733977675.0195377,969.23828125,-1000.0,-1000.0,969.7265625,0.0
1733977675.0234435,969.23828125,-1000.0,-1000.0,969.7265625,0.0
1733977675.0273492,969.23828125,-1000.0,-1000.0,969.7265625,0.0
1733977675.0312548,969.23828125,-1000.0,-1000.0,969.7265625,0.0
1733977675.0351634,0.0,-1000.0,-1000.0,969.7265625,0.0
1733977675.0390692,0.0,-1000.0,-1000.0,969.7265625,0.0
1733977675.0429747,0.0,-1000.0,-1000.0,969.7265625,0.0
1733977675.0468805,0.0,-1000.0,-1000.0,969.7265625,0.0
1733977675.0507863,0.0,-1000.0,-1000.0,969.7265625,0.0
1733977675.054692,0.0,-1000.0,-1000.0,969.7265625,0.0
1733977675.0585976,0.0,-1000.0,-1000.0,969.7265625,0.0
1733977675.0625033,0.0,-1000.0,-1000.0,969.7265625,0.0
1733977675.066409,0.0,-1000.0,-1000.0,969.7265625,0.0
1733977675.070315,0.0,-1000.0,-1000.0,969.7265625,0.0
1733977675.0742207,0.0,-1000.0,-1000.0,969.7265625,0.0
1733977675.0781262,0.0,-1000.0,-1000.0,969.7265625,0.0
1733977675.0820413,969.23828125,-1000.0,-1000.0,969.7265625,0.0
1733977675.0859468,969.23828125,-1000.0,-1000.0,969.7265625,0.0
1733977675.0898526,969.23828125,-1000.0,-1000.0,969.7265625,0.0
1733977675.0937583,969.23828125,-1000.0,-1000.0,969.7265625,0.0
1733977675.097664,969.23828125,-1000.0,-1000.0,969.7265625,0.0
1733977675.1015697,970.21484375,-1000.0,-1000.0,969.7265625,0.0
1733977675.1054754,980.95703125,-1000.0,-1000.0,969.7265625,0.0
1733977675.1093812,909.66796875,-1000.0,-1000.0,969.7265625,0.0
1733977675.113287,-952.1484375,-1000.0,-1000.0,972.16796875,0.0
1733977675.1171925,644.04296875,-1000.0,-1000.0,962.890625,0.0
1733977675.1210983,-756.8359375,-1000.0,-985.83984375,967.28515625,0.0
1733977675.125004,-1000.0,-1000.0,-990.72265625,978.02734375,0.0
1733977675.1289182,-939.453125,-1000.0,-938.96484375,665.52734375,0.0
1733977675.1328237,-1000.0,-1000.0,-203.125,418.9453125,0.0
1733977675.1367295,-1000.0,-1000.0,663.57421875,543.45703125,0.0
1733977675.1406353,-1000.0,-1000.0,874.51171875,335.9375,0.0
1733977675.144541,-1000.0,-1000.0,882.8125,-376.46484375,0.0
1733977675.1484468,-1000.0,-1000.0,908.69140625,-933.59375,0.0
1733977675.1523523,-1000.0,-1000.0,933.59375,-1000.0,0.0
1733977675.156258,-1000.0,-1000.0,951.171875,-987.3046875,0.0
1733977675.1601639,-1000.0,-1000.0,946.77734375,-1000.0,0.0
1733977675.1640697,-1000.0,-1000.0,931.640625,-1000.0,0.0
1733977675.1679752,-1000.0,-1000.0,909.1796875,-1000.0,0.0
1733977675.171881,-1000.0,-1000.0,909.1796875,-1000.0,0.0
1733977675.1757944,-1000.0,-1000.0,935.546875,-1000.0,0.0
1733977675.1797001,-1000.0,-1000.0,950.68359375,-1000.0,0.0
1733977675.183606,-1000.0,-1000.0,955.56640625,-1000.0,0.0
1733977675.1875117,-1000.0,-988.28125,957.03125,-1000.0,0.0
1733977675.1914175,-1000.0,-1000.0,966.30859375,-1000.0,0.0
1733977675.195323,-1000.0,-950.1953125,970.21484375,-1000.0,0.0
1733977675.1992288,-1000.0,-590.33203125,969.7265625,-1000.0,0.0
1733977675.2031345,-1000.0,-374.51171875,969.7265625,-1000.0,0.0
1733977675.2070403,-1000.0,-710.44921875,969.7265625,-1000.0,0.0
1733977675.2109458,-1000.0,-24.4140625,969.7265625,-1000.0,0.0
1733977675.2148516,-948.2421875,981.93359375,969.7265625,-1000.0,0.0
1733977675.2187574,-1000.0,959.47265625,969.7265625,-1000.0,0.0
1733977675.2226706,-832.03125,950.1953125,969.7265625,-1000.0,0.0
1733977675.2265763,553.7109375,976.07421875,969.7265625,-1000.0,0.0
1733977675.230482,-928.7109375,969.7265625,969.7265625,-1000.0,0.0
1733977675.2343879,904.296875,969.7265625,969.7265625,-1000.0,0.0
1733977675.2382934,980.46875,969.7265625,969.7265625,-1000.0,0.0
1733977675.2421992,969.7265625,969.7265625,969.7265625,-1000.0,0.0
1733977675.246105,969.23828125,969.7265625,969.7265625,-1000.0,0.0
1733977675.2500107,969.23828125,969.7265625,970.21484375,-1000.0,0.0
1733977675.2539165,968.75,970.21484375,969.7265625,-1000.0,0.0
1733977675.257822,970.21484375,969.7265625,969.7265625,-1000.0,0.0
1733977675.2617278,976.5625,969.7265625,969.7265625,-1000.0,0.0
1733977675.2656336,906.73828125,969.7265625,970.21484375,-1000.0,0.0
1733977675.2695453,-925.78125,969.7265625,970.21484375,-1000.0,0.0
1733977675.273451,443.84765625,969.7265625,969.7265625,-1000.0,0.0
1733977675.2773569,-911.1328125,969.7265625,969.7265625,-1000.0,0.0
1733977675.2812626,-1000.0,970.21484375,970.21484375,-1000.0,0.0
1733977675.2851684,-952.1484375,969.7265625,970.21484375,-1000.0,0.0
1733977675.289074,-1000.0,969.23828125,965.33203125,-1000.0,0.0
1733977675.2929797,-1000.0,969.7265625,962.40234375,-1000.0,0.0
1733977675.2968855,-1000.0,964.35546875,957.03125,-1000.0,0.0
1733977675.3007913,-1000.0,964.84375,946.77734375,-1000.0,0.0
1733977675.3046968,-1000.0,970.703125,933.59375,-998.53515625,0.0
1733977675.3086026,-1000.0,969.7265625,923.828125,-994.62890625,0.0
1733977675.3125083,-1000.0,969.7265625,924.8046875,-1000.0,0.0
1733977675.3164191,0.0,970.21484375,926.26953125,-868.65234375,0.0
1733977675.320325,0.0,969.7265625,913.57421875,-650.87890625,0.0
1733977675.3242307,0.0,969.7265625,891.11328125,-699.70703125,0.0
1733977675.3281364,0.0,969.7265625,882.8125,-700.1953125,0.0
1733977675.332042,0.0,969.23828125,894.53125,-337.40234375,0.0
1733977675.3359478,0.0,970.21484375,908.203125,239.2578125,0.0
1733977675.3398535,0.0,967.7734375,889.16015625,523.92578125,0.0
1733977675.3437593,0.0,966.796875,858.3984375,382.32421875,0.0
1733977675.3476648,0.0,970.21484375,862.3046875,294.921875,0.0
1733977675.3515706,0.0,969.7265625,877.44140625,625.0,0.0
1733977675.3554764,0.0,969.7265625,880.859375,947.265625,0.0
1733977675.3593822,0.0,969.7265625,877.9296875,979.4921875,0.0
1733977675.3632987,-1000.0,969.7265625,779.296875,942.87109375,0.0
1733977675.3672044,-1000.0,969.7265625,619.140625,884.27734375,0.0
1733977675.3711102,-1000.0,969.7265625,616.2109375,943.84765625,0.0
1733977675.375016,-1000.0,969.7265625,765.625,979.4921875,0.0
1733977675.3789215,-1000.0,970.21484375,759.765625,965.33203125,0.0
1733977675.3828273,-1000.0,970.21484375,444.82421875,970.703125,0.0
1733977675.386733,-935.546875,969.7265625,109.375,969.7265625,0.0
1733977675.3906388,-1000.0,970.21484375,316.89453125,969.7265625,0.0
1733977675.3945444,-609.86328125,969.7265625,638.18359375,969.7265625,0.0
