timestamps,TP9,AF7,AF8,TP10,Right AUX
1734406849.1348124,730.95703125,964.84375,845.21484375,969.7265625,0.0
1734406849.138718,776.85546875,910.15625,849.12109375,970.21484375,0.0
1734406849.1426234,864.2578125,941.89453125,869.140625,969.7265625,0.0
1734406849.146529,856.4453125,980.46875,870.1171875,969.7265625,0.0
1734406849.1504345,743.1640625,989.2578125,851.5625,969.7265625,0.0
1734406849.15434,672.8515625,563.4765625,832.51953125,969.7265625,0.0
1734406849.1582453,721.19140625,634.765625,853.02734375,969.7265625,0.0
1734406849.1621509,786.1328125,-945.3125,872.55859375,969.7265625,0.0
1734406849.1660564,760.7421875,870.1171875,855.46875,969.7265625,0.0
1734406849.169962,640.625,795.8984375,844.23828125,969.7265625,0.0
1734406849.1738675,528.3203125,967.28515625,845.21484375,969.7265625,0.0
1734406849.1777854,526.85546875,978.02734375,847.65625,970.703125,0.0
1734406849.181691,578.61328125,960.9375,852.05078125,964.84375,0.0
1734406849.1855965,519.53125,963.8671875,848.6328125,970.21484375,0.0
1734406849.189502,379.8828125,972.65625,837.40234375,966.30859375,0.0
1734406849.1934075,266.11328125,961.9140625,804.19921875,784.66796875,0.0
1734406849.1973128,237.79296875,752.9296875,790.52734375,670.8984375,0.0
1734406849.2012184,270.5078125,789.55078125,818.84765625,763.671875,0.0
1734406849.205124,245.1171875,-996.09375,831.54296875,769.53125,0.0
1734406849.2090294,114.2578125,883.30078125,742.1875,618.65234375,0.0
1734406849.212935,-40.0390625,91.30859375,513.18359375,376.46484375,0.0
1734406849.2168405,-77.1484375,78.61328125,537.59765625,247.0703125,0.0
1734406849.220746,-30.2734375,604.4921875,678.22265625,320.3125,0.0
1734406849.224683,-53.22265625,390.13671875,617.67578125,354.00390625,0.0
1734406849.2285886,-173.828125,188.96484375,500.9765625,213.8671875,0.0
1734406849.232494,-298.828125,146.484375,371.09375,-33.69140625,0.0
1734406849.2363997,-331.0546875,174.31640625,307.12890625,-181.640625,0.0
1734406849.2403052,-283.69140625,122.55859375,418.45703125,-113.28125,0.0
1734406849.2442107,-284.66796875,-210.9375,404.78515625,-43.45703125,0.0
1734406849.248116,-382.32421875,-333.0078125,213.37890625,-142.08984375,0.0
1734406849.2520216,-499.51171875,-214.35546875,100.09765625,-360.83984375,0.0
1734406849.255927,-511.71875,-550.78125,-251.953125,-489.74609375,0.0
1734406849.2598326,-430.17578125,-629.39453125,-131.34765625,-392.578125,0.0
1734406849.2637382,-388.671875,-0.9765625,323.73046875,-289.0625,0.0
1734406849.2676437,-451.171875,-47.8515625,129.39453125,-340.8203125,0.0
1734406849.2715607,-545.8984375,-711.42578125,-432.12890625,-506.8359375,0.0
1734406849.2754662,-529.296875,-909.1796875,-647.4609375,-616.69921875,0.0
1734406849.2793717,-439.94140625,-361.328125,-98.6328125,-530.76171875,0.0
1734406849.2832773,-368.65234375,-29.78515625,212.40234375,-380.859375,0.0
1734406849.2871828,-392.578125,-309.08203125,-58.59375,-358.88671875,0.0
1734406849.2910883,-469.7265625,-744.140625,-418.45703125,-499.0234375,0.0
1734406849.2949939,-467.7734375,-689.94140625,-466.30859375,-607.421875,0.0
1734406849.2988992,-374.51171875,-327.1484375,-170.41015625,-510.25390625,0.0
1734406849.3028047,-291.9921875,-321.77734375,165.0390625,-339.35546875,0.0
1734406849.3067102,-289.55078125,-228.02734375,155.76171875,-284.66796875,0.0
1734406849.3106158,-354.4921875,-93.26171875,-69.3359375,-404.78515625,0.0
1734406849.3145213,-374.0234375,-524.4140625,-403.3203125,-520.01953125,0.0
1734406849.3184364,-281.25,-669.921875,-274.90234375,-440.91796875,0.0
1734406849.3223417,-185.05859375,-68.84765625,215.33203125,-262.6953125,0.0
1734406849.3262472,-174.8046875,182.12890625,269.04296875,-182.6171875,0.0
1734406849.3301528,-250.9765625,-343.26171875,-161.1328125,-290.0390625,0.0
1734406849.3340583,-293.45703125,-716.30859375,-491.69921875,-418.45703125,0.0
1734406849.3379638,-218.26171875,-619.140625,-344.7265625,-365.234375,0.0
1734406849.3418694,-124.0234375,-191.89453125,145.01953125,-196.2890625,0.0
1734406849.3457747,-120.1171875,-163.57421875,135.25390625,-112.3046875,0.0
1734406849.3496802,-203.125,-516.6015625,-282.2265625,-208.49609375,0.0
1734406849.3535857,-270.01953125,-341.30859375,-369.140625,-380.859375,0.0
1734406849.3574913,-235.3515625,-120.1171875,-256.8359375,-386.71875,0.0
1734406849.3613968,-142.578125,-270.5078125,-31.73828125,-205.56640625,0.0
1734406849.3653111,-144.04296875,-984.375,-355.95703125,-107.421875,0.0
1734406849.3692167,-229.00390625,-743.1640625,-439.453125,-206.54296875,0.0
1734406849.3731222,-292.96875,-335.44921875,-406.25,-395.99609375,0.0
1734406849.3770278,-266.6015625,-625.0,-519.53125,-422.36328125,0.0
1734406849.3809333,-169.921875,-386.23046875,-76.171875,-243.1640625,0.0
1734406849.3848388,-130.859375,-196.2890625,88.37890625,-128.41796875,0.0
1734406849.3887444,-214.84375,-460.9375,-290.0390625,-208.0078125,0.0
1734406849.3926497,-319.3359375,-766.6015625,-557.6171875,-389.16015625,0.0
1734406849.3965552,-295.41015625,-624.0234375,-508.30078125,-426.26953125,0.0
1734406849.4004607,-186.03515625,-62.01171875,-42.48046875,-270.5078125,0.0
1734406849.4043663,-152.34375,77.63671875,124.51171875,-152.83203125,0.0
1734406849.4082718,-211.9140625,-619.62890625,-388.18359375,-173.828125,0.0
1734406849.4121788,-283.203125,-851.5625,-580.078125,-333.0078125,0.0
1734406849.4160843,-270.01953125,-333.0078125,-456.54296875,-416.015625,0.0
1734406849.4199896,-179.6875,-230.95703125,-238.28125,-268.06640625,0.0
1734406849.4238951,-122.0703125,-187.98828125,69.3359375,-122.0703125,0.0
1734406849.4278007,-157.2265625,-93.75,-106.4453125,-135.7421875,0.0
1734406849.4317062,-237.3046875,-487.3046875,-515.13671875,-284.1796875,0.0
1734406849.4356117,-255.37109375,-949.21875,-697.265625,-380.859375,0.0
1734406849.4395173,-181.640625,-704.58984375,-402.34375,-264.16015625,0.0
1734406849.4434228,-115.72265625,-41.9921875,84.9609375,-108.88671875,0.0
1734406849.447328,-151.3671875,-110.83984375,-127.44140625,-104.00390625,0.0
1734406849.4512336,-257.32421875,-725.09765625,-637.20703125,-253.41796875,0.0
1734406849.4551392,-279.296875,-900.390625,-751.46484375,-357.91015625,0.0
1734406849.4590454,-188.96484375,-344.23828125,-332.03125,-271.97265625,0.0
1734406849.462951,-128.41796875,2.44140625,1.953125,-133.30078125,0.0
1734406849.4668562,-171.38671875,-330.56640625,-211.9140625,-106.93359375,0.0
1734406849.4707618,-265.625,-506.34765625,-520.99609375,-249.51171875,0.0
1734406849.4746673,-295.41015625,-513.18359375,-660.15625,-381.8359375,0.0
1734406849.4785728,-233.3984375,-629.39453125,-534.66796875,-319.3359375,0.0
1734406849.4824784,-159.66796875,-836.42578125,-457.03125,-160.64453125,0.0
1734406849.486384,-188.4765625,-787.109375,-539.0625,-135.7421875,0.0
1734406849.4902894,-288.57421875,-404.296875,-534.1796875,-291.015625,0.0
1734406849.4941947,-344.23828125,-617.67578125,-750.0,-432.12890625,0.0
1734406849.4981003,-287.59765625,-744.62890625,-667.48046875,-394.53125,0.0
1734406849.5020058,-199.21875,-569.3359375,-399.4140625,-249.0234375,0.0
1734406849.5059183,-215.33203125,-569.82421875,-436.5234375,-199.21875,0.0
1734406849.5098238,-313.4765625,-782.71484375,-704.58984375,-323.73046875,0.0
1734406849.5137293,-372.55859375,-934.5703125,-869.140625,-492.1875,0.0
1734406849.5176349,-318.84765625,-646.97265625,-712.40234375,-477.05078125,0.0
1734406849.5215404,-250.0,-380.37109375,-479.98046875,-323.73046875,0.0
1734406849.5254457,-271.484375,-709.47265625,-656.73828125,-259.765625,0.0
1734406849.5293512,-360.83984375,-970.21484375,-866.2109375,-368.1640625,0.0
1734406849.5332568,-428.7109375,-872.55859375,-857.91015625,-548.33984375,0.0
1734406849.5371623,-388.671875,-708.0078125,-816.89453125,-567.87109375,0.0
1734406849.5410678,-295.41015625,-747.0703125,-668.9453125,-409.66796875,0.0
1734406849.5449734,-283.69140625,-793.45703125,-665.0390625,-321.2890625,0.0
1734406849.548879,-367.1875,-637.6953125,-769.53125,-421.875,0.0
1734406849.55279,-439.94140625,-864.74609375,-881.8359375,-590.33203125,0.0
1734406849.5566955,-419.921875,-1000.0,-909.1796875,-624.51171875,0.0
1734406849.560601,-304.19921875,-722.65625,-672.8515625,-463.8671875,0.0
1734406849.5645065,-262.6953125,-540.0390625,-607.421875,-341.30859375,0.0
1734406849.568412,-310.05859375,-835.9375,-848.14453125,-391.11328125,0.0
1734406849.5723176,-228.02734375,-586.9140625,-603.02734375,-383.7890625,0.0
1734406849.576223,-167.48046875,-470.703125,-498.53515625,-273.92578125,0.0
1734406849.5801284,-213.37890625,-900.390625,-804.6875,-270.5078125,0.0
1734406849.584034,-256.8359375,-966.30859375,-900.390625,-409.66796875,0.0
1734406849.5879395,-267.578125,-919.921875,-861.81640625,-509.27734375,0.0
1734406849.591845,-207.03125,-917.48046875,-704.58984375,-401.85546875,0.0
1734406849.5957506,-135.7421875,-722.65625,-504.39453125,-245.1171875,0.0
1734406849.599661,-162.109375,-464.35546875,-580.56640625,-250.48828125,0.0
1734406849.6035666,-254.8828125,-458.0078125,-744.62890625,-415.52734375,0.0
1734406849.6074722,-263.18359375,-803.22265625,-906.25,-495.1171875,0.0
1734406849.6113777,-170.41015625,-799.8046875,-733.3984375,-375.0,0.0
1734406849.6152833,-111.328125,-389.16015625,-463.8671875,-231.4453125,0.0
1734406849.6191888,-133.30078125,-567.3828125,-664.0625,-209.47265625,0.0
1734406849.623094,-228.02734375,-934.08203125,-893.06640625,-361.81640625,0.0
1734406849.6269996,-263.18359375,-928.22265625,-943.359375,-487.3046875,0.0
1734406849.6309052,-195.80078125,-584.9609375,-702.63671875,-420.41015625,0.0
1734406849.6348107,-128.90625,-275.390625,-476.5625,-276.3671875,0.0
1734406849.6387162,-147.4609375,-601.5625,-689.94140625,-235.83984375,0.0
1734406849.6426218,-238.76953125,-997.55859375,-926.26953125,-383.30078125,0.0
1734406849.6465447,-270.99609375,-873.046875,-888.18359375,-535.15625,0.0
1734406849.65045,-211.42578125,-732.91015625,-832.03125,-479.00390625,0.0
1734406849.6543555,-152.34375,-746.58203125,-695.3125,-325.1953125,0.0
1734406849.658261,-184.08203125,-629.39453125,-688.4765625,-296.875,0.0
1734406849.6621666,-279.78515625,-713.37890625,-872.55859375,-440.4296875,0.0
1734406849.6660721,-339.35546875,-1000.0,-967.7734375,-591.30859375,0.0
1734406849.6699777,-290.52734375,-998.53515625,-895.99609375,-560.05859375,0.0
1734406849.673883,-200.1953125,-690.4296875,-705.078125,-405.76171875,0.0
1734406849.6777885,-198.2421875,-664.55078125,-742.1875,-343.26171875,0.0
1734406849.681694,-271.97265625,-971.6796875,-929.6875,-441.89453125,0.0
1734406849.6855996,-335.44921875,-1000.0,-962.890625,-601.07421875,0.0
1734406849.689505,-290.0390625,-861.81640625,-890.13671875,-587.890625,0.0
1734406849.6934135,-189.94140625,-534.66796875,-695.3125,-425.78125,0.0
1734406849.697319,-166.50390625,-590.33203125,-739.74609375,-339.35546875,0.0
1734406849.7012246,-224.609375,-895.01953125,-910.64453125,-403.80859375,0.0
1734406849.70513,-290.52734375,-889.16015625,-910.64453125,-560.05859375,0.0
1734406849.7090356,-244.62890625,-775.390625,-879.39453125,-562.98828125,0.0
1734406849.7129412,-114.2578125,-889.16015625,-830.078125,-366.69921875,0.0
1734406849.7168465,-78.61328125,-840.8203125,-769.53125,-239.74609375,0.0
1734406849.720752,-130.859375,-515.13671875,-748.53515625,-294.43359375,0.0
1734406849.7246575,-176.26953125,-590.8203125,-847.16796875,-437.98828125,0.0
1734406849.728563,-149.90234375,-892.578125,-904.296875,-459.9609375,0.0
1734406849.7324686,-34.66796875,-675.78125,-649.90234375,-285.15625,0.0
1734406849.7363741,17.08984375,-341.30859375,-474.12109375,-153.80859375,0.0
1734406849.740295,-33.69140625,-462.40234375,-651.3671875,-186.03515625,0.0
1734406849.7442005,-99.12109375,-768.06640625,-856.4453125,-316.89453125,0.0
1734406849.748106,-90.8203125,-910.64453125,-899.4140625,-364.2578125,0.0
1734406849.7520115,21.97265625,-368.1640625,-495.1171875,-215.33203125,0.0
1734406849.755917,85.9375,-89.35546875,-356.93359375,-59.5703125,0.0
1734406849.7598224,37.109375,-562.01171875,-640.13671875,-74.21875,0.0
1734406849.763728,-41.9921875,-863.76953125,-776.3671875,-233.88671875,0.0
1734406849.7676334,-40.52734375,-539.55078125,-741.69921875,-314.453125,0.0
1734406849.771539,52.734375,-319.82421875,-519.04296875,-176.7578125,0.0
1734406849.7754445,118.1640625,-566.89453125,-404.296875,-8.7890625,0.0
1734406849.77935,88.37890625,-541.015625,-490.234375,6.34765625,0.0
1734406849.7832556,-0.9765625,-284.66796875,-613.76953125,-146.484375,0.0
1734406849.7871754,-12.6953125,-548.828125,-779.78515625,-250.48828125,0.0
1734406849.791081,79.58984375,-599.609375,-573.2421875,-127.9296875,0.0
1734406849.7949865,153.80859375,-245.60546875,-301.26953125,45.41015625,0.0
1734406849.798892,128.41796875,-138.18359375,-358.88671875,62.01171875,0.0
1734406849.8027976,35.64453125,-442.3828125,-656.73828125,-91.30859375,0.0
1734406849.806703,2.44140625,-948.73046875,-871.09375,-205.56640625,0.0
1734406849.8106086,68.359375,-617.1875,-543.9453125,-118.1640625,0.0
1734406849.814514,142.08984375,75.68359375,-81.0546875,35.64453125,0.0
1734406849.8184195,134.27734375,-217.7734375,-280.76171875,87.40234375,0.0
1734406849.822325,54.6875,-901.3671875,-750.9765625,-34.1796875,0.0
1734406849.8262305,5.859375,-627.9296875,-664.55078125,-187.01171875,0.0
1734406849.830136,61.03515625,-171.38671875,-464.84375,-136.71875,0.0
1734406849.8340626,146.484375,-475.09765625,-361.81640625,37.59765625,0.0
1734406849.837968,139.16015625,-554.19921875,-383.30078125,100.09765625,0.0
1734406849.8418736,61.5234375,-125.0,-436.03515625,-18.06640625,0.0
1734406849.8457792,15.13671875,-262.6953125,-617.1875,-153.80859375,0.0
1734406849.8496847,61.5234375,-719.7265625,-684.08203125,-108.3984375,0.0
1734406849.8535903,149.90234375,-744.140625,-363.28125,65.4296875,0.0
1734406849.8574955,158.69140625,-291.9921875,-159.1796875,144.04296875,0.0
1734406849.861401,79.58984375,-377.44140625,-454.1015625,48.33984375,0.0
1734406849.8653066,20.01953125,-640.625,-611.328125,-109.86328125,0.0
1734406849.8692122,58.10546875,-621.58203125,-527.34375,-96.6796875,0.0
1734406849.8731177,148.4375,-199.70703125,-83.0078125,67.87109375,0.0
1734406849.8770232,167.48046875,15.625,68.84765625,166.015625,0.0
1734406849.880935,99.12109375,-543.45703125,-346.19140625,99.12109375,0.0
1734406849.8848405,19.04296875,-565.91796875,-497.55859375,-69.82421875,0.0
1734406849.888746,37.109375,-18.06640625,-415.0390625,-108.3984375,0.0
1734406849.8926516,148.92578125,-26.85546875,-91.796875,67.87109375,0.0
1734406849.8965569,188.4765625,-210.9375,23.92578125,191.40625,0.0
1734406849.9004624,128.90625,-268.06640625,-269.04296875,139.16015625,0.0
1734406849.904368,43.9453125,-315.4296875,-442.3828125,-23.92578125,0.0
1734406849.9082735,43.9453125,-511.23046875,-577.63671875,-83.49609375,0.0
1734406849.912179,147.4609375,-394.53125,-229.4921875,73.73046875,0.0
1734406849.9160845,186.5234375,62.5,177.24609375,196.77734375,0.0
1734406849.9199898,136.71875,95.703125,-19.04296875,166.015625,0.0
1734406849.9238954,69.3359375,-380.859375,-382.8125,22.4609375,0.0
1734406849.9278069,53.22265625,-555.6640625,-521.97265625,-55.17578125,0.0
1734406849.9317124,145.01953125,61.5234375,-73.2421875,71.77734375,0.0
1734406849.935618,210.9375,370.60546875,250.48828125,213.37890625,0.0
1734406849.9395235,159.66796875,-270.01953125,-166.9921875,208.984375,0.0
1734406849.9434288,74.21875,-951.66015625,-612.79296875,57.6171875,0.0
1734406849.9473343,55.6640625,-618.1640625,-521.97265625,-50.78125,0.0
1734406849.9512398,141.11328125,-258.7890625,-201.171875,65.4296875,0.0
1734406849.9551454,204.58984375,-491.2109375,-28.80859375,235.3515625,0.0
1734406849.959051,166.9921875,-381.34765625,-8.7890625,236.328125,0.0
1734406849.9629564,76.66015625,-64.453125,-161.62109375,66.40625,0.0
1734406849.966862,34.1796875,-443.84765625,-510.25390625,-46.875,0.0
1734406849.9707673,101.5625,-269.53125,-164.0625,51.7578125,0.0
1734406849.9746845,171.38671875,62.01171875,201.66015625,211.9140625,0.0
1734406849.97859,166.015625,199.70703125,180.6640625,232.421875,0.0
1734406849.9824955,82.51953125,-69.82421875,-198.73046875,96.6796875,0.0
1734406849.9864008,28.3203125,-430.17578125,-541.9921875,-32.71484375,0.0
1734406849.9903064,88.8671875,-96.6796875,-145.99609375,35.15625,0.0
1734406849.994212,165.52734375,131.8359375,245.60546875,195.80078125,0.0
1734406849.9981174,157.71484375,-135.25390625,36.1328125,246.58203125,0.0
1734406850.002023,71.77734375,-585.9375,-365.234375,128.41796875,0.0
1734406850.0059285,17.578125,-341.30859375,-405.2734375,-21.97265625,0.0
1734406850.009834,77.1484375,115.72265625,-108.3984375,14.6484375,0.0
1734406850.0137393,164.55078125,-109.86328125,62.98828125,186.5234375,0.0
1734406850.017645,160.15625,-302.734375,33.203125,263.18359375,0.0
1734406850.0215678,72.75390625,138.18359375,79.58984375,139.16015625,0.0
1734406850.0254734,21.97265625,15.625,-275.87890625,-19.04296875,0.0
1734406850.029379,66.40625,-279.78515625,-350.5859375,11.23046875,0.0
1734406850.0332844,144.53125,-99.12109375,93.26171875,183.10546875,0.0
1734406850.03719,152.83203125,148.92578125,239.74609375,252.44140625,0.0
1734406850.0410955,77.1484375,-112.79296875,-88.8671875,159.66796875,0.0
1734406850.045001,11.23046875,-566.40625,-436.5234375,3.41796875,0.0
1734406850.0489063,30.2734375,-341.30859375,-288.57421875,-21.484375,0.0
1734406850.0528119,128.90625,282.71484375,220.703125,152.83203125,0.0
1734406850.0567174,165.0390625,263.18359375,265.625,264.16015625,0.0
1734406850.060623,104.4921875,-314.453125,-90.33203125,201.66015625,0.0
1734406850.0645285,13.18359375,-361.328125,-305.17578125,20.5078125,0.0
1734406850.0684574,13.18359375,-4.39453125,-284.1796875,-42.96875,0.0
1734406850.072363,117.1875,68.84765625,121.09375,135.25390625,0.0
1734406850.0762684,150.87890625,-20.01953125,250.9765625,258.30078125,0.0
1734406850.080174,95.703125,167.96875,141.11328125,196.2890625,0.0
1734406850.0840795,5.37109375,54.19921875,-157.2265625,20.01953125,0.0
1734406850.087985,0.9765625,-462.890625,-454.58984375,-21.97265625,0.0
1734406850.0918903,93.26171875,-819.3359375,-183.59375,138.671875,0.0
1734406850.0957959,124.51171875,-271.97265625,211.42578125,235.3515625,0.0
1734406850.0997014,92.28515625,346.19140625,246.58203125,201.66015625,0.0
1734406850.103607,12.20703125,-242.1875,-233.88671875,48.828125,0.0
1734406850.1075125,-9.27734375,-526.3671875,-447.265625,-42.48046875,0.0
1734406850.111418,75.1953125,95.703125,66.89453125,71.77734375,0.0
1734406850.1153457,140.625,489.2578125,379.39453125,214.84375,0.0
1734406850.1192513,108.3984375,-132.8125,-8.7890625,218.75,0.0
1734406850.1231568,4.39453125,-711.9140625,-433.10546875,54.6875,0.0
1734406850.1270623,-24.90234375,-145.99609375,-326.66015625,-74.21875,0.0
1734406850.1309679,53.22265625,140.625,3.41796875,39.0625,0.0
1734406850.1348732,121.58203125,-92.7734375,223.6328125,201.66015625,0.0
1734406850.1387787,102.05078125,-136.23046875,151.3671875,219.23828125,0.0
1734406850.1426842,17.08984375,78.61328125,-2.9296875,64.453125,0.0
1734406850.1465898,-25.390625,-79.58984375,-303.7109375,-64.94140625,0.0
1734406850.1504953,59.5703125,-488.28125,-279.296875,52.734375,0.0
1734406850.1544008,157.71484375,-350.09765625,135.25390625,243.65234375,0.0
1734406850.1583064,116.2109375,221.6796875,287.59765625,248.53515625,0.0
1734406850.1622403,-1.46484375,34.66796875,-65.91796875,68.84765625,0.0
1734406850.1661458,-56.15234375,-462.40234375,-431.15234375,-68.359375,0.0
1734406850.1700513,9.765625,-156.73828125,-97.65625,14.16015625,0.0
1734406850.1739569,104.00390625,402.83203125,333.0078125,178.22265625,0.0
1734406850.1778622,114.2578125,280.76171875,194.82421875,232.421875,0.0
1734406850.1817677,29.78515625,-641.11328125,-305.6640625,119.62890625,0.0
1734406850.1856732,-37.109375,-656.25,-446.2890625,-39.55078125,0.0
1734406850.1895788,17.578125,-1.46484375,-119.62890625,-16.11328125,0.0
1734406850.1934843,109.375,-72.75390625,102.5390625,156.73828125,0.0
1734406850.1973898,122.0703125,-79.1015625,144.53125,235.83984375,0.0
1734406850.2012954,50.78125,120.1171875,51.7578125,130.859375,0.0
1734406850.2052007,-21.484375,12.6953125,-235.3515625,-38.0859375,0.0
1734406850.2091148,3.90625,-527.34375,-447.265625,-27.34375,0.0
1734406850.2130203,93.26171875,-749.0234375,-117.1875,153.3203125,0.0
1734406850.2169259,112.79296875,73.73046875,292.96875,230.46875,0.0
1734406850.2208314,58.10546875,270.01953125,109.375,152.83203125,0.0
1734406850.224737,-12.20703125,-514.16015625,-416.015625,3.90625,0.0
1734406850.2286422,-12.6953125,-919.43359375,-552.24609375,-35.64453125,0.0
1734406850.2325478,97.65625,-187.98828125,125.9765625,128.90625,0.0
1734406850.2364533,138.671875,369.140625,336.42578125,234.375,0.0
1734406850.2403588,74.21875,-272.4609375,-78.61328125,170.41015625,0.0
1734406850.2442644,-5.37109375,-801.26953125,-405.2734375,6.34765625,0.0
1734406850.24817,-0.9765625,-320.3125,-266.6015625,-49.8046875,0.0
1734406850.2520754,100.09765625,86.42578125,171.875,107.421875,0.0
1734406850.2559874,126.953125,84.9609375,281.73828125,235.3515625,0.0
1734406850.259893,69.82421875,199.70703125,185.546875,191.40625,0.0
1734406850.2637982,6.8359375,190.91796875,-48.33984375,20.01953125,0.0
1734406850.2677038,-18.5546875,-198.73046875,-403.3203125,-64.453125,0.0
1734406850.2716093,57.12890625,-510.25390625,-108.3984375,97.16796875,0.0
1734406850.2755148,123.046875,-189.453125,273.4375,237.79296875,0.0
1734406850.2794204,90.8203125,-13.671875,166.015625,204.58984375,0.0
1734406850.283326,9.765625,-355.46875,-207.03125,63.96484375,0.0
1734406850.2872314,-18.5546875,-1000.0,-710.44921875,-25.87890625,0.0
1734406850.2911367,54.6875,-659.66796875,-173.33984375,81.54296875,0.0
1734406850.2950423,127.44140625,321.2890625,391.11328125,229.4921875,0.0
1734406850.2989478,101.07421875,205.078125,194.3359375,231.93359375,0.0
1734406850.3028722,20.01953125,9.765625,2.44140625,79.1015625,0.0
1734406850.3067777,-16.11328125,99.12109375,-144.53125,-27.34375,0.0
1734406850.3106833,62.98828125,230.46875,109.375,80.56640625,0.0
1734406850.3145888,157.2265625,343.26171875,385.25390625,255.859375,0.0
1734406850.3184943,150.87890625,397.4609375,320.3125,287.109375,0.0
1734406850.3223996,55.6640625,48.33984375,24.4140625,131.8359375,0.0
1734406850.3263052,14.16015625,-286.1328125,-250.0,9.765625,0.0
1734406850.3302107,88.37890625,-451.171875,-99.12109375,103.02734375,0.0
1734406850.3341162,165.52734375,-88.8671875,299.31640625,272.94921875,0.0
1734406850.3380218,168.9453125,363.76953125,366.69921875,325.68359375,0.0
1734406850.3419273,83.984375,2.9296875,49.8046875,176.7578125,0.0
1734406850.3458328,17.578125,-497.55859375,-238.28125,35.64453125,0.0
1734406850.3497498,73.73046875,-182.12890625,85.9375,89.84375,0.0
1734406850.3536553,170.41015625,611.81640625,473.6328125,257.32421875,0.0
1734406850.3575609,178.7109375,530.76171875,361.81640625,338.37890625,0.0
1734406850.3614664,103.02734375,154.78515625,190.4296875,228.02734375,0.0
1734406850.3653717,44.43359375,87.40234375,65.91796875,78.61328125,0.0
1734406850.3692772,77.63671875,-55.17578125,117.67578125,115.234375,0.0
1734406850.3731828,155.76171875,-14.6484375,322.265625,291.9921875,0.0
1734406850.3770883,179.19921875,313.96484375,384.765625,369.62890625,0.0
1734406850.3809938,112.79296875,423.33984375,291.50390625,267.08984375,0.0
1734406850.3848994,43.9453125,296.875,149.4140625,99.609375,0.0
1734406850.388805,60.05859375,-178.7109375,-4.8828125,103.515625,0.0
1734406850.3927102,149.4140625,-253.90625,246.58203125,289.0625,0.0
1734406850.3966196,203.61328125,456.54296875,475.5859375,382.8125,0.0
1734406850.400525,146.484375,605.46875,375.0,303.7109375,0.0
1734406850.4044306,63.96484375,-302.734375,-97.65625,149.4140625,0.0
1734406850.4083362,63.96484375,-706.0546875,-176.7578125,113.76953125,0.0
1734406850.4122417,164.55078125,295.8984375,457.51953125,273.92578125,0.0
1734406850.4161472,217.28515625,417.96875,439.94140625,386.23046875,0.0
1734406850.4200525,153.3203125,1.953125,297.36328125,326.171875,0.0
1734406850.423958,62.01171875,9.27734375,179.19921875,159.66796875,0.0
1734406850.4278636,63.4765625,200.1953125,160.15625,101.5625,0.0
1734406850.4317691,155.2734375,308.10546875,381.34765625,250.0,0.0
1734406850.4356747,196.2890625,-178.7109375,326.66015625,386.23046875,0.0
1734406850.4395802,143.06640625,-146.484375,291.9921875,353.02734375,0.0
1734406850.4434955,54.6875,355.95703125,254.8828125,173.828125,0.0
1734406850.447401,50.78125,67.87109375,113.76953125,108.88671875,0.0
1734406850.4513066,143.06640625,-63.96484375,314.94140625,255.37109375,0.0
1734406850.455212,204.58984375,449.70703125,505.37109375,389.16015625,0.0
1734406850.4591174,178.22265625,699.70703125,466.30859375,375.0,0.0
1734406850.463023,84.47265625,-10.7421875,109.375,213.8671875,0.0
1734406850.4669285,53.22265625,-709.47265625,-158.203125,113.28125,0.0
1734406850.470834,141.11328125,-16.11328125,311.03515625,227.5390625,0.0
1734406850.4747396,212.890625,776.3671875,588.37890625,392.578125,0.0
1734406850.478645,188.96484375,450.68359375,354.00390625,407.2265625,0.0
1734406850.4825506,86.42578125,102.5390625,200.1953125,235.83984375,0.0
1734406850.4864562,48.828125,228.02734375,212.40234375,109.375,0.0
1734406850.4903705,125.48828125,407.2265625,363.76953125,211.9140625,0.0
1734406850.494276,199.70703125,361.328125,491.69921875,375.9765625,0.0
1734406850.4981816,175.29296875,386.23046875,451.171875,394.53125,0.0
1734406850.502087,97.16796875,456.0546875,310.05859375,249.0234375,0.0
1734406850.5059927,61.5234375,188.96484375,166.9921875,120.60546875,0.0
1734406850.5098982,115.234375,-62.5,291.9921875,200.1953125,0.0
1734406850.5138037,200.68359375,62.5,484.86328125,374.51171875,0.0
1734406850.5177093,204.58984375,291.015625,464.35546875,423.828125,0.0
1734406850.5216146,122.0703125,333.984375,323.73046875,290.0390625,0.0
1734406850.52552,46.38671875,-454.1015625,-74.70703125,142.08984375,0.0
1734406850.5294256,75.1953125,-478.515625,112.79296875,182.6171875,0.0
1734406850.5333312,174.8046875,646.484375,585.44921875,342.28515625,0.0
1734406850.5372448,191.89453125,687.98828125,488.28125,416.9921875,0.0
1734406850.5411503,116.2109375,302.24609375,359.86328125,309.08203125,0.0
1734406850.5450559,54.6875,222.65625,255.859375,147.4609375,0.0
1734406850.5489612,86.42578125,384.765625,320.80078125,168.9453125,0.0
1734406850.5528667,180.6640625,497.0703125,515.13671875,352.05078125,0.0
1734406850.5567722,190.4296875,265.625,475.09765625,434.5703125,0.0
1734406850.5606778,122.0703125,202.63671875,369.140625,326.66015625,0.0
1734406850.5645833,51.26953125,331.0546875,298.33984375,155.76171875,0.0
1734406850.5684888,54.6875,-62.01171875,161.1328125,145.99609375,0.0
1734406850.5723944,152.34375,-311.5234375,336.42578125,331.54296875,0.0
1734406850.5762997,187.5,485.3515625,572.75390625,430.17578125,0.0
1734406850.5802052,130.859375,702.63671875,456.0546875,344.7265625,0.0
1734406850.5841181,53.7109375,29.78515625,181.640625,185.546875,0.0
1734406850.5880237,62.5,-85.9375,194.82421875,154.78515625,0.0
1734406850.5919292,161.62109375,536.62109375,533.69140625,321.2890625,0.0
1734406850.5958345,207.03125,750.9765625,573.2421875,439.94140625,0.0
1734406850.59974,150.87890625,437.01171875,455.078125,375.48828125,0.0
1734406850.6036456,58.59375,-72.265625,251.953125,199.70703125,0.0
1734406850.607551,52.734375,-103.02734375,247.55859375,139.6484375,0.0
1734406850.6114566,167.48046875,476.07421875,525.390625,301.7578125,0.0
1734406850.6153622,237.79296875,226.07421875,490.72265625,459.47265625,0.0
1734406850.6192677,190.91796875,-90.33203125,409.1796875,434.5703125,0.0
1734406850.6231732,106.93359375,222.65625,380.859375,262.20703125,0.0
1734406850.6270785,100.5859375,182.6171875,305.17578125,190.4296875,0.0
1734406850.6309907,192.87109375,75.68359375,450.1953125,343.26171875,0.0
1734406850.6348963,271.484375,597.16796875,628.90625,499.0234375,0.0
1734406850.6388018,254.39453125,928.22265625,594.7265625,501.46484375,0.0
1734406850.642707,170.41015625,435.05859375,395.5078125,350.09765625,0.0
1734406850.6466126,143.06640625,111.81640625,330.078125,251.953125,0.0
1734406850.6505182,221.6796875,296.38671875,505.859375,375.0,0.0
1734406850.6544237,301.7578125,580.56640625,643.06640625,544.921875,0.0
1734406850.6583292,291.9921875,481.4453125,556.640625,572.75390625,0.0
1734406850.6622348,210.9375,-74.70703125,390.625,430.6640625,0.0
1734406850.6661403,181.640625,260.7421875,447.265625,303.7109375,0.0
1734406850.6700456,264.16015625,814.94140625,612.3046875,402.83203125,0.0
1734406850.6739511,363.28125,837.890625,694.3359375,597.16796875,0.0
1734406850.6778624,381.34765625,864.74609375,678.7109375,658.69140625,0.0
1734406850.681768,299.31640625,929.19921875,603.02734375,523.4375,0.0
1734406850.6856735,248.046875,704.58984375,509.27734375,388.671875,0.0
1734406850.6895788,296.38671875,563.4765625,609.86328125,460.44921875,0.0
1734406850.6934843,401.85546875,851.07421875,782.2265625,650.390625,0.0
1734406850.6973898,429.19921875,929.19921875,724.12109375,728.02734375,0.0
1734406850.7012954,339.84375,641.11328125,597.65625,591.796875,0.0
1734406850.705201,281.25,98.14453125,493.65234375,452.1484375,0.0
1734406850.7091064,330.078125,375.9765625,606.93359375,510.25390625,0.0
1734406850.713012,422.36328125,-998.046875,779.296875,697.265625,0.0
1734406850.7169173,442.87109375,943.84765625,754.39453125,778.3203125,0.0
1734406850.7208228,381.34765625,503.41796875,638.18359375,677.24609375,0.0
1734406850.72474,306.15234375,462.40234375,605.46875,524.90234375,0.0
1734406850.7286453,341.30859375,911.62109375,701.171875,540.0390625,0.0
1734406850.7325509,452.1484375,942.3828125,805.6640625,737.3046875,0.0
1734406850.7364564,482.91015625,903.80859375,823.2421875,846.19140625,0.0
1734406850.740362,438.4765625,948.73046875,771.97265625,770.99609375,0.0
1734406850.7442675,379.39453125,715.33203125,634.765625,624.0234375,0.0
1734406850.748173,379.39453125,415.0390625,641.11328125,619.62890625,0.0
1734406850.7520785,461.9140625,594.23828125,768.5546875,813.96484375,0.0
1734406850.755984,504.8828125,955.078125,836.9140625,932.6171875,0.0
1734406850.7598894,451.171875,-952.1484375,822.75390625,851.5625,0.0
1734406850.763795,373.53515625,600.5859375,635.7421875,693.359375,0.0
1734406850.7677004,371.09375,497.0703125,696.77734375,657.71484375,0.0
1734406850.77163,453.61328125,-994.140625,854.98046875,819.82421875,0.0
1734406850.7755356,518.06640625,987.79296875,836.9140625,957.51953125,0.0
1734406850.779441,473.6328125,823.2421875,784.1796875,909.1796875,0.0
1734406850.7833464,386.23046875,854.98046875,744.140625,733.88671875,0.0
1734406850.787252,368.1640625,983.88671875,783.203125,658.203125,0.0
1734406850.7911575,431.640625,949.70703125,821.77734375,805.17578125,0.0
1734406850.795063,470.21484375,925.78125,834.9609375,934.08203125,0.0
1734406850.7989686,420.41015625,948.73046875,832.03125,887.6953125,0.0
1734406850.802874,333.0078125,966.30859375,776.85546875,710.9375,0.0
1734406850.8067796,308.10546875,880.859375,718.75,617.1875,0.0
1734406850.8106852,372.55859375,480.46875,731.93359375,759.27734375,0.0
1734406850.8145905,432.6171875,629.8828125,820.3125,911.62109375,0.0
1734406850.818526,404.78515625,-938.96484375,848.14453125,888.18359375,0.0
1734406850.8224313,301.26953125,852.05078125,755.859375,715.33203125,0.0
1734406850.8263369,255.37109375,713.37890625,722.65625,599.609375,0.0
1734406850.8302424,327.1484375,931.15234375,817.87109375,693.84765625,0.0
1734406850.834148,386.23046875,-982.91015625,842.28515625,847.65625,0.0
1734406850.8380535,343.26171875,835.44921875,811.03515625,846.19140625,0.0
1734406850.841959,240.234375,670.8984375,738.76953125,665.0390625,0.0
1734406850.8458645,181.15234375,857.421875,708.984375,529.296875,0.0
1734406850.84977,241.69921875,-998.53515625,797.8515625,600.09765625,0.0
1734406850.8536754,313.4765625,813.4765625,821.77734375,753.41796875,0.0
1734406850.857581,290.52734375,775.390625,806.15234375,776.3671875,0.0
1734406850.8614864,181.640625,960.9375,762.6953125,605.95703125,0.0
1734406850.8654082,114.74609375,793.9453125,670.41015625,452.1484375,0.0
1734406850.8693137,160.64453125,466.796875,675.78125,507.8125,0.0
1734406850.8732193,232.91015625,674.31640625,799.8046875,657.71484375,0.0
1734406850.8771245,227.05078125,980.95703125,827.63671875,696.2890625,0.0
1734406850.88103,144.53125,-990.72265625,784.66796875,559.08203125,0.0
1734406850.8849356,82.51953125,97.65625,558.10546875,412.59765625,0.0
1734406850.8888412,92.28515625,-304.6875,580.078125,441.89453125,0.0
1734406850.8927467,183.10546875,796.875,832.51953125,591.796875,0.0
1734406850.8966522,216.30859375,-984.86328125,797.36328125,653.80859375,0.0
1734406850.9005578,107.421875,477.5390625,657.71484375,524.4140625,0.0
1734406850.9044633,20.99609375,242.1875,589.35546875,337.40234375,0.0
1734406850.9083686,38.57421875,700.1953125,671.875,313.4765625,0.0
1734406850.9122891,105.95703125,910.15625,783.69140625,465.33203125,0.0
1734406850.9161947,112.3046875,699.21875,728.02734375,527.83203125,0.0
1734406850.9201,26.85546875,708.0078125,666.9921875,402.83203125,0.0
1734406850.9240055,-62.98828125,635.7421875,568.84765625,222.16796875,0.0
1734406850.927911,-75.1953125,217.7734375,537.59765625,188.4765625,0.0
1734406850.9318166,10.7421875,112.3046875,669.43359375,352.5390625,0.0
1734406850.935722,48.33984375,485.3515625,704.1015625,443.84765625,0.0
1734406850.9396276,-14.6484375,809.5703125,665.52734375,359.86328125,0.0
1734406850.9435332,-101.07421875,220.703125,429.19921875,192.87109375,0.0
1734406850.9474387,-115.72265625,-320.80078125,391.6015625,131.34765625,0.0
1734406850.951344,-20.5078125,533.69140625,714.35546875,278.3203125,0.0
1734406850.9552495,38.0859375,-903.80859375,787.109375,396.97265625,0.0
1734406850.9591625,-15.625,418.9453125,543.45703125,345.21484375,0.0
1734406850.963068,-103.515625,-353.02734375,407.2265625,177.734375,0.0
1734406850.9669735,-109.86328125,219.23828125,548.828125,98.14453125,0.0
1734406850.970879,-4.39453125,823.2421875,677.24609375,250.9765625,0.0
1734406850.9747846,63.4765625,479.98046875,656.25,404.296875,0.0
1734406850.9786901,15.625,11.23046875,561.5234375,371.09375,0.0
1734406850.9825954,-75.68359375,216.30859375,496.09375,176.7578125,0.0
1734406850.986501,-112.3046875,198.73046875,450.68359375,65.91796875,0.0
1734406850.9904065,-64.453125,199.21875,582.03125,168.45703125,0.0
1734406850.994312,-27.83203125,408.203125,647.4609375,289.55078125,0.0
1734406850.9982176,-77.63671875,512.6953125,581.54296875,251.46484375,0.0
1734406851.002123,-184.5703125,306.15234375,401.3671875,47.36328125,0.0
1734406851.0060418,-235.3515625,-541.50390625,162.109375,-96.6796875,0.0
1734406851.0099473,-214.35546875,-282.2265625,377.44140625,-41.9921875,0.0
1734406851.0138528,-172.36328125,563.96484375,591.30859375,64.453125,0.0
1734406851.0177584,-198.73046875,276.3671875,399.90234375,50.78125,0.0
1734406851.021664,-307.12890625,-350.5859375,86.42578125,-141.11328125,0.0
1734406851.0255692,-403.3203125,-612.3046875,-262.6953125,-358.88671875,0.0
1734406851.0294747,-447.75390625,-521.484375,-105.46875,-404.296875,0.0
1734406851.0333803,-440.4296875,-528.3203125,103.515625,-317.3828125,0.0
1734406851.0372858,-475.5859375,-732.421875,-185.05859375,-331.0546875,0.0
1734406851.0411913,-594.23828125,-548.828125,-428.7109375,-551.26953125,0.0
1734406851.0450969,-715.8203125,-767.578125,-710.9375,-787.59765625,0.0
1734406851.0490024,-717.28515625,-1000.0,-740.234375,-806.15234375,0.0
1734406851.0529137,-663.57421875,-715.8203125,-461.42578125,-693.359375,0.0
1734406851.056819,-683.10546875,-460.44921875,-446.2890625,-691.89453125,0.0
1734406851.0607245,-736.81640625,-774.90234375,-782.2265625,-830.078125,0.0
1734406851.06463,-770.5078125,-1000.0,-911.62109375,-970.703125,0.0
1734406851.0685356,-712.890625,-911.1328125,-781.73828125,-925.29296875,0.0
1734406851.072441,-581.0546875,-805.17578125,-526.3671875,-720.703125,0.0
1734406851.0763466,-537.59765625,-786.1328125,-486.328125,-618.1640625,0.0
1734406851.0802522,-571.77734375,-900.390625,-698.2421875,-691.89453125,0.0
1734406851.0841577,-596.6796875,-935.05859375,-791.015625,-827.1484375,0.0
1734406851.088063,-542.48046875,-889.6484375,-714.84375,-801.7578125,0.0
1734406851.0919685,-410.15625,-698.2421875,-378.90625,-583.0078125,0.0
1734406851.095874,-330.56640625,-774.90234375,-372.0703125,-422.8515625,0.0
1734406851.099791,-358.3984375,-754.39453125,-540.0390625,-480.95703125,0.0
1734406851.1036966,-413.57421875,-594.7265625,-601.07421875,-640.13671875,0.0
1734406851.1076021,-377.44140625,-907.2265625,-732.91015625,-633.30078125,0.0
1734406851.1115077,-273.4375,-707.51953125,-356.4453125,-455.56640625,0.0
1734406851.1154132,-226.5625,-179.19921875,-36.1328125,-343.26171875,0.0
1734406851.1193187,-293.45703125,-449.70703125,-395.99609375,-415.52734375,0.0
1734406851.1232243,-377.9296875,-944.82421875,-785.15625,-591.796875,0.0
1734406851.1271298,-375.48828125,-965.8203125,-851.5625,-655.2734375,0.0
1734406851.131035,-310.546875,-515.13671875,-377.9296875,-526.3671875,0.0
1734406851.1349406,-270.99609375,-85.9375,-178.22265625,-412.59765625,0.0
1734406851.1388462,-327.63671875,-505.859375,-543.9453125,-473.14453125,0.0
1734406851.1427517,-429.19921875,-982.91015625,-816.89453125,-665.0390625,0.0
1734406851.1466746,-470.703125,-827.63671875,-835.44921875,-779.296875,0.0
1734406851.1505802,-423.828125,-584.47265625,-633.30078125,-681.15234375,0.0
1734406851.1544857,-372.0703125,-621.09375,-528.3203125,-551.7578125,0.0
1734406851.158391,-428.7109375,-696.2890625,-696.77734375,-596.6796875,0.0
1734406851.1622965,-541.015625,-834.9609375,-888.18359375,-806.640625,0.0
1734406851.166202,-592.7734375,-1000.0,-976.07421875,-939.94140625,0.0
1734406851.1701076,-557.12890625,-1000.0,-905.76171875,-861.328125,0.0
1734406851.1740131,-520.01953125,-882.32421875,-792.48046875,-739.2578125,0.0
1734406851.1779187,-557.12890625,-809.08203125,-859.375,-797.36328125,0.0
1734406851.1818242,-667.48046875,-980.95703125,-974.12109375,-958.49609375,0.0
1734406851.1857297,-739.74609375,-1000.0,-998.046875,-1000.0,0.0
1734406851.189635,-708.49609375,-994.140625,-964.35546875,-998.53515625,0.0
1734406851.1935446,-653.3203125,-988.28125,-921.875,-989.74609375,0.0
1734406851.1974502,-676.26953125,-993.1640625,-957.51953125,-988.76953125,0.0
1734406851.2013555,-774.4140625,-1000.0,-1000.0,-1000.0,0.0
1734406851.205261,-833.49609375,-1000.0,-1000.0,-1000.0,0.0
1734406851.2091665,-796.875,-1000.0,-996.58203125,-1000.0,0.0
1734406851.213072,-717.7734375,-1000.0,-996.58203125,-1000.0,0.0
1734406851.2169776,-712.890625,-1000.0,-1000.0,-1000.0,0.0
1734406851.2208831,-806.15234375,-1000.0,-1000.0,-1000.0,0.0
1734406851.2247887,-862.79296875,-996.09375,-996.58203125,-996.09375,0.0
1734406851.2286942,-777.34375,-1000.0,-1000.0,-1000.0,0.0
1734406851.2325995,-599.609375,-961.9140625,-972.65625,-980.95703125,0.0
1734406851.236505,-467.28515625,-898.92578125,-922.36328125,-873.046875,0.0
1734406851.2404265,-457.03125,-961.42578125,-970.703125,-875.0,0.0
1734406851.244332,-483.3984375,-999.0234375,-1000.0,-985.3515625,0.0
1734406851.2482376,-426.26953125,-1000.0,-975.09765625,-951.171875,0.0
1734406851.2521431,-326.171875,-756.8359375,-850.5859375,-752.9296875,0.0
1734406851.2560487,-290.52734375,-627.9296875,-847.65625,-644.04296875,0.0
1734406851.259954,-335.44921875,-939.94140625,-974.12109375,-706.54296875,0.0
1734406851.2638595,-413.57421875,-1000.0,-1000.0,-866.69921875,0.0
1734406851.267765,-417.96875,-979.4921875,-977.5390625,-924.31640625,0.0
1734406851.2716706,-339.84375,-966.30859375,-928.7109375,-760.25390625,0.0
1734406851.275576,-335.44921875,-992.1875,-941.89453125,-669.43359375,0.0
1734406851.2794816,-436.03515625,-1000.0,-997.0703125,-810.05859375,0.0
1734406851.2833872,-576.171875,-998.53515625,-1000.0,-976.5625,0.0
1734406851.2873006,-646.484375,-1000.0,-999.0234375,-1000.0,0.0
1734406851.2912061,-638.671875,-1000.0,-1000.0,-995.60546875,0.0
1734406851.2951117,-700.68359375,-1000.0,-1000.0,-1000.0,0.0
1734406851.2990172,-837.890625,-1000.0,-1000.0,-1000.0,0.0
1734406851.3029227,-958.984375,-1000.0,-1000.0,-1000.0,0.0
1734406851.306828,-983.3984375,-1000.0,-1000.0,-1000.0,0.0
1734406851.3107336,-878.41796875,-1000.0,-1000.0,-1000.0,0.0
1734406851.314639,-742.67578125,-1000.0,-1000.0,-1000.0,0.0
1734406851.3185446,-675.78125,-1000.0,-1000.0,-1000.0,0.0
1734406851.3224502,-655.76171875,-995.1171875,-995.1171875,-991.69921875,0.0
1734406851.3263557,-559.08203125,-1000.0,-1000.0,-1000.0,0.0
1734406851.3302612,-376.953125,-945.3125,-959.47265625,-944.82421875,0.0
1734406851.3341744,-212.40234375,-924.8046875,-934.5703125,-682.12890625,0.0
1734406851.3380797,-155.2734375,-968.75,-987.3046875,-556.15234375,0.0
1734406851.3419852,-195.80078125,-947.265625,-970.703125,-679.19921875,0.0
1734406851.3458908,-200.1953125,-1000.0,-990.234375,-750.0,0.0
1734406851.3497963,-110.3515625,-980.95703125,-924.31640625,-596.6796875,0.0
1734406851.3537018,-9.27734375,-870.60546875,-854.4921875,-393.5546875,0.0
1734406851.3576074,-5.37109375,-878.41796875,-873.046875,-344.23828125,0.0
1734406851.361513,-86.42578125,-952.1484375,-929.6875,-483.3984375,0.0
1734406851.3654184,-123.046875,-981.93359375,-984.86328125,-592.28515625,0.0
1734406851.3693237,-75.68359375,-1000.0,-931.15234375,-499.51171875,0.0
1734406851.3732293,-8.30078125,-694.82421875,-787.59765625,-325.1953125,0.0
1734406851.3771348,16.11328125,-497.55859375,-831.0546875,-257.8125,0.0
1734406851.3810468,-73.2421875,-884.765625,-966.796875,-416.9921875,0.0
1734406851.3849523,-164.55078125,-1000.0,-984.375,-604.00390625,0.0
1734406851.3888576,-155.2734375,-851.5625,-934.08203125,-577.63671875,0.0
1734406851.3927631,-97.65625,-774.4140625,-908.69140625,-416.9921875,0.0
1734406851.3966687,-90.33203125,-928.7109375,-960.44921875,-356.93359375,0.0
1734406851.4005742,-187.01171875,-983.88671875,-980.46875,-501.953125,0.0
1734406851.4044797,-264.16015625,-989.2578125,-990.72265625,-676.26953125,0.0
1734406851.4083853,-248.046875,-1000.0,-1000.0,-665.52734375,0.0
1734406851.4122908,-184.08203125,-954.58984375,-958.0078125,-503.41796875,0.0
1734406851.4161963,-155.2734375,-734.375,-900.87890625,-425.78125,0.0
1734406851.4201016,-231.93359375,-833.984375,-969.23828125,-540.0390625,0.0
1734406851.4240072,-294.921875,-1000.0,-1000.0,-711.9140625,0.0
1734406851.4279253,-280.2734375,-990.234375,-986.328125,-721.19140625,0.0
1734406851.431831,-195.80078125,-797.8515625,-905.2734375,-537.59765625,0.0
1734406851.4357364,-135.25390625,-665.52734375,-897.94921875,-419.43359375,0.0
1734406851.439642,-177.734375,-896.97265625,-969.7265625,-480.95703125,0.0
1734406851.4435475,-254.8828125,-1000.0,-983.3984375,-654.78515625,0.0
1734406851.4474528,-244.140625,-990.234375,-1000.0,-696.77734375,0.0
1734406851.4513583,-152.34375,-999.0234375,-939.94140625,-518.06640625,0.0
1734406851.4552639,-116.2109375,-964.84375,-895.5078125,-393.06640625,0.0
1734406851.4591694,-168.45703125,-957.51953125,-954.58984375,-465.33203125,0.0
1734406851.463075,-263.671875,-992.1875,-984.375,-663.0859375,0.0
1734406851.4669805,-291.9921875,-1000.0,-1000.0,-751.953125,0.0
1734406851.470886,-220.21484375,-987.79296875,-943.359375,-603.02734375,0.0
1734406851.474796,-163.57421875,-792.96875,-894.04296875,-462.40234375,0.0
1734406851.4787016,-213.37890625,-829.1015625,-963.37890625,-513.18359375,0.0
1734406851.4826071,-304.6875,-1000.0,-993.1640625,-697.75390625,0.0
1734406851.4865127,-323.73046875,-998.53515625,-1000.0,-791.9921875,0.0
1734406851.4904182,-253.41796875,-977.05078125,-957.51953125,-660.15625,0.0
1734406851.4943237,-187.98828125,-989.2578125,-934.08203125,-501.46484375,0.0
1734406851.498229,-215.8203125,-1000.0,-986.328125,-515.13671875,0.0
1734406851.5021346,-300.29296875,-997.0703125,-999.51171875,-697.265625,0.0
1734406851.50604,-334.47265625,-1000.0,-1000.0,-819.82421875,0.0
1734406851.5099456,-257.8125,-979.00390625,-960.9375,-701.171875,0.0
1734406851.5138512,-168.9453125,-963.37890625,-948.2421875,-515.13671875,0.0
1734406851.5177567,-167.96875,-1000.0,-1000.0,-477.05078125,0.0
1734406851.521666,-229.4921875,-996.09375,-987.3046875,-626.46484375,0.0
1734406851.5255716,-252.44140625,-996.09375,-1000.0,-732.421875,0.0
1734406851.5294771,-187.01171875,-1000.0,-975.09765625,-620.1171875,0.0
1734406851.5333824,-97.65625,-750.0,-893.06640625,-438.4765625,0.0
1734406851.537288,-91.796875,-667.48046875,-916.015625,-370.60546875,0.0
1734406851.5411935,-157.2265625,-954.1015625,-990.234375,-493.65234375,0.0
1734406851.545099,-178.7109375,-1000.0,-995.60546875,-624.0234375,0.0
1734406851.5490046,-123.046875,-904.296875,-944.82421875,-534.1796875,0.0
1734406851.55291,-30.76171875,-541.015625,-833.984375,-340.8203125,0.0
1734406851.5568156,6.8359375,-641.6015625,-853.515625,-252.9296875,0.0
1734406851.5607212,-59.5703125,-1000.0,-971.19140625,-352.5390625,0.0
1734406851.5646265,-133.7890625,-995.1171875,-986.81640625,-511.23046875,0.0
1734406851.568535,-105.95703125,-781.73828125,-924.8046875,-479.00390625,0.0
1734406851.5724406,-23.92578125,-641.6015625,-855.46875,-293.45703125,0.0
1734406851.5763462,-12.20703125,-739.74609375,-876.46484375,-202.63671875,0.0
1734406851.5802517,-87.40234375,-842.7734375,-950.1953125,-312.98828125,0.0
1734406851.5841572,-166.9921875,-979.00390625,-980.46875,-492.67578125,0.0
1734406851.5880625,-150.390625,-1000.0,-1000.0,-480.95703125,0.0
1734406851.591968,-62.98828125,-909.66796875,-910.64453125,-294.43359375,0.0
1734406851.5958736,-33.69140625,-575.1953125,-810.05859375,-189.453125,0.0
1734406851.5997791,-72.265625,-559.5703125,-912.109375,-261.23046875,0.0
1734406851.6036847,-130.859375,-881.8359375,-964.84375,-427.734375,0.0
1734406851.6075902,-113.28125,-939.453125,-969.7265625,-438.96484375,0.0
1734406851.6114957,-5.859375,-519.04296875,-779.296875,-237.3046875,0.0
1734406851.6154103,52.24609375,-240.72265625,-691.40625,-92.28515625,0.0
1734406851.6193159,23.92578125,-667.48046875,-867.67578125,-125.48828125,0.0
1734406851.6232214,-46.875,-964.35546875,-927.734375,-285.64453125,0.0
1734406851.627127,-41.015625,-687.5,-913.0859375,-328.61328125,0.0
1734406851.6310325,67.87109375,-372.0703125,-713.37890625,-128.41796875,0.0
1734406851.634938,127.9296875,-497.0703125,-645.99609375,34.66796875,0.0
1734406851.6388435,94.7265625,-751.953125,-805.17578125,0.0,0.0
1734406851.642749,29.78515625,-723.14453125,-864.2578125,-159.1796875,0.0
1734406851.6466544,31.73828125,-618.1640625,-891.11328125,-219.23828125,0.0
1734406851.65056,110.3515625,-775.87890625,-731.4453125,-45.8984375,0.0
1734406851.6544654,186.5234375,-528.3203125,-462.40234375,121.09375,0.0
1734406851.658371,172.8515625,-22.4609375,-528.3203125,111.81640625,0.0
1734406851.6622846,92.28515625,-383.7890625,-775.390625,-34.66796875,0.0
1734406851.66619,73.2421875,-725.09765625,-872.0703125,-124.51171875,0.0
1734406851.6700954,132.32421875,-334.9609375,-580.078125,0.0,0.0
1734406851.674001,176.7578125,70.3125,-322.265625,149.4140625,0.0
1734406851.6779065,153.80859375,-175.29296875,-562.5,136.23046875,0.0
1734406851.681812,61.5234375,-805.6640625,-851.07421875,-27.34375,0.0
1734406851.6857176,11.71875,-852.5390625,-871.58203125,-143.06640625,0.0
1734406851.689623,66.40625,-292.48046875,-590.33203125,-59.08203125,0.0
1734406851.6935287,132.32421875,-341.796875,-513.18359375,104.98046875,0.0
1734406851.697434,131.8359375,-681.15234375,-694.3359375,133.30078125,0.0
1734406851.7013395,35.64453125,-630.37109375,-727.05078125,-37.109375,0.0
1734406851.705245,-13.671875,-573.73046875,-805.17578125,-177.24609375,0.0
1734406851.7091577,43.45703125,-748.53515625,-805.6640625,-93.26171875,0.0
1734406851.7130632,120.60546875,-711.42578125,-584.47265625,82.03125,0.0
1734406851.7169688,121.09375,-127.9296875,-391.6015625,130.37109375,0.0
1734406851.7208743,48.828125,-248.046875,-640.625,-0.48828125,0.0
1734406851.7247798,22.94921875,-656.25,-846.19140625,-128.90625,0.0
1734406851.7286854,75.1953125,-795.8984375,-738.28125,-60.05859375,0.0
1734406851.7325907,156.73828125,-408.203125,-391.6015625,118.1640625,0.0
1734406851.7364962,182.12890625,-40.52734375,-312.01171875,195.3125,0.0
1734406851.7404017,122.0703125,-578.61328125,-698.73046875,104.4921875,0.0
1734406851.7443073,49.8046875,-1000.0,-867.1875,-54.19921875,0.0
1734406851.7482128,77.1484375,-553.7109375,-594.7265625,-45.41015625,0.0
1734406851.7521183,173.33984375,-69.3359375,-204.58984375,147.94921875,0.0
1734406851.7560306,226.5625,-31.73828125,-168.45703125,267.578125,0.0
1734406851.759936,180.17578125,-230.95703125,-460.9375,191.40625,0.0
1734406851.7638416,101.5625,-313.4765625,-589.84375,29.296875,0.0
1734406851.7677472,121.58203125,-284.1796875,-578.125,23.4375,0.0
1734406851.7716527,216.30859375,-167.96875,-196.77734375,214.84375,0.0
1734406851.7755582,254.8828125,-32.71484375,46.875,338.8671875,0.0
1734406851.7794635,201.66015625,-166.50390625,-249.0234375,272.94921875,0.0
1734406851.783369,135.7421875,-548.828125,-635.25390625,111.328125,0.0
1734406851.7872746,141.11328125,-801.26953125,-667.48046875,87.40234375,0.0
1734406851.7911801,224.609375,7.8125,-1.46484375,256.34765625,0.0
1734406851.7950857,287.59765625,522.94921875,267.578125,385.25390625,0.0
1734406851.7989912,266.6015625,119.140625,-43.9453125,370.1171875,0.0
1734406851.8029022,200.1953125,-125.0,-340.8203125,227.05078125,0.0
1734406851.8068078,194.3359375,58.10546875,-345.21484375,158.203125,0.0
1734406851.8107133,259.765625,284.1796875,79.58984375,287.109375,0.0
1734406851.8146188,291.50390625,282.71484375,322.75390625,423.828125,0.0
1734406851.8185241,265.625,107.421875,112.3046875,411.62109375,0.0
1734406851.8224297,195.80078125,-260.25390625,-286.1328125,259.765625,0.0
1734406851.8263352,179.19921875,-329.58984375,-380.37109375,181.640625,0.0
1734406851.8302407,259.27734375,-516.6015625,-177.734375,325.1953125,0.0
1734406851.8341463,320.3125,-368.1640625,115.234375,479.4921875,0.0
1734406851.8380518,301.7578125,218.75,230.95703125,462.890625,0.0
1734406851.8419573,223.6328125,-119.62890625,-125.9765625,316.89453125,0.0
1734406851.8458629,178.7109375,-219.23828125,-258.7890625,206.0546875,0.0
1734406851.8497865,0.0,223.6328125,160.64453125,322.265625,0.0
1734406851.853692,0.0,671.875,422.8515625,489.2578125,0.0
1734406851.8575976,0.0,498.046875,283.69140625,509.765625,0.0
1734406851.861503,0.0,64.453125,61.5234375,362.3046875,0.0
1734406851.8654084,0.0,38.57421875,-18.06640625,248.53515625,0.0
1734406851.869314,0.0,40.52734375,152.34375,335.44921875,0.0
1734406851.8732195,0.0,23.92578125,296.875,494.140625,0.0
1734406851.877125,0.0,-311.03515625,187.5,548.33984375,0.0
1734406851.8810306,0.0,-227.5390625,85.44921875,397.94921875,0.0
1734406851.884936,0.0,137.6953125,42.96875,235.83984375,0.0
1734406851.8888416,0.0,-78.125,30.2734375,288.0859375,0.0
1734406851.892747,0.0,49.31640625,268.5546875,449.70703125,0.0
1734406851.8966637,277.34375,571.77734375,411.1328125,492.67578125,0.0
1734406851.9005692,187.98828125,474.609375,202.63671875,359.86328125,0.0
1734406851.9044747,125.9765625,-257.8125,-174.31640625,210.44921875,0.0
1734406851.9083803,153.3203125,-288.0859375,-52.24609375,225.5859375,0.0
1734406851.9122858,225.5859375,467.28515625,405.2734375,390.13671875,0.0
1734406851.9161913,247.0703125,303.7109375,344.23828125,479.4921875,0.0
1734406851.9200969,173.33984375,-170.8984375,119.62890625,367.1875,0.0
1734406851.9240022,93.75,-172.36328125,-33.203125,188.96484375,0.0
1734406851.9279077,118.65234375,163.0859375,105.46875,176.7578125,0.0
1734406851.9318132,199.70703125,249.0234375,312.98828125,340.8203125,0.0
1734406851.9357188,214.84375,51.26953125,309.08203125,436.5234375,0.0
1734406851.9396243,154.78515625,-47.8515625,220.703125,350.5859375,0.0
1734406851.9435391,83.0078125,33.69140625,54.6875,165.0390625,0.0
1734406851.9474447,79.1015625,33.203125,5.37109375,131.8359375,0.0
1734406851.9513502,152.83203125,-274.90234375,246.58203125,304.19921875,0.0
1734406851.9552557,178.22265625,67.87109375,369.62890625,406.73828125,0.0
1734406851.9591613,126.46484375,442.87109375,280.76171875,333.0078125,0.0
1734406851.9630668,52.24609375,-272.94921875,-191.89453125,170.8984375,0.0
1734406851.9669724,47.36328125,-553.7109375,-276.3671875,108.88671875,0.0
1734406851.970878,119.62890625,166.50390625,318.359375,249.51171875,0.0
1734406851.9747834,163.0859375,560.546875,450.1953125,376.46484375,0.0
1734406851.9786887,129.39453125,99.609375,99.609375,341.30859375,0.0
1734406851.9825943,46.875,-854.4921875,-407.2265625,179.6875,0.0
1734406851.9864998,24.90234375,-543.45703125,-188.4765625,88.8671875,0.0
1734406851.9904082,105.46875,299.31640625,317.87109375,221.6796875,0.0
1734406851.9943137,158.69140625,265.13671875,364.2578125,363.76953125,0.0
1734406851.9982193,119.140625,20.99609375,239.2578125,335.44921875,0.0
1734406852.0021248,40.52734375,41.015625,78.61328125,166.015625,0.0
1734406852.0060303,22.94921875,86.9140625,6.34765625,75.1953125,0.0
1734406852.0099359,91.796875,-46.875,232.91015625,203.61328125,0.0
1734406852.0138412,147.4609375,52.24609375,366.69921875,356.93359375,0.0
1734406852.0177467,146.97265625,435.546875,356.4453125,374.51171875,0.0
1734406852.0216522,80.56640625,329.1015625,145.99609375,225.09765625,0.0
1734406852.0255578,37.109375,-422.36328125,-182.12890625,111.328125,0.0
1734406852.0294633,100.5859375,-295.41015625,124.0234375,212.40234375,0.0
1734406852.0333688,180.6640625,561.5234375,489.2578125,364.74609375,0.0
1734406852.0372825,184.5703125,503.90625,368.65234375,398.4375,0.0
1734406852.041188,105.95703125,-10.25390625,144.53125,256.8359375,0.0
1734406852.0450935,57.12890625,-22.4609375,92.7734375,126.953125,0.0
1734406852.048999,126.46484375,352.5390625,295.8984375,209.9609375,0.0
1734406852.0529046,212.890625,436.5234375,458.984375,406.25,0.0
1734406852.0568101,215.33203125,-325.68359375,272.94921875,485.3515625,0.0
1734406852.0607157,150.87890625,-549.31640625,112.3046875,354.4921875,0.0
1734406852.064621,104.4921875,10.25390625,162.109375,201.171875,0.0
1734406852.0685265,145.01953125,10.7421875,217.7734375,254.39453125,0.0
1734406852.072432,229.00390625,54.6875,404.296875,443.84765625,0.0
1734406852.0763376,260.7421875,649.4140625,538.57421875,513.671875,0.0
1734406852.080243,197.75390625,644.04296875,394.04296875,399.90234375,0.0
1734406852.084156,151.85546875,127.9296875,200.68359375,262.6953125,0.0
1734406852.0880616,178.7109375,171.38671875,305.6640625,294.921875,0.0
1734406852.091967,259.765625,688.4765625,549.31640625,467.28515625,0.0
1734406852.0958726,298.828125,794.921875,542.96875,562.01171875,0.0
1734406852.0997782,232.421875,444.82421875,443.84765625,478.515625,0.0
1734406852.1036835,171.875,-13.671875,286.62109375,323.2421875,0.0
1734406852.107589,191.89453125,42.96875,328.125,316.40625,0.0
1734406852.1114945,278.80859375,582.03125,559.5703125,487.79296875,0.0
1734406852.1154,309.08203125,211.9140625,457.51953125,605.46875,0.0
1734406852.1193056,253.41796875,-182.6171875,350.09765625,537.109375,0.0
1734406852.1232111,185.546875,121.58203125,354.98046875,367.1875,0.0
1734406852.1271167,188.96484375,246.09375,333.49609375,327.1484375,0.0
1734406852.1310353,268.06640625,278.80859375,489.2578125,486.81640625,0.0
1734406852.1349409,304.19921875,590.8203125,603.515625,606.4453125,0.0
1734406852.1388464,257.8125,853.02734375,544.43359375,555.17578125,0.0
1734406852.142752,191.40625,446.77734375,360.3515625,392.578125,0.0
1734406852.1466575,191.89453125,184.08203125,349.12109375,347.16796875,0.0
1734406852.1505628,281.73828125,363.76953125,559.08203125,509.765625,0.0
1734406852.1544683,349.12109375,679.19921875,639.16015625,649.90234375,0.0
1734406852.1583738,343.26171875,602.5390625,543.9453125,651.85546875,0.0
1734406852.1622794,291.015625,85.44921875,413.0859375,533.69140625,0.0
1734406852.166185,263.671875,452.63671875,495.1171875,447.75390625,0.0
1734406852.1700904,336.42578125,976.07421875,657.2265625,578.61328125,0.0
1734406852.173996,410.64453125,637.6953125,641.11328125,764.16015625,0.0
1734406852.1779077,404.296875,286.1328125,625.48828125,798.33984375,0.0
1734406852.1818132,355.95703125,793.9453125,639.16015625,653.80859375,0.0
1734406852.1857185,343.26171875,894.53125,596.19140625,565.4296875,0.0
1734406852.189624,418.9453125,819.3359375,713.37890625,702.63671875,0.0
1734406852.1935296,500.9765625,934.5703125,810.05859375,881.34765625,0.0
1734406852.1974351,507.32421875,947.265625,751.46484375,929.19921875,0.0
1734406852.2013407,449.21875,724.609375,653.3203125,826.171875,0.0
1734406852.2052462,434.08203125,583.0078125,659.66796875,746.09375,0.0
1734406852.2091517,515.625,858.3984375,792.48046875,865.234375,0.0
1734406852.2130573,607.91015625,998.046875,840.8203125,974.12109375,0.0
1734406852.2169626,625.0,953.61328125,811.03515625,968.26171875,0.0
1734406852.220868,577.63671875,798.33984375,766.6015625,967.28515625,0.0
1734406852.2247784,556.640625,874.0234375,798.828125,949.21875,0.0
1734406852.228684,631.8359375,-997.55859375,840.33203125,959.47265625,0.0
1734406852.2325895,748.53515625,953.125,848.6328125,973.14453125,0.0
1734406852.236495,810.05859375,942.87109375,849.609375,968.26171875,0.0
1734406852.2404006,820.80078125,964.35546875,852.05078125,970.21484375,0.0
1734406852.2443058,862.79296875,973.14453125,853.02734375,969.7265625,0.0
1734406852.2482114,950.1953125,967.28515625,862.3046875,969.7265625,0.0
1734406852.252117,972.65625,968.26171875,874.0234375,969.7265625,0.0
1734406852.2560225,965.8203125,969.23828125,893.06640625,969.7265625,0.0
1734406852.259928,969.7265625,970.21484375,897.4609375,969.7265625,0.0
1734406852.2638335,968.75,969.7265625,884.765625,969.7265625,0.0
1734406852.267739,968.75,969.7265625,902.34375,969.7265625,0.0
1734406852.271649,969.23828125,969.7265625,924.8046875,969.7265625,0.0
1734406852.2755544,969.23828125,969.7265625,923.828125,969.7265625,0.0
1734406852.27946,969.23828125,969.7265625,915.0390625,969.7265625,0.0
1734406852.2833652,969.23828125,969.7265625,902.83203125,969.7265625,0.0
1734406852.2872708,969.7265625,969.7265625,899.90234375,969.23828125,0.0
1734406852.2911763,963.37890625,970.703125,903.3203125,969.7265625,0.0
1734406852.2950819,974.12109375,959.47265625,892.08984375,969.7265625,0.0
1734406852.2989874,931.15234375,961.9140625,880.859375,969.7265625,0.0
1734406852.302893,740.234375,973.6328125,869.140625,969.7265625,0.0
1734406852.3067985,584.47265625,965.8203125,855.95703125,970.703125,0.0
1734406852.310704,515.625,951.66015625,854.00390625,965.8203125,0.0
1734406852.3146095,407.2265625,944.82421875,855.46875,965.33203125,0.0
1734406852.3185246,218.75,-989.74609375,845.703125,971.6796875,0.0
1734406852.3224301,10.7421875,777.83203125,756.8359375,751.46484375,0.0
1734406852.3263357,-116.2109375,406.73828125,666.50390625,484.375,0.0
1734406852.3302412,-166.9921875,577.1484375,718.75,458.49609375,0.0
1734406852.3341467,-227.5390625,699.21875,723.6328125,441.40625,0.0
1734406852.3380523,-344.23828125,115.234375,521.97265625,289.0625,0.0
1734406852.3419576,-503.90625,-733.3984375,270.99609375,18.06640625,0.0
1734406852.345863,-601.5625,-567.3828125,227.05078125,-197.75390625,0.0
1734406852.3497686,-583.984375,-11.23046875,378.90625,-193.84765625,0.0
1734406852.3536742,-591.796875,-292.96875,261.71875,-150.390625,0.0
1734406852.3575797,-669.921875,-572.265625,151.85546875,-242.1875,0.0
1734406852.3614852,-773.4375,-433.10546875,-65.4296875,-478.02734375,0.0
1734406852.3653996,-839.35546875,-629.39453125,-474.609375,-681.640625,0.0
1734406852.3693051,-832.03125,-845.703125,-393.5546875,-675.29296875,0.0
1734406852.3732107,-825.68359375,-722.16796875,-154.296875,-608.3984375,0.0
1734406852.3771162,-873.046875,-572.265625,-323.2421875,-676.26953125,0.0
1734406852.3810215,-965.8203125,-867.67578125,-724.609375,-887.6953125,0.0
1734406852.384927,-1000.0,-1000.0,-922.8515625,-1000.0,0.0
1734406852.3888326,-998.53515625,-993.65234375,-872.55859375,-995.60546875,0.0
1734406852.392738,-1000.0,-988.76953125,-749.51171875,-998.53515625,0.0
1734406852.3966436,-1000.0,-988.76953125,-841.30859375,-1000.0,0.0
1734406852.4005492,-1000.0,-1000.0,-973.14453125,-1000.0,0.0
1734406852.4044547,-1000.0,-1000.0,-1000.0,-1000.0,0.0
1734406852.4083602,-1000.0,-1000.0,-967.28515625,-1000.0,0.0
1734406852.4122736,-1000.0,-1000.0,-919.43359375,-1000.0,0.0
1734406852.4161792,-995.60546875,-1000.0,-917.96875,-1000.0,0.0
1734406852.4200847,-986.81640625,-1000.0,-942.3828125,-1000.0,0.0
1734406852.4239902,-964.84375,-998.53515625,-956.54296875,-996.09375,0.0
1734406852.4278958,-867.67578125,-998.53515625,-964.35546875,-1000.0,0.0
1734406852.4318013,-724.12109375,-998.046875,-843.26171875,-972.65625,0.0
1734406852.4357069,-633.30078125,-875.0,-658.69140625,-860.83984375,0.0
1734406852.4396122,-606.4453125,-704.58984375,-698.73046875,-841.30859375,0.0
1734406852.4435177,-560.546875,-885.25390625,-891.6015625,-892.578125,0.0
1734406852.4474232,-463.37890625,-955.56640625,-813.4765625,-796.875,0.0
1734406852.4513288,-305.6640625,-448.73046875,-194.82421875,-554.6875,0.0
1734406852.4552343,-174.8046875,15.625,144.04296875,-366.2109375,0.0
1734406852.459147,-146.97265625,-268.5546875,-69.82421875,-331.54296875,0.0
1734406852.4630525,-153.3203125,-458.984375,-330.078125,-402.83203125,0.0
1734406852.466958,-84.47265625,-73.73046875,-97.16796875,-361.328125,0.0
1734406852.4708636,55.17578125,238.76953125,330.078125,-141.11328125,0.0
1734406852.474769,141.6015625,204.1015625,410.64453125,38.57421875,0.0
1734406852.4786747,149.4140625,-35.64453125,307.6171875,79.1015625,0.0
1734406852.48258,135.7421875,-27.83203125,230.95703125,1.953125,0.0
1734406852.4864855,187.98828125,335.9375,333.49609375,15.13671875,0.0
1734406852.490391,306.15234375,34.1796875,436.5234375,235.3515625,0.0
1734406852.4942966,384.765625,-77.1484375,535.15625,423.33984375,0.0
1734406852.498202,406.73828125,669.921875,606.93359375,455.56640625,0.0
1734406852.5021076,377.44140625,683.10546875,516.11328125,373.53515625,0.0
1734406852.5060196,387.6953125,520.99609375,507.8125,352.5390625,0.0
1734406852.509925,505.37109375,875.0,707.03125,526.3671875,0.0
1734406852.5138304,591.30859375,998.53515625,807.6171875,713.37890625,0.0
1734406852.517736,599.12109375,923.828125,783.203125,774.90234375,0.0
1734406852.5216415,570.3125,838.8671875,704.1015625,704.1015625,0.0
1734406852.525547,578.125,765.625,682.12890625,662.59765625,0.0
1734406852.5294526,670.41015625,918.9453125,790.52734375,822.265625,0.0
1734406852.533358,754.8828125,906.73828125,830.078125,960.44921875,0.0
1734406852.5372636,763.671875,796.38671875,818.359375,974.12109375,0.0
1734406852.5411692,701.171875,950.1953125,822.75390625,955.078125,0.0
1734406852.5450745,665.52734375,-983.88671875,809.5703125,923.828125,0.0
1734406852.54898,730.95703125,807.12890625,807.6171875,956.0546875,0.0
1734406852.5528915,793.9453125,739.2578125,836.9140625,974.609375,0.0
1734406852.556797,769.53125,985.83984375,849.12109375,967.28515625,0.0
1734406852.5607026,706.0546875,971.6796875,832.51953125,970.21484375,0.0
1734406852.564608,692.3828125,954.1015625,828.125,969.7265625,0.0
1734406852.5685136,764.6484375,967.7734375,844.23828125,969.7265625,0.0
1734406852.5724192,856.93359375,958.0078125,856.93359375,969.7265625,0.0
1734406852.5763247,885.25390625,-986.328125,856.4453125,969.7265625,0.0
1734406852.5802302,829.1015625,753.41796875,835.44921875,969.7265625,0.0
1734406852.5841355,793.9453125,720.703125,837.890625,969.7265625,0.0
1734406852.588041,829.1015625,-995.1171875,854.4921875,969.7265625,0.0
1734406852.5919466,854.00390625,962.40234375,859.86328125,969.7265625,0.0
1734406852.5958521,832.03125,956.0546875,857.421875,969.7265625,0.0
1734406852.599763,737.79296875,968.26171875,850.5859375,969.7265625,0.0
1734406852.6036685,627.9296875,971.19140625,841.796875,969.7265625,0.0
1734406852.6075737,591.796875,966.30859375,842.28515625,970.21484375,0.0
1734406852.6114793,602.5390625,965.33203125,853.02734375,967.28515625,0.0
1734406852.6153848,566.89453125,949.21875,849.12109375,967.7734375,0.0
1734406852.6192904,448.73046875,994.62890625,830.56640625,976.07421875,0.0
1734406852.623196,323.2421875,687.98828125,773.4375,841.30859375,0.0
1734406852.6271014,274.4140625,442.87109375,740.234375,726.5625,0.0
1734406852.631007,292.96875,858.3984375,820.80078125,809.08203125,0.0
1734406852.6349125,271.484375,-920.41015625,844.7265625,834.9609375,0.0
1734406852.638818,173.828125,629.8828125,702.1484375,709.47265625,0.0
1734406852.6427233,62.98828125,188.96484375,601.07421875,500.48828125,0.0
1734406852.646633,7.8125,584.9609375,642.08984375,381.34765625,0.0
1734406852.6505384,15.625,758.30078125,723.14453125,440.91796875,0.0
1734406852.6544437,-15.13671875,370.1171875,622.55859375,465.33203125,0.0
1734406852.6583493,-118.1640625,267.08984375,551.7578125,340.8203125,0.0
1734406852.6622548,-250.48828125,310.05859375,441.89453125,109.86328125,0.0
1734406852.6661603,-328.61328125,-43.45703125,305.6640625,-50.29296875,0.0
1734406852.6700659,-305.17578125,-654.78515625,282.71484375,1.46484375,0.0
1734406852.6739714,-319.3359375,-784.1796875,304.19921875,39.55078125,0.0
1734406852.677877,-404.296875,-79.1015625,362.3046875,-78.125,0.0
1734406852.6817825,-502.44140625,-343.26171875,-34.66796875,-281.73828125,0.0
1734406852.6856878,-541.9921875,-758.30078125,-317.3828125,-414.0625,0.0
1734406852.6895933,-474.12109375,-343.26171875,108.88671875,-338.8671875,0.0
1734406852.693502,-421.38671875,83.49609375,360.83984375,-221.19140625,0.0
1734406852.6974075,-416.50390625,-42.48046875,213.37890625,-206.54296875,0.0
1734406852.701313,-426.7578125,-382.32421875,70.3125,-306.15234375,0.0
1734406852.7052186,-370.1171875,-217.28515625,154.78515625,-327.1484375,0.0
1734406852.709124,-197.75390625,221.19140625,439.94140625,-126.953125,0.0
1734406852.7130296,-17.08984375,305.6640625,584.47265625,139.6484375,0.0
1734406852.7169352,78.61328125,-40.52734375,559.08203125,301.7578125,0.0
1734406852.7208405,101.07421875,292.96875,604.98046875,293.45703125,0.0
1734406852.724746,165.52734375,823.73046875,650.87890625,280.2734375,0.0
1734406852.7286515,287.59765625,777.83203125,726.5625,443.84765625,0.0
1734406852.732557,393.06640625,803.7109375,822.265625,660.15625,0.0
1734406852.7364626,433.10546875,995.1171875,833.49609375,745.1171875,0.0
1734406852.740377,390.625,964.84375,801.26953125,671.875,0.0
1734406852.7442825,376.953125,859.86328125,744.62890625,597.16796875,0.0
1734406852.748188,435.546875,906.73828125,801.26953125,671.38671875,0.0
1734406852.7520936,517.08984375,979.98046875,855.95703125,837.40234375,0.0
1734406852.755999,528.3203125,991.2109375,839.84375,922.36328125,0.0
1734406852.7599044,450.1953125,813.96484375,821.2890625,833.0078125,0.0
1734406852.76381,395.5078125,757.8125,794.921875,697.75390625,0.0
1734406852.7677155,411.62109375,963.8671875,814.94140625,696.2890625,0.0
1734406852.771621,440.4296875,-996.09375,830.56640625,802.24609375,0.0
1734406852.7755265,383.30078125,594.23828125,752.9296875,815.91796875,0.0
1734406852.779432,220.703125,492.1875,713.8671875,618.1640625,0.0
1734406852.7833376,45.41015625,705.56640625,606.93359375,338.37890625,0.0
1734406852.7872643,-59.5703125,322.265625,469.23828125,191.89453125,0.0
1734406852.79117,-132.32421875,101.07421875,485.3515625,159.1796875,0.0
1734406852.7950754,-288.0859375,195.3125,403.80859375,37.109375,0.0
1734406852.798981,-517.578125,-187.01171875,-49.31640625,-250.48828125,0.0
1734406852.8028862,-747.0703125,-810.05859375,-708.0078125,-626.953125,0.0
1734406852.8067918,-911.62109375,-1000.0,-967.7734375,-894.53125,0.0
1734406852.8106973,-990.234375,-984.375,-897.94921875,-986.81640625,0.0
1734406852.8146029,-1000.0,-1000.0,-948.2421875,-998.53515625,0.0
1734406852.8185084,-998.53515625,-1000.0,-1000.0,-999.0234375,0.0
1734406852.822414,-1000.0,-1000.0,-999.0234375,-1000.0,0.0
1734406852.8263195,-1000.0,-1000.0,-999.51171875,-1000.0,0.0
1734406852.830225,-1000.0,-1000.0,-998.046875,-1000.0,0.0
1734406852.8341377,-1000.0,-1000.0,-996.09375,-1000.0,0.0
1734406852.8380432,-1000.0,-1000.0,-1000.0,-1000.0,0.0
1734406852.8419485,-1000.0,-1000.0,-1000.0,-1000.0,0.0
1734406852.845854,-1000.0,-1000.0,-1000.0,-1000.0,0.0
1734406852.8497596,-1000.0,-1000.0,-1000.0,-1000.0,0.0
1734406852.853665,-1000.0,-1000.0,-1000.0,-1000.0,0.0
1734406852.8575706,-1000.0,-1000.0,-1000.0,-1000.0,0.0
1734406852.8614762,-1000.0,-1000.0,-1000.0,-1000.0,0.0
1734406852.8653817,-1000.0,-1000.0,-1000.0,-1000.0,0.0
1734406852.8692873,-1000.0,-1000.0,-1000.0,-1000.0,0.0
1734406852.8731928,-1000.0,-1000.0,-1000.0,-1000.0,0.0
1734406852.877098,-1000.0,-1000.0,-1000.0,-1000.0,0.0
1734406852.8810105,-1000.0,-1000.0,-1000.0,-1000.0,0.0
1734406852.884916,-1000.0,-1000.0,-1000.0,-1000.0,0.0
1734406852.8888216,-1000.0,-1000.0,-1000.0,-1000.0,0.0
1734406852.8927271,-1000.0,-1000.0,-1000.0,-1000.0,0.0
1734406852.8966327,-1000.0,-1000.0,-1000.0,-1000.0,0.0
1734406852.900538,-1000.0,-1000.0,-1000.0,-1000.0,0.0
1734406852.9044435,-1000.0,-1000.0,-1000.0,-1000.0,0.0
1734406852.908349,-1000.0,-1000.0,-1000.0,-1000.0,0.0
1734406852.9122546,-1000.0,-1000.0,-1000.0,-1000.0,0.0
1734406852.91616,-1000.0,-1000.0,-1000.0,-1000.0,0.0
1734406852.9200656,-997.55859375,-1000.0,-1000.0,-1000.0,0.0
1734406852.9239712,-1000.0,-1000.0,-1000.0,-1000.0,0.0
1734406852.9278822,-975.09765625,-1000.0,-1000.0,-1000.0,0.0
1734406852.9317877,-876.46484375,-1000.0,-1000.0,-1000.0,0.0
1734406852.9356933,-837.40234375,-1000.0,-1000.0,-1000.0,0.0
1734406852.9395988,-895.99609375,-1000.0,-1000.0,-1000.0,0.0
1734406852.9435043,-940.4296875,-1000.0,-1000.0,-1000.0,0.0
1734406852.9474099,-891.6015625,-1000.0,-1000.0,-1000.0,0.0
1734406852.9513154,-787.109375,-1000.0,-1000.0,-1000.0,0.0
1734406852.9552207,-699.70703125,-1000.0,-1000.0,-1000.0,0.0
1734406852.9591262,-688.4765625,-1000.0,-1000.0,-1000.0,0.0
1734406852.9630318,-677.24609375,-1000.0,-1000.0,-1000.0,0.0
1734406852.9669373,-569.3359375,-1000.0,-1000.0,-1000.0,0.0
1734406852.9708428,-397.94921875,-1000.0,-1000.0,-1000.0,0.0
1734406852.9747531,-270.5078125,-1000.0,-1000.0,-1000.0,0.0
1734406852.9786587,-225.5859375,-1000.0,-1000.0,-1000.0,0.0
1734406852.982564,-197.265625,-1000.0,-1000.0,-994.140625,0.0
1734406852.9864695,-108.88671875,-1000.0,-1000.0,-1000.0,0.0
1734406852.990375,53.22265625,-1000.0,-1000.0,-960.9375,0.0
1734406852.9942806,160.64453125,-1000.0,-1000.0,-798.828125,0.0
1734406852.998186,171.875,-1000.0,-1000.0,-737.3046875,0.0
1734406853.0020916,157.71484375,-1000.0,-1000.0,-810.05859375,0.0
1734406853.0059972,189.94140625,-1000.0,-1000.0,-811.03515625,0.0
1734406853.0099027,289.0625,-996.58203125,-999.51171875,-612.3046875,0.0
1734406853.0138083,360.3515625,-990.72265625,-997.0703125,-413.0859375,0.0
1734406853.0177135,362.79296875,-903.3203125,-1000.0,-374.51171875,0.0
1734406853.0216296,317.87109375,-906.73828125,-996.09375,-472.65625,0.0
1734406853.025535,335.44921875,-990.234375,-1000.0,-487.79296875,0.0
1734406853.0294406,437.5,-933.59375,-964.84375,-302.734375,0.0
1734406853.0333462,514.16015625,-603.515625,-909.66796875,-114.2578125,0.0
1734406853.0372517,520.99609375,-459.9609375,-965.33203125,-65.91796875,0.0
1734406853.0411572,473.14453125,-808.59375,-982.91015625,-175.78125,0.0
1734406853.0450628,456.54296875,-1000.0,-1000.0,-226.07421875,0.0
1734406853.0489683,522.4609375,-815.4296875,-938.96484375,-78.125,0.0
1734406853.0528738,607.91015625,-199.70703125,-774.4140625,103.02734375,0.0
1734406853.0567791,617.67578125,-249.51171875,-843.75,177.24609375,0.0
1734406853.0606847,553.22265625,-690.4296875,-920.41015625,79.1015625,0.0
1734406853.0645902,538.57421875,-566.40625,-935.546875,-9.27734375,0.0
1734406853.068512,597.16796875,-389.16015625,-846.19140625,103.515625,0.0
1734406853.0724175,667.48046875,-352.05078125,-682.12890625,297.36328125,0.0
1734406853.076323,687.01171875,-203.125,-649.90234375,382.8125,0.0
1734406853.0802286,615.72265625,-90.8203125,-719.23828125,275.87890625,0.0
1734406853.084134,572.75390625,-192.87109375,-834.9609375,171.38671875,0.0
1734406853.0880396,621.09375,-437.98828125,-797.36328125,262.6953125,0.0
1734406853.0919452,691.89453125,-250.9765625,-498.046875,446.2890625,0.0
1734406853.0958507,712.890625,208.984375,-342.28515625,534.1796875,0.0
1734406853.0997562,656.73828125,259.27734375,-487.3046875,442.3828125,0.0
1734406853.1036615,595.703125,-341.796875,-762.20703125,319.82421875,0.0
1734406853.107567,630.859375,-756.34765625,-731.93359375,381.8359375,0.0
1734406853.1114726,715.8203125,77.63671875,-104.00390625,544.921875,0.0
1734406853.1153808,729.98046875,559.5703125,71.77734375,627.44140625,0.0
1734406853.1192863,660.64453125,117.67578125,-329.1015625,555.6640625,0.0
1734406853.1231918,601.07421875,-109.375,-535.64453125,414.0625,0.0
1734406853.1270974,602.05078125,-6.34765625,-454.1015625,412.59765625,0.0
1734406853.131003,666.9921875,82.03125,-89.84375,581.0546875,0.0
1734406853.1349084,692.87109375,34.66796875,8.7890625,691.89453125,0.0
1734406853.138814,617.67578125,-12.6953125,-270.01953125,613.28125,0.0
1734406853.1427195,540.52734375,147.4609375,-395.5078125,442.87109375,0.0
1734406853.1466248,535.64453125,141.11328125,-399.4140625,417.96875,0.0
1734406853.1505303,594.23828125,-45.8984375,-151.85546875,578.61328125,0.0
1734406853.1544359,626.46484375,120.60546875,126.46484375,680.17578125,0.0
1734406853.1583414,571.77734375,495.60546875,138.18359375,615.72265625,0.0
1734406853.162255,478.02734375,181.15234375,-263.671875,447.75390625,0.0
1734406853.1661606,442.3828125,-581.54296875,-544.43359375,383.7890625,0.0
1734406853.1700659,501.46484375,-202.1484375,23.92578125,517.08984375,0.0
1734406853.1739714,531.25,649.4140625,342.7734375,625.9765625,0.0
1734406853.177877,476.5625,365.72265625,39.0625,586.9140625,0.0
1734406853.1817825,391.6015625,-283.203125,-365.234375,422.8515625,0.0
1734406853.185688,349.12109375,-397.94921875,-491.2109375,323.73046875,0.0
1734406853.1895936,395.5078125,136.23046875,15.13671875,436.5234375,0.0
1734406853.193499,431.640625,210.9375,139.6484375,567.3828125,0.0
1734406853.1974046,390.13671875,-219.7265625,-141.11328125,546.875,0.0
1734406853.2013102,301.7578125,4.8828125,-187.5,365.72265625,0.0
1734406853.2052157,248.53515625,106.4453125,-398.4375,251.46484375,0.0
1734406853.2091548,287.109375,-53.7109375,-189.94140625,354.98046875,0.0
1734406853.2130604,341.796875,178.22265625,145.99609375,485.83984375,0.0
1734406853.216966,312.98828125,509.765625,189.453125,480.95703125,0.0
1734406853.2208714,224.609375,223.14453125,-155.2734375,318.84765625,0.0
1734406853.224777,177.24609375,-226.07421875,-487.3046875,200.1953125,0.0
1734406853.2286825,224.12109375,-308.10546875,-282.2265625,283.69140625,0.0
1734406853.232588,293.45703125,24.4140625,124.0234375,423.33984375,0.0
1734406853.2364936,281.25,329.58984375,130.37109375,442.87109375,0.0
1734406853.2403991,196.77734375,-272.94921875,-346.19140625,282.71484375,0.0
1734406853.2443044,144.04296875,-746.09375,-562.98828125,143.5546875,0.0
1734406853.24821,174.8046875,-346.19140625,-308.59375,206.0546875,0.0
1734406853.2521155,226.07421875,1.46484375,56.640625,346.6796875,0.0
1734406853.2560413,230.95703125,-229.00390625,-43.45703125,399.90234375,0.0
1734406853.2599468,158.69140625,-275.390625,-317.87109375,263.671875,0.0
1734406853.2638524,104.00390625,-19.04296875,-416.50390625,97.16796875,0.0
1734406853.267758,136.23046875,-102.05078125,-378.90625,145.01953125,0.0
1734406853.2716634,194.82421875,5.859375,-25.87890625,304.19921875,0.0
1734406853.275569,216.30859375,28.3203125,99.12109375,371.58203125,0.0
1734406853.2794743,159.66796875,-46.38671875,-205.56640625,271.97265625,0.0
1734406853.2833798,94.23828125,-320.80078125,-551.26953125,124.51171875,0.0
1734406853.2872853,97.65625,-417.96875,-487.79296875,125.9765625,0.0
1734406853.2911909,152.83203125,227.5390625,95.21484375,258.30078125,0.0
1734406853.2950964,180.17578125,497.0703125,250.0,347.65625,0.0
1734406853.299002,132.32421875,-94.23828125,-182.12890625,268.06640625,0.0
1734406853.3029132,61.03515625,-519.04296875,-544.43359375,101.07421875,0.0
1734406853.3068187,69.82421875,-271.97265625,-376.953125,88.37890625,0.0
1734406853.3107243,150.87890625,105.46875,79.58984375,250.48828125,0.0
1734406853.3146298,189.94140625,102.05078125,159.66796875,345.21484375,0.0
1734406853.3185353,143.06640625,-57.6171875,-63.4765625,277.83203125,0.0
1734406853.3224406,66.89453125,-305.17578125,-382.8125,115.72265625,0.0
1734406853.3263462,63.4765625,-588.8671875,-514.6484375,82.51953125,0.0
1734406853.3302517,139.6484375,-283.203125,-66.40625,248.53515625,0.0
1734406853.3341572,181.15234375,166.9921875,218.26171875,354.00390625,0.0
1734406853.3380628,142.578125,111.328125,-21.97265625,294.43359375,0.0
1734406853.3419683,62.01171875,-379.39453125,-416.9921875,134.27734375,0.0
1734406853.3458738,46.875,-717.28515625,-505.859375,69.3359375,0.0
1734406853.3497841,134.765625,-242.1875,29.78515625,206.54296875,0.0
1734406853.3536894,183.10546875,458.49609375,312.98828125,329.1015625,0.0
1734406853.357595,147.4609375,329.58984375,93.75,297.8515625,0.0
1734406853.3615005,67.3828125,-594.23828125,-471.6796875,157.71484375,0.0
1734406853.365406,29.78515625,-910.15625,-695.3125,76.171875,0.0
1734406853.3693116,100.09765625,-228.515625,-65.91796875,193.84765625,0.0
1734406853.373217,163.57421875,-57.12890625,162.59765625,336.42578125,0.0
1734406853.3771226,143.06640625,-380.859375,-116.69921875,337.40234375,0.0
1734406853.3810282,67.87109375,-185.05859375,-224.609375,170.8984375,0.0
1734406853.3849337,35.15625,87.40234375,-333.49609375,48.33984375,0.0
1734406853.3888392,89.35546875,3.41796875,-108.88671875,159.1796875,0.0
1734406853.3927445,143.5546875,207.03125,221.19140625,306.15234375,0.0
1734406853.3966606,137.20703125,486.328125,233.88671875,315.4296875,0.0
1734406853.400566,62.98828125,213.8671875,-105.46875,166.015625,0.0
1734406853.4044716,22.94921875,-270.5078125,-437.98828125,50.29296875,0.0
1734406853.4083772,84.47265625,-70.3125,-59.08203125,137.6953125,0.0
1734406853.4122827,164.0625,401.3671875,291.50390625,293.45703125,0.0
1734406853.4161882,160.64453125,240.72265625,195.80078125,336.42578125,0.0
1734406853.4200938,80.078125,-525.87890625,-290.0390625,214.35546875,0.0
1734406853.4239993,42.96875,-841.30859375,-607.421875,81.54296875,0.0
1734406853.4279048,83.49609375,-189.94140625,-103.02734375,118.1640625,0.0
1734406853.4318101,147.94921875,103.02734375,240.72265625,282.71484375,0.0
1734406853.4357157,157.2265625,67.87109375,207.51953125,342.28515625,0.0
1734406853.4396212,94.7265625,107.91015625,27.34375,212.40234375,0.0
1734406853.443543,31.25,68.359375,-274.4140625,63.96484375,0.0
1734406853.4474485,55.6640625,-22.4609375,-194.82421875,95.703125,0.0
1734406853.451354,128.41796875,71.2890625,196.77734375,262.20703125,0.0
1734406853.4552596,145.01953125,458.49609375,328.61328125,351.5625,0.0
1734406853.459165,79.58984375,354.4921875,88.8671875,240.72265625,0.0
1734406853.4630706,10.25390625,-343.75,-395.5078125,68.84765625,0.0
1734406853.4669762,24.90234375,-539.0625,-379.39453125,75.1953125,0.0
1734406853.4708817,97.65625,87.890625,179.19921875,235.3515625,0.0
1734406853.4747872,150.390625,560.546875,350.5859375,337.890625,0.0
1734406853.4786925,87.890625,21.484375,-58.59375,248.046875,0.0
1734406853.482598,-9.765625,-770.01953125,-529.296875,71.77734375,0.0
1734406853.4865036,2.9296875,-466.30859375,-327.63671875,45.8984375,0.0
1734406853.4904184,74.21875,221.19140625,193.84765625,189.94140625,0.0
1734406853.494324,104.00390625,189.453125,227.5390625,295.8984375,0.0
1734406853.4982295,74.21875,19.04296875,70.80078125,239.2578125,0.0
1734406853.502135,13.671875,34.66796875,-128.41796875,63.96484375,0.0
1734406853.5060406,2.9296875,-13.18359375,-275.390625,11.71875,0.0
1734406853.509946,81.54296875,-131.34765625,127.44140625,171.38671875,0.0
1734406853.5138516,129.39453125,-117.1875,298.33984375,296.38671875,0.0
1734406853.517757,87.40234375,234.86328125,187.5,252.9296875,0.0
1734406853.5216625,14.16015625,37.109375,-148.4375,83.984375,0.0
1734406853.525568,-8.7890625,-539.0625,-424.8046875,3.90625,0.0
1734406853.5294735,52.24609375,-212.40234375,81.0546875,147.94921875,0.0
1734406853.533379,107.91015625,454.58984375,371.58203125,279.296875,0.0
1734406853.537293,84.9609375,332.51953125,169.43359375,253.90625,0.0
1734406853.5411985,18.06640625,-395.5078125,-234.375,101.07421875,0.0
1734406853.545104,-6.8359375,-643.5546875,-392.08984375,7.32421875,0.0
1734406853.5490096,50.29296875,12.20703125,96.19140625,125.48828125,0.0
1734406853.552915,112.3046875,248.53515625,299.31640625,278.80859375,0.0
1734406853.5568206,88.8671875,-353.02734375,77.63671875,285.15625,0.0
1734406853.5607262,1.46484375,-443.359375,-153.80859375,122.0703125,0.0
1734406853.5646317,-35.15625,-30.76171875,-290.0390625,-6.34765625,0.0
1734406853.5685372,26.85546875,-90.8203125,-35.15625,95.21484375,0.0
1734406853.5724428,94.23828125,-460.44921875,192.87109375,262.20703125,0.0
1734406853.576348,82.03125,4.8828125,241.2109375,274.4140625,0.0
1734406853.5802536,9.765625,295.41015625,63.96484375,114.2578125,0.0
1734406853.5841663,-29.78515625,-479.98046875,-425.29296875,-1.46484375,0.0
1734406853.5880718,2.44140625,-561.03515625,-205.078125,67.3828125,0.0
1734406853.5919774,74.21875,351.07421875,367.67578125,221.19140625,0.0
1734406853.595883,89.84375,503.90625,306.15234375,277.83203125,0.0
1734406853.5997884,25.390625,-88.8671875,-81.54296875,142.578125,0.0
1734406853.603694,-28.3203125,-537.109375,-415.52734375,-1.46484375,0.0
1734406853.6075995,-5.859375,-391.11328125,-192.3828125,48.828125,0.0
1734406853.611505,81.54296875,-17.08984375,260.7421875,223.14453125,0.0
1734406853.6154106,108.3984375,-337.890625,71.2890625,297.36328125,0.0
1734406853.6193159,26.85546875,-907.71484375,-378.41796875,172.36328125,0.0
1734406853.6232214,-40.52734375,-352.5390625,-317.3828125,-9.27734375,0.0
1734406853.627127,-8.7890625,28.3203125,-74.70703125,15.13671875,0.0
1734406853.6310394,75.68359375,59.5703125,231.93359375,191.89453125,0.0
1734406853.634945,94.7265625,354.98046875,308.10546875,258.30078125,0.0
1734406853.6388505,36.62109375,347.65625,140.625,146.97265625,0.0
1734406853.6427557,-23.92578125,-152.34375,-284.66796875,-0.9765625,0.0
1734406853.6466613,-13.18359375,-289.55078125,-242.67578125,5.37109375,0.0
1734406853.6505668,70.80078125,-67.87109375,213.37890625,175.29296875,0.0
1734406853.6544724,104.98046875,214.35546875,320.3125,275.390625,0.0
1734406853.658378,68.84765625,76.171875,40.52734375,203.61328125,0.0
1734406853.6622834,-9.27734375,-693.359375,-422.36328125,32.2265625,0.0
1734406853.666189,-22.4609375,-451.66015625,-247.55859375,-18.5546875,0.0
1734406853.6700945,64.453125,295.41015625,296.38671875,133.30078125,0.0
1734406853.674,108.88671875,1.46484375,148.92578125,260.7421875,0.0
1734406853.677918,64.453125,-433.59375,-88.37890625,214.35546875,0.0
1734406853.6818235,-2.44140625,-86.9140625,-102.5390625,33.203125,0.0
1734406853.685729,-18.06640625,28.3203125,-205.078125,-29.78515625,0.0
1734406853.6896346,58.59375,-48.828125,180.6640625,126.46484375,0.0
1734406853.69354,110.3515625,166.015625,324.70703125,250.48828125,0.0
1734406853.6974456,81.0546875,115.234375,157.71484375,213.37890625,0.0
1734406853.7013512,2.44140625,-263.18359375,-142.08984375,41.9921875,0.0
1734406853.7052567,-28.3203125,-709.9609375,-497.55859375,-41.9921875,0.0
1734406853.7091622,57.12890625,-457.51953125,-61.5234375,106.93359375,0.0
1734406853.7130675,117.67578125,185.546875,356.4453125,247.55859375,0.0
1734406853.716973,86.9140625,64.453125,170.8984375,228.515625,0.0
1734406853.7208786,12.6953125,-500.48828125,-218.75,73.73046875,0.0
1734406853.7248154,-16.11328125,-611.81640625,-380.37109375,-29.78515625,0.0
1734406853.728721,42.48046875,191.89453125,146.97265625,77.63671875,0.0
1734406853.7326262,99.609375,403.3203125,349.12109375,236.328125,0.0
1734406853.7365317,90.8203125,82.51953125,231.4453125,247.55859375,0.0
1734406853.7404373,24.4140625,28.80859375,59.5703125,90.33203125,0.0
1734406853.7443428,-19.53125,-148.4375,-277.34375,-32.71484375,0.0
1734406853.7482483,32.2265625,-329.1015625,-82.51953125,62.5,0.0
1734406853.7521539,107.91015625,-50.78125,304.6875,232.91015625,0.0
1734406853.7560594,106.4453125,399.4140625,307.6171875,268.5546875,0.0
1734406853.759965,42.48046875,362.3046875,146.97265625,112.79296875,0.0
1734406853.7638705,8.30078125,-253.41796875,-275.390625,0.0,0.0
1734406853.767776,48.33984375,-557.12890625,-191.89453125,87.890625,0.0
1734406853.7717056,123.046875,257.32421875,400.390625,245.60546875,0.0
1734406853.775611,140.13671875,672.8515625,415.0390625,303.7109375,0.0
1734406853.7795165,71.77734375,-80.078125,8.7890625,181.15234375,0.0
1734406853.783422,17.08984375,-549.8046875,-305.6640625,35.64453125,0.0
1734406853.7873275,50.78125,60.05859375,96.6796875,82.03125,0.0
1734406853.791233,136.71875,241.69921875,370.60546875,265.13671875,0.0
1734406853.7951386,157.71484375,-1.953125,333.49609375,347.65625,0.0
1734406853.7990441,91.30859375,20.5078125,199.21875,228.02734375,0.0
1734406853.8029497,41.015625,137.6953125,45.8984375,69.3359375,0.0
1734406853.8068552,73.73046875,22.4609375,93.26171875,101.5625,0.0
1734406853.8107607,133.7890625,-158.69140625,302.24609375,278.3203125,0.0
1734406853.814666,154.78515625,204.58984375,430.17578125,370.60546875,0.0
1734406853.818576,131.8359375,493.65234375,314.453125,287.59765625,0.0
1734406853.8224816,92.28515625,124.51171875,80.078125,135.7421875,0.0
1734406853.8263872,102.5390625,-252.9296875,116.69921875,141.11328125,0.0
1734406853.8302925,186.5234375,273.4375,456.0546875,325.68359375,0.0
1734406853.834198,234.86328125,806.15234375,525.87890625,436.5234375,0.0
1734406853.8381035,206.54296875,263.18359375,315.4296875,387.20703125,0.0
1734406853.842009,145.99609375,-441.40625,80.078125,244.140625,0.0
1734406853.8459146,138.671875,-103.515625,224.12109375,211.9140625,0.0
1734406853.8498201,229.4921875,703.61328125,553.7109375,388.18359375,0.0
1734406853.8537257,288.0859375,556.640625,504.8828125,529.296875,0.0
1734406853.8576312,267.08984375,90.33203125,378.41796875,503.90625,0.0
1734406853.8615367,208.0078125,313.4765625,353.515625,337.40234375,0.0
1734406853.8654711,199.70703125,555.6640625,373.046875,277.34375,0.0
1734406853.8693767,279.296875,249.0234375,458.984375,456.0546875,0.0
1734406853.8732822,343.26171875,129.39453125,539.0625,607.421875,0.0
1734406853.8771877,322.75390625,701.66015625,562.5,575.1953125,0.0
1734406853.8810933,257.32421875,679.19921875,448.2421875,415.0390625,0.0
1734406853.8849988,234.86328125,26.3671875,267.08984375,349.609375,0.0
1734406853.8889043,302.24609375,-773.4375,324.70703125,510.7421875,0.0
1734406853.8928099,353.515625,75.68359375,629.8828125,650.390625,0.0
1734406853.8967154,345.703125,975.09765625,613.28125,624.0234375,0.0
1734406853.900621,279.78515625,379.39453125,398.92578125,476.07421875,0.0
1734406853.9045262,240.72265625,93.75,363.28125,379.8828125,0.0
1734406853.9084318,289.55078125,656.73828125,577.1484375,471.19140625,0.0
1734406853.9123466,352.5390625,941.89453125,676.7578125,626.953125,0.0
1734406853.9162521,354.00390625,763.18359375,587.890625,651.3671875,0.0
1734406853.9201577,281.25,680.6640625,502.9296875,492.1875,0.0
1734406853.9240632,238.76953125,681.640625,464.35546875,372.55859375,0.0
1734406853.9279687,280.76171875,649.90234375,555.17578125,477.5390625,0.0
1734406853.9318743,350.09765625,545.41015625,642.578125,655.76171875,0.0
1734406853.9357798,355.95703125,710.9375,628.41796875,677.24609375,0.0
1734406853.9396853,283.203125,832.51953125,541.9921875,519.53125,0.0
1734406853.9435909,220.703125,372.0703125,393.06640625,395.5078125,0.0
1734406853.9474962,247.55859375,333.49609375,509.27734375,456.0546875,0.0
1734406853.9514017,336.9140625,914.55078125,738.76953125,622.0703125,0.0
1734406853.9553072,356.4453125,-970.703125,700.1953125,702.63671875,0.0
1734406853.95922,289.0625,493.1640625,455.078125,574.70703125,0.0
1734406853.9631255,218.75,101.07421875,387.6953125,420.8984375,0.0
1734406853.967031,241.69921875,625.9765625,585.9375,458.49609375,0.0
1734406853.9709365,319.82421875,975.5859375,718.75,625.9765625,0.0
1734406853.974842,342.28515625,759.27734375,671.875,707.03125,0.0
1734406853.9787476,284.1796875,398.4375,569.3359375,600.09765625,0.0
1734406853.9826531,217.28515625,249.0234375,484.375,426.7578125,0.0
1734406853.9865587,225.09765625,590.8203125,555.6640625,420.8984375,0.0
1734406853.990464,305.17578125,432.6171875,630.37109375,608.3984375,0.0
1734406853.9943695,329.58984375,-362.3046875,545.8984375,719.23828125,0.0
1734406853.998275,269.04296875,226.5625,592.7734375,597.65625,0.0
1734406854.0021806,207.51953125,663.0859375,518.06640625,415.0390625,0.0
1734406854.0060925,207.51953125,463.8671875,485.3515625,403.3203125,0.0
1734406854.009998,280.76171875,816.40625,708.49609375,572.265625,0.0
1734406854.0139034,303.7109375,-982.91015625,743.1640625,674.31640625,0.0
1734406854.017809,252.44140625,771.484375,615.234375,591.796875,0.0
1734406854.0217144,177.24609375,278.80859375,480.95703125,419.921875,0.0
1734406854.02562,158.203125,167.48046875,475.5859375,365.72265625,0.0
1734406854.0295255,216.796875,643.5546875,678.22265625,506.8359375,0.0
1734406854.033431,249.51171875,815.4296875,716.796875,616.2109375,0.0
1734406854.0373366,210.44921875,188.96484375,563.4765625,566.89453125,0.0
1734406854.0412421,125.0,319.82421875,516.6015625,375.0,0.0
1734406854.0451477,100.5859375,675.78125,511.71875,281.25,0.0
1734406854.0490532,171.38671875,595.21484375,592.7734375,434.08203125,0.0
1734406854.0529642,219.23828125,764.16015625,684.5703125,561.03515625,0.0
1734406854.0568697,183.59375,901.3671875,642.08984375,518.06640625,0.0
1734406854.060775,102.05078125,628.90625,492.1875,347.16796875,0.0
1734406854.0646806,69.3359375,311.03515625,454.58984375,246.09375,0.0
1734406854.068586,121.09375,551.7578125,613.76953125,358.88671875,0.0
1734406854.0724916,170.41015625,697.75390625,648.92578125,499.0234375,0.0
1734406854.0763972,142.08984375,479.98046875,590.33203125,477.5390625,0.0
1734406854.0803027,55.17578125,-250.0,292.96875,306.640625,0.0
1734406854.0842083,15.13671875,-436.5234375,256.8359375,190.91796875,0.0
1734406854.0881138,64.453125,350.09765625,564.453125,281.25,0.0
1734406854.0920193,131.8359375,524.90234375,609.86328125,432.12890625,0.0
1734406854.0959249,120.1171875,503.90625,560.546875,444.3359375,0.0
1734406854.0998416,33.203125,463.8671875,456.54296875,277.34375,0.0
1734406854.1037471,-11.71875,471.19140625,393.5546875,132.8125,0.0
1734406854.1076527,20.99609375,422.36328125,491.69921875,201.171875,0.0
1734406854.1115582,84.9609375,527.83203125,618.65234375,363.28125,0.0
1734406854.1154635,110.83984375,703.125,587.40234375,426.26953125,0.0
1734406854.119369,30.2734375,320.3125,404.296875,270.01953125,0.0
1734406854.1232746,-62.01171875,-158.69140625,259.765625,97.16796875,0.0
1734406854.12718,-30.2734375,-291.015625,385.25390625,169.921875,0.0
1734406854.1310856,46.38671875,367.67578125,610.3515625,331.0546875,0.0
1734406854.1349912,58.10546875,881.8359375,621.09375,377.9296875,0.0
1734406854.1388967,-10.7421875,204.1015625,325.1953125,250.0,0.0
1734406854.1428022,-80.078125,-293.45703125,201.171875,90.33203125,0.0
1734406854.1467116,-46.875,298.828125,455.078125,116.2109375,0.0
1734406854.1506171,41.9921875,708.984375,603.515625,302.24609375,0.0
1734406854.1545227,71.2890625,536.1328125,556.15234375,398.4375,0.0
1734406854.1584282,12.6953125,340.33203125,464.84375,281.25,0.0
1734406854.1623337,-38.0859375,353.515625,367.67578125,110.83984375,0.0
1734406854.166239,-14.6484375,120.1171875,365.72265625,124.51171875,0.0
1734406854.1701446,59.08203125,45.41015625,545.8984375,298.33984375,0.0
1734406854.17405,106.93359375,455.56640625,600.5859375,387.6953125,0.0
1734406854.1779556,68.359375,638.671875,518.06640625,310.546875,0.0
1734406854.1818612,-10.25390625,184.08203125,346.6796875,145.01953125,0.0
1734406854.1857667,-0.48828125,-258.7890625,326.171875,125.48828125,0.0
1734406854.1896722,83.0078125,199.70703125,578.61328125,302.24609375,0.0
1734406854.1935878,120.60546875,853.515625,644.53125,404.296875,0.0
1734406854.1974933,87.40234375,609.375,473.6328125,342.28515625,0.0
1734406854.2013988,18.5546875,-202.63671875,297.8515625,184.08203125,0.0
1734406854.2053044,-10.7421875,-106.4453125,372.55859375,110.3515625,0.0
1734406854.20921,47.8515625,582.51953125,581.0546875,251.953125,0.0
1734406854.2131155,96.6796875,422.8515625,557.6171875,380.37109375,0.0
1734406854.217021,54.6875,-242.67578125,424.31640625,329.58984375,0.0
1734406854.2209265,-25.390625,-100.5859375,370.1171875,144.04296875,0.0
1734406854.224832,-45.8984375,333.49609375,344.23828125,56.640625,0.0
1734406854.2287374,5.37109375,269.04296875,453.125,191.89453125,0.0
1734406854.232643,50.29296875,387.6953125,554.19921875,315.91796875,0.0
1734406854.2365484,16.11328125,598.14453125,506.8359375,270.99609375,0.0
1734406854.2404563,-75.1953125,330.56640625,319.82421875,76.171875,0.0
1734406854.2443619,-106.93359375,-106.93359375,162.109375,-45.41015625,0.0
1734406854.2482672,-87.890625,0.9765625,338.8671875,36.62109375,0.0
1734406854.2521727,-62.01171875,424.8046875,492.1875,152.34375,0.0
1734406854.2560782,-74.21875,306.640625,374.51171875,130.859375,0.0
1734406854.2599838,-168.45703125,-315.4296875,22.4609375,-64.94140625,0.0
1734406854.2638893,-236.81640625,-743.1640625,-310.05859375,-211.9140625,0.0
1734406854.2677948,-208.0078125,-414.0625,-2.9296875,-138.671875,0.0
1734406854.2717004,-173.33984375,105.95703125,375.0,-27.83203125,0.0
1734406854.275606,-192.3828125,-487.79296875,-54.19921875,-27.83203125,0.0
1734406854.2795115,-288.57421875,-866.2109375,-438.96484375,-212.40234375,0.0
1734406854.283417,-363.28125,-425.78125,-387.20703125,-400.390625,0.0
1734406854.2873304,-347.65625,-390.13671875,-328.125,-363.28125,0.0
1734406854.291236,-307.6171875,-477.5390625,19.04296875,-230.46875,0.0
1734406854.2951415,-305.6640625,-320.3125,44.921875,-209.9609375,0.0
1734406854.299047,-387.6953125,-293.45703125,-377.9296875,-379.39453125,0.0
1734406854.3029525,-452.1484375,-698.73046875,-710.9375,-549.8046875,0.0
1734406854.306858,-435.05859375,-982.421875,-704.58984375,-526.3671875,0.0
1734406854.3107636,-394.04296875,-745.60546875,-343.75,-389.6484375,0.0
1734406854.3146691,-393.5546875,-465.33203125,-338.8671875,-352.05078125,0.0
1734406854.3185747,-470.703125,-760.7421875,-733.88671875,-506.8359375,0.0
1734406854.32248,-545.41015625,-1000.0,-935.05859375,-703.61328125,0.0
1734406854.3263855,-541.9921875,-840.33203125,-782.2265625,-724.609375,0.0
1734406854.330291,-500.0,-543.45703125,-506.8359375,-587.40234375,0.0
1734406854.3342035,-485.3515625,-688.96484375,-635.7421875,-518.06640625,0.0
1734406854.338109,-542.96875,-1000.0,-936.5234375,-635.25390625,0.0
1734406854.3420146,-614.74609375,-956.0546875,-898.4375,-827.1484375,0.0
1734406854.34592,-606.4453125,-974.12109375,-905.2734375,-859.375,0.0
1734406854.3498256,-542.48046875,-969.23828125,-795.8984375,-720.703125,0.0
1734406854.3537312,-520.01953125,-980.46875,-780.76171875,-645.5078125,0.0
1734406854.3576367,-566.40625,-1000.0,-910.64453125,-734.375,0.0
1734406854.3615422,-639.6484375,-1000.0,-953.125,-925.29296875,0.0
1734406854.3654478,-651.85546875,-998.046875,-973.6328125,-978.02734375,0.0
1734406854.3693533,-592.7734375,-1000.0,-898.4375,-829.58984375,0.0
1734406854.3732588,-553.22265625,-980.46875,-869.140625,-731.93359375,0.0
1734406854.3771641,-577.63671875,-972.65625,-933.59375,-806.640625,0.0
1734406854.3810961,-641.11328125,-997.0703125,-977.05078125,-944.3359375,0.0
1734406854.3850017,-667.48046875,-1000.0,-996.09375,-1000.0,0.0
1734406854.3889072,-603.515625,-956.54296875,-903.3203125,-942.3828125,0.0
1734406854.3928127,-558.59375,-922.36328125,-887.6953125,-809.08203125,0.0
1734406854.3967183,-595.703125,-1000.0,-1000.0,-875.0,0.0
1734406854.4006238,-667.96875,-1000.0,-1000.0,-989.74609375,0.0
1734406854.404529,-697.265625,-997.55859375,-990.72265625,-1000.0,0.0
1734406854.4084346,-629.39453125,-1000.0,-986.328125,-991.2109375,0.0
1734406854.4123402,-560.05859375,-1000.0,-978.02734375,-883.7890625,0.0
1734406854.4162457,-577.1484375,-1000.0,-971.6796875,-893.06640625,0.0
1734406854.4201512,-653.3203125,-999.51171875,-991.2109375,-996.09375,0.0
1734406854.4240568,-683.59375,-1000.0,-1000.0,-999.51171875,0.0
1734406854.427969,-619.140625,-994.140625,-968.75,-1000.0,0.0
1734406854.4318745,-549.8046875,-983.3984375,-929.6875,-930.6640625,0.0
1734406854.43578,-547.36328125,-999.51171875,-978.515625,-888.671875,0.0
1734406854.4396856,-606.4453125,-1000.0,-1000.0,-972.65625,0.0
1734406854.4435909,-627.9296875,-999.51171875,-1000.0,-1000.0,0.0
1734406854.4474964,-562.98828125,-1000.0,-988.76953125,-996.58203125,0.0
1734406854.451402,-478.02734375,-1000.0,-963.8671875,-862.79296875,0.0
1734406854.4553075,-444.82421875,-1000.0,-970.703125,-757.8125,0.0
1734406854.459213,-470.21484375,-1000.0,-986.328125,-879.8828125,0.0
1734406854.4631186,-515.625,-997.0703125,-1000.0,-1000.0,0.0
1734406854.467024,-488.76953125,-1000.0,-991.2109375,-964.35546875,0.0
1734406854.4709296,-384.765625,-972.16796875,-942.87109375,-775.87890625,0.0
1734406854.4748461,-352.05078125,-923.828125,-936.5234375,-679.6875,0.0
1734406854.4787517,-383.30078125,-971.19140625,-977.5390625,-785.15625,0.0
1734406854.4826572,-431.640625,-1000.0,-1000.0,-920.8984375,0.0
1734406854.4865627,-407.71484375,-994.140625,-979.4921875,-875.9765625,0.0
1734406854.4904683,-302.24609375,-923.828125,-933.10546875,-681.15234375,0.0
1734406854.4943738,-249.51171875,-965.33203125,-962.40234375,-576.171875,0.0
1734406854.4982793,-285.15625,-1000.0,-987.3046875,-662.109375,0.0
1734406854.5021849,-349.609375,-996.09375,-1000.0,-805.17578125,0.0
1734406854.5060904,-328.61328125,-998.53515625,-985.3515625,-787.59765625,0.0
1734406854.509996,-236.328125,-702.63671875,-885.25390625,-612.3046875,0.0
1734406854.5139012,-189.453125,-725.09765625,-886.71875,-486.328125,0.0
1734406854.5178068,-215.8203125,-989.2578125,-968.75,-551.26953125,0.0
1734406854.5217164,-287.59765625,-956.54296875,-984.375,-722.16796875,0.0
1734406854.525622,-287.109375,-971.19140625,-977.05078125,-740.72265625,0.0
1734406854.5295274,-199.70703125,-946.77734375,-904.78515625,-548.828125,0.0
1734406854.533433,-149.4140625,-779.296875,-870.60546875,-421.38671875,0.0
1734406854.5373385,-160.15625,-721.19140625,-937.5,-471.6796875,0.0
1734406854.541244,-203.61328125,-941.40625,-984.86328125,-620.1171875,0.0
1734406854.5451496,-206.0546875,-1000.0,-991.2109375,-652.83203125,0.0
1734406854.549055,-112.3046875,-717.28515625,-831.0546875,-454.1015625,0.0
1734406854.5529604,-45.41015625,-430.17578125,-742.67578125,-298.828125,0.0
1734406854.556866,-67.3828125,-752.9296875,-891.11328125,-320.3125,0.0
1734406854.5607715,-121.58203125,-1000.0,-933.10546875,-452.63671875,0.0
1734406854.564677,-136.71875,-841.796875,-949.70703125,-529.78515625,0.0
1734406854.5685859,-61.5234375,-458.0078125,-746.58203125,-373.53515625,0.0
1734406854.5724914,16.11328125,-334.9609375,-621.09375,-187.98828125,0.0
1734406854.576397,8.30078125,-759.27734375,-822.265625,-183.10546875,0.0
1734406854.5803022,-61.5234375,-845.703125,-886.71875,-337.40234375,0.0
1734406854.5842078,-90.33203125,-710.44921875,-911.62109375,-436.5234375,0.0
1734406854.5881133,-20.5078125,-822.75390625,-830.56640625,-303.7109375,0.0
1734406854.5920188,53.22265625,-921.38671875,-702.1484375,-122.55859375,0.0
1734406854.5959244,61.5234375,-532.71484375,-643.5546875,-105.46875,0.0
1734406854.59983,8.7890625,-326.66015625,-771.484375,-247.55859375,0.0
1734406854.6037354,-19.04296875,-737.79296875,-908.203125,-336.9140625,0.0
1734406854.607641,43.45703125,-654.78515625,-679.19921875,-204.1015625,0.0
1734406854.6115465,118.1640625,-79.58984375,-388.18359375,-15.13671875,0.0
1734406854.615454,129.8828125,-183.59375,-512.6953125,36.1328125,0.0
1734406854.6193595,67.87109375,-688.4765625,-734.86328125,-101.07421875,0.0
1734406854.623265,18.5546875,-712.890625,-823.73046875,-236.81640625,0.0
1734406854.6271706,62.01171875,-314.453125,-594.23828125,-150.87890625,0.0
1734406854.631076,147.4609375,-12.20703125,-333.49609375,40.0390625,0.0
1734406854.6349814,160.64453125,-306.15234375,-442.3828125,114.74609375,0.0
1734406854.638887,92.28515625,-692.87109375,-639.16015625,-20.5078125,0.0
1734406854.6427925,57.12890625,-500.48828125,-721.19140625,-165.0390625,0.0
1734406854.646698,91.796875,-248.53515625,-588.8671875,-99.609375,0.0
1734406854.6506035,168.9453125,-586.42578125,-425.29296875,100.09765625,0.0
1734406854.654509,215.33203125,-466.796875,-324.21875,193.84765625,0.0
1734406854.6584146,162.59765625,-6.34765625,-449.21875,73.73046875,0.0
1734406854.662328,94.23828125,-365.234375,-712.40234375,-101.5625,0.0
1734406854.6662335,104.00390625,-579.1015625,-623.53515625,-83.0078125,0.0
1734406854.670139,175.29296875,-105.46875,-135.25390625,107.421875,0.0
1734406854.6740446,212.40234375,79.58984375,-77.1484375,209.47265625,0.0
1734406854.6779501,168.45703125,-345.703125,-517.578125,117.67578125,0.0
1734406854.6818557,89.84375,-841.30859375,-773.4375,-62.01171875,0.0
1734406854.6857612,78.125,-673.33984375,-628.41796875,-88.8671875,0.0
1734406854.6896667,153.80859375,63.4765625,-77.1484375,78.125,0.0
1734406854.6935723,202.1484375,-32.2265625,-87.40234375,207.51953125,0.0
1734406854.6974778,156.25,-541.50390625,-510.25390625,145.99609375,0.0
1734406854.7013834,74.21875,-389.6484375,-549.8046875,-39.55078125,0.0
1734406854.7052886,52.734375,-154.78515625,-498.53515625,-92.7734375,0.0
1734406854.7092016,126.46484375,-372.55859375,-384.765625,87.40234375,0.0
1734406854.7131069,189.453125,-442.87109375,-265.625,225.5859375,0.0
1734406854.7170124,149.90234375,5.37109375,-234.375,162.109375,0.0
1734406854.720918,64.453125,-158.69140625,-537.109375,-23.92578125,0.0
1734406854.7248235,46.38671875,-572.265625,-689.94140625,-102.5390625,0.0
1734406854.728729,111.81640625,-565.91796875,-378.41796875,46.875,0.0
1734406854.7326345,154.296875,-290.0390625,-81.54296875,186.03515625,0.0
1734406854.73654,124.0234375,-243.1640625,-254.39453125,152.83203125,0.0
1734406854.7404456,44.43359375,-672.36328125,-671.38671875,-17.578125,0.0
1734406854.7443511,7.32421875,-965.8203125,-802.734375,-113.76953125,0.0
1734406854.7482567,78.125,-272.94921875,-254.39453125,20.01953125,0.0
1734406854.7521622,144.04296875,159.66796875,57.6171875,184.08203125,0.0
1734406854.756074,125.48828125,-43.45703125,-182.6171875,178.7109375,0.0
1734406854.7599795,54.6875,-138.18359375,-450.1953125,1.46484375,0.0
1734406854.763885,15.625,-147.94921875,-533.69140625,-115.72265625,0.0
1734406854.7677906,66.40625,-124.0234375,-344.7265625,13.18359375,0.0
1734406854.771696,137.20703125,-84.9609375,-30.76171875,179.19921875,0.0
1734406854.7756016,137.20703125,-178.22265625,-114.2578125,193.359375,0.0
1734406854.7795072,55.17578125,-291.015625,-416.50390625,30.76171875,0.0
1734406854.7834127,14.16015625,-461.9140625,-635.7421875,-104.98046875,0.0
1734406854.7873182,65.91796875,-766.11328125,-538.57421875,-1.953125,0.0
1734406854.7912235,134.765625,-134.27734375,77.1484375,174.8046875,0.0
1734406854.795129,147.94921875,122.55859375,67.3828125,223.6328125,0.0
1734406854.7990346,80.078125,-391.6015625,-369.140625,82.51953125,0.0
