timestamps,TP9,AF7,AF8,TP10,Right AUX
1734406656.143063,-1000.0,970.21484375,2.44140625,-1000.0,0.0
1734406656.1469672,-1000.0,970.21484375,-76.66015625,-1000.0,0.0
1734406656.1508713,-1000.0,969.7265625,-286.62109375,-1000.0,0.0
1734406656.1547756,-1000.0,969.7265625,126.46484375,-1000.0,0.0
1734406656.1586797,-1000.0,969.7265625,322.75390625,-1000.0,0.0
1734406656.162584,-1000.0,970.21484375,340.33203125,-1000.0,0.0
1734406656.1664882,-1000.0,970.21484375,341.796875,-1000.0,0.0
1734406656.1703923,-1000.0,969.7265625,326.66015625,-1000.0,0.0
1734406656.1742966,-1000.0,969.7265625,232.421875,-1000.0,0.0
1734406656.1782007,-1000.0,970.21484375,126.46484375,-1000.0,0.0
1734406656.1821048,-1000.0,970.21484375,142.578125,-1000.0,0.0
1734406656.1860092,-1000.0,969.7265625,-303.7109375,-1000.0,0.0
1734406656.190003,-1000.0,970.21484375,-929.19921875,-1000.0,0.0
1734406656.193907,-1000.0,970.21484375,-995.1171875,-1000.0,0.0
1734406656.1978114,-1000.0,969.7265625,-985.3515625,-1000.0,0.0
1734406656.2017155,-1000.0,970.21484375,-999.0234375,-1000.0,0.0
1734406656.2056198,-1000.0,970.21484375,-999.0234375,-1000.0,0.0
1734406656.209524,-1000.0,969.7265625,-997.55859375,-1000.0,0.0
1734406656.213428,-1000.0,969.7265625,-1000.0,-1000.0,0.0
1734406656.2173324,-1000.0,969.7265625,-972.16796875,-1000.0,0.0
1734406656.2212365,-1000.0,970.21484375,-936.5234375,-1000.0,0.0
1734406656.2251406,-1000.0,970.21484375,-904.296875,-1000.0,0.0
1734406656.229045,-1000.0,970.21484375,-832.03125,-1000.0,0.0
1734406656.232949,-1000.0,970.21484375,-800.29296875,-1000.0,0.0
1734406656.2369232,-1000.0,969.7265625,-889.16015625,-1000.0,0.0
1734406656.2408276,-1000.0,969.7265625,-665.52734375,-1000.0,0.0
1734406656.2447317,-1000.0,970.21484375,-318.359375,-1000.0,0.0
1734406656.2486358,-946.77734375,970.21484375,-368.1640625,-1000.0,0.0
1734406656.25254,-1000.0,970.21484375,-438.4765625,-1000.0,0.0
1734406656.2564442,-825.1953125,971.6796875,-270.01953125,-937.5,0.0
1734406656.2603486,558.59375,956.54296875,333.0078125,-1000.0,0.0
1734406656.2642527,-933.59375,987.79296875,667.96875,-219.7265625,0.0
1734406656.2681568,906.25,858.88671875,587.890625,-958.984375,0.0
1734406656.272061,979.4921875,506.8359375,658.69140625,953.125,0.0
1734406656.2759652,969.23828125,159.66796875,826.66015625,942.3828125,0.0
1734406656.2798696,969.23828125,-568.359375,842.28515625,976.5625,0.0
1734406656.2838433,969.23828125,-1000.0,840.33203125,969.7265625,0.0
1734406656.2877476,969.23828125,-981.93359375,840.8203125,969.7265625,0.0
1734406656.2916517,969.23828125,-994.62890625,836.9140625,969.7265625,0.0
1734406656.295556,969.23828125,-1000.0,811.5234375,969.7265625,0.0
1734406656.2994602,969.23828125,-1000.0,791.015625,969.7265625,0.0
1734406656.3033643,969.23828125,-1000.0,815.91796875,969.7265625,0.0
1734406656.3072686,968.75,-1000.0,791.50390625,969.7265625,0.0
1734406656.3111727,968.75,-1000.0,646.484375,969.7265625,0.0
1734406656.315077,969.23828125,-1000.0,570.3125,970.21484375,0.0
1734406656.3189812,969.23828125,-1000.0,677.24609375,969.7265625,0.0
1734406656.3228853,969.23828125,-1000.0,791.015625,969.7265625,0.0
1734406656.3267896,969.23828125,-1000.0,621.58203125,969.7265625,0.0
1734406656.3307137,969.23828125,-1000.0,475.09765625,969.7265625,0.0
1734406656.3346179,969.23828125,-1000.0,478.515625,969.7265625,0.0
1734406656.3385222,968.75,-1000.0,462.890625,969.7265625,0.0
1734406656.3424263,969.23828125,-1000.0,373.53515625,969.7265625,0.0
1734406656.3463306,969.23828125,-992.1875,235.83984375,969.7265625,0.0
1734406656.3502347,969.23828125,-984.375,196.2890625,969.7265625,0.0
1734406656.3541389,969.23828125,-982.421875,133.7890625,969.7265625,0.0
1734406656.3580432,971.6796875,-1000.0,91.796875,975.09765625,0.0
1734406656.3619473,903.80859375,-896.97265625,316.89453125,946.77734375,0.0
1734406656.3658516,-891.6015625,-710.9375,483.3984375,947.265625,0.0
1734406656.3697557,222.65625,-885.7421875,20.99609375,-953.61328125,0.0
1734406656.3736598,-1000.0,-1000.0,-611.81640625,-164.55078125,0.0
1734406656.3775759,-989.74609375,-993.1640625,-812.5,-1000.0,0.0
1734406656.38148,-971.19140625,-999.0234375,-883.7890625,-944.3359375,0.0
1734406656.3853843,-1000.0,-1000.0,-955.56640625,-997.0703125,0.0
1734406656.3892884,-937.98828125,-1000.0,-961.42578125,-1000.0,0.0
1734406656.3931928,-1000.0,-1000.0,-967.28515625,-1000.0,0.0
1734406656.3970969,-241.69921875,-1000.0,-1000.0,-1000.0,0.0
1734406656.401001,-973.6328125,-1000.0,-1000.0,-1000.0,0.0
1734406656.4049053,958.0078125,-1000.0,-999.51171875,-1000.0,0.0
1734406656.4088094,939.94140625,-1000.0,-1000.0,-1000.0,0.0
1734406656.4127138,976.5625,-1000.0,-998.046875,-1000.0,0.0
1734406656.4166179,969.23828125,-1000.0,-1000.0,-1000.0,0.0
1734406656.4205222,969.23828125,-1000.0,-982.421875,-1000.0,0.0
1734406656.4244366,969.23828125,-1000.0,-951.66015625,-1000.0,0.0
1734406656.428341,969.23828125,-1000.0,-975.09765625,-1000.0,0.0
1734406656.432245,969.23828125,-1000.0,-980.95703125,-1000.0,0.0
1734406656.4361494,969.23828125,-1000.0,-975.5859375,-1000.0,0.0
1734406656.4400535,969.23828125,-1000.0,-918.9453125,-1000.0,0.0
1734406656.4439576,969.23828125,-985.83984375,-869.140625,-1000.0,0.0
1734406656.447862,969.23828125,-1000.0,-941.40625,-1000.0,0.0
1734406656.451766,969.23828125,-875.0,-966.796875,-1000.0,0.0
1734406656.4556704,969.23828125,-573.2421875,-968.75,-1000.0,0.0
1734406656.4595745,969.23828125,-812.5,-979.4921875,-1000.0,0.0
1734406656.4634786,969.23828125,-952.63671875,-951.66015625,-1000.0,0.0
1734406656.467383,975.09765625,-862.3046875,-983.3984375,-1000.0,0.0
1734406656.4713123,934.5703125,-850.5859375,-993.65234375,-1000.0,0.0
1734406656.4752166,993.65234375,-872.0703125,-1000.0,-1000.0,0.0
1734406656.4791207,818.359375,-993.65234375,-1000.0,-1000.0,0.0
1734406656.483025,-374.0234375,-1000.0,-1000.0,-1000.0,0.0
1734406656.4869292,-1000.0,-983.3984375,-1000.0,-1000.0,0.0
1734406656.4908333,-959.9609375,-972.16796875,-1000.0,-1000.0,0.0
1734406656.4947376,-996.58203125,-845.21484375,-1000.0,-1000.0,0.0
1734406656.4986417,-1000.0,-584.47265625,-1000.0,-1000.0,0.0
1734406656.502546,-1000.0,-383.30078125,-997.55859375,-1000.0,0.0
1734406656.5064502,-1000.0,-491.69921875,-995.1171875,-1000.0,0.0
1734406656.5103543,-1000.0,-633.7890625,-1000.0,-1000.0,0.0
1734406656.5142586,-1000.0,-314.453125,-1000.0,-1000.0,0.0
1734406656.5181696,0.0,-113.76953125,-972.65625,-1000.0,0.0
1734406656.522074,0.0,-124.0234375,-881.34765625,-1000.0,0.0
1734406656.525978,0.0,-97.16796875,-855.95703125,-1000.0,0.0
1734406656.5298824,0.0,-55.6640625,-910.64453125,-1000.0,0.0
1734406656.5337865,0.0,-179.6875,-942.3828125,-1000.0,0.0
1734406656.5376906,0.0,-384.27734375,-916.015625,-1000.0,0.0
1734406656.541595,0.0,-291.015625,-629.39453125,-933.10546875,0.0
1734406656.545499,0.0,-164.55078125,-517.08984375,-1000.0,0.0
1734406656.5494034,0.0,-356.4453125,-724.12109375,-316.40625,0.0
1734406656.5533075,0.0,-660.15625,-831.0546875,-997.55859375,0.0
1734406656.5572116,0.0,-594.7265625,-854.98046875,970.21484375,0.0
1734406656.561116,0.0,-62.5,-808.10546875,934.5703125,0.0
1734406656.5650415,-1000.0,259.765625,-877.44140625,979.00390625,0.0
1734406656.568946,-1000.0,27.83203125,-987.3046875,969.7265625,0.0
1734406656.57285,-1000.0,-100.09765625,-998.53515625,970.21484375,0.0
1734406656.5767543,-1000.0,41.50390625,-998.046875,969.7265625,0.0
1734406656.5806584,-1000.0,14.6484375,-999.51171875,969.23828125,0.0
1734406656.5845628,-1000.0,-175.29296875,-1000.0,969.7265625,0.0
1734406656.588467,-1000.0,9.765625,-1000.0,969.7265625,0.0
1734406656.592371,-1000.0,363.76953125,-1000.0,969.7265625,0.0
1734406656.5962753,-975.09765625,284.1796875,-1000.0,970.21484375,0.0
1734406656.6001794,-1000.0,302.24609375,-996.58203125,969.7265625,0.0
1734406656.6040838,-798.828125,634.765625,-993.65234375,969.7265625,0.0
1734406656.6079879,109.86328125,711.9140625,-1000.0,969.7265625,0.0
1734406656.611911,850.5859375,681.15234375,-997.55859375,969.7265625,0.0
1734406656.6158152,965.8203125,852.5390625,-1000.0,969.7265625,0.0
1734406656.6197195,953.61328125,980.95703125,-958.0078125,969.7265625,0.0
1734406656.6236236,971.19140625,950.1953125,-924.8046875,969.7265625,0.0
1734406656.627528,969.7265625,799.31640625,-975.09765625,969.7265625,0.0
1734406656.631432,969.23828125,697.75390625,-987.79296875,969.7265625,0.0
1734406656.6353362,969.23828125,662.59765625,-998.046875,969.7265625,0.0
1734406656.6392405,969.23828125,431.640625,-1000.0,969.7265625,0.0
1734406656.6431446,969.23828125,-167.96875,-1000.0,969.7265625,0.0
1734406656.647049,969.23828125,-315.4296875,-1000.0,969.7265625,0.0
1734406656.650953,969.23828125,86.9140625,-1000.0,969.7265625,0.0
1734406656.6548574,969.23828125,339.35546875,-1000.0,969.7265625,0.0
1734406656.6587787,969.23828125,545.8984375,-1000.0,970.21484375,0.0
1734406656.6626828,969.23828125,672.8515625,-1000.0,970.21484375,0.0
1734406656.666587,969.23828125,643.5546875,-1000.0,969.7265625,0.0
1734406656.6704912,969.23828125,579.1015625,-1000.0,969.7265625,0.0
1734406656.6743953,969.23828125,500.48828125,-1000.0,969.7265625,0.0
1734406656.6782997,969.23828125,632.8125,-1000.0,969.7265625,0.0
1734406656.6822038,969.23828125,914.0625,-996.09375,969.7265625,0.0
1734406656.686108,969.23828125,882.8125,-992.67578125,969.7265625,0.0
1734406656.6900122,969.7265625,629.8828125,-1000.0,970.21484375,0.0
1734406656.6939166,969.23828125,653.80859375,-1000.0,970.21484375,0.0
1734406656.6978207,969.23828125,640.13671875,-996.58203125,972.16796875,0.0
1734406656.7017248,969.23828125,263.671875,-993.1640625,958.49609375,0.0
1734406656.7056596,969.23828125,-34.66796875,-1000.0,969.7265625,0.0
1734406656.7095637,969.23828125,-13.671875,-1000.0,933.59375,0.0
1734406656.713468,969.23828125,-216.796875,-1000.0,606.93359375,0.0
1734406656.7173722,968.75,-576.171875,-1000.0,-277.34375,0.0
1734406656.7212765,969.23828125,-750.0,-1000.0,-1000.0,0.0
1734406656.7251806,969.23828125,-896.97265625,-1000.0,-991.69921875,0.0
1734406656.729085,969.23828125,-1000.0,-1000.0,-988.28125,0.0
1734406656.732989,969.23828125,-993.65234375,-1000.0,-981.4453125,0.0
1734406656.7368932,969.23828125,-1000.0,-1000.0,-987.79296875,0.0
1734406656.7407975,969.23828125,-999.0234375,-995.60546875,-1000.0,0.0
1734406656.7447016,969.23828125,-998.046875,-991.2109375,131.34765625,0.0
1734406656.748606,969.23828125,-1000.0,-1000.0,-941.40625,0.0
1734406656.752539,969.23828125,-929.19921875,-1000.0,929.6875,0.0
1734406656.7564433,978.515625,-812.5,-1000.0,960.9375,0.0
1734406656.7603474,922.8515625,-676.26953125,-1000.0,973.14453125,0.0
1734406656.7642515,-981.93359375,-482.91015625,-1000.0,969.7265625,0.0
1734406656.7681558,771.97265625,-378.41796875,-1000.0,970.21484375,0.0
1734406656.77206,-518.06640625,-479.4921875,-1000.0,969.7265625,0.0
1734406656.7759643,-1000.0,-690.4296875,-1000.0,969.7265625,0.0
1734406656.7798684,-950.68359375,-932.12890625,-996.09375,969.7265625,0.0
1734406656.7837727,-1000.0,-1000.0,-992.1875,969.7265625,0.0
1734406656.7876768,-1000.0,-992.67578125,-1000.0,969.7265625,0.0
1734406656.791581,-1000.0,-1000.0,-998.53515625,969.7265625,0.0
1734406656.7954853,-1000.0,-1000.0,-1000.0,969.7265625,0.0
1734406656.799399,-1000.0,-1000.0,-986.328125,969.7265625,0.0
1734406656.8033032,-1000.0,-1000.0,-955.56640625,969.7265625,0.0
1734406656.8072073,-1000.0,-1000.0,-962.890625,969.7265625,0.0
1734406656.8111117,-1000.0,-1000.0,-966.30859375,969.7265625,0.0
1734406656.8150158,-1000.0,-1000.0,-985.3515625,969.7265625,0.0
1734406656.8189201,-1000.0,-1000.0,-961.9140625,969.7265625,0.0
1734406656.8228242,-1000.0,-1000.0,-882.8125,969.7265625,0.0
1734406656.8267283,-1000.0,-1000.0,-880.37109375,969.7265625,0.0
1734406656.8306327,-1000.0,-1000.0,-915.52734375,969.7265625,0.0
1734406656.8345368,-1000.0,-1000.0,-922.8515625,969.7265625,0.0
1734406656.8384411,-1000.0,-1000.0,-908.69140625,970.21484375,0.0
1734406656.8423452,-1000.0,-1000.0,-765.13671875,969.7265625,0.0
1734406656.8462574,-1000.0,-1000.0,-703.125,969.7265625,0.0
1734406656.8501616,-1000.0,-1000.0,-798.828125,969.7265625,0.0
1734406656.854066,-1000.0,-1000.0,-852.5390625,969.7265625,0.0
1734406656.85797,-1000.0,-1000.0,-725.5859375,970.21484375,0.0
1734406656.8618743,-1000.0,-1000.0,-542.48046875,969.7265625,0.0
1734406656.8657784,-1000.0,-1000.0,-678.22265625,969.7265625,0.0
1734406656.8696826,-1000.0,-1000.0,-794.43359375,969.7265625,0.0
1734406656.873587,-1000.0,-1000.0,-760.25390625,969.7265625,0.0
1734406656.877491,-1000.0,-1000.0,-803.22265625,970.21484375,0.0
1734406656.8813953,-1000.0,-1000.0,-854.4921875,970.21484375,0.0
1734406656.8852994,-1000.0,-1000.0,-911.1328125,970.21484375,0.0
1734406656.8892038,-1000.0,-1000.0,-889.16015625,969.7265625,0.0
1734406656.8931477,-1000.0,-1000.0,-947.75390625,970.21484375,0.0
1734406656.897052,-1000.0,-1000.0,-994.62890625,969.7265625,0.0
1734406656.9009562,-1000.0,-1000.0,-975.5859375,969.7265625,0.0
1734406656.9048605,-1000.0,-1000.0,-975.09765625,969.7265625,0.0
1734406656.9087646,-1000.0,-1000.0,-1000.0,969.7265625,0.0
1734406656.9126687,-1000.0,-1000.0,-1000.0,969.7265625,0.0
1734406656.916573,-1000.0,-1000.0,-999.51171875,969.7265625,0.0
1734406656.9204772,-1000.0,-1000.0,-1000.0,969.7265625,0.0
1734406656.9243815,-989.2578125,-1000.0,-1000.0,969.7265625,0.0
1734406656.9282856,-965.8203125,-1000.0,-1000.0,969.7265625,0.0
1734406656.93219,-1000.0,-1000.0,-1000.0,969.7265625,0.0
1734406656.936094,-67.87109375,-1000.0,-1000.0,970.21484375,0.0
1734406656.9400525,-972.65625,-1000.0,-1000.0,969.7265625,0.0
1734406656.9439566,950.68359375,-1000.0,-1000.0,969.7265625,0.0
1734406656.9478607,938.4765625,-1000.0,-1000.0,969.7265625,0.0
1734406656.951765,931.640625,-1000.0,-1000.0,969.7265625,0.0
1734406656.9556692,-926.26953125,-1000.0,-1000.0,969.7265625,0.0
1734406656.9595735,30.76171875,-1000.0,-1000.0,969.7265625,0.0
1734406656.9634776,-1000.0,-1000.0,-1000.0,977.05078125,0.0
1734406656.967382,-967.7734375,-1000.0,-1000.0,937.98828125,0.0
1734406656.971286,-983.3984375,-1000.0,-1000.0,972.65625,0.0
1734406656.9751904,-1000.0,-1000.0,-1000.0,957.03125,0.0
1734406656.9790945,-1000.0,-1000.0,-1000.0,-275.390625,0.0
1734406656.9829986,-1000.0,-1000.0,-1000.0,-1000.0,0.0
1734406656.986922,-1000.0,-1000.0,-1000.0,-948.2421875,0.0
1734406656.9908261,-1000.0,-1000.0,-1000.0,-998.53515625,0.0
1734406656.9947305,-1000.0,-998.53515625,-1000.0,-1000.0,0.0
1734406656.9986346,-1000.0,-994.140625,-1000.0,-1000.0,0.0
1734406657.002539,-1000.0,-1000.0,-1000.0,-1000.0,0.0
1734406657.006443,-1000.0,-1000.0,-1000.0,-1000.0,0.0
1734406657.0103471,-1000.0,-1000.0,-1000.0,-1000.0,0.0
1734406657.0142515,-1000.0,-1000.0,-1000.0,-1000.0,0.0
1734406657.0181556,-1000.0,-1000.0,-1000.0,-1000.0,0.0
1734406657.02206,-1000.0,-1000.0,-1000.0,-1000.0,0.0
1734406657.025964,-1000.0,-1000.0,-1000.0,-1000.0,0.0
1734406657.0298684,-1000.0,-1000.0,-1000.0,-1000.0,0.0
1734406657.03384,-1000.0,-1000.0,-1000.0,-1000.0,0.0
1734406657.0377443,-1000.0,-1000.0,-1000.0,-1000.0,0.0
1734406657.0416484,-1000.0,-1000.0,-1000.0,-1000.0,0.0
1734406657.0455527,-1000.0,-1000.0,-1000.0,-1000.0,0.0
1734406657.0494568,-942.3828125,-1000.0,-999.51171875,-1000.0,0.0
1734406657.0533612,-1000.0,-1000.0,-1000.0,-1000.0,0.0
1734406657.0572653,-749.51171875,-988.28125,-990.72265625,-1000.0,0.0
1734406657.0611696,637.20703125,-994.62890625,-987.3046875,-970.21484375,0.0
1734406657.0650737,-947.75390625,-979.4921875,-963.37890625,-1000.0,0.0
1734406657.0689778,909.66796875,-399.90234375,-867.1875,-970.21484375,0.0
1734406657.0728822,980.46875,402.34375,-852.5390625,234.86328125,0.0
1734406657.0767863,969.23828125,815.4296875,-887.6953125,-933.10546875,0.0
1734406657.0807395,969.23828125,951.66015625,-614.74609375,969.7265625,0.0
1734406657.0846438,969.23828125,965.33203125,-410.15625,969.7265625,0.0
1734406657.088548,969.23828125,968.26171875,-472.65625,969.7265625,0.0
1734406657.092452,969.23828125,970.703125,-483.3984375,969.7265625,0.0
1734406657.0963564,969.23828125,969.7265625,-511.23046875,969.7265625,0.0
1734406657.1002605,969.23828125,969.7265625,-356.4453125,969.7265625,0.0
1734406657.1041648,968.75,969.7265625,-128.90625,969.7265625,0.0
1734406657.108069,968.75,969.7265625,-298.33984375,969.7265625,0.0
1734406657.1119733,969.23828125,969.7265625,-402.83203125,969.7265625,0.0
1734406657.1158774,969.23828125,969.7265625,-421.875,969.7265625,0.0
1734406657.1197817,969.23828125,969.7265625,-373.046875,969.7265625,0.0
1734406657.1236858,968.75,969.7265625,-267.08984375,969.7265625,0.0
1734406657.1276188,969.23828125,969.7265625,-309.5703125,0.0,0.0
1734406657.1315231,969.23828125,969.7265625,-454.1015625,0.0,0.0
1734406657.1354272,969.23828125,969.7265625,-511.23046875,0.0,0.0
1734406657.1393316,969.23828125,969.7265625,-267.578125,0.0,0.0
1734406657.1432357,969.23828125,969.7265625,130.37109375,0.0,0.0
1734406657.14714,969.23828125,969.7265625,170.8984375,0.0,0.0
1734406657.1510441,969.23828125,969.7265625,117.67578125,0.0,0.0
1734406657.1549485,969.23828125,969.7265625,-109.375,0.0,0.0
1734406657.1588526,969.23828125,969.7265625,114.74609375,0.0,0.0
1734406657.162757,969.23828125,969.7265625,633.7890625,0.0,0.0
1734406657.166661,968.75,969.7265625,546.38671875,0.0,0.0
1734406657.1705654,968.75,969.7265625,524.4140625,0.0,0.0
1734406657.1744797,0.0,969.7265625,583.984375,969.7265625,0.0
1734406657.1783838,0.0,969.7265625,637.20703125,969.7265625,0.0
1734406657.1822882,0.0,970.21484375,668.9453125,969.7265625,0.0
1734406657.1861923,0.0,969.23828125,723.14453125,969.7265625,0.0
1734406657.1900964,0.0,931.640625,819.3359375,969.7265625,0.0
1734406657.1940007,0.0,-946.77734375,806.640625,969.7265625,0.0
1734406657.1979048,0.0,392.578125,804.19921875,969.7265625,0.0
1734406657.2018092,0.0,-245.1171875,839.35546875,969.7265625,0.0
1734406657.2057133,0.0,74.21875,854.00390625,969.7265625,0.0
1734406657.2096176,0.0,92.7734375,849.609375,969.7265625,0.0
1734406657.2135217,0.0,-322.75390625,827.1484375,969.7265625,0.0
1734406657.217426,0.0,-57.6171875,841.796875,969.7265625,0.0
1734406657.2213383,-946.77734375,831.54296875,868.1640625,969.7265625,0.0
1734406657.2252426,-1000.0,734.375,855.46875,969.7265625,0.0
1734406657.2291467,-1000.0,225.5859375,841.796875,969.7265625,0.0
1734406657.233051,-1000.0,-49.31640625,840.8203125,969.7265625,0.0
1734406657.2369552,-1000.0,-509.27734375,836.42578125,969.7265625,0.0
1734406657.2408595,-1000.0,-956.0546875,837.40234375,969.7265625,0.0
1734406657.2447636,-1000.0,-1000.0,827.63671875,969.7265625,0.0
1734406657.248668,-1000.0,-988.76953125,819.3359375,969.7265625,0.0
1734406657.252572,-1000.0,-1000.0,812.98828125,969.7265625,0.0
1734406657.2564762,-1000.0,-1000.0,792.96875,969.7265625,0.0
1734406657.2603805,-1000.0,-1000.0,803.7109375,969.7265625,0.0
1734406657.2642846,-1000.0,-1000.0,838.37890625,969.7265625,0.0
1734406657.2682118,-1000.0,-990.72265625,835.44921875,969.7265625,0.0
1734406657.272116,-1000.0,-1000.0,819.3359375,969.7265625,0.0
1734406657.2760203,-1000.0,-928.7109375,839.84375,969.7265625,0.0
1734406657.2799244,-990.72265625,-500.0,871.09375,969.7265625,0.0
1734406657.2838287,-955.078125,228.515625,888.18359375,969.7265625,0.0
1734406657.2877328,-1000.0,530.76171875,890.625,969.7265625,0.0
1734406657.2916372,-61.5234375,732.91015625,894.04296875,969.7265625,0.0
1734406657.2955413,-930.6640625,994.140625,900.390625,969.23828125,0.0
1734406657.2994454,934.08203125,960.44921875,906.73828125,969.7265625,0.0
1734406657.3033497,952.63671875,967.7734375,917.96875,969.7265625,0.0
1734406657.3072538,973.14453125,970.21484375,917.48046875,969.7265625,0.0
1734406657.3111582,969.23828125,970.21484375,914.0625,969.7265625,0.0
1734406657.3150833,968.75,969.23828125,915.0390625,969.7265625,0.0
1734406657.3189876,968.75,967.7734375,913.57421875,969.7265625,0.0
1734406657.3228917,968.75,964.35546875,920.41015625,969.7265625,0.0
1734406657.326796,968.75,968.26171875,919.921875,969.7265625,0.0
1734406657.3307002,968.75,976.5625,910.64453125,969.7265625,0.0
1734406657.3346045,969.23828125,758.30078125,897.94921875,969.7265625,0.0
1734406657.3385086,968.75,627.9296875,894.04296875,969.7265625,0.0
1734406657.342413,968.75,702.1484375,895.99609375,969.7265625,0.0
1734406657.346317,969.23828125,-107.421875,861.81640625,969.7265625,0.0
1734406657.3502214,969.23828125,-1000.0,796.875,969.7265625,0.0
1734406657.3541255,969.23828125,-995.1171875,667.48046875,969.7265625,0.0
1734406657.3580298,969.23828125,-978.515625,522.4609375,969.7265625,0.0
1734406657.361969,969.23828125,-1000.0,342.7734375,969.7265625,0.0
1734406657.3658733,969.23828125,-1000.0,239.74609375,969.7265625,0.0
1734406657.3697774,969.23828125,-1000.0,208.0078125,969.7265625,0.0
1734406657.3736818,969.23828125,-1000.0,63.4765625,969.7265625,0.0
1734406657.377586,969.23828125,-1000.0,-363.76953125,969.7265625,0.0
1734406657.3814902,969.23828125,-1000.0,-486.81640625,969.7265625,0.0
1734406657.3853943,969.23828125,-1000.0,-410.64453125,969.7265625,0.0
1734406657.3892987,973.14453125,-1000.0,-708.984375,969.7265625,0.0
1734406657.3932028,927.734375,-1000.0,-915.0390625,969.7265625,0.0
1734406657.3971071,-978.515625,-1000.0,-1000.0,969.7265625,0.0
1734406657.4010112,657.71484375,-1000.0,-995.1171875,969.7265625,0.0
1734406657.4049156,-550.29296875,-1000.0,-998.046875,969.7265625,0.0
1734406657.4088366,-1000.0,-1000.0,-1000.0,969.7265625,0.0
1734406657.412741,-962.890625,-1000.0,-1000.0,969.7265625,0.0
1734406657.416645,-999.51171875,-1000.0,-1000.0,975.09765625,0.0
1734406657.4205494,-1000.0,-1000.0,-1000.0,936.03515625,0.0
1734406657.4244535,-1000.0,-1000.0,-1000.0,993.1640625,0.0
1734406657.4283578,-1000.0,-1000.0,-1000.0,815.91796875,0.0
1734406657.432262,-1000.0,-1000.0,-1000.0,-363.28125,0.0
1734406657.4361663,-1000.0,-1000.0,-1000.0,-1000.0,0.0
1734406657.4400704,-1000.0,-1000.0,-1000.0,-961.9140625,0.0
1734406657.4439747,-1000.0,-1000.0,-1000.0,-995.60546875,0.0
1734406657.4478788,-1000.0,-1000.0,-1000.0,-1000.0,0.0
1734406657.4517832,-1000.0,-1000.0,-1000.0,-1000.0,0.0
1734406657.455701,-1000.0,-1000.0,-1000.0,-1000.0,0.0
1734406657.4596052,-1000.0,-1000.0,-1000.0,-1000.0,0.0
1734406657.4635096,-1000.0,-1000.0,-1000.0,-1000.0,0.0
1734406657.4674137,-1000.0,-1000.0,-1000.0,-1000.0,0.0
1734406657.471318,-1000.0,-1000.0,-1000.0,-1000.0,0.0
1734406657.475222,-1000.0,-1000.0,-1000.0,-1000.0,0.0
1734406657.4791265,-1000.0,-999.51171875,-999.51171875,-1000.0,0.0
1734406657.4830306,-1000.0,-1000.0,-1000.0,-1000.0,0.0
1734406657.486935,-1000.0,-996.09375,-995.1171875,-1000.0,0.0
1734406657.490839,-1000.0,-962.40234375,-936.03515625,-1000.0,0.0
1734406657.4947433,-1000.0,-950.1953125,-923.828125,-1000.0,0.0
1734406657.4986475,-1000.0,-1000.0,-940.91796875,-1000.0,0.0
1734406657.5025642,-1000.0,-878.41796875,-801.26953125,-1000.0,0.0
1734406657.5064683,-1000.0,-790.52734375,-757.8125,-1000.0,0.0
1734406657.5103726,-1000.0,-959.9609375,-822.265625,-1000.0,0.0
1734406657.5142767,-1000.0,-952.1484375,-805.6640625,-1000.0,0.0
1734406657.518181,-1000.0,-793.45703125,-771.97265625,-1000.0,0.0
1734406657.5220852,-1000.0,-803.22265625,-698.73046875,-1000.0,0.0
1734406657.5259895,-1000.0,-905.76171875,-757.32421875,-1000.0,0.0
1734406657.5298936,-1000.0,-958.49609375,-824.70703125,-1000.0,0.0
1734406657.533798,-1000.0,-783.203125,-719.7265625,-1000.0,0.0
1734406657.537702,-1000.0,-504.39453125,-576.171875,-1000.0,0.0
1734406657.5416064,-1000.0,-654.296875,-473.6328125,-1000.0,0.0
1734406657.5455105,-990.72265625,-765.13671875,-251.46484375,-1000.0,0.0
1734406657.5494416,-1000.0,-375.9765625,207.51953125,-1000.0,0.0
1734406657.553346,-942.87109375,-240.72265625,337.890625,-1000.0,0.0
1734406657.55725,-550.29296875,-496.58203125,313.4765625,-1000.0,0.0
1734406657.5611544,26.85546875,-482.421875,521.97265625,-1000.0,0.0
1734406657.5650585,673.828125,-117.67578125,689.453125,-1000.0,0.0
1734406657.5689628,985.83984375,-158.203125,659.66796875,-1000.0,0.0
1734406657.572867,953.61328125,-640.13671875,599.12109375,-1000.0,0.0
1734406657.5767713,966.30859375,-690.4296875,647.94921875,-1000.0,0.0
1734406657.5806754,970.703125,37.59765625,817.87109375,-1000.0,0.0
1734406657.5845795,969.23828125,161.1328125,816.40625,-1000.0,0.0
1734406657.5884838,969.23828125,-98.14453125,787.109375,-1000.0,0.0
1734406657.592388,969.23828125,-105.46875,790.52734375,-1000.0,0.0
1734406657.5963168,969.23828125,-59.5703125,785.15625,-1000.0,0.0
1734406657.6002212,969.23828125,-229.98046875,779.78515625,-1000.0,0.0
1734406657.6041253,969.23828125,-283.69140625,771.97265625,-1000.0,0.0
1734406657.6080296,969.23828125,-82.03125,786.1328125,-1000.0,0.0
1734406657.6119337,969.23828125,-107.91015625,780.76171875,-1000.0,0.0
1734406657.615838,969.23828125,-411.62109375,690.91796875,-1000.0,0.0
1734406657.6197422,969.23828125,-564.453125,671.38671875,-1000.0,0.0
1734406657.6236465,969.23828125,-242.67578125,782.71484375,-1000.0,0.0
1734406657.6275506,969.23828125,104.98046875,791.015625,-1000.0,0.0
1734406657.631455,969.23828125,-174.8046875,719.23828125,-1000.0,0.0
1734406657.635359,969.23828125,-514.6484375,665.52734375,-1000.0,0.0
1734406657.6392634,969.23828125,-119.62890625,755.859375,-1000.0,0.0
1734406657.6432073,969.23828125,215.8203125,822.265625,-1000.0,0.0
1734406657.6471117,969.23828125,-206.54296875,688.4765625,-1000.0,0.0
1734406657.6510158,969.23828125,-587.40234375,639.16015625,-1000.0,0.0
1734406657.65492,969.23828125,-176.26953125,713.8671875,-1000.0,0.0
1734406657.6588242,969.23828125,31.25,747.55859375,-1000.0,0.0
1734406657.6627285,969.23828125,-229.00390625,722.16796875,-1000.0,0.0
1734406657.6666327,969.7265625,-281.73828125,693.84765625,-1000.0,0.0
1734406657.670537,969.23828125,3.90625,713.37890625,-1000.0,0.0
1734406657.674441,969.23828125,41.9921875,674.8046875,-1000.0,0.0
1734406657.6783454,969.23828125,-509.765625,565.4296875,-1000.0,0.0
1734406657.6822495,969.23828125,-569.82421875,643.06640625,-1000.0,0.0
1734406657.686154,969.23828125,149.4140625,721.6796875,-1000.0,0.0
1734406657.69013,969.23828125,89.84375,649.4140625,-1000.0,0.0
1734406657.6940343,969.23828125,-344.7265625,579.58984375,-1000.0,0.0
1734406657.6979384,969.23828125,-296.38671875,614.74609375,-1000.0,0.0
1734406657.7018428,969.23828125,133.7890625,745.1171875,-1000.0,0.0
1734406657.7057471,969.23828125,41.9921875,701.66015625,-1000.0,0.0
1734406657.7096512,969.23828125,-392.08984375,597.16796875,-1000.0,0.0
1734406657.7135556,969.23828125,-393.06640625,607.91015625,-1000.0,0.0
1734406657.7174597,969.23828125,-59.5703125,631.8359375,-1000.0,0.0
1734406657.721364,969.23828125,-122.0703125,656.73828125,-1000.0,0.0
1734406657.7252681,969.23828125,-344.7265625,611.81640625,-1000.0,0.0
1734406657.7291725,969.23828125,-182.6171875,561.5234375,-1000.0,0.0
1734406657.7330766,969.23828125,-187.5,531.25,-1000.0,0.0
1734406657.7370017,969.23828125,-634.765625,295.41015625,-1000.0,0.0
1734406657.740906,969.23828125,-876.46484375,292.96875,-1000.0,0.0
1734406657.74481,969.23828125,-435.546875,448.73046875,-1000.0,0.0
1734406657.7487144,969.23828125,-329.58984375,341.30859375,-1000.0,0.0
1734406657.7526186,969.23828125,-700.1953125,210.44921875,-1000.0,0.0
1734406657.756523,969.23828125,-916.015625,114.2578125,-1000.0,0.0
1734406657.760427,969.23828125,-740.72265625,251.953125,-1000.0,0.0
1734406657.7643313,969.23828125,-556.15234375,291.50390625,-1000.0,0.0
1734406657.7682354,969.23828125,-723.14453125,192.3828125,-1000.0,0.0
1734406657.7721398,969.23828125,-750.0,221.6796875,-1000.0,0.0
1734406657.776044,969.23828125,-570.80078125,209.9609375,-1000.0,0.0
1734406657.7799482,969.23828125,-587.40234375,254.8828125,-1000.0,0.0
1734406657.7838683,969.23828125,-671.38671875,344.23828125,-1000.0,0.0
1734406657.7877727,969.23828125,-747.0703125,289.55078125,-1000.0,0.0
1734406657.7916768,968.75,-640.625,309.08203125,-1000.0,0.0
1734406657.795581,969.23828125,-544.921875,319.82421875,-1000.0,0.0
1734406657.7994852,969.23828125,-655.2734375,331.0546875,-1000.0,0.0
1734406657.8033895,969.23828125,-620.1171875,427.24609375,-1000.0,0.0
1734406657.8072937,969.23828125,-441.40625,443.84765625,-1000.0,0.0
1734406657.811198,969.23828125,-360.83984375,476.07421875,-1000.0,0.0
1734406657.815102,969.23828125,-867.1875,255.859375,-1000.0,0.0
1734406657.8190064,969.23828125,-861.81640625,311.03515625,-1000.0,0.0
1734406657.8229105,969.23828125,-93.75,617.1875,-1000.0,0.0
1734406657.826815,969.23828125,-93.75,506.34765625,-1000.0,0.0
1734406657.830751,969.23828125,-290.0390625,486.328125,-1000.0,0.0
1734406657.834655,969.7265625,-127.9296875,530.76171875,-1000.0,0.0
1734406657.8385594,969.23828125,-63.4765625,539.0625,-1000.0,0.0
1734406657.8424635,969.23828125,-156.25,572.265625,-1000.0,0.0
1734406657.8463678,969.23828125,-190.91796875,577.1484375,-1000.0,0.0
1734406657.850272,969.23828125,-307.12890625,575.1953125,-1000.0,0.0
1734406657.8541763,969.23828125,-390.625,561.03515625,-1000.0,0.0
1734406657.8580804,969.23828125,-691.89453125,493.1640625,-1000.0,0.0
1734406657.8619847,969.23828125,-694.3359375,605.46875,-1000.0,0.0
1734406657.8658888,969.23828125,-52.24609375,724.609375,-1000.0,0.0
1734406657.8697932,969.23828125,-104.4921875,675.29296875,-1000.0,0.0
1734406657.8736975,969.23828125,-391.6015625,664.0625,-999.51171875,0.0
1734406657.8776138,969.23828125,-349.609375,683.59375,-996.09375,0.0
1734406657.881518,969.23828125,-345.703125,752.44140625,-1000.0,0.0
1734406657.8854222,969.23828125,-487.3046875,762.20703125,-906.73828125,0.0
1734406657.8893263,969.23828125,-483.88671875,715.8203125,-856.4453125,0.0
1734406657.8932307,969.23828125,-421.38671875,741.69921875,-973.14453125,0.0
1734406657.8971348,969.23828125,-544.921875,719.7265625,-1000.0,0.0
1734406657.9010391,969.23828125,-643.06640625,765.13671875,-919.921875,0.0
1734406657.9049432,968.75,-585.9375,783.203125,-586.42578125,0.0
1734406657.9088476,969.23828125,-423.33984375,774.90234375,-419.921875,0.0
1734406657.912752,969.23828125,-434.08203125,763.671875,-639.16015625,0.0
1734406657.916656,969.23828125,-742.67578125,684.08203125,-805.6640625,0.0
1734406657.9205604,969.23828125,-961.9140625,676.7578125,-536.62109375,0.0
1734406657.9244745,969.23828125,-603.515625,786.62109375,-126.46484375,0.0
1734406657.9283786,969.23828125,-361.328125,787.59765625,108.3984375,0.0
1734406657.932283,969.23828125,-723.6328125,628.90625,-80.56640625,0.0
1734406657.936187,969.23828125,-805.6640625,635.25390625,-375.48828125,0.0
1734406657.9400914,969.23828125,-529.296875,763.671875,-177.24609375,0.0
1734406657.9439955,969.23828125,-677.24609375,748.046875,267.08984375,0.0
1734406657.9478998,969.23828125,-918.9453125,611.81640625,516.6015625,0.0
1734406657.9518042,969.23828125,-936.03515625,576.66015625,337.890625,0.0
1734406657.9557083,969.23828125,-704.1015625,645.99609375,-14.6484375,0.0
1734406657.9596126,969.23828125,-629.39453125,681.640625,48.828125,0.0
1734406657.9635167,968.75,-778.3203125,720.21484375,454.58984375,0.0
1734406657.967421,968.75,-779.78515625,680.6640625,659.1796875,0.0
1734406657.9713671,969.23828125,-839.35546875,614.74609375,400.87890625,0.0
1734406657.9752712,969.23828125,-1000.0,521.484375,62.5,0.0
1734406657.9791756,969.23828125,-1000.0,509.27734375,57.12890625,0.0
1734406657.9830797,969.23828125,-827.63671875,625.0,377.44140625,0.0
1734406657.986984,968.75,-753.41796875,609.375,617.1875,0.0
1734406657.990888,969.23828125,-962.890625,419.43359375,438.96484375,0.0
1734406657.9947925,969.23828125,-1000.0,283.69140625,-3.90625,0.0
1734406657.9986966,969.23828125,-853.02734375,372.55859375,-211.42578125,0.0
1734406658.002601,969.23828125,-656.73828125,502.9296875,-10.7421875,0.0
1734406658.006505,969.23828125,-791.015625,315.91796875,214.35546875,0.0
1734406658.0104094,969.23828125,-973.14453125,109.375,-6.34765625,0.0
1734406658.0143135,969.23828125,-861.328125,128.41796875,-565.4296875,0.0
1734406658.0182235,969.23828125,-698.2421875,156.25,-854.98046875,0.0
1734406658.0221276,969.23828125,-812.5,75.1953125,-653.3203125,0.0
1734406658.026032,969.23828125,-920.41015625,-13.18359375,-412.59765625,0.0
1734406658.029936,969.23828125,-701.171875,48.828125,-646.484375,0.0
1734406658.0338404,969.23828125,-781.73828125,-236.81640625,-977.5390625,0.0
1734406658.0377445,969.23828125,-952.1484375,-432.12890625,-1000.0,0.0
1734406658.0416489,968.75,-925.29296875,-63.4765625,-990.234375,0.0
1734406658.0455532,969.23828125,-681.640625,178.7109375,-986.328125,0.0
1734406658.0494573,969.23828125,-546.38671875,104.00390625,-993.65234375,0.0
1734406658.0533617,969.23828125,-832.51953125,-131.34765625,-1000.0,0.0
1734406658.0572658,969.23828125,-767.578125,-74.70703125,-999.51171875,0.0
1734406658.06117,969.23828125,-465.8203125,302.24609375,-1000.0,0.0
1734406658.0650954,969.23828125,-488.28125,358.88671875,-1000.0,0.0
1734406658.0689995,969.23828125,-855.46875,-1.46484375,-1000.0,0.0
1734406658.0729039,969.23828125,-876.953125,9.765625,-1000.0,0.0
1734406658.076808,969.23828125,-481.4453125,281.73828125,-995.1171875,0.0
1734406658.0807123,969.23828125,-407.2265625,385.7421875,-1000.0,0.0
1734406658.0846167,969.23828125,-670.8984375,396.484375,-916.9921875,0.0
1734406658.0885208,969.23828125,-568.84765625,363.28125,-831.0546875,0.0
1734406658.092425,969.23828125,-312.98828125,336.42578125,-944.82421875,0.0
1734406658.0963292,969.23828125,-594.23828125,196.77734375,-1000.0,0.0
1734406658.1002336,969.23828125,-637.6953125,318.359375,-958.0078125,0.0
1734406658.1041377,969.23828125,-109.375,493.65234375,-504.39453125,0.0
1734406658.108042,969.23828125,139.16015625,458.49609375,-135.7421875,0.0
1734406658.1119642,969.23828125,-358.88671875,211.42578125,-297.8515625,0.0
1734406658.1158683,969.23828125,-612.3046875,152.83203125,-523.4375,0.0
1734406658.1197727,968.75,-70.3125,436.5234375,-310.546875,0.0
1734406658.1236768,969.23828125,155.76171875,541.50390625,321.2890625,0.0
1734406658.1275811,969.23828125,-114.74609375,448.2421875,810.05859375,0.0
1734406658.1314855,968.75,-475.09765625,325.68359375,762.6953125,0.0
1734406658.1353896,969.23828125,-439.94140625,324.21875,505.37109375,0.0
1734406658.139294,969.23828125,-75.68359375,497.0703125,728.02734375,0.0
1734406658.143198,969.23828125,-300.78125,547.8515625,991.69921875,0.0
1734406658.1471024,969.23828125,-407.71484375,550.78125,962.890625,0.0
1734406658.1510065,969.23828125,28.80859375,578.61328125,964.84375,0.0
1734406658.1549108,969.23828125,-159.66796875,492.1875,971.19140625,0.0
1734406658.158848,969.23828125,-542.48046875,499.0234375,969.7265625,0.0
1734406658.1627522,969.23828125,-520.01953125,629.8828125,969.7265625,0.0
1734406658.1666565,969.23828125,-84.9609375,702.63671875,969.7265625,0.0
1734406658.1705606,969.23828125,-143.06640625,612.79296875,969.7265625,0.0
1734406658.174465,969.23828125,-424.31640625,528.80859375,969.7265625,0.0
1734406658.178369,969.23828125,-431.640625,581.0546875,969.7265625,0.0
1734406658.1822734,969.23828125,-257.8125,732.421875,969.7265625,0.0
1734406658.1861775,969.23828125,-141.11328125,739.74609375,969.7265625,0.0
1734406658.1900818,968.75,-686.03515625,607.91015625,969.7265625,0.0
1734406658.193986,969.23828125,-606.4453125,587.890625,969.7265625,0.0
1734406658.1978903,969.23828125,-108.88671875,625.48828125,969.7265625,0.0
1734406658.2017946,969.23828125,-252.44140625,706.0546875,969.7265625,0.0
1734406658.2057302,969.23828125,-308.10546875,735.83984375,969.7265625,0.0
1734406658.2096345,969.23828125,-138.18359375,673.33984375,969.7265625,0.0
1734406658.2135386,968.75,-392.08984375,549.31640625,969.7265625,0.0
1734406658.217443,968.75,-648.92578125,483.3984375,969.7265625,0.0
1734406658.221347,969.23828125,-382.8125,645.99609375,969.7265625,0.0
1734406658.2252514,969.23828125,-259.765625,681.640625,969.7265625,0.0
1734406658.2291555,969.23828125,-354.98046875,601.5625,969.7265625,0.0
1734406658.23306,969.23828125,-648.92578125,428.22265625,969.7265625,0.0
1734406658.236964,968.75,-554.6875,439.453125,969.23828125,0.0
1734406658.2408683,969.23828125,-6.8359375,675.78125,969.7265625,0.0
1734406658.2447724,969.23828125,100.5859375,706.54296875,969.7265625,0.0
1734406658.2486768,968.75,-532.71484375,518.06640625,969.7265625,0.0
1734406658.2525933,969.23828125,-743.65234375,460.9375,969.7265625,0.0
1734406658.2564976,969.23828125,-349.609375,520.01953125,969.7265625,0.0
1734406658.2604017,968.75,-354.00390625,596.19140625,969.7265625,0.0
1734406658.264306,969.23828125,-186.03515625,675.29296875,969.7265625,0.0
1734406658.2682104,968.75,-31.73828125,658.203125,969.7265625,0.0
1734406658.2721145,968.75,-239.2578125,566.89453125,969.23828125,0.0
1734406658.2760189,969.23828125,-486.81640625,502.44140625,969.7265625,0.0
1734406658.279923,969.23828125,-384.765625,610.83984375,969.7265625,0.0
1734406658.2838273,969.23828125,43.45703125,773.4375,969.7265625,0.0
1734406658.2877314,968.75,235.3515625,767.08984375,969.7265625,0.0
1734406658.2916358,968.75,-197.75390625,608.3984375,969.7265625,0.0
1734406658.2955399,968.75,-712.40234375,520.5078125,969.7265625,0.0
1734406658.2994542,969.23828125,-224.12109375,677.24609375,969.7265625,0.0
1734406658.3033583,969.23828125,268.06640625,802.24609375,969.7265625,0.0
1734406658.3072627,969.23828125,-62.98828125,668.45703125,969.7265625,0.0
1734406658.3111668,969.23828125,-292.48046875,576.171875,969.7265625,0.0
1734406658.315071,968.75,-178.7109375,581.54296875,969.7265625,0.0
1734406658.3189754,968.75,-232.91015625,615.234375,970.21484375,0.0
1734406658.3228796,969.23828125,-484.86328125,662.109375,968.26171875,0.0
1734406658.326784,969.23828125,-338.37890625,704.1015625,962.890625,0.0
1734406658.330688,969.23828125,-59.5703125,651.85546875,990.72265625,0.0
1734406658.3345923,969.23828125,-335.9375,512.20703125,813.96484375,0.0
1734406658.3384964,969.23828125,-708.0078125,487.3046875,705.56640625,0.0
1734406658.3424008,969.23828125,-477.05078125,672.36328125,900.390625,0.0
1734406658.3463635,969.23828125,126.953125,738.28125,982.421875,0.0
1734406658.3502676,969.23828125,-234.86328125,579.58984375,932.6171875,0.0
1734406658.354172,968.75,-554.6875,465.8203125,443.84765625,0.0
1734406658.358076,969.23828125,-247.55859375,533.69140625,57.6171875,0.0
1734406658.3619804,969.23828125,7.8125,695.3125,365.234375,0.0
1734406658.3658845,969.23828125,-188.4765625,654.296875,770.01953125,0.0
1734406658.369789,969.23828125,-702.1484375,466.796875,716.796875,0.0
1734406658.3736932,968.75,-604.00390625,424.8046875,110.83984375,0.0
1734406658.3775973,968.75,-131.34765625,504.39453125,-282.71484375,0.0
1734406658.3815017,969.23828125,-150.87890625,641.11328125,62.98828125,0.0
1734406658.3854058,969.23828125,-178.22265625,666.50390625,530.76171875,0.0
1734406658.3893101,969.23828125,-60.546875,582.51953125,582.03125,0.0
1734406658.393222,969.23828125,-392.578125,403.80859375,126.46484375,0.0
1734406658.3971262,969.23828125,-654.296875,320.3125,-263.18359375,0.0
1734406658.4010305,969.23828125,-327.63671875,562.98828125,-1.46484375,0.0
1734406658.4049346,969.23828125,40.0390625,695.80078125,503.90625,0.0
1734406658.408839,969.23828125,-78.61328125,580.078125,677.24609375,0.0
1734406658.412743,969.23828125,-636.23046875,344.7265625,322.265625,0.0
1734406658.4166474,969.23828125,-721.19140625,362.3046875,-84.47265625,0.0
1734406658.4205515,969.23828125,-125.9765625,634.27734375,192.3828125,0.0
1734406658.424456,969.23828125,134.27734375,716.796875,782.2265625,0.0
1734406658.4283602,968.75,-207.03125,626.953125,-977.05078125,0.0
1734406658.4322643,968.75,-303.7109375,532.71484375,792.96875,0.0
1734406658.4361687,969.23828125,-49.8046875,531.73828125,474.12109375,0.0
1734406658.4400935,969.23828125,97.16796875,656.73828125,747.55859375,0.0
1734406658.4439976,969.23828125,-23.4375,769.53125,-1000.0,0.0
1734406658.447902,969.23828125,24.4140625,769.04296875,958.49609375,0.0
1734406658.451806,969.23828125,62.01171875,668.45703125,966.796875,0.0
1734406658.4557104,969.23828125,-69.82421875,616.2109375,970.703125,0.0
1734406658.4596145,969.23828125,-470.21484375,670.41015625,969.7265625,0.0
1734406658.4635189,969.23828125,-270.01953125,805.17578125,969.7265625,0.0
1734406658.467423,968.75,656.25,852.5390625,969.7265625,0.0
1734406658.4713273,968.75,372.55859375,806.15234375,969.23828125,0.0
1734406658.4752316,969.23828125,58.59375,789.0625,969.7265625,0.0
1734406658.4791358,969.23828125,511.71875,840.33203125,969.7265625,0.0
1734406658.48304,969.23828125,921.38671875,870.1171875,969.7265625,0.0
1734406658.4869637,969.23828125,607.421875,855.46875,969.7265625,0.0
1734406658.490868,969.23828125,214.35546875,853.02734375,969.7265625,0.0
1734406658.4947722,969.23828125,499.51171875,852.05078125,969.7265625,0.0
1734406658.4986765,969.23828125,685.546875,864.74609375,969.7265625,0.0
1734406658.5025806,968.75,622.0703125,878.41796875,969.7265625,0.0
1734406658.506485,968.75,457.03125,877.44140625,969.7265625,0.0
1734406658.510389,969.23828125,320.3125,870.1171875,969.7265625,0.0
1734406658.5142934,969.23828125,323.73046875,865.234375,969.7265625,0.0
1734406658.5181975,968.75,52.734375,869.62890625,969.7265625,0.0
1734406658.5221019,969.23828125,205.078125,894.04296875,969.23828125,0.0
1734406658.5260062,969.23828125,974.609375,907.2265625,969.7265625,0.0
1734406658.5299103,969.23828125,839.84375,893.06640625,969.7265625,0.0
1734406658.533848,969.23828125,510.7421875,881.8359375,969.7265625,0.0
1734406658.5377524,969.23828125,510.25390625,888.671875,969.7265625,0.0
1734406658.5416565,969.23828125,775.87890625,911.62109375,969.7265625,0.0
1734406658.5455608,969.23828125,922.36328125,916.9921875,969.7265625,0.0
1734406658.5494652,968.75,674.8046875,903.80859375,969.7265625,0.0
1734406658.5533693,968.75,420.41015625,895.5078125,969.7265625,0.0
1734406658.5572736,969.23828125,449.21875,904.296875,969.7265625,0.0
1734406658.5611777,968.75,707.03125,926.26953125,969.7265625,0.0
1734406658.565082,968.75,552.24609375,930.6640625,969.7265625,0.0
1734406658.5689862,969.23828125,685.05859375,931.640625,969.7265625,0.0
1734406658.5728905,969.23828125,787.59765625,924.8046875,969.7265625,0.0
1734406658.5767949,969.23828125,522.4609375,926.26953125,969.7265625,0.0
1734406658.580748,969.23828125,642.578125,939.453125,969.7265625,0.0
1734406658.5846524,969.23828125,958.984375,943.84765625,969.7265625,0.0
1734406658.5885565,969.23828125,-1000.0,942.3828125,969.7265625,0.0
1734406658.5924609,968.75,567.3828125,923.828125,969.7265625,0.0
1734406658.596365,969.23828125,406.25,923.33984375,969.7265625,0.0
1734406658.6002693,969.23828125,629.8828125,939.453125,969.7265625,0.0
1734406658.6041734,969.23828125,576.66015625,939.94140625,969.7265625,0.0
1734406658.6080778,968.75,264.16015625,923.33984375,969.7265625,0.0
1734406658.611982,968.75,92.28515625,912.109375,969.7265625,0.0
1734406658.6158862,969.23828125,203.125,908.203125,969.7265625,0.0
1734406658.6197906,969.23828125,214.84375,912.109375,969.7265625,0.0
1734406658.6236947,969.23828125,-163.57421875,907.71484375,969.7265625,0.0
1734406658.6276283,969.23828125,-327.1484375,895.5078125,969.7265625,0.0
1734406658.6315327,969.23828125,-446.77734375,874.0234375,969.7265625,0.0
1734406658.6354368,969.23828125,-895.01953125,854.4921875,969.7265625,0.0
1734406658.639341,969.23828125,-809.5703125,861.328125,969.7265625,0.0
1734406658.6432452,969.23828125,-418.45703125,880.859375,969.23828125,0.0
1734406658.6471496,969.23828125,-431.15234375,877.44140625,969.7265625,0.0
1734406658.6510537,969.23828125,-679.6875,862.3046875,969.7265625,0.0
1734406658.654958,968.75,-697.75390625,853.02734375,969.23828125,0.0
1734406658.6588624,968.75,-368.65234375,866.2109375,971.6796875,0.0
1734406658.6627665,969.23828125,-133.30078125,871.09375,964.35546875,0.0
1734406658.6666708,971.6796875,-531.73828125,852.05078125,942.3828125,0.0
1734406658.670575,945.80078125,-1000.0,806.640625,-1000.0,0.0
1734406658.6745055,982.421875,-995.60546875,620.60546875,445.3125,0.0
1734406658.6784096,785.64453125,-988.76953125,508.30078125,-637.6953125,0.0
1734406658.682314,-159.1796875,-1000.0,247.0703125,-1000.0,0.0
1734406658.6862183,-949.70703125,-1000.0,-492.1875,-976.07421875,0.0
1734406658.6901224,-997.0703125,-1000.0,-939.94140625,-997.55859375,0.0
1734406658.6940267,-981.4453125,-1000.0,-985.83984375,-1000.0,0.0
1734406658.6979308,-1000.0,-1000.0,-993.65234375,-1000.0,0.0
1734406658.7018352,-1000.0,-1000.0,-998.53515625,-1000.0,0.0
1734406658.7057393,-1000.0,-1000.0,-1000.0,-1000.0,0.0
1734406658.7096436,-1000.0,-1000.0,-1000.0,-1000.0,0.0
1734406658.713548,-1000.0,-1000.0,-1000.0,-1000.0,0.0
1734406658.717452,-1000.0,-1000.0,-1000.0,-1000.0,0.0
1734406658.7214317,-1000.0,-1000.0,-1000.0,-1000.0,0.0
1734406658.725336,-1000.0,-1000.0,-1000.0,-1000.0,0.0
1734406658.7292402,-1000.0,-1000.0,-1000.0,-1000.0,0.0
1734406658.7331445,-1000.0,-1000.0,-1000.0,-1000.0,0.0
1734406658.7370486,-1000.0,-1000.0,-1000.0,-1000.0,0.0
1734406658.740953,-1000.0,-1000.0,-1000.0,-1000.0,0.0
1734406658.7448573,-1000.0,-1000.0,-1000.0,-1000.0,0.0
1734406658.7487614,-1000.0,-1000.0,-1000.0,-1000.0,0.0
1734406658.7526658,-1000.0,-1000.0,-1000.0,-1000.0,0.0
1734406658.7565699,-1000.0,-1000.0,-1000.0,-1000.0,0.0
1734406658.7604742,-1000.0,-1000.0,-1000.0,-1000.0,0.0
1734406658.7643785,-1000.0,-1000.0,-1000.0,-1000.0,0.0
1734406658.768339,-1000.0,-1000.0,-1000.0,-1000.0,0.0
1734406658.772243,-1000.0,-1000.0,-1000.0,-1000.0,0.0
1734406658.7761474,-1000.0,-1000.0,-1000.0,-1000.0,0.0
1734406658.7800517,-1000.0,-998.046875,-1000.0,-1000.0,0.0
1734406658.7839558,-1000.0,-994.140625,-1000.0,-1000.0,0.0
1734406658.7878602,-1000.0,-998.53515625,-1000.0,-1000.0,0.0
1734406658.7917643,-1000.0,-1000.0,-1000.0,-1000.0,0.0
1734406658.7956686,-1000.0,-999.0234375,-1000.0,-1000.0,0.0
1734406658.799573,-1000.0,-926.7578125,-1000.0,-1000.0,0.0
1734406658.803477,-1000.0,-882.8125,-1000.0,-1000.0,0.0
1734406658.8073814,-1000.0,-821.77734375,-1000.0,-1000.0,0.0
1734406658.8112855,-1000.0,-855.46875,-1000.0,-1000.0,0.0
1734406658.8152444,-1000.0,-817.87109375,-1000.0,-1000.0,0.0
1734406658.8191488,-1000.0,-824.70703125,-1000.0,-1000.0,0.0
1734406658.8230531,-1000.0,-432.12890625,-1000.0,-1000.0,0.0
1734406658.8269572,-1000.0,48.33984375,-1000.0,-1000.0,0.0
1734406658.8308616,-1000.0,-169.43359375,-1000.0,-1000.0,0.0
1734406658.8347657,-1000.0,-742.67578125,-1000.0,-1000.0,0.0
1734406658.83867,-992.67578125,-517.578125,-1000.0,-1000.0,0.0
1734406658.8425744,-1000.0,220.21484375,-1000.0,-1000.0,0.0
1734406658.8464785,-952.1484375,206.0546875,-1000.0,-1000.0,0.0
1734406658.8503828,-687.98828125,-635.25390625,-1000.0,-1000.0,0.0
1734406658.854287,-382.32421875,-613.76953125,-1000.0,-993.65234375,0.0
1734406658.8581913,61.5234375,164.55078125,-1000.0,-992.67578125,0.0
1734406658.8621316,696.77734375,131.8359375,-1000.0,-999.0234375,0.0
1734406658.866036,986.328125,-58.10546875,-995.60546875,-626.953125,0.0
1734406658.86994,954.1015625,92.28515625,-988.76953125,-99.12109375,0.0
1734406658.8738444,966.796875,204.58984375,-970.703125,-130.859375,0.0
1734406658.8777485,970.21484375,-84.47265625,-1000.0,126.46484375,0.0
1734406658.8816528,969.23828125,-171.38671875,-802.24609375,834.47265625,0.0
1734406658.8855572,969.23828125,432.12890625,-480.46875,989.74609375,0.0
1734406658.8894613,969.23828125,637.20703125,-562.01171875,948.73046875,0.0
1734406658.8933656,969.23828125,172.8515625,-732.91015625,972.16796875,0.0
1734406658.8972697,969.23828125,183.59375,-667.48046875,970.21484375,0.0
1734406658.901174,968.75,775.87890625,-77.1484375,969.7265625,0.0
1734406658.9050784,968.75,881.8359375,285.15625,969.7265625,0.0
1734406658.9090488,969.23828125,404.296875,-12.6953125,969.7265625,0.0
1734406658.912953,969.23828125,83.49609375,-341.30859375,969.7265625,0.0
1734406658.9168572,969.23828125,378.90625,-218.26171875,969.7265625,0.0
1734406658.9207613,969.23828125,757.8125,311.5234375,969.7265625,0.0
1734406658.9246657,969.23828125,318.84765625,330.078125,969.7265625,0.0
1734406658.92857,969.23828125,50.29296875,248.53515625,969.7265625,0.0
1734406658.9324741,969.23828125,280.76171875,173.33984375,969.7265625,0.0
1734406658.9363785,969.23828125,127.44140625,63.96484375,969.7265625,0.0
1734406658.9402828,969.23828125,291.50390625,349.609375,969.7265625,0.0
1734406658.944187,969.23828125,705.56640625,562.01171875,969.7265625,0.0
1734406658.9480913,969.23828125,789.55078125,544.43359375,969.7265625,0.0
1734406658.9519954,969.23828125,267.578125,207.03125,969.7265625,0.0
1734406658.9559152,969.23828125,-297.36328125,5.37109375,969.7265625,0.0
1734406658.9598196,969.23828125,204.1015625,405.76171875,969.7265625,0.0
1734406658.963724,969.23828125,662.59765625,590.8203125,969.7265625,0.0
1734406658.967628,969.23828125,146.97265625,334.9609375,969.7265625,0.0
1734406658.9715323,969.23828125,-312.5,76.171875,969.7265625,0.0
1734406658.9754364,968.75,-199.70703125,25.390625,969.7265625,0.0
1734406658.9793408,968.75,-92.7734375,187.98828125,969.7265625,0.0
1734406658.9832451,969.23828125,-178.22265625,339.84375,969.7265625,0.0
1734406658.9871492,969.23828125,-266.11328125,292.48046875,969.7265625,0.0
1734406658.9910536,969.23828125,-71.77734375,192.87109375,969.7265625,0.0
1734406658.994958,969.23828125,-136.23046875,-56.15234375,969.7265625,0.0
1734406658.998862,969.23828125,-516.11328125,-169.921875,969.7265625,0.0
1734406659.0027773,969.23828125,-348.6328125,194.82421875,969.7265625,0.0
1734406659.0066817,969.23828125,-76.171875,307.6171875,970.21484375,0.0
1734406659.0105858,969.23828125,-383.7890625,-61.03515625,969.7265625,0.0
1734406659.0144901,969.23828125,-638.671875,-437.5,969.7265625,0.0
1734406659.0183942,969.23828125,-424.31640625,-383.30078125,969.7265625,0.0
1734406659.0222986,968.75,-241.69921875,11.71875,971.19140625,0.0
1734406659.026203,968.75,-311.5234375,130.859375,955.56640625,0.0
1734406659.030107,969.23828125,-749.51171875,-452.63671875,995.60546875,0.0
1734406659.0340114,969.23828125,-926.7578125,-816.40625,857.421875,0.0
1734406659.0379157,970.21484375,-322.75390625,-544.921875,530.76171875,0.0
1734406659.0418198,964.35546875,-180.17578125,-349.12109375,662.59765625,0.0
1734406659.0457242,966.796875,-405.2734375,-378.41796875,915.0390625,0.0
1734406659.0496712,957.51953125,-321.77734375,-503.41796875,697.75390625,0.0
1734406659.0535755,710.9375,-279.296875,-703.61328125,6.8359375,0.0
1734406659.0574796,408.69140625,-614.74609375,-855.95703125,-594.23828125,0.0
1734406659.061384,293.45703125,-510.25390625,-592.7734375,-540.52734375,0.0
1734406659.0652883,239.74609375,-159.1796875,-480.46875,-279.296875,0.0
1734406659.0691924,59.08203125,-487.3046875,-786.62109375,-447.265625,0.0
1734406659.0730968,-326.171875,-912.59765625,-934.08203125,-879.39453125,0.0
1734406659.0770009,-729.98046875,-890.625,-993.65234375,-1000.0,0.0
1734406659.0809052,-935.05859375,-479.4921875,-812.5,-986.81640625,0.0
1734406659.0848095,-975.09765625,-362.79296875,-729.98046875,-1000.0,0.0
1734406659.0887136,-997.0703125,-665.0390625,-912.109375,-1000.0,0.0
1734406659.092618,-1000.0,-839.84375,-958.0078125,-1000.0,0.0
1734406659.0965636,-1000.0,-807.6171875,-993.65234375,-1000.0,0.0
1734406659.100468,-1000.0,-889.16015625,-950.1953125,-1000.0,0.0
1734406659.1043723,-1000.0,-889.6484375,-898.92578125,-1000.0,0.0
1734406659.1082764,-1000.0,-844.7265625,-948.73046875,-1000.0,0.0
1734406659.1121807,-1000.0,-890.625,-978.02734375,-1000.0,0.0
1734406659.116085,-1000.0,-1000.0,-1000.0,-1000.0,0.0
1734406659.1199892,-1000.0,-895.99609375,-974.609375,-1000.0,0.0
1734406659.1238935,-1000.0,-538.57421875,-901.3671875,-1000.0,0.0
1734406659.1277976,-1000.0,-360.83984375,-915.0390625,-1000.0,0.0
1734406659.131702,-1000.0,-673.33984375,-971.19140625,-1000.0,0.0
1734406659.1356063,-996.09375,-887.20703125,-1000.0,-997.0703125,0.0
1734406659.1395104,-1000.0,-489.2578125,-951.66015625,-999.51171875,0.0
1734406659.1434865,-970.21484375,-103.02734375,-820.80078125,-1000.0,0.0
1734406659.1473906,-783.69140625,-397.94921875,-867.1875,-829.1015625,0.0
1734406659.151295,-609.375,-807.6171875,-979.4921875,-803.7109375,0.0
1734406659.1551993,-484.375,-474.609375,-948.2421875,-1000.0,0.0
1734406659.1591034,-222.16796875,-180.6640625,-866.2109375,-916.015625,0.0
1734406659.1630077,180.6640625,-455.078125,-780.76171875,-275.87890625,0.0
1734406659.166912,577.63671875,-612.3046875,-733.88671875,433.10546875,0.0
1734406659.1708162,846.6796875,-173.828125,-702.1484375,585.44921875,0.0
1734406659.1747205,966.796875,-67.3828125,-835.9375,360.3515625,0.0
1734406659.1786249,965.33203125,-224.12109375,-745.60546875,542.48046875,0.0
1734406659.182529,967.7734375,-37.59765625,-323.73046875,949.21875,0.0
1734406659.1864333,969.7265625,214.35546875,-226.5625,973.6328125,0.0
1734406659.19039,969.23828125,233.88671875,-389.6484375,959.47265625,0.0
1734406659.1942945,969.23828125,-538.57421875,-733.3984375,972.16796875,0.0
1734406659.1981988,969.23828125,-734.86328125,-694.3359375,969.7265625,0.0
1734406659.202103,969.23828125,224.12109375,0.0,969.7265625,0.0
1734406659.2060072,969.23828125,350.5859375,139.16015625,970.21484375,0.0
1734406659.2099116,969.23828125,-293.9453125,-288.0859375,969.7265625,0.0
1734406659.2138157,969.23828125,-400.87890625,-442.3828125,969.7265625,0.0
1734406659.21772,969.23828125,88.37890625,-385.25390625,970.21484375,0.0
1734406659.2216244,969.23828125,44.43359375,-93.75,970.21484375,0.0
1734406659.2255285,969.23828125,-289.55078125,72.265625,969.7265625,0.0
1734406659.2294328,969.23828125,-99.609375,-18.5546875,969.7265625,0.0
1734406659.2333372,969.23828125,67.3828125,-228.515625,969.7265625,0.0
1734406659.2373433,0.0,-341.30859375,-574.70703125,969.7265625,0.0
1734406659.2412477,0.0,-392.578125,-275.390625,969.7265625,0.0
1734406659.245152,0.0,58.59375,172.36328125,969.7265625,0.0
1734406659.249056,0.0,91.796875,-57.6171875,969.7265625,0.0
1734406659.2529604,0.0,-479.4921875,-547.36328125,969.7265625,0.0
1734406659.2568648,0.0,-945.80078125,-749.51171875,969.7265625,0.0
1734406659.260769,0.0,-520.01953125,-351.07421875,969.7265625,0.0
1734406659.2646732,0.0,3.41796875,81.54296875,969.23828125,0.0
1734406659.2685776,0.0,-435.546875,-226.07421875,969.7265625,0.0
1734406659.2724817,0.0,-917.48046875,-633.30078125,969.7265625,0.0
1734406659.276386,0.0,-358.88671875,-464.84375,969.7265625,0.0
1734406659.2802904,0.0,-109.375,-294.43359375,969.7265625,0.0
1734406659.2842789,969.23828125,-385.7421875,-93.26171875,969.7265625,0.0
1734406659.288183,969.23828125,-526.3671875,-165.52734375,969.7265625,0.0
1734406659.2920873,969.23828125,-403.80859375,-348.6328125,969.7265625,0.0
1734406659.2959917,969.23828125,-364.74609375,-431.640625,969.7265625,0.0
1734406659.2998958,969.23828125,-632.32421875,-346.6796875,969.7265625,0.0
1734406659.3038,969.23828125,-615.72265625,-9.765625,969.7265625,0.0
1734406659.3077044,968.75,-272.4609375,154.296875,969.7265625,0.0
1734406659.3116086,968.75,-385.7421875,-76.171875,969.7265625,0.0
1734406659.315513,969.23828125,-675.29296875,-377.9296875,969.7265625,0.0
1734406659.3194172,969.23828125,-375.9765625,-72.75390625,969.7265625,0.0
1734406659.3233213,969.23828125,-7.8125,341.796875,969.23828125,0.0
1734406659.3272257,969.23828125,-251.953125,231.4453125,969.7265625,0.0
1734406659.3312094,968.75,-654.296875,86.9140625,969.7265625,0.0
1734406659.3351138,968.75,-344.23828125,190.91796875,969.7265625,0.0
1734406659.339018,968.75,-0.48828125,340.8203125,969.7265625,0.0
1734406659.3429222,968.75,-203.125,442.87109375,969.7265625,0.0
1734406659.3468266,969.23828125,-273.4375,522.94921875,969.7265625,0.0
1734406659.350731,969.23828125,-22.4609375,603.02734375,969.7265625,0.0
1734406659.354635,968.75,26.3671875,614.2578125,969.7265625,0.0
1734406659.3585393,968.75,-33.203125,723.6328125,969.7265625,0.0
1734406659.3624437,969.23828125,381.8359375,832.51953125,969.7265625,0.0
1734406659.366348,969.23828125,-992.1875,872.0703125,969.7265625,0.0
1734406659.3702521,969.23828125,959.9609375,876.953125,969.7265625,0.0
1734406659.3741565,968.75,958.49609375,898.4375,969.7265625,0.0
1734406659.378091,969.23828125,972.65625,929.6875,969.7265625,0.0
1734406659.3819954,969.23828125,969.7265625,952.1484375,969.7265625,0.0
1734406659.3858995,969.23828125,969.7265625,967.7734375,969.7265625,0.0
1734406659.389804,968.75,971.6796875,969.7265625,969.7265625,0.0
1734406659.3937082,969.23828125,963.8671875,968.26171875,969.7265625,0.0
1734406659.3976123,969.23828125,940.4296875,963.8671875,969.7265625,0.0
1734406659.4015167,969.23828125,-986.328125,934.08203125,969.7265625,0.0
1734406659.405421,969.23828125,434.5703125,872.55859375,969.7265625,0.0
1734406659.4093251,969.23828125,-661.1328125,609.375,969.7265625,0.0
1734406659.4132295,969.23828125,-1000.0,122.0703125,969.7265625,0.0
1734406659.4171338,969.23828125,-974.12109375,-490.72265625,969.7265625,0.0
1734406659.421038,969.23828125,-983.3984375,-544.921875,969.7265625,0.0
1734406659.4249508,969.23828125,-1000.0,158.69140625,969.7265625,0.0
1734406659.4288552,969.23828125,-710.9375,583.49609375,969.7265625,0.0
1734406659.4327595,969.23828125,-538.57421875,599.12109375,969.7265625,0.0
1734406659.4366636,969.23828125,-310.546875,635.7421875,969.7265625,0.0
1734406659.440568,969.23828125,692.3828125,795.8984375,971.19140625,0.0
1734406659.4444723,968.75,-948.2421875,807.12890625,964.84375,0.0
1734406659.4483764,969.23828125,701.66015625,562.98828125,963.8671875,0.0
1734406659.4522808,969.23828125,520.99609375,347.65625,978.515625,0.0
1734406659.456185,969.23828125,500.9765625,174.31640625,702.1484375,0.0
1734406659.4600892,969.23828125,-108.3984375,70.80078125,392.08984375,0.0
1734406659.4639935,969.23828125,-808.10546875,-296.38671875,497.55859375,0.0
1734406659.467898,969.23828125,-1000.0,-726.5625,489.74609375,0.0
1734406659.471826,969.23828125,-979.98046875,-706.54296875,-75.1953125,0.0
1734406659.4757304,969.23828125,-1000.0,-875.9765625,-794.921875,0.0
1734406659.4796345,969.7265625,-1000.0,-907.71484375,-1000.0,0.0
1734406659.4835389,968.75,-1000.0,-807.6171875,-950.1953125,0.0
1734406659.4874432,963.8671875,-1000.0,-869.62890625,-937.5,0.0
1734406659.4913473,975.5859375,-1000.0,-968.75,-996.58203125,0.0
1734406659.4952517,865.234375,-1000.0,-976.5625,-1000.0,0.0
1734406659.499156,641.11328125,-1000.0,-955.56640625,-998.046875,0.0
1734406659.50306,531.73828125,-1000.0,-857.91015625,-1000.0,0.0
1734406659.5069644,435.546875,-1000.0,-883.30078125,-1000.0,0.0
1734406659.5108688,252.44140625,-1000.0,-956.0546875,-1000.0,0.0
1734406659.514773,57.6171875,-1000.0,-895.5078125,-1000.0,0.0
1734406659.518699,-65.91796875,-1000.0,-819.3359375,-1000.0,0.0
1734406659.522603,-49.8046875,-999.51171875,-583.49609375,-1000.0,0.0
1734406659.5265074,-11.71875,-1000.0,-372.0703125,-1000.0,0.0
1734406659.5304117,-34.66796875,-1000.0,-114.74609375,-997.55859375,0.0
1734406659.534316,-65.4296875,-871.58203125,177.24609375,-980.46875,0.0
1734406659.5382202,-25.87890625,-984.86328125,336.42578125,-1000.0,0.0
1734406659.5421245,119.140625,-487.79296875,691.89453125,-647.94921875,0.0
1734406659.5460289,353.02734375,750.48828125,919.921875,262.20703125,0.0
1734406659.549933,348.14453125,-994.140625,890.13671875,600.09765625,0.0
1734406659.5538373,279.296875,931.640625,917.48046875,421.38671875,0.0
1734406659.5577416,582.03125,975.09765625,944.82421875,742.67578125,0.0
1734406659.5616457,913.57421875,970.21484375,966.796875,-1000.0,0.0
1734406659.56557,974.609375,969.7265625,971.6796875,957.51953125,0.0
1734406659.5694742,959.9609375,969.7265625,960.9375,967.7734375,0.0
1734406659.5733786,970.21484375,970.21484375,949.21875,970.703125,0.0
1734406659.577283,968.75,974.12109375,942.87109375,973.6328125,0.0
1734406659.581187,969.23828125,929.19921875,894.04296875,944.3359375,0.0
1734406659.5850914,969.23828125,-982.91015625,944.82421875,976.07421875,0.0
1734406659.5889957,969.23828125,687.01171875,-54.6875,856.93359375,0.0
1734406659.5928998,969.23828125,-530.76171875,-1000.0,-234.375,0.0
1734406659.5968041,971.6796875,-1000.0,-969.23828125,-1000.0,0.0
1734406659.6007085,952.63671875,-960.44921875,-984.86328125,-972.65625,0.0
1734406659.6046128,976.07421875,-1000.0,-1000.0,-988.28125,0.0
1734406659.608517,837.890625,-1000.0,-1000.0,-1000.0,0.0
1734406659.6125727,163.57421875,-1000.0,-1000.0,-1000.0,0.0
1734406659.616477,-694.82421875,-1000.0,-1000.0,-1000.0,0.0
1734406659.6203814,-1000.0,-1000.0,-1000.0,-1000.0,0.0
1734406659.6242857,-979.98046875,-1000.0,-1000.0,-1000.0,0.0
1734406659.6281898,-998.53515625,-1000.0,-1000.0,-1000.0,0.0
1734406659.6320941,-1000.0,-1000.0,-1000.0,-1000.0,0.0
1734406659.6359985,-1000.0,-1000.0,-1000.0,-1000.0,0.0
1734406659.6399026,-1000.0,-1000.0,-1000.0,-1000.0,0.0
1734406659.643807,-1000.0,-1000.0,-1000.0,-1000.0,0.0
1734406659.6477113,-1000.0,-1000.0,-1000.0,-1000.0,0.0
1734406659.6516156,-1000.0,-1000.0,-1000.0,-1000.0,0.0
1734406659.6555197,-1000.0,-1000.0,-1000.0,-1000.0,0.0
1734406659.6595418,-1000.0,-1000.0,-1000.0,-1000.0,0.0
1734406659.6634462,-1000.0,-1000.0,-1000.0,-1000.0,0.0
1734406659.6673505,-1000.0,-1000.0,-1000.0,-1000.0,0.0
1734406659.6712549,-1000.0,-1000.0,-1000.0,-1000.0,0.0
1734406659.675159,-1000.0,-991.69921875,-1000.0,-1000.0,0.0
1734406659.6790633,-1000.0,-1000.0,-1000.0,-1000.0,0.0
1734406659.6829677,-1000.0,-930.6640625,-1000.0,-1000.0,0.0
1734406659.6868718,-1000.0,-847.65625,-1000.0,-1000.0,0.0
1734406659.690776,-1000.0,-804.6875,-1000.0,-1000.0,0.0
1734406659.6946805,-1000.0,-504.8828125,-1000.0,-1000.0,0.0
1734406659.6985848,-1000.0,-156.73828125,-1000.0,-997.55859375,0.0
1734406659.702489,-1000.0,-133.30078125,-1000.0,-1000.0,0.0
1734406659.7065744,-1000.0,16.6015625,-1000.0,-1000.0,0.0
1734406659.7104788,-1000.0,659.66796875,-1000.0,-859.375,0.0
1734406659.7143831,-996.09375,923.828125,-978.02734375,-842.28515625,0.0
1734406659.7182875,-996.58203125,875.9765625,-979.4921875,-718.26171875,0.0
1734406659.7221916,-995.60546875,893.5546875,-644.53125,32.71484375,0.0
1734406659.726096,-768.5546875,984.86328125,112.79296875,800.78125,0.0
1734406659.7300003,-422.8515625,966.30859375,639.16015625,980.46875,0.0
1734406659.7339046,-143.5546875,969.7265625,854.00390625,949.70703125,0.0
1734406659.7378087,287.59765625,969.7265625,909.66796875,971.6796875,0.0
1734406659.741713,801.26953125,969.7265625,928.22265625,970.21484375,0.0
1734406659.7456174,980.46875,969.23828125,920.8984375,969.7265625,0.0
1734406659.7495217,956.0546875,968.26171875,901.85546875,969.7265625,0.0
1734406659.753588,968.75,974.12109375,886.23046875,969.7265625,0.0
1734406659.7574923,969.7265625,935.546875,867.67578125,969.7265625,0.0
1734406659.7613966,969.23828125,917.48046875,860.83984375,969.7265625,0.0
1734406659.765301,968.75,934.08203125,856.4453125,969.7265625,0.0
1734406659.769205,969.23828125,966.796875,852.5390625,969.23828125,0.0
1734406659.7731094,969.23828125,857.421875,839.84375,969.7265625,0.0
1734406659.7770138,969.23828125,534.66796875,812.98828125,969.7265625,0.0
1734406659.7809181,969.23828125,509.765625,813.4765625,969.7265625,0.0
1734406659.7848222,969.23828125,869.140625,843.26171875,969.7265625,0.0
1734406659.7887266,969.23828125,-965.33203125,836.42578125,969.7265625,0.0
1734406659.792631,969.23828125,722.16796875,798.828125,969.7265625,0.0
1734406659.7965353,969.23828125,336.9140625,776.85546875,969.23828125,0.0
1734406659.800682,968.75,516.11328125,794.921875,969.23828125,0.0
1734406659.8045862,968.75,723.6328125,827.63671875,969.7265625,0.0
1734406659.8084905,969.23828125,160.64453125,704.58984375,969.7265625,0.0
1734406659.8123949,969.23828125,-399.90234375,614.74609375,969.7265625,0.0
1734406659.8162992,969.23828125,-233.3984375,593.75,969.7265625,0.0
1734406659.8202035,969.23828125,-367.67578125,574.21875,969.7265625,0.0
1734406659.8241076,969.23828125,-648.92578125,529.78515625,969.7265625,0.0
1734406659.828012,969.23828125,-898.92578125,471.6796875,969.7265625,0.0
1734406659.8319163,969.23828125,-215.33203125,527.83203125,969.7265625,0.0
1734406659.8358207,968.75,338.8671875,454.58984375,969.7265625,0.0
1734406659.839725,969.23828125,283.203125,447.265625,969.7265625,0.0
1734406659.8436291,969.23828125,688.4765625,667.96875,970.21484375,0.0
1734406659.8477585,969.23828125,-985.83984375,770.01953125,969.7265625,0.0
1734406659.8516626,968.75,938.4765625,708.984375,969.23828125,0.0
1734406659.855567,968.75,880.37109375,686.03515625,969.7265625,0.0
1734406659.8594713,969.23828125,926.7578125,744.140625,969.7265625,0.0
1734406659.8633757,969.23828125,989.74609375,814.453125,969.7265625,0.0
1734406659.86728,969.23828125,943.84765625,790.52734375,969.7265625,0.0
1734406659.8711843,969.23828125,887.20703125,722.16796875,969.7265625,0.0
1734406659.8750885,969.23828125,944.3359375,715.33203125,969.7265625,0.0
1734406659.8789928,969.23828125,990.234375,761.23046875,969.7265625,0.0
1734406659.8828971,968.75,917.48046875,807.6171875,969.7265625,0.0
1734406659.8868015,969.23828125,858.88671875,812.98828125,969.7265625,0.0
1734406659.8907058,969.23828125,893.06640625,804.19921875,969.7265625,0.0
1734406659.8948138,969.23828125,727.5390625,750.0,969.7265625,0.0
1734406659.898718,969.23828125,-61.03515625,609.86328125,969.7265625,0.0
1734406659.9026225,969.23828125,-568.84765625,630.859375,969.7265625,0.0
1734406659.9065268,969.23828125,-102.05078125,708.49609375,969.7265625,0.0
1734406659.9104311,969.23828125,-208.49609375,623.53515625,969.7265625,0.0
1734406659.9143355,969.23828125,-817.3828125,319.82421875,969.7265625,0.0
1734406659.9182398,969.23828125,-974.12109375,199.70703125,969.7265625,0.0
1734406659.922144,969.23828125,-745.60546875,350.5859375,971.6796875,0.0
1734406659.9260483,969.23828125,-747.55859375,398.4375,955.078125,0.0
1734406659.9299526,969.23828125,-946.77734375,90.33203125,991.2109375,0.0
1734406659.933857,969.23828125,-1000.0,-85.9375,873.046875,0.0
1734406659.9377613,969.23828125,-914.55078125,167.48046875,511.23046875,0.0
1734406659.9418201,969.23828125,-954.58984375,249.51171875,500.48828125,0.0
1734406659.9457245,969.23828125,-1000.0,302.734375,822.265625,0.0
1734406659.9496288,969.23828125,-863.28125,333.0078125,-993.1640625,0.0
1734406659.9535332,969.23828125,-773.92578125,331.54296875,768.06640625,0.0
1734406659.9574373,968.75,-875.9765625,257.8125,371.58203125,0.0
1734406659.9613416,969.23828125,-1000.0,288.0859375,436.5234375,0.0
1734406659.965246,969.23828125,-859.375,518.5546875,798.828125,0.0
1734406659.9691503,968.75,-580.56640625,636.71875,991.2109375,0.0
1734406659.9730546,968.75,-783.203125,586.42578125,925.78125,0.0
1734406659.976959,968.75,-996.09375,605.95703125,637.20703125,0.0
1734406659.9808633,968.75,-697.265625,776.85546875,674.8046875,0.0
1734406659.9847677,969.23828125,-90.8203125,859.375,961.9140625,0.0
1734406659.9888396,969.23828125,119.62890625,863.28125,973.6328125,0.0
1734406659.992744,969.23828125,403.80859375,902.83203125,961.9140625,0.0
1734406659.9966483,969.23828125,981.4453125,933.10546875,971.6796875,0.0
1734406660.0005524,969.23828125,974.12109375,943.359375,969.7265625,0.0
1734406660.0044568,969.23828125,953.61328125,946.2890625,969.7265625,0.0
1734406660.008361,968.75,973.6328125,947.265625,969.7265625,0.0
1734406660.0122654,969.23828125,969.7265625,948.73046875,969.7265625,0.0
1734406660.0161698,969.23828125,969.7265625,947.75390625,969.7265625,0.0
1734406660.0200741,968.75,969.7265625,949.21875,969.7265625,0.0
1734406660.0239785,969.23828125,969.7265625,965.8203125,969.7265625,0.0
1734406660.0278828,969.23828125,969.7265625,966.796875,970.703125,0.0
1734406660.0317872,969.23828125,969.23828125,963.37890625,961.9140625,0.0
1734406660.0358088,969.23828125,969.7265625,955.078125,983.88671875,0.0
1734406660.0397131,969.23828125,969.7265625,951.66015625,898.92578125,0.0
1734406660.0436175,969.23828125,969.7265625,963.8671875,731.4453125,0.0
1734406660.0475218,968.75,969.7265625,965.8203125,640.13671875,0.0
1734406660.0514262,968.75,969.7265625,956.54296875,316.40625,0.0
1734406660.0553305,969.23828125,969.23828125,953.61328125,-458.0078125,0.0
1734406660.0592349,969.23828125,969.7265625,964.84375,-1000.0,0.0
1734406660.0631392,969.23828125,969.7265625,968.26171875,-990.234375,0.0
1734406660.0670433,969.23828125,969.7265625,963.37890625,-989.2578125,0.0
1734406660.0709476,969.23828125,969.7265625,968.75,-1000.0,0.0
1734406660.074852,968.75,969.7265625,971.19140625,-1000.0,0.0
1734406660.0787563,971.19140625,969.7265625,968.26171875,-1000.0,0.0
1734406660.0827742,958.984375,969.7265625,964.35546875,-1000.0,0.0
1734406660.0866785,961.9140625,969.7265625,969.23828125,-1000.0,0.0
1734406660.0905826,948.73046875,969.7265625,970.703125,-1000.0,0.0
1734406660.094487,856.4453125,970.21484375,964.84375,-1000.0,0.0
1734406660.0983913,765.13671875,970.21484375,963.8671875,-1000.0,0.0
1734406660.1022956,743.1640625,968.26171875,969.23828125,-1000.0,0.0
1734406660.1062,795.8984375,972.16796875,971.19140625,-1000.0,0.0
1734406660.1101043,879.39453125,963.8671875,961.9140625,-1000.0,0.0
1734406660.1140087,848.6328125,929.6875,949.21875,-1000.0,0.0
1734406660.117913,788.57421875,930.6640625,958.984375,-1000.0,0.0
1734406660.1218174,825.68359375,849.609375,968.26171875,-1000.0,0.0
1734406660.1257217,916.50390625,307.12890625,962.40234375,-1000.0,0.0
1734406660.1297517,973.6328125,58.10546875,967.28515625,-1000.0,0.0
1734406660.133656,967.7734375,-189.453125,960.9375,-1000.0,0.0
1734406660.1375604,961.9140625,-699.70703125,952.1484375,-1000.0,0.0
1734406660.1414647,916.015625,-873.046875,955.078125,-1000.0,0.0
1734406660.145369,917.48046875,-995.1171875,961.9140625,-1000.0,0.0
1734406660.1492734,945.3125,-994.140625,971.19140625,-1000.0,0.0
1734406660.1531777,866.2109375,-1000.0,968.75,-1000.0,0.0
1734406660.157082,735.3515625,-1000.0,965.33203125,-1000.0,0.0
1734406660.1609864,648.92578125,-1000.0,969.7265625,-1000.0,0.0
1734406660.1648908,675.29296875,-1000.0,970.21484375,-1000.0,0.0
1734406660.168795,695.80078125,-1000.0,969.7265625,-1000.0,0.0
1734406660.1726995,565.4296875,-1000.0,969.7265625,-1000.0,0.0
1734406660.1766794,384.27734375,-1000.0,969.7265625,-1000.0,0.0
1734406660.1805837,191.89453125,-1000.0,966.30859375,-1000.0,0.0
1734406660.184488,57.6171875,-991.69921875,959.47265625,-1000.0,0.0
1734406660.1883924,-8.7890625,-1000.0,952.1484375,-1000.0,0.0
1734406660.1922967,-150.87890625,-929.6875,947.75390625,-1000.0,0.0
1734406660.196201,-346.6796875,-472.65625,948.73046875,-1000.0,0.0
1734406660.2001054,-517.08984375,38.57421875,941.40625,-1000.0,0.0
1734406660.2040098,-554.19921875,229.98046875,930.6640625,-1000.0,0.0
1734406660.207914,-600.09765625,731.4453125,934.5703125,-1000.0,0.0
1734406660.2118182,-735.83984375,-981.4453125,923.828125,-1000.0,0.0
1734406660.2157226,-875.9765625,888.671875,898.4375,-1000.0,0.0
1734406660.219627,-962.40234375,919.921875,902.34375,-1000.0,0.0
1734406660.2236037,-984.86328125,990.234375,915.52734375,-1000.0,0.0
1734406660.227508,-998.53515625,882.32421875,908.203125,-1000.0,0.0
1734406660.2314124,-1000.0,469.23828125,903.80859375,-1000.0,0.0
1734406660.2353168,-1000.0,34.1796875,899.90234375,-1000.0,0.0
1734406660.239221,-1000.0,-565.4296875,895.5078125,-1000.0,0.0
1734406660.2431254,-1000.0,-982.91015625,903.80859375,-1000.0,0.0
1734406660.2470298,-1000.0,-987.79296875,897.94921875,-1000.0,0.0
1734406660.2509341,-1000.0,-995.60546875,899.4140625,-1000.0,0.0
1734406660.2548385,-1000.0,-1000.0,900.390625,-1000.0,0.0
1734406660.2587428,-1000.0,-999.0234375,888.18359375,-1000.0,0.0
1734406660.2626472,-1000.0,-995.1171875,888.671875,-1000.0,0.0
1734406660.2665515,-1000.0,-920.41015625,900.87890625,-1000.0,0.0
1734406660.2704916,-1000.0,-673.828125,894.04296875,-1000.0,0.0
1734406660.274396,-1000.0,-773.4375,873.046875,-1000.0,0.0
1734406660.2783003,-1000.0,-859.375,862.3046875,-1000.0,0.0
1734406660.2822046,-1000.0,-381.34765625,865.72265625,-1000.0,0.0
1734406660.286109,-1000.0,-364.2578125,871.09375,-1000.0,0.0
1734406660.2900133,-1000.0,-844.23828125,857.421875,-1000.0,0.0
1734406660.2939177,-1000.0,-1000.0,856.93359375,-1000.0,0.0
1734406660.297822,-1000.0,-982.91015625,865.234375,-1000.0,0.0
1734406660.301726,-1000.0,-1000.0,881.34765625,-1000.0,0.0
1734406660.3056304,-1000.0,-1000.0,890.13671875,-1000.0,0.0
1734406660.3095348,-1000.0,-1000.0,891.11328125,-1000.0,0.0
1734406660.3134391,-1000.0,-1000.0,900.390625,-991.69921875,0.0
1734406660.3173785,-1000.0,-1000.0,895.01953125,-986.81640625,0.0
1734406660.3212829,-1000.0,-1000.0,888.671875,-969.23828125,0.0
1734406660.3251872,-1000.0,-1000.0,894.53125,-419.43359375,0.0
1734406660.3290915,-1000.0,-1000.0,887.20703125,300.78125,0.0
1734406660.332996,-1000.0,-1000.0,859.375,488.76953125,0.0
1734406660.3369002,-1000.0,-1000.0,816.89453125,328.61328125,0.0
1734406660.3408046,-1000.0,-1000.0,813.4765625,512.6953125,0.0
1734406660.344709,-1000.0,-1000.0,796.38671875,942.3828125,0.0
1734406660.3486133,-1000.0,-1000.0,651.3671875,976.5625,0.0
1734406660.3525176,-1000.0,-1000.0,-3.90625,957.03125,0.0
1734406660.356422,-1000.0,-1000.0,-655.76171875,972.65625,0.0
1734406660.3603263,-1000.0,-995.60546875,-782.2265625,969.7265625,0.0
1734406660.364297,-1000.0,-1000.0,-920.41015625,969.7265625,0.0
1734406660.3682013,-1000.0,-985.83984375,-1000.0,969.7265625,0.0
1734406660.3721056,-1000.0,-856.93359375,-997.55859375,969.7265625,0.0
1734406660.37601,-1000.0,-898.92578125,-998.046875,969.7265625,0.0
1734406660.3799143,-1000.0,-1000.0,-1000.0,969.7265625,0.0
1734406660.3838186,-1000.0,-997.55859375,-1000.0,969.23828125,0.0
1734406660.387723,-1000.0,-999.0234375,-1000.0,969.7265625,0.0
1734406660.3916273,-1000.0,-1000.0,-1000.0,970.21484375,0.0
1734406660.3955317,-1000.0,-1000.0,-1000.0,969.7265625,0.0
1734406660.399436,-1000.0,-1000.0,-1000.0,969.7265625,0.0
1734406660.4033403,-1000.0,-1000.0,-1000.0,969.7265625,0.0
1734406660.4072447,-1000.0,-1000.0,-1000.0,969.7265625,0.0
1734406660.411195,-1000.0,-1000.0,-1000.0,969.7265625,0.0
1734406660.4150994,-1000.0,-1000.0,-1000.0,970.21484375,0.0
1734406660.4190037,-1000.0,-1000.0,-1000.0,969.7265625,0.0
1734406660.422908,-1000.0,-1000.0,-1000.0,969.7265625,0.0
1734406660.4268124,-1000.0,-1000.0,-1000.0,969.7265625,0.0
1734406660.4307168,-1000.0,-1000.0,-1000.0,969.7265625,0.0
1734406660.434621,-1000.0,-1000.0,-1000.0,969.7265625,0.0
1734406660.4385254,-1000.0,-1000.0,-1000.0,969.7265625,0.0
1734406660.4424298,-1000.0,-1000.0,-1000.0,969.7265625,0.0
1734406660.4463341,-1000.0,-1000.0,-1000.0,969.7265625,0.0
1734406660.4502385,-1000.0,-1000.0,-1000.0,969.7265625,0.0
1734406660.4541428,-1000.0,-1000.0,-1000.0,970.21484375,0.0
1734406660.4580762,-1000.0,-1000.0,-1000.0,970.21484375,0.0
1734406660.4619806,-1000.0,-1000.0,-1000.0,969.7265625,0.0
1734406660.465885,-1000.0,-1000.0,-1000.0,969.7265625,0.0
1734406660.4697893,-1000.0,-1000.0,-1000.0,969.7265625,0.0
1734406660.4736936,-1000.0,-1000.0,-1000.0,969.7265625,0.0
1734406660.477598,-1000.0,-1000.0,-1000.0,969.7265625,0.0
1734406660.4815023,-1000.0,-1000.0,-1000.0,971.6796875,0.0
1734406660.4854066,-1000.0,-1000.0,-1000.0,963.37890625,0.0
1734406660.489311,-1000.0,-1000.0,-1000.0,957.51953125,0.0
1734406660.4932153,-1000.0,-1000.0,-1000.0,988.28125,0.0
1734406660.4971197,-1000.0,-1000.0,-1000.0,550.78125,0.0
1734406660.501024,-1000.0,-1000.0,-1000.0,19.53125,0.0
1734406660.5049708,-1000.0,-1000.0,-1000.0,104.98046875,0.0
1734406660.5088751,-1000.0,-1000.0,-1000.0,263.671875,0.0
1734406660.5127795,-1000.0,-1000.0,-1000.0,40.52734375,0.0
1734406660.5166838,-1000.0,-1000.0,-1000.0,-532.71484375,0.0
1734406660.5205882,-1000.0,-1000.0,-1000.0,-887.20703125,0.0
1734406660.5244925,-1000.0,-1000.0,-1000.0,-627.44140625,0.0
1734406660.5283968,-1000.0,-1000.0,-1000.0,-241.69921875,0.0
1734406660.5323012,-1000.0,-1000.0,-1000.0,-200.1953125,0.0
1734406660.5362055,-1000.0,-1000.0,-1000.0,-558.10546875,0.0
1734406660.5401099,-1000.0,-1000.0,-1000.0,-773.4375,0.0
1734406660.5440142,-1000.0,-1000.0,-1000.0,-371.09375,0.0
1734406660.5479186,-1000.0,-1000.0,-1000.0,171.875,0.0
1734406660.551865,-1000.0,-1000.0,-1000.0,353.02734375,0.0
1734406660.5557694,-1000.0,-1000.0,-1000.0,99.12109375,0.0
1734406660.5596738,-1000.0,-1000.0,-1000.0,-82.03125,0.0
1734406660.5635781,-1000.0,-1000.0,-1000.0,347.65625,0.0
1734406660.5674825,-1000.0,-1000.0,-1000.0,866.69921875,0.0
1734406660.5713868,-1000.0,-1000.0,-1000.0,986.328125,0.0
1734406660.5752912,-1000.0,-1000.0,-1000.0,934.5703125,0.0
1734406660.5791955,-1000.0,-1000.0,-1000.0,923.33984375,0.0
1734406660.5830998,-1000.0,-1000.0,-1000.0,968.75,0.0
1734406660.5870042,-1000.0,-1000.0,-1000.0,972.65625,0.0
1734406660.5909085,-1000.0,-1000.0,-1000.0,967.7734375,0.0
1734406660.5948129,-1000.0,-1000.0,-1000.0,970.21484375,0.0
1734406660.5987566,-997.0703125,-1000.0,-1000.0,970.21484375,0.0
1734406660.602661,-1000.0,-1000.0,-1000.0,969.7265625,0.0
1734406660.6065652,-967.28515625,-1000.0,-1000.0,970.21484375,0.0
1734406660.6104696,-838.37890625,-1000.0,-1000.0,969.7265625,0.0
1734406660.614374,-692.3828125,-1000.0,-1000.0,969.7265625,0.0
1734406660.6182783,-545.41015625,-1000.0,-1000.0,969.7265625,0.0
1734406660.6221826,-371.58203125,-1000.0,-1000.0,969.7265625,0.0
1734406660.626087,-117.1875,-1000.0,-1000.0,969.7265625,0.0
1734406660.6299913,147.4609375,-989.2578125,-964.84375,969.7265625,0.0
1734406660.6338956,314.94140625,-1000.0,-942.87109375,969.7265625,0.0
1734406660.6378,464.84375,-924.8046875,-564.453125,969.7265625,0.0
1734406660.6417043,679.6875,-539.0625,311.03515625,969.7265625,0.0
1734406660.6456797,898.92578125,98.14453125,779.78515625,969.7265625,0.0
1734406660.649584,973.14453125,175.78125,812.01171875,969.7265625,0.0
1734406660.6534884,963.8671875,-342.28515625,833.0078125,969.7265625,0.0
1734406660.6573927,968.75,373.53515625,879.8828125,969.7265625,0.0
1734406660.661297,969.23828125,-951.171875,917.96875,969.7265625,0.0
1734406660.6652014,969.23828125,937.98828125,946.2890625,969.7265625,0.0
1734406660.6691058,969.23828125,963.37890625,962.890625,969.7265625,0.0
1734406660.67301,969.23828125,972.65625,975.5859375,969.7265625,0.0
1734406660.6769145,969.23828125,969.7265625,964.35546875,971.19140625,0.0
1734406660.6808188,969.23828125,969.7265625,901.3671875,970.21484375,0.0
1734406660.6847231,969.7265625,969.7265625,930.17578125,930.17578125,0.0
1734406660.6886275,968.75,969.7265625,946.77734375,-978.02734375,0.0
1734406660.6925519,959.47265625,969.7265625,918.45703125,507.8125,0.0
1734406660.6964562,983.3984375,969.7265625,916.9921875,-703.125,0.0
1734406660.7003605,841.30859375,969.7265625,922.36328125,-1000.0,0.0
1734406660.7042649,549.8046875,969.7265625,936.03515625,-960.9375,0.0
1734406660.7081692,392.578125,970.21484375,941.40625,-1000.0,0.0
1734406660.7120736,209.9609375,969.7265625,926.7578125,-1000.0,0.0
1734406660.715978,16.6015625,969.7265625,919.43359375,-1000.0,0.0
1734406660.7198822,-36.62109375,969.7265625,914.55078125,-1000.0,0.0
1734406660.7237866,83.984375,969.7265625,906.25,-1000.0,0.0
1734406660.727691,271.484375,969.7265625,883.7890625,-1000.0,0.0
1734406660.7315953,370.60546875,969.7265625,881.34765625,-1000.0,0.0
1734406660.7354996,405.76171875,969.7265625,891.11328125,-1000.0,0.0
1734406660.7394698,518.5546875,969.7265625,895.99609375,-1000.0,0.0
1734406660.743374,799.8046875,969.7265625,909.66796875,-1000.0,0.0
1734406660.7472785,972.16796875,969.7265625,925.78125,-1000.0,0.0
1734406660.7511828,964.84375,969.7265625,928.22265625,-1000.0,0.0
1734406660.7550871,965.8203125,969.7265625,918.9453125,-1000.0,0.0
1734406660.7589915,970.21484375,969.7265625,919.921875,-1000.0,0.0
1734406660.7628958,969.23828125,970.21484375,924.31640625,-1000.0,0.0
1734406660.7668002,969.23828125,969.7265625,922.8515625,-1000.0,0.0
1734406660.7707045,969.23828125,969.7265625,903.3203125,-1000.0,0.0
1734406660.7746089,969.23828125,969.7265625,882.8125,-1000.0,0.0
1734406660.7785132,969.23828125,969.7265625,887.6953125,-1000.0,0.0
1734406660.7824175,969.23828125,969.7265625,881.8359375,-1000.0,0.0
1734406660.7864187,969.23828125,969.7265625,865.234375,-1000.0,0.0
1734406660.790323,969.23828125,969.7265625,853.515625,-1000.0,0.0
1734406660.7942274,969.7265625,969.7265625,851.5625,-1000.0,0.0
1734406660.7981317,969.23828125,969.7265625,848.14453125,-1000.0,0.0
1734406660.802036,969.23828125,969.7265625,861.81640625,-1000.0,0.0
1734406660.8059404,969.23828125,969.7265625,902.83203125,-1000.0,0.0
1734406660.8098447,969.23828125,969.7265625,929.19921875,-973.6328125,0.0
1734406660.813749,969.23828125,970.21484375,937.01171875,-1000.0,0.0
1734406660.8176534,969.23828125,969.7265625,931.640625,-936.03515625,0.0
1734406660.8215578,969.23828125,969.7265625,935.546875,206.54296875,0.0
1734406660.825462,969.23828125,969.7265625,933.59375,-953.61328125,0.0
1734406660.8293667,969.23828125,969.7265625,919.43359375,932.6171875,0.0
1734406660.8333168,968.75,969.7265625,910.15625,960.9375,0.0
1734406660.8372211,968.75,969.7265625,908.203125,972.65625,0.0
1734406660.8411255,969.23828125,969.7265625,900.87890625,969.7265625,0.0
1734406660.8450298,969.23828125,969.7265625,885.7421875,969.7265625,0.0
1734406660.8489342,969.23828125,969.7265625,871.09375,969.7265625,0.0
1734406660.8528385,969.23828125,969.7265625,856.4453125,969.7265625,0.0
1734406660.8567429,969.23828125,969.7265625,853.02734375,969.7265625,0.0
1734406660.8606472,969.23828125,969.7265625,784.66796875,969.7265625,0.0
1734406660.8645515,969.23828125,969.23828125,725.5859375,969.7265625,0.0
1734406660.868456,969.23828125,973.6328125,645.99609375,969.7265625,0.0
1734406660.8723602,969.23828125,956.54296875,397.94921875,969.7265625,0.0
1734406660.8762646,969.23828125,930.6640625,-154.78515625,969.7265625,0.0
1734406660.8802607,969.23828125,985.83984375,-744.140625,969.7265625,0.0
1734406660.884165,969.23828125,-12.6953125,-955.56640625,969.23828125,0.0
1734406660.8880694,969.23828125,-1000.0,-991.69921875,969.23828125,0.0
1734406660.8919737,969.23828125,-979.00390625,-995.60546875,969.7265625,0.0
1734406660.8958783,969.23828125,-981.4453125,-999.51171875,969.7265625,0.0
1734406660.8997827,970.703125,-1000.0,-1000.0,969.7265625,0.0
1734406660.903687,966.30859375,-1000.0,-1000.0,969.7265625,0.0
1734406660.9075913,952.63671875,-1000.0,-1000.0,969.7265625,0.0
1734406660.9114957,976.5625,-1000.0,-1000.0,969.7265625,0.0
1734406660.9154,628.41796875,-1000.0,-1000.0,969.7265625,0.0
1734406660.9193044,-114.2578125,-1000.0,-1000.0,969.7265625,0.0
1734406660.9232087,-757.32421875,-1000.0,-1000.0,969.7265625,0.0
1734406660.927219,-1000.0,-1000.0,-1000.0,969.7265625,0.0
1734406660.9311233,-986.328125,-1000.0,-1000.0,969.7265625,0.0
1734406660.9350276,-999.0234375,-1000.0,-1000.0,969.7265625,0.0
1734406660.938932,-1000.0,-1000.0,-1000.0,969.7265625,0.0
1734406660.9428365,-1000.0,-1000.0,-1000.0,973.14453125,0.0
1734406660.9467409,-1000.0,-1000.0,-1000.0,952.1484375,0.0
1734406660.9506452,-1000.0,-1000.0,-1000.0,979.4921875,0.0
1734406660.9545496,-1000.0,-1000.0,-1000.0,881.8359375,0.0
1734406660.958454,-1000.0,-1000.0,-1000.0,243.1640625,0.0
1734406660.9623582,-1000.0,-1000.0,-1000.0,-385.7421875,0.0
1734406660.9662626,-1000.0,-1000.0,-1000.0,-615.72265625,0.0
1734406660.970167,-1000.0,-1000.0,-1000.0,-863.28125,0.0
1734406660.9741285,-1000.0,-1000.0,-1000.0,-1000.0,0.0
1734406660.9780328,-1000.0,-1000.0,-1000.0,-992.67578125,0.0
1734406660.9819372,-1000.0,-1000.0,-1000.0,-1000.0,0.0
1734406660.9858415,-1000.0,-1000.0,-1000.0,-1000.0,0.0
1734406660.9897459,-1000.0,-1000.0,-1000.0,-1000.0,0.0
1734406660.9936504,-1000.0,-1000.0,-1000.0,-1000.0,0.0
1734406660.9975548,-1000.0,-1000.0,-1000.0,-1000.0,0.0
1734406661.0014591,-1000.0,-1000.0,-1000.0,-1000.0,0.0
1734406661.0053635,-1000.0,-1000.0,-1000.0,-1000.0,0.0
1734406661.0092678,-1000.0,-1000.0,-1000.0,-1000.0,0.0
1734406661.0131721,-1000.0,-1000.0,-1000.0,-1000.0,0.0
1734406661.0170765,-1000.0,-1000.0,-1000.0,-1000.0,0.0
1734406661.0210502,0.0,-1000.0,-1000.0,-998.53515625,0.0
1734406661.0249546,0.0,-1000.0,-1000.0,-1000.0,0.0
1734406661.028859,0.0,-1000.0,-1000.0,-979.98046875,0.0
1734406661.0327632,0.0,-1000.0,-1000.0,-964.35546875,0.0
1734406661.0366676,0.0,-1000.0,-1000.0,-985.3515625,0.0
1734406661.040572,0.0,-1000.0,-1000.0,-1000.0,0.0
1734406661.0444765,0.0,-1000.0,-1000.0,-913.0859375,0.0
1734406661.0483809,0.0,-1000.0,-1000.0,-517.08984375,0.0
1734406661.0522852,0.0,-1000.0,-1000.0,-279.78515625,0.0
1734406661.0561895,0.0,-1000.0,-1000.0,-449.21875,0.0
1734406661.0600939,0.0,-1000.0,-1000.0,-659.66796875,0.0
1734406661.0639982,0.0,-1000.0,-998.046875,-375.48828125,0.0
1734406661.0679212,-226.5625,-1000.0,-996.09375,193.359375,0.0
1734406661.0718255,-93.26171875,-1000.0,-999.51171875,504.8828125,0.0
1734406661.0757298,-75.68359375,-1000.0,-973.6328125,325.1953125,0.0
1734406661.0796342,-63.96484375,-1000.0,-947.265625,44.921875,0.0
1734406661.0835385,20.99609375,-1000.0,-721.6796875,274.4140625,0.0
1734406661.0874429,189.453125,-1000.0,-679.19921875,778.3203125,0.0
1734406661.0913472,291.9921875,-1000.0,-697.75390625,-986.328125,0.0
1734406661.0952516,267.578125,-1000.0,-354.4921875,842.28515625,0.0
1734406661.099156,291.015625,-1000.0,-400.87890625,537.59765625,0.0
1734406661.1030605,328.61328125,-1000.0,-327.1484375,672.36328125,0.0
1734406661.1069648,406.73828125,-993.1640625,194.3359375,938.96484375,0.0
1734406661.1108692,529.296875,-983.88671875,358.88671875,978.02734375,0.0
1734406661.114805,519.53125,-991.2109375,119.62890625,944.82421875,0.0
1734406661.1187093,443.359375,-991.2109375,17.08984375,680.6640625,0.0
1734406661.1226137,429.19921875,-889.16015625,252.44140625,635.7421875,0.0
1734406661.126518,506.8359375,-645.01953125,440.4296875,895.5078125,0.0
1734406661.1304226,568.359375,-767.08984375,152.34375,988.28125,0.0
1734406661.134327,486.81640625,-1000.0,-92.7734375,924.8046875,0.0
1734406661.1382313,349.12109375,-1000.0,-6.34765625,567.3828125,0.0
1734406661.1421356,297.8515625,-774.4140625,139.6484375,385.7421875,0.0
1734406661.14604,371.09375,-785.64453125,227.5390625,718.75,0.0
1734406661.1499443,429.19921875,-1000.0,6.8359375,-994.62890625,0.0
1734406661.1538486,323.73046875,-826.66015625,106.4453125,855.46875,0.0
1734406661.157753,186.5234375,-716.30859375,137.20703125,352.05078125,0.0
1734406661.1617033,141.11328125,-857.91015625,119.140625,101.07421875,0.0
1734406661.1656077,198.73046875,-801.26953125,311.5234375,395.01953125,0.0
1734406661.169512,251.953125,-608.3984375,339.84375,706.54296875,0.0
1734406661.1734164,223.6328125,-595.703125,199.21875,609.375,0.0
1734406661.177321,139.16015625,-841.796875,-24.4140625,131.34765625,0.0
1734406661.1812253,98.14453125,-983.3984375,-39.55078125,-165.0390625,0.0
1734406661.1851296,217.7734375,-820.80078125,262.20703125,126.46484375,0.0
1734406661.189034,383.7890625,-629.39453125,284.66796875,537.109375,0.0
1734406661.1929383,460.9375,-785.15625,106.93359375,588.8671875,0.0
1734406661.1968427,458.49609375,-705.078125,38.57421875,197.265625,0.0
1734406661.200747,527.83203125,-447.75390625,20.5078125,-73.73046875,0.0
1734406661.2046514,770.5078125,-384.27734375,226.5625,276.85546875,0.0
1734406661.2086165,963.8671875,-610.83984375,267.08984375,805.6640625,0.0
1734406661.2125208,967.7734375,-267.08984375,220.703125,977.5390625,0.0
1734406661.2164252,964.35546875,60.05859375,176.26953125,714.35546875,0.0
1734406661.2203295,970.703125,-375.9765625,-128.41796875,530.76171875,0.0
1734406661.2242339,969.23828125,-585.44921875,-39.55078125,823.73046875,0.0
1734406661.2281382,969.23828125,-162.59765625,329.58984375,989.74609375,0.0
1734406661.2320426,968.75,-41.015625,288.57421875,959.47265625,0.0
1734406661.235947,969.23828125,-529.296875,-99.12109375,968.75,0.0
1734406661.2398512,968.75,-656.73828125,-215.8203125,970.21484375,0.0
1734406661.2437558,968.75,142.578125,317.3828125,969.7265625,0.0
1734406661.2476602,968.75,366.2109375,410.15625,969.7265625,0.0
1734406661.2515645,968.75,-97.65625,270.99609375,969.7265625,0.0
1734406661.2554805,969.23828125,-232.421875,152.34375,969.7265625,0.0
1734406661.2593849,969.23828125,-232.91015625,33.69140625,969.7265625,0.0
1734406661.2632892,968.75,-264.6484375,180.6640625,969.23828125,0.0
1734406661.2671936,969.23828125,-227.05078125,375.9765625,969.7265625,0.0
1734406661.271098,969.23828125,-28.3203125,341.796875,969.7265625,0.0
1734406661.2750022,968.75,20.01953125,171.875,969.23828125,0.0
1734406661.2789068,968.75,-236.328125,61.03515625,969.7265625,0.0
1734406661.2828112,969.23828125,-41.015625,247.0703125,969.7265625,0.0
1734406661.2867155,969.23828125,468.75,483.88671875,969.7265625,0.0
1734406661.2906199,968.75,885.7421875,500.48828125,969.7265625,0.0
1734406661.2945242,969.23828125,595.703125,279.296875,969.7265625,0.0
1734406661.2984285,969.23828125,-96.19140625,107.91015625,969.7265625,0.0
1734406661.302357,969.23828125,370.60546875,338.8671875,969.7265625,0.0
1734406661.3062613,969.23828125,-963.8671875,564.453125,969.7265625,0.0
1734406661.3101656,968.75,743.65234375,438.4765625,969.23828125,0.0
1734406661.31407,968.75,573.2421875,342.7734375,969.23828125,0.0
1734406661.3179746,968.75,773.4375,327.1484375,969.7265625,0.0
1734406661.321879,969.23828125,691.40625,359.375,969.7265625,0.0
1734406661.3257833,969.23828125,523.92578125,471.6796875,969.7265625,0.0
1734406661.3296876,969.23828125,-198.73046875,349.609375,969.7265625,0.0
1734406661.333592,968.75,-49.8046875,396.97265625,969.7265625,0.0
1734406661.3374963,969.23828125,652.83203125,420.41015625,969.7265625,0.0
1734406661.3414006,969.23828125,515.625,407.71484375,969.7265625,0.0
1734406661.345305,968.75,686.03515625,598.14453125,969.7265625,0.0
1734406661.34923,968.75,950.68359375,628.41796875,969.7265625,0.0
1734406661.3531344,968.75,537.109375,479.98046875,969.7265625,0.0
1734406661.3570387,969.23828125,-104.98046875,357.91015625,969.7265625,0.0
1734406661.360943,969.23828125,78.125,421.38671875,969.7265625,0.0
1734406661.3648474,968.75,477.5390625,589.35546875,969.7265625,0.0
1734406661.3687518,969.23828125,234.86328125,580.078125,969.7265625,0.0
1734406661.372656,969.23828125,-145.99609375,439.94140625,969.7265625,0.0
1734406661.3765604,969.23828125,-233.88671875,357.421875,969.7265625,0.0
1734406661.380465,969.23828125,-6.34765625,385.7421875,969.7265625,0.0
1734406661.3843694,969.23828125,69.3359375,533.203125,969.7265625,0.0
1734406661.3882737,968.75,-530.76171875,494.62890625,969.7265625,0.0
1734406661.392178,968.75,-422.36328125,479.98046875,969.7265625,0.0
1734406661.396117,969.23828125,-1.46484375,454.1015625,969.7265625,0.0
1734406661.4000213,969.23828125,-329.1015625,335.44921875,969.7265625,0.0
1734406661.4039257,968.75,-272.94921875,495.1171875,969.7265625,0.0
1734406661.40783,969.23828125,177.24609375,654.296875,969.7265625,0.0
1734406661.4117343,968.75,244.140625,612.79296875,969.7265625,0.0
1734406661.4156387,969.23828125,-469.23828125,335.9375,969.7265625,0.0
1734406661.419543,969.23828125,-791.9921875,281.73828125,969.7265625,0.0
1734406661.4234476,969.23828125,-62.98828125,577.1484375,969.7265625,0.0
1734406661.427352,968.75,351.5625,668.9453125,969.23828125,0.0
1734406661.4312563,969.23828125,-265.13671875,494.62890625,969.7265625,0.0
1734406661.4351606,969.23828125,-694.82421875,384.27734375,970.21484375,0.0
1734406661.439065,968.75,-74.70703125,458.0078125,969.7265625,0.0
1734406661.4430199,968.75,210.9375,549.8046875,969.7265625,0.0
1734406661.4469242,969.23828125,90.33203125,663.0859375,969.7265625,0.0
1734406661.4508286,969.23828125,143.5546875,643.06640625,969.7265625,0.0
1734406661.454733,969.23828125,312.01171875,550.78125,969.7265625,0.0
1734406661.4586372,969.23828125,128.90625,439.94140625,969.7265625,0.0
1734406661.4625416,969.23828125,-173.33984375,455.56640625,969.7265625,0.0
1734406661.466446,969.23828125,96.6796875,656.25,969.7265625,0.0
1734406661.4703503,968.75,613.76953125,675.78125,969.7265625,0.0
1734406661.4742548,968.75,341.30859375,536.1328125,969.7265625,0.0
1734406661.4781592,968.75,-165.52734375,418.45703125,969.7265625,0.0
1734406661.4820635,968.75,132.8125,503.90625,969.7265625,0.0
1734406661.4859679,969.23828125,552.24609375,666.9921875,969.7265625,0.0
1734406661.4899035,969.23828125,215.8203125,568.84765625,969.7265625,0.0
1734406661.4938078,969.23828125,-466.30859375,438.4765625,969.7265625,0.0
1734406661.4977121,969.23828125,-289.0625,401.3671875,969.7265625,0.0
1734406661.5016165,969.23828125,115.72265625,411.62109375,970.703125,0.0
1734406661.505521,969.23828125,-0.9765625,510.25390625,968.26171875,0.0
1734406661.5094254,969.23828125,-251.953125,488.28125,952.1484375,0.0
1734406661.5133297,969.23828125,-462.40234375,358.3984375,-994.62890625,0.0
1734406661.517234,969.23828125,-588.8671875,205.078125,709.47265625,0.0
1734406661.5211384,969.23828125,-792.48046875,79.1015625,244.62890625,0.0
1734406661.5250428,969.23828125,-691.89453125,310.05859375,342.7734375,0.0
1734406661.528947,969.23828125,-315.4296875,471.19140625,576.66015625,0.0
1734406661.5328517,968.75,-545.41015625,273.92578125,451.171875,0.0
1734406661.5368023,969.7265625,-915.0390625,-90.33203125,-133.7890625,0.0
1734406661.5407066,964.84375,-1000.0,-316.40625,-677.24609375,0.0
1734406661.544611,963.8671875,-871.58203125,102.5390625,-621.09375,0.0
1734406661.5485156,924.8046875,-799.8046875,333.0078125,-294.43359375,0.0
1734406661.55242,730.95703125,-998.53515625,-161.1328125,-307.6171875,0.0
1734406661.5563242,353.02734375,-1000.0,-529.296875,-776.85546875,0.0
1734406661.5602286,22.94921875,-986.328125,-456.54296875,-1000.0,0.0
1734406661.564133,-67.3828125,-999.0234375,-237.79296875,-987.79296875,0.0
1734406661.5680373,-90.33203125,-970.703125,23.4375,-981.93359375,0.0
1734406661.5719416,-244.140625,-950.68359375,-66.89453125,-988.28125,0.0
1734406661.5758462,-563.4765625,-1000.0,-428.22265625,-1000.0,0.0
1734406661.5797505,-878.90625,-1000.0,-723.6328125,-999.51171875,0.0
1734406661.583665,-986.328125,-998.53515625,-605.95703125,-1000.0,0.0
1734406661.5875692,-995.60546875,-998.046875,-49.31640625,-1000.0,0.0
1734406661.5914736,-999.51171875,-999.51171875,-150.390625,-1000.0,0.0
1734406661.5953782,-1000.0,-1000.0,-647.4609375,-1000.0,0.0
1734406661.5992825,-1000.0,-1000.0,-822.265625,-1000.0,0.0
1734406661.6031868,-1000.0,-1000.0,-592.28515625,-1000.0,0.0
1734406661.6070912,-1000.0,-1000.0,-376.46484375,-1000.0,0.0
1734406661.6109955,-1000.0,-1000.0,-466.796875,-1000.0,0.0
1734406661.6148999,-1000.0,-1000.0,-632.32421875,-1000.0,0.0
1734406661.6188045,-1000.0,-1000.0,-709.47265625,-1000.0,0.0
1734406661.6227088,-1000.0,-1000.0,-597.16796875,-1000.0,0.0
1734406661.6266131,-1000.0,-1000.0,-362.3046875,-1000.0,0.0
1734406661.630525,-1000.0,-1000.0,-261.23046875,-999.51171875,0.0
1734406661.6344295,-1000.0,-1000.0,-533.69140625,-1000.0,0.0
1734406661.6383338,-1000.0,-1000.0,-722.65625,-985.3515625,0.0
1734406661.6422381,-1000.0,-1000.0,-766.6015625,-1000.0,0.0
1734406661.6461425,-1000.0,-986.81640625,-417.96875,-880.859375,0.0
1734406661.6500468,-1000.0,-994.140625,-173.828125,-475.09765625,0.0
1734406661.6539512,-1000.0,-999.0234375,-566.40625,-448.2421875,0.0
1734406661.6578557,-1000.0,-1000.0,-748.046875,-857.91015625,0.0
1734406661.66176,-1000.0,-966.30859375,-579.58984375,-968.75,0.0
1734406661.6656644,-1000.0,-901.3671875,-144.53125,-493.1640625,0.0
1734406661.6695688,-1000.0,-964.84375,-225.5859375,36.62109375,0.0
1734406661.6734731,-1000.0,-1000.0,-565.4296875,132.32421875,0.0
1734406661.6773834,-1000.0,-1000.0,-602.5390625,-276.85546875,0.0
1734406661.6812878,-1000.0,-956.0546875,-560.546875,-489.2578125,0.0
1734406661.6851923,-1000.0,-965.8203125,-366.2109375,-9.765625,0.0
1734406661.6890967,-1000.0,-895.01953125,-230.95703125,582.03125,0.0
1734406661.693001,-1000.0,-778.80859375,-284.1796875,709.9609375,0.0
1734406661.6969054,-999.0234375,-943.359375,-556.640625,366.2109375,0.0
1734406661.7008097,-997.0703125,-1000.0,-729.98046875,181.15234375,0.0
1734406661.704714,-1000.0,-841.30859375,-277.34375,632.32421875,0.0
1734406661.7086184,-896.97265625,-362.3046875,245.1171875,979.00390625,0.0
1734406661.712523,-763.18359375,-252.44140625,45.8984375,973.6328125,0.0
1734406661.7164273,-820.3125,-745.1171875,-372.0703125,921.38671875,0.0
1734406661.7203317,-869.140625,-884.27734375,-530.76171875,872.0703125,0.0
1734406661.7242413,-697.265625,-344.7265625,-25.87890625,957.03125,0.0
1734406661.7281456,-451.66015625,-273.4375,207.51953125,976.5625,0.0
1734406661.73205,-395.99609375,-514.16015625,-21.97265625,965.33203125,0.0
1734406661.7359543,-505.37109375,-457.51953125,-224.12109375,970.703125,0.0
1734406661.7398586,-578.125,-383.7890625,-414.0625,969.7265625,0.0
1734406661.743763,-493.65234375,-486.81640625,-235.83984375,969.7265625,0.0
1734406661.7476673,-339.84375,-558.59375,140.13671875,969.7265625,0.0
1734406661.751572,-283.203125,-227.05078125,198.73046875,969.7265625,0.0
1734406661.7554762,-416.9921875,-94.23828125,-108.88671875,969.7265625,0.0
1734406661.7593806,-550.29296875,-493.65234375,-483.3984375,968.26171875,0.0
1734406661.763285,-502.44140625,-645.01953125,-239.74609375,969.23828125,0.0
1734406661.7671893,-329.1015625,-122.0703125,254.39453125,968.75,0.0
1734406661.7710962,-217.28515625,244.62890625,294.921875,966.30859375,0.0
1734406661.7750006,-326.66015625,-300.29296875,-180.17578125,983.88671875,0.0
1734406661.778905,-460.44921875,-662.109375,-524.90234375,875.9765625,0.0
1734406661.7828093,-424.31640625,-225.09765625,-77.1484375,869.62890625,0.0
1734406661.7867138,-234.375,9.27734375,334.47265625,980.95703125,0.0
1734406661.7906182,-82.51953125,-392.578125,61.03515625,965.8203125,0.0
1734406661.7945225,-160.15625,-789.0625,-251.953125,978.02734375,0.0
1734406661.7984269,-258.30078125,-353.515625,-221.6796875,902.34375,0.0
1734406661.8023312,-168.45703125,-85.44921875,-41.9921875,900.390625,0.0
1734406661.8062356,63.96484375,-133.7890625,328.61328125,979.00390625,0.0
1734406661.81014,274.90234375,33.69140625,350.5859375,967.7734375,0.0
1734406661.8140445,283.69140625,193.84765625,214.35546875,968.75,0.0
1734406661.8179994,255.37109375,11.71875,47.36328125,969.7265625,0.0
1734406661.8219037,349.609375,-270.99609375,78.125,969.7265625,0.0
1734406661.825808,590.8203125,98.6328125,414.55078125,969.7265625,0.0
1734406661.8297124,861.328125,695.3125,529.78515625,969.7265625,0.0
1734406661.8336167,956.54296875,520.99609375,374.0234375,969.7265625,0.0
1734406661.837521,963.8671875,-96.6796875,175.29296875,969.23828125,0.0
1734406661.8414257,967.7734375,4.39453125,287.59765625,969.23828125,0.0
1734406661.84533,969.23828125,612.79296875,593.75,969.7265625,0.0
1734406661.8492343,969.23828125,649.90234375,610.83984375,969.7265625,0.0
1734406661.8531387,969.23828125,503.41796875,529.78515625,969.7265625,0.0
1734406661.857043,969.23828125,557.12890625,468.75,969.7265625,0.0
1734406661.8609474,969.23828125,714.84375,486.328125,969.7265625,0.0
1734406661.864948,969.23828125,650.87890625,662.59765625,969.7265625,0.0
1734406661.8688524,969.23828125,568.359375,726.5625,969.7265625,0.0
1734406661.8727567,969.23828125,787.59765625,641.6015625,969.7265625,0.0
1734406661.876661,969.23828125,586.42578125,501.46484375,969.7265625,0.0
1734406661.8805656,969.23828125,13.671875,374.51171875,969.7265625,0.0
1734406661.88447,969.23828125,-181.15234375,523.92578125,969.7265625,0.0
1734406661.8883743,969.23828125,307.6171875,672.8515625,969.7265625,0.0
1734406661.8922787,969.23828125,674.31640625,647.94921875,969.7265625,0.0
1734406661.896183,969.23828125,-95.21484375,319.82421875,969.7265625,0.0
1734406661.9000874,969.23828125,-528.80859375,271.97265625,969.7265625,0.0
1734406661.903992,969.23828125,295.41015625,601.07421875,969.7265625,0.0
1734406661.9078963,969.23828125,505.37109375,636.23046875,969.7265625,0.0
1734406661.9118948,969.23828125,305.6640625,603.515625,969.7265625,0.0
1734406661.9157991,969.23828125,-53.7109375,463.37890625,969.7265625,0.0
1734406661.9197035,969.23828125,-26.3671875,442.3828125,969.7265625,0.0
1734406661.9236078,969.23828125,352.5390625,598.6328125,969.7265625,0.0
1734406661.9275124,968.75,-30.76171875,621.58203125,969.7265625,0.0
1734406661.9314167,969.23828125,-318.359375,624.0234375,969.7265625,0.0
1734406661.935321,968.75,-281.73828125,524.90234375,969.7265625,0.0
1734406661.9392254,968.75,-575.68359375,416.50390625,969.7265625,0.0
1734406661.9431298,968.75,-629.8828125,554.6875,969.7265625,0.0
1734406661.9470344,969.23828125,-117.1875,772.94921875,969.7265625,0.0
1734406661.9509387,968.75,320.80078125,777.83203125,969.7265625,0.0
1734406661.954843,969.23828125,-190.91796875,603.515625,969.7265625,0.0
1734406661.9588087,969.23828125,-697.265625,503.90625,969.7265625,0.0
1734406661.962713,968.75,-250.0,681.640625,969.7265625,0.0
1734406661.9666173,969.23828125,174.31640625,825.1953125,969.7265625,0.0
1734406661.9705217,969.23828125,97.16796875,805.17578125,969.7265625,0.0
1734406661.974426,969.23828125,4.39453125,793.9453125,969.7265625,0.0
1734406661.9783306,969.23828125,-6.8359375,755.859375,969.23828125,0.0
1734406661.982235,969.23828125,73.73046875,779.78515625,969.23828125,0.0
1734406661.9861393,969.23828125,331.54296875,832.51953125,969.7265625,0.0
1734406661.9900436,969.23828125,675.29296875,838.8671875,969.7265625,0.0
1734406661.993948,969.23828125,984.375,833.49609375,969.7265625,0.0
1734406661.9978523,969.23828125,944.82421875,808.59375,969.7265625,0.0
1734406662.001757,969.23828125,886.71875,827.63671875,969.7265625,0.0
1734406662.0057025,968.75,935.546875,865.72265625,969.23828125,0.0
1734406662.0096068,969.23828125,983.88671875,873.53515625,969.23828125,0.0
1734406662.0135112,969.23828125,962.890625,871.58203125,969.7265625,0.0
1734406662.0174155,969.23828125,963.8671875,864.2578125,969.7265625,0.0
1734406662.0213199,969.23828125,968.26171875,876.46484375,969.7265625,0.0
1734406662.0252244,968.75,971.19140625,895.01953125,969.7265625,0.0
1734406662.0291288,968.75,968.75,894.53125,969.7265625,0.0
1734406662.0330331,969.23828125,966.796875,881.34765625,969.7265625,0.0
1734406662.0369375,969.23828125,968.75,869.62890625,970.21484375,0.0
1734406662.0408418,969.23828125,971.19140625,870.1171875,969.7265625,0.0
1734406662.0447462,969.23828125,968.75,877.44140625,969.7265625,0.0
1734406662.0486507,968.75,963.37890625,872.0703125,969.7265625,0.0
1734406662.052578,968.75,956.0546875,866.2109375,969.7265625,0.0
1734406662.0564823,969.23828125,998.046875,852.5390625,969.7265625,0.0
1734406662.0603867,969.23828125,885.25390625,830.078125,969.7265625,0.0
1734406662.064291,968.75,787.59765625,833.49609375,969.7265625,0.0
1734406662.0681956,969.23828125,928.22265625,849.609375,969.7265625,0.0
1734406662.0721,969.23828125,-967.28515625,853.515625,969.7265625,0.0
1734406662.0760043,969.23828125,723.14453125,713.8671875,969.7265625,0.0
1734406662.0799086,969.23828125,-183.10546875,556.15234375,969.7265625,0.0
1734406662.083813,970.703125,221.19140625,729.4921875,972.65625,0.0
1734406662.0877175,952.1484375,-954.1015625,842.28515625,952.1484375,0.0
1734406662.0916219,989.2578125,682.6171875,702.63671875,980.46875,0.0
1734406662.0955262,811.5234375,403.3203125,531.25,884.27734375,0.0
1734406662.099435,276.3671875,362.3046875,384.765625,253.90625,0.0
1734406662.1033394,-179.19921875,132.8125,358.3984375,-286.1328125,0.0
1734406662.1072438,-621.58203125,-255.859375,371.58203125,-466.30859375,0.0
1734406662.1111484,-966.796875,-288.57421875,178.7109375,-825.68359375,0.0
1734406662.1150527,-1000.0,-449.21875,-419.43359375,-1000.0,0.0
1734406662.118957,-991.2109375,-987.3046875,-908.69140625,-988.28125,0.0
1734406662.1228614,-1000.0,-1000.0,-814.453125,-1000.0,0.0
1734406662.1267657,-1000.0,-739.74609375,-579.58984375,-1000.0,0.0
1734406662.1306703,-1000.0,-692.3828125,-707.51953125,-1000.0,0.0
1734406662.1345747,-1000.0,-952.63671875,-954.58984375,-1000.0,0.0
1734406662.138479,-1000.0,-1000.0,-998.53515625,-1000.0,0.0
1734406662.1423833,-1000.0,-993.1640625,-996.09375,-1000.0,0.0
1734406662.14629,-1000.0,-1000.0,-987.3046875,-1000.0,0.0
1734406662.1501946,-1000.0,-1000.0,-986.328125,-1000.0,0.0
1734406662.154099,-1000.0,-1000.0,-1000.0,-1000.0,0.0
1734406662.1580033,-1000.0,-1000.0,-1000.0,-1000.0,0.0
1734406662.1619077,-1000.0,-1000.0,-1000.0,-1000.0,0.0
1734406662.165812,-1000.0,-1000.0,-1000.0,-1000.0,0.0
1734406662.1697166,-1000.0,-1000.0,-1000.0,-1000.0,0.0
1734406662.173621,-1000.0,-1000.0,-1000.0,-1000.0,0.0
1734406662.1775253,-1000.0,-1000.0,-1000.0,-1000.0,0.0
1734406662.1814296,-1000.0,-1000.0,-1000.0,-1000.0,0.0
1734406662.185334,-1000.0,-1000.0,-1000.0,-1000.0,0.0
1734406662.1892385,-1000.0,-1000.0,-1000.0,-1000.0,0.0
1734406662.1932247,-1000.0,-1000.0,-1000.0,-1000.0,0.0
1734406662.1971292,-1000.0,-1000.0,-1000.0,-1000.0,0.0
1734406662.2010336,-1000.0,-1000.0,-1000.0,-1000.0,0.0
1734406662.204938,-1000.0,-1000.0,-1000.0,-1000.0,0.0
1734406662.2088423,-1000.0,-1000.0,-1000.0,-1000.0,0.0
1734406662.2127466,-1000.0,-1000.0,-1000.0,-1000.0,0.0
1734406662.2166512,-1000.0,-1000.0,-1000.0,-1000.0,0.0
1734406662.2205555,-1000.0,-1000.0,-1000.0,-1000.0,0.0
1734406662.22446,-1000.0,-1000.0,-1000.0,-1000.0,0.0
1734406662.2283642,-1000.0,-1000.0,-1000.0,-1000.0,0.0
1734406662.2322686,-1000.0,-1000.0,-1000.0,-1000.0,0.0
1734406662.2361732,-1000.0,-1000.0,-1000.0,-1000.0,0.0
1734406662.2401729,-1000.0,-1000.0,-1000.0,-1000.0,0.0
1734406662.2440772,-1000.0,-1000.0,-1000.0,-1000.0,0.0
1734406662.2479818,-1000.0,-1000.0,-1000.0,-1000.0,0.0
1734406662.2518861,-1000.0,-1000.0,-1000.0,-1000.0,0.0
1734406662.2557905,-1000.0,-1000.0,-1000.0,-1000.0,0.0
1734406662.2596948,-1000.0,-1000.0,-1000.0,-1000.0,0.0
1734406662.2635994,-1000.0,-1000.0,-1000.0,-1000.0,0.0
1734406662.2675037,-1000.0,-1000.0,-1000.0,-1000.0,0.0
1734406662.271408,-1000.0,-1000.0,-1000.0,-1000.0,0.0
1734406662.2753124,-1000.0,-1000.0,-1000.0,-1000.0,0.0
1734406662.2792168,-1000.0,-1000.0,-999.51171875,-1000.0,0.0
1734406662.2831213,-1000.0,-1000.0,-1000.0,-1000.0,0.0
1734406662.2870882,-1000.0,-1000.0,-993.65234375,-1000.0,0.0
1734406662.2909925,-994.140625,-1000.0,-985.83984375,-1000.0,0.0
1734406662.2948968,-1000.0,-1000.0,-996.58203125,-1000.0,0.0
1734406662.2988012,-946.77734375,-994.140625,-1000.0,-990.72265625,0.0
1734406662.3027055,-663.0859375,-1000.0,-994.140625,-1000.0,0.0
1734406662.30661,-168.9453125,-975.5859375,-872.55859375,-969.23828125,0.0
1734406662.3105145,280.2734375,-670.41015625,-762.6953125,-546.875,0.0
1734406662.3144188,504.39453125,-599.12109375,-860.83984375,-113.76953125,0.0
1734406662.3183231,589.84375,-898.4375,-942.3828125,-196.77734375,0.0
1734406662.3222277,809.08203125,-884.27734375,-838.37890625,109.375,0.0
1734406662.326132,983.3984375,-249.0234375,-236.81640625,834.9609375,0.0
1734406662.3300364,962.890625,11.23046875,7.8125,989.74609375,0.0
1734406662.3339555,967.28515625,-438.96484375,-334.9609375,948.2421875,0.0
1734406662.33786,970.21484375,-339.35546875,-426.7578125,972.65625,0.0
1734406662.3417645,969.23828125,110.3515625,-173.33984375,970.21484375,0.0
1734406662.3456688,968.75,199.21875,242.1875,969.7265625,0.0
1734406662.3495731,968.75,-4.39453125,312.01171875,969.7265625,0.0
1734406662.3534777,969.23828125,202.1484375,279.296875,969.7265625,0.0
1734406662.357382,969.23828125,34.1796875,-34.66796875,969.7265625,0.0
1734406662.3612864,969.23828125,-383.7890625,-298.828125,969.7265625,0.0
1734406662.3651907,969.23828125,-14.6484375,193.359375,969.7265625,0.0
1734406662.369095,969.23828125,796.875,521.484375,969.7265625,0.0
1734406662.3729997,968.75,823.73046875,333.49609375,969.7265625,0.0
1734406662.376904,969.23828125,225.09765625,-55.17578125,969.7265625,0.0
1734406662.3808181,969.23828125,58.10546875,-291.50390625,969.7265625,0.0
1734406662.3847225,968.75,499.51171875,131.8359375,969.7265625,0.0
1734406662.3886268,969.23828125,822.75390625,358.88671875,970.21484375,0.0
1734406662.3925312,969.23828125,652.83203125,70.80078125,969.7265625,0.0
1734406662.3964357,969.23828125,492.1875,-310.05859375,969.7265625,0.0
1734406662.40034,970.21484375,525.87890625,-558.10546875,969.7265625,0.0
1734406662.4042444,965.8203125,797.36328125,-179.6875,969.7265625,0.0
1734406662.4081488,963.37890625,561.03515625,-123.046875,969.7265625,0.0
1734406662.412053,971.19140625,-86.42578125,-482.421875,969.7265625,0.0
1734406662.4159577,752.44140625,538.57421875,-478.515625,969.7265625,0.0
1734406662.419862,461.9140625,824.70703125,-718.75,969.7265625,0.0
1734406662.4237664,478.02734375,658.69140625,-526.85546875,970.21484375,0.0
1734406662.4276772,654.78515625,922.36328125,60.546875,969.7265625,0.0
1734406662.4315815,738.28125,-958.984375,178.22265625,969.7265625,0.0
1734406662.4354858,615.234375,768.06640625,-335.9375,969.7265625,0.0
1734406662.4393902,471.19140625,473.6328125,-722.65625,969.7265625,0.0
1734406662.4432948,562.5,764.6484375,-323.2421875,969.7265625,0.0
1734406662.447199,784.1796875,-956.54296875,198.2421875,969.7265625,0.0
1734406662.4511034,868.1640625,699.21875,-2.44140625,969.7265625,0.0
1734406662.4550078,719.7265625,-118.1640625,-511.23046875,969.7265625,0.0
1734406662.4589124,533.69140625,145.01953125,-473.14453125,969.7265625,0.0
1734406662.4628167,558.10546875,719.23828125,-170.41015625,969.7265625,0.0
1734406662.466721,715.8203125,678.7109375,216.796875,969.7265625,0.0
1734406662.4706254,776.3671875,718.26171875,273.92578125,969.7265625,0.0
1734406662.4745512,589.35546875,636.23046875,-101.07421875,969.7265625,0.0
1734406662.4784555,269.53125,-43.45703125,-597.65625,969.7265625,0.0
1734406662.48236,94.23828125,-352.05078125,-565.91796875,970.703125,0.0
1734406662.4862642,146.484375,115.234375,-44.921875,967.28515625,0.0
1734406662.4901688,146.97265625,186.5234375,-73.2421875,954.1015625,0.0
1734406662.4940732,-64.94140625,-428.22265625,-613.28125,997.55859375,0.0
1734406662.4979775,-410.64453125,-959.47265625,-848.6328125,694.82421875,0.0
1734406662.5018818,-641.11328125,-911.1328125,-800.29296875,204.58984375,0.0
1734406662.5057862,-572.265625,-404.78515625,-418.9453125,292.48046875,0.0
1734406662.5096908,-472.16796875,-401.3671875,-413.0859375,550.78125,0.0
1734406662.513595,-577.63671875,-801.7578125,-720.21484375,391.6015625,0.0
1734406662.5174994,-848.6328125,-924.8046875,-831.0546875,-247.0703125,0.0
1734406662.521472,-984.375,-887.6953125,-830.56640625,-748.046875,0.0
1734406662.5253763,-831.0546875,-845.21484375,-627.9296875,-592.7734375,0.0
1734406662.5292807,-669.43359375,-779.296875,-517.08984375,-267.578125,0.0
1734406662.533185,-685.05859375,-630.859375,-614.74609375,-340.33203125,0.0
1734406662.5370896,-870.60546875,-852.05078125,-812.5,-791.015625,0.0
1734406662.540994,-965.8203125,-1000.0,-967.7734375,-1000.0,0.0
1734406662.5448983,-810.05859375,-880.859375,-679.19921875,-1000.0,0.0
1734406662.5488026,-572.75390625,-508.30078125,-354.4921875,-833.49609375,0.0
1734406662.5527072,-427.734375,-493.1640625,-524.4140625,-709.9609375,0.0
1734406662.5566115,-446.77734375,-826.171875,-805.6640625,-902.34375,0.0
1734406662.5605159,-421.875,-1000.0,-920.41015625,-1000.0,0.0
1734406662.5644202,-73.2421875,-666.015625,-425.78125,-922.8515625,0.0
1734406662.5683582,439.453125,-46.38671875,109.86328125,-392.578125,0.0
1734406662.5722625,783.203125,-313.96484375,-37.109375,145.5078125,0.0
1734406662.5761669,935.05859375,-636.23046875,-345.703125,133.7890625,0.0
1734406662.5800712,968.75,-363.76953125,-240.234375,27.34375,0.0
1734406662.5839758,966.30859375,-38.57421875,220.21484375,560.546875,0.0
1734406662.5878801,969.7265625,-58.10546875,482.421875,998.53515625,0.0
1734406662.5917845,969.23828125,143.5546875,539.0625,957.03125,0.0
1734406662.5956888,969.23828125,468.75,524.4140625,962.40234375,0.0
1734406662.5995934,969.23828125,288.0859375,467.28515625,972.16796875,0.0
1734406662.6034977,969.23828125,312.01171875,607.421875,969.7265625,0.0
1734406662.607402,969.23828125,796.875,801.7578125,969.7265625,0.0
1734406662.6113064,969.23828125,-940.4296875,812.5,969.7265625,0.0
1734406662.6152918,968.75,613.76953125,673.828125,969.7265625,0.0
1734406662.6191962,969.23828125,-92.7734375,548.33984375,969.7265625,0.0
1734406662.6231005,969.23828125,252.44140625,653.80859375,969.7265625,0.0
1734406662.6270049,969.23828125,847.16796875,806.640625,969.7265625,0.0
1734406662.6309094,968.75,500.48828125,707.03125,969.7265625,0.0
1734406662.6348138,969.23828125,-296.38671875,539.0625,969.7265625,0.0
1734406662.6387181,969.23828125,-397.94921875,476.07421875,969.7265625,0.0
1734406662.6426225,968.75,40.0390625,555.17578125,969.7265625,0.0
1734406662.646527,968.75,-280.2734375,574.70703125,969.7265625,0.0
1734406662.6504314,968.75,-648.92578125,562.01171875,969.7265625,0.0
1734406662.6543357,968.75,-280.2734375,491.69921875,969.7265625,0.0
1734406662.6582403,969.23828125,-544.921875,271.484375,969.7265625,0.0
1734406662.662206,970.21484375,-919.43359375,55.6640625,970.21484375,0.0
1734406662.6661103,965.8203125,-973.14453125,196.77734375,969.7265625,0.0
1734406662.6700146,960.44921875,-637.20703125,410.64453125,948.2421875,0.0
1734406662.673919,980.95703125,-695.3125,136.23046875,-992.1875,0.0
1734406662.6778235,745.1171875,-1000.0,-359.86328125,713.8671875,0.0
1734406662.681728,398.4375,-1000.0,-546.875,130.37109375,0.0
1734406662.6856322,313.96484375,-962.40234375,-172.8515625,65.4296875,0.0
1734406662.6895368,211.42578125,-923.828125,-47.8515625,169.43359375,0.0
1734406662.6934412,-109.375,-996.09375,-489.74609375,-104.00390625,0.0
1734406662.6973455,-566.89453125,-1000.0,-756.34765625,-726.5625,0.0
1734406662.7012498,-877.44140625,-996.58203125,-807.12890625,-1000.0,0.0
1734406662.7051544,-894.53125,-1000.0,-666.9921875,-982.91015625,0.0
1734406662.709087,-830.078125,-1000.0,-544.921875,-998.53515625,0.0
1734406662.7129915,-862.79296875,-1000.0,-628.90625,-1000.0,0.0
1734406662.7168958,-958.49609375,-1000.0,-769.53125,-991.69921875,0.0
1734406662.7208002,-901.85546875,-1000.0,-898.4375,-998.046875,0.0
1734406662.7247045,-577.63671875,-989.2578125,-640.13671875,-982.421875,0.0
1734406662.728609,-196.2890625,-986.81640625,-230.95703125,-596.19140625,0.0
1734406662.7325134,125.9765625,-970.21484375,-227.5390625,-34.66796875,0.0
1734406662.7364178,340.8203125,-1000.0,-453.61328125,186.5234375,0.0
1734406662.740322,609.86328125,-870.1171875,-333.49609375,314.453125,0.0
1734406662.7442267,923.33984375,-342.7734375,308.10546875,760.7421875,0.0
1734406662.748131,975.09765625,210.9375,579.58984375,993.1640625,0.0
1734406662.7520354,959.9609375,-303.7109375,371.58203125,955.56640625,0.0
1734406662.7559636,970.703125,-985.83984375,211.9140625,968.75,0.0
1734406662.759868,968.75,-562.5,349.12109375,970.21484375,0.0
1734406662.7637722,968.75,-112.79296875,528.80859375,969.7265625,0.0
1734406662.7676766,969.23828125,213.37890625,748.53515625,969.7265625,0.0
1734406662.7715812,968.75,591.30859375,781.73828125,969.7265625,0.0
1734406662.7754855,968.75,521.97265625,669.921875,969.7265625,0.0
1734406662.7793899,969.23828125,210.9375,626.46484375,969.7265625,0.0
1734406662.7832942,969.23828125,325.1953125,726.5625,969.7265625,0.0
1734406662.7871988,969.23828125,825.1953125,840.33203125,969.7265625,0.0
1734406662.7911031,969.23828125,-997.0703125,853.515625,969.7265625,0.0
1734406662.7950075,969.23828125,979.4921875,837.890625,969.7265625,0.0
1734406662.7989118,969.23828125,246.58203125,798.33984375,969.7265625,0.0
1734406662.8028219,969.23828125,285.64453125,831.54296875,969.7265625,0.0
1734406662.8067265,968.75,-954.1015625,873.046875,969.7265625,0.0
1734406662.8106308,969.23828125,945.3125,861.81640625,969.7265625,0.0
1734406662.8145351,969.23828125,943.84765625,858.88671875,969.7265625,0.0
1734406662.8184395,969.23828125,973.6328125,852.5390625,969.7265625,0.0
1734406662.822344,968.75,974.609375,853.02734375,969.7265625,0.0
1734406662.8262484,969.23828125,914.55078125,858.3984375,969.7265625,0.0
1734406662.8301528,969.23828125,927.24609375,865.72265625,969.7265625,0.0
1734406662.8340573,968.75,953.125,860.3515625,969.7265625,0.0
1734406662.8379617,968.75,-961.9140625,846.19140625,969.7265625,0.0
1734406662.841866,968.75,628.41796875,830.56640625,969.7265625,0.0
1734406662.8457704,969.23828125,486.81640625,849.12109375,969.7265625,0.0
1734406662.8496783,969.23828125,-972.65625,862.79296875,969.7265625,0.0
1734406662.8535829,969.23828125,817.3828125,833.984375,969.7265625,0.0
1734406662.8574872,969.23828125,102.05078125,768.5546875,969.7265625,0.0
1734406662.8613915,969.23828125,131.8359375,772.4609375,969.7265625,0.0
1734406662.865296,970.21484375,685.05859375,831.54296875,969.7265625,0.0
1734406662.8692005,964.84375,544.43359375,820.80078125,969.7265625,0.0
1734406662.8731048,966.796875,-375.48828125,631.8359375,969.7265625,0.0
1734406662.8770092,961.9140625,-651.85546875,547.8515625,969.7265625,0.0
1734406662.8809137,762.6953125,-162.109375,561.03515625,970.21484375,0.0
1734406662.884818,513.18359375,-244.140625,588.8671875,971.19140625,0.0
1734406662.8887224,308.10546875,-415.52734375,604.00390625,939.453125,0.0
1734406662.8926268,-90.33203125,-405.76171875,481.4453125,-987.79296875,0.0
1734406662.8965333,-675.78125,-744.140625,270.99609375,642.08984375,0.0
1734406662.9004376,-1000.0,-1000.0,-155.2734375,-272.4609375,0.0
1734406662.9043422,-990.72265625,-983.88671875,-158.69140625,-779.296875,0.0
1734406662.9082465,-995.1171875,-979.98046875,187.98828125,-939.453125,0.0
1734406662.9121509,-1000.0,-1000.0,-176.7578125,-996.09375,0.0
1734406662.9160552,-1000.0,-1000.0,-773.92578125,-999.0234375,0.0
1734406662.9199598,-1000.0,-1000.0,-954.1015625,-1000.0,0.0
1734406662.9238641,-1000.0,-1000.0,-790.0390625,-1000.0,0.0
1734406662.9277685,-1000.0,-1000.0,-678.22265625,-1000.0,0.0
1734406662.931673,-1000.0,-1000.0,-840.8203125,-1000.0,0.0
1734406662.9355774,-1000.0,-1000.0,-967.28515625,-1000.0,0.0
1734406662.9394817,-1000.0,-1000.0,-981.93359375,-1000.0,0.0
1734406662.9434025,-1000.0,-1000.0,-980.95703125,-1000.0,0.0
1734406662.9473069,-1000.0,-1000.0,-967.7734375,-1000.0,0.0
1734406662.9512115,-1000.0,-1000.0,-981.4453125,-1000.0,0.0
1734406662.9551158,-1000.0,-1000.0,-1000.0,-1000.0,0.0
1734406662.9590201,-1000.0,-1000.0,-1000.0,-1000.0,0.0
1734406662.9629245,-1000.0,-1000.0,-1000.0,-1000.0,0.0
1734406662.966829,-1000.0,-1000.0,-1000.0,-1000.0,0.0
1734406662.9707334,-1000.0,-1000.0,-1000.0,-1000.0,0.0
1734406662.9746377,-1000.0,-1000.0,-1000.0,-1000.0,0.0
1734406662.978542,-1000.0,-1000.0,-1000.0,-1000.0,0.0
1734406662.9824467,-1000.0,-1000.0,-1000.0,-1000.0,0.0
1734406662.986351,-1000.0,-1000.0,-1000.0,-1000.0,0.0
1734406662.99027,-1000.0,-1000.0,-1000.0,-1000.0,0.0
1734406662.9941742,-1000.0,-1000.0,-1000.0,-1000.0,0.0
1734406662.9980788,-1000.0,-1000.0,-1000.0,-1000.0,0.0
1734406663.0019832,-1000.0,-1000.0,-1000.0,-1000.0,0.0
1734406663.0058875,-1000.0,-1000.0,-1000.0,-1000.0,0.0
1734406663.0097919,-1000.0,-1000.0,-1000.0,-1000.0,0.0
1734406663.0136964,-1000.0,-1000.0,-1000.0,-1000.0,0.0
1734406663.0176008,-1000.0,-1000.0,-1000.0,-1000.0,0.0
1734406663.021505,-1000.0,-1000.0,-1000.0,-1000.0,0.0
1734406663.0254095,-1000.0,-1000.0,-1000.0,-1000.0,0.0
1734406663.029314,-1000.0,-1000.0,-1000.0,-1000.0,0.0
1734406663.0332184,-1000.0,-1000.0,-1000.0,-1000.0,0.0
1734406663.0371346,-1000.0,-1000.0,-1000.0,-1000.0,0.0
1734406663.0410392,-1000.0,-1000.0,-1000.0,-1000.0,0.0
1734406663.0449436,-1000.0,-1000.0,-1000.0,-1000.0,0.0
1734406663.048848,-1000.0,-1000.0,-1000.0,-1000.0,0.0
1734406663.0527525,-1000.0,-1000.0,-1000.0,-1000.0,0.0
1734406663.0566568,-1000.0,-1000.0,-1000.0,-1000.0,0.0
1734406663.0605612,-1000.0,-1000.0,-1000.0,-1000.0,0.0
1734406663.0644655,-1000.0,-1000.0,-1000.0,-1000.0,0.0
1734406663.06837,-1000.0,-1000.0,-1000.0,-1000.0,0.0
1734406663.0722744,-1000.0,-1000.0,-1000.0,-1000.0,0.0
1734406663.0761788,-1000.0,-1000.0,-1000.0,-1000.0,0.0
1734406663.0800831,-1000.0,-1000.0,-1000.0,-1000.0,0.0
1734406663.0839982,-1000.0,-1000.0,-1000.0,-1000.0,0.0
1734406663.0879025,-1000.0,-1000.0,-1000.0,-1000.0,0.0
1734406663.0918071,-1000.0,-1000.0,-1000.0,-1000.0,0.0
1734406663.0957115,-999.0234375,-1000.0,-1000.0,-1000.0,0.0
1734406663.0996158,-988.76953125,-1000.0,-999.51171875,-1000.0,0.0
1734406663.1035202,-1000.0,-1000.0,-1000.0,-1000.0,0.0
1734406663.1074247,-800.29296875,-1000.0,-995.60546875,-1000.0,0.0
1734406663.111329,-378.90625,-1000.0,-990.72265625,-1000.0,0.0
1734406663.1152334,-187.98828125,-1000.0,-1000.0,-1000.0,0.0
1734406663.119138,-54.6875,-998.046875,-997.0703125,-993.1640625,0.0
1734406663.1230423,252.9296875,-979.98046875,-977.5390625,-1000.0,0.0
1734406663.1269467,702.63671875,-965.8203125,-888.671875,-970.703125,0.0
