timestamps,TP9,AF7,AF8,TP10,Right AUX
1734406854.8068578,65.4296875,-23.92578125,-267.08984375,1.953125,0.0
1734406854.8107634,137.20703125,246.58203125,143.06640625,183.10546875,0.0
1734406854.814669,145.99609375,81.54296875,96.6796875,252.44140625,0.0
1734406854.8185744,79.1015625,-53.7109375,-201.171875,112.3046875,0.0
1734406854.82248,36.1328125,-352.05078125,-500.0,-39.55078125,0.0
1734406854.8263853,59.08203125,-395.99609375,-368.65234375,1.953125,0.0
1734406854.8302908,124.0234375,-557.12890625,-131.8359375,190.4296875,0.0
1734406854.8341963,156.73828125,-517.08984375,-24.90234375,287.59765625,0.0
1734406854.8381019,103.02734375,-64.453125,-77.63671875,170.8984375,0.0
1734406854.8420074,45.8984375,-365.72265625,-473.14453125,10.25390625,0.0
1734406854.845913,61.03515625,-318.359375,-370.1171875,17.08984375,0.0
1734406854.8498232,141.6015625,189.453125,141.11328125,197.75390625,0.0
1734406854.8537288,174.31640625,265.13671875,232.91015625,302.24609375,0.0
1734406854.8576343,111.81640625,-101.5625,-29.296875,218.75,0.0
1734406854.8615398,49.31640625,-290.0390625,-316.89453125,35.15625,0.0
1734406854.8654454,55.6640625,-142.08984375,-341.796875,5.37109375,0.0
1734406854.869351,132.8125,-40.52734375,43.9453125,190.4296875,0.0
1734406854.8732564,174.31640625,-157.2265625,104.98046875,309.08203125,0.0
1734406854.8771617,124.0234375,-226.5625,-49.31640625,240.72265625,0.0
1734406854.8810673,51.7578125,-137.6953125,-210.44921875,55.17578125,0.0
1734406854.8849728,40.0390625,40.52734375,-332.51953125,-17.578125,0.0
1734406854.8888783,104.00390625,-121.09375,-32.71484375,146.484375,0.0
1734406854.8927839,132.8125,-480.46875,114.2578125,293.9453125,0.0
1734406854.8967,102.05078125,20.01953125,140.625,237.3046875,0.0
1734406854.9006054,36.62109375,129.39453125,-166.015625,45.8984375,0.0
1734406854.904511,7.32421875,-328.61328125,-434.5703125,-35.15625,0.0
1734406854.9084165,83.0078125,-101.07421875,2.44140625,107.421875,0.0
1734406854.912322,139.16015625,192.3828125,268.5546875,250.9765625,0.0
1734406854.9162276,103.515625,-52.24609375,70.80078125,238.28125,0.0
1734406854.920133,25.390625,-641.11328125,-437.01171875,75.1953125,0.0
1734406854.9240386,-1.46484375,-769.53125,-616.2109375,-28.3203125,0.0
1734406854.927944,59.5703125,3.90625,8.30078125,83.49609375,0.0
1734406854.9318495,117.1875,123.046875,226.5625,240.72265625,0.0
1734406854.935755,112.79296875,-148.4375,63.96484375,246.58203125,0.0
1734406854.9396605,38.0859375,-217.7734375,-182.12890625,81.0546875,0.0
1734406854.9435892,-11.71875,-49.8046875,-351.5625,-46.875,0.0
1734406854.9474947,49.8046875,-25.87890625,-75.1953125,53.22265625,0.0
1734406854.9514003,120.60546875,-17.08984375,208.49609375,221.6796875,0.0
1734406854.9553058,111.81640625,244.62890625,229.00390625,250.0,0.0
1734406854.9592113,24.4140625,118.1640625,-64.453125,89.35546875,0.0
1734406854.963117,-12.6953125,-482.421875,-508.30078125,-45.8984375,0.0
1734406854.9670222,25.390625,-549.8046875,-225.09765625,37.59765625,0.0
1734406854.9709277,90.33203125,-36.1328125,225.09765625,208.0078125,0.0
1734406854.9748333,116.2109375,199.70703125,250.0,263.671875,0.0
1734406854.9787388,49.8046875,-169.921875,-154.296875,125.9765625,0.0
1734406854.9826443,6.34765625,-648.92578125,-567.3828125,-17.08984375,0.0
1734406854.9865499,35.64453125,-133.30078125,-98.14453125,35.64453125,0.0
1734406854.9904714,95.21484375,436.5234375,350.09765625,199.70703125,0.0
1734406854.994377,105.46875,33.203125,71.2890625,278.80859375,0.0
1734406854.9982824,41.9921875,-444.82421875,-210.9375,152.34375,0.0
1734406855.002188,-10.25390625,-80.56640625,-229.4921875,-29.78515625,0.0
1734406855.0060933,11.71875,58.10546875,-146.484375,3.90625,0.0
1734406855.0099988,73.73046875,-185.05859375,151.85546875,181.640625,0.0
1734406855.0139043,98.14453125,-228.515625,198.73046875,275.87890625,0.0
1734406855.0178099,50.78125,110.83984375,131.8359375,173.828125,0.0
1734406855.0217154,-9.765625,-30.2734375,-249.0234375,-18.06640625,0.0
1734406855.025621,-4.8828125,-438.4765625,-378.90625,-21.97265625,0.0
1734406855.0295265,64.94140625,-185.05859375,116.2109375,160.64453125,0.0
1734406855.033432,98.6328125,182.12890625,298.828125,270.5078125,0.0
1734406855.0373654,55.6640625,87.890625,64.453125,192.87109375,0.0
1734406855.041271,-2.44140625,-487.3046875,-328.61328125,17.08984375,0.0
1734406855.0451765,-11.71875,-448.73046875,-312.01171875,-27.34375,0.0
1734406855.049082,58.10546875,200.1953125,181.640625,132.32421875,0.0
1734406855.0529876,94.7265625,293.9453125,293.45703125,242.1875,0.0
1734406855.0568929,52.734375,-582.03125,-201.66015625,201.66015625,0.0
1734406855.0607984,-0.9765625,-831.0546875,-455.56640625,46.38671875,0.0
1734406855.064704,3.90625,-42.96875,-238.76953125,-27.83203125,0.0
1734406855.0686095,50.29296875,-48.33984375,80.56640625,112.3046875,0.0
1734406855.072515,67.3828125,-85.9375,252.9296875,225.5859375,0.0
1734406855.0764205,55.6640625,238.76953125,206.54296875,198.73046875,0.0
1734406855.080326,4.8828125,187.5,-36.62109375,40.52734375,0.0
1734406855.08424,-34.1796875,-386.23046875,-442.87109375,-53.22265625,0.0
1734406855.0881455,26.3671875,-614.2578125,-151.3671875,91.30859375,0.0
1734406855.092051,84.9609375,2.9296875,317.3828125,234.86328125,0.0
1734406855.0959566,56.640625,245.60546875,219.7265625,230.46875,0.0
1734406855.099862,3.41796875,-247.0703125,-104.4921875,83.49609375,0.0
1734406855.1037676,-13.671875,-668.45703125,-407.2265625,-21.484375,0.0
1734406855.1076732,39.0625,-270.99609375,-8.7890625,93.26171875,0.0
1734406855.1115785,104.4921875,264.6484375,355.46875,248.046875,0.0
1734406855.115484,104.00390625,-36.62109375,153.3203125,276.3671875,0.0
1734406855.1193895,41.015625,-540.52734375,-160.15625,130.859375,0.0
1734406855.123295,-3.90625,-211.9140625,-257.32421875,-11.23046875,0.0
1734406855.1272006,37.109375,115.234375,54.19921875,81.0546875,0.0
1734406855.1311123,110.3515625,-71.77734375,287.109375,257.8125,0.0
1734406855.1350179,125.0,124.0234375,291.50390625,303.22265625,0.0
1734406855.1389234,60.05859375,358.88671875,149.4140625,151.3671875,0.0
1734406855.142829,9.27734375,-5.37109375,-166.9921875,-4.8828125,0.0
1734406855.1467345,48.828125,-267.578125,-74.21875,73.2421875,0.0
1734406855.15064,120.1171875,-54.6875,301.7578125,239.2578125,0.0
1734406855.1545455,119.140625,85.9375,248.046875,276.85546875,0.0
1734406855.158451,48.33984375,-164.55078125,10.7421875,168.45703125,0.0
1734406855.1623566,-1.46484375,-864.74609375,-509.27734375,30.76171875,0.0
1734406855.1662621,26.3671875,-785.64453125,-270.5078125,66.89453125,0.0
1734406855.1701677,99.12109375,317.3828125,416.015625,223.14453125,0.0
1734406855.1740732,122.0703125,249.51171875,177.734375,307.12890625,0.0
1734406855.1779842,67.87109375,-225.09765625,-16.6015625,206.0546875,0.0
1734406855.1818898,7.32421875,90.33203125,25.87890625,21.97265625,0.0
1734406855.1857953,24.4140625,208.0078125,70.80078125,24.4140625,0.0
1734406855.1897008,86.42578125,107.91015625,276.85546875,192.87109375,0.0
1734406855.1936064,107.421875,284.1796875,317.3828125,290.0390625,0.0
1734406855.197512,67.87109375,180.6640625,187.01171875,213.8671875,0.0
1734406855.2014174,7.32421875,-168.45703125,-88.8671875,41.9921875,0.0
1734406855.205323,15.625,-614.74609375,-382.8125,29.78515625,0.0
1734406855.2092283,91.796875,-610.83984375,-25.87890625,199.21875,0.0
1734406855.2131338,120.1171875,85.9375,354.00390625,286.1328125,0.0
1734406855.2170393,63.4765625,57.6171875,182.6171875,218.75,0.0
1734406855.220945,-0.9765625,-177.734375,-84.47265625,58.10546875,0.0
1734406855.2248552,-1.46484375,-20.99609375,-47.8515625,-9.765625,0.0
1734406855.2287607,75.68359375,418.45703125,343.26171875,143.06640625,0.0
1734406855.2326663,131.34765625,450.1953125,369.62890625,288.0859375,0.0
1734406855.2365718,97.16796875,219.7265625,255.37109375,252.44140625,0.0
1734406855.240477,31.73828125,119.140625,54.19921875,90.8203125,0.0
1734406855.2443826,14.6484375,-152.34375,-130.37109375,12.6953125,0.0
1734406855.2482882,75.68359375,-141.11328125,202.63671875,154.296875,0.0
1734406855.2521937,118.1640625,-315.4296875,310.546875,299.8046875,0.0
1734406855.2560992,84.47265625,-27.83203125,263.18359375,269.53125,0.0
1734406855.2600048,8.30078125,356.93359375,177.734375,90.33203125,0.0
1734406855.2639103,-6.34765625,-72.265625,-21.484375,5.37109375,0.0
1734406855.2678158,60.05859375,-144.53125,173.828125,135.25390625,0.0
1734406855.2717254,114.74609375,266.11328125,390.13671875,274.4140625,0.0
1734406855.275631,94.7265625,487.79296875,357.91015625,278.80859375,0.0
1734406855.2795365,24.90234375,-37.59765625,53.22265625,123.53515625,0.0
1734406855.283442,1.953125,-229.4921875,-61.03515625,11.71875,0.0
1734406855.2873476,42.48046875,189.453125,220.703125,102.05078125,0.0
1734406855.2912529,84.9609375,261.71875,385.7421875,250.0,0.0
1734406855.2951584,76.171875,-328.125,112.3046875,285.15625,0.0
1734406855.299064,1.953125,-619.140625,-139.16015625,137.6953125,0.0
1734406855.3029695,-31.73828125,-41.015625,29.296875,-2.44140625,0.0
1734406855.306875,22.94921875,-116.69921875,140.625,80.56640625,0.0
1734406855.3107805,73.2421875,-65.91796875,311.5234375,234.86328125,0.0
1734406855.314686,68.84765625,304.6875,330.56640625,276.3671875,0.0
1734406855.3185947,-0.48828125,304.6875,135.7421875,125.9765625,0.0
1734406855.3225002,-55.6640625,-20.01953125,-111.328125,-24.4140625,0.0
1734406855.3264058,-31.25,-273.92578125,-44.43359375,18.5546875,0.0
1734406855.3303113,30.2734375,-36.1328125,289.0625,165.0390625,0.0
1734406855.3342168,39.0625,310.546875,324.21875,225.5859375,0.0
1734406855.3381221,-29.78515625,-83.49609375,-5.859375,110.3515625,0.0
1734406855.3420277,-74.70703125,-781.25,-407.2265625,-41.50390625,0.0
1734406855.3459332,-45.8984375,-373.53515625,-76.171875,-39.0625,0.0
1734406855.3498387,12.6953125,364.74609375,346.6796875,116.2109375,0.0
1734406855.3537443,34.1796875,243.1640625,229.4921875,212.890625,0.0
1734406855.3576498,-33.69140625,-82.51953125,56.640625,107.421875,0.0
1734406855.3615553,-95.21484375,-159.66796875,-187.01171875,-67.3828125,0.0
1734406855.365463,-73.2421875,-9.27734375,-117.67578125,-75.1953125,0.0
1734406855.3693686,0.9765625,37.109375,219.7265625,88.37890625,0.0
1734406855.373274,28.3203125,148.92578125,258.7890625,185.546875,0.0
1734406855.3771796,-20.5078125,274.90234375,195.3125,108.88671875,0.0
1734406855.3810852,-75.68359375,29.78515625,-105.95703125,-51.7578125,0.0
1734406855.3849907,-70.3125,-405.2734375,-344.23828125,-84.47265625,0.0
1734406855.3888962,3.41796875,-402.83203125,79.1015625,77.1484375,0.0
1734406855.3928018,41.9921875,21.97265625,322.265625,195.3125,0.0
1734406855.396707,4.8828125,153.3203125,131.8359375,135.7421875,0.0
1734406855.4006126,-59.08203125,-493.65234375,-286.1328125,-23.4375,0.0
1734406855.4045181,-70.3125,-586.42578125,-304.19921875,-88.37890625,0.0
1734406855.4084237,6.8359375,180.17578125,229.00390625,48.33984375,0.0
1734406855.4123502,52.734375,317.87109375,329.58984375,193.84765625,0.0
1734406855.4162557,24.4140625,85.44921875,175.29296875,176.7578125,0.0
1734406855.4201612,-27.83203125,4.8828125,60.546875,17.578125,0.0
1734406855.4240668,-37.109375,22.94921875,-6.8359375,-68.84765625,0.0
1734406855.4279723,27.34375,33.69140625,224.12109375,65.4296875,0.0
1734406855.4318779,83.49609375,-119.62890625,319.3359375,223.14453125,0.0
1734406855.4357834,76.66015625,9.765625,248.046875,224.12109375,0.0
1734406855.439689,21.484375,187.98828125,155.2734375,56.640625,0.0
1734406855.4435945,-2.44140625,-210.9375,-106.93359375,-44.43359375,0.0
1734406855.4475,43.9453125,-467.7734375,3.90625,75.68359375,0.0
1734406855.4514055,97.16796875,72.265625,364.74609375,228.02734375,0.0
1734406855.4553108,81.54296875,499.0234375,392.578125,243.65234375,0.0
1734406855.4592237,13.671875,-130.37109375,-66.40625,99.12109375,0.0
1734406855.4631293,-15.13671875,-640.13671875,-313.4765625,-18.5546875,0.0
1734406855.4670348,28.3203125,50.29296875,219.7265625,48.33984375,0.0
1734406855.4709404,73.73046875,487.3046875,426.7578125,195.80078125,0.0
1734406855.474846,69.82421875,144.53125,272.94921875,244.62890625,0.0
1734406855.4787514,18.06640625,-406.25,-4.39453125,111.328125,0.0
1734406855.482657,-30.76171875,-371.58203125,-135.7421875,-33.203125,0.0
1734406855.4865625,0.0,56.15234375,144.53125,23.92578125,0.0
1734406855.490468,76.171875,-89.35546875,291.015625,190.4296875,0.0
1734406855.4943733,80.078125,-320.3125,219.23828125,255.37109375,0.0
1734406855.4982789,12.6953125,-3.41796875,173.33984375,124.51171875,0.0
1734406855.5021844,-17.08984375,11.71875,-11.23046875,-27.34375,0.0
1734406855.5061162,6.8359375,-338.37890625,23.92578125,7.8125,0.0
1734406855.5100217,61.5234375,-80.078125,314.453125,170.41015625,0.0
1734406855.5139272,77.1484375,488.28125,420.41015625,243.65234375,0.0
1734406855.5178328,15.13671875,272.94921875,178.22265625,129.8828125,0.0
1734406855.521738,-35.64453125,-535.15625,-220.21484375,1.953125,0.0
1734406855.5256436,-16.11328125,-609.375,-24.90234375,11.71875,0.0
1734406855.5295491,41.015625,50.29296875,368.1640625,141.6015625,0.0
1734406855.5334547,78.125,213.37890625,314.453125,246.58203125,0.0
1734406855.5373602,37.109375,-409.1796875,60.05859375,178.7109375,0.0
1734406855.5412657,-15.625,-241.69921875,49.31640625,11.23046875,0.0
1734406855.5451713,11.71875,247.55859375,181.15234375,-2.9296875,0.0
1734406855.5490768,77.1484375,190.91796875,313.4765625,165.0390625,0.0
1734406855.552989,107.421875,302.734375,373.046875,264.16015625,0.0
1734406855.5568945,76.171875,475.5859375,322.265625,204.58984375,0.0
1734406855.5608,25.87890625,244.62890625,167.48046875,64.94140625,0.0
1734406855.5647056,33.69140625,-153.3203125,97.65625,34.66796875,0.0
1734406855.5686111,112.79296875,-26.3671875,327.1484375,188.96484375,0.0
1734406855.5725167,161.62109375,263.18359375,446.2890625,320.3125,0.0
1734406855.576422,123.53515625,114.2578125,299.31640625,285.15625,0.0
1734406855.5803275,67.3828125,-223.6328125,100.5859375,122.0703125,0.0
1734406855.584233,78.125,-110.3515625,139.6484375,54.19921875,0.0
1734406855.5881386,162.109375,264.16015625,426.26953125,217.28515625,0.0
1734406855.592044,203.61328125,325.1953125,469.23828125,364.2578125,0.0
1734406855.5959496,174.31640625,229.98046875,406.25,349.609375,0.0
1734406855.5998597,119.140625,177.734375,295.8984375,209.9609375,0.0
1734406855.6037652,108.3984375,301.7578125,256.34765625,118.65234375,0.0
1734406855.6076708,174.8046875,410.15625,438.4765625,241.69921875,0.0
1734406855.6115763,244.62890625,414.55078125,513.671875,411.1328125,0.0
1734406855.6154819,237.79296875,525.390625,482.421875,419.921875,0.0
1734406855.6193871,175.78125,234.375,340.8203125,270.01953125,0.0
1734406855.6232927,158.69140625,-40.52734375,253.90625,174.8046875,0.0
1734406855.6271982,229.4921875,-561.5234375,291.9921875,299.8046875,0.0
1734406855.6311038,282.71484375,-334.9609375,481.93359375,455.078125,0.0
1734406855.6350093,275.390625,812.01171875,617.1875,470.703125,0.0
1734406855.6389148,223.14453125,474.12109375,375.0,359.375,0.0
1734406855.6428204,194.82421875,64.453125,290.0390625,260.25390625,0.0
1734406855.6467364,263.671875,639.16015625,541.9921875,336.42578125,0.0
1734406855.650642,343.26171875,-962.40234375,699.21875,511.23046875,0.0
1734406855.6545475,363.76953125,586.9140625,544.43359375,597.16796875,0.0
1734406855.658453,307.12890625,343.26171875,464.35546875,485.3515625,0.0
1734406855.6623585,266.11328125,601.5625,498.046875,349.12109375,0.0
1734406855.666264,333.49609375,637.20703125,566.89453125,423.33984375,0.0
1734406855.6701696,407.71484375,353.02734375,638.671875,604.4921875,0.0
1734406855.6740751,412.59765625,339.35546875,652.34375,688.4765625,0.0
1734406855.6779807,355.95703125,952.1484375,641.6015625,584.9609375,0.0
1734406855.6818862,330.078125,596.19140625,523.92578125,460.44921875,0.0
1734406855.6857917,383.30078125,437.5,601.5625,521.97265625,0.0
1734406855.689697,469.7265625,872.0703125,784.66796875,707.03125,0.0
1734406855.6936057,510.25390625,-987.79296875,813.96484375,816.89453125,0.0
1734406855.6975112,473.6328125,896.484375,724.609375,765.13671875,0.0
1734406855.7014167,428.22265625,735.3515625,608.3984375,630.859375,0.0
1734406855.7053223,450.68359375,875.48828125,696.2890625,639.16015625,0.0
1734406855.7092276,508.7890625,-986.81640625,824.21875,786.1328125,0.0
1734406855.713133,524.90234375,897.4609375,796.875,872.55859375,0.0
1734406855.7170386,447.75390625,759.765625,717.28515625,791.015625,0.0
1734406855.7209442,363.28125,877.9296875,645.99609375,610.3515625,0.0
1734406855.7248497,376.46484375,997.55859375,691.89453125,566.89453125,0.0
1734406855.7287552,430.6640625,838.8671875,781.25,708.49609375,0.0
1734406855.7326608,441.40625,692.87109375,758.7890625,807.12890625,0.0
1734406855.7365663,384.765625,924.31640625,750.0,735.83984375,0.0
1734406855.740501,309.08203125,999.0234375,646.484375,556.640625,0.0
1734406855.7444065,293.45703125,427.734375,513.671875,488.28125,0.0
1734406855.748312,345.21484375,293.45703125,665.52734375,634.27734375,0.0
1734406855.7522175,358.3984375,961.9140625,806.640625,727.05078125,0.0
1734406855.756123,298.828125,-975.09765625,721.19140625,659.1796875,0.0
1734406855.7600286,208.49609375,262.6953125,484.86328125,489.74609375,0.0
1734406855.7639341,165.52734375,-1.46484375,457.51953125,384.27734375,0.0
1734406855.7678397,213.8671875,805.17578125,709.9609375,468.75,0.0
1734406855.771745,237.79296875,978.02734375,733.3984375,575.1953125,0.0
1734406855.7756505,185.05859375,528.3203125,624.0234375,550.29296875,0.0
1734406855.779556,99.609375,265.13671875,502.9296875,378.90625,0.0
1734406855.7834616,64.94140625,390.625,483.3984375,251.46484375,0.0
1734406855.787389,103.02734375,626.46484375,594.23828125,337.890625,0.0
1734406855.7912946,147.94921875,597.65625,619.140625,472.16796875,0.0
1734406855.7951999,140.13671875,671.875,621.09375,470.703125,0.0
1734406855.7991054,68.84765625,722.65625,534.1796875,323.73046875,0.0
1734406855.803011,33.69140625,321.2890625,420.8984375,209.9609375,0.0
1734406855.8069165,78.61328125,72.265625,495.60546875,302.24609375,0.0
1734406855.810822,128.41796875,321.77734375,630.37109375,453.125,0.0
1734406855.8147275,112.79296875,688.96484375,647.4609375,465.33203125,0.0
1734406855.818633,46.875,431.640625,471.6796875,332.03125,0.0
1734406855.8225386,6.34765625,-25.390625,371.09375,201.171875,0.0
1734406855.8264441,48.828125,444.3359375,545.41015625,253.41796875,0.0
1734406855.8303497,113.28125,911.1328125,680.17578125,394.04296875,0.0
1734406855.8342693,93.26171875,556.15234375,513.671875,422.8515625,0.0
1734406855.8381748,-1.46484375,143.5546875,377.44140625,281.73828125,0.0
1734406855.8420804,-54.19921875,247.0703125,364.74609375,123.53515625,0.0
1734406855.845986,-30.2734375,404.78515625,449.70703125,140.625,0.0
1734406855.8498914,4.8828125,93.75,469.23828125,265.13671875,0.0
1734406855.853797,-8.30078125,-307.12890625,384.27734375,308.10546875,0.0
1734406855.8577025,-93.75,-18.06640625,355.46875,163.0859375,0.0
1734406855.861608,-156.73828125,107.91015625,231.93359375,-18.06640625,0.0
1734406855.8655136,-154.78515625,-525.390625,90.33203125,-26.3671875,0.0
1734406855.869419,-124.51171875,-790.0390625,238.76953125,100.09765625,0.0
1734406855.8733246,-124.51171875,102.5390625,444.3359375,140.625,0.0
1734406855.8772302,-207.51953125,180.6640625,221.6796875,1.46484375,0.0
1734406855.8811429,-294.921875,-500.9765625,-160.15625,-195.3125,0.0
1734406855.8850484,-305.17578125,-404.296875,-64.94140625,-249.0234375,0.0
1734406855.888954,-255.37109375,130.859375,303.7109375,-139.6484375,0.0
1734406855.8928595,-249.0234375,100.09765625,270.01953125,-74.70703125,0.0
1734406855.896765,-318.359375,-633.7890625,-282.71484375,-158.69140625,0.0
1734406855.9006705,-407.2265625,-1000.0,-652.34375,-347.16796875,0.0
1734406855.904576,-419.921875,-704.1015625,-439.453125,-436.03515625,0.0
1734406855.9084816,-350.5859375,-419.921875,-100.5859375,-320.3125,0.0
1734406855.9123871,-333.49609375,-676.26953125,-128.41796875,-224.609375,0.0
1734406855.9162927,-395.5078125,-474.12109375,-331.54296875,-306.640625,0.0
1734406855.9201982,-470.703125,-387.20703125,-493.65234375,-508.30078125,0.0
1734406855.9241037,-474.12109375,-844.7265625,-751.953125,-586.42578125,0.0
1734406855.9280214,-425.78125,-830.56640625,-562.98828125,-479.00390625,0.0
1734406855.931927,-394.53125,-304.19921875,-225.5859375,-378.90625,0.0
1734406855.9358325,-412.59765625,-270.99609375,-427.734375,-399.4140625,0.0
1734406855.939738,-491.2109375,-745.1171875,-704.58984375,-569.82421875,0.0
1734406855.9436436,-513.671875,-935.05859375,-818.359375,-687.98828125,0.0
1734406855.947549,-454.1015625,-825.68359375,-613.76953125,-592.28515625,0.0
1734406855.9514546,-418.9453125,-716.30859375,-418.45703125,-472.16796875,0.0
1734406855.9553602,-458.984375,-812.01171875,-697.265625,-488.76953125,0.0
1734406855.9592657,-537.59765625,-1000.0,-929.19921875,-651.3671875,0.0
1734406855.9631712,-561.5234375,-993.1640625,-887.6953125,-791.50390625,0.0
1734406855.9670768,-498.046875,-908.203125,-714.35546875,-707.51953125,0.0
1734406855.9709823,-437.5,-688.96484375,-518.06640625,-557.6171875,0.0
1734406855.9748993,-456.0546875,-500.9765625,-628.41796875,-556.15234375,0.0
1734406855.9788048,-534.66796875,-633.30078125,-805.17578125,-718.75,0.0
1734406855.9827101,-558.10546875,-957.51953125,-935.546875,-845.703125,0.0
1734406855.9866157,-506.34765625,-907.71484375,-827.1484375,-781.73828125,0.0
1734406855.9905212,-450.68359375,-612.79296875,-668.9453125,-638.18359375,0.0
1734406855.9944267,-459.47265625,-821.77734375,-814.94140625,-609.375,0.0
1734406855.9983323,-546.875,-1000.0,-948.73046875,-768.06640625,0.0
1734406856.0022378,-589.84375,-982.421875,-976.5625,-919.921875,0.0
1734406856.0061433,-551.7578125,-944.82421875,-898.4375,-876.46484375,0.0
1734406856.0100489,-491.2109375,-721.19140625,-767.578125,-729.98046875,0.0
1734406856.0139544,-470.703125,-779.296875,-847.65625,-658.69140625,0.0
1734406856.01786,-538.0859375,-1000.0,-999.51171875,-784.66796875,0.0
1734406856.021769,-619.140625,-998.53515625,-969.23828125,-979.4921875,0.0
1734406856.0256746,-596.6796875,-981.93359375,-933.10546875,-978.02734375,0.0
1734406856.02958,-510.25390625,-977.05078125,-876.953125,-813.96484375,0.0
1734406856.0334857,-497.55859375,-941.89453125,-884.765625,-744.62890625,0.0
1734406856.0373912,-571.2890625,-961.42578125,-961.9140625,-874.0234375,0.0
1734406856.0412967,-612.3046875,-1000.0,-999.0234375,-998.046875,0.0
1734406856.0452023,-581.0546875,-1000.0,-991.2109375,-985.3515625,0.0
1734406856.0491078,-529.78515625,-945.80078125,-927.734375,-870.60546875,0.0
1734406856.0530133,-510.7421875,-890.13671875,-908.69140625,-795.8984375,0.0
1734406856.0569189,-560.05859375,-994.62890625,-984.375,-892.08984375,0.0
1734406856.0608244,-629.8828125,-1000.0,-1000.0,-991.2109375,0.0
1734406856.06473,-618.65234375,-1000.0,-992.67578125,-1000.0,0.0
1734406856.0686383,-536.62109375,-961.42578125,-936.03515625,-951.171875,0.0
1734406856.0725439,-506.8359375,-944.3359375,-931.640625,-840.8203125,0.0
1734406856.0764494,-542.48046875,-1000.0,-991.2109375,-889.6484375,0.0
1734406856.080355,-595.21484375,-1000.0,-1000.0,-985.83984375,0.0
1734406856.0842605,-573.73046875,-997.55859375,-994.140625,-1000.0,0.0
1734406856.088166,-484.86328125,-1000.0,-986.81640625,-943.359375,0.0
1734406856.0920713,-439.94140625,-994.140625,-968.75,-792.48046875,0.0
1734406856.0959768,-464.35546875,-989.74609375,-961.9140625,-802.24609375,0.0
1734406856.0998824,-510.25390625,-993.1640625,-982.91015625,-945.3125,0.0
1734406856.103788,-488.76953125,-1000.0,-1000.0,-986.328125,0.0
1734406856.1076934,-382.8125,-955.078125,-951.66015625,-820.3125,0.0
1734406856.111599,-321.2890625,-775.87890625,-875.48828125,-664.0625,0.0
1734406856.1155136,-332.51953125,-799.8046875,-936.03515625,-657.71484375,0.0
1734406856.119419,-380.37109375,-952.63671875,-972.65625,-786.62109375,0.0
1734406856.1233246,-386.71875,-1000.0,-995.1171875,-888.18359375,0.0
1734406856.1272302,-313.4765625,-883.7890625,-900.87890625,-763.671875,0.0
1734406856.1311357,-247.0703125,-707.51953125,-851.07421875,-594.7265625,0.0
1734406856.1350412,-263.18359375,-898.92578125,-939.453125,-577.1484375,0.0
1734406856.1389465,-324.21875,-1000.0,-967.28515625,-708.984375,0.0
1734406856.142852,-327.1484375,-977.05078125,-975.5859375,-808.59375,0.0
1734406856.1467576,-256.34765625,-893.06640625,-921.875,-692.87109375,0.0
1734406856.1506631,-182.6171875,-933.59375,-870.1171875,-504.8828125,0.0
1734406856.1545687,-178.22265625,-837.890625,-876.46484375,-458.49609375,0.0
1734406856.1584742,-238.28125,-808.10546875,-927.734375,-594.7265625,0.0
1734406856.162388,-257.8125,-1000.0,-984.375,-711.42578125,0.0
1734406856.1662936,-208.0078125,-942.87109375,-909.66796875,-618.1640625,0.0
1734406856.1701992,-127.9296875,-638.18359375,-786.1328125,-428.7109375,0.0
1734406856.1741047,-99.609375,-503.41796875,-809.08203125,-360.3515625,0.0
1734406856.17801,-156.73828125,-759.27734375,-920.41015625,-470.21484375,0.0
1734406856.1819155,-189.453125,-1000.0,-996.58203125,-590.8203125,0.0
1734406856.185821,-128.41796875,-964.84375,-905.76171875,-523.92578125,0.0
1734406856.1897266,-51.26953125,-554.19921875,-704.1015625,-338.37890625,0.0
1734406856.1936321,-46.38671875,-584.9609375,-788.57421875,-249.51171875,0.0
1734406856.1975377,-105.46875,-985.3515625,-952.1484375,-352.5390625,0.0
1734406856.2014432,-146.97265625,-1000.0,-945.80078125,-500.48828125,0.0
1734406856.2053487,-100.09765625,-786.1328125,-870.1171875,-462.40234375,0.0
1734406856.209268,-20.99609375,-757.32421875,-728.515625,-284.66796875,0.0
1734406856.2131736,3.41796875,-728.02734375,-708.984375,-180.6640625,0.0
1734406856.2170792,-34.66796875,-455.56640625,-786.62109375,-255.37109375,0.0
1734406856.2209847,-70.80078125,-786.62109375,-904.296875,-402.83203125,0.0
1734406856.2248902,-45.41015625,-1000.0,-924.31640625,-382.8125,0.0
1734406856.2287958,23.4375,-914.55078125,-748.046875,-208.0078125,0.0
1734406856.2327013,55.17578125,-543.9453125,-550.29296875,-102.5390625,0.0
1734406856.2366068,5.37109375,-355.95703125,-688.96484375,-171.38671875,0.0
1734406856.2405121,-56.15234375,-790.0390625,-937.01171875,-320.80078125,0.0
1734406856.2444177,-46.875,-1000.0,-921.38671875,-330.56640625,0.0
1734406856.2483232,31.73828125,-459.9609375,-525.87890625,-174.8046875,0.0
1734406856.2522287,89.35546875,-61.03515625,-435.546875,-50.29296875,0.0
1734406856.2561405,48.828125,-392.578125,-658.69140625,-84.9609375,0.0
1734406856.260046,-8.30078125,-524.90234375,-784.1796875,-242.67578125,0.0
1734406856.2639515,-10.25390625,-400.390625,-777.83203125,-295.41015625,0.0
1734406856.267857,65.4296875,-298.33984375,-518.5546875,-132.32421875,0.0
1734406856.2717626,128.90625,-285.64453125,-426.7578125,4.8828125,0.0
1734406856.275668,94.7265625,-426.26953125,-617.1875,-27.83203125,0.0
1734406856.2795734,19.53125,-737.3046875,-756.34765625,-173.828125,0.0
1734406856.283479,14.16015625,-917.48046875,-880.859375,-244.140625,0.0
1734406856.2873845,92.7734375,-669.921875,-601.07421875,-103.02734375,0.0
1734406856.29129,154.296875,-53.7109375,-229.4921875,50.29296875,0.0
1734406856.2951956,145.99609375,129.8828125,-363.28125,44.43359375,0.0
1734406856.299101,85.9375,-474.609375,-698.73046875,-88.8671875,0.0
1734406856.303012,55.6640625,-907.71484375,-847.16796875,-174.31640625,0.0
1734406856.3069174,114.2578125,-266.6015625,-395.99609375,-76.66015625,0.0
1734406856.310823,178.22265625,178.22265625,-49.31640625,75.1953125,0.0
1734406856.3147285,161.1328125,-92.7734375,-263.18359375,103.02734375,0.0
1734406856.318634,87.40234375,-384.27734375,-591.30859375,-31.25,0.0
1734406856.3225396,57.6171875,-598.6328125,-727.05078125,-143.06640625,0.0
1734406856.326445,108.88671875,-515.625,-500.48828125,-56.640625,0.0
1734406856.3303506,171.38671875,-520.01953125,-304.6875,110.3515625,0.0
1734406856.3342562,164.0625,-393.06640625,-349.12109375,145.99609375,0.0
1734406856.3381617,91.796875,-312.98828125,-516.11328125,2.9296875,0.0
1734406856.3420672,44.43359375,-644.04296875,-683.59375,-129.8828125,0.0
1734406856.3459728,90.8203125,-718.75,-538.57421875,-57.6171875,0.0
1734406856.349883,161.1328125,-245.1171875,-64.453125,102.05078125,0.0
1734406856.3537886,165.52734375,316.89453125,58.59375,154.78515625,0.0
1734406856.3576941,87.890625,-42.96875,-392.578125,44.43359375,0.0
1734406856.3615997,37.109375,-587.40234375,-635.25390625,-89.84375,0.0
1734406856.3655052,77.1484375,-314.94140625,-452.63671875,-57.6171875,0.0
1734406856.3694108,151.85546875,-21.97265625,-99.12109375,98.6328125,0.0
1734406856.3733163,158.203125,-145.01953125,-124.0234375,171.38671875,0.0
1734406856.3772218,83.0078125,-655.76171875,-553.22265625,78.125,0.0
1734406856.3811274,26.85546875,-580.078125,-570.80078125,-71.2890625,0.0
1734406856.385033,56.15234375,11.23046875,-371.58203125,-59.5703125,0.0
1734406856.3889382,144.04296875,-9.765625,-116.2109375,118.65234375,0.0
1734406856.3928437,162.59765625,4.8828125,37.109375,214.35546875,0.0
1734406856.3967662,98.14453125,124.0234375,-166.9921875,122.55859375,0.0
1734406856.4006717,38.57421875,-316.89453125,-563.4765625,-38.57421875,0.0
1734406856.4045773,43.9453125,-580.56640625,-531.73828125,-56.15234375,0.0
1734406856.4084828,110.3515625,-104.98046875,-45.8984375,96.19140625,0.0
1734406856.412388,146.484375,279.78515625,139.6484375,194.82421875,0.0
1734406856.4162936,98.14453125,-120.1171875,-248.53515625,136.23046875,0.0
1734406856.4201992,29.296875,-774.90234375,-632.8125,-17.08984375,0.0
1734406856.4241047,31.73828125,-609.86328125,-565.91796875,-68.84765625,0.0
1734406856.4280102,107.421875,114.74609375,-33.69140625,79.58984375,0.0
1734406856.4319158,136.23046875,62.01171875,101.5625,194.3359375,0.0
1734406856.4358213,86.9140625,-354.4921875,-252.9296875,153.80859375,0.0
1734406856.4397268,13.18359375,-389.6484375,-446.2890625,-9.27734375,0.0
1734406856.4436944,0.9765625,-177.734375,-455.078125,-96.6796875,0.0
1734406856.4476,82.03125,-29.78515625,-115.234375,43.45703125,0.0
1734406856.4515054,138.671875,-161.1328125,46.875,195.80078125,0.0
1734406856.455411,104.4921875,-68.359375,-58.59375,169.43359375,0.0
1734406856.4593165,29.296875,-193.84765625,-352.05078125,15.13671875,0.0
1734406856.463222,4.39453125,-647.94921875,-637.20703125,-68.84765625,0.0
1734406856.4671276,65.91796875,-569.3359375,-294.43359375,39.0625,0.0
1734406856.471033,125.48828125,52.24609375,153.80859375,192.3828125,0.0
1734406856.4749386,111.328125,336.9140625,118.1640625,194.3359375,0.0
1734406856.4788442,43.9453125,-243.1640625,-392.578125,43.9453125,0.0
1734406856.4827497,-3.90625,-624.0234375,-651.3671875,-73.2421875,0.0
1734406856.486655,48.828125,-92.7734375,-142.08984375,19.53125,0.0
1734406856.4906218,132.32421875,378.41796875,252.44140625,187.01171875,0.0
1734406856.4945273,116.69921875,-107.91015625,-90.33203125,217.7734375,0.0
1734406856.4984329,37.59765625,-675.29296875,-538.0859375,65.91796875,0.0
1734406856.5023384,-0.48828125,-253.90625,-442.87109375,-81.0546875,0.0
1734406856.506244,45.41015625,2.44140625,-202.63671875,0.0,0.0
1734406856.5101495,109.375,-272.94921875,6.8359375,175.78125,0.0
1734406856.514055,102.5390625,-275.390625,29.78515625,228.515625,0.0
1734406856.5179605,30.2734375,-159.1796875,-189.94140625,85.9375,0.0
1734406856.521866,-8.7890625,-472.65625,-521.484375,-58.59375,0.0
1734406856.5257716,32.71484375,-603.515625,-404.78515625,5.37109375,0.0
1734406856.5296772,106.93359375,-178.7109375,71.2890625,172.36328125,0.0
1734406856.5335824,117.1875,318.359375,213.8671875,239.2578125,0.0
1734406856.537536,52.734375,7.32421875,-172.8515625,128.90625,0.0
1734406856.5414414,-15.13671875,-505.37109375,-509.765625,-34.1796875,0.0
1734406856.545347,-10.7421875,-340.33203125,-313.4765625,-41.9921875,0.0
1734406856.5492523,69.3359375,231.4453125,155.76171875,105.46875,0.0
1734406856.5531578,103.02734375,158.69140625,133.7890625,195.80078125,0.0
1734406856.5570633,37.59765625,-541.015625,-351.5625,100.5859375,0.0
1734406856.5609689,-21.97265625,-626.46484375,-524.90234375,-60.546875,0.0
1734406856.5648744,0.48828125,-106.93359375,-298.828125,-67.3828125,0.0
1734406856.56878,65.91796875,-30.76171875,17.08984375,105.46875,0.0
1734406856.5726855,90.8203125,-289.0625,92.28515625,200.68359375,0.0
1734406856.576591,49.8046875,-177.734375,-102.05078125,115.234375,0.0
1734406856.5804965,-6.8359375,-271.97265625,-393.5546875,-33.69140625,0.0
1734406856.5844355,-4.39453125,-500.9765625,-470.703125,-51.26953125,0.0
1734406856.588341,70.80078125,-283.69140625,-100.09765625,116.69921875,0.0
1734406856.5922465,109.86328125,273.92578125,232.91015625,224.12109375,0.0
1734406856.596152,55.17578125,245.1171875,55.6640625,157.71484375,0.0
1734406856.6000576,-4.8828125,-453.125,-434.08203125,9.765625,0.0
1734406856.6039631,-4.39453125,-898.92578125,-639.6484375,-36.1328125,0.0
1734406856.6078687,63.96484375,-257.32421875,-19.53125,103.02734375,0.0
1734406856.611774,100.5859375,314.94140625,274.4140625,230.46875,0.0
1734406856.6156795,74.70703125,-286.62109375,-134.27734375,197.75390625,0.0
1734406856.619585,9.765625,-826.66015625,-451.66015625,31.73828125,0.0
1734406856.6234906,-16.6015625,-379.8828125,-443.84765625,-45.8984375,0.0
1734406856.627396,50.29296875,-128.90625,-101.5625,87.890625,0.0
1734406856.6313276,103.515625,-56.15234375,233.3984375,208.984375,0.0
1734406856.6352332,80.56640625,45.8984375,104.4921875,202.63671875,0.0
1734406856.6391387,4.8828125,-175.29296875,-250.0,51.26953125,0.0
1734406856.6430442,-28.80859375,-314.453125,-438.4765625,-58.10546875,0.0
1734406856.6469498,36.1328125,-337.890625,-166.015625,63.4765625,0.0
1734406856.6508553,104.00390625,-163.57421875,171.38671875,220.703125,0.0
1734406856.6547608,87.890625,145.5078125,214.84375,232.91015625,0.0
1734406856.6586664,13.671875,-105.46875,-181.15234375,83.0078125,0.0
1734406856.662572,-31.25,-469.23828125,-506.34765625,-37.59765625,0.0
1734406856.6664774,22.94921875,5.37109375,5.37109375,52.734375,0.0
1734406856.670383,100.09765625,552.734375,394.04296875,208.49609375,0.0
1734406856.6742885,98.6328125,148.92578125,73.73046875,245.1171875,0.0
1734406856.6782258,17.08984375,-713.8671875,-375.9765625,109.86328125,0.0
1734406856.6821313,-46.38671875,-409.1796875,-359.375,-36.62109375,0.0
1734406856.6860366,3.41796875,250.0,31.25,36.1328125,0.0
1734406856.6899421,88.8671875,-72.265625,140.625,216.30859375,0.0
1734406856.6938477,80.078125,-452.1484375,26.3671875,264.16015625,0.0
1734406856.6977532,6.34765625,-222.65625,-55.6640625,117.67578125,0.0
1734406856.7016587,-41.9921875,-302.734375,-353.515625,-28.80859375,0.0
1734406856.7055643,-6.8359375,-639.6484375,-385.25390625,28.80859375,0.0
1734406856.7094698,71.77734375,-740.234375,-52.24609375,200.1953125,0.0
1734406856.7133753,86.9140625,-199.70703125,247.55859375,259.765625,0.0
1734406856.7172809,19.04296875,-86.9140625,-10.25390625,135.25390625,0.0
1734406856.7211864,-42.48046875,-602.5390625,-425.78125,-13.18359375,0.0
1734406856.7251298,-21.97265625,-447.75390625,-191.89453125,1.953125,0.0
1734406856.7290354,52.734375,415.52734375,327.1484375,150.390625,0.0
1734406856.732941,86.42578125,506.8359375,271.97265625,244.140625,0.0
1734406856.7368464,32.2265625,-398.4375,-165.52734375,162.109375,0.0
1734406856.740752,-48.33984375,-641.11328125,-429.19921875,-15.13671875,0.0
1734406856.7446573,-43.9453125,-148.92578125,-256.8359375,-35.64453125,0.0
1734406856.7485628,45.8984375,-103.02734375,96.19140625,133.30078125,0.0
1734406856.7524683,83.0078125,-197.265625,245.1171875,229.98046875,0.0
1734406856.756374,33.203125,-158.203125,82.51953125,148.92578125,0.0
1734406856.7602794,-31.25,-8.7890625,-179.6875,-25.390625,0.0
1734406856.764185,-29.78515625,-212.40234375,-385.7421875,-52.734375,0.0
1734406856.7680905,49.8046875,-113.28125,-24.90234375,120.60546875,0.0
1734406856.772033,95.21484375,433.10546875,333.984375,229.00390625,0.0
1734406856.7759385,66.40625,523.92578125,238.76953125,169.43359375,0.0
1734406856.779844,2.44140625,-230.46875,-250.0,14.16015625,0.0
1734406856.7837496,-9.27734375,-692.3828125,-466.30859375,-35.64453125,0.0
1734406856.787655,56.15234375,151.85546875,202.1484375,101.07421875,0.0
1734406856.7915606,104.00390625,275.390625,312.98828125,226.07421875,0.0
1734406856.7954662,77.63671875,-218.26171875,62.01171875,190.4296875,0.0
1734406856.7993717,19.04296875,-215.8203125,-126.953125,29.78515625,0.0
1734406856.8032773,12.6953125,40.0390625,-217.7734375,-43.45703125,0.0
1734406856.8071828,74.21875,155.76171875,160.15625,90.8203125,0.0
1734406856.8110883,132.32421875,-273.92578125,179.6875,240.72265625,0.0
1734406856.8149939,119.140625,-546.38671875,2.9296875,240.234375,0.0
1734406856.8189285,50.29296875,-68.359375,20.01953125,68.84765625,0.0
1734406856.822834,22.94921875,-25.390625,-171.38671875,-26.85546875,0.0
1734406856.8267395,72.75390625,-78.61328125,84.47265625,92.7734375,0.0
1734406856.830645,136.23046875,351.5625,390.625,239.2578125,0.0
1734406856.8345506,140.13671875,582.51953125,333.49609375,264.6484375,0.0
1734406856.8384562,65.91796875,-6.34765625,-11.23046875,113.28125,0.0
1734406856.8423617,21.484375,-571.2890625,-320.3125,-2.9296875,0.0
1734406856.8462672,79.58984375,-65.4296875,101.5625,85.9375,0.0
1734406856.8501728,154.296875,628.90625,461.9140625,243.1640625,0.0
1734406856.8540783,172.8515625,336.42578125,269.53125,303.7109375,0.0
1734406856.8579838,109.86328125,-139.16015625,53.7109375,167.96875,0.0
1734406856.8618894,66.89453125,22.4609375,34.66796875,28.3203125,0.0
1734406856.8658044,112.3046875,343.26171875,230.46875,104.4921875,0.0
1734406856.86971,172.8515625,185.05859375,290.0390625,274.4140625,0.0
1734406856.8736155,190.91796875,-224.609375,220.703125,344.23828125,0.0
1734406856.877521,117.67578125,-41.50390625,184.08203125,210.9375,0.0
1734406856.8814266,71.2890625,123.53515625,77.1484375,61.03515625,0.0
1734406856.885332,108.88671875,-284.66796875,55.6640625,121.09375,0.0
1734406856.8892376,190.4296875,-195.3125,291.015625,290.52734375,0.0
1734406856.8931432,237.79296875,608.3984375,493.1640625,359.375,0.0
1734406856.8970487,172.36328125,514.16015625,286.1328125,247.55859375,0.0
1734406856.9009542,107.91015625,-175.29296875,-43.9453125,100.09765625,0.0
1734406856.9048598,125.0,-89.84375,126.953125,125.0,0.0
1734406856.9087653,191.40625,604.4921875,495.60546875,283.69140625,0.0
1734406856.9126787,219.7265625,772.94921875,493.65234375,377.44140625,0.0
1734406856.9165843,186.03515625,-169.43359375,110.83984375,317.87109375,0.0
1734406856.9204898,131.34765625,-750.0,-102.5390625,157.2265625,0.0
1734406856.9243953,134.27734375,200.1953125,265.13671875,118.1640625,0.0
1734406856.9283009,215.33203125,585.9375,474.12109375,301.7578125,0.0
1734406856.9322064,249.0234375,150.390625,418.9453125,427.734375,0.0
1734406856.936112,212.890625,-31.25,295.8984375,361.328125,0.0
1734406856.9400175,139.6484375,127.44140625,226.07421875,188.96484375,0.0
1734406856.943923,128.41796875,213.37890625,220.703125,136.71875,0.0
1734406856.9478285,209.47265625,-485.83984375,256.8359375,318.359375,0.0
1734406856.951734,254.8828125,-398.92578125,411.62109375,443.84765625,0.0
1734406856.9556396,220.21484375,620.60546875,479.00390625,373.53515625,0.0
1734406856.9595523,163.57421875,321.2890625,199.21875,216.796875,0.0
1734406856.9634578,145.01953125,119.62890625,195.80078125,150.87890625,0.0
1734406856.9673634,208.49609375,656.73828125,513.18359375,297.8515625,0.0
1734406856.971269,261.71875,896.484375,571.77734375,431.640625,0.0
1734406856.9751744,235.83984375,566.40625,448.73046875,399.4140625,0.0
1734406856.97908,168.45703125,38.0859375,233.3984375,250.48828125,0.0
1734406856.9829855,145.5078125,48.33984375,217.28515625,168.9453125,0.0
1734406856.986891,208.984375,626.953125,497.55859375,284.66796875,0.0
1734406856.9907966,260.7421875,247.0703125,463.8671875,445.3125,0.0
1734406856.994702,251.46484375,-197.75390625,378.90625,454.58984375,0.0
1734406856.9986076,178.7109375,145.99609375,336.9140625,281.73828125,0.0
1734406857.0025132,145.01953125,149.4140625,236.81640625,177.24609375,0.0
1734406857.0064247,208.984375,368.65234375,425.78125,279.78515625,0.0
1734406857.0103302,266.6015625,749.0234375,596.6796875,440.91796875,0.0
1734406857.0142357,262.6953125,925.29296875,573.2421875,477.05078125,0.0
1734406857.0181413,212.890625,610.3515625,403.80859375,338.8671875,0.0
1734406857.0220468,177.24609375,253.90625,292.96875,217.28515625,0.0
1734406857.0259523,205.078125,286.62109375,436.03515625,296.38671875,0.0
1734406857.0298579,273.92578125,581.0546875,613.76953125,456.54296875,0.0
1734406857.0337634,298.33984375,703.61328125,572.265625,518.06640625,0.0
1734406857.037669,232.91015625,102.5390625,374.51171875,408.69140625,0.0
1734406857.0415745,178.22265625,214.84375,367.67578125,271.484375,0.0
1734406857.04548,219.23828125,729.4921875,505.859375,321.77734375,0.0
1734406857.0493855,291.50390625,541.50390625,594.7265625,495.60546875,0.0
1734406857.0533097,313.96484375,329.58984375,578.125,571.2890625,0.0
1734406857.0572152,237.79296875,551.26953125,500.48828125,440.4296875,0.0
1734406857.0611207,170.8984375,637.6953125,447.75390625,284.1796875,0.0
1734406857.0650263,229.00390625,539.0625,501.46484375,344.7265625,0.0
1734406857.0689318,313.4765625,695.3125,642.578125,522.94921875,0.0
1734406857.0728374,326.66015625,745.1171875,650.87890625,603.02734375,0.0
1734406857.076743,282.2265625,623.53515625,583.49609375,520.5078125,0.0
1734406857.0806484,230.95703125,-0.9765625,363.28125,375.48828125,0.0
1734406857.084554,249.0234375,-24.4140625,420.41015625,391.11328125,0.0
1734406857.0884595,331.54296875,774.90234375,689.94140625,557.6171875,0.0
1734406857.092365,376.953125,812.5,664.55078125,663.57421875,0.0
1734406857.0962706,331.0546875,649.4140625,617.67578125,602.05078125,0.0
1734406857.1001804,262.6953125,638.671875,550.78125,453.125,0.0
1734406857.104086,283.203125,865.72265625,595.21484375,434.08203125,0.0
1734406857.1079915,373.53515625,966.30859375,728.02734375,602.5390625,0.0
1734406857.111897,409.1796875,770.99609375,721.19140625,731.93359375,0.0
1734406857.1158025,374.51171875,783.69140625,680.17578125,685.05859375,0.0
1734406857.119708,326.171875,686.03515625,573.73046875,535.64453125,0.0
1734406857.1236136,323.2421875,417.96875,576.171875,507.32421875,0.0
1734406857.1275191,397.94921875,650.390625,727.5390625,673.828125,0.0
1734406857.1314247,449.70703125,948.73046875,811.5234375,790.0390625,0.0
1734406857.1353302,434.5703125,-961.42578125,779.78515625,758.7890625,0.0
1734406857.1392357,375.9765625,679.19921875,614.74609375,621.09375,0.0
1734406857.1431413,356.93359375,505.37109375,618.65234375,559.08203125,0.0
1734406857.147057,421.38671875,931.15234375,798.33984375,706.54296875,0.0
1734406857.1509626,471.6796875,-942.87109375,840.8203125,849.609375,0.0
1734406857.1548681,446.77734375,695.80078125,703.61328125,846.19140625,0.0
1734406857.1587737,370.60546875,272.94921875,596.6796875,689.453125,0.0
1734406857.1626792,345.703125,733.88671875,688.96484375,583.0078125,0.0
1734406857.1665847,394.04296875,-972.16796875,778.3203125,693.359375,0.0
1734406857.1704903,437.5,625.48828125,777.83203125,837.890625,0.0
1734406857.1743958,424.31640625,445.3125,767.08984375,852.05078125,0.0
1734406857.1783013,370.1171875,964.35546875,750.9765625,686.03515625,0.0
1734406857.1822069,322.265625,835.44921875,673.33984375,562.5,0.0
1734406857.1861124,345.703125,782.2265625,755.859375,659.1796875,0.0
1734406857.190018,407.71484375,967.28515625,827.1484375,805.6640625,0.0
1734406857.1939263,379.8828125,994.140625,824.21875,812.5,0.0
1734406857.1978319,296.38671875,882.32421875,713.37890625,661.1328125,0.0
1734406857.2017374,247.0703125,708.49609375,618.65234375,531.25,0.0
1734406857.205643,268.06640625,886.71875,761.23046875,598.6328125,0.0
1734406857.2095485,330.078125,-988.76953125,838.37890625,739.2578125,0.0
1734406857.213454,324.21875,879.8828125,767.578125,770.5078125,0.0
1734406857.2173595,244.140625,508.30078125,640.13671875,625.9765625,0.0
1734406857.221265,176.7578125,591.30859375,621.09375,461.42578125,0.0
1734406857.2251706,183.10546875,973.14453125,731.93359375,491.2109375,0.0
1734406857.2290761,220.21484375,854.98046875,796.38671875,627.44140625,0.0
1734406857.2329817,229.4921875,294.43359375,690.91796875,688.4765625,0.0
1734406857.2368872,161.62109375,485.3515625,659.66796875,550.78125,0.0
1734406857.2408016,92.28515625,795.8984375,616.69921875,388.18359375,0.0
1734406857.244707,124.0234375,607.91015625,594.7265625,424.8046875,0.0
1734406857.2486126,190.91796875,733.3984375,751.46484375,578.61328125,0.0
1734406857.2525182,204.1015625,988.28125,808.10546875,634.27734375,0.0
1734406857.2564237,142.08984375,944.82421875,713.37890625,518.06640625,0.0
1734406857.2603292,71.2890625,208.0078125,484.86328125,359.375,0.0
1734406857.2642348,75.1953125,-25.390625,518.06640625,343.26171875,0.0
1734406857.2681403,138.671875,750.9765625,771.484375,493.1640625,0.0
1734406857.2720459,152.83203125,-962.40234375,770.5078125,562.98828125,0.0
1734406857.2759514,89.35546875,243.65234375,537.59765625,459.9609375,0.0
1734406857.279857,12.20703125,-80.078125,464.35546875,295.8984375,0.0
1734406857.2837625,0.9765625,593.75,587.40234375,247.55859375,0.0
1734406857.287676,62.98828125,764.16015625,670.8984375,387.20703125,0.0
1734406857.2915816,93.75,534.1796875,648.92578125,479.00390625,0.0
1734406857.2954872,36.1328125,523.92578125,603.02734375,392.08984375,0.0
1734406857.2993927,-33.203125,560.546875,508.7890625,218.26171875,0.0
1734406857.3032982,-48.828125,355.95703125,474.12109375,161.62109375,0.0
1734406857.3072038,-3.90625,197.265625,600.5859375,296.875,0.0
1734406857.3111093,25.390625,440.4296875,664.55078125,408.203125,0.0
1734406857.3150148,-6.8359375,854.00390625,641.6015625,354.00390625,0.0
1734406857.3189204,-66.89453125,416.9921875,463.37890625,200.68359375,0.0
1734406857.322826,-78.61328125,-206.54296875,397.4609375,150.87890625,0.0
1734406857.3267314,-18.06640625,325.68359375,618.65234375,278.3203125,0.0
1734406857.330637,33.203125,921.875,716.796875,398.4375,0.0
1734406857.3345559,26.85546875,463.37890625,539.0625,382.8125,0.0
1734406857.3384614,-29.78515625,-160.15625,414.55078125,237.79296875,0.0
1734406857.342367,-47.8515625,242.67578125,499.0234375,142.578125,0.0
1734406857.3462725,29.296875,701.171875,634.765625,269.53125,0.0
1734406857.350178,83.0078125,561.03515625,651.3671875,429.6875,0.0
1734406857.3540835,73.2421875,343.26171875,597.16796875,435.546875,0.0
1734406857.357989,29.296875,246.58203125,538.0859375,291.9921875,0.0
1734406857.3618944,10.25390625,298.33984375,520.01953125,205.56640625,0.0
1734406857.3658,71.77734375,235.83984375,566.89453125,329.58984375,0.0
1734406857.3697054,128.41796875,209.47265625,651.3671875,489.74609375,0.0
1734406857.373611,118.65234375,749.51171875,710.44921875,502.9296875,0.0
1734406857.3775165,51.7578125,733.88671875,570.80078125,339.35546875,0.0
1734406857.3814478,10.25390625,69.82421875,443.359375,204.1015625,0.0
1734406857.3853533,31.73828125,235.3515625,583.984375,262.6953125,0.0
1734406857.3892589,69.82421875,873.046875,723.6328125,385.25390625,0.0
1734406857.3931644,34.1796875,720.21484375,603.515625,371.09375,0.0
1734406857.39707,-95.21484375,34.66796875,368.65234375,148.4375,0.0
1734406857.4009755,-249.51171875,-495.60546875,43.45703125,-109.86328125,0.0
1734406857.404881,-356.4453125,-466.796875,16.6015625,-214.84375,0.0
1734406857.4087865,-286.1328125,-166.9921875,374.0234375,-64.453125,0.0
1734406857.412692,-177.734375,-113.28125,425.78125,92.28515625,0.0
1734406857.4165976,-213.8671875,85.44921875,325.1953125,-19.04296875,0.0
1734406857.4205031,-282.71484375,180.6640625,216.796875,-205.56640625,0.0
1734406857.4244087,-287.59765625,-231.93359375,89.84375,-207.51953125,0.0
1734406857.428321,-254.8828125,-469.23828125,194.82421875,-90.33203125,0.0
1734406857.4322264,-276.3671875,47.36328125,311.5234375,-91.30859375,0.0
1734406857.436132,-378.41796875,18.5546875,70.80078125,-256.34765625,0.0
1734406857.4400375,-463.8671875,-666.9921875,-505.37109375,-466.30859375,0.0
1734406857.443943,-489.74609375,-909.66796875,-700.1953125,-531.25,0.0
1734406857.4478486,-468.26171875,-682.12890625,-307.6171875,-441.89453125,0.0
1734406857.451754,-477.5390625,-674.31640625,-328.61328125,-416.015625,0.0
1734406857.4556594,-571.77734375,-838.8671875,-647.94921875,-555.6640625,0.0
1734406857.459565,-670.8984375,-993.65234375,-832.51953125,-775.390625,0.0
1734406857.4634705,-685.05859375,-989.2578125,-875.0,-856.4453125,0.0
1734406857.467376,-633.30078125,-995.1171875,-708.0078125,-727.05078125,0.0
1734406857.4712815,-611.81640625,-987.3046875,-667.48046875,-652.34375,0.0
1734406857.4751916,-651.3671875,-945.80078125,-814.94140625,-751.953125,0.0
1734406857.4790971,-726.5625,-964.35546875,-895.01953125,-927.734375,0.0
1734406857.4830027,-731.93359375,-1000.0,-958.984375,-995.1171875,0.0
1734406857.4869082,-657.2265625,-973.6328125,-819.82421875,-876.46484375,0.0
1734406857.4908137,-606.93359375,-807.6171875,-689.453125,-756.34765625,0.0
1734406857.4947193,-611.328125,-904.296875,-861.328125,-785.15625,0.0
1734406857.4986248,-649.90234375,-1000.0,-939.94140625,-923.828125,0.0
1734406857.5025303,-637.6953125,-1000.0,-1000.0,-952.1484375,0.0
1734406857.5064359,-551.7578125,-915.0390625,-828.61328125,-808.59375,0.0
1734406857.5103414,-477.05078125,-507.8125,-524.90234375,-670.8984375,0.0
1734406857.514247,-476.5625,-630.37109375,-768.5546875,-658.69140625,0.0
1734406857.5181525,-535.64453125,-1000.0,-967.28515625,-814.94140625,0.0
1734406857.5220683,-569.3359375,-971.19140625,-921.875,-931.15234375,0.0
1734406857.5259738,-533.203125,-816.40625,-821.77734375,-837.890625,0.0
1734406857.5298793,-491.69921875,-857.421875,-762.6953125,-701.66015625,0.0
1734406857.5337849,-518.5546875,-989.2578125,-882.8125,-732.421875,0.0
1734406857.5376904,-624.51171875,-971.6796875,-954.58984375,-919.921875,0.0
1734406857.541596,-708.49609375,-1000.0,-995.1171875,-1000.0,0.0
1734406857.5455015,-734.375,-1000.0,-996.58203125,-995.60546875,0.0
1734406857.549407,-735.83984375,-1000.0,-990.72265625,-999.51171875,0.0
1734406857.5533125,-783.69140625,-1000.0,-985.3515625,-1000.0,0.0
1734406857.557218,-910.64453125,-1000.0,-1000.0,-1000.0,0.0
1734406857.5611236,-997.0703125,-1000.0,-1000.0,-1000.0,0.0
1734406857.5650291,-999.51171875,-1000.0,-1000.0,-1000.0,0.0
1734406857.5689507,-998.53515625,-1000.0,-1000.0,-1000.0,0.0
1734406857.572856,-1000.0,-1000.0,-1000.0,-1000.0,0.0
1734406857.5767615,-1000.0,-1000.0,-1000.0,-1000.0,0.0
1734406857.580667,-1000.0,-1000.0,-1000.0,-1000.0,0.0
1734406857.5845726,-1000.0,-1000.0,-1000.0,-1000.0,0.0
1734406857.588478,-1000.0,-1000.0,-1000.0,-1000.0,0.0
1734406857.5923836,-1000.0,-1000.0,-1000.0,-1000.0,0.0
1734406857.5962892,-1000.0,-1000.0,-1000.0,-1000.0,0.0
1734406857.6001947,-992.67578125,-1000.0,-1000.0,-1000.0,0.0
1734406857.6041002,-1000.0,-1000.0,-1000.0,-1000.0,0.0
1734406857.6080058,-939.94140625,-1000.0,-1000.0,-1000.0,0.0
1734406857.6119113,-719.23828125,-1000.0,-1000.0,-1000.0,0.0
1734406857.6158254,-569.82421875,-1000.0,-1000.0,-1000.0,0.0
1734406857.619731,-516.6015625,-997.55859375,-999.51171875,-994.62890625,0.0
1734406857.6236365,-442.3828125,-1000.0,-1000.0,-1000.0,0.0
1734406857.627542,-355.95703125,-969.7265625,-978.02734375,-950.1953125,0.0
1734406857.6314476,-329.58984375,-948.2421875,-971.6796875,-842.28515625,0.0
1734406857.635353,-364.2578125,-1000.0,-1000.0,-922.36328125,0.0
1734406857.6392586,-447.75390625,-1000.0,-1000.0,-1000.0,0.0
1734406857.6431642,-460.9375,-998.53515625,-1000.0,-1000.0,0.0
1734406857.6470697,-389.16015625,-1000.0,-995.60546875,-974.609375,0.0
1734406857.6509752,-333.0078125,-1000.0,-990.72265625,-849.609375,0.0
1734406857.6548808,-342.7734375,-1000.0,-1000.0,-859.86328125,0.0
1734406857.6587863,-397.4609375,-1000.0,-999.51171875,-971.19140625,0.0
1734406857.6627,-422.8515625,-1000.0,-1000.0,-1000.0,0.0
1734406857.6666055,-374.51171875,-1000.0,-993.1640625,-951.66015625,0.0
1734406857.670511,-314.453125,-1000.0,-986.81640625,-820.3125,0.0
1734406857.6744165,-338.37890625,-1000.0,-1000.0,-855.46875,0.0
1734406857.6783218,-412.59765625,-997.55859375,-998.53515625,-961.9140625,0.0
1734406857.6822274,-416.015625,-1000.0,-1000.0,-1000.0,0.0
1734406857.686133,-341.796875,-992.1875,-984.375,-938.96484375,0.0
1734406857.6900384,-238.76953125,-897.94921875,-960.44921875,-739.2578125,0.0
1734406857.693944,-191.89453125,-925.29296875,-991.2109375,-677.24609375,0.0
1734406857.6978495,-237.79296875,-1000.0,-999.51171875,-796.875,0.0
1734406857.701755,-239.2578125,-1000.0,-1000.0,-869.140625,0.0
1734406857.7056606,-148.4375,-917.96875,-964.84375,-716.796875,0.0
1734406857.7095735,-62.98828125,-917.48046875,-920.41015625,-504.39453125,0.0
1734406857.713479,-43.45703125,-848.6328125,-934.08203125,-450.1953125,0.0
1734406857.7173846,-70.3125,-747.55859375,-954.58984375,-560.05859375,0.0
1734406857.72129,-83.0078125,-882.32421875,-986.328125,-650.87890625,0.0
1734406857.7251954,-32.2265625,-920.8984375,-941.89453125,-518.06640625,0.0
1734406857.729101,53.22265625,-865.234375,-877.44140625,-305.6640625,0.0
1734406857.7330065,92.7734375,-674.8046875,-865.72265625,-251.953125,0.0
1734406857.736912,62.01171875,-608.3984375,-908.69140625,-352.5390625,0.0
1734406857.7408175,19.53125,-881.8359375,-997.0703125,-459.47265625,0.0
1734406857.744723,50.29296875,-1000.0,-961.9140625,-382.8125,0.0
1734406857.7486286,129.39453125,-571.77734375,-710.9375,-191.40625,0.0
1734406857.7525342,166.9921875,-186.5234375,-659.1796875,-83.49609375,0.0
1734406857.756459,121.09375,-521.484375,-857.91015625,-181.15234375,0.0
1734406857.7603645,61.5234375,-679.19921875,-920.8984375,-329.1015625,0.0
1734406857.76427,84.9609375,-471.19140625,-841.30859375,-286.62109375,0.0
1734406857.7681756,155.2734375,-408.203125,-647.94921875,-99.12109375,0.0
1734406857.7720811,169.921875,-427.734375,-621.58203125,-0.9765625,0.0
1734406857.7759867,108.88671875,-622.55859375,-839.84375,-99.12109375,0.0
1734406857.7798922,55.6640625,-858.3984375,-902.83203125,-265.13671875,0.0
1734406857.7837977,61.03515625,-786.1328125,-892.08984375,-266.11328125,0.0
1734406857.787703,114.74609375,-872.55859375,-754.8828125,-74.70703125,0.0
1734406857.7916086,129.39453125,-474.609375,-541.015625,7.32421875,0.0
1734406857.795514,84.47265625,-149.4140625,-682.6171875,-80.078125,0.0
1734406857.7994196,18.5546875,-649.4140625,-899.90234375,-230.95703125,0.0
1734406857.803337,4.8828125,-901.3671875,-939.94140625,-269.04296875,0.0
1734406857.8072426,90.8203125,-349.609375,-592.28515625,-111.328125,0.0
1734406857.8111482,129.39453125,-19.53125,-474.12109375,6.34765625,0.0
1734406857.8150537,70.80078125,-478.515625,-711.9140625,-41.015625,0.0
1734406857.8189592,4.8828125,-841.796875,-858.88671875,-213.37890625,0.0
1734406857.8228648,-14.6484375,-880.859375,-905.76171875,-282.2265625,0.0
1734406857.8267703,27.83203125,-820.3125,-708.984375,-131.34765625,0.0
1734406857.8306758,77.63671875,-722.65625,-583.984375,-4.8828125,0.0
1734406857.8345814,53.7109375,-542.48046875,-681.15234375,-44.43359375,0.0
1734406857.838487,-19.04296875,-632.8125,-830.078125,-222.16796875,0.0
1734406857.8423924,-54.6875,-982.91015625,-936.5234375,-301.26953125,0.0
1734406857.846298,-6.8359375,-849.609375,-721.19140625,-167.96875,0.0
1734406857.850208,60.05859375,-391.11328125,-467.28515625,-10.7421875,0.0
1734406857.8541136,34.66796875,-127.9296875,-597.16796875,-12.20703125,0.0
1734406857.858019,-44.921875,-454.1015625,-801.26953125,-171.875,0.0
1734406857.8619246,-70.3125,-936.03515625,-911.62109375,-261.71875,0.0
1734406857.86583,-24.90234375,-653.80859375,-664.55078125,-170.41015625,0.0
1734406857.8697355,45.8984375,-299.31640625,-459.47265625,-11.23046875,0.0
1734406857.873641,48.33984375,-570.80078125,-659.1796875,18.06640625,0.0
1734406857.8775465,-31.73828125,-800.78125,-836.42578125,-142.578125,0.0
1734406857.881452,-67.87109375,-631.34765625,-847.16796875,-251.953125,0.0
1734406857.8853576,-15.13671875,-349.12109375,-649.4140625,-159.1796875,0.0
1734406857.8892632,42.96875,-518.5546875,-586.42578125,1.953125,0.0
1734406857.8931687,36.62109375,-823.73046875,-723.14453125,52.734375,0.0
1734406857.8970845,-22.4609375,-541.50390625,-696.2890625,-91.30859375,0.0
1734406857.90099,-70.3125,-403.80859375,-821.2890625,-232.421875,0.0
1734406857.9048955,-52.734375,-632.8125,-729.98046875,-161.62109375,0.0
1734406857.908801,3.41796875,-352.05078125,-407.71484375,-2.44140625,0.0
1734406857.9127066,28.3203125,5.37109375,-425.78125,45.41015625,0.0
1734406857.9166121,-27.83203125,-478.02734375,-744.62890625,-76.171875,0.0
1734406857.9205177,-90.8203125,-979.00390625,-924.31640625,-218.26171875,0.0
1734406857.9244232,-84.9609375,-745.1171875,-752.9296875,-189.453125,0.0
1734406857.9283288,-33.203125,-125.0,-399.90234375,-39.55078125,0.0
1734406857.9322343,-1.46484375,-187.01171875,-464.84375,42.48046875,0.0
1734406857.9361398,-61.03515625,-767.578125,-762.20703125,-54.6875,0.0
1734406857.9400454,-127.9296875,-812.01171875,-855.95703125,-225.5859375,0.0
1734406857.943954,-101.5625,-453.61328125,-740.234375,-214.35546875,0.0
1734406857.9478595,-43.45703125,-416.015625,-525.390625,-41.9921875,0.0
1734406857.951765,-16.11328125,-368.1640625,-448.73046875,49.8046875,0.0
1734406857.9556706,-47.8515625,-266.11328125,-602.05078125,-27.83203125,0.0
1734406857.9595761,-114.74609375,-396.484375,-786.62109375,-193.84765625,0.0
1734406857.9634817,-115.72265625,-783.69140625,-871.09375,-212.890625,0.0
1734406857.9673872,-60.546875,-758.7890625,-604.4921875,-44.921875,0.0
1734406857.9712927,-41.50390625,-228.515625,-396.484375,35.15625,0.0
1734406857.9751983,-79.58984375,-113.76953125,-581.54296875,-50.78125,0.0
1734406857.9791038,-148.4375,-599.12109375,-850.09765625,-208.984375,0.0
1734406857.9830093,-177.734375,-959.47265625,-927.734375,-264.16015625,0.0
1734406857.9869149,-100.09765625,-462.40234375,-546.875,-110.3515625,0.0
1734406857.9908226,-33.69140625,21.97265625,-363.28125,29.296875,0.0
1734406857.994728,-66.89453125,-429.19921875,-647.4609375,-11.71875,0.0
1734406857.9986336,-131.8359375,-883.30078125,-856.93359375,-170.41015625,0.0
1734406858.0025392,-148.4375,-550.29296875,-811.03515625,-240.234375,0.0
1734406858.0064447,-86.42578125,-391.6015625,-540.0390625,-95.21484375,0.0
1734406858.0103502,-38.0859375,-690.4296875,-528.3203125,59.5703125,0.0
1734406858.0142558,-62.5,-969.23828125,-770.5078125,44.921875,0.0
1734406858.0181613,-125.0,-621.09375,-692.87109375,-135.7421875,0.0
1734406858.0220668,-159.1796875,-430.6640625,-783.203125,-235.3515625,0.0
1734406858.0259724,-97.65625,-604.98046875,-625.9765625,-95.21484375,0.0
1734406858.029878,-30.2734375,-362.79296875,-339.35546875,69.82421875,0.0
1734406858.0337834,-39.55078125,23.92578125,-402.34375,79.58984375,0.0
1734406858.037697,-103.515625,-264.16015625,-658.203125,-80.56640625,0.0
1734406858.0416026,-138.671875,-674.31640625,-819.82421875,-188.4765625,0.0
1734406858.0455081,-95.21484375,-418.9453125,-554.6875,-92.28515625,0.0
1734406858.0494137,-27.83203125,14.16015625,-280.2734375,64.94140625,0.0
1734406858.0533192,-20.01953125,-84.47265625,-442.3828125,99.12109375,0.0
1734406858.0572248,-79.1015625,-741.2109375,-744.62890625,-51.7578125,0.0
1734406858.0611303,-129.39453125,-856.4453125,-816.89453125,-184.5703125,0.0
1734406858.0650358,-114.74609375,-501.953125,-614.74609375,-122.0703125,0.0
1734406858.0689414,-47.36328125,-502.9296875,-471.6796875,36.62109375,0.0
1734406858.072847,-41.50390625,-643.5546875,-532.71484375,100.09765625,0.0
1734406858.0767522,-94.7265625,-465.33203125,-594.23828125,-43.45703125,0.0
1734406858.0806577,-123.53515625,-400.87890625,-750.9765625,-188.96484375,0.0
1734406858.0845704,-106.4453125,-580.56640625,-674.8046875,-136.71875,0.0
1734406858.088476,-39.55078125,-327.63671875,-365.234375,25.390625,0.0
1734406858.0923812,-1.46484375,49.8046875,-281.25,115.72265625,0.0
1734406858.0962868,-43.45703125,-113.28125,-535.15625,7.32421875,0.0
1734406858.1001923,-85.9375,-628.41796875,-763.671875,-139.16015625,0.0
1734406858.1040978,-67.87109375,-841.796875,-684.08203125,-104.98046875,0.0
1734406858.1080034,-3.90625,-541.9921875,-408.69140625,45.41015625,0.0
1734406858.111909,22.4609375,-174.31640625,-309.08203125,121.58203125,0.0
1734406858.1158144,-7.8125,-523.92578125,-662.59765625,38.0859375,0.0
1734406858.11972,-63.96484375,-1000.0,-902.34375,-114.2578125,0.0
1734406858.1236255,-55.17578125,-741.2109375,-684.08203125,-136.23046875,0.0
1734406858.127531,12.6953125,-433.10546875,-393.06640625,9.765625,0.0
1734406858.1314557,46.38671875,-290.0390625,-311.03515625,96.6796875,0.0
1734406858.1353612,15.625,-191.89453125,-441.40625,24.90234375,0.0
1734406858.1392667,-40.0390625,-242.67578125,-622.55859375,-123.046875,0.0
1734406858.1431723,-45.41015625,-446.77734375,-691.89453125,-162.59765625,0.0
1734406858.1470778,9.765625,-446.2890625,-430.17578125,-8.7890625,0.0
1734406858.1509833,60.05859375,-385.7421875,-344.23828125,109.375,0.0
1734406858.1548889,44.43359375,-326.171875,-455.078125,47.8515625,0.0
1734406858.1587944,-12.20703125,-449.70703125,-652.83203125,-115.234375,0.0
1734406858.1627,-28.3203125,-762.20703125,-779.78515625,-178.22265625,0.0
1734406858.1666055,17.08984375,-285.15625,-354.4921875,-36.1328125,0.0
1734406858.170511,68.84765625,228.02734375,-19.04296875,93.26171875,0.0
1734406858.1744165,51.7578125,-183.59375,-385.7421875,52.734375,0.0
1734406858.178334,-23.92578125,-648.92578125,-732.91015625,-90.8203125,0.0
1734406858.1822395,-27.83203125,-405.2734375,-640.13671875,-157.71484375,0.0
1734406858.186145,45.8984375,-261.71875,-378.90625,-27.34375,0.0
1734406858.1900506,104.98046875,-524.90234375,-293.45703125,132.8125,0.0
1734406858.193956,99.12109375,-666.9921875,-517.08984375,145.5078125,0.0
1734406858.1978614,30.2734375,-513.18359375,-566.89453125,-13.18359375,0.0
1734406858.201767,3.90625,-619.140625,-644.04296875,-131.34765625,0.0
1734406858.2056725,60.546875,-733.88671875,-490.72265625,-11.71875,0.0
1734406858.209578,117.1875,-357.91015625,-56.15234375,152.34375,0.0
1734406858.2134836,114.74609375,11.71875,-78.125,174.8046875,0.0
1734406858.217389,62.01171875,-380.859375,-518.5546875,35.15625,0.0
1734406858.2212946,35.15625,-681.640625,-631.34765625,-84.47265625,0.0
1734406858.2252045,66.89453125,-339.35546875,-319.3359375,5.37109375,0.0
1734406858.22911,123.046875,274.4140625,90.33203125,173.33984375,0.0
1734406858.2330155,135.7421875,272.4609375,55.17578125,216.30859375,0.0
1734406858.236921,76.66015625,-494.140625,-401.85546875,86.9140625,0.0
1734406858.2408266,50.29296875,-718.26171875,-602.05078125,-45.8984375,0.0
1734406858.2447321,89.84375,-271.484375,-356.93359375,29.78515625,0.0
1734406858.2486377,145.5078125,-208.0078125,-36.1328125,200.1953125,0.0
1734406858.2525432,151.85546875,-203.125,41.50390625,260.25390625,0.0
1734406858.2564487,100.09765625,-7.8125,-102.05078125,131.8359375,0.0
1734406858.2603543,68.84765625,26.85546875,-338.8671875,-13.18359375,0.0
1734406858.2642598,104.4921875,-211.9140625,-426.26953125,54.19921875,0.0
1734406858.2681653,178.7109375,-522.4609375,-167.48046875,232.421875,0.0
1734406858.2720747,198.2421875,14.6484375,202.63671875,313.4765625,0.0
1734406858.2759802,152.83203125,351.5625,27.83203125,212.890625,0.0
1734406858.2798858,112.79296875,-286.62109375,-393.5546875,52.24609375,0.0
1734406858.2837913,143.06640625,-337.40234375,-290.52734375,62.98828125,0.0
1734406858.2876968,210.9375,278.80859375,196.2890625,230.95703125,0.0
1734406858.2916024,226.5625,256.34765625,249.51171875,340.33203125,0.0
1734406858.295508,181.640625,-403.3203125,-164.55078125,271.484375,0.0
1734406858.2994134,140.13671875,-545.41015625,-435.546875,114.74609375,0.0
1734406858.303319,154.296875,-97.16796875,-267.578125,108.88671875,0.0
1734406858.3072245,216.30859375,7.8125,92.7734375,281.73828125,0.0
1734406858.31113,259.765625,-4.8828125,303.7109375,392.578125,0.0
1734406858.3150356,239.2578125,58.59375,183.59375,339.35546875,0.0
1734406858.318951,187.01171875,181.15234375,3.90625,181.15234375,0.0
1734406858.3228564,180.6640625,113.76953125,-68.84765625,138.18359375,0.0
1734406858.3267617,246.09375,-152.34375,178.22265625,308.10546875,0.0
1734406858.3306673,272.94921875,147.4609375,359.375,416.9921875,0.0
1734406858.3345728,250.48828125,561.5234375,306.15234375,377.44140625,0.0
1734406858.3384783,219.7265625,-31.73828125,-105.95703125,239.74609375,0.0
1734406858.3423839,199.21875,-632.8125,-345.703125,176.26953125,0.0
1734406858.3462894,246.58203125,-14.6484375,223.14453125,312.01171875,0.0
1734406858.350195,293.45703125,755.37109375,492.67578125,429.6875,0.0
1734406858.3541005,284.66796875,382.32421875,210.44921875,421.38671875,0.0
1734406858.358006,225.5859375,-99.12109375,5.859375,268.06640625,0.0
1734406858.3619115,189.94140625,-36.62109375,22.4609375,164.55078125,0.0
1734406858.3658254,239.74609375,235.83984375,257.32421875,273.4375,0.0
1734406858.369731,286.1328125,212.40234375,296.875,416.9921875,0.0
1734406858.3736365,282.71484375,17.08984375,214.35546875,423.828125,0.0
1734406858.377542,243.1640625,287.109375,171.875,261.23046875,0.0
1734406858.3814476,214.84375,190.4296875,40.0390625,155.2734375,0.0
1734406858.385353,261.71875,-101.07421875,172.8515625,274.4140625,0.0
1734406858.3892586,308.10546875,92.7734375,373.53515625,430.17578125,0.0
1734406858.3931642,310.05859375,554.19921875,408.203125,439.94140625,0.0
1734406858.3970697,249.0234375,505.37109375,269.53125,285.15625,0.0
1734406858.4009752,250.48828125,-391.6015625,-129.8828125,198.2421875,0.0
1734406858.4048808,313.4765625,-484.375,27.83203125,311.03515625,0.0
1734406858.4087863,333.0078125,587.890625,533.69140625,442.87109375,0.0
1734406858.4127004,320.80078125,750.0,462.890625,476.5625,0.0
1734406858.416606,282.2265625,12.20703125,187.98828125,385.25390625,0.0
1734406858.4205115,253.41796875,-216.30859375,125.0,246.09375,0.0
1734406858.424417,288.57421875,268.06640625,364.74609375,280.76171875,0.0
1734406858.4283226,364.2578125,533.69140625,508.30078125,453.125,0.0
1734406858.4322278,384.765625,311.5234375,423.33984375,520.5078125,0.0
1734406858.4361334,312.5,193.84765625,319.3359375,384.27734375,0.0
1734406858.440039,279.78515625,382.8125,234.86328125,208.984375,0.0
1734406858.4439445,310.05859375,251.953125,279.78515625,223.6328125,0.0
1734406858.44785,345.703125,116.69921875,429.6875,382.32421875,0.0
1734406858.4517555,358.88671875,503.90625,460.9375,442.3828125,0.0
1734406858.455661,337.40234375,703.61328125,424.8046875,342.7734375,0.0
1734406858.4595864,305.6640625,43.9453125,100.5859375,209.47265625,0.0
1734406858.463492,302.734375,-270.99609375,84.47265625,218.75,0.0
1734406858.4673975,369.62890625,554.6875,532.2265625,380.859375,0.0
1734406858.471303,425.29296875,947.75390625,569.3359375,506.8359375,0.0
1734406858.4752085,395.5078125,386.71875,343.75,480.46875,0.0
1734406858.479114,333.49609375,-199.21875,189.94140625,348.14453125,0.0
1734406858.4830196,349.12109375,21.484375,322.265625,347.65625,0.0
1734406858.4869251,431.15234375,501.953125,558.59375,538.0859375,0.0
1734406858.4908307,466.796875,285.15625,504.39453125,675.29296875,0.0
1734406858.4947362,421.38671875,-316.40625,383.30078125,644.53125,0.0
1734406858.4986417,371.09375,154.78515625,421.38671875,508.30078125,0.0
1734406858.5025473,352.5390625,558.10546875,416.9921875,458.984375,0.0
1734406858.5064588,382.32421875,591.796875,577.1484375,595.21484375,0.0
1734406858.5103643,425.29296875,844.23828125,653.80859375,726.5625,0.0
1734406858.5142698,405.2734375,984.375,591.30859375,697.75390625,0.0
1734406858.5181754,348.14453125,634.27734375,435.05859375,569.3359375,0.0
1734406858.522081,317.87109375,263.18359375,364.2578125,498.046875,0.0
1734406858.5259864,342.7734375,407.2265625,548.828125,605.95703125,0.0
1734406858.529892,367.67578125,639.6484375,611.328125,732.91015625,0.0
1734406858.5337975,333.49609375,547.8515625,542.48046875,709.9609375,0.0
1734406858.537703,265.13671875,345.21484375,446.77734375,551.7578125,0.0
1734406858.5416086,243.1640625,323.2421875,402.34375,451.66015625,0.0
1734406858.545514,281.73828125,638.18359375,558.59375,546.38671875,0.0
1734406858.5494196,315.91796875,736.81640625,637.20703125,693.84765625,0.0
1734406858.5533369,307.6171875,495.1171875,586.42578125,736.81640625,0.0
1734406858.5572424,270.01953125,659.66796875,541.015625,614.2578125,0.0
1734406858.561148,249.0234375,787.59765625,535.15625,517.578125,0.0
1734406858.5650535,285.15625,498.046875,554.19921875,643.5546875,0.0
1734406858.568959,364.2578125,288.0859375,660.64453125,831.0546875,0.0
1734406858.5728643,401.3671875,731.4453125,733.88671875,878.41796875,0.0
1734406858.5767698,354.00390625,753.41796875,636.23046875,770.01953125,0.0
1734406858.5806754,312.98828125,212.890625,545.8984375,671.875,0.0
1734406858.584581,357.91015625,279.296875,671.38671875,776.85546875,0.0
1734406858.5884864,442.87109375,990.72265625,826.66015625,936.03515625,0.0
1734406858.592392,481.4453125,961.42578125,805.6640625,977.5390625,0.0
1734406858.5962975,441.89453125,933.10546875,786.1328125,957.51953125,0.0
1734406858.6002274,420.41015625,949.21875,769.53125,922.8515625,0.0
1734406858.604133,482.91015625,955.078125,807.6171875,952.1484375,0.0
1734406858.6080384,572.75390625,967.28515625,847.16796875,975.5859375,0.0
1734406858.611944,608.88671875,951.66015625,842.28515625,967.28515625,0.0
1734406858.6158495,570.3125,961.42578125,839.35546875,970.21484375,0.0
1734406858.619755,551.26953125,965.33203125,824.70703125,969.7265625,0.0
1734406858.6236603,602.5390625,961.9140625,834.9609375,969.7265625,0.0
1734406858.6275659,671.875,951.66015625,852.05078125,969.7265625,0.0
1734406858.6314714,663.57421875,958.0078125,858.88671875,969.7265625,0.0
1734406858.635377,617.67578125,988.28125,858.88671875,969.7265625,0.0
1734406858.6392825,593.75,930.17578125,843.75,969.7265625,0.0
1734406858.643188,604.00390625,855.95703125,842.28515625,969.7265625,0.0
1734406858.647117,649.90234375,959.47265625,867.1875,969.7265625,0.0
1734406858.6510224,693.84765625,987.3046875,870.60546875,969.7265625,0.0
1734406858.654928,666.015625,912.59765625,854.98046875,969.7265625,0.0
1734406858.6588335,604.98046875,924.31640625,849.609375,969.7265625,0.0
1734406858.662739,596.19140625,976.5625,856.93359375,969.7265625,0.0
1734406858.6666446,627.44140625,973.6328125,870.1171875,969.7265625,0.0
1734406858.67055,655.2734375,930.17578125,862.79296875,969.7265625,0.0
1734406858.6744556,613.28125,934.08203125,861.81640625,969.7265625,0.0
1734406858.6783612,547.8515625,978.02734375,858.88671875,969.7265625,0.0
1734406858.6822667,530.2734375,968.26171875,855.95703125,969.7265625,0.0
1734406858.6861722,571.2890625,958.984375,863.28125,969.7265625,0.0
1734406858.6900778,583.984375,959.9609375,870.60546875,969.7265625,0.0
1734406858.6939871,524.90234375,976.5625,867.1875,969.7265625,0.0
1734406858.6978927,433.59375,965.33203125,851.07421875,969.7265625,0.0
1734406858.7017982,383.30078125,889.6484375,843.26171875,970.21484375,0.0
1734406858.7057037,372.0703125,932.6171875,857.91015625,970.21484375,0.0
1734406858.7096093,330.56640625,983.3984375,864.74609375,965.8203125,0.0
1734406858.7135148,272.4609375,975.09765625,844.23828125,974.609375,0.0
1734406858.7174203,150.87890625,678.22265625,802.734375,950.1953125,0.0
1734406858.7213259,47.36328125,639.6484375,800.29296875,841.30859375,0.0
1734406858.7252314,19.53125,977.5390625,831.54296875,813.96484375,0.0
1734406858.729137,-31.73828125,933.59375,824.21875,849.12109375,0.0
1734406858.7330425,-114.2578125,247.55859375,710.44921875,754.39453125,0.0
1734406858.736948,-243.1640625,86.42578125,618.65234375,476.5625,0.0
1734406858.7408752,-354.4921875,463.37890625,555.17578125,230.46875,0.0
1734406858.7447808,-380.37109375,145.99609375,477.5390625,197.265625,0.0
1734406858.7486863,-387.6953125,19.04296875,520.99609375,220.21484375,0.0
1734406858.7525918,-467.28515625,319.82421875,504.8828125,133.7890625,0.0
1734406858.7564974,-614.74609375,47.8515625,301.26953125,-107.91015625,0.0
1734406858.760403,-666.9921875,-674.8046875,-180.6640625,-292.96875,0.0
1734406858.7643085,-635.25390625,-981.4453125,-237.79296875,-267.578125,0.0
1734406858.768214,-578.61328125,-255.37109375,388.18359375,-142.578125,0.0
1734406858.7721195,-476.07421875,320.3125,516.6015625,-29.296875,0.0
1734406858.776025,-429.19921875,-341.30859375,234.86328125,-47.8515625,0.0
1734406858.7799306,-381.34765625,-724.12109375,206.0546875,-117.67578125,0.0
1734406858.7838361,-284.1796875,131.34765625,508.30078125,-40.0390625,0.0
1734406858.7877624,-196.77734375,609.375,643.5546875,147.94921875,0.0
1734406858.791668,-139.6484375,549.31640625,625.0,221.6796875,0.0
1734406858.7955735,-189.94140625,526.3671875,571.2890625,145.5078125,0.0
1734406858.799479,-220.703125,467.28515625,504.8828125,16.6015625,0.0
1734406858.8033845,-183.59375,404.296875,524.4140625,7.32421875,0.0
1734406858.80729,-128.90625,277.83203125,609.375,165.52734375,0.0
1734406858.8111956,-95.703125,464.35546875,652.83203125,260.25390625,0.0
1734406858.8151011,-145.99609375,722.16796875,617.1875,197.75390625,0.0
1734406858.8190067,-150.390625,341.30859375,508.30078125,91.30859375,0.0
1734406858.8229122,-104.00390625,166.015625,538.0859375,111.328125,0.0
1734406858.8268178,-48.33984375,713.37890625,712.890625,275.390625,0.0
1734406858.8307233,-22.4609375,-970.21484375,749.0234375,375.9765625,0.0
1734406858.8346364,-60.546875,597.16796875,593.26171875,321.77734375,0.0
1734406858.838542,-93.26171875,7.8125,479.4921875,177.24609375,0.0
1734406858.8424473,-128.41796875,223.6328125,542.96875,128.41796875,0.0
1734406858.8463528,-56.640625,770.5078125,699.70703125,255.859375,0.0
1734406858.8502584,-18.5546875,473.14453125,597.16796875,325.68359375,0.0
1734406858.854164,-125.48828125,-534.66796875,401.3671875,231.93359375,0.0
1734406858.8580694,-241.2109375,-402.34375,351.07421875,-13.671875,0.0
1734406858.861975,-352.5390625,47.36328125,285.64453125,-214.35546875,0.0
1734406858.8658805,-404.296875,-213.37890625,328.125,-200.68359375,0.0
1734406858.869786,-438.96484375,-404.296875,276.3671875,-190.91796875,0.0
1734406858.8736916,-547.8515625,-457.03125,-44.43359375,-352.5390625,0.0
1734406858.877597,-713.37890625,-769.04296875,-573.2421875,-682.12890625,0.0
1734406858.881509,-837.40234375,-1000.0,-889.16015625,-930.17578125,0.0
1734406858.8854146,-951.66015625,-994.62890625,-838.37890625,-989.74609375,0.0
1734406858.88932,-1000.0,-993.1640625,-878.41796875,-997.55859375,0.0
1734406858.8932254,-997.0703125,-1000.0,-997.0703125,-999.51171875,0.0
1734406858.897131,-1000.0,-1000.0,-1000.0,-1000.0,0.0
1734406858.9010365,-1000.0,-1000.0,-997.0703125,-1000.0,0.0
1734406858.904942,-1000.0,-1000.0,-1000.0,-1000.0,0.0
1734406858.9088476,-1000.0,-1000.0,-1000.0,-1000.0,0.0
1734406858.912753,-1000.0,-1000.0,-1000.0,-1000.0,0.0
1734406858.9166586,-1000.0,-1000.0,-1000.0,-1000.0,0.0
1734406858.9205642,-1000.0,-1000.0,-1000.0,-1000.0,0.0
1734406858.9244697,-1000.0,-1000.0,-1000.0,-1000.0,0.0
1734406858.9283872,-1000.0,-1000.0,-1000.0,-1000.0,0.0
1734406858.9322927,-1000.0,-1000.0,-1000.0,-1000.0,0.0
1734406858.9361982,-1000.0,-1000.0,-1000.0,-1000.0,0.0
1734406858.9401038,-1000.0,-1000.0,-1000.0,-1000.0,0.0
1734406858.9440093,-1000.0,-1000.0,-1000.0,-1000.0,0.0
1734406858.9479148,-1000.0,-1000.0,-1000.0,-1000.0,0.0
1734406858.9518204,-1000.0,-1000.0,-1000.0,-1000.0,0.0
1734406858.955726,-1000.0,-1000.0,-1000.0,-1000.0,0.0
1734406858.9596314,-1000.0,-1000.0,-1000.0,-1000.0,0.0
1734406858.963537,-994.140625,-1000.0,-1000.0,-1000.0,0.0
1734406858.9674425,-1000.0,-1000.0,-1000.0,-1000.0,0.0
1734406858.971348,-958.0078125,-1000.0,-1000.0,-1000.0,0.0
1734406858.9752586,-769.04296875,-1000.0,-1000.0,-1000.0,0.0
1734406858.9791641,-629.39453125,-1000.0,-1000.0,-1000.0,0.0
1734406858.9830697,-544.43359375,-1000.0,-1000.0,-1000.0,0.0
1734406858.9869752,-415.52734375,-1000.0,-1000.0,-1000.0,0.0
1734406858.9908807,-354.00390625,-1000.0,-1000.0,-1000.0,0.0
1734406858.9947863,-419.921875,-1000.0,-1000.0,-1000.0,0.0
1734406858.9986918,-546.875,-1000.0,-1000.0,-1000.0,0.0
1734406859.0025973,-653.80859375,-1000.0,-1000.0,-1000.0,0.0
1734406859.0065029,-705.078125,-1000.0,-1000.0,-1000.0,0.0
1734406859.0104084,-811.03515625,-1000.0,-1000.0,-1000.0,0.0
1734406859.014314,-955.56640625,-1000.0,-1000.0,-1000.0,0.0
1734406859.0182195,-1000.0,-1000.0,-1000.0,-1000.0,0.0
1734406859.0221288,-997.0703125,-1000.0,-1000.0,-1000.0,0.0
1734406859.0260344,-1000.0,-1000.0,-1000.0,-1000.0,0.0
1734406859.02994,-1000.0,-1000.0,-1000.0,-1000.0,0.0
1734406859.0338454,-1000.0,-1000.0,-1000.0,-1000.0,0.0
1734406859.037751,-998.046875,-1000.0,-1000.0,-1000.0,0.0
1734406859.0416565,-1000.0,-1000.0,-1000.0,-1000.0,0.0
1734406859.045562,-991.69921875,-1000.0,-1000.0,-1000.0,0.0
1734406859.0494676,-899.4140625,-1000.0,-1000.0,-1000.0,0.0
1734406859.053373,-787.109375,-1000.0,-1000.0,-1000.0,0.0
1734406859.0572786,-733.3984375,-1000.0,-1000.0,-1000.0,0.0
1734406859.0611842,-649.4140625,-1000.0,-1000.0,-1000.0,0.0
1734406859.0650897,-514.16015625,-1000.0,-1000.0,-1000.0,0.0
1734406859.0689983,-380.859375,-1000.0,-1000.0,-1000.0,0.0
1734406859.0729039,-288.0859375,-1000.0,-1000.0,-1000.0,0.0
1734406859.0768094,-262.6953125,-1000.0,-1000.0,-1000.0,0.0
1734406859.080715,-224.12109375,-1000.0,-1000.0,-997.0703125,0.0
1734406859.0846205,-163.57421875,-1000.0,-1000.0,-1000.0,0.0
1734406859.0885258,-107.421875,-1000.0,-1000.0,-983.88671875,0.0
1734406859.0924313,-45.8984375,-1000.0,-1000.0,-901.3671875,0.0
1734406859.0963368,-34.1796875,-1000.0,-1000.0,-941.89453125,0.0
1734406859.1002424,-17.08984375,-990.234375,-1000.0,-992.1875,0.0
1734406859.104148,33.203125,-1000.0,-1000.0,-842.7734375,0.0
1734406859.1080534,126.953125,-900.390625,-996.09375,-583.0078125,0.0
1734406859.111959,193.84765625,-711.42578125,-992.67578125,-422.36328125,0.0
1734406859.1158733,169.921875,-825.1953125,-999.0234375,-473.14453125,0.0
1734406859.1197789,174.8046875,-993.65234375,-1000.0,-527.34375,0.0
1734406859.1236844,231.93359375,-901.85546875,-988.28125,-412.109375,0.0
1734406859.12759,297.36328125,-532.2265625,-931.15234375,-185.05859375,0.0
1734406859.1314955,351.07421875,-425.78125,-937.98828125,-29.296875,0.0
1734406859.135401,327.1484375,-796.875,-984.375,-76.66015625,0.0
1734406859.1393065,262.6953125,-1000.0,-1000.0,-195.80078125,0.0
1734406859.143212,311.5234375,-869.62890625,-960.9375,-132.32421875,0.0
1734406859.1471176,402.83203125,-312.5,-836.42578125,82.03125,0.0
1734406859.1510231,435.546875,-554.6875,-857.421875,232.421875,0.0
1734406859.1549287,452.63671875,-904.78515625,-948.73046875,209.9609375,0.0
1734406859.1588342,427.24609375,-546.38671875,-935.05859375,94.23828125,0.0
1734406859.162754,453.125,-390.625,-909.1796875,157.71484375,0.0
1734406859.1666596,483.88671875,-270.99609375,-688.4765625,341.30859375,0.0
1734406859.1705651,495.60546875,52.734375,-528.3203125,433.10546875,0.0
1734406859.1744707,495.60546875,147.4609375,-656.73828125,416.015625,0.0
1734406859.1783762,485.3515625,-180.6640625,-812.01171875,316.40625,0.0
1734406859.1822817,503.41796875,-582.51953125,-854.4921875,317.87109375,0.0
1734406859.1861873,501.46484375,-244.62890625,-500.0,482.91015625,0.0
1734406859.1900928,592.28515625,357.91015625,-268.06640625,642.578125,0.0
1734406859.1939983,627.44140625,87.40234375,-539.0625,656.25,0.0
1734406859.1979039,484.86328125,-536.62109375,-768.5546875,480.46875,0.0
1734406859.2018094,446.77734375,-250.9765625,-663.0859375,391.6015625,0.0
1734406859.205715,513.18359375,344.7265625,-271.97265625,557.12890625,0.0
1734406859.2096276,550.78125,163.0859375,-231.4453125,708.0078125,0.0
1734406859.2135332,545.8984375,-312.98828125,-503.41796875,688.4765625,0.0
1734406859.2174387,444.3359375,-36.1328125,-461.9140625,506.8359375,0.0
1734406859.2213442,421.875,124.51171875,-526.85546875,424.8046875,0.0
1734406859.2252498,483.3984375,56.15234375,-290.52734375,577.1484375,0.0
1734406859.2291553,488.28125,-0.48828125,5.859375,735.3515625,0.0
1734406859.2330608,462.40234375,78.61328125,-98.6328125,749.0234375,0.0
1734406859.2369664,448.73046875,132.8125,-401.3671875,605.95703125,0.0
1734406859.240872,429.19921875,-212.40234375,-533.203125,492.1875,0.0
1734406859.2447774,407.2265625,-279.78515625,-261.23046875,581.0546875,0.0
1734406859.248683,453.125,220.703125,127.44140625,741.69921875,0.0
1734406859.2525885,468.26171875,467.7734375,131.34765625,790.0390625,0.0
1734406859.2565067,410.15625,-229.98046875,-294.43359375,658.69140625,0.0
1734406859.2604122,351.5625,-350.09765625,-439.453125,494.62890625,0.0
1734406859.2643178,344.7265625,285.15625,-87.40234375,553.7109375,0.0
1734406859.2682233,377.9296875,436.5234375,207.51953125,725.5859375,0.0
1734406859.2721288,408.203125,88.8671875,12.20703125,740.72265625,0.0
1734406859.2760344,354.98046875,-253.41796875,-283.203125,579.58984375,0.0
1734406859.27994,314.94140625,-132.8125,-383.7890625,458.49609375,0.0
1734406859.2838454,323.73046875,131.34765625,-111.81640625,508.7890625,0.0
1734406859.287751,361.328125,-157.71484375,174.8046875,658.203125,0.0
1734406859.2916565,382.32421875,83.0078125,238.76953125,689.94140625,0.0
1734406859.295562,351.07421875,486.328125,96.19140625,560.546875,0.0
1734406859.2994676,296.38671875,28.80859375,-317.3828125,420.41015625,0.0
1734406859.3033917,284.66796875,-29.296875,-177.24609375,435.546875,0.0
1734406859.3072972,380.859375,541.50390625,354.4921875,604.00390625,0.0
1734406859.3112028,438.96484375,705.078125,352.05078125,702.1484375,0.0
1734406859.3151083,374.0234375,211.42578125,58.59375,586.42578125,0.0
1734406859.3190138,337.890625,-29.78515625,-115.72265625,389.6484375,0.0
1734406859.3229194,342.28515625,57.12890625,30.2734375,373.53515625,0.0
1734406859.326825,361.81640625,219.7265625,304.19921875,530.76171875,0.0
1734406859.3307304,429.6875,240.72265625,322.75390625,636.23046875,0.0
1734406859.334636,432.6171875,268.5546875,235.3515625,569.82421875,0.0
1734406859.3385415,364.74609375,194.82421875,95.703125,386.71875,0.0
1734406859.342447,355.46875,108.3984375,99.609375,325.1953125,0.0
1734406859.3463526,419.43359375,-7.32421875,289.55078125,495.1171875,0.0
1734406859.3502629,478.02734375,132.32421875,379.39453125,625.48828125,0.0
1734406859.3541684,438.96484375,754.8828125,426.26953125,563.4765625,0.0
1734406859.3580737,398.4375,530.76171875,187.01171875,404.296875,0.0
1734406859.3619792,455.56640625,115.72265625,155.76171875,353.515625,0.0
1734406859.3658848,534.1796875,533.69140625,482.421875,544.921875,0.0
1734406859.3697903,573.2421875,770.5078125,507.8125,690.4296875,0.0
1734406859.3736959,541.50390625,430.6640625,388.18359375,647.4609375,0.0
1734406859.3776014,501.46484375,195.3125,285.15625,496.58203125,0.0
1734406859.381507,522.94921875,428.22265625,314.453125,446.77734375,0.0
1734406859.3854125,549.31640625,914.0625,522.4609375,584.9609375,0.0
1734406859.389318,595.21484375,785.15625,562.98828125,714.84375,0.0
1734406859.3932235,571.77734375,521.97265625,489.2578125,712.890625,0.0
1734406859.397139,551.26953125,662.109375,406.25,576.171875,0.0
1734406859.4010446,533.203125,770.99609375,373.53515625,477.05078125,0.0
1734406859.4049501,556.15234375,504.39453125,427.734375,605.46875,0.0
1734406859.4088557,579.1015625,233.3984375,501.953125,764.16015625,0.0
1734406859.4127612,548.828125,783.69140625,576.171875,752.44140625,0.0
1734406859.4166667,525.390625,719.7265625,421.875,595.21484375,0.0
1734406859.4205723,505.859375,-132.32421875,157.71484375,494.140625,0.0
1734406859.4244778,483.3984375,-81.0546875,331.54296875,580.078125,0.0
1734406859.4283834,490.72265625,856.93359375,625.0,682.6171875,0.0
1734406859.432289,495.1171875,753.41796875,512.20703125,703.61328125,0.0
1734406859.4361944,453.125,315.4296875,375.9765625,568.84765625,0.0
1734406859.4401,412.59765625,406.25,332.51953125,422.36328125,0.0
1734406859.4440415,381.8359375,804.19921875,476.07421875,467.28515625,0.0
1734406859.447947,427.24609375,888.671875,574.21875,622.0703125,0.0
1734406859.4518526,454.1015625,717.7734375,528.80859375,679.19921875,0.0
1734406859.455758,308.59375,705.078125,430.6640625,492.1875,0.0
1734406859.4596636,238.28125,610.3515625,301.7578125,328.61328125,0.0
1734406859.4635692,305.17578125,312.98828125,340.8203125,396.484375,0.0
1734406859.4674747,320.80078125,313.4765625,487.79296875,550.29296875,0.0
1734406859.4713802,357.91015625,696.2890625,537.59765625,619.140625,0.0
1734406859.4752858,289.0625,759.27734375,422.36328125,468.26171875,0.0
1734406859.4791913,179.6875,283.203125,221.6796875,268.06640625,0.0
1734406859.4830968,212.890625,-75.1953125,251.46484375,275.390625,0.0
1734406859.4870021,252.44140625,516.11328125,521.484375,430.6640625,0.0
1734406859.4909244,247.0703125,881.34765625,553.22265625,511.71875,0.0
1734406859.49483,216.30859375,218.26171875,244.140625,428.22265625,0.0
1734406859.4987354,123.046875,-187.98828125,82.03125,258.7890625,0.0
1734406859.502641,114.74609375,291.015625,283.203125,228.515625,0.0
1734406859.5065465,187.98828125,620.1171875,474.12109375,378.90625,0.0
1734406859.510452,160.15625,219.7265625,371.58203125,453.61328125,0.0
1734406859.5143576,134.765625,-1.953125,286.1328125,380.37109375,0.0
1734406859.518263,97.65625,263.671875,244.140625,207.51953125,0.0
1734406859.5221686,45.8984375,280.76171875,201.171875,153.3203125,0.0
1734406859.5260742,79.58984375,71.77734375,373.53515625,316.40625,0.0
1734406859.5299797,115.72265625,185.05859375,444.3359375,422.36328125,0.0
1734406859.5338852,133.30078125,544.921875,397.4609375,380.859375,0.0
1734406859.5377982,67.3828125,292.48046875,183.59375,217.7734375,0.0
1734406859.5417037,28.80859375,-140.13671875,119.62890625,132.32421875,0.0
1734406859.5456092,100.09765625,158.69140625,423.828125,260.7421875,0.0
1734406859.5495148,93.26171875,626.953125,514.16015625,379.8828125,0.0
1734406859.5534203,77.1484375,346.6796875,334.47265625,387.20703125,0.0
1734406859.5573258,36.62109375,-315.91796875,90.33203125,250.48828125,0.0
1734406859.5612314,13.18359375,-325.1953125,105.95703125,147.94921875,0.0
1734406859.565137,86.42578125,393.06640625,429.19921875,285.64453125,0.0
1734406859.5690424,118.65234375,470.21484375,468.75,430.17578125,0.0
1734406859.572948,98.14453125,-89.84375,373.046875,413.0859375,0.0
1734406859.5768535,32.2265625,-36.62109375,245.60546875,257.8125,0.0
1734406859.580759,-15.13671875,144.53125,179.19921875,140.625,0.0
1734406859.5846782,59.08203125,216.30859375,351.5625,260.25390625,0.0
1734406859.5885837,158.69140625,-529.296875,272.94921875,468.26171875,0.0
1734406859.5924892,130.859375,-581.54296875,304.6875,460.44921875,0.0
1734406859.5963948,26.3671875,337.40234375,344.7265625,252.9296875,0.0
1734406859.6003003,-6.34765625,97.16796875,125.0,129.8828125,0.0
1734406859.6042058,39.0625,-145.01953125,235.83984375,221.6796875,0.0
1734406859.6081114,89.84375,363.28125,483.88671875,370.1171875,0.0
1734406859.612017,125.9765625,622.0703125,494.140625,420.8984375,0.0
1734406859.6159225,78.61328125,-52.24609375,174.8046875,308.59375,0.0
1734406859.619828,20.99609375,-461.42578125,22.4609375,161.1328125,0.0
1734406859.6237335,67.3828125,222.65625,340.33203125,215.8203125,0.0
1734406859.627639,120.60546875,698.2421875,516.11328125,371.58203125,0.0
1734406859.6315508,108.3984375,260.25390625,424.8046875,404.296875,0.0
1734406859.6354563,37.109375,149.4140625,296.38671875,248.046875,0.0
1734406859.6393619,10.25390625,422.8515625,244.62890625,85.9375,0.0
1734406859.6432674,42.96875,401.85546875,311.5234375,166.015625,0.0
1734406859.647173,81.0546875,298.33984375,421.875,340.33203125,0.0
1734406859.6510785,108.88671875,241.69921875,439.453125,394.04296875,0.0
1734406859.654984,55.6640625,289.55078125,359.375,290.0390625,0.0
1734406859.6588895,30.76171875,157.71484375,178.7109375,129.8828125,0.0
1734406859.662795,70.80078125,-241.69921875,209.9609375,151.3671875,0.0
1734406859.6667006,104.00390625,298.828125,506.8359375,305.17578125,0.0
1734406859.6706061,104.4921875,789.0625,522.4609375,376.953125,0.0
1734406859.6745117,84.9609375,244.62890625,290.0390625,310.546875,0.0
1734406859.6784225,53.7109375,-375.48828125,143.5546875,142.08984375,0.0
1734406859.682328,79.58984375,95.21484375,342.28515625,138.18359375,0.0
1734406859.6862335,149.4140625,748.046875,540.52734375,350.09765625,0.0
1734406859.690139,149.4140625,581.0546875,475.09765625,443.84765625,0.0
1734406859.6940446,112.79296875,470.703125,423.828125,373.046875,0.0
1734406859.6979501,66.89453125,222.16796875,280.76171875,212.40234375,0.0
1734406859.7018557,64.94140625,98.14453125,257.32421875,166.9921875,0.0
1734406859.7057612,127.44140625,80.078125,440.91796875,330.56640625,0.0
1734406859.7096667,166.9921875,266.11328125,531.73828125,470.703125,0.0
1734406859.7135723,155.2734375,536.1328125,485.83984375,426.26953125,0.0
1734406859.7174778,98.14453125,276.85546875,326.171875,260.7421875,0.0
1734406859.7213833,119.140625,-128.41796875,245.1171875,228.02734375,0.0
1734406859.7253067,214.35546875,217.7734375,492.1875,405.76171875,0.0
1734406859.7292123,214.84375,981.4453125,681.15234375,555.6640625,0.0
1734406859.7331178,221.19140625,764.16015625,580.56640625,568.359375,0.0
1734406859.7370234,236.81640625,535.64453125,507.8125,435.546875,0.0
1734406859.740929,222.16796875,679.19921875,524.4140625,383.7890625,0.0
1734406859.7448344,312.98828125,811.03515625,668.9453125,593.26171875,0.0
1734406859.74874,406.73828125,889.6484375,751.46484375,788.0859375,0.0
1734406859.7526455,397.4609375,520.5078125,642.578125,824.70703125,0.0
1734406859.756551,347.16796875,556.640625,602.05078125,683.59375,0.0
1734406859.7604566,297.36328125,954.1015625,590.33203125,549.31640625,0.0
1734406859.764362,240.72265625,794.43359375,618.1640625,599.609375,0.0
1734406859.7682676,217.7734375,767.08984375,688.96484375,693.84765625,0.0
1734406859.7722027,179.19921875,935.546875,627.44140625,634.765625,0.0
1734406859.7761083,51.7578125,720.21484375,462.40234375,375.9765625,0.0
1734406859.7800138,-20.01953125,157.2265625,252.44140625,206.0546875,0.0
1734406859.7839193,-12.6953125,169.921875,375.9765625,281.73828125,0.0
1734406859.7878249,36.1328125,579.58984375,583.49609375,426.26953125,0.0
1734406859.7917304,31.73828125,416.9921875,514.6484375,458.49609375,0.0
1734406859.795636,-50.29296875,-20.01953125,332.03125,301.7578125,0.0
1734406859.7995415,-49.31640625,-166.9921875,275.87890625,165.52734375,0.0
1734406859.803447,14.16015625,307.12890625,466.30859375,235.83984375,0.0
1734406859.8073525,52.24609375,457.51953125,577.63671875,400.87890625,0.0
1734406859.811258,33.203125,186.03515625,551.26953125,473.6328125,0.0
1734406859.8151636,-10.7421875,255.859375,447.265625,336.9140625,0.0
1734406859.8190982,-20.99609375,356.4453125,348.14453125,173.828125,0.0
1734406859.8230038,-4.8828125,411.62109375,406.25,196.77734375,0.0
1734406859.8269093,49.8046875,-27.83203125,444.82421875,360.83984375,0.0
1734406859.8308148,10.7421875,32.2265625,486.81640625,406.73828125,0.0
1734406859.8347204,-18.5546875,492.1875,425.29296875,261.71875,0.0
1734406859.838626,-43.9453125,-56.15234375,160.15625,89.35546875,0.0
1734406859.8425314,-89.84375,-452.63671875,186.03515625,73.2421875,0.0
1734406859.846437,-83.0078125,102.5390625,462.40234375,200.68359375,0.0
1734406859.8503425,-56.15234375,425.29296875,483.3984375,264.16015625,0.0
1734406859.854248,-79.58984375,-67.87109375,253.41796875,171.38671875,0.0
1734406859.8581536,-170.8984375,-357.91015625,64.453125,-34.66796875,0.0
1734406859.862059,-186.03515625,-49.8046875,179.19921875,-91.796875,0.0
1734406859.865975,-120.1171875,376.953125,424.31640625,73.73046875,0.0
1734406859.8698804,-139.6484375,114.74609375,308.10546875,167.96875,0.0
1734406859.873786,-136.71875,-327.63671875,150.390625,104.98046875,0.0
1734406859.8776915,-167.48046875,-54.6875,128.41796875,-81.54296875,0.0
1734406859.881597,-207.03125,58.10546875,71.77734375,-147.4609375,0.0
1734406859.8855026,-142.578125,-315.4296875,176.7578125,28.3203125,0.0
1734406859.889408,-109.375,-286.1328125,301.7578125,138.18359375,0.0
1734406859.8933136,-120.1171875,228.515625,330.56640625,76.171875,0.0
1734406859.8972192,-172.8515625,85.9375,94.7265625,-93.26171875,0.0
1734406859.9011247,-218.26171875,-625.48828125,-260.7421875,-177.24609375,0.0
1734406859.9050303,-151.85546875,-427.734375,104.00390625,-23.92578125,0.0
1734406859.9089358,-84.9609375,221.6796875,441.40625,143.5546875,0.0
1734406859.9128556,-90.8203125,68.359375,245.60546875,125.9765625,0.0
1734406859.9167612,-91.796875,-450.68359375,-61.5234375,-23.92578125,0.0
1734406859.9206667,-125.48828125,-439.94140625,-48.33984375,-123.53515625,0.0
1734406859.9245722,-93.26171875,224.609375,333.984375,-10.25390625,0.0
1734406859.9284778,-33.69140625,364.2578125,411.1328125,154.78515625,0.0
1734406859.9323833,-64.94140625,-88.37890625,251.953125,163.57421875,0.0
1734406859.9362888,-107.421875,-253.90625,128.90625,7.8125,0.0
1734406859.9401944,-109.86328125,32.71484375,106.93359375,-118.1640625,0.0
1734406859.9441,-88.37890625,168.45703125,270.5078125,-2.9296875,0.0
1734406859.9480054,-21.97265625,-517.08984375,226.5625,194.3359375,0.0
1734406859.951911,7.8125,-968.26171875,149.4140625,222.65625,0.0
1734406859.9558165,-55.17578125,-190.91796875,194.82421875,46.875,0.0
1734406859.959729,-138.671875,-102.5390625,-39.0625,-129.39453125,0.0
1734406859.9636345,-167.48046875,-114.2578125,112.3046875,-60.546875,0.0
1734406859.96754,-102.05078125,283.69140625,352.05078125,117.67578125,0.0
1734406859.9714456,-54.6875,162.59765625,289.55078125,146.97265625,0.0
1734406859.975351,-127.44140625,-208.984375,3.41796875,-20.5078125,0.0
1734406859.9792566,-193.84765625,-570.80078125,-376.46484375,-209.9609375,0.0
1734406859.9831622,-187.01171875,-293.45703125,-75.68359375,-166.9921875,0.0
1734406859.9870677,-142.08984375,223.6328125,319.82421875,22.94921875,0.0
1734406859.990973,-104.00390625,87.890625,242.1875,86.9140625,0.0
1734406859.9948785,-142.08984375,-315.91796875,-9.27734375,-27.83203125,0.0
1734406859.998784,-191.89453125,-405.76171875,-326.66015625,-195.80078125,0.0
1734406860.0026896,-146.97265625,-216.30859375,-242.1875,-186.5234375,0.0
1734406860.0066013,-128.90625,-580.078125,10.25390625,0.0,0.0
1734406860.0105069,-120.60546875,-602.05078125,118.1640625,91.30859375,0.0
1734406860.0144124,-134.765625,138.18359375,154.296875,-18.5546875,0.0
1734406860.018318,-193.84765625,-110.83984375,-245.1171875,-184.08203125,0.0
1734406860.0222235,-200.1953125,-436.03515625,-347.65625,-213.37890625,0.0
1734406860.026129,-139.6484375,-234.375,101.5625,-57.6171875,0.0
1734406860.0300345,-126.953125,-90.33203125,221.19140625,49.31640625,0.0
1734406860.03394,-158.203125,-305.17578125,-122.55859375,-18.5546875,0.0
1734406860.0378456,-204.58984375,-664.0625,-446.77734375,-209.47265625,0.0
1734406860.0417511,-223.6328125,-438.96484375,-404.296875,-280.2734375,0.0
1734406860.0456567,-180.17578125,61.5234375,40.0390625,-118.65234375,0.0
1734406860.0495622,-159.66796875,-109.86328125,80.56640625,-2.9296875,0.0
1734406860.05348,-176.26953125,-538.57421875,-300.78125,-67.3828125,0.0
1734406860.0573854,-243.65234375,-391.11328125,-432.12890625,-273.4375,0.0
1734406860.061291,-267.578125,-216.796875,-466.796875,-362.3046875,0.0
1734406860.0651965,-217.28515625,-504.39453125,-363.28125,-202.63671875,0.0
1734406860.069102,-188.96484375,-590.33203125,-210.44921875,-90.33203125,0.0
1734406860.0730076,-208.984375,-380.859375,-277.83203125,-134.765625,0.0
1734406860.076913,-268.06640625,-683.10546875,-590.33203125,-330.078125,0.0
1734406860.0808187,-306.15234375,-965.33203125,-814.453125,-436.03515625,0.0
1734406860.0847242,-248.53515625,-776.85546875,-550.29296875,-279.78515625,0.0
1734406860.0886297,-220.21484375,-339.84375,-172.36328125,-160.15625,0.0
1734406860.0925353,-253.41796875,-504.8828125,-447.265625,-198.2421875,0.0
1734406860.0964408,-278.80859375,-764.6484375,-699.21875,-366.2109375,0.0
