timestamps,TP9,AF7,AF8,TP10,Right AUX
1734581776.0158427,-38.0859375,-17.578125,-329.1015625,-22.94921875,0.0
1734581776.0197482,-32.71484375,-23.92578125,116.69921875,-23.92578125,0.0
1734581776.023654,-30.76171875,-30.76171875,195.80078125,-33.69140625,0.0
1734581776.0275595,-34.1796875,-29.296875,-145.01953125,-39.55078125,0.0
1734581776.031465,-37.109375,-30.2734375,-213.37890625,-38.0859375,0.0
1734581776.0353787,-38.57421875,-32.2265625,34.66796875,-36.62109375,0.0
1734581776.0392842,-36.62109375,-34.1796875,140.13671875,-32.71484375,0.0
1734581776.0431898,-27.83203125,-32.2265625,-61.5234375,-32.71484375,0.0
1734581776.0470955,-28.3203125,-26.3671875,-9.27734375,-41.50390625,0.0
1734581776.051001,-35.64453125,-33.69140625,-12.6953125,-40.52734375,0.0
1734581776.0549066,-35.15625,-31.25,-280.2734375,-36.62109375,0.0
1734581776.0588124,-32.2265625,-21.484375,-455.56640625,-29.78515625,0.0
1734581776.062718,-30.2734375,-14.6484375,-76.66015625,-19.53125,0.0
1734581776.0666234,-42.48046875,-26.85546875,168.9453125,-41.9921875,0.0
1734581776.0705292,-46.875,-29.296875,-123.53515625,-55.6640625,0.0
1734581776.0744348,-44.43359375,-17.578125,-197.75390625,-49.31640625,0.0
1734581776.0783403,-40.52734375,-16.6015625,94.23828125,-40.0390625,0.0
1734581776.0822527,-33.69140625,-19.04296875,197.75390625,-29.78515625,0.0
1734581776.0861583,-32.2265625,-20.01953125,0.0,-37.109375,0.0
1734581776.090064,-35.64453125,-20.99609375,-227.5390625,-48.828125,0.0
1734581776.0939696,-27.34375,-21.97265625,-114.2578125,-42.48046875,0.0
1734581776.097875,-20.01953125,-28.3203125,102.5390625,-26.85546875,0.0
1734581776.101781,-24.90234375,-26.3671875,-9.765625,-21.97265625,0.0
1734581776.1056864,-36.1328125,-18.5546875,-239.2578125,-27.34375,0.0
1734581776.109592,-38.0859375,-19.53125,-312.98828125,-40.52734375,0.0
1734581776.1134977,-32.2265625,-30.2734375,-159.66796875,-46.875,0.0
1734581776.1174033,-34.66796875,-26.85546875,-77.1484375,-41.9921875,0.0
1734581776.121309,-29.296875,-19.53125,76.171875,-28.3203125,0.0
1734581776.1252146,-35.15625,-28.80859375,149.4140625,-28.3203125,0.0
1734581776.1291428,-48.828125,-28.80859375,-66.89453125,-45.8984375,0.0
1734581776.1330485,-44.921875,-24.90234375,-346.19140625,-40.52734375,0.0
1734581776.136954,-34.66796875,-31.73828125,-69.82421875,-29.78515625,0.0
1734581776.1408596,-23.92578125,-29.296875,203.125,-36.62109375,0.0
1734581776.1447654,-25.390625,-15.625,40.0390625,-34.66796875,0.0
1734581776.148671,-28.80859375,-15.13671875,-364.74609375,-36.1328125,0.0
1734581776.1525764,-29.78515625,-31.73828125,-429.19921875,-42.96875,0.0
1734581776.1564822,-35.15625,-40.52734375,3.90625,-39.0625,0.0
1734581776.1603878,-34.1796875,-37.109375,116.69921875,-43.9453125,0.0
1734581776.1642935,-32.2265625,-36.1328125,-370.1171875,-34.66796875,0.0
1734581776.168199,-31.25,-30.2734375,-179.6875,-30.76171875,0.0
1734581776.1721046,-29.296875,-21.97265625,39.55078125,-30.76171875,0.0
1734581776.1760294,-29.78515625,-29.296875,-58.59375,-25.390625,0.0
1734581776.179935,-32.2265625,-41.9921875,32.71484375,-34.1796875,0.0
1734581776.1838405,-26.3671875,-38.0859375,138.671875,-36.1328125,0.0
1734581776.1877463,-27.34375,-22.4609375,28.3203125,-38.0859375,0.0
1734581776.1916518,-27.34375,-23.92578125,-244.140625,-48.33984375,0.0
1734581776.1955574,-25.390625,-38.57421875,-353.02734375,-43.45703125,0.0
1734581776.1994631,-27.34375,-39.0625,-104.98046875,-41.50390625,0.0
1734581776.2033687,-35.15625,-32.2265625,8.7890625,-43.9453125,0.0
1734581776.2072742,-39.0625,-30.2734375,-250.9765625,-41.50390625,0.0
1734581776.21118,-40.52734375,-39.55078125,-302.734375,-41.9921875,0.0
1734581776.2150855,-35.64453125,-46.875,-81.0546875,-41.50390625,0.0
1734581776.218991,-25.390625,-38.0859375,165.0390625,-39.55078125,0.0
1734581776.2229087,-22.4609375,-26.3671875,-136.71875,-31.25,0.0
1734581776.2268143,-26.85546875,-23.92578125,-263.18359375,-35.15625,0.0
1734581776.23072,-31.73828125,-30.2734375,18.06640625,-49.31640625,0.0
1734581776.2346256,-24.90234375,-35.15625,-107.421875,-38.0859375,0.0
1734581776.238531,-25.87890625,-29.296875,-138.18359375,-29.78515625,0.0
1734581776.242437,-27.34375,-21.97265625,-5.37109375,-36.62109375,0.0
1734581776.2463424,-8.7890625,-15.13671875,-6.8359375,-38.0859375,0.0
1734581776.250248,-17.08984375,-21.97265625,-146.97265625,-41.50390625,0.0
1734581776.2541537,-27.83203125,-33.203125,-502.44140625,-38.57421875,0.0
1734581776.2580593,-36.62109375,-36.1328125,-44.43359375,-43.9453125,0.0
1734581776.2619648,-41.50390625,-32.2265625,266.6015625,-41.50390625,0.0
1734581776.2658706,-32.2265625,-40.0390625,31.73828125,-38.57421875,0.0
1734581776.269788,-27.83203125,-43.9453125,-200.68359375,-38.57421875,0.0
1734581776.2736936,-35.15625,-33.203125,-199.70703125,-41.9921875,0.0
1734581776.2775993,-29.296875,-27.83203125,58.10546875,-40.0390625,0.0
1734581776.2815049,-26.3671875,-33.203125,123.046875,-34.66796875,0.0
1734581776.2854106,-33.69140625,-45.8984375,13.671875,-40.0390625,0.0
1734581776.2893162,-30.2734375,-45.41015625,-272.94921875,-41.9921875,0.0
1734581776.2932217,-35.15625,-34.66796875,-321.2890625,-40.52734375,0.0
1734581776.2971275,-36.62109375,-32.71484375,-279.296875,-35.15625,0.0
1734581776.301033,-28.80859375,-33.203125,-155.2734375,-27.34375,0.0
1734581776.3049386,-26.85546875,-32.2265625,136.71875,-29.296875,0.0
1734581776.3088443,-32.2265625,-41.50390625,-12.20703125,-45.8984375,0.0
1734581776.3127499,-32.71484375,-42.48046875,-311.5234375,-49.31640625,0.0
1734581776.3166654,-38.0859375,-37.59765625,-62.5,-42.48046875,0.0
1734581776.320571,-46.875,-38.0859375,185.05859375,-52.734375,0.0
1734581776.3244767,-43.45703125,-37.109375,74.21875,-47.36328125,0.0
1734581776.3283823,-45.8984375,-45.41015625,-304.6875,-48.828125,0.0
1734581776.332288,-42.96875,-47.36328125,-326.171875,-59.08203125,0.0
1734581776.3361936,-31.73828125,-37.109375,-168.9453125,-47.36328125,0.0
1734581776.340099,-20.99609375,-29.296875,-76.171875,-33.69140625,0.0
1734581776.3440049,-15.13671875,-30.2734375,-356.93359375,-28.80859375,0.0
1734581776.3479104,-22.4609375,-27.34375,-205.56640625,-32.71484375,0.0
1734581776.351816,-28.80859375,-20.5078125,-26.85546875,-41.50390625,0.0
1734581776.3557217,-29.78515625,-23.92578125,-295.8984375,-44.921875,0.0
1734581776.3596272,-28.3203125,-26.3671875,-83.0078125,-31.25,0.0
1734581776.3635418,-27.34375,-23.4375,171.38671875,-32.71484375,0.0
1734581776.3674474,-47.8515625,-27.34375,59.5703125,-42.48046875,0.0
1734581776.3713531,-49.31640625,-39.0625,-222.16796875,-40.0390625,0.0
1734581776.3752587,-27.83203125,-33.203125,-177.734375,-36.1328125,0.0
1734581776.3791642,-24.4140625,-20.99609375,120.60546875,-35.64453125,0.0
1734581776.38307,-30.76171875,-20.5078125,47.36328125,-41.50390625,0.0
1734581776.3869755,-32.71484375,-18.06640625,-266.11328125,-42.48046875,0.0
1734581776.390881,-34.1796875,-21.97265625,-460.44921875,-36.62109375,0.0
1734581776.3947868,-34.1796875,-25.87890625,-104.00390625,-42.96875,0.0
1734581776.3986924,-25.87890625,-24.90234375,159.66796875,-36.1328125,0.0
1734581776.402598,-23.4375,-24.4140625,22.94921875,-33.203125,0.0
1734581776.4065037,-26.3671875,-34.66796875,2.44140625,-41.50390625,0.0
1734581776.410417,-30.2734375,-42.96875,-90.33203125,-40.52734375,0.0
1734581776.4143229,-29.78515625,-41.50390625,-310.546875,-37.59765625,0.0
1734581776.4182284,-28.80859375,-41.9921875,-249.0234375,-30.76171875,0.0
1734581776.422134,-28.80859375,-35.15625,96.19140625,-34.66796875,0.0
1734581776.4260397,-35.15625,-32.2265625,99.12109375,-50.78125,0.0
1734581776.4299452,-35.15625,-21.484375,-329.58984375,-53.7109375,0.0
1734581776.4338508,-31.25,-17.08984375,-588.8671875,-42.96875,0.0
1734581776.4377565,-41.50390625,-27.34375,-105.95703125,-43.45703125,0.0
1734581776.441662,-41.015625,-28.80859375,259.765625,-41.015625,0.0
1734581776.4455676,-20.01953125,-30.2734375,52.734375,-30.76171875,0.0
1734581776.4494734,-9.765625,-36.62109375,-221.6796875,-26.85546875,0.0
1734581776.453379,-30.2734375,-40.0390625,-138.18359375,-39.55078125,0.0
1734581776.4572911,-57.12890625,-34.1796875,120.60546875,-64.453125,0.0
1734581776.461197,-56.15234375,-32.2265625,108.88671875,-64.94140625,0.0
1734581776.4651024,-57.12890625,-37.109375,62.98828125,-67.3828125,0.0
1734581776.469008,-70.3125,-26.85546875,-99.609375,-81.54296875,0.0
1734581776.4729137,-70.80078125,-21.97265625,-320.3125,-75.68359375,0.0
1734581776.4768193,-65.91796875,-29.78515625,-340.8203125,-59.5703125,0.0
1734581776.480725,-62.01171875,-34.1796875,-318.359375,-46.38671875,0.0
1734581776.4846306,-62.01171875,-41.9921875,-42.48046875,-60.05859375,0.0
1734581776.4885361,-60.546875,-36.62109375,-30.2734375,-67.3828125,0.0
1734581776.492442,-51.7578125,-32.2265625,-270.99609375,-65.91796875,0.0
1734581776.4963474,-43.45703125,-31.73828125,-29.78515625,-56.640625,0.0
1734581776.500253,-40.0390625,-21.97265625,212.40234375,-44.921875,0.0
1734581776.5041733,-41.015625,-24.4140625,130.859375,-49.8046875,0.0
1734581776.5080788,-46.38671875,-32.2265625,-262.6953125,-53.22265625,0.0
1734581776.5119843,-41.015625,-21.97265625,-293.9453125,-50.29296875,0.0
1734581776.5158901,-29.78515625,-22.4609375,59.08203125,-40.0390625,0.0
1734581776.5197957,-36.62109375,-41.50390625,107.421875,-34.1796875,0.0
1734581776.5237012,-38.0859375,-41.50390625,-232.421875,-30.76171875,0.0
1734581776.527607,-34.66796875,-36.62109375,-366.69921875,-37.109375,0.0
1734581776.5315125,-33.203125,-33.69140625,-247.0703125,-37.59765625,0.0
1734581776.5354183,-33.203125,-22.4609375,-121.58203125,-33.69140625,0.0
1734581776.5393238,-34.1796875,-21.484375,-321.77734375,-26.3671875,0.0
1734581776.5432293,-38.0859375,-27.34375,-26.85546875,-37.59765625,0.0
1734581776.547135,-39.55078125,-25.390625,133.7890625,-53.22265625,0.0
1734581776.551054,-41.9921875,-20.99609375,-167.48046875,-55.6640625,0.0
1734581776.5549598,-38.0859375,-21.484375,-157.2265625,-57.12890625,0.0
1734581776.5588653,-27.83203125,-32.2265625,133.30078125,-43.9453125,0.0
1734581776.562771,-23.4375,-33.203125,182.12890625,-32.71484375,0.0
1734581776.5666766,-16.6015625,-25.87890625,-83.49609375,-34.1796875,0.0
1734581776.5705822,-16.11328125,-22.94921875,-360.3515625,-40.52734375,0.0
1734581776.574488,-8.30078125,-13.18359375,-358.88671875,-30.76171875,0.0
1734581776.5783935,-7.8125,-27.83203125,-114.74609375,-24.90234375,0.0
1734581776.582299,-26.3671875,-29.296875,-49.8046875,-32.2265625,0.0
1734581776.5862048,-32.71484375,-24.4140625,-223.6328125,-29.78515625,0.0
1734581776.5901103,-31.73828125,-25.87890625,-227.05078125,-32.71484375,0.0
1734581776.5940158,-30.76171875,-33.203125,-180.6640625,-36.62109375,0.0
1734581776.5979338,-23.92578125,-37.109375,-38.57421875,-31.73828125,0.0
1734581776.6018393,-20.99609375,-28.80859375,125.48828125,-26.85546875,0.0
1734581776.605745,-25.87890625,-28.80859375,135.7421875,-35.15625,0.0
1734581776.6096506,-27.83203125,-33.69140625,-51.7578125,-42.96875,0.0
1734581776.6135561,-24.4140625,-30.2734375,-297.8515625,-34.1796875,0.0
1734581776.617462,-24.4140625,-31.25,-182.6171875,-23.4375,0.0
1734581776.6213675,-29.296875,-38.57421875,145.01953125,-31.73828125,0.0
1734581776.6252732,-27.83203125,-33.203125,51.26953125,-34.1796875,0.0
1734581776.6291788,-16.6015625,-30.76171875,-519.04296875,-30.2734375,0.0
1734581776.6330843,-22.4609375,-34.1796875,-308.59375,-37.59765625,0.0
1734581776.63699,-27.34375,-29.78515625,146.484375,-38.57421875,0.0
1734581776.6408956,-20.5078125,-23.92578125,130.859375,-27.83203125,0.0
1734581776.6448119,-19.04296875,-21.484375,109.375,-28.80859375,0.0
1734581776.6487174,-18.5546875,-31.25,-119.140625,-28.3203125,0.0
1734581776.652623,-14.6484375,-30.76171875,-253.41796875,-16.6015625,0.0
1734581776.6565287,-9.27734375,-21.97265625,-12.20703125,-19.53125,0.0
1734581776.6604342,-27.83203125,-27.34375,152.34375,-36.1328125,0.0
1734581776.6643398,-37.109375,-27.83203125,8.30078125,-37.59765625,0.0
1734581776.6682456,-30.2734375,-30.2734375,-223.14453125,-38.57421875,0.0
1734581776.672151,-32.71484375,-39.55078125,-389.6484375,-33.69140625,0.0
1734581776.6760569,-36.1328125,-31.73828125,-240.234375,-25.390625,0.0
1734581776.6799624,-42.48046875,-22.94921875,201.171875,-28.80859375,0.0
1734581776.683868,-41.9921875,-24.90234375,188.96484375,-34.66796875,0.0
1734581776.6877737,-33.69140625,-20.5078125,-144.53125,-38.0859375,0.0
1734581776.6916895,-22.94921875,-16.11328125,-129.39453125,-34.1796875,0.0
1734581776.6955953,-20.5078125,-19.53125,114.2578125,-29.296875,0.0
1734581776.6995008,-21.97265625,-22.4609375,152.34375,-27.83203125,0.0
1734581776.7034063,-24.4140625,-30.76171875,25.390625,-20.99609375,0.0
1734581776.707312,-22.4609375,-29.296875,-48.828125,-17.08984375,0.0
1734581776.7112176,-21.484375,-20.01953125,-249.51171875,-26.85546875,0.0
1734581776.7151232,-33.69140625,-25.87890625,-306.15234375,-36.1328125,0.0
1734581776.719029,-40.52734375,-39.0625,-337.40234375,-33.69140625,0.0
1734581776.7229345,-41.9921875,-29.296875,21.97265625,-40.52734375,0.0
1734581776.72684,-42.96875,-20.99609375,180.17578125,-53.22265625,0.0
1734581776.7307458,-36.62109375,-30.2734375,-99.609375,-45.41015625,0.0
1734581776.7346513,-29.296875,-37.59765625,-120.60546875,-27.34375,0.0
1734581776.7385666,-29.296875,-38.57421875,144.04296875,-22.4609375,0.0
1734581776.7424722,-35.64453125,-38.0859375,210.9375,-30.2734375,0.0
1734581776.7463777,-36.1328125,-35.15625,-48.33984375,-35.15625,0.0
1734581776.7502835,-35.64453125,-43.45703125,-221.19140625,-41.50390625,0.0
1734581776.754189,-35.64453125,-36.62109375,-15.13671875,-37.109375,0.0
1734581776.7580945,-30.2734375,-22.94921875,79.1015625,-14.6484375,0.0
1734581776.7620003,-24.90234375,-27.83203125,-38.57421875,-5.37109375,0.0
1734581776.7659059,-31.73828125,-34.66796875,-322.75390625,-10.7421875,0.0
1734581776.7698116,-38.0859375,-32.2265625,-260.25390625,-32.71484375,0.0
1734581776.7737172,-29.296875,-23.4375,-20.01953125,-36.62109375,0.0
1734581776.7776227,-20.01953125,-21.484375,-18.06640625,-25.87890625,0.0
1734581776.7815285,-24.4140625,-28.80859375,81.0546875,-27.83203125,0.0
1734581776.7854424,-29.78515625,-35.15625,176.7578125,-23.4375,0.0
1734581776.789348,-34.1796875,-43.45703125,-2.44140625,-34.66796875,0.0
1734581776.7932534,-32.2265625,-36.62109375,-286.1328125,-32.71484375,0.0
1734581776.7971592,-19.53125,-24.4140625,-4.39453125,-24.90234375,0.0
1734581776.8010647,-21.484375,-29.78515625,239.74609375,-20.01953125,0.0
1734581776.8049705,-25.87890625,-32.2265625,-47.8515625,-23.4375,0.0
1734581776.808876,-15.625,-28.80859375,-540.52734375,-21.97265625,0.0
1734581776.8127816,-17.08984375,-28.3203125,-318.359375,-11.23046875,0.0
1734581776.8166873,-29.78515625,-28.80859375,154.78515625,-27.83203125,0.0
1734581776.8205929,-30.76171875,-37.59765625,138.18359375,-34.66796875,0.0
1734581776.8244984,-30.2734375,-42.48046875,-43.9453125,-39.0625,0.0
1734581776.8284042,-32.2265625,-41.015625,-170.8984375,-53.22265625,0.0
1734581776.8323162,-27.34375,-34.66796875,-154.296875,-55.6640625,0.0
1734581776.8362217,-26.3671875,-28.80859375,-10.25390625,-47.8515625,0.0
1734581776.8401275,-24.90234375,-32.71484375,113.76953125,-41.015625,0.0
1734581776.844033,-22.4609375,-42.48046875,160.15625,-25.87890625,0.0
1734581776.8479388,-35.15625,-43.9453125,47.36328125,-31.73828125,0.0
1734581776.8518443,-36.1328125,-37.59765625,-339.35546875,-37.59765625,0.0
1734581776.8557498,-24.90234375,-31.73828125,-303.22265625,-27.83203125,0.0
1734581776.8596556,-35.64453125,-34.1796875,59.5703125,-26.3671875,0.0
1734581776.8635612,-39.0625,-33.69140625,125.48828125,-30.76171875,0.0
1734581776.8674667,-35.15625,-37.59765625,-168.45703125,-41.9921875,0.0
1734581776.8713725,-37.59765625,-38.57421875,-252.9296875,-40.52734375,0.0
1734581776.875278,-39.55078125,-37.109375,19.53125,-38.0859375,0.0
1734581776.8791983,0.0,-38.57421875,0.0,-26.85546875,0.0
1734581776.8831038,0.0,-37.59765625,0.0,-15.625,0.0
1734581776.8870096,0.0,-31.25,0.0,-37.59765625,0.0
1734581776.8909152,0.0,-36.62109375,0.0,-63.96484375,0.0
1734581776.894821,0.0,-41.50390625,0.0,-52.24609375,0.0
1734581776.8987265,0.0,-37.59765625,0.0,-35.15625,0.0
1734581776.902632,0.0,-36.62109375,0.0,-48.33984375,0.0
1734581776.9065378,0.0,-47.8515625,0.0,-62.5,0.0
1734581776.9104433,0.0,-37.109375,0.0,-56.15234375,0.0
1734581776.9143488,0.0,-23.4375,0.0,-48.33984375,0.0
1734581776.9182546,0.0,-22.4609375,0.0,-43.45703125,0.0
1734581776.9221601,0.0,-24.4140625,0.0,-35.15625,0.0
1734581776.9260788,-57.6171875,-41.015625,-29.296875,-45.41015625,0.0
1734581776.9299843,-57.12890625,-46.38671875,-252.44140625,-61.03515625,0.0
1734581776.93389,-56.640625,-28.80859375,-190.91796875,-47.36328125,0.0
1734581776.9377956,-51.7578125,-22.4609375,101.07421875,-26.85546875,0.0
1734581776.9417012,-44.921875,-35.64453125,49.8046875,-29.78515625,0.0
1734581776.945607,-52.24609375,-34.1796875,-231.93359375,-36.62109375,0.0
1734581776.9495125,-57.12890625,-27.34375,-352.5390625,-42.48046875,0.0
1734581776.9534183,-51.7578125,-31.73828125,-316.89453125,-50.29296875,0.0
1734581776.9573238,-43.45703125,-33.69140625,-315.91796875,-39.0625,0.0
1734581776.9612293,-43.45703125,-36.1328125,-162.109375,-21.97265625,0.0
1734581776.965135,-41.9921875,-34.66796875,141.11328125,-37.59765625,0.0
1734581776.9690406,-41.50390625,-31.25,-19.04296875,-47.36328125,0.0
1734581776.972958,-43.9453125,-36.1328125,-333.49609375,-41.9921875,0.0
1734581776.9768636,-46.875,-46.38671875,-40.52734375,-45.41015625,0.0
1734581776.9807692,-49.8046875,-44.921875,209.9609375,-44.43359375,0.0
1734581776.984675,-54.6875,-39.55078125,74.70703125,-51.26953125,0.0
1734581776.9885805,-51.26953125,-46.875,-290.0390625,-52.24609375,0.0
1734581776.9924862,-42.96875,-39.55078125,-429.6875,-41.9921875,0.0
1734581776.9963918,-41.50390625,-32.2265625,-182.6171875,-41.50390625,0.0
1734581777.0002973,-43.9453125,-44.43359375,32.71484375,-33.203125,0.0
1734581777.004203,-43.45703125,-48.828125,-351.5625,-24.4140625,0.0
1734581777.0081086,-50.78125,-43.45703125,-229.98046875,-41.9921875,0.0
1734581777.0120142,-47.36328125,-35.15625,6.8359375,-49.8046875,0.0
1734581777.01592,-31.73828125,-28.3203125,-40.0390625,-32.71484375,0.0
1734581777.0198362,-27.83203125,-37.59765625,69.3359375,-34.1796875,0.0
1734581777.0237417,-37.109375,-44.921875,135.25390625,-46.875,0.0
1734581777.0276475,-37.109375,-38.57421875,55.17578125,-54.19921875,0.0
1734581777.031553,-34.1796875,-31.73828125,-174.31640625,-56.15234375,0.0
1734581777.0354586,-35.64453125,-25.390625,-169.921875,-57.6171875,0.0
1734581777.0393643,-30.2734375,-25.87890625,30.2734375,-39.0625,0.0
1734581777.0432699,-27.83203125,-29.78515625,21.97265625,-29.296875,0.0
1734581777.0471754,-29.78515625,-33.203125,-289.0625,-44.921875,0.0
1734581777.0510812,-25.390625,-36.62109375,-369.140625,-52.24609375,0.0
1734581777.0549867,-28.80859375,-33.203125,29.78515625,-42.48046875,0.0
1734581777.0588923,-34.1796875,-34.1796875,169.43359375,-42.96875,0.0
1734581777.062798,-33.69140625,-37.109375,-23.92578125,-52.24609375,0.0
1734581777.0667138,-33.69140625,-35.64453125,-14.6484375,-47.8515625,0.0
1734581777.0706193,-36.1328125,-41.9921875,41.015625,-49.8046875,0.0
1734581777.074525,-36.1328125,-44.43359375,-3.90625,-50.29296875,0.0
1734581777.0784307,-31.73828125,-42.96875,-27.34375,-49.31640625,0.0
1734581777.0823362,-30.2734375,-34.1796875,112.3046875,-46.38671875,0.0
1734581777.086242,-28.80859375,-27.34375,-44.921875,-48.33984375,0.0
1734581777.0901475,-25.87890625,-23.4375,-354.00390625,-54.19921875,0.0
1734581777.0940533,-33.69140625,-26.85546875,-518.5546875,-41.015625,0.0
1734581777.0979588,-38.0859375,-31.73828125,-101.5625,-33.203125,0.0
1734581777.1018643,-31.25,-34.66796875,241.2109375,-40.52734375,0.0
1734581777.10577,-29.78515625,-36.62109375,47.36328125,-46.38671875,0.0
1734581777.1096756,-33.69140625,-35.15625,-218.26171875,-49.8046875,0.0
1734581777.1135898,-31.73828125,-31.25,-184.5703125,-39.55078125,0.0
1734581777.1174955,-27.83203125,-25.390625,91.30859375,-41.9921875,0.0
1734581777.121401,-22.4609375,-27.34375,55.6640625,-47.8515625,0.0
1734581777.1253068,-18.5546875,-31.73828125,-1.953125,-36.1328125,0.0
1734581777.1292124,-27.83203125,-40.0390625,-53.22265625,-50.78125,0.0
1734581777.133118,-31.73828125,-36.62109375,-280.76171875,-60.546875,0.0
1734581777.1370237,-26.3671875,-24.4140625,-343.26171875,-41.9921875,0.0
1734581777.1409292,-20.5078125,-18.5546875,-216.796875,-26.85546875,0.0
1734581777.1448348,-22.94921875,-19.04296875,138.671875,-41.015625,0.0
1734581777.1487405,-23.92578125,-26.85546875,47.36328125,-46.38671875,0.0
1734581777.152646,-19.04296875,-25.87890625,-300.78125,-46.38671875,0.0
1734581777.1565516,-13.671875,-32.2265625,-51.26953125,-40.52734375,0.0
1734581777.1604652,-9.765625,-25.390625,233.88671875,-30.2734375,0.0
1734581777.1643708,-9.765625,-21.97265625,131.8359375,-32.71484375,0.0
1734581777.1682765,-5.859375,-19.04296875,-257.8125,-31.73828125,0.0
1734581777.172182,-10.7421875,-15.13671875,-276.85546875,-32.71484375,0.0
1734581777.1760876,-15.625,-21.484375,60.546875,-20.01953125,0.0
1734581777.1799934,-13.671875,-26.85546875,37.59765625,-13.18359375,0.0
1734581777.183899,-14.6484375,-28.3203125,-420.8984375,-14.6484375,0.0
1734581777.1878045,-5.859375,-22.4609375,-314.94140625,-12.20703125,0.0
1734581777.1917102,2.44140625,-29.78515625,59.08203125,-13.671875,0.0
1734581777.1956158,-14.6484375,-40.52734375,-11.23046875,-36.62109375,0.0
1734581777.1995213,-28.80859375,-33.69140625,5.37109375,-47.8515625,0.0
1734581777.203427,-30.2734375,-30.76171875,155.2734375,-45.8984375,0.0
1734581777.2073393,-28.3203125,-39.0625,62.98828125,-38.57421875,0.0
1734581777.2112448,-19.53125,-37.59765625,-211.9140625,-27.83203125,0.0
1734581777.2151506,-21.484375,-30.2734375,-181.15234375,-22.4609375,0.0
1734581777.2190561,-21.97265625,-27.34375,140.13671875,-22.4609375,0.0
1734581777.222962,-17.08984375,-27.83203125,170.41015625,-23.4375,0.0
1734581777.2268674,-24.90234375,-31.73828125,-205.56640625,-19.04296875,0.0
1734581777.230773,-25.390625,-27.34375,-394.53125,-10.7421875,0.0
1734581777.2346787,-19.04296875,-27.83203125,-230.95703125,-2.44140625,0.0
1734581777.2385843,-19.04296875,-37.109375,15.13671875,3.41796875,0.0
1734581777.2424898,-11.23046875,-39.55078125,53.22265625,8.7890625,0.0
1734581777.2463956,-3.41796875,-25.390625,18.06640625,8.7890625,0.0
1734581777.2503011,-14.6484375,-20.01953125,3.41796875,-1.46484375,0.0
1734581777.2542207,-20.01953125,-23.92578125,-37.109375,3.41796875,0.0
1734581777.2581265,-11.71875,-22.94921875,-95.703125,17.08984375,0.0
1734581777.262032,-8.7890625,-28.80859375,77.1484375,12.6953125,0.0
1734581777.2659376,-12.20703125,-33.203125,120.60546875,4.39453125,0.0
1734581777.2698433,-18.06640625,-33.203125,-42.96875,-5.859375,0.0
1734581777.2737489,-13.18359375,-33.203125,-393.5546875,1.46484375,0.0
1734581777.2776546,-10.25390625,-35.15625,-222.65625,2.9296875,0.0
1734581777.2815602,-7.8125,-29.296875,231.93359375,-3.90625,0.0
1734581777.2854657,-7.8125,-27.83203125,54.19921875,-2.9296875,0.0
1734581777.2893715,-9.27734375,-23.92578125,-489.74609375,-2.9296875,0.0
1734581777.293277,-3.90625,-14.6484375,-211.42578125,-7.32421875,0.0
1734581777.2971826,-3.41796875,-17.08984375,132.8125,3.90625,0.0
1734581777.3011012,-11.23046875,-22.4609375,30.2734375,0.9765625,0.0
1734581777.3050067,-19.53125,-24.4140625,55.17578125,-9.765625,0.0
1734581777.3089125,-11.23046875,-28.3203125,-16.6015625,-6.8359375,0.0
1734581777.312818,-5.859375,-32.2265625,-134.27734375,-15.13671875,0.0
1734581777.3167236,-5.859375,-30.76171875,-96.6796875,-11.23046875,0.0
1734581777.3206294,0.48828125,-25.390625,-18.06640625,3.41796875,0.0
1734581777.324535,-4.39453125,-24.4140625,-9.27734375,-4.8828125,0.0
1734581777.3284404,-12.6953125,-27.34375,-221.19140625,-17.578125,0.0
1734581777.3323462,-13.18359375,-29.296875,-423.33984375,-12.6953125,0.0
1734581777.3362517,-9.765625,-30.2734375,-234.375,2.44140625,0.0
1734581777.3401575,-7.8125,-34.66796875,195.3125,2.44140625,0.0
1734581777.344063,-3.90625,-32.71484375,185.05859375,-3.41796875,0.0
1734581777.3479805,-8.30078125,-27.83203125,-186.5234375,-5.859375,0.0
1734581777.351886,-12.6953125,-29.78515625,-212.40234375,-10.7421875,0.0
1734581777.3557916,-13.671875,-27.83203125,51.26953125,-11.71875,0.0
1734581777.3596973,-13.671875,-24.4140625,52.24609375,-5.859375,0.0
1734581777.3636029,-19.04296875,-26.85546875,-41.50390625,-14.6484375,0.0
1734581777.3675084,-22.94921875,-30.2734375,-212.890625,-23.92578125,0.0
1734581777.3714142,-25.87890625,-27.34375,-245.60546875,-39.55078125,0.0
1734581777.3753197,-26.85546875,-23.4375,-83.984375,-42.48046875,0.0
1734581777.3792255,-25.390625,-28.80859375,-297.36328125,-24.4140625,0.0
1734581777.383131,-27.83203125,-26.85546875,-11.71875,-22.4609375,0.0
1734581777.3870366,-23.92578125,-29.296875,170.8984375,-33.203125,0.0
1734581777.3909423,-25.390625,-38.0859375,-139.6484375,-34.66796875,0.0
1734581777.3948586,-37.59765625,-40.52734375,-160.64453125,-34.66796875,0.0
1734581777.3987644,-41.015625,-33.69140625,138.671875,-36.62109375,0.0
1734581777.40267,-41.50390625,-24.90234375,183.59375,-36.1328125,0.0
1734581777.4065754,-48.828125,-34.1796875,-4.8828125,-43.45703125,0.0
1734581777.4104812,-53.7109375,-39.55078125,-230.95703125,-52.734375,0.0
1734581777.4143867,-50.29296875,-30.76171875,-341.796875,-50.29296875,0.0
1734581777.4182923,-37.59765625,-27.83203125,-104.4921875,-37.59765625,0.0
1734581777.422198,-21.97265625,-30.2734375,-28.3203125,-25.390625,0.0
1734581777.4261036,-25.87890625,-36.1328125,-311.5234375,-23.92578125,0.0
1734581777.4300091,-32.2265625,-32.71484375,-166.015625,-37.109375,0.0
1734581777.433915,-27.34375,-31.73828125,-22.94921875,-46.875,0.0
1734581777.4378204,-24.4140625,-34.1796875,-40.0390625,-34.66796875,0.0
1734581777.4417355,-28.3203125,-31.73828125,99.609375,-24.90234375,0.0
1734581777.4456413,-34.1796875,-42.48046875,147.94921875,-34.66796875,0.0
1734581777.4495468,-30.2734375,-40.0390625,-47.36328125,-35.64453125,0.0
1734581777.4534523,-22.94921875,-28.80859375,-329.58984375,-25.390625,0.0
1734581777.4573581,-26.85546875,-33.203125,-25.390625,-30.2734375,0.0
1734581777.4612637,-38.0859375,-30.76171875,143.5546875,-40.0390625,0.0
1734581777.4651692,-44.921875,-36.1328125,-31.25,-47.36328125,0.0
1734581777.469075,-38.57421875,-32.71484375,-441.89453125,-40.0390625,0.0
1734581777.4729805,-38.57421875,-29.78515625,-292.48046875,-35.64453125,0.0
1734581777.4768863,-34.66796875,-45.41015625,102.5390625,-36.1328125,0.0
1734581777.4807918,-28.3203125,-45.41015625,155.2734375,-25.87890625,0.0
1734581777.4846973,-30.76171875,-37.59765625,104.00390625,-30.2734375,0.0
1734581777.4886122,-33.69140625,-33.69140625,43.9453125,-45.8984375,0.0
1734581777.492518,-37.109375,-20.99609375,15.625,-53.7109375,0.0
1734581777.4964235,-35.64453125,-20.99609375,45.8984375,-44.43359375,0.0
1734581777.5003293,-32.2265625,-29.78515625,174.31640625,-38.57421875,0.0
1734581777.5042348,-25.87890625,-29.296875,160.64453125,-33.69140625,0.0
1734581777.5081403,-27.34375,-23.4375,-117.1875,-32.71484375,0.0
1734581777.512046,-38.0859375,-21.97265625,-430.6640625,-28.3203125,0.0
1734581777.5159516,-41.9921875,-20.99609375,-382.32421875,-10.25390625,0.0
1734581777.5198572,-33.203125,-18.06640625,125.0,-20.5078125,0.0
1734581777.523763,-38.0859375,-22.94921875,210.44921875,-35.15625,0.0
1734581777.5276685,-37.59765625,-27.34375,-126.953125,-37.59765625,0.0
1734581777.5315742,-30.2734375,-29.296875,-190.4296875,-40.52734375,0.0
1734581777.5354874,-38.57421875,-31.25,-51.26953125,-33.69140625,0.0
1734581777.5393932,-31.25,-24.4140625,124.51171875,-22.4609375,0.0
1734581777.5432987,-25.87890625,-21.484375,58.59375,-27.83203125,0.0
1734581777.5472043,-31.25,-24.90234375,22.94921875,-37.109375,0.0
1734581777.55111,-21.484375,-24.4140625,19.04296875,-34.1796875,0.0
1734581777.5550156,-24.4140625,-25.390625,-224.609375,-29.78515625,0.0
1734581777.558921,-27.34375,-34.1796875,-397.94921875,-15.13671875,0.0
1734581777.5628269,-29.296875,-34.66796875,22.4609375,-21.484375,0.0
1734581777.5667324,-41.015625,-39.0625,186.5234375,-39.0625,0.0
1734581777.5706382,-36.1328125,-39.0625,-126.953125,-31.25,0.0
1734581777.5745437,-29.296875,-26.85546875,-151.3671875,-24.90234375,0.0
1734581777.5784492,-33.203125,-22.94921875,149.4140625,-24.90234375,0.0
1734581777.5823617,-29.78515625,-26.85546875,214.84375,-22.94921875,0.0
1734581777.5862675,-19.53125,-27.83203125,60.05859375,-20.99609375,0.0
1734581777.590173,-22.4609375,-34.1796875,-218.26171875,-33.69140625,0.0
1734581777.5940785,-36.62109375,-47.36328125,-289.0625,-44.43359375,0.0
1734581777.5979843,-41.50390625,-44.921875,89.84375,-43.45703125,0.0
1734581777.6018898,-34.66796875,-36.1328125,53.22265625,-33.203125,0.0
1734581777.6057954,-29.78515625,-33.203125,-228.515625,-22.4609375,0.0
1734581777.6097012,-32.71484375,-28.80859375,-276.85546875,-25.87890625,0.0
1734581777.6136067,-29.296875,-31.25,-132.32421875,-31.25,0.0
1734581777.6175125,-21.484375,-34.66796875,25.390625,-23.92578125,0.0
1734581777.621418,-26.3671875,-27.83203125,88.8671875,-23.4375,0.0
1734581777.6253235,-38.57421875,-23.92578125,160.15625,-36.62109375,0.0
1734581777.6292434,-39.55078125,-25.87890625,-16.6015625,-49.8046875,0.0
1734581777.6331491,-37.59765625,-34.1796875,-351.5625,-47.36328125,0.0
1734581777.6370547,-39.0625,-35.15625,-36.62109375,-39.55078125,0.0
1734581777.6409605,-38.0859375,-33.69140625,269.53125,-36.62109375,0.0
1734581777.644866,-33.69140625,-36.62109375,99.12109375,-36.1328125,0.0
1734581777.6487715,-31.25,-32.71484375,-384.765625,-40.52734375,0.0
1734581777.6526773,-47.8515625,-37.109375,-421.38671875,-50.29296875,0.0
1734581777.6565828,-51.7578125,-44.921875,-36.1328125,-51.26953125,0.0
1734581777.6604884,-39.55078125,-39.55078125,131.8359375,-45.41015625,0.0
1734581777.6643941,-42.48046875,-33.203125,-299.8046875,-41.9921875,0.0
1734581777.6682997,-42.96875,-30.76171875,-170.8984375,-48.828125,0.0
1734581777.6722054,-37.109375,-30.76171875,39.0625,-50.78125,0.0
1734581777.676124,-34.1796875,-31.73828125,26.3671875,-42.48046875,0.0
1734581777.6800296,-31.25,-35.64453125,136.23046875,-34.1796875,0.0
1734581777.6839354,-34.66796875,-35.64453125,140.13671875,-39.0625,0.0
1734581777.687841,-34.1796875,-26.85546875,21.484375,-42.96875,0.0
1734581777.6917465,-35.64453125,-31.25,-222.16796875,-44.43359375,0.0
1734581777.6956522,-43.9453125,-38.0859375,-279.78515625,-51.26953125,0.0
1734581777.6995578,-40.0390625,-37.59765625,-9.765625,-51.26953125,0.0
1734581777.7034636,-30.76171875,-41.50390625,85.44921875,-44.43359375,0.0
1734581777.707369,-30.2734375,-37.59765625,-183.59375,-38.0859375,0.0
1734581777.7112746,-30.2734375,-37.109375,-442.87109375,-24.4140625,0.0
1734581777.7151804,-38.57421875,-49.31640625,-125.0,-29.78515625,0.0
1734581777.719086,-34.1796875,-32.2265625,193.359375,-38.0859375,0.0
1734581777.7230036,-28.80859375,-20.99609375,42.96875,-32.71484375,0.0
1734581777.7269094,-39.0625,-41.50390625,-14.6484375,-54.19921875,0.0
1734581777.730815,-39.55078125,-40.52734375,-9.27734375,-70.3125,0.0
1734581777.7347207,-42.96875,-25.87890625,-11.71875,-57.6171875,0.0
1734581777.7386262,-40.0390625,-25.87890625,8.30078125,-42.48046875,0.0
1734581777.7425318,-39.55078125,-32.71484375,-13.671875,-41.9921875,0.0
1734581777.7464375,-44.43359375,-32.2265625,6.34765625,-41.9921875,0.0
1734581777.750343,-37.109375,-22.94921875,-50.29296875,-38.57421875,0.0
1734581777.7542486,-26.85546875,-23.92578125,-440.4296875,-28.3203125,0.0
1734581777.7581544,-32.71484375,-26.85546875,-47.36328125,-23.4375,0.0
1734581777.76206,-27.34375,-24.4140625,276.3671875,-24.90234375,0.0
1734581777.7659657,-20.01953125,-23.92578125,28.3203125,-31.73828125,0.0
1734581777.7698848,-34.66796875,-25.390625,-265.625,-44.921875,0.0
1734581777.7737904,-38.0859375,-27.34375,-255.859375,-41.50390625,0.0
1734581777.777696,-30.76171875,-32.2265625,88.8671875,-24.4140625,0.0
1734581777.7816017,-33.203125,-31.73828125,165.52734375,-30.2734375,0.0
1734581777.7855072,-36.1328125,-33.203125,56.640625,-45.8984375,0.0
1734581777.789413,-35.64453125,-36.62109375,-273.4375,-47.8515625,0.0
1734581777.7933185,-34.66796875,-29.78515625,-336.42578125,-46.38671875,0.0
1734581777.797224,-32.2265625,-25.390625,-287.59765625,-32.2265625,0.0
1734581777.8011298,-38.57421875,-32.71484375,-187.01171875,-28.3203125,0.0
1734581777.8050354,-47.36328125,-27.83203125,145.5078125,-40.0390625,0.0
1734581777.808941,-47.36328125,-28.3203125,9.27734375,-49.8046875,0.0
1734581777.8128467,-49.31640625,-36.62109375,-255.859375,-51.26953125,0.0
1734581777.816762,-43.9453125,-38.57421875,6.8359375,-46.38671875,0.0
1734581777.8206675,-37.59765625,-37.109375,242.67578125,-37.59765625,0.0
1734581777.8245733,-37.59765625,-35.64453125,102.05078125,-33.69140625,0.0
1734581777.8284788,-37.109375,-39.55078125,-327.63671875,-38.57421875,0.0
1734581777.8323846,-25.87890625,-37.109375,-411.62109375,-36.1328125,0.0
1734581777.8362901,-21.484375,-32.2265625,-191.89453125,-37.109375,0.0
1734581777.8401957,-37.59765625,-33.69140625,-7.8125,-38.0859375,0.0
1734581777.8441014,-44.43359375,-28.80859375,-317.3828125,-34.1796875,0.0
1734581777.848007,-40.0390625,-23.4375,-311.03515625,-47.36328125,0.0
1734581777.8519125,-37.59765625,-31.73828125,6.34765625,-57.12890625,0.0
1734581777.8558183,-47.36328125,-31.25,22.4609375,-48.33984375,0.0
1734581777.8597238,-49.8046875,-21.97265625,55.17578125,-42.96875,0.0
1734581777.8636382,-48.33984375,-21.484375,151.85546875,-38.57421875,0.0
1734581777.8675437,-49.8046875,-27.83203125,80.56640625,-45.41015625,0.0
1734581777.8714495,-51.7578125,-34.1796875,-122.0703125,-53.7109375,0.0
1734581777.875355,-51.26953125,-33.203125,-137.6953125,-42.96875,0.0
1734581777.8792605,-41.9921875,-33.69140625,128.90625,-48.828125,0.0
1734581777.8831663,-38.0859375,-34.1796875,101.07421875,-51.7578125,0.0
1734581777.8870718,-35.64453125,-26.85546875,-240.234375,-40.52734375,0.0
1734581777.8909776,-33.203125,-19.53125,-591.30859375,-36.1328125,0.0
1734581777.8948832,-39.55078125,-22.94921875,-189.94140625,-40.0390625,0.0
1734581777.8987887,-42.48046875,-43.45703125,192.87109375,-43.9453125,0.0
1734581777.9026945,-41.50390625,-43.9453125,77.63671875,-46.38671875,0.0
1734581777.9066,-46.38671875,-24.90234375,12.6953125,-49.31640625,0.0
1734581777.9105136,-42.48046875,-33.69140625,-3.90625,-52.24609375,0.0
1734581777.9144194,-16.6015625,-49.31640625,27.34375,-21.484375,0.0
1734581777.918325,-14.16015625,-34.66796875,8.7890625,-13.18359375,0.0
1734581777.9222307,-49.8046875,-22.94921875,147.4609375,-53.22265625,0.0
1734581777.9261363,-49.31640625,-27.83203125,100.5859375,-64.94140625,0.0
1734581777.9300418,-38.57421875,-26.85546875,-270.5078125,-58.10546875,0.0
1734581777.9339476,-57.12890625,-26.3671875,-572.265625,-73.73046875,0.0
1734581777.937853,-70.3125,-26.85546875,-157.2265625,-85.9375,0.0
1734581777.9417586,-70.80078125,-32.2265625,249.51171875,-89.84375,0.0
1734581777.9456644,-78.125,-41.50390625,12.20703125,-105.46875,0.0
1734581777.94957,-78.125,-37.59765625,-290.52734375,-106.93359375,0.0
1734581777.9534757,-77.63671875,-35.15625,-104.4921875,-107.421875,0.0
1734581777.9573882,-67.87109375,-37.109375,151.85546875,-104.00390625,0.0
1734581777.9612937,-53.22265625,-33.203125,148.92578125,-90.33203125,0.0
1734581777.9651995,-64.453125,-52.24609375,76.171875,-99.609375,0.0
1734581777.969105,-71.77734375,-53.22265625,4.39453125,-108.3984375,0.0
1734581777.9730108,-65.91796875,-34.66796875,-17.578125,-98.14453125,0.0
1734581777.9769163,-57.6171875,-29.296875,-168.9453125,-80.56640625,0.0
1734581777.9808218,-49.31640625,-23.4375,-164.0625,-64.94140625,0.0
1734581777.9847276,-51.7578125,-31.73828125,-23.92578125,-73.2421875,0.0
1734581777.9886332,-52.734375,-47.36328125,-27.83203125,-84.47265625,0.0
1734581777.9925387,-46.38671875,-35.15625,-172.8515625,-75.1953125,0.0
1734581777.9964445,-44.43359375,-20.5078125,6.8359375,-60.546875,0.0
1734581778.00035,-47.36328125,-23.4375,243.65234375,-53.7109375,0.0
1734581778.0042703,-51.7578125,-46.875,129.8828125,-78.61328125,0.0
1734581778.0081758,-50.29296875,-53.7109375,-262.6953125,-91.30859375,0.0
1734581778.0120814,-41.9921875,-36.62109375,-304.6875,-81.0546875,0.0
1734581778.0159872,-37.59765625,-31.73828125,74.70703125,-68.84765625,0.0
1734581778.0198927,-38.57421875,-37.59765625,167.96875,-58.10546875,0.0
1734581778.0237985,-31.73828125,-41.015625,-200.1953125,-43.9453125,0.0
1734581778.027704,-34.66796875,-36.1328125,-361.81640625,-48.33984375,0.0
1734581778.0316095,-38.57421875,-37.109375,-124.51171875,-65.4296875,0.0
1734581778.0355153,-30.76171875,-38.57421875,-41.015625,-53.22265625,0.0
1734581778.0394208,-27.34375,-35.64453125,-317.3828125,-36.1328125,0.0
1734581778.0433264,-35.64453125,-36.62109375,-35.64453125,-35.15625,0.0
1734581778.0472322,-33.203125,-35.15625,89.84375,-40.52734375,0.0
1734581778.0511506,-22.4609375,-36.62109375,-188.96484375,-44.921875,0.0
1734581778.055056,-20.99609375,-36.1328125,-169.43359375,-40.52734375,0.0
1734581778.0589619,-26.3671875,-38.57421875,140.13671875,-41.015625,0.0
1734581778.0628674,-27.34375,-41.9921875,131.8359375,-42.48046875,0.0
1734581778.066773,-28.3203125,-35.64453125,-170.8984375,-44.921875,0.0
1734581778.0706787,-30.2734375,-26.85546875,-367.67578125,-45.8984375,0.0
1734581778.0745842,-26.85546875,-30.76171875,-327.1484375,-32.71484375,0.0
1734581778.07849,-28.80859375,-42.96875,-19.04296875,-30.76171875,0.0
1734581778.0823956,-26.3671875,-38.0859375,-20.01953125,-35.15625,0.0
1734581778.086301,-20.5078125,-28.80859375,-222.16796875,-31.25,0.0
1734581778.0902069,-31.73828125,-33.69140625,0.0,-43.45703125,0.0
1734581778.0941124,-35.15625,-37.59765625,43.9453125,-52.24609375,0.0
1734581778.09803,0.0,-36.62109375,-39.55078125,-49.8046875,0.0
1734581778.1019359,0.0,-41.9921875,107.91015625,-47.36328125,0.0
1734581778.1058414,0.0,-36.62109375,153.80859375,-40.52734375,0.0
1734581778.1097472,0.0,-35.15625,-34.66796875,-49.31640625,0.0
1734581778.1136527,0.0,-41.015625,-334.47265625,-54.6875,0.0
1734581778.1175582,0.0,-34.1796875,-247.55859375,-41.50390625,0.0
1734581778.121464,0.0,-37.59765625,79.58984375,-34.1796875,0.0
1734581778.1253695,0.0,-44.921875,-18.06640625,-36.1328125,0.0
1734581778.1292753,0.0,-34.1796875,-517.08984375,-45.41015625,0.0
1734581778.1331809,0.0,-26.3671875,-278.3203125,-67.3828125,0.0
1734581778.1370864,0.0,-22.94921875,198.73046875,-57.12890625,0.0
1734581778.1409922,0.0,-19.53125,146.484375,-38.57421875,0.0
1734581778.1449087,-26.85546875,-30.76171875,16.6015625,-47.8515625,0.0
1734581778.1488144,-27.34375,-36.1328125,37.59765625,-47.8515625,0.0
1734581778.15272,-24.4140625,-38.57421875,0.0,-43.9453125,0.0
1734581778.1566257,-28.3203125,-40.0390625,23.4375,-41.50390625,0.0
1734581778.1605313,-27.83203125,-28.80859375,130.37109375,-40.0390625,0.0
1734581778.1644368,-21.484375,-18.5546875,39.0625,-32.71484375,0.0
1734581778.1683426,-15.13671875,-23.4375,-246.58203125,-33.203125,0.0
1734581778.1722481,-17.08984375,-34.66796875,-421.38671875,-39.55078125,0.0
1734581778.1761537,-25.87890625,-34.66796875,-285.15625,-21.484375,0.0
1734581778.1800594,-27.34375,-17.578125,168.9453125,-20.99609375,0.0
1734581778.183965,-24.4140625,-14.6484375,129.39453125,-32.71484375,0.0
1734581778.1878707,-26.85546875,-27.34375,-286.1328125,-39.55078125,0.0
1734581778.191786,-26.85546875,-28.80859375,-228.515625,-45.41015625,0.0
1734581778.1956916,-21.97265625,-20.99609375,104.98046875,-40.52734375,0.0
1734581778.1995971,-20.5078125,-20.01953125,148.4375,-29.296875,0.0
1734581778.203503,-14.6484375,-27.34375,-13.18359375,-25.87890625,0.0
1734581778.2074084,-17.08984375,-29.78515625,-35.15625,-34.66796875,0.0
1734581778.2113142,-25.390625,-25.390625,-254.8828125,-41.50390625,0.0
1734581778.2152197,-23.92578125,-24.90234375,-323.73046875,-30.2734375,0.0
1734581778.2191253,-25.390625,-22.4609375,-321.2890625,-16.6015625,0.0
1734581778.223031,-35.64453125,-23.4375,-2.44140625,-35.15625,0.0
1734581778.2269366,-35.64453125,-24.90234375,175.78125,-38.0859375,0.0
1734581778.2308424,-36.1328125,-27.83203125,-145.99609375,-36.1328125,0.0
1734581778.234748,-36.1328125,-37.109375,-153.3203125,-44.43359375,0.0
1734581778.2386625,-27.83203125,-33.69140625,152.83203125,-35.64453125,0.0
1734581778.2425683,-27.34375,-31.25,152.83203125,-30.2734375,0.0
1734581778.2464738,-38.0859375,-33.203125,-73.2421875,-33.69140625,0.0
1734581778.2503793,-36.1328125,-31.73828125,-189.453125,-36.1328125,0.0
1734581778.254285,-24.4140625,-31.73828125,-75.1953125,-37.109375,0.0
1734581778.2581906,-22.94921875,-31.25,60.05859375,-25.87890625,0.0
1734581778.2620964,-26.3671875,-35.64453125,-46.38671875,-17.578125,0.0
1734581778.266002,-32.71484375,-35.15625,-371.58203125,-34.1796875,0.0
1734581778.2699075,-39.55078125,-24.90234375,-114.74609375,-52.734375,0.0
1734581778.2738132,-41.9921875,-29.296875,66.89453125,-50.78125,0.0
1734581778.2777188,-42.48046875,-38.0859375,-15.13671875,-41.015625,0.0
1734581778.2816246,-41.015625,-30.76171875,127.44140625,-39.0625,0.0
1734581778.285538,-41.015625,-28.3203125,166.50390625,-46.875,0.0
1734581778.2894435,-42.48046875,-35.64453125,-17.578125,-52.734375,0.0
1734581778.2933493,-41.50390625,-41.015625,-274.90234375,-41.9921875,0.0
1734581778.2972548,-34.66796875,-50.78125,8.7890625,-32.71484375,0.0
1734581778.3011606,-27.83203125,-37.109375,202.1484375,-34.1796875,0.0
1734581778.305066,-26.85546875,-20.01953125,-72.75390625,-35.64453125,0.0
1734581778.3089716,-31.73828125,-21.484375,-511.23046875,-39.0625,0.0
1734581778.3128774,-40.0390625,-27.83203125,-336.42578125,-46.875,0.0
1734581778.316783,-35.64453125,-26.85546875,153.3203125,-43.45703125,0.0
1734581778.3206887,-27.83203125,-28.3203125,125.0,-36.1328125,0.0
1734581778.3245943,-25.87890625,-30.2734375,-232.421875,-36.62109375,0.0
1734581778.3284998,-32.71484375,-31.73828125,-103.515625,-46.38671875,0.0
1734581778.3324118,-37.59765625,-33.203125,40.0390625,-44.43359375,0.0
1734581778.3363175,-31.25,-34.1796875,-3.41796875,-34.66796875,0.0
1734581778.340223,-26.85546875,-33.203125,65.91796875,-33.69140625,0.0
1734581778.3441286,-31.25,-33.203125,159.66796875,-34.1796875,0.0
1734581778.3480344,-30.2734375,-37.59765625,15.625,-42.96875,0.0
1734581778.35194,-24.4140625,-28.3203125,-360.3515625,-43.45703125,0.0
1734581778.3558455,-23.4375,-19.04296875,-264.6484375,-29.78515625,0.0
1734581778.3597512,-24.90234375,-20.01953125,66.40625,-24.4140625,0.0
1734581778.3636568,-28.3203125,-26.85546875,42.96875,-28.80859375,0.0
1734581778.3675625,-28.80859375,-27.34375,-136.71875,-32.71484375,0.0
1734581778.371468,-26.85546875,-22.4609375,-216.796875,-35.15625,0.0
1734581778.3753736,-28.3203125,-27.83203125,14.16015625,-37.59765625,0.0
1734581778.379302,-26.85546875,-32.2265625,147.4609375,-31.25,0.0
1734581778.3832076,-22.4609375,-39.0625,44.921875,-30.76171875,0.0
1734581778.3871133,-14.6484375,-38.57421875,20.99609375,-34.1796875,0.0
1734581778.3910189,-21.97265625,-35.64453125,-33.69140625,-31.25,0.0
1734581778.3949244,-38.0859375,-35.64453125,-21.97265625,-32.71484375,0.0
1734581778.3988302,-41.015625,-40.0390625,-169.921875,-31.73828125,0.0
1734581778.4027357,-30.76171875,-41.9921875,-53.22265625,-22.4609375,0.0
1734581778.4066412,-25.390625,-32.2265625,156.25,-20.5078125,0.0
1734581778.410547,-31.73828125,-36.62109375,-89.84375,-41.9921875,0.0
1734581778.4144526,-32.71484375,-44.43359375,-474.609375,-39.0625,0.0
1734581778.4183583,-31.25,-37.59765625,-47.36328125,-18.06640625,0.0
1734581778.4222639,-34.1796875,-40.0390625,188.96484375,-24.4140625,0.0
1734581778.4261825,0.0,-41.50390625,0.0,-48.828125,0.0
1734581778.4300883,0.0,-37.59765625,0.0,-55.6640625,0.0
1734581778.4339938,0.0,-37.59765625,0.0,-53.22265625,0.0
1734581778.4378996,0.0,-29.78515625,0.0,-32.2265625,0.0
1734581778.4418051,0.0,-25.87890625,0.0,-18.5546875,0.0
1734581778.4457107,0.0,-29.78515625,0.0,-24.4140625,0.0
1734581778.4496164,0.0,-32.2265625,0.0,-23.92578125,0.0
1734581778.453522,0.0,-28.3203125,0.0,-37.59765625,0.0
1734581778.4574275,0.0,-26.3671875,0.0,-50.78125,0.0
1734581778.4613333,0.0,-23.92578125,0.0,-36.62109375,0.0
1734581778.4652388,0.0,-19.04296875,0.0,-34.66796875,0.0
1734581778.4691446,0.0,-27.34375,0.0,-39.55078125,0.0
1734581778.473062,-33.69140625,-41.015625,-371.09375,-35.64453125,0.0
1734581778.4769678,-29.78515625,-34.66796875,-241.2109375,-25.87890625,0.0
1734581778.4808733,-25.390625,-23.92578125,130.859375,-29.296875,0.0
1734581778.4847791,-23.4375,-26.85546875,128.90625,-39.55078125,0.0
1734581778.4886847,-28.80859375,-34.1796875,-200.68359375,-39.55078125,0.0
1734581778.4925902,-38.0859375,-48.33984375,-413.0859375,-42.48046875,0.0
1734581778.496496,-42.48046875,-49.31640625,-95.21484375,-39.0625,0.0
1734581778.5004015,-34.66796875,-38.57421875,143.06640625,-29.296875,0.0
1734581778.5043073,-25.87890625,-35.15625,-324.70703125,-29.296875,0.0
1734581778.5082128,-30.2734375,-27.83203125,-214.84375,-39.55078125,0.0
1734581778.5121183,-34.66796875,-23.4375,78.61328125,-49.8046875,0.0
1734581778.516024,-28.3203125,-24.4140625,19.04296875,-38.57421875,0.0
1734581778.5199406,-24.4140625,-27.83203125,67.87109375,-29.78515625,0.0
1734581778.5238461,-33.203125,-30.2734375,159.1796875,-39.0625,0.0
1734581778.5277517,-35.64453125,-31.73828125,83.0078125,-43.45703125,0.0
1734581778.5316575,-32.2265625,-36.1328125,-174.8046875,-36.1328125,0.0
1734581778.535563,-28.3203125,-38.57421875,-163.0859375,-30.76171875,0.0
1734581778.5394688,-27.34375,-37.109375,64.453125,-30.76171875,0.0
1734581778.5433743,-27.34375,-40.0390625,85.9375,-37.59765625,0.0
1734581778.5472798,-30.2734375,-39.55078125,-208.984375,-36.1328125,0.0
1734581778.5511856,-38.0859375,-31.25,-436.03515625,-29.78515625,0.0
1734581778.5550911,-40.0390625,-26.3671875,1.953125,-40.52734375,0.0
1734581778.5589967,-42.96875,-30.76171875,199.70703125,-35.64453125,0.0
1734581778.5629025,-36.62109375,-37.109375,40.52734375,-25.87890625,0.0
1734581778.566819,0.0,-32.2265625,20.5078125,-34.66796875,0.0
1734581778.5707245,0.0,-25.390625,21.484375,-32.2265625,0.0
1734581778.5746303,0.0,-29.78515625,-9.765625,-26.85546875,0.0
1734581778.5785358,0.0,-39.55078125,-20.5078125,-29.296875,0.0
1734581778.5824413,0.0,-37.109375,123.046875,-30.76171875,0.0
1734581778.586347,0.0,-28.80859375,-64.94140625,-39.55078125,0.0
1734581778.5902526,0.0,-25.87890625,-341.30859375,-41.015625,0.0
1734581778.5941582,0.0,-35.64453125,-540.52734375,-29.78515625,0.0
1734581778.598064,0.0,-36.1328125,-224.609375,-27.34375,0.0
1734581778.6019695,0.0,-30.2734375,248.046875,-37.109375,0.0
1734581778.6058753,0.0,-29.296875,74.70703125,-38.57421875,0.0
1734581778.6097808,0.0,-31.73828125,-157.2265625,-40.0390625,0.0
1734581778.6137044,-43.9453125,-34.1796875,-9.765625,-37.59765625,0.0
1734581778.61761,-39.0625,-30.76171875,149.90234375,-33.203125,0.0
1734581778.6215155,-27.83203125,-29.78515625,135.25390625,-28.3203125,0.0
1734581778.6254213,-30.76171875,-31.25,88.37890625,-33.69140625,0.0
1734581778.6293268,-41.50390625,-29.78515625,-10.7421875,-41.9921875,0.0
1734581778.6332326,-39.55078125,-25.390625,-229.00390625,-41.50390625,0.0
1734581778.6371381,-39.55078125,-29.296875,-320.3125,-32.2265625,0.0
1734581778.6410437,-38.0859375,-28.80859375,-271.484375,-23.92578125,0.0
1734581778.6449494,-32.2265625,-31.25,96.19140625,-36.62109375,0.0
1734581778.648855,-32.71484375,-40.52734375,65.4296875,-38.57421875,0.0
1734581778.6527607,-31.25,-38.57421875,-222.65625,-30.76171875,0.0
1734581778.6566663,-29.78515625,-31.73828125,-94.7265625,-30.2734375,0.0
1734581778.66058,-35.64453125,-27.83203125,168.45703125,-33.203125,0.0
1734581778.6644855,-40.52734375,-29.296875,158.69140625,-35.15625,0.0
1734581778.6683912,-33.203125,-39.55078125,-206.0546875,-36.1328125,0.0
1734581778.6722968,-30.2734375,-37.59765625,-180.6640625,-38.57421875,0.0
1734581778.6762025,-33.69140625,-27.83203125,114.74609375,-33.203125,0.0
1734581778.680108,-20.5078125,-27.34375,55.6640625,-17.08984375,0.0
1734581778.6840136,-12.6953125,-31.25,-58.59375,-13.18359375,0.0
1734581778.6879194,-20.01953125,-35.64453125,-19.04296875,-27.34375,0.0
1734581778.691825,-19.53125,-28.80859375,32.2265625,-39.0625,0.0
1734581778.6957307,-17.578125,-29.296875,17.08984375,-31.73828125,0.0
1734581778.6996362,-12.6953125,-35.64453125,-292.96875,-15.13671875,0.0
1734581778.7035418,-13.671875,-32.2265625,-21.97265625,-25.87890625,0.0
1734581778.707454,-20.5078125,-28.80859375,147.94921875,-37.109375,0.0
1734581778.7113595,-16.11328125,-28.80859375,-147.4609375,-32.2265625,0.0
1734581778.7152653,-8.7890625,-32.71484375,-232.91015625,-27.83203125,0.0
1734581778.7191708,-12.6953125,-41.50390625,37.109375,-25.390625,0.0
1734581778.7230766,-22.4609375,-40.0390625,188.96484375,-35.15625,0.0
1734581778.726982,-25.87890625,-29.78515625,-158.69140625,-38.57421875,0.0
1734581778.7308877,-21.484375,-20.01953125,-435.05859375,-26.85546875,0.0
1734581778.7347934,-18.5546875,-19.53125,-258.30078125,-27.83203125,0.0
1734581778.738699,-19.04296875,-20.99609375,104.00390625,-27.34375,0.0
1734581778.7426047,-7.8125,-19.53125,93.75,-19.04296875,0.0
1734581778.7465103,-15.13671875,-21.484375,9.765625,-17.578125,0.0
1734581778.7504158,-31.25,-31.25,6.34765625,-28.80859375,0.0
1734581778.7543359,-30.2734375,-39.0625,-35.64453125,-30.2734375,0.0
1734581778.7582417,-33.69140625,-39.0625,-29.296875,-24.4140625,0.0
1734581778.7621472,-36.62109375,-40.52734375,114.74609375,-32.2265625,0.0
1734581778.766053,-41.9921875,-41.015625,135.7421875,-42.48046875,0.0
1734581778.7699585,-44.43359375,-31.73828125,-53.7109375,-47.8515625,0.0
1734581778.773864,-40.0390625,-26.85546875,-386.71875,-37.109375,0.0
1734581778.7777698,-43.9453125,-26.85546875,-253.90625,-29.78515625,0.0
1734581778.7816753,-41.50390625,-32.71484375,163.0859375,-36.62109375,0.0
1734581778.785581,-34.66796875,-38.57421875,96.19140625,-45.8984375,0.0
1734581778.7894866,-33.203125,-30.2734375,-472.65625,-41.9921875,0.0
1734581778.7933922,-42.96875,-31.25,-212.890625,-42.48046875,0.0
1734581778.797298,-39.55078125,-36.62109375,206.54296875,-37.109375,0.0
1734581778.801217,-23.92578125,-24.90234375,99.12109375,-35.15625,0.0
1734581778.8051226,-30.2734375,-30.2734375,-31.25,-41.9921875,0.0
1734581778.8090281,-32.2265625,-45.8984375,-20.99609375,-38.57421875,0.0
1734581778.812934,-30.2734375,-38.57421875,-13.671875,-44.921875,0.0
1734581778.8168395,-34.1796875,-33.203125,-19.04296875,-43.45703125,0.0
1734581778.8207452,-21.97265625,-22.94921875,-7.32421875,-20.5078125,0.0
1734581778.8246508,-18.5546875,-25.390625,9.765625,-28.3203125,0.0
1734581778.8285563,-33.203125,-42.96875,-223.14453125,-51.7578125,0.0
1734581778.832462,-32.2265625,-34.1796875,-450.1953125,-43.45703125,0.0
1734581778.8363676,-33.69140625,-28.80859375,-274.4140625,-29.296875,0.0
1734581778.8402731,-43.9453125,-33.69140625,193.84765625,-44.921875,0.0
1734581778.844179,-41.9921875,-28.80859375,182.6171875,-53.7109375,0.0
1734581778.8480968,-34.1796875,-35.15625,0.0,-49.31640625,0.0
1734581778.8520024,-30.2734375,-43.45703125,0.0,-50.29296875,0.0
1734581778.8559082,-26.3671875,-36.1328125,0.0,-42.48046875,0.0
1734581778.8598137,-28.80859375,-31.25,0.0,-34.1796875,0.0
1734581778.8637195,-35.15625,-34.66796875,0.0,-35.15625,0.0
1734581778.867625,-27.83203125,-32.71484375,0.0,-35.15625,0.0
1734581778.8715305,-31.73828125,-28.3203125,0.0,-42.96875,0.0
1734581778.8754363,-38.0859375,-27.83203125,0.0,-41.50390625,0.0
1734581778.8793418,-28.3203125,-36.1328125,0.0,-10.7421875,0.0
1734581778.8832474,-21.484375,-34.66796875,0.0,-10.7421875,0.0
1734581778.8871531,-42.48046875,-37.59765625,0.0,-46.38671875,0.0
1734581778.8910587,-38.0859375,-37.109375,0.0,-49.8046875,0.0
1734581778.8949757,-20.01953125,-30.76171875,-298.33984375,-34.1796875,0.0
1734581778.8988812,-24.90234375,-32.71484375,119.62890625,-34.1796875,0.0
1734581778.902787,-22.94921875,-30.2734375,225.09765625,-31.73828125,0.0
1734581778.9066925,-18.5546875,-25.87890625,-6.8359375,-31.73828125,0.0
1734581778.9105983,-31.25,-31.25,-206.54296875,-48.828125,0.0
1734581778.9145038,-34.66796875,-43.9453125,-296.38671875,-51.7578125,0.0
1734581778.9184093,-24.4140625,-41.015625,-83.49609375,-41.015625,0.0
1734581778.9223151,-26.85546875,-28.80859375,-29.296875,-32.71484375,0.0
1734581778.9262207,-29.296875,-26.3671875,-299.31640625,-31.73828125,0.0
1734581778.9301262,-27.34375,-24.4140625,-52.24609375,-49.31640625,0.0
1734581778.934032,-24.4140625,-29.78515625,69.3359375,-47.36328125,0.0
1734581778.9379375,-28.80859375,-39.55078125,18.06640625,-35.15625,0.0
1734581778.941853,-35.15625,-38.0859375,146.97265625,-38.0859375,0.0
1734581778.9457586,-29.296875,-35.64453125,176.7578125,-38.57421875,0.0
1734581778.9496644,-27.34375,-31.73828125,-27.83203125,-41.50390625,0.0
1734581778.95357,-27.34375,-29.78515625,-320.80078125,-40.52734375,0.0
1734581778.9574754,-24.4140625,-38.57421875,-39.55078125,-36.62109375,0.0
1734581778.9613812,-24.4140625,-36.1328125,142.578125,-32.71484375,0.0
1734581778.9652867,-31.73828125,-38.0859375,-18.5546875,-39.0625,0.0
1734581778.9691925,-30.76171875,-30.2734375,-492.67578125,-42.96875,0.0
1734581778.973098,-30.76171875,-20.5078125,-339.84375,-37.59765625,0.0
1734581778.9770036,-25.87890625,-23.4375,162.59765625,-35.64453125,0.0
1734581778.9809093,-23.4375,-24.90234375,153.80859375,-33.69140625,0.0
1734581778.984815,-28.80859375,-28.3203125,79.58984375,-36.62109375,0.0
1734581778.9887297,-30.76171875,-32.71484375,38.0859375,-36.62109375,0.0
1734581778.9926355,-21.484375,-25.87890625,12.6953125,-25.390625,0.0
1734581778.996541,-22.94921875,-27.83203125,55.17578125,-29.296875,0.0
1734581779.0004466,-29.296875,-33.203125,167.96875,-39.0625,0.0
1734581779.0043523,-24.4140625,-25.390625,132.8125,-35.15625,0.0
1734581779.0082579,-29.78515625,-18.06640625,-195.3125,-41.9921875,0.0
1734581779.0121634,-35.64453125,-19.53125,-403.3203125,-39.0625,0.0
1734581779.0160692,-26.3671875,-20.5078125,-408.69140625,-26.85546875,0.0
1734581779.0199747,-25.390625,-19.53125,46.38671875,-30.2734375,0.0
1734581779.0238805,-25.87890625,-20.01953125,220.703125,-26.3671875,0.0
1734581779.027786,-12.6953125,-24.90234375,-144.53125,-27.34375,0.0
1734581779.0316916,-10.25390625,-35.64453125,-205.078125,-29.78515625,0.0
1734581779.0356052,-14.6484375,-36.1328125,66.89453125,-31.25,0.0
1734581779.0395107,-11.23046875,-30.76171875,167.48046875,-33.69140625,0.0
1734581779.0434165,-12.20703125,-27.83203125,21.484375,-30.76171875,0.0
1734581779.047322,-22.94921875,-32.2265625,7.32421875,-33.203125,0.0
1734581779.0512278,-26.3671875,-40.52734375,3.90625,-37.109375,0.0
1734581779.0551333,-23.92578125,-35.64453125,-180.6640625,-41.015625,0.0
1734581779.0590389,-28.3203125,-25.87890625,-360.3515625,-31.73828125,0.0
1734581779.0629447,-33.69140625,-23.92578125,-41.50390625,-29.296875,0.0
1734581779.0668502,-35.64453125,-29.296875,182.6171875,-43.9453125,0.0
1734581779.070756,-30.2734375,-36.62109375,-178.7109375,-46.38671875,0.0
1734581779.0746615,-22.4609375,-39.0625,-190.4296875,-34.1796875,0.0
1734581779.078567,-25.87890625,-33.69140625,143.5546875,-27.34375,0.0
1734581779.0824792,-27.34375,-20.99609375,206.0546875,-25.87890625,0.0
1734581779.0863848,-27.34375,-22.4609375,8.30078125,-38.57421875,0.0
1734581779.0902903,-36.62109375,-32.2265625,-208.49609375,-54.19921875,0.0
1734581779.094196,-39.55078125,-33.69140625,-24.90234375,-54.6875,0.0
1734581779.0981016,-33.69140625,-27.83203125,192.3828125,-43.9453125,0.0
1734581779.1020074,-23.92578125,-21.484375,40.0390625,-27.34375,0.0
1734581779.105913,-26.85546875,-32.2265625,-264.16015625,-28.80859375,0.0
1734581779.1098185,-28.3203125,-28.80859375,-296.875,-48.33984375,0.0
1734581779.1137242,-30.76171875,-16.11328125,-120.60546875,-51.7578125,0.0
1734581779.1176298,-28.3203125,-11.71875,29.296875,-35.64453125,0.0
1734581779.1215355,-25.390625,-11.23046875,137.6953125,-26.85546875,0.0
1734581779.125441,-34.1796875,-19.53125,181.15234375,-40.0390625,0.0
1734581779.129361,-39.55078125,-32.2265625,-89.35546875,-47.8515625,0.0
1734581779.1332667,-38.0859375,-33.203125,-338.37890625,-37.59765625,0.0
1734581779.1371722,-41.015625,-30.76171875,11.23046875,-36.62109375,0.0
1734581779.141078,-38.57421875,-34.66796875,253.41796875,-36.62109375,0.0
1734581779.1449835,-31.73828125,-23.4375,101.5625,-33.69140625,0.0
1734581779.148889,-31.73828125,-23.4375,-400.87890625,-41.9921875,0.0
1734581779.1527948,-39.0625,-35.64453125,-438.96484375,-42.96875,0.0
1734581779.1567004,-41.50390625,-27.83203125,103.02734375,-40.0390625,0.0
1734581779.1606061,-37.109375,-26.85546875,187.5,-39.0625,0.0
1734581779.1645117,-39.0625,-31.73828125,-369.140625,-35.15625,0.0
1734581779.1684172,-43.9453125,-38.0859375,-203.125,-39.55078125,0.0
1734581779.172323,-38.57421875,-41.9921875,101.5625,-40.52734375,0.0
1734581779.1762412,-36.1328125,-37.109375,20.99609375,-26.85546875,0.0
1734581779.1801467,-38.0859375,-35.15625,82.03125,-23.4375,0.0
1734581779.1840525,-38.0859375,-31.73828125,173.828125,-30.76171875,0.0
1734581779.187958,-37.59765625,-28.80859375,-1.46484375,-34.66796875,0.0
1734581779.1918638,-47.36328125,-29.296875,-321.77734375,-46.38671875,0.0
1734581779.1957693,-50.78125,-34.1796875,-235.83984375,-46.38671875,0.0
1734581779.1996748,-44.921875,-43.45703125,81.0546875,-30.2734375,0.0
1734581779.2035806,-37.109375,-42.48046875,96.6796875,-30.76171875,0.0
1734581779.2074862,-34.1796875,-31.25,-222.16796875,-39.55078125,0.0
1734581779.2113917,-38.57421875,-32.2265625,-371.58203125,-36.62109375,0.0
1734581779.2152975,-39.55078125,-43.9453125,32.71484375,-32.71484375,0.0
1734581779.219203,-34.66796875,-34.66796875,181.640625,-26.3671875,0.0
1734581779.2231202,-30.2734375,-20.99609375,31.25,-24.4140625,0.0
1734581779.227026,-40.52734375,-25.390625,0.0,-31.73828125,0.0
1734581779.2309315,-51.7578125,-30.76171875,19.53125,-49.8046875,0.0
1734581779.2348373,-45.8984375,-30.2734375,21.484375,-50.29296875,0.0
1734581779.2387428,-40.52734375,-28.3203125,-20.99609375,-33.203125,0.0
1734581779.2426484,-39.55078125,-32.2265625,21.97265625,-29.296875,0.0
1734581779.2465541,-42.96875,-41.50390625,1.953125,-33.203125,0.0
1734581779.2504597,-44.43359375,-36.62109375,-269.53125,-41.015625,0.0
1734581779.2543654,-42.96875,-33.69140625,-524.4140625,-43.9453125,0.0
1734581779.258271,-39.0625,-29.296875,-51.7578125,-36.62109375,0.0
1734581779.2621765,-46.875,-26.3671875,269.04296875,-38.0859375,0.0
1734581779.2660823,-45.8984375,-37.109375,20.01953125,-44.921875,0.0
1734581779.2699993,-43.9453125,-37.59765625,-169.921875,-49.31640625,0.0
1734581779.2739048,-46.38671875,-31.73828125,-29.296875,-49.8046875,0.0
1734581779.2778103,-47.8515625,-31.73828125,139.6484375,-44.921875,0.0
1734581779.281716,-49.8046875,-32.71484375,146.484375,-37.59765625,0.0
1734581779.2856216,-43.45703125,-34.1796875,48.33984375,-37.109375,0.0
1734581779.2895274,-40.52734375,-29.296875,-255.37109375,-51.26953125,0.0
1734581779.293433,-41.50390625,-29.296875,-313.96484375,-55.6640625,0.0
1734581779.2973385,-40.0390625,-30.76171875,-280.76171875,-40.52734375,0.0
1734581779.3012443,-35.15625,-21.484375,-226.5625,-15.13671875,0.0
1734581779.3051498,-35.15625,-21.484375,105.46875,-23.92578125,0.0
1734581779.3090556,-39.0625,-29.78515625,-140.13671875,-44.43359375,0.0
1734581779.312961,-32.2265625,-31.25,-352.05078125,-39.55078125,0.0
1734581779.3168774,-34.1796875,-28.80859375,39.0625,-35.64453125,0.0
1734581779.320783,-41.015625,-21.97265625,221.6796875,-35.64453125,0.0
1734581779.3246887,-35.15625,-29.78515625,106.93359375,-27.83203125,0.0
1734581779.3285942,-38.57421875,-39.55078125,-164.55078125,-31.73828125,0.0
1734581779.3324997,-46.875,-27.83203125,-220.703125,-49.31640625,0.0
1734581779.3364055,-49.31640625,-25.87890625,-150.390625,-51.7578125,0.0
1734581779.340311,-50.29296875,-30.76171875,-17.08984375,-44.43359375,0.0
1734581779.3442168,-44.43359375,-31.73828125,-348.14453125,-36.62109375,0.0
1734581779.3481224,-39.55078125,-33.69140625,-289.0625,-35.64453125,0.0
1734581779.352028,-40.0390625,-43.9453125,57.12890625,-38.57421875,0.0
1734581779.3559337,-31.73828125,-45.8984375,14.16015625,-34.1796875,0.0
1734581779.3598392,-32.71484375,-34.66796875,70.3125,-33.69140625,0.0
1734581779.363754,-40.0390625,-28.80859375,122.55859375,-31.73828125,0.0
1734581779.3676598,-34.1796875,-20.5078125,-92.28515625,-34.1796875,0.0
1734581779.3715653,-29.78515625,-15.625,-310.05859375,-51.26953125,0.0
1734581779.3754709,-32.2265625,-18.5546875,-146.97265625,-51.26953125,0.0
1734581779.3793766,-33.203125,-23.4375,131.8359375,-42.48046875,0.0
1734581779.3832822,-31.25,-26.3671875,70.3125,-48.828125,0.0
1734581779.387188,-38.0859375,-29.78515625,-203.61328125,-54.19921875,0.0
1734581779.3910935,-41.9921875,-32.71484375,-515.13671875,-36.62109375,0.0
1734581779.394999,-43.45703125,-34.66796875,-96.6796875,-38.0859375,0.0
1734581779.3989048,-32.71484375,-40.0390625,201.171875,-37.59765625,0.0
1734581779.4028103,-23.4375,-40.52734375,44.921875,-23.92578125,0.0
1734581779.406716,-23.92578125,-32.71484375,52.24609375,-35.15625,0.0
1734581779.4106514,-19.04296875,-19.53125,45.41015625,-38.57421875,0.0
1734581779.414557,-24.90234375,-21.484375,4.8828125,-37.59765625,0.0
1734581779.4184628,-25.390625,-30.2734375,-8.30078125,-36.62109375,0.0
1734581779.4223683,-21.97265625,-30.2734375,104.4921875,-27.83203125,0.0
1734581779.426274,-20.5078125,-31.25,-40.0390625,-29.78515625,0.0
1734581779.4301796,-28.3203125,-35.15625,-351.5625,-34.66796875,0.0
1734581779.4340851,-37.59765625,-44.921875,-566.89453125,-28.80859375,0.0
1734581779.437991,-34.66796875,-58.10546875,-155.76171875,-26.85546875,0.0
1734581779.4418964,-29.296875,-47.8515625,259.27734375,-23.92578125,0.0
1734581779.4458022,-23.4375,-27.83203125,43.9453125,-28.3203125,0.0
1734581779.4497077,-20.01953125,-26.3671875,-201.66015625,-41.50390625,0.0
1734581779.4536133,-25.390625,-19.53125,-73.2421875,-41.50390625,0.0
1734581779.457526,-21.97265625,-16.6015625,165.0390625,-33.203125,0.0
1734581779.4614315,-21.484375,-27.34375,118.65234375,-33.69140625,0.0
1734581779.465337,-27.34375,-30.2734375,-9.765625,-39.55078125,0.0
1734581779.4692428,-19.04296875,-28.3203125,4.39453125,-35.15625,0.0
1734581779.4731483,-5.37109375,-42.96875,-49.8046875,-22.94921875,0.0
1734581779.477054,-21.97265625,-52.734375,-194.3359375,-26.85546875,0.0
1734581779.4809597,-40.0390625,-26.3671875,-84.9609375,-35.15625,0.0
1734581779.4848652,-33.203125,-14.6484375,-19.04296875,-35.64453125,0.0
1734581779.488771,-55.17578125,-27.83203125,-255.37109375,-60.05859375,0.0
1734581779.4926765,-63.96484375,-21.97265625,-396.97265625,-66.89453125,0.0
1734581779.4965823,-56.15234375,-25.390625,-187.5,-49.31640625,0.0
1734581779.5004878,-66.89453125,-36.1328125,188.4765625,-62.5,0.0
1734581779.5044076,-66.89453125,-34.66796875,168.9453125,-65.4296875,0.0
1734581779.5083132,-72.265625,-31.73828125,-184.5703125,-66.40625,0.0
1734581779.5122187,-72.75390625,-32.2265625,-282.71484375,-76.171875,0.0
1734581779.5161245,-70.80078125,-33.203125,32.2265625,-56.640625,0.0
1734581779.52003,-75.1953125,-34.66796875,161.62109375,-52.24609375,0.0
1734581779.5239358,-69.3359375,-36.1328125,-190.91796875,-67.87109375,0.0
1734581779.5278413,-62.01171875,-42.48046875,-391.6015625,-65.4296875,0.0
1734581779.5317469,-67.87109375,-30.76171875,-198.2421875,-65.4296875,0.0
1734581779.5356526,-61.5234375,-22.4609375,-6.34765625,-58.59375,0.0
1734581779.5395582,-40.52734375,-32.71484375,-276.85546875,-32.71484375,0.0
1734581779.543464,-41.9921875,-37.59765625,-135.25390625,-33.69140625,0.0
1734581779.5473695,-43.9453125,-33.69140625,136.23046875,-52.734375,0.0
1734581779.551288,-43.9453125,-24.90234375,-125.48828125,-49.31640625,0.0
1734581779.5551937,-49.8046875,-31.73828125,-153.3203125,-50.78125,0.0
1734581779.5590992,-51.7578125,-32.71484375,152.34375,-50.78125,0.0
1734581779.5630047,-48.33984375,-21.97265625,197.265625,-48.828125,0.0
1734581779.5669105,-40.0390625,-23.92578125,-76.66015625,-56.15234375,0.0
1734581779.570816,-41.015625,-27.83203125,-348.14453125,-49.8046875,0.0
1734581779.5747218,-34.66796875,-30.76171875,-307.12890625,-42.48046875,0.0
1734581779.5786273,-32.2265625,-46.38671875,-52.734375,-39.0625,0.0
1734581779.582533,-34.66796875,-42.48046875,-16.11328125,-31.25,0.0
1734581779.5864387,-24.90234375,-32.2265625,-302.24609375,-30.76171875,0.0
1734581779.5903442,-20.5078125,-31.25,-115.234375,-47.8515625,0.0
1734581779.59425,-28.3203125,-22.94921875,47.36328125,-41.9921875,0.0
1734581779.5981672,-25.87890625,-22.94921875,-38.57421875,-23.92578125,0.0
1734581779.6020727,-23.92578125,-29.296875,55.6640625,-25.87890625,0.0
1734581779.6059785,-29.78515625,-28.80859375,133.7890625,-32.2265625,0.0
1734581779.609884,-35.64453125,-29.296875,2.44140625,-24.4140625,0.0
1734581779.6137896,-39.0625,-34.1796875,-307.6171875,-24.4140625,0.0
1734581779.6176953,-36.1328125,-32.71484375,-268.06640625,-25.87890625,0.0
1734581779.6216009,-31.73828125,-41.9921875,93.75,-16.6015625,0.0
1734581779.6255066,-28.3203125,-41.015625,107.421875,-21.484375,0.0
1734581779.6294122,-30.76171875,-25.390625,-495.60546875,-36.62109375,0.0
1734581779.633318,-40.0390625,-22.4609375,-331.0546875,-44.43359375,0.0
1734581779.6372235,-42.96875,-28.80859375,177.24609375,-44.921875,0.0
1734581779.641129,-41.50390625,-30.76171875,112.79296875,-43.9453125,0.0
1734581779.6450467,0.0,-35.64453125,0.0,-44.921875,0.0
1734581779.6489522,0.0,-38.0859375,0.0,-47.36328125,0.0
1734581779.652858,0.0,-40.0390625,0.0,-51.7578125,0.0
1734581779.6567636,0.0,-36.1328125,0.0,-54.19921875,0.0
1734581779.660669,0.0,-25.87890625,0.0,-48.828125,0.0
1734581779.6645749,0.0,-30.2734375,0.0,-44.921875,0.0
1734581779.6684804,0.0,-42.96875,0.0,-56.640625,0.0
1734581779.6723862,0.0,-43.9453125,0.0,-53.7109375,0.0
1734581779.6762917,0.0,-27.83203125,0.0,-31.25,0.0
1734581779.6801972,0.0,-22.94921875,0.0,-30.2734375,0.0
1734581779.684103,0.0,-33.203125,0.0,-41.015625,0.0
1734581779.6880085,0.0,-36.62109375,0.0,-46.875,0.0
1734581779.6919236,-31.73828125,-35.15625,-153.80859375,-39.55078125,0.0
1734581779.6958294,-11.71875,-41.50390625,101.07421875,-3.41796875,0.0
1734581779.699735,-2.9296875,-39.0625,135.25390625,9.27734375,0.0
1734581779.7036407,-35.15625,-30.76171875,-10.25390625,-41.015625,0.0
1734581779.7075462,-52.734375,-32.2265625,-38.0859375,-69.3359375,0.0
1734581779.7114518,-41.015625,-39.0625,-240.72265625,-61.5234375,0.0
1734581779.7153575,-53.22265625,-41.50390625,-286.62109375,-71.77734375,0.0
1734581779.719263,-47.36328125,-38.0859375,-395.99609375,-51.7578125,0.0
1734581779.7231688,-30.76171875,-29.296875,-155.2734375,-45.41015625,0.0
1734581779.7270744,-44.43359375,-31.73828125,148.4375,-72.75390625,0.0
1734581779.7309802,-35.64453125,-42.48046875,-135.7421875,-72.75390625,0.0
1734581779.7348857,-29.78515625,-39.0625,-175.78125,-53.22265625,0.0
1734581779.7388,-44.921875,-32.2265625,149.4140625,-53.7109375,0.0
1734581779.7427056,-41.9921875,-26.3671875,227.05078125,-57.12890625,0.0
1734581779.7466114,-28.80859375,-25.87890625,18.5546875,-48.33984375,0.0
1734581779.750517,-33.69140625,-35.15625,-217.28515625,-50.78125,0.0
1734581779.7544224,-43.9453125,-39.55078125,-165.0390625,-54.6875,0.0
1734581779.7583282,-29.78515625,-41.015625,-22.94921875,-47.8515625,0.0
1734581779.7622337,-19.04296875,-36.62109375,-50.78125,-43.9453125,0.0
1734581779.7661395,-27.83203125,-35.64453125,-393.5546875,-38.57421875,0.0
1734581779.770045,-35.15625,-32.71484375,-158.69140625,-51.26953125,0.0
1734581779.7739506,-31.25,-21.97265625,87.890625,-55.17578125,0.0
1734581779.7778563,-30.2734375,-29.78515625,-83.984375,-43.45703125,0.0
1734581779.781762,-25.87890625,-34.66796875,22.4609375,-41.9921875,0.0
1734581779.7856748,-25.390625,-30.2734375,169.921875,-40.52734375,0.0
1734581779.7895806,-31.25,-33.69140625,-22.4609375,-40.0390625,0.0
1734581779.793486,-26.85546875,-35.64453125,-335.9375,-40.0390625,0.0
1734581779.7973917,-21.97265625,-31.73828125,-74.21875,-36.62109375,0.0
1734581779.8012974,-27.34375,-30.76171875,222.16796875,-37.59765625,0.0
1734581779.805203,-31.25,-32.71484375,-76.171875,-41.50390625,0.0
1734581779.8091087,-28.80859375,-28.3203125,-562.5,-34.66796875,0.0
1734581779.8130143,-30.76171875,-31.25,-349.12109375,-39.0625,0.0
1734581779.8169198,-34.1796875,-39.55078125,133.7890625,-40.52734375,0.0
1734581779.8208256,-31.25,-37.109375,120.60546875,-32.2265625,0.0
1734581779.824731,-29.296875,-42.96875,-11.23046875,-41.50390625,0.0
1734581779.828637,-22.4609375,-45.8984375,-2.9296875,-36.1328125,0.0
1734581779.8325493,0.0,-34.1796875,9.765625,-30.2734375,0.0
1734581779.8364549,0.0,-24.90234375,-27.83203125,-19.53125,0.0
1734581779.8403606,0.0,-29.296875,-43.45703125,-26.3671875,0.0
1734581779.8442662,0.0,-28.80859375,127.44140625,-39.55078125,0.0
1734581779.848172,0.0,-31.25,46.38671875,-36.62109375,0.0
1734581779.8520775,0.0,-35.15625,-345.21484375,-36.62109375,0.0
1734581779.855983,0.0,-26.3671875,-333.49609375,-36.1328125,0.0
1734581779.8598888,0.0,-26.85546875,41.9921875,-35.64453125,0.0
1734581779.8637943,0.0,-35.15625,186.03515625,-36.62109375,0.0
1734581779.8677,0.0,-42.48046875,-173.33984375,-45.41015625,0.0
1734581779.8716056,0.0,-34.1796875,-349.609375,-36.1328125,0.0
1734581779.8755112,0.0,-34.1796875,17.578125,-38.0859375,0.0
1734581779.8794312,-39.0625,-50.78125,180.6640625,-52.24609375,0.0
1734581779.883337,-40.52734375,-48.828125,-7.8125,-44.43359375,0.0
1734581779.8872426,-33.69140625,-28.80859375,-16.6015625,-41.9921875,0.0
1734581779.8911483,-33.69140625,-19.04296875,22.4609375,-53.22265625,0.0
1734581779.8950539,-24.90234375,-20.99609375,-49.8046875,-35.64453125,0.0
1734581779.8989594,-13.671875,-24.90234375,-215.8203125,-8.30078125,0.0
1734581779.9028652,-35.64453125,-28.3203125,-109.375,-19.53125,0.0
1734581779.9067707,-49.8046875,-27.34375,25.390625,-42.96875,0.0
1734581779.9106765,-39.55078125,-33.203125,-85.44921875,-47.36328125,0.0
1734581779.914582,-35.15625,-34.1796875,-448.73046875,-31.73828125,0.0
1734581779.9184875,-36.62109375,-29.296875,-45.8984375,-30.76171875,0.0
1734581779.9223933,-30.2734375,-32.2265625,259.27734375,-34.1796875,0.0
1734581779.9263122,-26.3671875,-36.62109375,4.39453125,-27.34375,0.0
1734581779.9302177,-23.92578125,-36.1328125,-175.29296875,-34.66796875,0.0
1734581779.9341233,-26.3671875,-35.64453125,-75.1953125,-33.69140625,0.0
1734581779.938029,-24.4140625,-31.25,131.34765625,-20.01953125,0.0
1734581779.9419346,-23.92578125,-29.296875,82.03125,-16.6015625,0.0
1734581779.9458404,-30.2734375,-27.34375,-210.9375,-26.85546875,0.0
1734581779.949746,-26.3671875,-19.04296875,-358.88671875,-29.296875,0.0
1734581779.9536517,-29.78515625,-31.73828125,-291.50390625,-40.0390625,0.0
1734581779.9575572,-31.73828125,-38.57421875,-281.25,-28.80859375,0.0
1734581779.9614627,-21.484375,-38.0859375,-232.421875,-3.90625,0.0
1734581779.9653685,-21.97265625,-39.0625,86.42578125,-19.53125,0.0
1734581779.969274,-25.390625,-33.203125,31.25,-30.76171875,0.0
1734581779.973192,-16.6015625,-29.296875,-211.9140625,-25.390625,0.0
1734581779.9770977,-17.578125,-24.4140625,27.34375,-18.06640625,0.0
1734581779.9810033,-22.4609375,-27.83203125,223.14453125,-11.71875,0.0
1734581779.9849088,-27.83203125,-40.52734375,65.4296875,-17.08984375,0.0
1734581779.9888146,-26.85546875,-32.71484375,-289.0625,-18.5546875,0.0
1734581779.9927201,-24.90234375,-25.87890625,-406.73828125,-16.11328125,0.0
1734581779.996626,-24.4140625,-32.71484375,-104.4921875,-17.578125,0.0
1734581780.0005314,-21.97265625,-32.2265625,145.01953125,-16.11328125,0.0
1734581780.004437,-14.6484375,-35.64453125,-374.51171875,-7.32421875,0.0
1734581780.0083427,-19.53125,-40.52734375,-288.0859375,-8.30078125,0.0
1734581780.0122483,-24.90234375,-30.2734375,95.21484375,-19.04296875,0.0
1734581780.016154,-22.4609375,-20.5078125,-95.703125,-22.4609375,0.0
1734581780.0200708,-25.390625,-28.3203125,-75.1953125,-20.5078125,0.0
1734581780.0239766,-28.3203125,-36.1328125,101.07421875,-20.99609375,0.0
1734581780.027882,-16.6015625,-34.66796875,94.7265625,-22.94921875,0.0
1734581780.0317876,-11.71875,-38.0859375,-79.58984375,-25.390625,0.0
1734581780.0356934,-21.97265625,-40.0390625,-143.06640625,-25.390625,0.0
1734581780.039599,-28.3203125,-38.0859375,-6.8359375,-22.4609375,0.0
1734581780.0435047,-38.57421875,-36.1328125,-8.30078125,-25.87890625,0.0
1734581780.0474102,-44.43359375,-44.43359375,-310.546875,-28.3203125,0.0
1734581780.0513158,-38.57421875,-41.015625,-475.09765625,-24.4140625,0.0
1734581780.0552216,-37.59765625,-34.1796875,13.671875,-25.87890625,0.0
1734581780.059127,-39.55078125,-41.015625,179.6875,-25.87890625,0.0
1734581780.0630329,-41.015625,-40.0390625,-35.64453125,-25.390625,0.0
1734581780.0669487,0.0,-28.80859375,12.20703125,-33.203125,0.0
1734581780.0708542,0.0,-28.80859375,95.21484375,-42.96875,0.0
1734581780.0747597,0.0,-33.69140625,-0.9765625,-39.0625,0.0
1734581780.0786655,0.0,-35.15625,-71.2890625,-24.4140625,0.0
1734581780.082571,0.0,-41.50390625,93.26171875,-23.4375,0.0
1734581780.0864768,0.0,-41.015625,-12.20703125,-15.625,0.0
1734581780.0903823,0.0,-32.2265625,-253.41796875,-15.625,0.0
1734581780.0942879,0.0,-28.3203125,-455.56640625,-14.6484375,0.0
1734581780.0981936,0.0,-31.25,-111.81640625,-15.13671875,0.0
1734581780.1020992,0.0,-32.71484375,237.3046875,-19.53125,0.0
1734581780.106005,0.0,-36.62109375,36.62109375,-24.4140625,0.0
1734581780.1099105,0.0,-38.57421875,-93.75,-19.04296875,0.0
1734581780.1138265,-20.5078125,-34.66796875,72.265625,0.0,0.0
1734581780.117732,-30.76171875,-32.71484375,163.57421875,0.0,0.0
1734581780.1216376,-23.4375,-23.4375,77.63671875,0.0,0.0
1734581780.1255434,-18.5546875,-20.5078125,19.04296875,0.0,0.0
1734581780.129449,-20.5078125,-25.390625,42.48046875,0.0,0.0
1734581780.1333547,-23.4375,-21.484375,-125.48828125,0.0,0.0
1734581780.1372602,-22.4609375,-22.4609375,-220.21484375,0.0,0.0
1734581780.1411657,-20.01953125,-26.85546875,-375.0,0.0,0.0
1734581780.1450715,-21.97265625,-27.34375,-80.078125,0.0,0.0
1734581780.148977,-20.01953125,-25.390625,147.94921875,0.0,0.0
1734581780.1528828,-21.97265625,-27.83203125,-81.54296875,0.0,0.0
1734581780.1567883,-20.01953125,-30.76171875,9.765625,0.0,0.0
1734581780.1607022,0.0,-31.73828125,206.0546875,-16.11328125,0.0
1734581780.1646078,0.0,-31.73828125,135.25390625,-18.5546875,0.0
1734581780.1685133,0.0,-30.76171875,-85.9375,-22.4609375,0.0
1734581780.172419,0.0,-30.76171875,18.5546875,-24.4140625,0.0
1734581780.1763246,0.0,-33.203125,182.6171875,-27.34375,0.0
1734581780.1802304,0.0,-36.1328125,44.43359375,-20.01953125,0.0
1734581780.184136,0.0,-42.48046875,-345.21484375,-18.5546875,0.0
1734581780.1880414,0.0,-37.59765625,-203.61328125,-29.78515625,0.0
1734581780.1919472,0.0,-30.2734375,118.65234375,-33.69140625,0.0
1734581780.1958528,0.0,-28.3203125,-29.296875,-30.76171875,0.0
1734581780.1997585,0.0,-29.296875,7.8125,-26.3671875,0.0
1734581780.203664,0.0,-31.25,130.37109375,-23.92578125,0.0
1734581780.2075765,-19.53125,-27.34375,107.91015625,-25.390625,0.0
1734581780.2114823,-17.578125,-26.3671875,1.46484375,-16.11328125,0.0
1734581780.2153878,-18.5546875,-24.4140625,-51.26953125,-14.6484375,0.0
1734581780.2192936,-26.3671875,-23.92578125,107.421875,-12.20703125,0.0
1734581780.2231991,-26.3671875,-28.80859375,150.390625,-15.13671875,0.0
1734581780.2271047,-16.6015625,-25.390625,-165.52734375,-19.04296875,0.0
1734581780.2310104,-19.04296875,-18.5546875,-519.04296875,-10.7421875,0.0
1734581780.234916,-25.390625,-30.2734375,-254.8828125,-14.16015625,0.0
1734581780.2388217,-23.92578125,-33.69140625,99.12109375,-14.6484375,0.0
1734581780.2427273,-20.5078125,-24.4140625,2.44140625,-9.765625,0.0
1734581780.2466328,-20.01953125,-19.53125,47.36328125,-19.53125,0.0
1734581780.2505386,-26.85546875,-23.4375,74.21875,-24.4140625,0.0
1734581780.2544587,-34.66796875,-43.9453125,-186.5234375,-28.3203125,0.0
1734581780.2583642,-28.80859375,-44.43359375,-233.3984375,-27.83203125,0.0
1734581780.2622697,-12.20703125,-22.4609375,20.01953125,0.48828125,0.0
1734581780.2661755,-26.85546875,-26.3671875,112.79296875,-23.92578125,0.0
1734581780.270081,-52.734375,-28.3203125,8.30078125,-57.12890625,0.0
1734581780.2739868,-47.36328125,-22.94921875,-321.77734375,-32.2265625,0.0
1734581780.2778924,-45.41015625,-29.296875,-181.640625,-25.390625,0.0
1734581780.281798,-61.03515625,-32.2265625,176.7578125,-46.875,0.0
1734581780.2857037,-57.12890625,-39.0625,32.2265625,-50.29296875,0.0
1734581780.2896092,-43.45703125,-36.62109375,-430.17578125,-31.25,0.0
1734581780.293515,-47.36328125,-33.69140625,-148.92578125,-34.1796875,0.0
1734581780.2974205,-53.7109375,-36.62109375,180.17578125,-46.875,0.0
1734581780.3013394,-49.8046875,-23.92578125,7.8125,-45.41015625,0.0
1734581780.3052452,-48.828125,-18.5546875,-88.8671875,-41.50390625,0.0
1734581780.3091507,-54.6875,-21.97265625,-35.15625,-48.33984375,0.0
1734581780.3130565,-52.734375,-26.3671875,-157.71484375,-48.33984375,0.0
1734581780.316962,-43.9453125,-26.85546875,-79.58984375,-45.8984375,0.0
1734581780.3208675,-46.875,-32.71484375,-153.3203125,-50.78125,0.0
1734581780.3247733,-53.22265625,-40.52734375,-289.55078125,-55.17578125,0.0
1734581780.3286788,-41.9921875,-38.57421875,-286.1328125,-56.640625,0.0
1734581780.3325846,-40.0390625,-39.55078125,-348.14453125,-54.6875,0.0
1734581780.3364902,-41.50390625,-34.66796875,-329.1015625,-36.62109375,0.0
1734581780.3403957,-37.59765625,-31.25,58.10546875,-33.69140625,0.0
1734581780.3443015,-32.2265625,-43.45703125,116.69921875,-41.9921875,0.0
1734581780.3482194,-34.1796875,-46.875,-144.04296875,-48.828125,0.0
1734581780.352125,-44.921875,-32.71484375,-36.62109375,-54.19921875,0.0
1734581780.3560307,-42.96875,-24.90234375,123.046875,-41.50390625,0.0
1734581780.3599362,-36.62109375,-28.3203125,67.3828125,-42.96875,0.0
1734581780.3638418,-38.0859375,-32.2265625,-161.62109375,-47.8515625,0.0
1734581780.3677475,-36.62109375,-24.4140625,-321.77734375,-39.0625,0.0
1734581780.371653,-32.2265625,-19.04296875,-234.375,-29.296875,0.0
1734581780.3755589,-26.85546875,-22.94921875,-223.14453125,-16.11328125,0.0
1734581780.3794644,-28.80859375,-27.34375,-455.56640625,-16.6015625,0.0
1734581780.38337,-36.1328125,-32.71484375,-174.8046875,-25.390625,0.0
1734581780.3872757,-35.15625,-30.76171875,160.15625,-22.94921875,0.0
1734581780.3911812,-28.80859375,-25.87890625,34.66796875,-32.71484375,0.0
1734581780.3950982,-26.3671875,-33.203125,-54.19921875,-39.55078125,0.0
1734581780.3990037,-27.83203125,-30.76171875,115.72265625,-29.78515625,0.0
1734581780.4029095,-30.2734375,-26.85546875,172.36328125,-23.92578125,0.0
1734581780.406815,-32.71484375,-35.64453125,7.32421875,-27.83203125,0.0
1734581780.4107206,-35.15625,-36.1328125,-74.21875,-32.71484375,0.0
1734581780.4146264,-34.1796875,-33.203125,-44.921875,-35.15625,0.0
1734581780.418532,-31.73828125,-27.34375,-18.5546875,-38.0859375,0.0
1734581780.4224377,-32.71484375,-28.3203125,-129.39453125,-29.296875,0.0
1734581780.4263432,-32.71484375,-36.62109375,-164.0625,-36.62109375,0.0
1734581780.4302487,-43.45703125,-42.48046875,-19.04296875,-58.59375,0.0
1734581780.4341545,-42.96875,-35.15625,108.3984375,-59.08203125,0.0
1734581780.43806,-32.2265625,-27.83203125,-60.546875,-43.45703125,0.0
1734581780.441975,-35.15625,-24.4140625,-153.80859375,-35.15625,0.0
1734581780.445881,-25.87890625,-20.01953125,121.58203125,-39.55078125,0.0
1734581780.4497864,-16.11328125,-20.01953125,113.28125,-30.2734375,0.0
1734581780.4536922,-19.53125,-24.4140625,-48.33984375,-30.2734375,0.0
1734581780.4575977,-18.5546875,-26.3671875,57.6171875,-27.34375,0.0
1734581780.4615035,-18.06640625,-20.01953125,65.4296875,-22.4609375,0.0
1734581780.465409,-26.3671875,-26.85546875,-67.3828125,-36.62109375,0.0
1734581780.4693146,-29.78515625,-36.1328125,-370.60546875,-40.0390625,0.0
1734581780.4732203,-32.2265625,-32.71484375,-171.38671875,-41.9921875,0.0
1734581780.477126,-39.0625,-27.83203125,209.47265625,-45.41015625,0.0
1734581780.4810317,-34.66796875,-39.0625,88.8671875,-40.52734375,0.0
1734581780.4849372,-23.92578125,-41.50390625,-33.69140625,-31.73828125,0.0
1734581780.4888513,-28.3203125,-24.4140625,-10.7421875,-33.203125,0.0
1734581780.4927568,-28.80859375,-16.11328125,127.9296875,-36.62109375,0.0
1734581780.4966626,-20.5078125,-12.6953125,115.234375,-25.87890625,0.0
1734581780.5005682,-22.4609375,-14.16015625,16.6015625,-22.94921875,0.0
1734581780.5044737,-29.296875,-26.3671875,73.2421875,-31.25,0.0
1734581780.5083795,-29.296875,-32.2265625,41.50390625,-29.78515625,0.0
1734581780.512285,-24.90234375,-28.80859375,-188.4765625,-33.203125,0.0
1734581780.5161908,-19.53125,-20.01953125,-385.25390625,-29.78515625,0.0
1734581780.5200963,-28.80859375,-18.06640625,48.828125,-34.66796875,0.0
1734581780.524002,-27.83203125,-28.3203125,159.1796875,-30.76171875,0.0
1734581780.5279076,-17.578125,-35.15625,-95.703125,-28.80859375,0.0
1734581780.5318131,-16.6015625,-31.25,30.2734375,-24.90234375,0.0
1734581780.5357263,-19.53125,-35.15625,156.73828125,-24.90234375,0.0
1734581780.539632,-21.97265625,-31.73828125,109.375,-36.1328125,0.0
1734581780.5435376,-18.06640625,-21.484375,-102.05078125,-28.80859375,0.0
1734581780.5474434,-20.99609375,-31.73828125,-109.375,-18.06640625,0.0
1734581780.551349,-29.296875,-35.15625,59.5703125,-24.4140625,0.0
1734581780.5552545,-29.78515625,-26.3671875,-25.87890625,-34.66796875,0.0
1734581780.5591602,-26.3671875,-41.50390625,-337.40234375,-29.78515625,0.0
1734581780.5630658,-30.76171875,-42.48046875,-184.08203125,-24.90234375,0.0
1734581780.5669715,-38.0859375,-44.921875,147.94921875,-41.50390625,0.0
1734581780.570877,-36.62109375,-53.7109375,56.15234375,-35.64453125,0.0
1734581780.5747826,-32.71484375,-25.87890625,-55.17578125,-26.85546875,0.0
1734581780.5786884,-38.57421875,-5.37109375,64.453125,-40.0390625,0.0
1734581780.5826,-42.48046875,-15.13671875,132.8125,-48.828125,0.0
1734581780.5865057,-36.1328125,-23.4375,39.55078125,-44.921875,0.0
1734581780.5904114,-30.2734375,-27.34375,-58.59375,-44.43359375,0.0
1734581780.594317,-20.99609375,-35.64453125,64.453125,-41.9921875,0.0
1734581780.5982227,-15.625,-33.203125,124.51171875,-33.69140625,0.0
1734581780.6021283,-14.6484375,-21.97265625,-173.828125,-35.15625,0.0
1734581780.6060338,-18.5546875,-21.484375,-493.65234375,-29.78515625,0.0
1734581780.6099396,-36.1328125,-22.94921875,-305.17578125,-29.78515625,0.0
1734581780.613845,-41.015625,-17.08984375,-103.515625,-35.15625,0.0
1734581780.617751,-14.6484375,-14.6484375,-24.4140625,-22.94921875,0.0
1734581780.6216564,-17.578125,-23.4375,47.8515625,-21.484375,0.0
1734581780.6255622,-56.15234375,-44.43359375,108.3984375,-43.9453125,0.0
1734581780.6294813,-51.26953125,-46.38671875,58.59375,-43.9453125,0.0
1734581780.633387,-29.296875,-41.9921875,-108.88671875,-19.04296875,0.0
1734581780.6372926,-20.5078125,-37.59765625,-18.5546875,-11.23046875,0.0
1734581780.6411982,-14.16015625,-27.83203125,88.8671875,-8.30078125,0.0
1734581780.645104,-22.4609375,-36.1328125,52.24609375,-11.71875,0.0
1734581780.6490095,-29.296875,-41.9921875,-272.4609375,-21.97265625,0.0
1734581780.6529152,-32.71484375,-43.45703125,-276.3671875,-31.25,0.0
1734581780.6568208,-31.25,-40.0390625,96.19140625,-26.3671875,0.0
1734581780.6607263,-23.92578125,-36.1328125,73.73046875,-16.11328125,0.0
1734581780.664632,-24.90234375,-42.96875,-427.24609375,-15.625,0.0
1734581780.6685376,-33.69140625,-46.875,-226.5625,-25.87890625,0.0
1734581780.6724434,-34.66796875,-36.62109375,157.71484375,-32.71484375,0.0
1734581780.676362,-26.85546875,-41.50390625,-35.15625,-22.94921875,0.0
1734581780.6802678,-30.76171875,-45.41015625,-129.39453125,-16.11328125,0.0
1734581780.6841733,-32.71484375,-42.48046875,33.69140625,-31.73828125,0.0
1734581780.6880789,-32.2265625,-45.8984375,78.125,-42.96875,0.0
1734581780.6919847,-36.1328125,-20.5078125,-78.61328125,-30.2734375,0.0
1734581780.6958902,-30.76171875,-9.765625,-240.72265625,-31.73828125,0.0
1734581780.699796,-31.25,-21.97265625,-249.0234375,-33.203125,0.0
1734581780.7037015,-26.85546875,-23.92578125,-215.33203125,-29.78515625,0.0
1734581780.7076073,-25.87890625,-28.80859375,-296.875,-29.78515625,0.0
1734581780.7115128,-28.80859375,-37.59765625,-368.1640625,-20.99609375,0.0
1734581780.7154183,-23.4375,-39.55078125,14.6484375,-30.76171875,0.0
1734581780.719324,-25.87890625,-36.62109375,166.9921875,-32.2265625,0.0
1734581780.7232416,-24.90234375,-37.59765625,-159.66796875,-13.18359375,0.0
1734581780.727147,-25.390625,-41.9921875,-176.26953125,-19.53125,0.0
1734581780.7310526,-35.64453125,-36.62109375,92.7734375,-28.80859375,0.0
1734581780.7349584,-26.85546875,-32.2265625,102.5390625,-17.578125,0.0
1734581780.738864,-19.53125,-32.2265625,-119.62890625,-3.90625,0.0
1734581780.7427697,-33.203125,-31.73828125,-322.265625,-13.18359375,0.0
1734581780.7466753,-35.15625,-34.66796875,-190.4296875,-28.3203125,0.0
1734581780.750581,-34.1796875,-31.73828125,27.34375,-22.4609375,0.0
1734581780.7544866,-33.203125,-25.390625,-345.703125,-13.18359375,0.0
1734581780.758392,-30.76171875,-36.1328125,-165.52734375,-17.08984375,0.0
1734581780.7622979,-36.62109375,-43.45703125,194.82421875,-19.04296875,0.0
1734581780.7662034,-31.25,-24.90234375,31.73828125,-18.06640625,0.0
1734581780.7701201,-25.390625,-19.04296875,-54.19921875,-14.6484375,0.0
1734581780.7740257,-29.78515625,-26.3671875,100.5859375,-20.01953125,0.0
1734581780.7779315,-38.0859375,-33.69140625,158.203125,-33.69140625,0.0
1734581780.781837,-36.1328125,-41.015625,3.90625,-31.73828125,0.0
1734581780.7857428,-32.2265625,-44.43359375,-111.81640625,-29.78515625,0.0
1734581780.7896483,-25.390625,-43.45703125,-132.8125,-29.78515625,0.0
1734581780.7935538,-17.578125,-38.0859375,-151.3671875,-27.34375,0.0
1734581780.7974596,-26.3671875,-31.25,-219.7265625,-37.109375,0.0
1734581780.8013651,-38.0859375,-27.34375,-380.37109375,-33.203125,0.0
1734581780.805271,-37.109375,-19.04296875,12.20703125,-31.73828125,0.0
1734581780.8091764,-30.2734375,-14.16015625,135.25390625,-30.2734375,0.0
1734581780.8130822,-34.1796875,-21.484375,-89.35546875,-28.80859375,0.0
1734581780.8169973,-41.50390625,-29.296875,30.76171875,-32.2265625,0.0
1734581780.8209028,-35.15625,-39.0625,143.5546875,-19.53125,0.0
1734581780.8248086,-17.08984375,-36.62109375,75.1953125,-11.71875,0.0
1734581780.8287141,-32.2265625,-21.484375,-116.69921875,-35.15625,0.0
1734581780.83262,-43.9453125,-23.92578125,-10.7421875,-50.29296875,0.0
1734581780.8365254,-28.80859375,-28.3203125,32.2265625,-40.0390625,0.0
1734581780.8404312,-31.73828125,-21.97265625,-152.83203125,-36.62109375,0.0
1734581780.8443367,-43.9453125,-27.83203125,-473.14453125,-41.50390625,0.0
1734581780.8482423,-51.7578125,-36.1328125,-232.91015625,-53.22265625,0.0
1734581780.852148,-55.17578125,-37.59765625,177.734375,-60.546875,0.0
1734581780.8560536,-52.24609375,-32.2265625,66.40625,-55.6640625,0.0
1734581780.8599594,-52.734375,-40.0390625,-52.734375,-43.9453125,0.0
1734581780.8638732,-43.9453125,-44.43359375,65.91796875,-39.0625,0.0
1734581780.867779,-40.52734375,-34.1796875,149.90234375,-37.109375,0.0
1734581780.8716846,-41.9921875,-38.57421875,31.25,-39.55078125,0.0
1734581780.8755903,-36.62109375,-48.828125,-72.265625,-51.26953125,0.0
1734581780.8794959,-40.52734375,-51.26953125,50.78125,-59.08203125,0.0
1734581780.8834016,-37.109375,-48.33984375,-16.11328125,-50.78125,0.0
1734581780.8873072,-30.2734375,-41.015625,-291.9921875,-39.55078125,0.0
1734581780.8912127,-45.8984375,-38.0859375,-434.08203125,-42.96875,0.0
1734581780.8951185,-60.546875,-38.0859375,9.27734375,-52.734375,0.0
1734581780.899024,-45.8984375,-30.2734375,137.20703125,-46.875,0.0
1734581780.9029298,-33.69140625,-30.76171875,-82.03125,-38.57421875,0.0
1734581780.9068353,-26.3671875,-35.15625,11.71875,-29.78515625,0.0
1734581780.910749,-38.0859375,-35.64453125,113.76953125,-35.64453125,0.0
1734581780.9146545,-40.0390625,-38.57421875,65.91796875,-47.36328125,0.0
1734581780.9185603,-36.62109375,-36.1328125,-116.2109375,-41.9921875,0.0
1734581780.9224658,-38.57421875,-33.203125,-5.859375,-36.1328125,0.0
1734581780.9263716,-39.55078125,-38.0859375,141.6015625,-33.69140625,0.0
1734581780.930277,-45.8984375,-32.71484375,-44.921875,-27.83203125,0.0
1734581780.9341826,-44.43359375,-36.1328125,-469.7265625,-30.76171875,0.0
1734581780.9380884,-41.9921875,-36.62109375,-261.71875,-41.015625,0.0
1734581780.941994,-41.50390625,-26.85546875,156.73828125,-43.45703125,0.0
1734581780.9458997,-41.50390625,-27.34375,34.1796875,-38.57421875,0.0
1734581780.9498053,-29.296875,-33.69140625,-106.4453125,-44.43359375,0.0
1734581780.9537108,-28.80859375,-36.1328125,39.0625,-48.33984375,0.0
1734581780.9576228,-42.48046875,-31.73828125,92.7734375,-48.33984375,0.0
1734581780.9615285,-48.828125,-30.76171875,-120.60546875,-41.50390625,0.0
1734581780.965434,-38.57421875,-36.62109375,-157.2265625,-33.203125,0.0
1734581780.9693396,-34.66796875,-46.38671875,64.94140625,-46.875,0.0
1734581780.9732454,-32.2265625,-39.55078125,76.66015625,-48.33984375,0.0
1734581780.977151,-26.3671875,-21.97265625,-270.99609375,-24.4140625,0.0
1734581780.9810567,-23.4375,-17.578125,-553.22265625,-20.01953125,0.0
1734581780.9849622,-25.390625,-23.4375,-284.1796875,-28.3203125,0.0
1734581780.988868,-26.3671875,-21.97265625,20.01953125,-33.203125,0.0
1734581780.9927735,-23.92578125,-17.08984375,-69.82421875,-35.64453125,0.0
1734581780.996679,-23.92578125,-21.97265625,-26.3671875,-29.296875,0.0
1734581781.0005848,-29.296875,-25.390625,90.33203125,-36.62109375,0.0
1734581781.0045044,-19.53125,-29.296875,65.4296875,-31.73828125,0.0
1734581781.0084102,-14.6484375,-37.59765625,-131.8359375,-27.83203125,0.0
1734581781.0123158,-28.3203125,-37.59765625,-51.26953125,-29.78515625,0.0
1734581781.0162213,-29.296875,-41.015625,118.65234375,-22.94921875,0.0
1734581781.020127,-22.4609375,-40.52734375,-61.5234375,-22.94921875,0.0
1734581781.0240326,-22.94921875,-27.83203125,-425.29296875,-23.4375,0.0
1734581781.0279384,-20.5078125,-21.484375,-306.15234375,-20.01953125,0.0
1734581781.031844,-21.484375,-21.484375,106.93359375,-29.296875,0.0
1734581781.0357497,-25.87890625,-16.11328125,47.8515625,-24.4140625,0.0
1734581781.0396552,-24.4140625,-22.4609375,-403.80859375,-8.30078125,0.0
1734581781.0435607,-27.83203125,-33.203125,-95.21484375,-16.11328125,0.0
1734581781.0474665,-23.92578125,-32.2265625,158.69140625,-18.5546875,0.0
1734581781.0513852,-26.3671875,-34.1796875,-18.5546875,-19.04296875,0.0
1734581781.055291,-31.73828125,-32.2265625,-83.0078125,-22.94921875,0.0
1734581781.0591965,-30.2734375,-25.87890625,39.55078125,-21.97265625,0.0
1734581781.0631022,-31.25,-21.484375,95.21484375,-22.4609375,0.0
1734581781.0670078,-29.296875,-20.01953125,-37.59765625,-13.18359375,0.0
1734581781.0709133,-25.390625,-21.484375,-249.0234375,-12.6953125,0.0
1734581781.074819,-33.69140625,-24.4140625,-263.671875,-21.484375,0.0
1734581781.0787246,-34.1796875,-26.85546875,-180.6640625,-20.5078125,0.0
1734581781.0826304,-25.390625,-28.3203125,-306.640625,-4.39453125,0.0
1734581781.086536,-36.62109375,-31.25,-417.48046875,-3.90625,0.0
1734581781.0904417,-35.15625,-31.73828125,1.953125,-25.87890625,0.0
1734581781.0943472,-29.296875,-30.76171875,114.2578125,-26.85546875,0.0
1734581781.0982645,-28.3203125,-30.2734375,-104.98046875,-17.578125,0.0
1734581781.1021702,-22.4609375,-25.390625,1.953125,-17.08984375,0.0
1734581781.1060758,-25.390625,-27.34375,102.5390625,-24.90234375,0.0
1734581781.1099815,-33.69140625,-36.1328125,54.19921875,-27.83203125,0.0
1734581781.113887,-26.3671875,-38.0859375,-152.34375,-21.97265625,0.0
1734581781.1177926,-20.01953125,-43.9453125,-304.6875,-15.625,0.0
1734581781.1216984,-29.78515625,-42.96875,-127.9296875,-19.53125,0.0
1734581781.125604,-30.76171875,-32.2265625,56.15234375,-31.73828125,0.0
1734581781.1295097,-26.85546875,-32.2265625,-424.8046875,-25.390625,0.0
1734581781.1334152,-32.71484375,-34.1796875,-258.30078125,-29.296875,0.0
1734581781.137321,-36.1328125,-37.59765625,143.06640625,-27.34375,0.0
1734581781.1412265,-36.1328125,-43.45703125,-96.19140625,-22.4609375,0.0
1734581781.1451433,-31.73828125,-33.69140625,-86.9140625,-25.87890625,0.0
1734581781.1490488,-30.2734375,-26.3671875,81.0546875,-24.90234375,0.0
1734581781.1529543,-28.80859375,-31.25,112.79296875,-21.484375,0.0
1734581781.15686,-23.92578125,-37.59765625,10.7421875,-21.97265625,0.0
1734581781.1607656,-21.484375,-39.0625,-42.96875,-19.04296875,0.0
1734581781.1646714,-19.53125,-25.87890625,-104.00390625,-20.01953125,0.0
1734581781.168577,-13.18359375,-24.90234375,-230.46875,-23.4375,0.0
1734581781.1724827,-18.5546875,-42.96875,-326.171875,-25.390625,0.0
1734581781.1763883,-29.78515625,-36.62109375,-386.23046875,-24.90234375,0.0
1734581781.1802938,-25.390625,-26.85546875,35.64453125,-25.390625,0.0
1734581781.1841996,-10.25390625,-34.66796875,145.5078125,-27.34375,0.0
1734581781.188105,-2.44140625,-24.90234375,-104.4921875,-20.01953125,0.0
1734581781.192021,-5.859375,-13.671875,23.4375,-15.13671875,0.0
1734581781.1959267,-9.27734375,-19.04296875,102.5390625,-23.92578125,0.0
1734581781.1998322,-15.13671875,-26.3671875,-75.68359375,-19.04296875,0.0
1734581781.203738,-36.1328125,-30.76171875,-152.83203125,-11.71875,0.0
1734581781.2076435,-49.31640625,-39.0625,20.99609375,-19.53125,0.0
1734581781.211549,-33.69140625,-44.921875,-4.39453125,-20.99609375,0.0
1734581781.2154548,-30.76171875,-41.015625,-210.9375,-17.08984375,0.0
1734581781.2193604,-32.71484375,-36.62109375,-437.5,-7.32421875,0.0
1734581781.2232661,-30.76171875,-33.203125,-185.05859375,-10.7421875,0.0
1734581781.2271717,-25.87890625,-31.25,157.2265625,-22.94921875,0.0
1734581781.2310774,-20.99609375,-32.71484375,-12.20703125,-26.85546875,0.0
1734581781.234983,-26.3671875,-27.34375,-104.98046875,-25.390625,0.0
1734581781.2388978,-25.87890625,-26.3671875,76.171875,-23.4375,0.0
1734581781.2428033,-22.4609375,-29.78515625,143.06640625,-26.85546875,0.0
1734581781.246709,-28.3203125,-25.390625,22.94921875,-26.85546875,0.0
1734581781.2506146,-35.15625,-30.76171875,-81.54296875,-29.296875,0.0
1734581781.2545202,-33.203125,-41.015625,8.30078125,-26.85546875,0.0
1734581781.258426,-17.578125,-36.62109375,-61.5234375,-5.37109375,0.0
1734581781.2623315,-7.8125,-21.484375,-283.203125,-2.44140625,0.0
1734581781.2662373,-20.5078125,-6.34765625,-510.7421875,-30.76171875,0.0
1734581781.2701428,-38.57421875,-12.20703125,-150.87890625,-59.08203125,0.0
1734581781.2740486,-30.76171875,-21.484375,105.95703125,-45.8984375,0.0
1734581781.277954,-9.27734375,-18.06640625,-54.19921875,-36.62109375,0.0
1734581781.2818596,-0.9765625,-19.04296875,53.7109375,-42.96875,0.0
1734581781.2857735,-11.71875,-25.390625,134.27734375,-37.109375,0.0
1734581781.289679,-24.4140625,-30.76171875,60.546875,-23.92578125,0.0
1734581781.2935846,-22.4609375,-31.25,-170.41015625,-27.83203125,0.0
1734581781.2974904,-30.2734375,-30.2734375,-5.859375,-43.9453125,0.0
1734581781.301396,-33.69140625,-32.2265625,146.97265625,-39.55078125,0.0
1734581781.3053017,-27.83203125,-37.59765625,-143.5546875,-17.08984375,0.0
1734581781.3092072,-23.4375,-37.109375,-509.27734375,-10.7421875,0.0
1734581781.313113,-26.3671875,-35.64453125,-254.8828125,-19.53125,0.0
1734581781.3170185,-32.2265625,-34.1796875,76.66015625,-26.3671875,0.0
1734581781.320924,-19.53125,-29.296875,28.3203125,-19.53125,0.0
1734581781.3248298,-12.6953125,-28.3203125,-43.9453125,-24.4140625,0.0
1734581781.3287354,-20.01953125,-33.203125,43.9453125,-35.64453125,0.0
1734581781.332648,-7.32421875,-33.203125,108.3984375,-23.4375,0.0
1734581781.3365536,-2.9296875,-35.64453125,62.01171875,-17.08984375,0.0
1734581781.340459,-10.25390625,-40.0390625,-34.1796875,-12.6953125,0.0
1734581781.344365,-9.27734375,-36.62109375,68.359375,-2.9296875,0.0
1734581781.3482704,-7.8125,-32.2265625,108.3984375,-3.41796875,0.0
1734581781.3521762,-1.953125,-25.87890625,-203.61328125,-3.41796875,0.0
1734581781.3560817,2.9296875,-20.01953125,-385.25390625,-2.44140625,0.0
1734581781.3599875,1.953125,-16.6015625,-118.1640625,-18.5546875,0.0
1734581781.363893,5.859375,-20.01953125,78.61328125,-23.92578125,0.0
1734581781.3677986,3.90625,-24.4140625,5.37109375,-8.7890625,0.0
1734581781.3717043,0.0,-25.390625,14.6484375,-11.71875,0.0
1734581781.3756099,-11.23046875,-30.2734375,41.9921875,-20.99609375,0.0
1734581781.3795297,-20.99609375,-30.76171875,83.0078125,-19.04296875,0.0
1734581781.3834352,-23.4375,-32.71484375,-38.57421875,-17.578125,0.0
1734581781.3873408,-17.08984375,-35.15625,-9.27734375,-20.99609375,0.0
1734581781.3912466,-13.671875,-34.1796875,95.21484375,-25.87890625,0.0
1734581781.395152,-18.5546875,-29.296875,96.6796875,-17.08984375,0.0
1734581781.3990579,-11.71875,-20.99609375,-203.61328125,-14.16015625,0.0
1734581781.4029634,-0.9765625,-22.4609375,-249.51171875,-22.94921875,0.0
1734581781.4068692,-14.6484375,-21.484375,106.4453125,-24.4140625,0.0
1734581781.4107747,-16.6015625,-16.6015625,15.625,-26.3671875,0.0
1734581781.4146802,-9.765625,-21.97265625,-394.04296875,-16.6015625,0.0
1734581781.418586,-8.7890625,-25.87890625,-88.8671875,-14.16015625,0.0
1734581781.4224916,-3.41796875,-26.85546875,142.08984375,-10.7421875,0.0
1734581781.42641,0.0,-23.4375,-4.8828125,-16.6015625,0.0
1734581781.4303155,0.0,-17.08984375,-96.19140625,-14.16015625,0.0
1734581781.4342213,0.0,-19.53125,-64.453125,-6.8359375,0.0
1734581781.4381268,0.0,-18.5546875,117.67578125,-10.7421875,0.0
1734581781.4420326,0.0,-14.16015625,53.22265625,-18.5546875,0.0
1734581781.445938,0.0,-15.625,-172.36328125,-27.34375,0.0
1734581781.4498436,0.0,-20.01953125,-199.21875,-15.13671875,0.0
1734581781.4537494,0.0,-25.87890625,-119.140625,-17.08984375,0.0
1734581781.457655,0.0,-27.83203125,-127.9296875,-30.76171875,0.0
1734581781.4615607,0.0,-25.390625,-306.15234375,-4.8828125,0.0
1734581781.4654663,0.0,-19.53125,22.94921875,-0.9765625,0.0
1734581781.469372,0.0,-11.23046875,133.7890625,-32.2265625,0.0
1734581781.4732893,-20.01953125,-20.01953125,-96.19140625,-36.1328125,0.0
1734581781.477195,-22.4609375,-30.2734375,21.97265625,-24.4140625,0.0
1734581781.4811006,-15.625,-21.484375,149.90234375,-29.296875,0.0
1734581781.4850063,-18.5546875,-20.99609375,98.14453125,-29.296875,0.0
1734581781.4889119,-22.94921875,-34.66796875,-147.94921875,-24.4140625,0.0
1734581781.4928174,-21.484375,-36.62109375,-280.76171875,-22.4609375,0.0
1734581781.4967232,-14.6484375,-24.4140625,-161.62109375,-10.25390625,0.0
1734581781.5006287,-7.32421875,-13.671875,-57.6171875,-5.859375,0.0
1734581781.5045345,-14.16015625,-8.30078125,-356.93359375,-13.671875,0.0
1734581781.50844,-12.6953125,-24.4140625,-185.05859375,-23.92578125,0.0
1734581781.5123458,-17.08984375,-43.45703125,179.19921875,-34.1796875,0.0
1734581781.5162513,-23.92578125,-32.2265625,79.58984375,-32.71484375,0.0
1734581781.5201683,0.0,-22.4609375,0.0,-25.390625,0.0
1734581781.524074,0.0,-30.2734375,0.0,-19.04296875,0.0
1734581781.5279796,0.0,-27.83203125,0.0,-23.92578125,0.0
1734581781.5318851,0.0,-28.3203125,0.0,-24.90234375,0.0
1734581781.535791,0.0,-35.15625,0.0,-22.4609375,0.0
1734581781.5396965,0.0,-29.78515625,0.0,-29.78515625,0.0
1734581781.5436022,0.0,-21.484375,0.0,-30.76171875,0.0
1734581781.5475078,0.0,-9.765625,0.0,-33.69140625,0.0
1734581781.5514135,0.0,-9.765625,0.0,-30.76171875,0.0
1734581781.555319,0.0,-20.99609375,0.0,-33.69140625,0.0
1734581781.5592246,0.0,-25.87890625,0.0,-22.4609375,0.0
1734581781.5631304,0.0,-15.13671875,0.0,-17.08984375,0.0
1734581781.5670455,-16.6015625,-9.27734375,115.234375,-30.76171875,0.0
1734581781.570951,-22.4609375,-12.20703125,187.98828125,-42.96875,0.0
1734581781.5748568,-31.25,-17.578125,158.203125,-53.7109375,0.0
1734581781.5787623,-39.55078125,-16.6015625,81.54296875,-40.0390625,0.0
1734581781.5826678,-37.109375,-16.11328125,132.8125,-36.62109375,0.0
1734581781.5865736,-32.2265625,-19.53125,69.82421875,-41.015625,0.0
1734581781.5904791,-9.765625,-7.8125,-9.27734375,-19.04296875,0.0
1734581781.594385,-10.7421875,-15.13671875,-234.375,-20.99609375,0.0
1734581781.5982904,-42.48046875,-27.83203125,-70.3125,-47.36328125,0.0
1734581781.6021962,-34.1796875,-20.01953125,265.625,-34.1796875,0.0
1734581781.6061018,-10.25390625,-19.04296875,126.46484375,-5.37109375,0.0
1734581781.6100073,-15.625,-25.87890625,-42.48046875,-5.859375,0.0
1734581781.6139214,-12.20703125,-22.94921875,99.609375,-5.859375,0.0
1734581781.617827,0.9765625,-22.4609375,213.37890625,18.5546875,0.0
1734581781.6217327,6.8359375,-21.484375,104.00390625,21.484375,0.0
1734581781.6256382,5.37109375,-22.4609375,27.83203125,18.06640625,0.0
1734581781.629544,16.6015625,-29.78515625,79.58984375,32.2265625,0.0
1734581781.6334496,33.69140625,-31.73828125,41.015625,53.7109375,0.0
1734581781.6373553,32.2265625,-28.80859375,-82.03125,71.2890625,0.0
1734581781.6412609,33.203125,-29.296875,-345.703125,83.0078125,0.0
1734581781.6451664,41.9921875,-29.78515625,16.6015625,80.56640625,0.0
1734581781.6490722,48.33984375,-20.99609375,156.25,77.63671875,0.0
1734581781.6529777,37.109375,-31.25,-40.0390625,71.2890625,0.0
1734581781.6568835,41.9921875,-40.0390625,89.35546875,66.40625,0.0
1734581781.6607964,30.2734375,-43.9453125,166.9921875,72.75390625,0.0
1734581781.664702,24.90234375,-44.43359375,157.2265625,67.87109375,0.0
1734581781.6686077,43.45703125,-41.015625,-130.37109375,58.59375,0.0
1734581781.6725132,42.96875,-37.59765625,-140.625,66.40625,0.0
1734581781.676419,45.41015625,-29.78515625,144.04296875,67.87109375,0.0
1734581781.6803246,46.38671875,-31.73828125,65.91796875,54.19921875,0.0
1734581781.68423,36.62109375,-37.59765625,-320.3125,54.6875,0.0
1734581781.6881359,29.296875,-41.9921875,-218.26171875,49.8046875,0.0
1734581781.6920414,29.78515625,-48.828125,158.69140625,36.1328125,0.0
1734581781.6959472,25.390625,-61.5234375,85.9375,38.57421875,0.0
1734581781.6998527,13.671875,-56.640625,-13.671875,47.8515625,0.0
1734581781.7037585,20.99609375,-37.59765625,105.95703125,39.55078125,0.0
1734581781.707671,19.04296875,-23.92578125,133.30078125,12.20703125,0.0
1734581781.7115765,13.18359375,-20.5078125,13.18359375,18.06640625,0.0
1734581781.7154822,17.578125,-22.94921875,-52.734375,41.50390625,0.0
1734581781.7193878,7.32421875,-18.5546875,159.1796875,23.92578125,0.0
1734581781.7232933,-16.6015625,-24.4140625,162.59765625,-0.48828125,0.0
1734581781.727199,-19.53125,-31.25,-196.2890625,9.765625,0.0
1734581781.7311046,-2.44140625,-33.69140625,-411.1328125,5.859375,0.0
1734581781.7350104,-4.39453125,-35.15625,-257.8125,-10.7421875,0.0
1734581781.738916,-16.11328125,-35.64453125,-24.90234375,12.6953125,0.0
1734581781.7428217,-8.7890625,-36.62109375,23.4375,2.9296875,0.0
1734581781.7467272,-10.7421875,-35.15625,-98.6328125,-11.71875,0.0
1734581781.750633,-4.39453125,-25.390625,17.578125,12.6953125,0.0
1734581781.7545528,7.8125,-26.85546875,96.6796875,10.7421875,0.0
1734581781.7584584,0.48828125,-36.1328125,13.671875,-4.8828125,0.0
1734581781.7623641,-0.9765625,-32.2265625,64.453125,-1.953125,0.0
1734581781.7662697,-4.8828125,-35.64453125,101.07421875,-15.13671875,0.0
1734581781.7701755,-24.90234375,-39.55078125,-17.08984375,-28.3203125,0.0
1734581781.774081,-25.390625,-35.15625,-389.6484375,-25.390625,0.0
1734581781.7779868,-9.27734375,-28.3203125,-201.171875,-27.83203125,0.0
1734581781.7818923,-9.27734375,-20.5078125,229.00390625,-33.69140625,0.0
1734581781.7857978,-32.71484375,-28.3203125,30.2734375,-32.2265625,0.0
1734581781.7897036,-30.76171875,-31.25,-487.79296875,-32.2265625,0.0
1734581781.7936091,-18.06640625,-29.296875,-221.19140625,-37.109375,0.0
1734581781.797515,-24.90234375,-34.1796875,241.2109375,-23.92578125,0.0
1734581781.8014336,-26.3671875,-33.203125,102.5390625,-34.1796875,0.0
1734581781.805339,-24.90234375,-31.73828125,-93.75,-47.8515625,0.0
1734581781.8092449,-32.71484375,-33.69140625,-5.859375,-37.109375,0.0
1734581781.8131504,-43.45703125,-32.2265625,76.66015625,-27.83203125,0.0
1734581781.817056,-33.69140625,-30.2734375,87.890625,-31.25,0.0
1734581781.8209617,-21.97265625,-31.25,14.16015625,-24.90234375,0.0
1734581781.8248672,-33.203125,-36.1328125,-75.68359375,-14.16015625,0.0
1734581781.828773,-41.9921875,-41.015625,-169.43359375,-16.11328125,0.0
1734581781.8326786,-35.15625,-39.55078125,-342.28515625,-30.2734375,0.0
1734581781.8365843,-29.78515625,-34.1796875,-324.70703125,-31.73828125,0.0
1734581781.8404899,-23.92578125,-28.80859375,150.87890625,-34.1796875,0.0
1734581781.8443956,-18.5546875,-21.97265625,161.62109375,-45.41015625,0.0
1734581781.8483129,-26.85546875,-26.85546875,-154.296875,-42.96875,0.0
1734581781.8522186,-31.73828125,-34.1796875,-43.45703125,-41.015625,0.0
1734581781.8561242,-28.3203125,-34.1796875,170.8984375,-36.62109375,0.0
1734581781.86003,-29.78515625,-35.64453125,181.15234375,-41.9921875,0.0
1734581781.8639355,-24.90234375,-32.2265625,-29.296875,-39.0625,0.0
1734581781.8678412,-33.203125,-29.296875,-238.28125,-46.875,0.0
1734581781.8717468,-48.828125,-31.25,-215.8203125,-30.76171875,0.0
1734581781.8756523,-54.6875,-29.78515625,44.921875,-34.1796875,0.0
1734581781.879558,-38.57421875,-32.71484375,-205.078125,-41.50390625,0.0
1734581781.8834636,-24.4140625,-30.76171875,-87.890625,-24.4140625,0.0
1734581781.8873694,-27.83203125,-22.4609375,177.24609375,-22.4609375,0.0
1734581781.891275,-41.9921875,-31.73828125,-36.1328125,-35.64453125,0.0
1734581781.8951914,-43.9453125,-38.57421875,-91.30859375,-42.48046875,0.0
1734581781.8990972,-46.38671875,-33.203125,159.66796875,-53.7109375,0.0
1734581781.9030027,-52.24609375,-32.71484375,162.59765625,-57.6171875,0.0
1734581781.9069085,-51.7578125,-35.15625,-121.09375,-52.734375,0.0
1734581781.910814,-48.33984375,-41.9921875,-230.95703125,-48.828125,0.0
1734581781.9147196,-33.203125,-38.57421875,-180.17578125,-31.25,0.0
1734581781.9186254,-29.296875,-32.71484375,34.1796875,-38.57421875,0.0
1734581781.922531,-36.1328125,-38.0859375,-21.484375,-56.15234375,0.0
1734581781.9264367,-30.2734375,-28.3203125,-392.578125,-48.33984375,0.0
1734581781.9303422,-48.828125,-25.87890625,-80.078125,-54.19921875,0.0
1734581781.934248,-55.17578125,-32.71484375,128.90625,-46.38671875,0.0
1734581781.9381535,-34.1796875,-30.2734375,55.6640625,-53.7109375,0.0
1734581781.9420683,-42.48046875,-28.3203125,142.08984375,-68.84765625,0.0
1734581781.945974,-44.43359375,-32.71484375,158.203125,-53.22265625,0.0
1734581781.9498796,-29.296875,-31.73828125,19.53125,-35.15625,0.0
1734581781.9537854,-32.71484375,-17.08984375,-180.17578125,-28.80859375,0.0
1734581781.957691,-37.59765625,-9.765625,11.71875,-26.85546875,0.0
1734581781.9615965,-32.71484375,-15.13671875,93.75,-20.5078125,0.0
1734581781.9655023,-44.921875,-18.06640625,-81.54296875,-20.5078125,0.0
1734581781.9694078,-42.96875,-21.97265625,-499.0234375,-14.6484375,0.0
1734581781.9733136,-37.109375,-32.2265625,-295.41015625,-20.01953125,0.0
1734581781.977219,-30.76171875,-31.73828125,204.58984375,-25.87890625,0.0
1734581781.9811249,-16.6015625,-16.11328125,113.28125,-20.01953125,0.0
1734581781.9850304,-20.01953125,-22.94921875,-22.4609375,-20.99609375,0.0
1734581781.988945,-29.296875,-35.15625,21.97265625,-20.99609375,0.0
1734581781.9928508,-26.3671875,-37.59765625,74.21875,-26.85546875,0.0
1734581781.9967563,-37.109375,-38.0859375,87.890625,-26.85546875,0.0
1734581782.000662,-48.33984375,-43.45703125,101.07421875,-30.76171875,0.0
1734581782.0045676,-43.9453125,-41.015625,119.62890625,-36.1328125,0.0
1734581782.0084734,-36.62109375,-29.78515625,-110.83984375,-39.55078125,0.0
1734581782.012379,-34.66796875,-25.390625,-383.7890625,-32.2265625,0.0
1734581782.0162845,-29.78515625,-27.83203125,-447.265625,-11.71875,0.0
1734581782.0201902,-35.15625,-33.69140625,67.3828125,-25.87890625,0.0
1734581782.0240958,-39.55078125,-32.71484375,132.8125,-37.59765625,0.0
1734581782.0280015,-27.34375,-33.203125,-222.16796875,-34.1796875,0.0
1734581782.031907,-23.4375,-35.15625,-118.65234375,-37.109375,0.0
1734581782.03582,-39.0625,-36.1328125,133.7890625,-31.25,0.0
1734581782.0397255,-31.25,-38.0859375,165.0390625,-20.99609375,0.0
1734581782.043631,-23.4375,-38.57421875,-27.83203125,-19.53125,0.0
1734581782.0475368,-23.92578125,-32.71484375,-15.13671875,-18.5546875,0.0
1734581782.0514424,-15.13671875,-23.92578125,32.71484375,-15.13671875,0.0
1734581782.0553482,-20.01953125,-29.296875,-107.91015625,-13.671875,0.0
1734581782.0592537,-11.23046875,-39.55078125,-277.34375,-8.7890625,0.0
1734581782.0631595,-11.23046875,-48.33984375,-127.9296875,-12.6953125,0.0
1734581782.067065,-22.94921875,-41.50390625,133.30078125,-8.7890625,0.0
1734581782.0709705,-23.92578125,-31.25,-19.04296875,-3.41796875,0.0
1734581782.0748763,-30.76171875,-39.55078125,-70.3125,-38.57421875,0.0
1734581782.0787818,-37.109375,-53.22265625,156.25,-28.80859375,0.0
1734581782.0826945,-22.94921875,-45.8984375,142.08984375,-8.7890625,0.0
1734581782.0866,-18.06640625,-32.2265625,-83.0078125,-21.484375,0.0
1734581782.0905058,-25.390625,-32.71484375,-157.71484375,-34.66796875,0.0
1734581782.0944114,-10.7421875,-34.66796875,34.1796875,-29.78515625,0.0
1734581782.0983171,-20.01953125,-29.78515625,161.62109375,-20.5078125,0.0
1734581782.1022227,-25.87890625,-32.71484375,-15.13671875,-25.390625,0.0
1734581782.1061285,-22.94921875,-25.87890625,-363.76953125,-8.30078125,0.0
1734581782.110034,-22.4609375,-33.69140625,-312.98828125,-14.16015625,0.0
1734581782.1139395,0.48828125,-42.48046875,6.34765625,-5.859375,0.0
1734581782.1178453,-7.32421875,-22.94921875,53.22265625,-7.32421875,0.0
1734581782.1217508,-34.66796875,-26.3671875,94.7265625,-34.66796875,0.0
1734581782.1256566,-23.92578125,-31.25,148.92578125,-38.0859375,0.0
1734581782.1295762,-18.06640625,-27.34375,57.6171875,-42.48046875,0.0
1734581782.133482,-23.92578125,-21.97265625,-104.00390625,-43.9453125,0.0
1734581782.1373875,-24.4140625,-20.01953125,49.8046875,-31.73828125,0.0
1734581782.1412933,-25.87890625,-18.06640625,197.75390625,-43.45703125,0.0
1734581782.1451988,-22.94921875,-18.5546875,-7.8125,-47.36328125,0.0
1734581782.1491046,-26.3671875,-20.99609375,-394.53125,-52.734375,0.0
1734581782.1530101,-36.62109375,-21.484375,-258.30078125,-81.54296875,0.0
1734581782.156916,-37.59765625,-23.4375,190.4296875,-98.6328125,0.0
1734581782.1608214,-37.109375,-28.3203125,157.2265625,-87.40234375,0.0
1734581782.164727,-33.69140625,-34.1796875,-260.25390625,-73.2421875,0.0
1734581782.1686327,-22.94921875,-31.73828125,-84.47265625,-78.61328125,0.0
1734581782.1725383,-26.85546875,-31.25,172.36328125,-75.68359375,0.0
1734581782.1764567,-31.25,-32.2265625,53.22265625,-69.3359375,0.0
1734581782.1803622,-14.16015625,-32.2265625,20.01953125,-55.6640625,0.0
1734581782.184268,-34.1796875,-25.390625,151.3671875,-53.7109375,0.0
1734581782.1881735,-47.8515625,-22.94921875,154.296875,-48.33984375,0.0
1734581782.192079,-29.78515625,-25.87890625,-5.37109375,-43.9453125,0.0
1734581782.1959848,-23.4375,-25.87890625,-148.4375,-36.62109375,0.0
1734581782.1998904,-23.92578125,-24.90234375,14.6484375,-14.16015625,0.0
1734581782.2037961,-25.390625,-25.390625,125.48828125,-40.52734375,0.0
1734581782.2077017,-24.4140625,-21.484375,-94.7265625,-51.7578125,0.0
1734581782.2116075,-19.04296875,-18.5546875,-340.8203125,-34.66796875,0.0
1734581782.215513,-19.53125,-27.34375,80.56640625,-39.0625,0.0
1734581782.2194188,-13.671875,-35.64453125,237.3046875,-33.203125,0.0
1734581782.2233362,-6.34765625,-31.73828125,60.05859375,-26.3671875,0.0
1734581782.227242,-12.6953125,-24.90234375,81.54296875,-39.0625,0.0
1734581782.2311475,-21.484375,-21.484375,124.0234375,-56.640625,0.0
1734581782.2350533,-20.5078125,-31.25,96.19140625,-42.96875,0.0
1734581782.2389588,-13.671875,-31.73828125,34.66796875,-13.671875,0.0
1734581782.2428646,-7.8125,-23.4375,60.05859375,-27.83203125,0.0
1734581782.2467701,3.90625,-20.99609375,81.0546875,-53.7109375,0.0
1734581782.2506757,-4.39453125,-18.06640625,81.54296875,-62.5,0.0
1734581782.2545815,-24.90234375,-30.2734375,-292.48046875,-31.25,0.0
1734581782.258487,-26.85546875,-36.62109375,-93.26171875,-29.78515625,0.0
1734581782.2623928,-18.06640625,-28.3203125,213.37890625,-55.17578125,0.0
1734581782.2662983,-12.6953125,-24.90234375,17.578125,-30.76171875,0.0
1734581782.270215,-12.20703125,-20.5078125,-44.43359375,-32.2265625,0.0
1734581782.2741206,-14.16015625,-17.578125,99.609375,-38.0859375,0.0
1734581782.278026,-17.08984375,-20.99609375,190.91796875,-25.390625,0.0
1734581782.2819319,-10.25390625,-25.87890625,143.5546875,-21.484375,0.0
1734581782.2858374,-12.20703125,-26.85546875,71.77734375,-18.06640625,0.0
1734581782.2897432,-16.11328125,-20.99609375,-94.23828125,-11.71875,0.0
1734581782.2936487,-22.4609375,-21.97265625,-225.5859375,-18.5546875,0.0
1734581782.2975545,-41.50390625,-31.25,-194.82421875,-13.671875,0.0
1734581782.30146,-39.0625,-34.1796875,-249.0234375,-8.30078125,0.0
1734581782.3053658,-25.87890625,-27.83203125,77.1484375,-24.4140625,0.0
1734581782.3092713,-22.94921875,-28.80859375,133.30078125,-20.5078125,0.0
1734581782.3131769,-20.01953125,-23.4375,-74.21875,-13.18359375,0.0
1734581782.3170931,-22.94921875,-19.53125,69.3359375,-15.625,0.0
1734581782.320999,-25.87890625,-24.4140625,167.48046875,-2.44140625,0.0
1734581782.3249044,-22.94921875,-22.4609375,122.0703125,-8.7890625,0.0
1734581782.32881,-23.92578125,-31.73828125,-103.02734375,-31.73828125,0.0
1734581782.3327157,-31.25,-36.62109375,-53.7109375,-41.015625,0.0
1734581782.3366213,-34.1796875,-30.2734375,44.43359375,-41.015625,0.0
1734581782.340527,-31.25,-23.4375,72.265625,-25.390625,0.0
1734581782.3444326,-35.15625,-20.01953125,-224.609375,-24.90234375,0.0
1734581782.3483384,-26.3671875,-17.08984375,-215.8203125,-16.6015625,0.0
1734581782.352244,-3.90625,-18.06640625,144.53125,2.44140625,0.0
1734581782.3561497,-10.7421875,-37.109375,87.40234375,-4.8828125,0.0
1734581782.3600552,-33.203125,-35.15625,29.78515625,-14.16015625,0.0
1734581782.3639698,0.0,-31.25,125.9765625,-36.62109375,0.0
1734581782.3678756,0.0,-41.50390625,124.51171875,-52.734375,0.0
1734581782.371781,0.0,-45.8984375,6.34765625,-41.015625,0.0
1734581782.375687,0.0,-52.24609375,-57.6171875,-45.41015625,0.0
1734581782.3795924,0.0,-49.8046875,32.71484375,-59.5703125,0.0
1734581782.3834982,0.0,-36.1328125,59.5703125,-66.40625,0.0
1734581782.3874037,0.0,-32.71484375,-168.45703125,-72.75390625,0.0
1734581782.3913093,0.0,-26.3671875,-487.3046875,-52.734375,0.0
1734581782.395215,0.0,-26.85546875,-26.85546875,-50.78125,0.0
1734581782.3991206,0.0,-29.296875,214.84375,-61.03515625,0.0
1734581782.4030263,0.0,-33.69140625,51.7578125,-54.6875,0.0
1734581782.4069319,0.0,-49.31640625,62.01171875,-44.43359375,0.0
1734581782.410845,-80.56640625,-45.41015625,74.21875,-41.015625,0.0
1734581782.4147506,-77.63671875,-31.73828125,61.5234375,-35.64453125,0.0
1734581782.4186563,-70.80078125,-28.80859375,-2.44140625,-28.3203125,0.0
1734581782.422562,-68.359375,-30.76171875,91.30859375,-30.2734375,0.0
1734581782.4264677,-63.4765625,-46.38671875,113.76953125,-36.62109375,0.0
1734581782.4303732,-57.12890625,-36.62109375,-222.16796875,-56.15234375,0.0
1734581782.4342787,-52.734375,-22.4609375,-530.76171875,-48.828125,0.0
1734581782.4381845,-55.17578125,-30.76171875,-223.14453125,-34.1796875,0.0
1734581782.44209,-59.08203125,-29.78515625,196.2890625,-46.875,0.0
1734581782.4459958,-55.17578125,-24.90234375,76.171875,-52.734375,0.0
1734581782.4499013,-46.875,-23.92578125,-150.390625,-48.828125,0.0
1734581782.453807,-51.26953125,-19.53125,-9.765625,-35.15625,0.0
1734581782.4577196,-58.59375,-25.390625,175.78125,-28.80859375,0.0
1734581782.461625,-51.7578125,-28.3203125,114.2578125,-36.1328125,0.0
1734581782.4655309,-43.45703125,-27.34375,-25.390625,-28.80859375,0.0
1734581782.4694364,-46.875,-28.3203125,22.94921875,-27.34375,0.0
1734581782.4733422,-57.12890625,-37.109375,77.1484375,-35.15625,0.0
1734581782.4772477,-51.7578125,-43.9453125,-144.04296875,-42.96875,0.0
1734581782.4811532,-47.36328125,-35.64453125,-310.546875,-38.57421875,0.0
1734581782.485059,-35.64453125,-35.15625,-121.09375,-35.15625,0.0
1734581782.4889646,-32.71484375,-38.0859375,-18.06640625,-40.52734375,0.0
1734581782.4928703,-33.203125,-25.87890625,-147.94921875,-49.8046875,0.0
1734581782.4967759,-24.90234375,-25.390625,-152.34375,-40.52734375,0.0
1734581782.5006816,-34.1796875,-34.66796875,125.9765625,-22.4609375,0.0
1734581782.5046012,-41.50390625,-31.73828125,139.6484375,-18.06640625,0.0
1734581782.508507,-25.87890625,-25.87890625,-184.5703125,-33.203125,0.0
1734581782.5124125,-20.99609375,-24.90234375,-190.4296875,-39.55078125,0.0
1734581782.516318,-26.85546875,-17.578125,89.84375,-46.875,0.0
1734581782.5202239,-27.34375,-11.23046875,146.484375,-63.4765625,0.0
1734581782.5241294,-32.2265625,-16.11328125,-204.58984375,-58.10546875,0.0
1734581782.5280352,-34.66796875,-25.390625,-314.453125,-50.78125,0.0
1734581782.5319407,-34.1796875,-27.83203125,21.97265625,-45.8984375,0.0
1734581782.5358465,-41.50390625,-23.92578125,78.125,-29.78515625,0.0
1734581782.539752,-31.25,-18.06640625,-293.9453125,-11.71875,0.0
1734581782.5436578,-27.83203125,-14.16015625,-76.171875,-23.92578125,0.0
1734581782.5475633,-36.62109375,-20.01953125,150.390625,-36.1328125,0.0
1734581782.5514824,-26.3671875,-21.484375,-55.6640625,-22.94921875,0.0
1734581782.555388,-20.5078125,-23.92578125,-196.2890625,-19.04296875,0.0
1734581782.5592935,-24.90234375,-43.9453125,46.875,-16.11328125,0.0
1734581782.5631993,-20.5078125,-41.9921875,188.96484375,-22.4609375,0.0
1734581782.5671048,-12.6953125,-29.296875,5.37109375,-24.90234375,0.0
1734581782.5710106,-15.13671875,-9.27734375,-271.97265625,-24.4140625,0.0
1734581782.5749161,-24.4140625,-2.9296875,-212.40234375,-27.34375,0.0
1734581782.578822,-23.92578125,-18.06640625,64.453125,-25.390625,0.0
1734581782.5827274,-15.625,-20.5078125,-31.25,-28.80859375,0.0
1734581782.5866332,-23.92578125,-22.94921875,-373.53515625,-21.484375,0.0
1734581782.5905387,-33.203125,-29.78515625,-49.31640625,-17.578125,0.0
1734581782.5944443,-26.85546875,-36.62109375,117.67578125,-15.13671875,0.0
1734581782.5983622,-17.08984375,-38.57421875,26.3671875,-20.5078125,0.0
1734581782.6022677,-24.4140625,-38.0859375,140.13671875,-33.203125,0.0
1734581782.6061735,-32.2265625,-33.203125,133.7890625,-27.83203125,0.0
1734581782.610079,-24.4140625,-22.4609375,20.01953125,-26.3671875,0.0
1734581782.6139848,-18.5546875,-22.94921875,-218.26171875,-23.4375,0.0
1734581782.6178904,-14.6484375,-20.99609375,-131.34765625,-17.578125,0.0
1734581782.621796,-18.5546875,-25.390625,102.5390625,-22.4609375,0.0
1734581782.6257017,-20.99609375,-35.15625,99.12109375,-20.5078125,0.0
1734581782.6296072,-12.20703125,-28.3203125,-359.375,-11.23046875,0.0
1734581782.633513,-21.484375,-32.71484375,-270.01953125,-9.27734375,0.0
1734581782.6374185,-20.5078125,-42.48046875,211.9140625,-19.04296875,0.0
1734581782.6413243,-13.671875,-37.59765625,143.5546875,-20.5078125,0.0
1734581782.6452405,-16.11328125,-26.3671875,13.18359375,-28.3203125,0.0
1734581782.6491463,-26.85546875,-27.34375,47.36328125,-33.203125,0.0
1734581782.6530519,-32.2265625,-27.83203125,68.84765625,-38.0859375,0.0
1734581782.6569574,-28.3203125,-32.71484375,130.37109375,-39.0625,0.0
1734581782.6608632,-19.04296875,-41.9921875,151.85546875,-36.62109375,0.0
1734581782.6647687,-18.5546875,-30.2734375,5.859375,-40.0390625,0.0
1734581782.6686745,-21.97265625,-27.83203125,-137.6953125,-35.15625,0.0
1734581782.67258,-25.390625,-35.64453125,-336.42578125,-21.97265625,0.0
1734581782.6764858,-15.625,-28.3203125,-324.21875,-8.30078125,0.0
1734581782.6803913,-15.13671875,-22.4609375,131.8359375,-17.578125,0.0
1734581782.684297,-45.41015625,-34.1796875,186.03515625,-19.04296875,0.0
1734581782.6882026,-46.875,-39.0625,-125.0,-10.25390625,0.0
1734581782.6921182,-36.1328125,-42.48046875,-148.4375,-33.203125,0.0
1734581782.6960237,-23.92578125,-43.45703125,131.34765625,-31.73828125,0.0
1734581782.6999295,-6.34765625,-26.85546875,178.22265625,-17.578125,0.0
1734581782.703835,-18.5546875,-22.4609375,-7.32421875,-35.15625,0.0
1734581782.7077408,-26.3671875,-29.296875,-10.25390625,-36.1328125,0.0
1734581782.7116463,-33.69140625,-35.64453125,-194.82421875,-40.0390625,0.0
1734581782.715552,-38.57421875,-36.1328125,-194.82421875,-26.3671875,0.0
1734581782.7194576,-21.97265625,-37.59765625,-225.09765625,-5.859375,0.0
1734581782.7233632,-14.6484375,-40.0390625,-108.88671875,-20.5078125,0.0
