timestamps,TP9,AF7,AF8,TP10,Right AUX
1734581005.362254,20.99609375,-64.453125,60.546875,-13.18359375,0.0
1734581005.366159,29.296875,-58.10546875,20.99609375,-14.16015625,0.0
1734581005.3700643,30.76171875,-52.734375,19.04296875,-5.37109375,0.0
1734581005.3739696,20.99609375,-57.12890625,43.45703125,-8.30078125,0.0
1734581005.3778749,1.953125,-67.87109375,35.64453125,-18.5546875,0.0
1734581005.38178,10.7421875,-66.89453125,-41.015625,-13.671875,0.0
1734581005.3856852,20.99609375,-64.94140625,-44.43359375,-5.37109375,0.0
1734581005.3895905,23.4375,-68.84765625,35.64453125,-11.71875,0.0
1734581005.3934958,19.53125,-69.82421875,21.97265625,-12.20703125,0.0
1734581005.3974009,4.39453125,-66.89453125,-13.18359375,-5.37109375,0.0
1734581005.4013062,1.46484375,-71.2890625,19.53125,-2.9296875,0.0
1734581005.4052114,3.41796875,-73.73046875,61.5234375,-15.13671875,0.0
1734581005.4091344,5.859375,-70.3125,29.296875,-20.99609375,0.0
1734581005.4130397,10.25390625,-67.3828125,-21.484375,-6.34765625,0.0
1734581005.416945,9.27734375,-70.3125,10.25390625,5.859375,0.0
1734581005.4208503,3.41796875,-78.125,32.2265625,-17.08984375,0.0
1734581005.4247553,-1.46484375,-79.58984375,3.90625,-24.4140625,0.0
1734581005.4286606,10.25390625,-75.68359375,-54.6875,-2.44140625,0.0
1734581005.432566,8.7890625,-68.84765625,-14.6484375,3.41796875,0.0
1734581005.4364712,-2.9296875,-63.4765625,61.03515625,4.39453125,0.0
1734581005.4403763,-3.41796875,-62.98828125,14.16015625,6.8359375,0.0
1734581005.4442816,2.44140625,-63.96484375,-80.078125,3.41796875,0.0
1734581005.4481869,8.30078125,-63.96484375,-5.37109375,-0.9765625,0.0
1734581005.4520922,16.6015625,-60.546875,20.01953125,-1.953125,0.0
1734581005.456014,10.25390625,-55.17578125,0.0,-10.7421875,0.0
1734581005.459919,6.34765625,-48.828125,38.0859375,-3.41796875,0.0
1734581005.4638243,12.6953125,-51.26953125,59.08203125,-1.953125,0.0
1734581005.4677296,21.484375,-55.17578125,46.875,-8.7890625,0.0
1734581005.4716349,27.34375,-53.7109375,7.32421875,-3.90625,0.0
1734581005.47554,16.6015625,-52.734375,-18.06640625,-4.8828125,0.0
1734581005.4794452,12.6953125,-52.734375,13.671875,-4.8828125,0.0
1734581005.4833505,17.578125,-52.734375,53.22265625,-4.39453125,0.0
1734581005.4872558,26.3671875,-53.7109375,-25.87890625,0.9765625,0.0
1734581005.491161,27.83203125,-60.05859375,-54.6875,0.48828125,0.0
1734581005.4950662,15.13671875,-62.98828125,52.734375,-7.32421875,0.0
1734581005.4989715,15.13671875,-59.5703125,47.8515625,-2.44140625,0.0
1734581005.5028923,15.625,-57.12890625,-23.4375,-2.9296875,0.0
1734581005.5067976,8.7890625,-61.03515625,16.11328125,-12.20703125,0.0
1734581005.5107028,11.23046875,-65.4296875,35.64453125,-5.859375,0.0
1734581005.514608,10.7421875,-66.40625,-5.37109375,0.9765625,0.0
1734581005.5185132,3.90625,-65.91796875,-0.48828125,-8.30078125,0.0
1734581005.5224185,-2.44140625,-69.82421875,0.0,-5.37109375,0.0
1734581005.5263238,-8.7890625,-69.82421875,36.1328125,1.953125,0.0
1734581005.5302289,6.8359375,-62.01171875,47.8515625,8.30078125,0.0
1734581005.5341341,20.01953125,-57.6171875,-63.4765625,30.76171875,0.0
1734581005.5380394,10.7421875,-60.546875,26.3671875,22.4609375,0.0
1734581005.5419447,14.16015625,-61.5234375,74.70703125,15.625,0.0
1734581005.5458498,17.578125,-57.12890625,5.859375,26.3671875,0.0
1734581005.54977,0.0,-51.26953125,35.64453125,28.3203125,0.0
1734581005.5536754,0.0,-57.6171875,64.94140625,26.85546875,0.0
1734581005.5575807,0.0,-59.08203125,49.31640625,20.5078125,0.0
1734581005.561486,0.0,-55.6640625,14.6484375,11.23046875,0.0
1734581005.565391,0.0,-52.734375,8.7890625,4.39453125,0.0
1734581005.5692964,0.0,-50.78125,3.90625,7.8125,0.0
1734581005.5732017,0.0,-58.59375,14.6484375,12.20703125,0.0
1734581005.577107,0.0,-64.94140625,-20.99609375,8.30078125,0.0
1734581005.581012,0.0,-62.98828125,-37.109375,0.9765625,0.0
1734581005.5849173,0.0,-66.89453125,63.4765625,-2.9296875,0.0
1734581005.5888226,0.0,-70.80078125,63.4765625,-6.34765625,0.0
1734581005.592728,0.0,-65.91796875,-1.46484375,-5.859375,0.0
1734581005.5966218,26.3671875,-62.98828125,15.625,-2.9296875,0.0
1734581005.600527,24.90234375,-59.5703125,55.6640625,-4.8828125,0.0
1734581005.6044323,7.32421875,-57.6171875,31.25,-6.34765625,0.0
1734581005.6083374,7.8125,-58.10546875,-0.9765625,0.9765625,0.0
1734581005.6122427,20.5078125,-60.05859375,36.1328125,1.953125,0.0
1734581005.616148,26.3671875,-63.4765625,35.15625,5.37109375,0.0
1734581005.6200533,13.671875,-64.94140625,8.7890625,12.6953125,0.0
1734581005.6239583,11.23046875,-61.5234375,-37.59765625,27.34375,0.0
1734581005.6278636,20.99609375,-61.5234375,16.11328125,25.87890625,0.0
1734581005.631769,17.578125,-58.10546875,78.61328125,15.625,0.0
1734581005.6356742,11.71875,-55.17578125,56.15234375,12.6953125,0.0
1734581005.6395793,8.7890625,-55.6640625,14.6484375,19.53125,0.0
1734581005.6434722,3.41796875,-59.08203125,56.15234375,20.01953125,0.0
1734581005.6473775,-5.859375,-62.5,73.73046875,20.5078125,0.0
1734581005.6512828,-0.48828125,-58.10546875,32.71484375,25.87890625,0.0
1734581005.6551878,8.7890625,-56.15234375,39.0625,21.484375,0.0
1734581005.6590931,4.8828125,-54.6875,49.8046875,14.6484375,0.0
1734581005.6629984,-5.859375,-51.26953125,23.92578125,10.7421875,0.0
1734581005.6669037,-13.671875,-55.17578125,-14.16015625,18.06640625,0.0
1734581005.6708088,1.953125,-53.7109375,-27.83203125,21.484375,0.0
1734581005.674714,11.23046875,-53.7109375,67.87109375,10.25390625,0.0
1734581005.6786194,3.90625,-55.17578125,76.171875,13.671875,0.0
1734581005.6825247,7.8125,-57.12890625,25.390625,8.7890625,0.0
1734581005.6864297,15.625,-58.59375,37.109375,-7.8125,0.0
1734581005.6903646,6.34765625,-55.6640625,41.9921875,-7.32421875,0.0
1734581005.6942697,13.671875,-58.59375,51.26953125,-1.953125,0.0
1734581005.698175,16.6015625,-60.05859375,21.97265625,3.90625,0.0
1734581005.7020802,14.16015625,-58.10546875,42.48046875,2.44140625,0.0
1734581005.7059855,22.4609375,-62.98828125,69.82421875,5.859375,0.0
1734581005.7098906,21.484375,-67.3828125,8.7890625,11.23046875,0.0
1734581005.713796,25.390625,-68.359375,-68.84765625,26.85546875,0.0
1734581005.7177012,22.94921875,-72.265625,26.85546875,29.296875,0.0
1734581005.7216065,12.20703125,-70.80078125,96.19140625,20.99609375,0.0
1734581005.7255116,15.625,-63.4765625,53.7109375,22.4609375,0.0
1734581005.7294168,13.671875,-63.96484375,34.66796875,10.7421875,0.0
1734581005.7333221,5.859375,-69.82421875,18.06640625,-0.48828125,0.0
1734581005.737246,1.46484375,-69.82421875,41.50390625,-3.90625,0.0
1734581005.7411513,3.90625,-65.91796875,40.0390625,-0.48828125,0.0
1734581005.7450566,-0.48828125,-66.89453125,29.296875,-8.7890625,0.0
1734581005.748962,-3.41796875,-70.3125,31.73828125,-9.765625,0.0
1734581005.752867,-3.41796875,-72.75390625,37.59765625,2.44140625,0.0
1734581005.7567723,-1.46484375,-73.2421875,0.0,13.18359375,0.0
1734581005.7606776,13.18359375,-68.84765625,-14.16015625,11.71875,0.0
1734581005.7645829,12.20703125,-60.546875,48.33984375,1.953125,0.0
1734581005.768488,3.90625,-62.01171875,56.640625,6.34765625,0.0
1734581005.7723932,23.92578125,-63.4765625,0.48828125,16.6015625,0.0
1734581005.7762985,15.625,-63.4765625,15.13671875,9.27734375,0.0
1734581005.7802038,10.25390625,-69.3359375,55.17578125,-2.9296875,0.0
1734581005.7841265,13.18359375,-75.1953125,39.0625,1.46484375,0.0
1734581005.7880318,10.25390625,-79.58984375,-51.7578125,7.8125,0.0
1734581005.791937,0.9765625,-81.0546875,-30.76171875,3.41796875,0.0
1734581005.7958424,-19.04296875,-78.61328125,59.5703125,-8.7890625,0.0
1734581005.7997475,-17.08984375,-79.1015625,22.94921875,-4.39453125,0.0
1734581005.8036528,-9.27734375,-77.1484375,-21.484375,10.25390625,0.0
1734581005.807558,-3.41796875,-72.75390625,1.46484375,18.5546875,0.0
1734581005.8114634,-4.8828125,-75.68359375,49.31640625,16.6015625,0.0
1734581005.8153684,0.9765625,-71.2890625,47.8515625,24.4140625,0.0
1734581005.8192737,12.20703125,-66.89453125,-52.734375,41.015625,0.0
1734581005.823179,-1.953125,-69.82421875,13.18359375,18.06640625,0.0
1734581005.8270843,-0.9765625,-68.84765625,56.15234375,7.32421875,0.0
1734581005.8310065,7.32421875,-67.3828125,32.2265625,12.20703125,0.0
1734581005.8349116,8.7890625,-65.4296875,59.08203125,18.5546875,0.0
1734581005.838817,9.27734375,-68.359375,65.91796875,22.4609375,0.0
1734581005.8427222,14.16015625,-65.91796875,50.29296875,23.4375,0.0
1734581005.8466275,24.90234375,-60.546875,20.01953125,20.5078125,0.0
1734581005.8505325,29.78515625,-62.5,-1.953125,8.30078125,0.0
1734581005.8544378,16.6015625,-63.4765625,29.296875,9.27734375,0.0
1734581005.8583431,11.71875,-56.640625,63.96484375,11.23046875,0.0
1734581005.8622484,24.4140625,-59.08203125,-19.04296875,22.94921875,0.0
1734581005.8661535,26.85546875,-66.40625,-54.19921875,32.2265625,0.0
1734581005.8700588,19.04296875,-65.4296875,66.89453125,10.7421875,0.0
1734581005.873964,8.30078125,-64.453125,66.89453125,3.90625,0.0
1734581005.877885,0.0,-66.40625,-5.859375,0.0,0.0
1734581005.8817904,0.0,-71.2890625,12.20703125,0.0,0.0
1734581005.8856957,0.0,-70.80078125,43.45703125,0.0,0.0
1734581005.8896008,0.0,-62.98828125,30.76171875,0.0,0.0
1734581005.893506,0.0,-59.08203125,-12.6953125,0.0,0.0
1734581005.8974113,0.0,-62.01171875,-34.66796875,0.0,0.0
1734581005.9013166,0.0,-63.4765625,5.37109375,0.0,0.0
1734581005.9052217,0.0,-61.5234375,15.13671875,0.0,0.0
1734581005.909127,0.0,-64.453125,-99.609375,0.0,0.0
1734581005.9130323,0.0,-70.3125,-16.6015625,0.0,0.0
1734581005.9169376,0.0,-68.359375,50.29296875,0.0,0.0
1734581005.9208426,0.0,-65.4296875,-24.90234375,0.0,0.0
1734581005.924738,5.859375,-63.96484375,0.0,11.71875,0.0
1734581005.9286432,2.44140625,-62.5,0.0,2.9296875,0.0
1734581005.9325485,12.6953125,-64.453125,0.0,-2.9296875,0.0
1734581005.9364538,31.73828125,-64.94140625,0.0,0.48828125,0.0
1734581005.9403589,29.78515625,-67.3828125,0.0,0.9765625,0.0
1734581005.9442642,18.5546875,-72.265625,0.0,1.46484375,0.0
1734581005.9481695,11.71875,-70.3125,0.0,-0.9765625,0.0
1734581005.9520748,26.3671875,-67.3828125,0.0,7.32421875,0.0
1734581005.95598,31.73828125,-66.40625,0.0,20.99609375,0.0
1734581005.9598851,1.953125,-62.01171875,0.0,14.6484375,0.0
1734581005.9637904,-2.44140625,-60.05859375,0.0,15.625,0.0
1734581005.9676957,3.90625,-65.4296875,0.0,23.92578125,0.0
1734581005.9716148,32.2265625,-69.3359375,14.16015625,0.0,0.0
1734581005.9755201,18.06640625,-68.359375,41.9921875,0.0,0.0
1734581005.9794254,19.04296875,-66.40625,16.6015625,0.0,0.0
1734581005.9833305,17.578125,-70.3125,-34.1796875,0.0,0.0
1734581005.9872358,20.5078125,-76.171875,-3.90625,0.0,0.0
1734581005.991141,20.5078125,-68.359375,10.7421875,0.0,0.0
1734581005.9950464,20.01953125,-65.91796875,-9.27734375,0.0,0.0
1734581005.9989517,16.11328125,-69.82421875,-76.171875,0.0,0.0
1734581006.0028567,7.32421875,-70.80078125,-9.27734375,0.0,0.0
1734581006.006762,9.765625,-71.77734375,71.2890625,0.0,0.0
1734581006.0106673,11.71875,-70.80078125,15.625,0.0,0.0
1734581006.0145726,2.44140625,-73.2421875,-19.04296875,0.0,0.0
1734581006.0184906,-10.25390625,-75.68359375,16.6015625,9.765625,0.0
1734581006.0223958,-14.6484375,-77.1484375,33.203125,4.8828125,0.0
1734581006.0263011,-6.34765625,-76.171875,9.765625,12.20703125,0.0
1734581006.0302064,-1.953125,-76.171875,5.37109375,2.44140625,0.0
1734581006.0341115,-0.9765625,-75.68359375,32.2265625,-6.34765625,0.0
1734581006.0380168,-0.9765625,-67.3828125,5.37109375,-2.9296875,0.0
1734581006.041922,4.39453125,-62.01171875,-61.03515625,0.0,0.0
1734581006.0458274,12.20703125,-60.05859375,-54.6875,10.25390625,0.0
1734581006.0497324,18.06640625,-57.12890625,56.15234375,4.8828125,0.0
1734581006.0536377,21.484375,-58.10546875,62.98828125,4.39453125,0.0
1734581006.057543,5.37109375,-65.4296875,-2.44140625,11.23046875,0.0
1734581006.0614483,4.8828125,-66.89453125,18.5546875,-0.48828125,0.0
1734581006.0653646,0.0,-67.3828125,52.734375,-7.32421875,0.0
1734581006.06927,0.0,-61.5234375,30.2734375,7.32421875,0.0
1734581006.073175,0.0,-60.546875,-1.953125,20.01953125,0.0
1734581006.0770802,0.0,-68.359375,28.3203125,21.484375,0.0
1734581006.0809855,0.0,-60.546875,51.7578125,26.3671875,0.0
1734581006.0848908,0.0,-52.24609375,3.90625,37.59765625,0.0
1734581006.088796,0.0,-61.03515625,-63.96484375,46.38671875,0.0
1734581006.0927012,0.0,-61.5234375,5.859375,33.203125,0.0
1734581006.0966065,0.0,-59.5703125,76.66015625,18.5546875,0.0
1734581006.1005118,0.0,-61.03515625,21.97265625,25.87890625,0.0
1734581006.104417,0.0,-58.10546875,-77.1484375,35.64453125,0.0
1734581006.1083221,0.0,-59.5703125,6.8359375,23.92578125,0.0
1734581006.1122375,14.6484375,-59.5703125,92.7734375,16.6015625,0.0
1734581006.1161427,10.25390625,-55.17578125,44.921875,18.06640625,0.0
1734581006.1200478,-0.9765625,-56.640625,30.2734375,3.41796875,0.0
1734581006.123953,-3.41796875,-56.640625,51.26953125,-1.46484375,0.0
1734581006.1278584,3.90625,-52.734375,57.6171875,8.30078125,0.0
1734581006.1317637,5.859375,-56.15234375,9.27734375,13.671875,0.0
1734581006.1356688,4.8828125,-59.5703125,-2.9296875,20.01953125,0.0
1734581006.139574,10.25390625,-57.12890625,62.5,11.23046875,0.0
1734581006.1434793,15.625,-60.546875,75.1953125,-0.9765625,0.0
1734581006.1473846,27.83203125,-62.98828125,17.08984375,13.18359375,0.0
1734581006.1512897,29.296875,-59.5703125,22.4609375,19.53125,0.0
1734581006.155195,14.6484375,-56.15234375,67.87109375,12.6953125,0.0
1734581006.1591187,14.6484375,-55.6640625,38.0859375,11.23046875,0.0
1734581006.163024,15.625,-60.546875,-5.37109375,8.7890625,0.0
1734581006.1669292,15.625,-66.40625,46.38671875,10.7421875,0.0
1734581006.1708343,20.99609375,-60.05859375,73.2421875,19.04296875,0.0
1734581006.1747396,17.578125,-55.17578125,36.62109375,17.578125,0.0
1734581006.178645,16.6015625,-60.05859375,-21.97265625,24.4140625,0.0
1734581006.1825502,22.4609375,-63.4765625,6.34765625,26.3671875,0.0
1734581006.1864555,19.53125,-71.77734375,84.47265625,16.11328125,0.0
1734581006.1903605,17.578125,-73.73046875,54.19921875,23.92578125,0.0
1734581006.1942658,17.08984375,-68.84765625,-47.36328125,37.59765625,0.0
1734581006.1981711,11.71875,-71.77734375,33.69140625,23.4375,0.0
1734581006.2020764,15.625,-75.1953125,48.828125,20.99609375,0.0
1734581006.205998,18.5546875,-76.171875,11.71875,25.87890625,0.0
1734581006.2099032,17.08984375,-81.0546875,60.546875,26.85546875,0.0
1734581006.2138083,1.46484375,-83.49609375,78.125,26.3671875,0.0
1734581006.2177136,-5.37109375,-78.61328125,47.36328125,20.01953125,0.0
1734581006.221619,6.8359375,-76.171875,12.20703125,20.5078125,0.0
1734581006.2255242,13.671875,-74.21875,12.20703125,20.01953125,0.0
1734581006.2294292,19.53125,-70.3125,41.015625,21.484375,0.0
1734581006.2333345,17.578125,-68.84765625,83.49609375,28.80859375,0.0
1734581006.2372398,22.4609375,-62.98828125,13.671875,39.0625,0.0
1734581006.2411451,29.296875,-62.01171875,-21.484375,33.203125,0.0
1734581006.2450504,24.90234375,-66.40625,81.0546875,21.484375,0.0
1734581006.2489555,27.34375,-64.94140625,91.30859375,26.3671875,0.0
1734581006.2528763,30.2734375,-62.01171875,18.5546875,17.578125,0.0
1734581006.2567816,29.78515625,-57.6171875,32.2265625,23.4375,0.0
1734581006.2606866,27.83203125,-51.26953125,71.77734375,23.4375,0.0
1734581006.264592,35.15625,-51.26953125,64.453125,21.97265625,0.0
1734581006.2684972,44.43359375,-50.78125,14.6484375,38.57421875,0.0
1734581006.2724025,36.62109375,-51.7578125,-0.9765625,40.52734375,0.0
1734581006.2763076,39.0625,-51.26953125,20.01953125,33.203125,0.0
1734581006.2802129,55.6640625,-45.8984375,-10.25390625,36.62109375,0.0
1734581006.2841182,57.6171875,-43.9453125,-26.3671875,40.52734375,0.0
1734581006.2880235,46.38671875,-49.31640625,39.55078125,33.69140625,0.0
1734581006.2919288,42.96875,-61.5234375,37.109375,37.109375,0.0
1734581006.2958338,29.296875,-64.453125,-49.8046875,41.9921875,0.0
1734581006.2997537,16.6015625,-61.5234375,-81.54296875,36.62109375,0.0
1734581006.3036587,8.7890625,-68.84765625,26.85546875,21.97265625,0.0
1734581006.307564,1.953125,-70.80078125,53.22265625,11.71875,0.0
1734581006.3114693,6.34765625,-66.40625,15.13671875,17.08984375,0.0
1734581006.3153746,-4.39453125,-68.359375,26.85546875,13.18359375,0.0
1734581006.3192797,-6.34765625,-67.3828125,7.8125,2.9296875,0.0
1734581006.323185,0.48828125,-67.87109375,0.48828125,0.9765625,0.0
1734581006.3270903,9.27734375,-65.91796875,-11.71875,13.18359375,0.0
1734581006.3309956,11.23046875,-59.5703125,-28.3203125,13.671875,0.0
1734581006.3349009,-0.48828125,-56.15234375,47.8515625,5.37109375,0.0
1734581006.338806,2.44140625,-59.08203125,28.80859375,10.7421875,0.0
1734581006.3427112,2.9296875,-60.546875,-16.6015625,1.953125,0.0
1734581006.3466299,0.9765625,-58.59375,21.484375,-4.8828125,0.0
1734581006.350535,10.25390625,-63.96484375,35.64453125,-1.46484375,0.0
1734581006.3544402,1.46484375,-68.359375,13.671875,6.34765625,0.0
1734581006.3583455,-13.18359375,-66.40625,-22.4609375,5.37109375,0.0
1734581006.3622508,-5.859375,-66.40625,-7.32421875,6.8359375,0.0
1734581006.3661559,8.7890625,-69.3359375,-0.9765625,10.25390625,0.0
1734581006.3700612,12.6953125,-72.75390625,-19.53125,17.08984375,0.0
1734581006.3739665,19.04296875,-71.2890625,-93.75,32.2265625,0.0
1734581006.3778718,6.34765625,-68.359375,-17.08984375,21.484375,0.0
1734581006.381777,2.9296875,-64.453125,67.87109375,18.06640625,0.0
1734581006.385682,11.71875,-62.5,12.20703125,20.99609375,0.0
1734581006.3895874,15.13671875,-72.75390625,-28.3203125,19.53125,0.0
1734581006.3935049,0.0,-72.75390625,5.859375,23.92578125,0.0
1734581006.3974102,0.0,-67.3828125,6.34765625,15.625,0.0
1734581006.4013155,0.0,-66.89453125,-9.27734375,17.578125,0.0
1734581006.4052205,0.0,-62.98828125,32.71484375,21.97265625,0.0
1734581006.4091258,0.0,-58.10546875,50.29296875,16.11328125,0.0
1734581006.413031,0.0,-58.59375,20.01953125,18.06640625,0.0
1734581006.4169364,0.0,-58.10546875,-30.76171875,18.06640625,0.0
1734581006.4208415,0.0,-61.03515625,-52.24609375,18.06640625,0.0
1734581006.4247468,0.0,-62.98828125,56.640625,10.7421875,0.0
1734581006.428652,0.0,-61.03515625,67.3828125,12.6953125,0.0
1734581006.4325573,0.0,-61.03515625,-5.37109375,29.78515625,0.0
1734581006.4364624,0.0,-62.98828125,16.11328125,25.87890625,0.0
1734581006.4403791,1.953125,-65.4296875,41.015625,4.39453125,0.0
1734581006.4442844,14.6484375,-64.453125,15.625,4.39453125,0.0
1734581006.4481897,11.71875,-62.01171875,-20.5078125,8.30078125,0.0
1734581006.4520948,-8.7890625,-64.94140625,5.859375,4.8828125,0.0
1734581006.456,-17.08984375,-68.359375,5.37109375,6.8359375,0.0
1734581006.4599054,-1.46484375,-71.2890625,-30.76171875,11.71875,0.0
1734581006.4638107,20.99609375,-70.3125,-83.0078125,21.97265625,0.0
1734581006.4677157,17.08984375,-66.40625,-14.6484375,24.4140625,0.0
1734581006.471621,13.18359375,-61.03515625,58.10546875,23.92578125,0.0
1734581006.4755263,4.8828125,-57.6171875,17.578125,17.578125,0.0
1734581006.4794316,-3.90625,-59.5703125,-15.13671875,10.7421875,0.0
1734581006.4833367,3.90625,-60.05859375,2.9296875,8.7890625,0.0
1734581006.487252,5.859375,-62.5,36.62109375,8.7890625,0.0
1734581006.4911573,5.859375,-58.10546875,15.13671875,14.6484375,0.0
1734581006.4950624,11.23046875,-54.19921875,6.8359375,18.5546875,0.0
1734581006.4989676,16.6015625,-55.6640625,25.87890625,21.97265625,0.0
1734581006.502873,28.80859375,-55.17578125,38.0859375,20.99609375,0.0
1734581006.5067782,35.64453125,-58.10546875,-25.87890625,24.90234375,0.0
1734581006.5106833,30.2734375,-57.6171875,-51.26953125,38.0859375,0.0
1734581006.5145886,20.5078125,-58.59375,18.5546875,34.66796875,0.0
1734581006.518494,9.765625,-61.5234375,15.13671875,19.04296875,0.0
1734581006.5223992,9.27734375,-62.5,-17.08984375,16.6015625,0.0
1734581006.5263045,20.99609375,-65.91796875,7.32421875,14.16015625,0.0
1734581006.5302095,14.6484375,-66.89453125,45.8984375,11.71875,0.0
1734581006.5341332,6.34765625,-70.3125,22.4609375,13.18359375,0.0
1734581006.5380385,12.20703125,-73.73046875,-21.484375,14.6484375,0.0
1734581006.5419436,12.6953125,-70.3125,3.41796875,6.8359375,0.0
1734581006.5458488,7.32421875,-68.84765625,40.0390625,2.44140625,0.0
1734581006.5497541,12.6953125,-65.4296875,7.32421875,14.6484375,0.0
1734581006.5536594,14.16015625,-62.98828125,-63.96484375,24.4140625,0.0
1734581006.5575645,9.765625,-65.91796875,-29.78515625,17.578125,0.0
1734581006.5614698,7.8125,-63.96484375,37.109375,9.27734375,0.0
1734581006.565375,20.01953125,-63.96484375,11.23046875,9.765625,0.0
1734581006.5692804,31.73828125,-67.3828125,-84.9609375,20.99609375,0.0
1734581006.5731857,14.16015625,-65.4296875,-17.578125,23.92578125,0.0
1734581006.5770907,17.08984375,-62.01171875,16.11328125,28.3203125,0.0
1734581006.5810127,24.90234375,-62.98828125,-15.625,27.34375,0.0
1734581006.584918,19.04296875,-63.4765625,20.99609375,17.08984375,0.0
1734581006.588823,29.296875,-62.01171875,45.41015625,23.4375,0.0
1734581006.5927284,33.69140625,-62.01171875,43.9453125,24.90234375,0.0
1734581006.5966337,25.390625,-59.08203125,11.71875,23.4375,0.0
1734581006.600539,21.97265625,-54.6875,-12.20703125,34.1796875,0.0
1734581006.604444,27.34375,-60.546875,13.18359375,28.80859375,0.0
1734581006.6083493,20.01953125,-66.40625,60.546875,15.625,0.0
1734581006.6122546,9.765625,-69.3359375,-2.9296875,19.53125,0.0
1734581006.61616,3.41796875,-74.21875,-36.1328125,18.06640625,0.0
1734581006.6200652,-2.44140625,-71.2890625,66.40625,3.41796875,0.0
1734581006.6239703,5.859375,-69.3359375,66.89453125,0.0,0.0
1734581006.627891,-0.48828125,-72.75390625,11.23046875,-6.34765625,0.0
1734581006.6317964,-7.32421875,-70.80078125,16.6015625,-0.48828125,0.0
1734581006.6357014,-8.7890625,-69.82421875,37.109375,9.765625,0.0
1734581006.6396067,-18.5546875,-74.70703125,47.8515625,1.953125,0.0
1734581006.643512,-5.859375,-71.77734375,20.99609375,0.9765625,0.0
1734581006.6474173,9.765625,-66.89453125,1.46484375,8.7890625,0.0
1734581006.6513224,5.37109375,-68.84765625,38.57421875,4.39453125,0.0
1734581006.6552277,4.8828125,-73.73046875,48.33984375,10.25390625,0.0
1734581006.659133,11.71875,-66.89453125,-71.2890625,33.203125,0.0
1734581006.6630383,7.8125,-60.546875,10.25390625,15.625,0.0
1734581006.6669436,16.6015625,-65.4296875,80.078125,2.9296875,0.0
1734581006.6708486,8.30078125,-64.453125,-0.9765625,13.671875,0.0
1734581006.6747684,0.0,-62.01171875,25.87890625,1.953125,0.0
1734581006.6786737,0.0,-70.3125,57.6171875,-0.48828125,0.0
1734581006.6825788,0.0,-71.2890625,46.875,7.32421875,0.0
1734581006.686484,0.0,-66.40625,23.92578125,7.32421875,0.0
1734581006.6903894,0.0,-64.453125,10.7421875,11.23046875,0.0
1734581006.6942947,0.0,-60.546875,6.34765625,7.32421875,0.0
1734581006.6981997,0.0,-68.84765625,21.484375,-4.8828125,0.0
1734581006.702105,0.0,-74.70703125,-9.765625,1.46484375,0.0
1734581006.7060103,0.0,-69.3359375,-34.66796875,11.71875,0.0
1734581006.7099156,0.0,-71.2890625,58.10546875,2.9296875,0.0
1734581006.713821,0.0,-73.2421875,70.80078125,3.41796875,0.0
1734581006.717726,0.0,-69.82421875,20.5078125,7.32421875,0.0
1734581006.7216454,-11.23046875,-71.77734375,41.015625,-5.859375,0.0
1734581006.7255504,-16.6015625,-76.171875,64.453125,-10.7421875,0.0
1734581006.7294557,-6.34765625,-71.2890625,33.203125,-0.9765625,0.0
1734581006.733361,-9.27734375,-71.2890625,-0.48828125,2.44140625,0.0
1734581006.7372663,-8.30078125,-70.80078125,23.92578125,3.41796875,0.0
1734581006.7411714,6.34765625,-67.3828125,17.08984375,-2.44140625,0.0
1734581006.7450767,12.6953125,-64.94140625,0.9765625,0.9765625,0.0
1734581006.748982,7.8125,-67.87109375,-73.2421875,23.4375,0.0
1734581006.7528872,-3.90625,-72.75390625,-24.90234375,27.83203125,0.0
1734581006.7567925,-8.30078125,-70.3125,77.63671875,11.23046875,0.0
1734581006.7606976,-4.8828125,-71.2890625,38.57421875,9.27734375,0.0
1734581006.764603,11.71875,-69.82421875,-0.48828125,23.92578125,0.0
1734581006.768521,17.578125,-64.94140625,44.921875,27.83203125,0.0
1734581006.7724264,12.6953125,-61.03515625,60.05859375,23.4375,0.0
1734581006.7763317,20.5078125,-58.10546875,17.08984375,28.80859375,0.0
1734581006.7802367,19.53125,-60.05859375,23.92578125,20.5078125,0.0
1734581006.784142,19.53125,-60.05859375,52.734375,10.7421875,0.0
1734581006.7880473,24.4140625,-59.08203125,17.578125,19.04296875,0.0
1734581006.7919526,26.3671875,-60.546875,-23.92578125,30.2734375,0.0
1734581006.7958577,27.34375,-63.4765625,-31.73828125,44.43359375,0.0
1734581006.799763,21.97265625,-64.94140625,62.98828125,38.0859375,0.0
1734581006.8036683,23.92578125,-63.4765625,85.9375,26.85546875,0.0
1734581006.8075736,22.94921875,-66.89453125,13.671875,28.80859375,0.0
1734581006.8114789,18.5546875,-70.3125,8.7890625,21.97265625,0.0
1734581006.815395,15.13671875,-70.3125,68.359375,12.6953125,0.0
1734581006.8193004,7.8125,-68.84765625,66.40625,21.484375,0.0
1734581006.8232057,20.99609375,-66.89453125,22.4609375,29.78515625,0.0
1734581006.827111,23.92578125,-70.3125,59.08203125,19.53125,0.0
1734581006.831016,10.7421875,-71.2890625,81.54296875,26.3671875,0.0
1734581006.8349214,8.7890625,-67.87109375,16.11328125,29.78515625,0.0
1734581006.8388267,12.6953125,-62.01171875,-55.17578125,23.92578125,0.0
1734581006.842732,12.20703125,-62.98828125,30.76171875,13.671875,0.0
1734581006.846637,4.39453125,-68.84765625,102.05078125,7.8125,0.0
1734581006.8505423,-5.859375,-69.82421875,58.59375,3.90625,0.0
1734581006.8544476,-3.90625,-71.2890625,31.25,8.30078125,0.0
1734581006.858353,-0.9765625,-67.3828125,25.87890625,21.97265625,0.0
1734581006.8622768,0.0,-59.08203125,65.91796875,15.625,0.0
1734581006.866182,0.0,-59.08203125,53.22265625,6.34765625,0.0
1734581006.8700874,0.0,-59.5703125,8.7890625,13.18359375,0.0
1734581006.8739927,0.0,-57.12890625,49.8046875,13.18359375,0.0
1734581006.877898,0.0,-64.453125,70.3125,10.7421875,0.0
1734581006.881803,0.0,-66.40625,-4.8828125,23.92578125,0.0
1734581006.8857083,0.0,-65.4296875,-17.578125,22.4609375,0.0
1734581006.8896136,0.0,-62.98828125,79.58984375,17.08984375,0.0
1734581006.893519,0.0,-62.98828125,78.61328125,20.5078125,0.0
1734581006.8974242,0.0,-63.96484375,13.671875,18.06640625,0.0
1734581006.9013293,0.0,-63.96484375,26.3671875,10.25390625,0.0
1734581006.9052346,0.0,-64.94140625,70.80078125,0.0,0.0
1734581006.9091582,0.48828125,-68.359375,44.43359375,-2.44140625,0.0
1734581006.9130635,0.0,-70.3125,11.23046875,-1.953125,0.0
1734581006.9169686,-12.20703125,-69.82421875,35.64453125,-12.20703125,0.0
1734581006.9208739,-18.06640625,-76.171875,48.33984375,-19.04296875,0.0
1734581006.9247792,-8.30078125,-75.68359375,32.71484375,-12.6953125,0.0
1734581006.9286845,6.34765625,-68.84765625,-16.6015625,-8.30078125,0.0
1734581006.9325895,7.32421875,-69.3359375,-14.6484375,0.9765625,0.0
1734581006.9364948,-3.90625,-73.73046875,44.921875,-1.953125,0.0
1734581006.9404001,-5.859375,-74.21875,43.45703125,0.9765625,0.0
1734581006.9443054,10.25390625,-70.3125,-56.15234375,17.578125,0.0
1734581006.9482107,21.484375,-69.82421875,8.30078125,20.99609375,0.0
1734581006.9521158,23.4375,-66.40625,53.7109375,16.6015625,0.0
1734581006.9560375,4.8828125,-64.94140625,30.2734375,11.71875,0.0
1734581006.9599428,-6.34765625,-71.2890625,44.921875,8.7890625,0.0
1734581006.9638479,2.9296875,-74.70703125,63.96484375,8.30078125,0.0
1734581006.9677532,14.6484375,-69.82421875,68.84765625,9.765625,0.0
1734581006.9716585,12.6953125,-67.87109375,36.1328125,20.5078125,0.0
1734581006.9755638,8.7890625,-69.3359375,-3.41796875,24.90234375,0.0
1734581006.979469,4.8828125,-70.80078125,21.97265625,21.484375,0.0
1734581006.983374,11.23046875,-71.77734375,78.61328125,20.01953125,0.0
1734581006.9872794,23.92578125,-67.87109375,16.6015625,26.3671875,0.0
1734581006.9911847,21.484375,-64.453125,-23.4375,29.296875,0.0
1734581006.99509,12.20703125,-65.4296875,72.75390625,5.859375,0.0
1734581006.998995,5.37109375,-70.3125,67.3828125,-0.48828125,0.0
1734581007.0029163,-5.37109375,-76.66015625,8.7890625,5.37109375,0.0
1734581007.0068214,2.44140625,-82.51953125,35.64453125,-0.9765625,0.0
1734581007.0107267,-0.48828125,-79.1015625,64.94140625,-5.37109375,0.0
1734581007.014632,-9.27734375,-75.68359375,41.015625,0.9765625,0.0
1734581007.0185373,-6.8359375,-78.125,-6.8359375,2.9296875,0.0
1734581007.0224426,5.37109375,-74.70703125,-16.6015625,3.41796875,0.0
1734581007.0263476,6.8359375,-70.3125,23.92578125,2.9296875,0.0
1734581007.030253,6.34765625,-68.359375,38.57421875,5.859375,0.0
1734581007.0341582,9.27734375,-69.82421875,-65.91796875,21.97265625,0.0
1734581007.0380635,3.90625,-68.359375,1.953125,20.01953125,0.0
1734581007.0419688,12.20703125,-64.94140625,76.171875,9.27734375,0.0
1734581007.0458739,10.7421875,-69.82421875,11.71875,12.20703125,0.0
1734581007.0497942,8.30078125,-67.87109375,24.90234375,21.484375,0.0
1734581007.0536995,16.6015625,-61.5234375,63.96484375,31.73828125,0.0
1734581007.0576048,20.99609375,-59.5703125,65.4296875,19.04296875,0.0
1734581007.0615098,20.01953125,-57.6171875,52.734375,17.08984375,0.0
1734581007.0654151,29.78515625,-56.640625,48.33984375,22.94921875,0.0
1734581007.0693204,34.1796875,-58.10546875,27.83203125,25.87890625,0.0
1734581007.0732257,23.92578125,-63.96484375,45.41015625,16.6015625,0.0
1734581007.077131,24.90234375,-66.40625,27.34375,20.99609375,0.0
1734581007.081036,22.94921875,-66.40625,-20.01953125,35.15625,0.0
1734581007.0849414,15.13671875,-68.84765625,77.1484375,26.85546875,0.0
1734581007.0888467,20.01953125,-69.3359375,92.28515625,21.97265625,0.0
1734581007.092752,15.13671875,-64.94140625,30.2734375,20.99609375,0.0
1734581007.0966704,8.30078125,-62.98828125,53.22265625,19.04296875,0.0
1734581007.1005757,2.44140625,-64.453125,71.2890625,7.8125,0.0
1734581007.104481,3.90625,-61.03515625,34.1796875,-0.48828125,0.0
1734581007.1083863,2.9296875,-62.01171875,8.7890625,4.8828125,0.0
1734581007.1122916,0.48828125,-67.87109375,46.38671875,9.27734375,0.0
1734581007.1161966,-5.37109375,-69.82421875,36.1328125,14.16015625,0.0
1734581007.120102,2.9296875,-71.2890625,14.6484375,15.13671875,0.0
1734581007.1240072,8.7890625,-71.2890625,-45.8984375,22.4609375,0.0
1734581007.1279125,-1.46484375,-73.73046875,25.390625,19.04296875,0.0
1734581007.1318178,4.39453125,-70.3125,103.515625,4.8828125,0.0
1734581007.1357229,-0.9765625,-63.96484375,51.26953125,6.8359375,0.0
1734581007.1396282,-4.8828125,-66.89453125,23.92578125,8.30078125,0.0
1734581007.1435456,0.0,-66.89453125,61.03515625,9.765625,0.0
1734581007.147451,0.0,-66.89453125,74.21875,9.765625,0.0
1734581007.1513562,0.0,-65.4296875,54.19921875,13.671875,0.0
1734581007.1552613,0.0,-60.546875,71.2890625,17.578125,0.0
1734581007.1591666,0.0,-60.546875,72.265625,10.7421875,0.0
1734581007.1630719,0.0,-66.40625,40.52734375,8.30078125,0.0
1734581007.1669772,0.0,-66.89453125,0.48828125,14.16015625,0.0
1734581007.1708825,0.0,-68.359375,-29.78515625,12.6953125,0.0
1734581007.1747875,0.0,-68.359375,77.63671875,3.41796875,0.0
1734581007.1786928,0.0,-62.5,87.890625,8.30078125,0.0
1734581007.182598,0.0,-59.08203125,24.4140625,9.765625,0.0
1734581007.1865034,0.0,-61.5234375,44.43359375,6.8359375,0.0
1734581007.1904197,-1.953125,-62.5,71.2890625,-3.41796875,0.0
1734581007.194325,-6.8359375,-66.89453125,52.734375,-7.8125,0.0
1734581007.1982303,-7.32421875,-64.94140625,4.8828125,0.0,0.0
1734581007.2021353,-10.7421875,-64.453125,21.484375,-0.9765625,0.0
1734581007.2060406,-6.34765625,-68.84765625,53.22265625,2.9296875,0.0
1734581007.209946,2.9296875,-68.359375,10.25390625,10.7421875,0.0
1734581007.2138512,7.8125,-66.40625,-61.5234375,13.671875,0.0
1734581007.2177565,1.953125,-66.40625,9.27734375,12.6953125,0.0
1734581007.2216616,2.9296875,-64.94140625,76.171875,9.27734375,0.0
1734581007.2255669,9.765625,-67.3828125,31.25,5.859375,0.0
1734581007.2294722,6.8359375,-69.3359375,19.04296875,4.39453125,0.0
1734581007.2333775,3.41796875,-69.3359375,14.6484375,2.44140625,0.0
1734581007.2372928,12.6953125,-71.2890625,31.25,-1.953125,0.0
1734581007.2411978,5.37109375,-68.359375,38.0859375,4.39453125,0.0
1734581007.2451031,-2.44140625,-68.84765625,36.62109375,4.8828125,0.0
1734581007.2490084,2.44140625,-71.2890625,51.7578125,2.44140625,0.0
1734581007.2529137,2.9296875,-72.75390625,52.24609375,12.6953125,0.0
1734581007.256819,9.27734375,-72.75390625,-16.6015625,23.4375,0.0
1734581007.260724,7.8125,-73.73046875,-43.45703125,19.53125,0.0
1734581007.2646294,6.34765625,-74.70703125,50.29296875,-0.48828125,0.0
1734581007.2685347,16.6015625,-70.80078125,69.3359375,1.953125,0.0
1734581007.27244,16.6015625,-68.359375,0.9765625,12.6953125,0.0
1734581007.2763453,9.765625,-71.2890625,10.25390625,9.765625,0.0
1734581007.2802503,4.8828125,-73.73046875,48.828125,3.90625,0.0
1734581007.2841735,4.39453125,-73.2421875,3.90625,3.90625,0.0
1734581007.2880788,16.11328125,-72.75390625,-15.13671875,10.7421875,0.0
1734581007.291984,11.71875,-70.80078125,38.57421875,14.6484375,0.0
1734581007.2958894,-4.39453125,-68.84765625,64.453125,16.6015625,0.0
1734581007.2997944,2.44140625,-65.4296875,31.25,5.859375,0.0
1734581007.3036997,5.859375,-65.91796875,-21.484375,9.765625,0.0
1734581007.307605,3.90625,-66.89453125,9.27734375,10.25390625,0.0
1734581007.3115103,-0.48828125,-66.40625,69.82421875,-2.44140625,0.0
1734581007.3154156,-6.34765625,-69.3359375,40.0390625,-0.48828125,0.0
1734581007.3193207,-7.32421875,-65.91796875,-53.7109375,6.34765625,0.0
1734581007.323226,-2.44140625,-66.40625,0.9765625,-2.9296875,0.0
1734581007.3271313,0.9765625,-65.91796875,40.52734375,-2.9296875,0.0
1734581007.3310528,6.34765625,-68.359375,32.71484375,5.859375,0.0
1734581007.334958,0.9765625,-73.73046875,41.015625,7.8125,0.0
1734581007.3388634,-8.7890625,-76.171875,46.875,2.44140625,0.0
1734581007.3427687,17.578125,-71.2890625,25.390625,1.953125,0.0
1734581007.346674,26.85546875,-68.359375,11.23046875,9.765625,0.0
1734581007.350579,17.08984375,-61.03515625,-1.953125,18.06640625,0.0
1734581007.3544843,14.16015625,-56.15234375,39.55078125,18.06640625,0.0
1734581007.3583896,6.34765625,-62.98828125,77.63671875,20.01953125,0.0
1734581007.362295,20.99609375,-61.5234375,-10.25390625,27.83203125,0.0
1734581007.3662002,30.76171875,-60.546875,-35.64453125,34.1796875,0.0
1734581007.3701053,20.01953125,-64.94140625,63.96484375,26.3671875,0.0
1734581007.3740106,18.5546875,-61.5234375,61.03515625,21.97265625,0.0
1734581007.3779314,22.4609375,-54.19921875,0.48828125,30.76171875,0.0
1734581007.3818367,29.296875,-51.7578125,27.34375,37.59765625,0.0
1734581007.385742,32.2265625,-50.78125,68.359375,38.0859375,0.0
1734581007.3896472,29.296875,-51.7578125,49.31640625,42.48046875,0.0
1734581007.3935525,22.94921875,-59.5703125,5.859375,45.41015625,0.0
1734581007.3974576,20.5078125,-66.40625,-12.20703125,42.48046875,0.0
1734581007.401363,16.6015625,-64.94140625,9.27734375,33.203125,0.0
1734581007.4052682,21.97265625,-62.5,14.6484375,25.87890625,0.0
1734581007.4091735,33.203125,-62.5,-59.08203125,35.64453125,0.0
1734581007.4130785,21.484375,-67.3828125,23.4375,26.3671875,0.0
1734581007.4169838,5.37109375,-66.89453125,69.82421875,9.765625,0.0
1734581007.4208891,-3.90625,-68.359375,5.37109375,9.765625,0.0
1734581007.424809,-2.44140625,-70.3125,41.9921875,12.6953125,0.0
1734581007.428714,-0.48828125,-63.4765625,77.1484375,19.04296875,0.0
1734581007.4326193,5.859375,-56.640625,71.2890625,28.80859375,0.0
1734581007.4365246,5.37109375,-55.17578125,35.64453125,30.2734375,0.0
1734581007.44043,8.7890625,-55.6640625,15.13671875,24.90234375,0.0
1734581007.4443352,19.04296875,-52.734375,12.20703125,24.4140625,0.0
1734581007.4482403,18.5546875,-55.17578125,21.97265625,27.83203125,0.0
1734581007.4521456,23.92578125,-57.12890625,1.953125,34.1796875,0.0
1734581007.4560509,16.11328125,-61.5234375,-28.80859375,33.69140625,0.0
1734581007.4599562,9.765625,-63.4765625,46.875,25.390625,0.0
1734581007.4638615,10.25390625,-62.01171875,74.21875,27.34375,0.0
1734581007.4677665,11.71875,-55.6640625,33.69140625,41.9921875,0.0
1734581007.4716854,0.0,-49.8046875,53.22265625,48.33984375,0.0
1734581007.4755907,0.0,-57.12890625,88.8671875,40.0390625,0.0
1734581007.479496,0.0,-62.5,63.96484375,38.57421875,0.0
1734581007.483401,0.0,-60.546875,34.66796875,45.8984375,0.0
1734581007.4873064,0.0,-62.01171875,50.78125,41.9921875,0.0
1734581007.4912117,0.0,-63.96484375,50.29296875,39.0625,0.0
1734581007.495117,0.0,-57.12890625,31.73828125,42.48046875,0.0
1734581007.4990222,0.0,-54.6875,-46.38671875,43.9453125,0.0
1734581007.5029273,0.0,-60.05859375,7.8125,31.73828125,0.0
1734581007.5068326,0.0,-62.5,100.5859375,22.4609375,0.0
1734581007.510738,0.0,-65.4296875,57.6171875,29.296875,0.0
1734581007.5146432,0.0,-62.5,25.87890625,28.3203125,0.0
1734581007.5185602,4.8828125,-60.546875,36.62109375,21.97265625,0.0
1734581007.5224655,-4.39453125,-63.96484375,66.40625,24.4140625,0.0
1734581007.5263708,4.39453125,-62.01171875,65.91796875,13.671875,0.0
1734581007.530276,11.23046875,-57.12890625,67.87109375,6.34765625,0.0
1734581007.534181,-1.953125,-57.6171875,79.58984375,20.5078125,0.0
1734581007.5380864,-0.9765625,-58.59375,56.640625,35.64453125,0.0
1734581007.5419917,17.578125,-61.5234375,4.39453125,34.1796875,0.0
1734581007.545897,14.16015625,-64.94140625,-12.20703125,41.015625,0.0
1734581007.5498023,-2.9296875,-70.3125,89.35546875,31.73828125,0.0
1734581007.5537074,-21.484375,-71.2890625,90.8203125,22.4609375,0.0
1734581007.5576127,-19.53125,-69.82421875,27.83203125,27.83203125,0.0
1734581007.561518,-8.7890625,-70.3125,53.22265625,26.85546875,0.0
1734581007.5654433,-7.32421875,-75.68359375,89.84375,24.90234375,0.0
1734581007.5693486,0.0,-74.21875,63.96484375,29.78515625,0.0
1734581007.5732539,-1.953125,-69.82421875,22.94921875,34.66796875,0.0
1734581007.577159,0.0,-73.2421875,21.97265625,32.2265625,0.0
1734581007.5810642,9.765625,-72.75390625,35.15625,16.6015625,0.0
1734581007.5849695,9.27734375,-68.359375,18.5546875,11.71875,0.0
1734581007.5888748,2.44140625,-67.3828125,-42.48046875,33.69140625,0.0
1734581007.59278,-18.5546875,-70.3125,28.80859375,20.99609375,0.0
1734581007.5966852,-23.92578125,-74.21875,88.8671875,-7.32421875,0.0
1734581007.6005905,-11.71875,-74.70703125,41.9921875,-17.08984375,0.0
1734581007.6044958,1.46484375,-70.3125,11.23046875,-15.625,0.0
1734581007.608401,3.41796875,-71.2890625,20.5078125,-8.30078125,0.0
1734581007.6123164,3.41796875,-69.3359375,50.29296875,0.9765625,0.0
1734581007.6162217,6.8359375,-64.453125,34.66796875,6.8359375,0.0
1734581007.6201267,-5.859375,-68.84765625,23.92578125,1.953125,0.0
1734581007.624032,-11.23046875,-74.21875,44.921875,-3.41796875,0.0
1734581007.6279373,-0.48828125,-68.84765625,34.66796875,0.0,0.0
1734581007.6318426,13.671875,-63.96484375,-6.34765625,15.13671875,0.0
1734581007.635748,12.20703125,-67.3828125,-12.20703125,16.6015625,0.0
1734581007.639653,2.9296875,-70.80078125,20.99609375,6.8359375,0.0
1734581007.6435583,7.8125,-67.3828125,60.05859375,18.06640625,0.0
1734581007.6474636,4.8828125,-61.03515625,6.34765625,27.34375,0.0
1734581007.6513689,3.41796875,-61.5234375,-33.69140625,30.2734375,0.0
1734581007.655274,5.859375,-64.94140625,49.31640625,17.08984375,0.0
1734581007.6591969,9.27734375,-62.5,65.4296875,15.13671875,0.0
1734581007.6631021,20.5078125,-59.5703125,8.7890625,19.04296875,0.0
1734581007.6670074,26.85546875,-64.453125,34.66796875,20.01953125,0.0
1734581007.6709127,21.484375,-63.96484375,70.80078125,37.109375,0.0
1734581007.674818,18.06640625,-58.59375,35.15625,29.296875,0.0
1734581007.678723,18.06640625,-61.03515625,-35.15625,26.85546875,0.0
1734581007.6826284,22.94921875,-57.6171875,0.48828125,32.71484375,0.0
1734581007.6865337,17.08984375,-53.22265625,70.3125,27.34375,0.0
1734581007.690439,18.06640625,-57.6171875,25.390625,27.83203125,0.0
1734581007.6943443,17.08984375,-61.03515625,-26.3671875,41.50390625,0.0
1734581007.6982493,4.39453125,-65.4296875,3.90625,25.87890625,0.0
1734581007.7021546,-6.8359375,-69.3359375,44.921875,2.9296875,0.0
1734581007.7060764,0.48828125,-66.40625,42.48046875,9.27734375,0.0
1734581007.7099817,18.5546875,-61.5234375,-25.390625,23.4375,0.0
1734581007.713887,6.34765625,-57.6171875,51.26953125,24.90234375,0.0
1734581007.7177923,-3.90625,-55.6640625,96.19140625,18.06640625,0.0
1734581007.7216976,-0.48828125,-62.98828125,33.203125,0.0,0.0
1734581007.7256026,1.953125,-67.3828125,4.39453125,-0.9765625,0.0
1734581007.729508,0.9765625,-68.359375,39.55078125,5.859375,0.0
1734581007.7334132,0.9765625,-64.94140625,80.078125,12.20703125,0.0
1734581007.7373185,2.9296875,-63.96484375,16.6015625,38.57421875,0.0
1734581007.7412238,-0.48828125,-67.3828125,-26.85546875,22.4609375,0.0
1734581007.7451289,14.16015625,-66.40625,76.171875,11.71875,0.0
1734581007.7490342,26.3671875,-63.4765625,94.7265625,28.80859375,0.0
1734581007.752955,19.53125,-63.96484375,17.578125,23.92578125,0.0
1734581007.7568603,13.671875,-64.453125,14.6484375,22.4609375,0.0
1734581007.7607656,10.7421875,-62.5,63.96484375,24.90234375,0.0
1734581007.7646706,15.625,-60.546875,64.94140625,43.9453125,0.0
1734581007.768576,22.94921875,-60.546875,23.4375,68.359375,0.0
1734581007.7724812,26.3671875,-60.05859375,2.44140625,49.8046875,0.0
1734581007.7763865,7.32421875,-63.96484375,49.8046875,27.83203125,0.0
1734581007.7802918,2.9296875,-64.94140625,63.4765625,32.2265625,0.0
1734581007.7841969,23.4375,-57.6171875,-19.53125,36.62109375,0.0
1734581007.7881021,24.4140625,-55.17578125,45.8984375,23.4375,0.0
1734581007.7920074,12.6953125,-56.15234375,84.9609375,18.5546875,0.0
1734581007.7959127,16.6015625,-50.78125,10.7421875,24.4140625,0.0
1734581007.7998416,0.0,-48.828125,-5.859375,28.3203125,0.0
1734581007.8037467,0.0,-51.7578125,72.75390625,26.3671875,0.0
1734581007.807652,0.0,-53.22265625,91.30859375,28.3203125,0.0
1734581007.8115573,0.0,-51.7578125,39.0625,29.296875,0.0
1734581007.8154626,0.0,-55.6640625,22.94921875,14.16015625,0.0
1734581007.819368,0.0,-62.01171875,24.4140625,10.7421875,0.0
1734581007.823273,0.0,-65.91796875,50.29296875,6.34765625,0.0
1734581007.8271782,0.0,-70.80078125,35.15625,15.625,0.0
1734581007.8310835,0.0,-72.265625,-16.11328125,29.78515625,0.0
1734581007.8349888,0.0,-70.3125,76.66015625,18.5546875,0.0
1734581007.8388941,0.0,-62.01171875,85.44921875,17.08984375,0.0
1734581007.8427992,0.0,-55.17578125,24.90234375,20.5078125,0.0
1734581007.8467095,25.390625,-56.640625,53.7109375,22.94921875,0.0
1734581007.8506148,24.90234375,-61.5234375,64.94140625,30.2734375,0.0
1734581007.85452,19.53125,-62.01171875,34.1796875,32.71484375,0.0
1734581007.8584254,16.6015625,-61.03515625,1.953125,30.2734375,0.0
1734581007.8623307,3.41796875,-62.5,20.5078125,22.4609375,0.0
1734581007.8662357,-11.71875,-55.6640625,5.37109375,30.76171875,0.0
1734581007.870141,-6.8359375,-53.22265625,-26.85546875,41.9921875,0.0
1734581007.8740463,5.859375,-60.546875,-35.64453125,24.90234375,0.0
1734581007.8779516,10.25390625,-63.96484375,21.484375,10.7421875,0.0
1734581007.881857,5.859375,-61.5234375,65.91796875,15.625,0.0
1734581007.885762,18.5546875,-60.546875,19.04296875,20.99609375,0.0
1734581007.8896673,36.62109375,-62.01171875,-72.75390625,29.296875,0.0
1734581007.8935602,29.296875,-63.96484375,15.625,26.3671875,0.0
1734581007.8974655,22.4609375,-68.359375,75.68359375,24.4140625,0.0
1734581007.9013708,24.90234375,-70.80078125,11.23046875,26.85546875,0.0
1734581007.905276,21.97265625,-69.3359375,-2.44140625,16.6015625,0.0
1734581007.909181,10.7421875,-68.84765625,43.45703125,11.71875,0.0
1734581007.9130864,18.5546875,-65.91796875,25.87890625,12.6953125,0.0
1734581007.9169917,27.83203125,-62.98828125,-25.390625,9.765625,0.0
1734581007.920897,3.41796875,-66.40625,-48.828125,18.06640625,0.0
1734581007.9248023,-7.8125,-66.89453125,41.9921875,2.9296875,0.0
1734581007.9287074,3.41796875,-68.84765625,45.8984375,0.9765625,0.0
1734581007.9326127,9.765625,-67.3828125,-20.5078125,18.5546875,0.0
1734581007.936518,15.625,-61.5234375,-1.46484375,26.85546875,0.0
1734581007.9404342,5.37109375,-61.03515625,31.25,30.2734375,0.0
1734581007.9443395,13.671875,-63.4765625,25.87890625,26.3671875,0.0
1734581007.9482448,18.5546875,-62.01171875,-14.6484375,26.3671875,0.0
1734581007.9521499,13.671875,-66.89453125,13.18359375,26.3671875,0.0
1734581007.9560552,0.0,-68.84765625,31.25,10.7421875,0.0
1734581007.9599605,-1.46484375,-62.98828125,-31.25,7.8125,0.0
1734581007.9638658,12.20703125,-64.94140625,-82.03125,26.85546875,0.0
1734581007.967771,8.30078125,-70.80078125,-8.7890625,22.4609375,0.0
1734581007.971676,-0.9765625,-71.2890625,62.01171875,14.16015625,0.0
1734581007.9755814,-1.46484375,-71.2890625,41.9921875,24.4140625,0.0
1734581007.9794867,-1.953125,-62.01171875,1.46484375,11.71875,0.0
1734581007.983392,-7.32421875,-62.98828125,5.37109375,9.765625,0.0
1734581007.987316,1.46484375,-69.3359375,51.26953125,20.5078125,0.0
1734581007.9912212,0.9765625,-68.84765625,32.2265625,17.578125,0.0
1734581007.9951265,-6.8359375,-69.3359375,22.4609375,14.6484375,0.0
1734581007.9990315,5.37109375,-65.4296875,58.59375,15.13671875,0.0
1734581008.0029368,15.13671875,-62.98828125,57.6171875,10.7421875,0.0
1734581008.0068421,18.5546875,-67.3828125,-23.4375,17.08984375,0.0
1734581008.0107474,7.8125,-76.66015625,-38.57421875,27.83203125,0.0
1734581008.0146527,-3.41796875,-78.61328125,62.98828125,10.7421875,0.0
1734581008.0185578,-0.48828125,-66.89453125,67.87109375,3.41796875,0.0
1734581008.022463,10.7421875,-61.5234375,20.5078125,10.25390625,0.0
1734581008.0263684,7.8125,-65.91796875,30.2734375,7.32421875,0.0
1734581008.0302737,-2.9296875,-68.84765625,66.89453125,0.48828125,0.0
1734581008.0342057,-11.71875,-70.80078125,62.98828125,-3.90625,0.0
1734581008.038111,-6.34765625,-67.87109375,27.83203125,1.46484375,0.0
1734581008.0420163,-0.9765625,-65.91796875,48.828125,-7.32421875,0.0
1734581008.0459216,3.90625,-68.359375,66.40625,-5.859375,0.0
1734581008.0498266,11.23046875,-65.91796875,31.25,16.11328125,0.0
1734581008.053732,6.8359375,-63.96484375,-5.859375,20.01953125,0.0
1734581008.0576372,2.44140625,-65.91796875,3.90625,18.5546875,0.0
1734581008.0615425,13.671875,-65.91796875,77.63671875,18.5546875,0.0
1734581008.0654478,25.390625,-63.96484375,69.3359375,23.92578125,0.0
1734581008.0693529,16.6015625,-67.87109375,-50.29296875,36.62109375,0.0
1734581008.0732582,-11.23046875,-74.21875,11.23046875,29.296875,0.0
1734581008.0771635,-10.7421875,-73.73046875,54.6875,14.16015625,0.0
1734581008.0810852,9.27734375,-72.265625,25.87890625,14.16015625,0.0
1734581008.0849903,13.18359375,-73.2421875,59.5703125,20.5078125,0.0
1734581008.0888956,16.11328125,-72.265625,78.125,25.390625,0.0
1734581008.0928009,23.92578125,-71.2890625,72.265625,24.4140625,0.0
1734581008.0967062,23.92578125,-70.3125,46.875,24.4140625,0.0
1734581008.1006114,22.94921875,-68.84765625,10.7421875,26.85546875,0.0
1734581008.1045167,33.203125,-69.3359375,42.48046875,30.2734375,0.0
1734581008.1084218,20.5078125,-70.3125,67.3828125,27.34375,0.0
1734581008.112327,5.37109375,-72.75390625,21.97265625,21.484375,0.0
1734581008.1162324,9.27734375,-73.73046875,39.55078125,24.90234375,0.0
1734581008.1201377,15.625,-68.359375,66.40625,25.390625,0.0
1734581008.124043,19.04296875,-63.96484375,70.3125,23.92578125,0.0
1734581008.1279635,20.99609375,-62.5,-11.71875,22.4609375,0.0
1734581008.1318686,3.41796875,-66.89453125,-38.57421875,23.4375,0.0
1734581008.135774,-6.34765625,-71.2890625,70.80078125,18.5546875,0.0
1734581008.1396792,-9.765625,-72.75390625,76.171875,14.16015625,0.0
1734581008.1435845,-5.859375,-74.21875,30.2734375,12.6953125,0.0
1734581008.1474898,3.90625,-71.2890625,6.34765625,7.32421875,0.0
1734581008.1513948,0.48828125,-66.89453125,35.64453125,6.8359375,0.0
1734581008.1553001,-8.30078125,-69.3359375,47.36328125,5.37109375,0.0
1734581008.1592054,4.8828125,-69.82421875,-39.55078125,11.71875,0.0
1734581008.1631107,1.953125,-69.82421875,35.15625,14.16015625,0.0
1734581008.167016,-4.8828125,-69.82421875,83.49609375,12.20703125,0.0
1734581008.1709213,5.37109375,-71.2890625,19.04296875,20.99609375,0.0
1734581008.1748412,12.20703125,-72.265625,36.62109375,23.92578125,0.0
1734581008.1787465,18.06640625,-70.80078125,73.2421875,15.625,0.0
1734581008.1826518,23.92578125,-63.4765625,68.84765625,23.92578125,0.0
1734581008.186557,24.90234375,-55.6640625,41.9921875,46.875,0.0
1734581008.1904624,13.18359375,-55.17578125,50.29296875,43.45703125,0.0
1734581008.1943676,5.859375,-61.03515625,31.73828125,32.2265625,0.0
1734581008.1982727,13.671875,-62.5,54.19921875,26.3671875,0.0
1734581008.202178,13.18359375,-59.5703125,39.0625,34.66796875,0.0
1734581008.2060833,8.30078125,-63.96484375,-24.4140625,48.33984375,0.0
1734581008.2099886,-2.44140625,-64.453125,70.80078125,29.78515625,0.0
1734581008.213894,-13.18359375,-61.5234375,89.35546875,19.04296875,0.0
1734581008.217799,-9.765625,-67.3828125,26.3671875,31.73828125,0.0
1734581008.221718,-1.953125,-68.84765625,54.6875,30.76171875,0.0
1734581008.2256234,14.16015625,-64.94140625,71.77734375,24.4140625,0.0
1734581008.2295284,20.01953125,-64.94140625,23.4375,29.78515625,0.0
1734581008.2334337,10.7421875,-68.359375,5.37109375,20.99609375,0.0
1734581008.237339,3.90625,-69.82421875,32.71484375,16.11328125,0.0
1734581008.2412443,12.6953125,-63.96484375,15.13671875,15.625,0.0
1734581008.2451496,23.92578125,-62.01171875,-7.32421875,10.25390625,0.0
1734581008.2490547,19.04296875,-66.89453125,-63.96484375,27.83203125,0.0
1734581008.25296,1.46484375,-72.75390625,-5.37109375,28.3203125,0.0
1734581008.2568653,-9.765625,-73.2421875,79.58984375,10.25390625,0.0
1734581008.2607706,7.8125,-70.3125,28.80859375,5.859375,0.0
1734581008.2646759,24.4140625,-68.84765625,0.48828125,15.13671875,0.0
1734581008.268593,16.11328125,-68.359375,46.38671875,17.578125,0.0
1734581008.2724984,2.9296875,-69.3359375,55.6640625,19.53125,0.0
1734581008.2764037,5.859375,-65.4296875,23.92578125,26.3671875,0.0
1734581008.2803087,8.30078125,-62.01171875,17.578125,25.390625,0.0
1734581008.284214,8.7890625,-60.05859375,38.0859375,32.2265625,0.0
1734581008.2881193,15.13671875,-57.12890625,31.73828125,36.62109375,0.0
1734581008.2920246,21.484375,-57.6171875,-24.4140625,30.76171875,0.0
1734581008.29593,15.625,-56.640625,-63.4765625,39.0625,0.0
1734581008.299835,8.30078125,-53.7109375,62.5,24.90234375,0.0
1734581008.3037403,12.20703125,-54.6875,91.30859375,27.34375,0.0
1734581008.3076456,16.11328125,-53.22265625,24.90234375,41.9921875,0.0
1734581008.3115509,8.30078125,-52.24609375,33.203125,31.25,0.0
1734581008.3154671,0.48828125,-59.5703125,57.12890625,26.3671875,0.0
1734581008.3193724,15.625,-62.01171875,42.96875,30.76171875,0.0
1734581008.3232775,13.671875,-62.5,5.37109375,27.34375,0.0
1734581008.3271828,0.48828125,-62.01171875,38.57421875,25.87890625,0.0
1734581008.331088,6.8359375,-59.5703125,64.94140625,25.87890625,0.0
1734581008.3349934,20.99609375,-56.640625,1.953125,36.62109375,0.0
1734581008.3388987,24.90234375,-57.12890625,-77.63671875,45.41015625,0.0
1734581008.3428037,21.484375,-59.5703125,-4.39453125,31.25,0.0
1734581008.346709,18.5546875,-59.5703125,47.36328125,25.87890625,0.0
1734581008.3506143,19.04296875,-59.5703125,39.55078125,30.2734375,0.0
1734581008.3545196,21.97265625,-58.10546875,21.484375,25.87890625,0.0
1734581008.358425,2.44140625,-56.640625,19.04296875,11.71875,0.0
1734581008.3623486,-6.8359375,-56.640625,64.453125,5.37109375,0.0
1734581008.3662536,10.25390625,-52.24609375,50.78125,14.16015625,0.0
1734581008.370159,11.71875,-52.24609375,39.55078125,15.625,0.0
1734581008.3740642,10.7421875,-55.6640625,57.12890625,13.18359375,0.0
1734581008.3779695,9.765625,-57.6171875,58.10546875,10.7421875,0.0
1734581008.3818748,3.90625,-62.5,-6.34765625,16.6015625,0.0
1734581008.3857799,0.9765625,-69.82421875,-57.6171875,26.85546875,0.0
1734581008.3896852,-1.953125,-70.3125,53.22265625,20.01953125,0.0
1734581008.3935905,5.859375,-67.87109375,81.0546875,21.97265625,0.0
1734581008.3974957,14.6484375,-66.40625,27.34375,14.6484375,0.0
1734581008.401401,6.8359375,-65.91796875,37.59765625,10.25390625,0.0
1734581008.405306,1.953125,-66.89453125,34.66796875,14.16015625,0.0
1734581008.4092288,0.48828125,-66.89453125,33.69140625,10.25390625,0.0
1734581008.413134,9.27734375,-66.40625,12.20703125,13.18359375,0.0
1734581008.4170392,4.8828125,-69.3359375,28.80859375,9.27734375,0.0
1734581008.4209445,0.48828125,-66.89453125,66.89453125,7.32421875,0.0
1734581008.4248497,23.92578125,-62.98828125,43.45703125,18.06640625,0.0
1734581008.428755,28.3203125,-64.453125,-16.11328125,25.87890625,0.0
1734581008.4326603,14.6484375,-63.4765625,7.8125,19.53125,0.0
1734581008.4365654,9.27734375,-59.08203125,68.84765625,20.5078125,0.0
1734581008.4404707,12.6953125,-56.640625,45.41015625,23.92578125,0.0
1734581008.444376,25.87890625,-61.03515625,-51.26953125,41.015625,0.0
1734581008.4482813,20.01953125,-70.3125,0.9765625,29.296875,0.0
1734581008.4521866,6.8359375,-67.3828125,61.03515625,5.37109375,0.0
1734581008.4561079,7.32421875,-63.4765625,48.828125,1.953125,0.0
1734581008.4600132,2.9296875,-64.94140625,36.62109375,0.9765625,0.0
1734581008.4639184,2.44140625,-65.91796875,36.1328125,-3.90625,0.0
1734581008.4678237,1.46484375,-62.01171875,62.5,-2.9296875,0.0
1734581008.471729,-4.39453125,-60.05859375,47.36328125,6.34765625,0.0
1734581008.475634,-10.7421875,-62.98828125,10.7421875,7.32421875,0.0
1734581008.4795394,-14.16015625,-62.01171875,40.52734375,9.765625,0.0
1734581008.4834447,-12.20703125,-58.10546875,91.796875,6.8359375,0.0
1734581008.48735,-1.46484375,-64.453125,20.99609375,16.6015625,0.0
1734581008.4912553,3.90625,-66.40625,-28.80859375,21.484375,0.0
1734581008.4951603,-3.90625,-68.359375,70.80078125,5.37109375,0.0
1734581008.4990656,-5.37109375,-68.84765625,71.2890625,3.41796875,0.0
1734581008.5029867,4.8828125,-63.96484375,21.484375,11.23046875,0.0
1734581008.506892,2.9296875,-63.96484375,42.48046875,15.625,0.0
1734581008.510797,0.0,-66.40625,69.3359375,22.4609375,0.0
1734581008.5147023,10.7421875,-67.87109375,50.29296875,22.4609375,0.0
1734581008.5186076,8.7890625,-65.91796875,6.8359375,15.625,0.0
1734581008.522513,-0.9765625,-62.98828125,17.08984375,7.8125,0.0
1734581008.5264182,6.34765625,-57.6171875,35.64453125,4.39453125,0.0
1734581008.5303233,14.16015625,-52.24609375,30.76171875,20.99609375,0.0
1734581008.5342286,16.6015625,-54.6875,-34.66796875,38.0859375,0.0
1734581008.5381339,12.20703125,-61.03515625,25.87890625,22.4609375,0.0
1734581008.5420392,20.5078125,-59.5703125,80.56640625,8.7890625,0.0
1734581008.5459445,26.85546875,-59.5703125,28.3203125,16.11328125,0.0
1734581008.5498643,2.44140625,-63.4765625,45.41015625,16.6015625,0.0
1734581008.5537694,-11.71875,-67.87109375,70.80078125,20.5078125,0.0
1734581008.5576746,-7.32421875,-67.87109375,61.03515625,26.85546875,0.0
1734581008.56158,2.44140625,-63.4765625,37.109375,21.97265625,0.0
1734581008.5654852,8.30078125,-54.19921875,39.55078125,24.90234375,0.0
1734581008.5693905,6.34765625,-50.78125,25.390625,29.296875,0.0
1734581008.5732958,-0.9765625,-52.734375,46.875,27.34375,0.0
1734581008.577201,-2.44140625,-53.7109375,19.53125,31.25,0.0
1734581008.5811062,3.90625,-57.6171875,-52.734375,39.0625,0.0
1734581008.5850115,2.44140625,-61.5234375,46.38671875,20.5078125,0.0
1734581008.5889168,-6.8359375,-58.59375,83.49609375,13.671875,0.0
1734581008.592822,-1.46484375,-54.6875,24.90234375,28.3203125,0.0
1734581008.5967495,7.32421875,-53.22265625,39.0625,31.73828125,0.0
1734581008.6006546,14.6484375,-50.78125,74.21875,39.55078125,0.0
1734581008.60456,33.69140625,-52.24609375,59.5703125,43.45703125,0.0
1734581008.6084652,36.1328125,-53.22265625,17.578125,35.64453125,0.0
1734581008.6123705,30.76171875,-53.22265625,47.36328125,42.48046875,0.0
1734581008.6162758,28.80859375,-52.24609375,31.25,45.8984375,0.0
1734581008.6201808,30.2734375,-53.7109375,-3.41796875,38.0859375,0.0
1734581008.6240861,41.50390625,-54.19921875,-35.15625,47.8515625,0.0
1734581008.6279914,38.0859375,-56.640625,22.4609375,34.1796875,0.0
1734581008.6318967,28.80859375,-61.03515625,89.35546875,30.76171875,0.0
1734581008.635802,20.99609375,-60.546875,44.921875,39.0625,0.0
1734581008.6397073,23.4375,-59.5703125,1.46484375,37.109375,0.0
1734581008.6436248,19.04296875,-59.08203125,39.55078125,30.2734375,0.0
1734581008.64753,17.578125,-51.7578125,82.51953125,29.78515625,0.0
1734581008.6514354,18.5546875,-49.8046875,46.38671875,30.2734375,0.0
1734581008.6553407,4.8828125,-54.19921875,38.0859375,20.99609375,0.0
1734581008.659246,1.953125,-54.19921875,56.640625,17.578125,0.0
1734581008.663151,2.44140625,-61.03515625,22.94921875,14.16015625,0.0
1734581008.6670563,0.9765625,-64.94140625,15.625,20.99609375,0.0
1734581008.6709616,4.39453125,-62.98828125,50.29296875,19.04296875,0.0
1734581008.674867,0.0,-60.05859375,67.87109375,16.6015625,0.0
1734581008.6787722,8.7890625,-58.59375,70.3125,24.90234375,0.0
1734581008.6826773,13.671875,-55.17578125,8.30078125,32.71484375,0.0
1734581008.6865826,11.23046875,-52.734375,-33.203125,42.48046875,0.0
1734581008.690499,9.765625,-55.17578125,71.77734375,33.203125,0.0
1734581008.6944044,12.20703125,-52.24609375,89.84375,33.203125,0.0
1734581008.6983097,14.6484375,-50.29296875,6.34765625,43.9453125,0.0
1734581008.702215,6.8359375,-53.22265625,23.92578125,39.55078125,0.0
1734581008.7061203,10.7421875,-59.5703125,76.66015625,33.69140625,0.0
1734581008.7100255,16.6015625,-61.5234375,27.83203125,38.0859375,0.0
1734581008.7139306,17.578125,-56.15234375,-59.5703125,45.41015625,0.0
1734581008.717836,26.85546875,-58.10546875,10.25390625,27.83203125,0.0
1734581008.7217412,37.59765625,-62.5,94.23828125,14.6484375,0.0
1734581008.7256465,26.85546875,-62.98828125,54.19921875,29.296875,0.0
1734581008.7295518,16.11328125,-60.546875,9.765625,30.2734375,0.0
1734581008.7334569,17.578125,-54.6875,18.06640625,14.6484375,0.0
1734581008.7373812,19.04296875,-49.31640625,50.29296875,16.11328125,0.0
1734581008.7412863,11.23046875,-53.22265625,34.1796875,20.5078125,0.0
1734581008.7451916,11.23046875,-59.08203125,29.296875,7.8125,0.0
1734581008.7490969,17.578125,-57.12890625,53.22265625,6.8359375,0.0
1734581008.7530022,6.8359375,-64.94140625,62.5,5.859375,0.0
1734581008.7569075,0.48828125,-67.3828125,-11.71875,12.20703125,0.0
1734581008.7608125,0.48828125,-61.03515625,-60.05859375,16.6015625,0.0
1734581008.7647178,-1.953125,-59.5703125,20.99609375,-0.48828125,0.0
1734581008.768623,-2.44140625,-55.6640625,35.64453125,-2.9296875,0.0
1734581008.7725284,-3.41796875,-57.12890625,-17.08984375,8.30078125,0.0
1734581008.7764337,-8.7890625,-58.59375,-14.16015625,12.20703125,0.0
1734581008.780339,-12.6953125,-53.22265625,30.2734375,7.32421875,0.0
1734581008.784262,-3.41796875,-55.6640625,23.4375,0.48828125,0.0
1734581008.7881672,3.90625,-60.546875,-14.16015625,4.8828125,0.0
1734581008.7920725,-2.44140625,-61.5234375,12.20703125,14.16015625,0.0
1734581008.7959778,-5.859375,-63.96484375,36.1328125,20.5078125,0.0
1734581008.799883,-3.90625,-65.91796875,30.76171875,16.6015625,0.0
1734581008.8037882,5.37109375,-66.89453125,-24.90234375,24.4140625,0.0
1734581008.8076935,19.53125,-66.89453125,0.0,29.296875,0.0
1734581008.8115988,23.92578125,-60.546875,71.77734375,31.73828125,0.0
1734581008.815504,21.97265625,-56.15234375,37.59765625,40.0390625,0.0
1734581008.8194094,14.16015625,-60.546875,-68.359375,42.48046875,0.0
1734581008.8233144,13.18359375,-66.40625,-13.18359375,30.2734375,0.0
1734581008.8272197,19.04296875,-60.05859375,51.7578125,19.53125,0.0
1734581008.8311415,5.859375,-55.6640625,45.8984375,23.92578125,0.0
1734581008.8350468,1.953125,-55.6640625,33.203125,26.85546875,0.0
1734581008.838952,1.953125,-59.08203125,40.52734375,5.859375,0.0
1734581008.8428574,8.30078125,-59.08203125,54.19921875,4.39453125,0.0
1734581008.8467624,16.6015625,-54.6875,30.2734375,18.5546875,0.0
1734581008.8506677,15.625,-56.15234375,-0.9765625,13.671875,0.0
1734581008.854573,17.578125,-53.7109375,25.390625,13.18359375,0.0
1734581008.8584783,-0.48828125,-50.29296875,61.03515625,8.30078125,0.0
1734581008.8623836,6.8359375,-51.26953125,4.39453125,11.23046875,0.0
1734581008.866289,15.13671875,-50.29296875,-43.45703125,23.92578125,0.0
1734581008.870194,0.48828125,-49.31640625,64.453125,6.8359375,0.0
1734581008.8740993,-6.34765625,-55.6640625,69.82421875,-5.37109375,0.0
1734581008.87802,-5.37109375,-64.94140625,5.37109375,0.9765625,0.0
1734581008.881925,3.41796875,-66.40625,44.921875,1.953125,0.0
1734581008.8858304,2.44140625,-65.4296875,78.125,3.90625,0.0
1734581008.8897357,-7.32421875,-65.4296875,57.12890625,7.8125,0.0
1734581008.893641,-10.7421875,-65.4296875,15.625,20.5078125,0.0
1734581008.8975463,-2.9296875,-67.3828125,6.34765625,35.15625,0.0
1734581008.9014516,3.90625,-69.82421875,40.52734375,32.2265625,0.0
1734581008.9053566,18.5546875,-63.96484375,68.359375,41.015625,0.0
1734581008.909262,25.390625,-59.5703125,-22.94921875,55.17578125,0.0
1734581008.9131672,15.13671875,-62.01171875,27.83203125,37.109375,0.0
1734581008.9170725,5.37109375,-66.89453125,81.54296875,24.4140625,0.0
1734581008.9209778,3.41796875,-66.89453125,13.671875,30.2734375,0.0
1734581008.9248974,16.11328125,-63.4765625,31.25,35.15625,0.0
1734581008.9288025,9.765625,-58.59375,68.359375,37.109375,0.0
1734581008.9327078,0.0,-59.08203125,58.59375,31.25,0.0
1734581008.936613,8.7890625,-62.5,28.3203125,28.80859375,0.0
1734581008.9405184,8.30078125,-60.05859375,26.3671875,29.296875,0.0
1734581008.9444237,6.8359375,-59.08203125,5.37109375,26.3671875,0.0
1734581008.948329,5.859375,-59.08203125,30.76171875,11.71875,0.0
1734581008.952234,3.90625,-55.17578125,5.37109375,16.11328125,0.0
1734581008.9561393,8.7890625,-50.29296875,-58.10546875,33.69140625,0.0
1734581008.9600446,-1.46484375,-51.26953125,56.15234375,25.390625,0.0
1734581008.96395,5.859375,-54.6875,79.58984375,10.25390625,0.0
1734581008.9678552,4.8828125,-61.5234375,5.859375,4.39453125,0.0
1734581008.9717736,-4.39453125,-65.91796875,25.87890625,1.953125,0.0
1734581008.975679,-0.48828125,-63.96484375,59.5703125,6.34765625,0.0
1734581008.9795842,9.765625,-64.94140625,47.36328125,14.16015625,0.0
1734581008.9834895,31.73828125,-62.01171875,8.30078125,18.5546875,0.0
1734581008.9873948,13.18359375,-67.3828125,25.390625,21.484375,0.0
1734581008.9913,4.8828125,-69.82421875,21.484375,27.34375,0.0
1734581008.9952052,15.13671875,-67.87109375,-7.8125,32.71484375,0.0
1734581008.9991105,16.6015625,-68.84765625,-50.29296875,46.38671875,0.0
1734581009.0030158,14.6484375,-68.359375,27.83203125,41.015625,0.0
1734581009.006921,22.94921875,-62.01171875,99.12109375,23.92578125,0.0
1734581009.0108263,24.90234375,-59.08203125,33.203125,33.203125,0.0
1734581009.0147316,8.7890625,-61.03515625,-8.7890625,41.50390625,0.0
1734581009.018649,3.41796875,-59.08203125,55.6640625,29.78515625,0.0
1734581009.0225544,14.6484375,-57.6171875,75.1953125,23.4375,0.0
1734581009.0264597,22.4609375,-58.10546875,38.57421875,27.83203125,0.0
1734581009.0303648,18.06640625,-56.640625,47.36328125,26.3671875,0.0
1734581009.03427,7.8125,-55.6640625,53.7109375,22.94921875,0.0
1734581009.0381753,8.7890625,-57.12890625,34.66796875,19.04296875,0.0
1734581009.0420806,4.39453125,-56.15234375,11.71875,20.5078125,0.0
1734581009.045986,0.48828125,-62.5,-22.94921875,21.97265625,0.0
1734581009.049891,-2.44140625,-69.3359375,75.1953125,7.32421875,0.0
1734581009.0537963,-9.765625,-68.84765625,84.47265625,5.37109375,0.0
1734581009.0577016,-4.39453125,-68.359375,22.4609375,8.30078125,0.0
1734581009.061607,-9.27734375,-66.89453125,60.546875,3.90625,0.0
1734581009.0655234,-9.27734375,-62.98828125,84.47265625,8.30078125,0.0
1734581009.0694284,-8.7890625,-59.08203125,67.87109375,10.7421875,0.0
1734581009.0733337,-21.484375,-67.3828125,13.671875,3.90625,0.0
1734581009.077239,-18.06640625,-66.40625,27.83203125,8.7890625,0.0
1734581009.0811443,-2.44140625,-58.59375,59.08203125,16.11328125,0.0
1734581009.0850496,-0.9765625,-56.15234375,23.4375,23.92578125,0.0
1734581009.088955,6.8359375,-59.08203125,-43.9453125,41.015625,0.0
1734581009.09286,5.859375,-65.4296875,20.99609375,36.1328125,0.0
1734581009.0967653,13.18359375,-68.359375,89.35546875,20.01953125,0.0
1734581009.1006706,24.90234375,-66.40625,51.7578125,33.203125,0.0
1734581009.1045759,24.4140625,-62.01171875,24.4140625,46.38671875,0.0
1734581009.1084812,26.85546875,-58.10546875,41.015625,41.50390625,0.0
1734581009.1123965,12.20703125,-53.7109375,55.6640625,41.9921875,0.0
1734581009.1163018,10.25390625,-56.640625,34.1796875,35.64453125,0.0
1734581009.120207,4.8828125,-64.453125,49.31640625,27.83203125,0.0
1734581009.1241121,0.48828125,-63.4765625,80.56640625,25.87890625,0.0
1734581009.1280174,10.25390625,-55.6640625,73.73046875,16.11328125,0.0
1734581009.1319227,9.27734375,-52.24609375,-0.48828125,13.18359375,0.0
1734581009.135828,-7.32421875,-53.22265625,-36.62109375,17.578125,0.0
1734581009.1397333,-15.625,-57.6171875,66.40625,3.41796875,0.0
1734581009.1436386,-7.32421875,-58.59375,104.98046875,0.48828125,0.0
1734581009.1475437,4.8828125,-55.17578125,42.48046875,12.6953125,0.0
1734581009.151449,-10.25390625,-57.12890625,38.57421875,0.9765625,0.0
1734581009.1553543,-19.04296875,-58.10546875,63.4765625,-7.8125,0.0
1734581009.1592772,-12.6953125,-60.546875,46.38671875,1.46484375,0.0
1734581009.1631825,-6.34765625,-65.4296875,6.8359375,1.953125,0.0
1734581009.1670878,1.953125,-62.5,37.109375,-0.9765625,0.0
1734581009.170993,-19.53125,-62.5,57.6171875,-0.48828125,0.0
1734581009.1748981,-31.25,-62.98828125,19.53125,0.9765625,0.0
1734581009.1788034,-16.6015625,-59.5703125,-33.69140625,15.13671875,0.0
1734581009.1827087,-1.953125,-58.59375,19.04296875,10.25390625,0.0
1734581009.186614,-6.34765625,-52.24609375,95.703125,6.34765625,0.0
1734581009.1905193,-4.8828125,-47.8515625,52.24609375,24.4140625,0.0
1734581009.1944246,9.765625,-51.7578125,-13.671875,31.73828125,0.0
1734581009.1983297,9.765625,-58.10546875,35.64453125,19.04296875,0.0
1734581009.202235,6.34765625,-62.98828125,50.78125,18.5546875,0.0
1734581009.2061656,12.20703125,-62.98828125,33.69140625,27.34375,0.0
1734581009.2100708,11.71875,-59.08203125,33.203125,30.2734375,0.0
1734581009.2139761,4.8828125,-61.03515625,56.640625,22.94921875,0.0
1734581009.2178814,8.7890625,-63.4765625,61.03515625,12.6953125,0.0
1734581009.2217865,25.390625,-57.6171875,32.71484375,17.08984375,0.0
1734581009.2256918,22.4609375,-57.6171875,-1.953125,24.4140625,0.0
1734581009.229597,10.7421875,-63.4765625,14.6484375,17.08984375,0.0
1734581009.2335024,-2.44140625,-70.3125,41.9921875,12.6953125,0.0
1734581009.2374077,-5.37109375,-64.94140625,-3.41796875,19.04296875,0.0
1734581009.241313,-0.9765625,-58.59375,-33.69140625,19.04296875,0.0
1734581009.245218,-3.90625,-65.4296875,61.03515625,3.90625,0.0
1734581009.2491233,2.44140625,-69.3359375,70.80078125,2.44140625,0.0
1734581009.2530437,10.7421875,-63.4765625,19.04296875,6.34765625,0.0
1734581009.2569487,7.8125,-59.5703125,29.78515625,1.953125,0.0
1734581009.260854,-5.37109375,-62.98828125,66.40625,9.765625,0.0
1734581009.2647593,5.859375,-63.4765625,47.36328125,12.6953125,0.0
1734581009.2686646,1.953125,-64.94140625,-8.30078125,10.7421875,0.0
1734581009.27257,-8.7890625,-62.98828125,-6.8359375,17.578125,0.0
1734581009.2764752,-10.7421875,-60.05859375,39.55078125,18.5546875,0.0
1734581009.2803802,-2.44140625,-63.4765625,58.59375,18.06640625,0.0
1734581009.2842855,17.578125,-62.5,6.34765625,26.85546875,0.0
1734581009.2881908,11.23046875,-57.12890625,41.015625,28.3203125,0.0
1734581009.2920961,16.6015625,-66.40625,55.17578125,25.390625,0.0
1734581009.2960014,17.578125,-69.82421875,15.13671875,33.69140625,0.0
1734581009.2999206,14.6484375,-62.01171875,-39.0625,44.43359375,0.0
1734581009.3038256,20.01953125,-62.98828125,47.8515625,37.109375,0.0
1734581009.307731,31.25,-61.5234375,101.5625,34.66796875,0.0
1734581009.3116362,28.3203125,-57.12890625,51.26953125,39.0625,0.0
1734581009.3155415,24.90234375,-57.6171875,41.50390625,35.64453125,0.0
1734581009.3194468,33.69140625,-57.6171875,38.57421875,32.2265625,0.0
1734581009.323352,46.38671875,-53.7109375,58.10546875,23.92578125,0.0
1734581009.3272572,37.109375,-58.10546875,32.2265625,22.4609375,0.0
1734581009.3311625,23.92578125,-59.5703125,-14.6484375,36.62109375,0.0
1734581009.3350677,16.6015625,-59.08203125,80.078125,13.671875,0.0
1734581009.338973,13.671875,-61.5234375,82.03125,9.27734375,0.0
1734581009.3428783,19.04296875,-60.05859375,25.390625,17.08984375,0.0
1734581009.3467965,28.80859375,-63.4765625,44.921875,4.39453125,0.0
1734581009.3507018,20.01953125,-64.453125,57.12890625,11.71875,0.0
1734581009.354607,0.9765625,-63.96484375,50.78125,12.20703125,0.0
1734581009.3585124,5.859375,-63.4765625,26.85546875,4.39453125,0.0
1734581009.3624177,11.71875,-61.5234375,46.38671875,6.34765625,0.0
1734581009.366323,6.34765625,-62.98828125,42.48046875,14.6484375,0.0
1734581009.370228,-6.8359375,-66.89453125,27.34375,12.20703125,0.0
1734581009.3741333,-11.23046875,-62.5,-16.11328125,10.7421875,0.0
1734581009.3780386,-14.16015625,-57.6171875,37.59765625,2.9296875,0.0
1734581009.381944,-17.08984375,-57.6171875,116.69921875,-14.6484375,0.0
1734581009.3858492,-9.765625,-62.5,68.359375,-12.6953125,0.0
1734581009.3897545,-10.25390625,-60.546875,26.85546875,-1.953125,0.0
1734581009.393671,-23.92578125,-59.5703125,72.265625,-1.46484375,0.0
1734581009.3975763,-23.4375,-69.82421875,86.42578125,-10.7421875,0.0
1734581009.4014816,-6.8359375,-68.84765625,50.29296875,-3.90625,0.0
1734581009.405387,9.765625,-66.40625,53.22265625,8.30078125,0.0
1734581009.409292,12.6953125,-66.89453125,45.41015625,7.32421875,0.0
1734581009.4131973,-4.8828125,-65.91796875,24.90234375,4.39453125,0.0
1734581009.4171026,-6.34765625,-62.5,-0.48828125,3.41796875,0.0
1734581009.4210079,5.859375,-62.98828125,-35.64453125,14.16015625,0.0
1734581009.4249132,4.8828125,-67.3828125,67.87109375,-2.44140625,0.0
1734581009.4288185,6.34765625,-60.546875,92.28515625,-11.23046875,0.0
1734581009.4327238,0.48828125,-57.6171875,37.109375,3.41796875,0.0
1734581009.4366288,2.9296875,-59.5703125,48.828125,9.765625,0.0
1734581009.440545,-1.46484375,-62.5,71.77734375,6.34765625,0.0
1734581009.4444504,-2.44140625,-61.5234375,68.84765625,12.6953125,0.0
1734581009.4483554,2.9296875,-56.640625,37.59765625,20.01953125,0.0
1734581009.4522607,5.859375,-52.734375,58.59375,21.97265625,0.0
1734581009.456166,8.30078125,-49.8046875,75.1953125,22.4609375,0.0
1734581009.4600713,1.46484375,-49.31640625,28.3203125,18.5546875,0.0
1734581009.4639766,-3.41796875,-53.7109375,-43.9453125,20.5078125,0.0
1734581009.467882,-3.90625,-59.08203125,-1.953125,15.625,0.0
1734581009.471787,-2.9296875,-54.19921875,94.23828125,11.23046875,0.0
1734581009.4756923,-9.27734375,-51.7578125,74.70703125,9.765625,0.0
1734581009.4795976,1.46484375,-54.6875,27.34375,6.34765625,0.0
1734581009.4835029,5.859375,-55.6640625,25.87890625,9.765625,0.0
1734581009.487418,-7.8125,-57.6171875,61.03515625,10.25390625,0.0
1734581009.4913232,-12.20703125,-62.01171875,60.546875,8.30078125,0.0
1734581009.4952285,-3.41796875,-59.5703125,42.48046875,15.625,0.0
1734581009.4991336,-3.90625,-59.08203125,70.3125,10.25390625,0.0
1734581009.503039,-0.9765625,-61.5234375,75.68359375,4.39453125,0.0
1734581009.5069442,15.625,-58.59375,1.953125,24.4140625,0.0
1734581009.5108495,10.25390625,-55.6640625,-26.3671875,40.0390625,0.0
1734581009.5147548,5.37109375,-58.10546875,73.73046875,22.94921875,0.0
1734581009.51866,0.48828125,-56.15234375,81.54296875,12.20703125,0.0
1734581009.5225651,17.08984375,-53.7109375,21.97265625,16.11328125,0.0
1734581009.5264704,38.57421875,-52.734375,3.41796875,22.4609375,0.0
1734581009.5303757,24.4140625,-50.29296875,29.78515625,21.484375,0.0
1734581009.5342984,19.04296875,-45.41015625,31.25,27.83203125,0.0
1734581009.5382037,28.80859375,-47.36328125,-2.44140625,36.1328125,0.0
1734581009.542109,35.15625,-55.6640625,29.296875,26.3671875,0.0
1734581009.546014,26.85546875,-54.19921875,56.640625,21.97265625,0.0
1734581009.5499194,26.85546875,-51.7578125,35.15625,23.4375,0.0
1734581009.5538247,22.94921875,-54.6875,-21.484375,29.296875,0.0
1734581009.55773,10.25390625,-56.640625,-6.34765625,26.85546875,0.0
1734581009.5616353,15.625,-59.08203125,71.77734375,19.04296875,0.0
1734581009.5655406,9.27734375,-56.640625,52.734375,20.01953125,0.0
1734581009.5694456,4.39453125,-60.05859375,-39.0625,31.25,0.0
1734581009.573351,-10.25390625,-66.89453125,16.11328125,18.5546875,0.0
1734581009.5772562,-17.578125,-63.4765625,54.19921875,2.44140625,0.0
1734581009.5811784,-15.625,-61.03515625,40.52734375,6.34765625,0.0
1734581009.5850835,-13.671875,-64.94140625,31.25,1.46484375,0.0
1734581009.5889888,-16.11328125,-66.89453125,47.8515625,-4.39453125,0.0
1734581009.592894,-25.87890625,-60.546875,91.30859375,1.46484375,0.0
1734581009.5967994,-23.4375,-59.08203125,65.4296875,0.0,0.0
1734581009.6007047,-17.578125,-61.03515625,20.99609375,-5.859375,0.0
1734581009.60461,-17.08984375,-62.01171875,41.015625,-6.34765625,0.0
1734581009.6085153,-18.06640625,-58.10546875,96.6796875,-2.9296875,0.0
1734581009.6124203,-12.20703125,-56.640625,34.66796875,3.90625,0.0
1734581009.6163256,-10.25390625,-61.03515625,-35.64453125,8.7890625,0.0
1734581009.620231,-5.859375,-59.5703125,71.77734375,9.765625,0.0
1734581009.6241362,2.44140625,-57.12890625,89.35546875,13.671875,0.0
1734581009.6280565,13.671875,-55.6640625,35.15625,26.85546875,0.0
1734581009.6319618,7.32421875,-52.24609375,56.640625,21.97265625,0.0
1734581009.635867,-1.953125,-49.8046875,79.1015625,0.48828125,0.0
1734581009.6397724,2.44140625,-52.24609375,63.4765625,0.9765625,0.0
1734581009.6436777,10.25390625,-60.05859375,13.671875,14.6484375,0.0
1734581009.647583,15.625,-61.5234375,10.25390625,20.99609375,0.0
1734581009.6514883,14.16015625,-55.17578125,41.9921875,21.484375,0.0
1734581009.6553934,14.16015625,-52.24609375,32.2265625,20.5078125,0.0
1734581009.6592987,16.11328125,-48.33984375,-26.3671875,28.3203125,0.0
1734581009.663204,0.9765625,-52.24609375,54.19921875,20.01953125,0.0
1734581009.6671093,-10.7421875,-53.22265625,122.55859375,1.953125,0.0
1734581009.6710145,-7.8125,-50.29296875,51.26953125,-0.9765625,0.0
1734581009.674934,-7.8125,-54.6875,65.4296875,3.90625,0.0
1734581009.6788392,1.953125,-54.19921875,105.46875,8.30078125,0.0
1734581009.6827443,11.23046875,-53.7109375,96.6796875,7.8125,0.0
1734581009.6866496,2.9296875,-60.546875,82.03125,12.20703125,0.0
1734581009.6905549,5.859375,-61.03515625,73.73046875,21.484375,0.0
1734581009.6944602,16.11328125,-53.7109375,50.78125,28.80859375,0.0
1734581009.6983654,9.765625,-51.26953125,78.125,21.97265625,0.0
1734581009.7022707,17.578125,-50.29296875,60.05859375,28.3203125,0.0
1734581009.7061758,10.25390625,-57.12890625,-3.90625,37.59765625,0.0
1734581009.710081,-9.27734375,-63.4765625,102.5390625,18.5546875,0.0
1734581009.7139864,-6.8359375,-66.40625,123.53515625,19.04296875,0.0
1734581009.7178917,6.8359375,-67.3828125,51.7578125,31.73828125,0.0
1734581009.7218099,18.5546875,-64.453125,80.078125,32.71484375,0.0
1734581009.7257152,30.2734375,-56.640625,115.72265625,37.59765625,0.0
1734581009.7296205,26.85546875,-58.59375,88.8671875,37.109375,0.0
1734581009.7335258,6.34765625,-69.82421875,44.43359375,31.73828125,0.0
1734581009.737431,13.18359375,-62.98828125,61.03515625,36.1328125,0.0
1734581009.7413363,29.78515625,-54.6875,53.22265625,44.43359375,0.0
1734581009.7452416,32.2265625,-49.8046875,41.015625,34.1796875,0.0
1734581009.7491467,26.3671875,-54.6875,-9.765625,33.69140625,0.0
1734581009.753052,18.5546875,-66.89453125,38.57421875,37.59765625,0.0
1734581009.7569573,26.3671875,-64.453125,117.67578125,23.4375,0.0
1734581009.7608626,31.25,-54.6875,75.1953125,40.52734375,0.0
1734581009.764768,36.62109375,-49.8046875,40.52734375,57.12890625,0.0
1734581009.768685,28.80859375,-49.8046875,40.0390625,46.875,0.0
1734581009.7725904,21.484375,-47.8515625,73.73046875,53.22265625,0.0
1734581009.7764955,23.4375,-50.78125,61.5234375,55.6640625,0.0
1734581009.7804008,27.34375,-52.734375,28.3203125,40.52734375,0.0
1734581009.784306,19.53125,-52.734375,67.3828125,38.57421875,0.0
1734581009.7882113,17.578125,-51.26953125,57.6171875,43.9453125,0.0
1734581009.7921166,25.87890625,-54.6875,18.06640625,44.921875,0.0
1734581009.796022,11.23046875,-60.546875,-19.04296875,49.31640625,0.0
1734581009.799927,3.90625,-61.03515625,75.68359375,34.1796875,0.0
1734581009.8038323,12.20703125,-56.640625,112.79296875,24.4140625,0.0
1734581009.8077376,21.97265625,-52.24609375,53.22265625,29.78515625,0.0
1734581009.811643,19.04296875,-52.24609375,65.91796875,32.71484375,0.0
1734581009.815559,8.7890625,-53.7109375,96.19140625,24.90234375,0.0
1734581009.8194642,4.39453125,-55.6640625,70.3125,13.18359375,0.0
1734581009.8233695,25.87890625,-57.6171875,25.87890625,22.4609375,0.0
1734581009.8272748,35.64453125,-59.5703125,54.6875,28.3203125,0.0
1734581009.83118,9.765625,-59.08203125,83.984375,20.99609375,0.0
1734581009.8350854,-4.39453125,-59.08203125,30.76171875,17.578125,0.0
1734581009.8389904,9.765625,-57.12890625,-43.45703125,21.484375,0.0
1734581009.8428957,5.37109375,-57.12890625,25.87890625,9.765625,0.0
1734581009.846801,18.06640625,-54.6875,99.12109375,4.8828125,0.0
1734581009.8507063,31.73828125,-48.828125,61.5234375,16.6015625,0.0
1734581009.8546116,18.5546875,-55.17578125,19.04296875,15.625,0.0
1734581009.858517,15.13671875,-61.5234375,21.97265625,11.23046875,0.0
1734581009.8624315,21.484375,-56.15234375,76.66015625,6.34765625,0.0
1734581009.8663368,5.37109375,-56.640625,63.4765625,2.9296875,0.0
1734581009.870242,-13.671875,-63.96484375,35.64453125,12.20703125,0.0
1734581009.8741474,-1.953125,-64.94140625,62.5,12.6953125,0.0
1734581009.8780527,12.6953125,-61.03515625,55.17578125,11.23046875,0.0
1734581009.881958,5.37109375,-60.546875,2.9296875,19.53125,0.0
1734581009.885863,-9.765625,-66.40625,-39.55078125,16.6015625,0.0
1734581009.8897684,-19.53125,-67.3828125,40.0390625,12.20703125,0.0
1734581009.8936737,-10.25390625,-64.94140625,83.984375,28.3203125,0.0
1734581009.897579,-1.46484375,-66.89453125,20.99609375,39.0625,0.0
1734581009.9014843,-9.27734375,-66.40625,33.69140625,30.76171875,0.0
1734581009.9053895,-13.18359375,-64.94140625,86.42578125,13.671875,0.0
1734581009.9093118,-16.6015625,-64.94140625,71.2890625,14.16015625,0.0
1734581009.913217,-15.625,-62.98828125,27.83203125,26.85546875,0.0
1734581009.9171224,-10.7421875,-60.05859375,39.55078125,18.5546875,0.0
1734581009.9210277,-4.39453125,-61.5234375,68.359375,12.6953125,0.0
1734581009.924933,4.39453125,-62.01171875,49.31640625,25.87890625,0.0
1734581009.928838,16.11328125,-60.546875,-23.92578125,33.69140625,0.0
1734581009.9327433,18.06640625,-58.59375,4.8828125,26.85546875,0.0
1734581009.9366486,8.7890625,-54.6875,71.77734375,22.4609375,0.0
1734581009.940554,23.4375,-54.19921875,26.3671875,28.80859375,0.0
1734581009.9444592,40.0390625,-53.7109375,-7.8125,31.73828125,0.0
1734581009.9483645,27.34375,-54.19921875,33.203125,25.87890625,0.0
1734581009.9522698,20.01953125,-56.640625,30.2734375,25.87890625,0.0
1734581009.9561915,18.06640625,-50.78125,12.6953125,29.296875,0.0
1734581009.9600968,24.4140625,-49.8046875,-41.9921875,34.66796875,0.0
1734581009.9640021,23.92578125,-57.12890625,39.55078125,28.3203125,0.0
1734581009.9679074,36.62109375,-55.6640625,90.33203125,31.73828125,0.0
1734581009.9718125,32.71484375,-53.22265625,41.50390625,36.1328125,0.0
1734581009.9757178,19.04296875,-50.78125,2.44140625,36.62109375,0.0
1734581009.979623,26.3671875,-51.7578125,8.30078125,34.66796875,0.0
1734581009.9835284,27.83203125,-53.7109375,64.453125,19.53125,0.0
1734581009.9874337,21.97265625,-52.734375,5.859375,30.2734375,0.0
1734581009.991339,16.6015625,-56.640625,-47.8515625,50.29296875,0.0
1734581009.995244,8.30078125,-61.03515625,63.4765625,29.78515625,0.0
1734581009.9991493,16.11328125,-61.03515625,56.640625,20.01953125,0.0
1734581010.0030696,18.06640625,-61.5234375,9.27734375,31.73828125,0.0
1734581010.006975,9.27734375,-62.5,45.41015625,27.34375,0.0
1734581010.01088,3.41796875,-62.5,72.75390625,17.578125,0.0
1734581010.0147853,-3.90625,-63.96484375,50.29296875,16.6015625,0.0
1734581010.0186906,2.44140625,-60.05859375,1.46484375,21.97265625,0.0
1734581010.022596,3.90625,-59.5703125,2.9296875,25.390625,0.0
1734581010.0265012,0.48828125,-62.5,36.1328125,14.16015625,0.0
1734581010.0304065,8.30078125,-57.6171875,51.7578125,12.6953125,0.0
1734581010.0343118,17.578125,-54.19921875,-43.45703125,33.203125,0.0
1734581010.0382168,17.578125,-57.6171875,6.34765625,30.2734375,0.0
1734581010.0421221,22.4609375,-58.59375,77.1484375,22.4609375,0.0
1734581010.0460274,29.296875,-59.08203125,17.578125,29.296875,0.0
1734581010.0499465,0.0,-57.6171875,34.66796875,32.2265625,0.0
1734581010.0538518,0.0,-53.7109375,71.77734375,27.34375,0.0
1734581010.0577571,0.0,-50.78125,41.015625,24.4140625,0.0
1734581010.0616622,0.0,-54.6875,16.11328125,32.71484375,0.0
1734581010.0655675,0.0,-50.78125,45.41015625,36.62109375,0.0
1734581010.0694728,0.0,-51.26953125,23.4375,33.69140625,0.0
1734581010.073378,0.0,-57.12890625,31.73828125,21.484375,0.0
1734581010.0772834,0.0,-49.8046875,22.94921875,22.94921875,0.0
1734581010.0811887,0.0,-51.7578125,-31.73828125,26.85546875,0.0
1734581010.085094,0.0,-58.59375,71.77734375,7.8125,0.0
1734581010.088999,0.0,-56.640625,98.14453125,21.484375,0.0
1734581010.0929043,0.0,-56.640625,37.109375,38.57421875,0.0
1734581010.096823,20.99609375,-59.08203125,46.38671875,33.203125,0.0
1734581010.1007283,3.41796875,-56.640625,82.03125,28.3203125,0.0
1734581010.1046336,8.30078125,-54.6875,61.03515625,33.203125,0.0
1734581010.1085389,18.06640625,-56.640625,16.6015625,36.62109375,0.0
1734581010.112444,9.27734375,-60.05859375,35.15625,29.296875,0.0
1734581010.1163492,12.6953125,-62.5,30.2734375,22.94921875,0.0
1734581010.1202545,22.4609375,-63.4765625,19.53125,24.4140625,0.0
1734581010.1241598,6.34765625,-62.5,-14.6484375,32.2265625,0.0
1734581010.128065,-12.20703125,-66.40625,27.83203125,19.04296875,0.0
1734581010.1319704,-11.23046875,-64.94140625,100.5859375,4.39453125,0.0
1734581010.1358755,-4.39453125,-64.453125,65.4296875,15.625,0.0
1734581010.1397808,-1.953125,-68.84765625,23.92578125,11.71875,0.0
1734581010.1436977,8.30078125,-64.453125,69.3359375,2.44140625,0.0
1734581010.147603,9.765625,-62.5,94.7265625,9.765625,0.0
1734581010.1515083,3.90625,-62.98828125,58.59375,5.859375,0.0
1734581010.1554136,5.37109375,-61.5234375,44.43359375,-1.46484375,0.0
1734581010.1593187,7.8125,-60.546875,65.91796875,2.44140625,0.0
1734581010.163224,3.41796875,-61.03515625,44.921875,8.30078125,0.0
1734581010.1671293,1.953125,-60.546875,-5.859375,11.23046875,0.0
1734581010.1710346,7.32421875,-53.22265625,-30.2734375,23.92578125,0.0
1734581010.1749399,8.30078125,-51.26953125,57.6171875,19.53125,0.0
1734581010.1788452,14.6484375,-49.8046875,78.125,12.6953125,0.0
1734581010.1827505,9.765625,-52.24609375,52.24609375,10.25390625,0.0
1734581010.1866555,6.8359375,-54.19921875,62.01171875,12.20703125,0.0
1734581010.1905715,20.99609375,-49.31640625,85.44921875,19.53125,0.0
1734581010.1944768,23.92578125,-44.921875,65.91796875,28.80859375,0.0
1734581010.198382,26.3671875,-42.96875,23.4375,37.109375,0.0
1734581010.2022872,24.90234375,-45.41015625,52.734375,37.109375,0.0
1734581010.2061925,26.3671875,-44.43359375,81.54296875,44.43359375,0.0
1734581010.2100978,20.01953125,-41.50390625,39.55078125,51.7578125,0.0
1734581010.214003,18.06640625,-42.48046875,-32.71484375,52.734375,0.0
1734581010.2179084,22.94921875,-43.45703125,21.484375,47.36328125,0.0
1734581010.2218134,18.5546875,-45.8984375,105.95703125,41.015625,0.0
1734581010.2257187,19.04296875,-44.921875,84.9609375,42.96875,0.0
1734581010.229624,19.53125,-47.36328125,50.29296875,38.0859375,0.0
1734581010.2335293,14.16015625,-51.7578125,33.69140625,28.80859375,0.0
1734581010.2374442,3.90625,-53.22265625,48.33984375,23.92578125,0.0
1734581010.2413495,9.765625,-55.6640625,66.40625,23.92578125,0.0
1734581010.2452548,25.390625,-53.7109375,61.5234375,30.2734375,0.0
1734581010.2491598,21.97265625,-46.875,73.73046875,34.66796875,0.0
1734581010.253065,16.11328125,-44.43359375,83.49609375,29.78515625,0.0
1734581010.2569704,32.2265625,-42.48046875,18.06640625,35.15625,0.0
1734581010.2608757,31.25,-42.96875,-23.4375,44.43359375,0.0
1734581010.264781,16.11328125,-51.7578125,64.94140625,29.296875,0.0
1734581010.2686863,15.13671875,-57.6171875,81.0546875,27.83203125,0.0
1734581010.2725916,10.7421875,-57.12890625,31.25,27.83203125,0.0
1734581010.2764966,1.46484375,-62.01171875,40.52734375,19.04296875,0.0
1734581010.280402,12.20703125,-62.98828125,77.63671875,16.6015625,0.0
1734581010.2843244,28.80859375,-58.10546875,68.359375,24.4140625,0.0
1734581010.2882297,18.5546875,-58.59375,31.25,28.3203125,0.0
1734581010.292135,13.671875,-62.01171875,26.3671875,20.99609375,0.0
1734581010.29604,18.5546875,-64.453125,24.4140625,29.78515625,0.0
1734581010.2999454,25.390625,-63.96484375,27.34375,30.2734375,0.0
1734581010.3038507,30.76171875,-63.4765625,-24.90234375,26.85546875,0.0
1734581010.307756,24.90234375,-60.05859375,1.46484375,28.80859375,0.0
1734581010.3116612,21.97265625,-55.17578125,82.51953125,38.0859375,0.0
1734581010.3155665,26.3671875,-52.24609375,47.8515625,49.31640625,0.0
1734581010.3194718,30.2734375,-54.19921875,-32.71484375,58.10546875,0.0
1734581010.323377,31.25,-59.08203125,25.390625,53.22265625,0.0
1734581010.3272822,30.76171875,-59.08203125,54.19921875,47.36328125,0.0
1734581010.3312037,22.4609375,-55.6640625,34.66796875,37.109375,0.0
1734581010.335109,16.11328125,-55.6640625,37.59765625,33.69140625,0.0
1734581010.3390143,23.92578125,-56.15234375,53.7109375,27.83203125,0.0
1734581010.3429196,35.64453125,-55.17578125,66.40625,24.4140625,0.0
1734581010.346825,27.83203125,-62.98828125,39.0625,26.85546875,0.0
1734581010.3507302,14.16015625,-64.453125,16.11328125,27.83203125,0.0
1734581010.3546355,12.20703125,-59.5703125,19.53125,20.5078125,0.0
1734581010.3585405,9.27734375,-59.08203125,54.19921875,5.859375,0.0
1734581010.3624458,10.7421875,-61.03515625,37.109375,18.5546875,0.0
1734581010.3663511,14.16015625,-65.4296875,-17.578125,23.92578125,0.0
1734581010.3702564,14.6484375,-63.96484375,72.75390625,9.765625,0.0
1734581010.3741617,1.46484375,-61.03515625,79.58984375,6.8359375,0.0
1734581010.3780818,-3.90625,-64.453125,27.83203125,7.32421875,0.0
1734581010.381987,0.48828125,-69.3359375,59.08203125,6.8359375,0.0
1734581010.3858924,-8.7890625,-76.66015625,81.0546875,6.34765625,0.0
1734581010.3897977,-10.7421875,-76.66015625,59.08203125,9.765625,0.0
1734581010.393703,-14.16015625,-74.21875,3.90625,11.71875,0.0
1734581010.3976083,-12.6953125,-71.2890625,-9.765625,5.37109375,0.0
1734581010.4015133,-2.9296875,-64.94140625,24.90234375,6.8359375,0.0
1734581010.4054186,1.46484375,-60.05859375,43.9453125,16.6015625,0.0
1734581010.409324,-4.8828125,-60.546875,-46.38671875,22.4609375,0.0
1734581010.4132292,-24.4140625,-68.84765625,-17.578125,9.27734375,0.0
1734581010.4171345,-17.578125,-68.84765625,70.3125,-0.48828125,0.0
1734581010.4210398,6.34765625,-59.08203125,26.85546875,8.30078125,0.0
1734581010.424968,-5.37109375,-58.59375,35.64453125,9.27734375,0.0
1734581010.4288733,-18.5546875,-64.453125,70.80078125,2.9296875,0.0
1734581010.4327786,-13.671875,-69.82421875,52.734375,8.30078125,0.0
1734581010.436684,-8.7890625,-63.4765625,34.1796875,14.6484375,0.0
1734581010.4405892,-15.625,-64.94140625,35.64453125,-1.46484375,0.0
1734581010.4444945,-22.94921875,-69.3359375,14.16015625,-9.27734375,0.0
1734581010.4483995,-17.08984375,-63.96484375,23.92578125,-3.41796875,0.0
1734581010.4523048,-11.71875,-60.546875,18.5546875,4.8828125,0.0
1734581010.4562101,-5.859375,-62.01171875,-36.62109375,12.20703125,0.0
1734581010.4601154,-12.6953125,-63.96484375,44.921875,-9.765625,0.0
1734581010.4640207,-13.671875,-60.546875,74.70703125,-20.5078125,0.0
1734581010.467926,-7.32421875,-59.08203125,25.87890625,-7.8125,0.0
1734581010.471844,-9.765625,-65.4296875,17.578125,-0.48828125,0.0
1734581010.4757493,-20.99609375,-67.3828125,56.15234375,-10.7421875,0.0
1734581010.4796546,-18.5546875,-61.03515625,58.59375,-17.578125,0.0
1734581010.4835598,-9.765625,-59.5703125,17.08984375,-8.7890625,0.0
1734581010.4874651,-13.671875,-62.98828125,31.73828125,-2.9296875,0.0
1734581010.4913702,-14.16015625,-61.03515625,27.34375,-5.37109375,0.0
1734581010.4952755,-14.16015625,-59.5703125,5.859375,0.9765625,0.0
1734581010.4991808,-10.25390625,-63.4765625,3.90625,3.41796875,0.0
1734581010.503086,-12.20703125,-64.453125,49.8046875,5.859375,0.0
1734581010.5069914,-15.13671875,-61.5234375,76.171875,0.48828125,0.0
1734581010.5108967,-10.7421875,-56.15234375,46.38671875,2.44140625,0.0
1734581010.514802,-2.9296875,-52.734375,-56.640625,27.34375,0.0
1734581010.5187187,0.0,-58.59375,-0.9765625,13.18359375,0.0
1734581010.522624,0.0,-59.08203125,90.8203125,6.34765625,0.0
1734581010.5265293,0.0,-53.7109375,49.8046875,28.80859375,0.0
1734581010.5304346,0.0,-53.7109375,16.6015625,17.08984375,0.0
1734581010.53434,0.0,-58.10546875,33.69140625,6.34765625,0.0
1734581010.5382452,0.0,-56.640625,41.9921875,-0.9765625,0.0
1734581010.5421505,0.0,-49.8046875,-0.48828125,-7.32421875,0.0
1734581010.5460556,0.0,-50.78125,-46.38671875,15.13671875,0.0
1734581010.5499609,0.0,-54.6875,43.9453125,9.27734375,0.0
1734581010.5538661,0.0,-53.22265625,75.1953125,-2.9296875,0.0
1734581010.5577714,0.0,-53.7109375,20.01953125,1.46484375,0.0
1734581010.5616767,0.0,-48.828125,24.90234375,-0.48828125,0.0
1734581010.5655925,11.71875,-50.29296875,39.0625,-4.39453125,0.0
1734581010.5694978,7.32421875,-57.6171875,26.85546875,-4.39453125,0.0
1734581010.5734031,3.90625,-57.12890625,-8.7890625,0.9765625,0.0
1734581010.5773084,6.34765625,-60.546875,6.34765625,1.953125,0.0
1734581010.5812137,18.06640625,-61.03515625,34.66796875,-6.8359375,0.0
1734581010.5851188,14.6484375,-58.10546875,-8.7890625,-8.7890625,0.0
1734581010.589024,2.9296875,-62.5,-77.63671875,2.44140625,0.0
1734581010.5929294,-4.8828125,-64.453125,-15.13671875,0.9765625,0.0
1734581010.5968347,-8.7890625,-62.98828125,66.40625,-3.41796875,0.0
1734581010.60074,0.9765625,-66.40625,40.52734375,0.9765625,0.0
1734581010.6046453,7.8125,-61.5234375,7.32421875,10.25390625,0.0
1734581010.6085505,5.37109375,-59.5703125,0.9765625,12.20703125,0.0
1734581010.6124651,2.9296875,-58.59375,29.296875,19.53125,0.0
1734581010.6163704,-8.7890625,-59.08203125,44.921875,21.97265625,0.0
1734581010.6202757,-12.20703125,-60.05859375,30.76171875,15.625,0.0
1734581010.624181,-9.765625,-58.10546875,44.43359375,17.08984375,0.0
1734581010.6280863,-7.32421875,-60.05859375,57.6171875,16.6015625,0.0
1734581010.6319916,-14.16015625,-60.05859375,-1.953125,14.16015625,0.0
1734581010.635897,-22.94921875,-62.01171875,-56.640625,18.06640625,0.0
1734581010.639802,-11.23046875,-59.08203125,41.9921875,15.13671875,0.0
1734581010.6437073,9.765625,-52.24609375,63.96484375,10.7421875,0.0
1734581010.6476126,23.4375,-52.734375,-13.18359375,22.4609375,0.0
1734581010.6515179,14.6484375,-57.6171875,-13.18359375,36.1328125,0.0
1734581010.6554232,13.18359375,-58.59375,43.9453125,29.296875,0.0
1734581010.6593454,27.34375,-58.59375,32.2265625,16.11328125,0.0
1734581010.6632507,31.25,-60.05859375,-10.7421875,19.04296875,0.0
1734581010.667156,20.01953125,-55.17578125,3.90625,22.94921875,0.0
1734581010.6710613,19.04296875,-51.7578125,29.78515625,17.08984375,0.0
1734581010.6749666,24.4140625,-52.24609375,18.06640625,21.484375,0.0
1734581010.6788719,31.25,-51.26953125,-48.828125,26.3671875,0.0
1734581010.682777,33.203125,-47.8515625,-25.390625,28.3203125,0.0
1734581010.6866822,27.83203125,-47.8515625,32.2265625,20.99609375,0.0
1734581010.6905875,3.41796875,-50.78125,16.6015625,21.484375,0.0
1734581010.6944928,7.8125,-52.734375,-65.91796875,29.78515625,0.0
1734581010.698398,17.08984375,-50.29296875,-24.90234375,14.6484375,0.0
1734581010.7023034,17.08984375,-53.7109375,26.3671875,4.39453125,0.0
1734581010.7062247,0.0,-56.640625,2.44140625,15.625,0.0
1734581010.71013,0.0,-53.7109375,-3.90625,17.08984375,0.0
1734581010.714035,0.0,-52.734375,44.43359375,13.18359375,0.0
1734581010.7179403,0.0,-54.6875,57.12890625,19.04296875,0.0
1734581010.7218456,0.0,-56.640625,26.85546875,28.3203125,0.0
1734581010.725751,0.0,-57.6171875,-10.7421875,29.78515625,0.0
1734581010.7296562,0.0,-60.05859375,2.44140625,27.34375,0.0
1734581010.7335615,0.0,-60.546875,60.05859375,24.4140625,0.0
1734581010.7374668,0.0,-58.59375,4.39453125,29.78515625,0.0
1734581010.7413719,0.0,-59.5703125,-60.546875,34.1796875,0.0
1734581010.7452772,0.0,-57.12890625,45.41015625,26.3671875,0.0
1734581010.7491825,0.0,-56.15234375,68.84765625,27.83203125,0.0
1734581010.7531033,-1.46484375,-61.5234375,12.6953125,34.66796875,0.0
1734581010.7570086,4.39453125,-62.01171875,32.71484375,32.2265625,0.0
1734581010.7609138,6.8359375,-60.05859375,65.4296875,31.25,0.0
1734581010.764819,19.04296875,-58.10546875,36.1328125,27.83203125,0.0
1734581010.7687242,17.578125,-61.5234375,-10.7421875,20.01953125,0.0
1734581010.7726295,12.20703125,-58.10546875,-18.06640625,20.99609375,0.0
1734581010.7765348,10.7421875,-54.19921875,18.5546875,17.578125,0.0
1734581010.78044,1.46484375,-56.15234375,33.69140625,19.04296875,0.0
1734581010.7843454,17.08984375,-56.640625,-65.91796875,27.83203125,0.0
1734581010.7882507,18.5546875,-60.05859375,-2.9296875,16.6015625,0.0
1734581010.792156,9.27734375,-58.59375,74.21875,6.8359375,0.0
1734581010.796061,16.6015625,-56.640625,8.30078125,9.27734375,0.0
1734581010.7999802,18.5546875,-60.05859375,22.4609375,12.20703125,0.0
1734581010.8038855,22.4609375,-56.15234375,65.4296875,20.5078125,0.0
1734581010.8077908,20.99609375,-52.734375,68.84765625,21.484375,0.0
1734581010.811696,21.484375,-51.26953125,37.109375,30.2734375,0.0
1734581010.8156013,30.2734375,-53.7109375,20.99609375,32.71484375,0.0
1734581010.8195066,27.83203125,-60.546875,10.7421875,26.3671875,0.0
1734581010.8234117,20.99609375,-59.5703125,11.71875,27.83203125,0.0
1734581010.827317,13.18359375,-59.5703125,-3.41796875,31.25,0.0
1734581010.8312223,9.27734375,-62.5,-36.62109375,43.9453125,0.0
1734581010.8351276,4.8828125,-62.98828125,64.453125,33.69140625,0.0
1734581010.839033,4.39453125,-61.5234375,87.40234375,35.15625,0.0
1734581010.8429382,3.41796875,-60.05859375,26.85546875,37.59765625,0.0
1734581010.8468564,5.859375,-60.05859375,44.43359375,29.78515625,0.0
1734581010.8507617,11.71875,-55.6640625,74.70703125,31.73828125,0.0
1734581010.854667,5.859375,-56.640625,47.36328125,26.85546875,0.0
1734581010.8585722,13.18359375,-60.05859375,11.23046875,30.76171875,0.0
1734581010.8624775,12.20703125,-59.08203125,21.484375,29.296875,0.0
1734581010.8663828,19.53125,-57.12890625,16.6015625,27.83203125,0.0
1734581010.870288,20.99609375,-56.15234375,12.20703125,33.203125,0.0
1734581010.8741932,11.71875,-57.6171875,-40.52734375,38.57421875,0.0
1734581010.8780985,20.01953125,-61.5234375,10.7421875,31.73828125,0.0
1734581010.8820038,27.34375,-60.546875,82.51953125,27.83203125,0.0
1734581010.885909,40.0390625,-57.6171875,20.01953125,40.0390625,0.0
1734581010.8898144,33.69140625,-58.59375,-18.5546875,40.52734375,0.0
1734581010.8937316,16.11328125,-63.96484375,35.64453125,32.71484375,0.0
1734581010.897637,33.69140625,-68.359375,60.546875,33.203125,0.0
1734581010.9015422,31.25,-62.5,23.92578125,35.64453125,0.0
1734581010.9054475,20.99609375,-61.5234375,13.18359375,29.296875,0.0
1734581010.9093525,16.6015625,-67.3828125,28.80859375,25.390625,0.0
1734581010.9132578,14.16015625,-65.4296875,10.25390625,24.4140625,0.0
1734581010.9171631,16.11328125,-60.546875,-25.390625,25.390625,0.0
1734581010.9210684,4.8828125,-64.453125,-56.640625,39.0625,0.0
1734581010.9249737,0.9765625,-70.3125,37.109375,35.15625,0.0
1734581010.928879,-1.953125,-70.3125,70.3125,20.5078125,0.0
1734581010.9327843,-10.25390625,-70.80078125,10.7421875,22.4609375,0.0
1734581010.9366894,-10.25390625,-69.3359375,22.4609375,23.4375,0.0
1734581010.9406052,-3.41796875,-68.359375,62.98828125,21.97265625,0.0
1734581010.9445102,-2.9296875,-65.91796875,28.3203125,21.484375,0.0
1734581010.9484155,5.37109375,-64.94140625,-10.7421875,28.80859375,0.0
1734581010.9523208,-3.90625,-69.3359375,23.4375,27.34375,0.0
1734581010.956226,-4.8828125,-67.87109375,45.8984375,16.11328125,0.0
1734581010.9601314,13.671875,-69.3359375,5.37109375,21.484375,0.0
1734581010.9640367,12.6953125,-73.2421875,-64.94140625,26.85546875,0.0
1734581010.967942,-4.8828125,-71.2890625,-3.90625,18.5546875,0.0
1734581010.971847,-0.9765625,-73.2421875,76.66015625,20.99609375,0.0
1734581010.9757524,8.7890625,-73.2421875,38.57421875,26.85546875,0.0
1734581010.9796576,29.78515625,-67.87109375,-0.9765625,27.83203125,0.0
1734581010.983563,32.2265625,-65.4296875,17.08984375,38.0859375,0.0
1734581010.9874775,17.578125,-64.94140625,40.0390625,34.66796875,0.0
1734581010.9913828,20.01953125,-60.546875,34.66796875,25.390625,0.0
1734581010.995288,19.04296875,-58.59375,25.390625,14.6484375,0.0
1734581010.9991932,20.5078125,-56.15234375,42.96875,9.765625,0.0
1734581011.0030985,26.85546875,-50.29296875,34.66796875,16.11328125,0.0
1734581011.0070038,21.484375,-51.26953125,-7.8125,28.80859375,0.0
1734581011.010909,4.8828125,-56.640625,-12.6953125,24.90234375,0.0
1734581011.0148144,6.8359375,-60.546875,38.0859375,17.578125,0.0
1734581011.0187197,23.4375,-58.10546875,53.7109375,23.92578125,0.0
1734581011.022625,20.99609375,-50.78125,16.6015625,35.15625,0.0
1734581011.02653,18.5546875,-51.7578125,9.27734375,41.9921875,0.0
1734581011.0304353,20.01953125,-53.22265625,63.96484375,29.296875,0.0
1734581011.034358,14.16015625,-53.22265625,64.94140625,21.484375,0.0
1734581011.0382633,11.71875,-51.7578125,23.4375,20.5078125,0.0
1734581011.0421686,24.90234375,-49.8046875,40.0390625,20.5078125,0.0
1734581011.046074,28.80859375,-50.29296875,71.2890625,23.4375,0.0
1734581011.049979,20.01953125,-48.828125,48.828125,32.71484375,0.0
1734581011.0538843,24.4140625,-55.6640625,-21.97265625,38.57421875,0.0
1734581011.0577896,13.18359375,-62.5,6.34765625,21.97265625,0.0
1734581011.0616949,-6.34765625,-62.5,64.94140625,15.13671875,0.0
1734581011.0656002,-1.46484375,-59.5703125,21.97265625,25.390625,0.0
1734581011.0695055,5.859375,-56.15234375,-41.50390625,28.80859375,0.0
1734581011.0734107,-2.9296875,-56.640625,10.25390625,18.06640625,0.0
1734581011.0773158,-0.9765625,-58.10546875,51.26953125,14.6484375,0.0
1734581011.0812376,8.7890625,-63.96484375,40.0390625,20.5078125,0.0
1734581011.0851426,7.8125,-65.91796875,45.41015625,21.97265625,0.0
1734581011.089048,3.90625,-62.01171875,64.94140625,24.90234375,0.0
1734581011.0929532,10.25390625,-64.453125,66.40625,18.5546875,0.0
1734581011.0968585,3.90625,-65.91796875,32.71484375,16.6015625,0.0
1734581011.1007638,0.48828125,-64.94140625,9.765625,12.6953125,0.0
1734581011.104669,-2.9296875,-62.01171875,20.01953125,3.90625,0.0
1734581011.1085744,-3.90625,-61.5234375,57.6171875,10.7421875,0.0
1734581011.1124797,-4.39453125,-63.4765625,18.06640625,20.01953125,0.0
1734581011.1163847,-2.9296875,-62.01171875,-33.69140625,25.87890625,0.0
1734581011.12029,5.37109375,-58.10546875,52.24609375,18.5546875,0.0
1734581011.1241953,4.39453125,-65.4296875,51.26953125,3.41796875,0.0
1734581011.128116,4.8828125,-70.80078125,29.296875,6.34765625,0.0
1734581011.1320212,-2.9296875,-67.87109375,40.52734375,4.39453125,0.0
1734581011.1359262,-17.08984375,-61.5234375,51.7578125,-13.18359375,0.0
1734581011.1398315,-6.8359375,-63.4765625,40.52734375,-6.34765625,0.0
1734581011.1437368,3.90625,-66.89453125,-10.7421875,10.25390625,0.0
1734581011.1476421,-2.44140625,-61.5234375,-18.06640625,14.16015625,0.0
1734581011.1515474,-5.859375,-62.98828125,35.15625,16.11328125,0.0
1734581011.1554527,-5.37109375,-64.94140625,41.50390625,20.5078125,0.0
1734581011.159358,8.30078125,-67.87109375,-54.19921875,29.296875,0.0
1734581011.1632633,1.953125,-71.77734375,17.08984375,21.484375,0.0
1734581011.1671684,-6.34765625,-73.2421875,79.1015625,12.6953125,0.0
1734581011.1710737,0.48828125,-71.2890625,5.37109375,13.671875,0.0
1734581011.1749926,5.37109375,-62.01171875,27.83203125,11.23046875,0.0
1734581011.1788979,4.39453125,-58.10546875,64.94140625,13.18359375,0.0
1734581011.1828032,3.90625,-63.96484375,47.8515625,15.625,0.0
1734581011.1867085,10.7421875,-61.03515625,53.7109375,16.11328125,0.0
1734581011.1906135,-0.48828125,-61.03515625,44.921875,14.16015625,0.0
1734581011.1945188,-8.30078125,-63.4765625,15.13671875,13.671875,0.0
1734581011.198424,-5.37109375,-64.453125,47.36328125,5.37109375,0.0
1734581011.2023294,-11.23046875,-68.359375,43.45703125,-1.46484375,0.0
1734581011.2062347,-10.25390625,-71.77734375,-33.69140625,7.32421875,0.0
1734581011.21014,-11.23046875,-71.77734375,53.7109375,0.9765625,0.0
1734581011.2140453,-0.9765625,-62.98828125,82.51953125,3.41796875,0.0
1734581011.2179503,16.11328125,-52.734375,15.625,7.32421875,0.0
1734581011.2218688,17.578125,-50.29296875,32.71484375,-0.48828125,0.0
1734581011.225774,16.6015625,-57.6171875,61.5234375,-6.8359375,0.0
1734581011.2296793,0.9765625,-63.4765625,47.36328125,-9.27734375,0.0
1734581011.2335846,-19.04296875,-67.87109375,11.23046875,-16.11328125,0.0
1734581011.2374897,-30.2734375,-68.84765625,20.5078125,-30.76171875,0.0
1734581011.241395,-17.08984375,-66.40625,31.73828125,-31.25,0.0
1734581011.2453003,0.0,-62.98828125,3.41796875,-21.484375,0.0
1734581011.2492056,8.7890625,-58.10546875,-22.4609375,-5.859375,0.0
1734581011.253111,20.99609375,-52.734375,40.0390625,-10.25390625,0.0
1734581011.2570162,19.04296875,-50.29296875,79.1015625,-12.20703125,0.0
1734581011.2609215,23.4375,-53.22265625,44.43359375,4.39453125,0.0
1734581011.2648268,29.296875,-55.17578125,-41.9921875,19.04296875,0.0
1734581011.268744,3.90625,-59.08203125,39.0625,6.34765625,0.0
1734581011.272649,-7.32421875,-62.01171875,98.14453125,-2.9296875,0.0
1734581011.2765543,5.37109375,-63.96484375,45.8984375,5.859375,0.0
1734581011.2804596,0.0,-65.4296875,44.43359375,10.7421875,0.0
1734581011.284365,5.37109375,-61.5234375,61.03515625,18.5546875,0.0
1734581011.2882702,19.04296875,-60.05859375,42.48046875,22.94921875,0.0
1734581011.2921755,21.97265625,-56.15234375,5.859375,31.73828125,0.0
1734581011.2960808,28.3203125,-59.5703125,-50.78125,38.57421875,0.0
1734581011.2999861,31.73828125,-61.03515625,35.64453125,33.69140625,0.0
1734581011.3038912,30.76171875,-56.640625,89.84375,24.90234375,0.0
1734581011.3077965,29.296875,-59.5703125,44.43359375,22.4609375,0.0
1734581011.3117018,17.08984375,-61.5234375,60.546875,24.90234375,0.0
1734581011.3156266,16.6015625,-67.3828125,69.82421875,31.73828125,0.0
1734581011.319532,20.99609375,-70.80078125,52.734375,38.0859375,0.0
1734581011.323437,22.4609375,-65.91796875,31.73828125,33.69140625,0.0
1734581011.3273423,22.94921875,-69.3359375,57.6171875,22.94921875,0.0
1734581011.3312476,24.4140625,-69.3359375,67.87109375,19.53125,0.0
1734581011.3351529,34.1796875,-57.6171875,8.7890625,27.34375,0.0
1734581011.3390582,42.96875,-59.08203125,-50.29296875,42.48046875,0.0
1734581011.3429635,28.80859375,-64.94140625,9.27734375,33.69140625,0.0
1734581011.3468688,20.5078125,-59.5703125,91.796875,24.90234375,0.0
1734581011.350774,21.484375,-55.6640625,69.3359375,26.3671875,0.0
1734581011.354679,27.34375,-58.10546875,32.2265625,17.08984375,0.0
1734581011.3585844,34.66796875,-60.546875,30.2734375,15.13671875,0.0
1734581011.362499,33.69140625,-55.6640625,48.828125,16.6015625,0.0
1734581011.3664043,26.3671875,-52.24609375,65.91796875,22.94921875,0.0
1734581011.3703096,19.04296875,-53.22265625,58.10546875,13.671875,0.0
1734581011.374215,0.9765625,-60.05859375,79.1015625,10.7421875,0.0
1734581011.3781202,-8.30078125,-64.94140625,77.1484375,16.11328125,0.0
1734581011.3820255,-2.9296875,-64.453125,19.53125,8.7890625,0.0
1734581011.3859308,2.9296875,-65.91796875,23.92578125,4.8828125,0.0
1734581011.3898358,1.953125,-65.91796875,63.96484375,7.8125,0.0
1734581011.3937411,-0.48828125,-66.89453125,71.77734375,7.32421875,0.0
1734581011.3976464,8.7890625,-62.98828125,7.32421875,7.32421875,0.0
1734581011.4015517,20.99609375,-60.546875,-57.12890625,15.13671875,0.0
1734581011.405457,13.18359375,-58.59375,45.41015625,10.25390625,0.0
1734581011.4093797,4.39453125,-53.22265625,79.1015625,11.23046875,0.0
1734581011.413285,11.71875,-54.6875,6.8359375,22.94921875,0.0
1734581011.4171903,16.11328125,-60.546875,-0.9765625,24.90234375,0.0
1734581011.4210954,20.01953125,-58.59375,61.03515625,20.01953125,0.0
1734581011.4250007,16.11328125,-52.24609375,63.4765625,19.53125,0.0
1734581011.428906,9.765625,-53.22265625,-13.18359375,31.25,0.0
1734581011.4328113,1.953125,-62.01171875,6.8359375,30.76171875,0.0
1734581011.4367166,-6.8359375,-65.91796875,68.359375,14.16015625,0.0
1734581011.4406219,9.27734375,-60.546875,52.24609375,18.06640625,0.0
1734581011.4445271,11.23046875,-56.15234375,-32.71484375,32.2265625,0.0
1734581011.4484324,3.90625,-56.640625,3.90625,30.2734375,0.0
1734581011.4523375,8.30078125,-59.08203125,33.203125,19.04296875,0.0
1734581011.4562585,5.859375,-52.24609375,2.9296875,18.5546875,0.0
1734581011.4601638,3.41796875,-42.96875,30.2734375,14.16015625,0.0
1734581011.4640691,8.7890625,-47.36328125,50.78125,10.25390625,0.0
1734581011.4679744,-2.44140625,-57.12890625,51.26953125,10.7421875,0.0
1734581011.4718797,-8.30078125,-63.4765625,20.5078125,17.08984375,0.0
1734581011.475785,-6.34765625,-66.89453125,-12.20703125,13.18359375,0.0
1734581011.4796903,4.39453125,-60.546875,-10.25390625,-1.46484375,0.0
1734581011.4835956,2.9296875,-56.15234375,38.57421875,1.46484375,0.0
1734581011.4875007,-3.41796875,-60.05859375,28.3203125,8.7890625,0.0
1734581011.491406,-12.20703125,-63.96484375,-45.8984375,13.18359375,0.0
1734581011.4953113,-19.04296875,-63.96484375,50.78125,1.46484375,0.0
1734581011.4992166,-9.27734375,-56.15234375,69.3359375,-10.7421875,0.0
1734581011.5031366,-1.953125,-58.59375,-2.44140625,-1.46484375,0.0
1734581011.5070417,-11.23046875,-65.91796875,14.6484375,7.32421875,0.0
1734581011.510947,-7.32421875,-64.453125,46.38671875,14.16015625,0.0
1734581011.5148523,6.34765625,-58.59375,29.78515625,23.4375,0.0
1734581011.5187576,11.23046875,-58.59375,-9.27734375,22.4609375,0.0
1734581011.5226629,10.25390625,-65.4296875,-11.23046875,25.87890625,0.0
1734581011.5265682,7.8125,-65.4296875,36.1328125,36.1328125,0.0
1734581011.5304735,10.7421875,-58.59375,60.05859375,36.62109375,0.0
1734581011.5343788,26.3671875,-54.6875,-50.78125,45.8984375,0.0
1734581011.5382838,15.625,-62.5,-3.90625,34.1796875,0.0
1734581011.5421891,4.39453125,-64.453125,67.87109375,19.04296875,0.0
1734581011.5460944,18.06640625,-58.10546875,-2.9296875,31.73828125,0.0
1734581011.550014,10.7421875,-60.05859375,18.5546875,36.62109375,0.0
1734581011.553919,-1.46484375,-61.5234375,52.24609375,37.109375,0.0
1734581011.5578244,-3.41796875,-61.5234375,41.9921875,35.64453125,0.0
1734581011.5617297,9.765625,-60.05859375,23.92578125,38.57421875,0.0
1734581011.565635,9.27734375,-60.05859375,13.18359375,33.203125,0.0
1734581011.5695403,-3.41796875,-59.5703125,-2.9296875,38.57421875,0.0
1734581011.5734456,6.34765625,-54.19921875,18.06640625,39.55078125,0.0
1734581011.5773509,15.625,-54.6875,11.71875,28.3203125,0.0
1734581011.5812562,10.7421875,-57.6171875,-58.59375,46.875,0.0
1734581011.5851612,5.859375,-55.6640625,25.390625,36.1328125,0.0
1734581011.5890665,2.9296875,-53.7109375,55.6640625,20.99609375,0.0
1734581011.5929718,1.46484375,-53.7109375,-12.6953125,24.90234375,0.0
1734581011.5968902,6.8359375,-55.6640625,-0.9765625,10.25390625,0.0
1734581011.6007955,9.765625,-60.546875,50.29296875,8.30078125,0.0
1734581011.6047008,4.8828125,-58.59375,36.1328125,8.30078125,0.0
1734581011.608606,0.9765625,-58.59375,-12.6953125,6.34765625,0.0
1734581011.6125114,0.0,-65.91796875,-15.625,-2.44140625,0.0
1734581011.6164165,-2.9296875,-67.3828125,-8.30078125,-6.8359375,0.0
1734581011.6203218,-0.9765625,-65.4296875,-4.39453125,0.48828125,0.0
1734581011.624227,12.6953125,-60.546875,-54.6875,22.94921875,0.0
1734581011.6281323,0.9765625,-62.01171875,-6.34765625,31.25,0.0
1734581011.6320376,-13.671875,-62.98828125,77.1484375,0.0,0.0
1734581011.635943,-2.44140625,-63.96484375,33.203125,4.39453125,0.0
1734581011.6398482,7.32421875,-69.3359375,-1.46484375,11.23046875,0.0
1734581011.6437654,0.0,-68.359375,27.83203125,-3.41796875,0.0
1734581011.6476707,0.0,-70.3125,40.0390625,3.90625,0.0
1734581011.651576,0.0,-68.84765625,7.32421875,11.71875,0.0
1734581011.6554813,0.0,-62.01171875,2.9296875,11.71875,0.0
1734581011.6593864,0.0,-64.94140625,37.109375,17.578125,0.0
1734581011.6632917,0.0,-67.3828125,20.5078125,30.2734375,0.0
1734581011.667197,0.0,-62.98828125,-15.13671875,39.0625,0.0
1734581011.6711023,0.0,-57.12890625,-62.5,61.5234375,0.0
1734581011.6750076,0.0,-57.6171875,33.69140625,38.57421875,0.0
1734581011.6789129,0.0,-60.05859375,72.265625,28.3203125,0.0
1734581011.6828182,0.0,-59.08203125,11.71875,34.1796875,0.0
1734581011.6867235,0.0,-62.5,30.2734375,14.16015625,0.0
1734581011.6906395,7.8125,-64.94140625,62.01171875,3.41796875,0.0
1734581011.6945448,7.32421875,-66.89453125,46.875,4.8828125,0.0
1734581011.69845,16.6015625,-71.77734375,11.71875,9.27734375,0.0
1734581011.7023554,15.13671875,-76.66015625,44.921875,9.765625,0.0
1734581011.7062607,-1.953125,-78.61328125,70.3125,7.32421875,0.0
1734581011.710166,0.0,-80.56640625,25.390625,5.37109375,0.0
1734581011.7140713,3.41796875,-82.51953125,-38.0859375,17.08984375,0.0
1734581011.7179766,2.44140625,-84.9609375,-2.44140625,17.578125,0.0
1734581011.7218816,3.90625,-83.49609375,88.37890625,10.25390625,0.0
1734581011.725787,13.18359375,-78.61328125,75.1953125,11.71875,0.0
1734581011.7296922,13.18359375,-75.68359375,18.06640625,18.06640625,0.0
1734581011.7335975,8.7890625,-76.66015625,20.01953125,13.18359375,0.0
1734581011.737512,8.30078125,-77.1484375,72.75390625,16.6015625,0.0
1734581011.7414174,9.765625,-79.1015625,65.4296875,25.390625,0.0
1734581011.7453227,22.4609375,-84.47265625,36.1328125,28.80859375,0.0
1734581011.749228,10.25390625,-83.0078125,55.17578125,25.87890625,0.0
1734581011.7531333,-2.9296875,-85.44921875,56.15234375,23.4375,0.0
1734581011.7570384,12.6953125,-80.56640625,-5.859375,35.15625,0.0
1734581011.7609437,24.90234375,-72.75390625,-62.98828125,38.57421875,0.0
1734581011.764849,10.7421875,-78.61328125,52.734375,21.484375,0.0
1734581011.7687542,4.39453125,-77.63671875,84.47265625,27.83203125,0.0
1734581011.7726595,5.859375,-72.265625,26.85546875,30.2734375,0.0
1734581011.7765648,6.34765625,-72.75390625,45.41015625,19.04296875,0.0
1734581011.7804701,11.23046875,-74.21875,67.3828125,22.4609375,0.0
1734581011.7843926,18.5546875,-70.80078125,57.6171875,27.83203125,0.0
1734581011.788298,26.3671875,-64.94140625,21.484375,38.0859375,0.0
1734581011.7922032,23.92578125,-63.4765625,38.0859375,39.0625,0.0
1734581011.7961085,11.71875,-63.4765625,56.15234375,35.64453125,0.0
1734581011.8000138,13.18359375,-58.10546875,37.59765625,37.59765625,0.0
1734581011.803919,21.484375,-61.5234375,-16.6015625,42.48046875,0.0
1734581011.8078244,21.484375,-68.359375,-7.8125,37.59765625,0.0
1734581011.8117297,1.953125,-67.3828125,53.22265625,22.4609375,0.0
1734581011.815635,3.90625,-64.94140625,30.2734375,18.5546875,0.0
1734581011.81954,23.92578125,-65.4296875,-50.29296875,38.57421875,0.0
1734581011.8234453,25.87890625,-67.3828125,-1.953125,32.71484375,0.0
1734581011.8273506,23.4375,-61.03515625,26.3671875,21.484375,0.0
1734581011.8312721,18.06640625,-56.640625,1.46484375,33.69140625,0.0
1734581011.8351772,5.859375,-62.01171875,16.6015625,34.1796875,0.0
1734581011.8390825,-2.9296875,-66.40625,52.734375,22.94921875,0.0
1734581011.8429878,0.0,-69.82421875,51.26953125,16.11328125,0.0
1734581011.846893,-1.953125,-67.87109375,8.7890625,18.06640625,0.0
1734581011.8507984,-1.953125,-64.453125,-22.4609375,16.6015625,0.0
1734581011.8547037,-3.41796875,-67.3828125,-11.23046875,10.25390625,0.0
1734581011.858609,-7.32421875,-67.87109375,50.29296875,-2.44140625,0.0
1734581011.8625143,-6.34765625,-71.2890625,7.32421875,4.39453125,0.0
1734581011.8664193,-2.9296875,-70.80078125,-63.96484375,28.80859375,0.0
1734581011.8703246,-1.953125,-68.84765625,33.69140625,24.90234375,0.0
1734581011.87423,10.25390625,-67.3828125,55.17578125,21.484375,0.0
1734581011.8781502,0.0,-59.5703125,13.671875,29.296875,0.0
1734581011.8820555,0.0,-61.03515625,38.57421875,22.94921875,0.0
1734581011.8859608,0.0,-65.4296875,56.640625,22.4609375,0.0
1734581011.889866,0.0,-66.89453125,14.6484375,24.4140625,0.0
1734581011.8937714,0.0,-68.84765625,-0.48828125,26.85546875,0.0
1734581011.8976765,0.0,-66.40625,13.18359375,33.69140625,0.0
1734581011.9015818,0.0,-63.96484375,39.55078125,36.62109375,0.0
1734581011.905487,0.0,-62.5,64.453125,35.64453125,0.0
1734581011.9093924,0.0,-59.08203125,-31.25,47.8515625,0.0
1734581011.9132977,0.0,-57.6171875,4.39453125,39.0625,0.0
1734581011.917203,0.0,-51.7578125,64.94140625,23.92578125,0.0
1734581011.9211082,0.0,-48.33984375,1.953125,28.3203125,0.0
1734581011.9250114,21.484375,-49.8046875,16.6015625,27.83203125,0.0
1734581011.9289167,18.5546875,-49.8046875,59.5703125,30.2734375,0.0
1734581011.932822,11.23046875,-55.6640625,51.26953125,27.83203125,0.0
1734581011.936727,18.06640625,-62.5,27.34375,28.80859375,0.0
1734581011.9406323,27.34375,-62.01171875,25.87890625,27.83203125,0.0
1734581011.9445376,23.4375,-61.5234375,15.625,20.99609375,0.0
1734581011.948443,20.01953125,-61.03515625,18.06640625,21.484375,0.0
1734581011.9523482,23.92578125,-59.5703125,22.94921875,24.90234375,0.0
1734581011.9562535,18.06640625,-63.4765625,37.59765625,26.3671875,0.0
1734581011.9601588,6.34765625,-60.05859375,62.5,20.5078125,0.0
1734581011.9640641,18.06640625,-60.546875,58.59375,23.92578125,0.0
1734581011.9679694,28.3203125,-63.4765625,4.8828125,27.34375,0.0
1734581011.971864,20.5078125,-62.01171875,-14.16015625,27.34375,0.0
1734581011.9757693,17.08984375,-57.6171875,57.6171875,25.390625,0.0
1734581011.9796746,11.23046875,-55.6640625,55.17578125,27.83203125,0.0
1734581011.9835799,-0.48828125,-61.03515625,0.48828125,24.4140625,0.0
1734581011.987485,6.34765625,-60.546875,14.6484375,18.5546875,0.0
1734581011.9913902,-2.44140625,-60.546875,9.27734375,28.80859375,0.0
1734581011.9952955,-14.6484375,-62.5,-18.5546875,24.4140625,0.0
1734581011.9992008,-1.953125,-62.01171875,-64.453125,29.296875,0.0
1734581012.003106,-5.859375,-66.89453125,-11.23046875,33.69140625,0.0
1734581012.0070114,-9.765625,-63.4765625,49.31640625,24.4140625,0.0
1734581012.0109167,2.9296875,-55.6640625,1.46484375,28.3203125,0.0
1734581012.014822,0.48828125,-54.6875,-3.90625,19.04296875,0.0
1734581012.018739,10.25390625,-56.15234375,45.8984375,11.71875,0.0
1734581012.0226443,4.8828125,-60.05859375,49.8046875,9.765625,0.0
1734581012.0265496,4.8828125,-62.5,5.859375,1.46484375,0.0
1734581012.0304549,6.34765625,-62.5,8.30078125,2.44140625,0.0
1734581012.03436,-9.765625,-65.4296875,25.390625,10.25390625,0.0
1734581012.0382652,-9.27734375,-67.3828125,-1.953125,16.11328125,0.0
1734581012.0421705,5.37109375,-66.89453125,-30.76171875,19.53125,0.0
1734581012.0460758,9.765625,-67.3828125,-73.2421875,32.71484375,0.0
1734581012.049981,0.9765625,-66.89453125,28.3203125,17.08984375,0.0
1734581012.0538864,-8.7890625,-62.01171875,53.7109375,1.953125,0.0
1734581012.0577917,-8.7890625,-63.96484375,-8.7890625,0.0,0.0
1734581012.061697,4.8828125,-67.3828125,6.34765625,0.48828125,0.0
1734581012.0656128,6.8359375,-65.91796875,22.4609375,5.37109375,0.0
1734581012.069518,-6.8359375,-63.4765625,20.99609375,8.7890625,0.0
1734581012.0734234,-4.8828125,-65.91796875,-5.37109375,18.06640625,0.0
1734581012.0773287,-0.48828125,-66.40625,12.20703125,16.11328125,0.0
1734581012.081234,3.41796875,-62.5,41.9921875,8.30078125,0.0
1734581012.0851393,1.46484375,-60.546875,1.953125,10.7421875,0.0
1734581012.0890446,6.8359375,-62.5,-53.22265625,31.25,0.0
1734581012.0929499,7.32421875,-62.5,-11.71875,16.11328125,0.0
1734581012.0968552,12.20703125,-59.08203125,58.59375,1.953125,0.0
1734581012.1007602,20.5078125,-59.08203125,37.109375,1.953125,0.0
1734581012.1046655,12.20703125,-60.05859375,-10.25390625,12.6953125,0.0
1734581012.1085708,8.30078125,-56.15234375,8.7890625,52.734375,0.0
1734581012.112486,19.04296875,-52.24609375,59.08203125,18.06640625,0.0
1734581012.116391,37.109375,-51.7578125,41.50390625,-0.48828125,0.0
1734581012.1202962,37.59765625,-54.19921875,30.76171875,22.94921875,0.0
1734581012.1242015,31.73828125,-50.78125,48.828125,30.76171875,0.0
1734581012.1281068,31.73828125,-47.36328125,39.55078125,21.484375,0.0
1734581012.1320121,22.94921875,-51.7578125,5.37109375,18.06640625,0.0
1734581012.1359174,19.53125,-56.640625,-44.43359375,35.15625,0.0
1734581012.1398227,18.5546875,-57.6171875,60.546875,24.90234375,0.0
1734581012.143728,10.7421875,-55.17578125,99.12109375,20.99609375,0.0
1734581012.147633,5.859375,-57.6171875,45.8984375,27.34375,0.0
1734581012.1515384,5.859375,-59.5703125,62.01171875,20.99609375,0.0
1734581012.1554437,5.859375,-59.5703125,77.1484375,16.6015625,0.0
1734581012.1593661,5.859375,-62.01171875,71.2890625,14.6484375,0.0
1734581012.1632714,9.27734375,-62.01171875,26.85546875,23.92578125,0.0
1734581012.1671767,-1.953125,-66.40625,38.57421875,20.99609375,0.0
1734581012.171082,-9.765625,-69.82421875,85.9375,16.6015625,0.0
1734581012.1749873,3.41796875,-67.3828125,63.96484375,23.4375,0.0
1734581012.1788926,10.25390625,-65.4296875,1.953125,19.04296875,0.0
1734581012.1827977,14.6484375,-64.94140625,16.11328125,17.578125,0.0
1734581012.186703,15.13671875,-58.59375,67.3828125,20.99609375,0.0
1734581012.1906083,10.7421875,-56.640625,52.734375,17.578125,0.0
1734581012.1945136,16.11328125,-57.6171875,-23.92578125,23.92578125,0.0
1734581012.1984189,11.71875,-60.546875,7.32421875,26.85546875,0.0
1734581012.2023242,2.44140625,-62.01171875,58.59375,17.08984375,0.0
1734581012.2062454,-5.37109375,-63.96484375,48.828125,11.23046875,0.0
1734581012.2101507,-0.48828125,-61.5234375,30.2734375,22.94921875,0.0
1734581012.214056,12.20703125,-54.6875,50.29296875,27.34375,0.0
1734581012.2179613,12.6953125,-51.7578125,62.98828125,32.71484375,0.0
1734581012.2218666,20.99609375,-57.6171875,33.203125,46.875,0.0
1734581012.225772,26.3671875,-62.01171875,-14.6484375,40.0390625,0.0
1734581012.229677,8.30078125,-63.96484375,10.25390625,43.9453125,0.0
1734581012.2335823,1.46484375,-64.453125,63.96484375,41.9921875,0.0
1734581012.2374876,10.25390625,-59.08203125,7.8125,32.2265625,0.0
1734581012.2413929,21.484375,-58.59375,-74.21875,48.33984375,0.0
1734581012.2452981,11.23046875,-58.59375,3.90625,40.0390625,0.0
1734581012.2492034,0.9765625,-58.10546875,60.546875,25.390625,0.0
1734581012.2531238,8.30078125,-64.94140625,21.484375,38.57421875,0.0
1734581012.257029,8.7890625,-62.5,20.5078125,41.9921875,0.0
1734581012.260934,14.6484375,-51.7578125,52.734375,24.90234375,0.0
1734581012.2648394,27.83203125,-50.29296875,38.57421875,34.66796875,0.0
1734581012.2687447,16.11328125,-52.24609375,-31.25,38.0859375,0.0
1734581012.27265,1.953125,-54.6875,-38.57421875,29.78515625,0.0
1734581012.2765553,2.9296875,-62.98828125,9.27734375,22.4609375,0.0
1734581012.2804606,0.0,-65.4296875,25.390625,13.671875,0.0
1734581012.284366,1.953125,-60.546875,-70.3125,28.80859375,0.0
1734581012.2882712,2.9296875,-65.4296875,-33.69140625,25.87890625,0.0
1734581012.2921765,7.8125,-69.3359375,37.59765625,22.94921875,0.0
1734581012.2960815,15.625,-64.453125,-15.13671875,24.4140625,0.0
1734581012.300001,24.90234375,-60.546875,-15.625,22.4609375,0.0
1734581012.3039062,25.390625,-60.05859375,-0.9765625,23.4375,0.0
1734581012.3078115,17.08984375,-58.59375,24.90234375,22.4609375,0.0
1734581012.3117166,11.71875,-57.12890625,21.484375,28.3203125,0.0
1734581012.3156219,14.6484375,-58.10546875,4.8828125,25.390625,0.0
1734581012.3195271,20.99609375,-52.734375,-15.625,23.4375,0.0
1734581012.3234324,11.71875,-51.7578125,6.8359375,20.01953125,0.0
1734581012.3273377,10.25390625,-56.640625,-0.9765625,20.5078125,0.0
1734581012.331243,14.6484375,-57.6171875,-73.73046875,31.73828125,0.0
1734581012.3351483,5.859375,-57.12890625,12.6953125,21.484375,0.0
1734581012.3390536,1.953125,-57.12890625,50.29296875,16.6015625,0.0
1734581012.342959,1.953125,-55.6640625,1.953125,21.484375,0.0
1734581012.3468769,-1.953125,-50.78125,13.18359375,22.4609375,0.0
1734581012.3507822,-10.7421875,-57.12890625,37.109375,20.99609375,0.0
1734581012.3546875,-5.37109375,-62.01171875,18.5546875,18.5546875,0.0
1734581012.3585927,0.48828125,-60.546875,-29.78515625,30.76171875,0.0
1734581012.362498,-1.46484375,-62.5,-33.203125,34.1796875,0.0
1734581012.366403,-3.90625,-63.4765625,-13.671875,29.78515625,0.0
1734581012.3703084,1.46484375,-59.08203125,-13.671875,33.203125,0.0
1734581012.3742137,11.23046875,-55.6640625,-62.98828125,41.50390625,0.0
1734581012.378119,14.16015625,-53.7109375,-27.83203125,36.62109375,0.0
1734581012.3820243,9.765625,-50.29296875,67.3828125,27.83203125,0.0
1734581012.3859296,11.23046875,-49.8046875,32.71484375,41.50390625,0.0
