timestamps,TP9,AF7,AF8,TP10,Right AUX
1734581174.431729,13.18359375,-28.80859375,-58.10546875,83.49609375,0.0
1734581174.4356337,8.7890625,-28.3203125,-58.59375,6.8359375,0.0
1734581174.4395385,39.55078125,-31.73828125,-56.640625,-73.2421875,0.0
1734581174.443443,35.64453125,-37.109375,-55.6640625,-20.5078125,0.0
1734581174.4473476,29.296875,-39.55078125,-57.12890625,80.078125,0.0
1734581174.4512522,22.4609375,-33.69140625,-60.05859375,88.8671875,0.0
1734581174.4551568,19.53125,-32.2265625,-60.05859375,17.578125,0.0
1734581174.4590614,28.80859375,-32.2265625,-57.6171875,-54.6875,0.0
1734581174.462966,43.9453125,-28.80859375,-56.15234375,-10.25390625,0.0
1734581174.4668705,44.921875,-31.25,-60.05859375,79.58984375,0.0
1734581174.4707751,8.30078125,-32.2265625,-62.5,87.40234375,0.0
1734581174.4746797,3.90625,-24.4140625,-57.12890625,26.3671875,0.0
1734581174.478606,33.203125,-21.484375,-59.5703125,-72.75390625,0.0
1734581174.4825106,47.8515625,-22.4609375,-67.3828125,-61.03515625,0.0
1734581174.4864154,29.296875,-25.390625,-68.359375,62.01171875,0.0
1734581174.49032,13.18359375,-30.2734375,-71.77734375,84.9609375,0.0
1734581174.4942245,8.30078125,-29.296875,-68.359375,18.5546875,0.0
1734581174.4981291,24.90234375,-26.85546875,-62.98828125,-66.40625,0.0
1734581174.5020337,52.24609375,-21.484375,-62.98828125,-62.98828125,0.0
1734581174.5059383,31.73828125,-21.484375,-62.01171875,58.59375,0.0
1734581174.5098429,3.41796875,-22.94921875,-58.59375,76.171875,0.0
1734581174.5137475,-9.27734375,-22.94921875,-58.59375,23.92578125,0.0
1734581174.517652,15.13671875,-15.625,-58.10546875,-53.22265625,0.0
1734581174.5215566,33.69140625,-16.11328125,-61.03515625,-96.19140625,0.0
1734581174.525481,15.625,-20.5078125,-62.01171875,7.8125,0.0
1734581174.5293856,-8.7890625,-17.578125,-62.01171875,85.44921875,0.0
1734581174.5332901,-22.94921875,-17.578125,-67.3828125,49.8046875,0.0
1734581174.5371947,20.5078125,-15.625,-66.40625,-59.08203125,0.0
1734581174.5410993,55.6640625,-22.4609375,-66.89453125,-93.26171875,0.0
1734581174.545004,43.9453125,-28.80859375,-65.91796875,25.390625,0.0
1734581174.5489087,18.06640625,-21.484375,-59.5703125,100.5859375,0.0
1734581174.5528133,2.44140625,-12.20703125,-59.5703125,74.70703125,0.0
1734581174.5567179,-2.44140625,-21.97265625,-54.6875,-29.78515625,0.0
1734581174.5606225,6.8359375,-33.203125,-51.26953125,-120.60546875,0.0
1734581174.564527,17.08984375,-31.73828125,-54.6875,-26.85546875,0.0
1734581174.5684316,-1.953125,-22.94921875,-56.15234375,88.37890625,0.0
1734581174.5723705,-17.578125,-9.765625,-59.08203125,0.0,0.0
1734581174.576275,-12.20703125,-7.8125,-66.89453125,0.0,0.0
1734581174.5801797,0.0,-7.32421875,-66.89453125,0.0,0.0
1734581174.5840843,16.6015625,-10.7421875,-68.84765625,0.0,0.0
1734581174.5879889,3.41796875,-9.27734375,-73.2421875,0.0,0.0
1734581174.5918934,-20.5078125,-10.25390625,-71.2890625,0.0,0.0
1734581174.595798,-27.83203125,-19.53125,-71.2890625,0.0,0.0
1734581174.5997026,-7.8125,-19.53125,-75.1953125,0.0,0.0
1734581174.6036074,2.9296875,-20.01953125,-73.2421875,0.0,0.0
1734581174.607512,-13.18359375,-21.97265625,-70.3125,0.0,0.0
1734581174.6114166,-36.1328125,-22.4609375,-69.3359375,0.0,0.0
1734581174.6153212,-41.9921875,-24.90234375,-62.01171875,0.0,0.0
1734581174.6192584,1.953125,-27.83203125,-64.94140625,-88.37890625,0.0
1734581174.623163,18.06640625,-25.390625,-73.2421875,-42.48046875,0.0
1734581174.6270676,17.578125,-19.04296875,-70.80078125,72.75390625,0.0
1734581174.6309721,-1.953125,-18.06640625,-71.2890625,88.8671875,0.0
1734581174.6348767,-28.80859375,-17.578125,-72.75390625,18.06640625,0.0
1734581174.6387815,10.7421875,-12.20703125,-67.87109375,-63.96484375,0.0
1734581174.6426861,39.55078125,-10.7421875,-67.87109375,-40.0390625,0.0
1734581174.6465907,27.83203125,-8.7890625,-69.3359375,46.38671875,0.0
1734581174.6504953,2.9296875,-2.9296875,-70.3125,79.58984375,0.0
1734581174.6543999,-18.06640625,-3.90625,-71.2890625,41.50390625,0.0
1734581174.6583045,10.25390625,-7.8125,-69.3359375,-71.77734375,0.0
1734581174.662209,35.64453125,-7.8125,-75.1953125,-91.30859375,0.0
1734581174.6661437,0.0,-6.8359375,-74.70703125,34.66796875,0.0
1734581174.6700482,0.0,-7.32421875,-68.84765625,90.33203125,0.0
1734581174.6739528,0.0,-9.765625,-72.75390625,31.73828125,0.0
1734581174.6778576,0.0,-7.8125,-72.265625,-63.4765625,0.0
1734581174.6817622,0.0,-6.34765625,-75.1953125,-75.1953125,0.0
1734581174.6856668,0.0,-10.25390625,-77.63671875,44.43359375,0.0
1734581174.6895714,0.0,-9.27734375,-68.359375,88.37890625,0.0
1734581174.693476,0.0,-9.765625,-64.94140625,39.55078125,0.0
1734581174.6973805,0.0,-12.20703125,-74.21875,-43.9453125,0.0
1734581174.7012851,0.0,-11.23046875,-85.9375,-71.77734375,0.0
1734581174.7051897,0.0,-11.71875,-84.9609375,27.83203125,0.0
1734581174.7090943,0.0,-10.25390625,-83.49609375,70.80078125,0.0
1734581174.7130263,-4.8828125,-8.30078125,-83.984375,25.87890625,0.0
1734581174.7169309,8.30078125,-10.7421875,-81.54296875,-56.15234375,0.0
1734581174.7208354,12.6953125,-6.8359375,-79.1015625,-87.890625,0.0
1734581174.7247403,12.6953125,0.0,-81.0546875,20.99609375,0.0
1734581174.7286448,-0.48828125,-6.8359375,-88.8671875,81.0546875,0.0
1734581174.7325494,-26.85546875,-17.08984375,-96.19140625,41.9921875,0.0
1734581174.736454,0.48828125,-15.13671875,-99.609375,-46.875,0.0
1734581174.7403586,29.296875,-12.6953125,-92.7734375,-91.30859375,0.0
1734581174.7442632,16.11328125,-8.30078125,-82.03125,14.6484375,0.0
1734581174.7481678,20.5078125,-5.37109375,-83.984375,93.26171875,0.0
1734581174.7520723,4.39453125,-1.953125,-87.40234375,68.359375,0.0
1734581174.755977,8.7890625,-0.9765625,-84.47265625,-12.20703125,0.0
1734581174.7599084,36.62109375,3.90625,-81.54296875,-99.609375,0.0
1734581174.763813,22.4609375,5.37109375,-81.54296875,-41.015625,0.0
1734581174.7677176,4.8828125,1.953125,-79.58984375,62.01171875,0.0
1734581174.7716222,-9.27734375,3.90625,-72.265625,67.3828125,0.0
1734581174.7755268,-7.8125,-2.44140625,-70.3125,-17.08984375,0.0
1734581174.7794313,23.4375,1.953125,-66.40625,-91.30859375,0.0
1734581174.783336,26.3671875,14.16015625,-67.87109375,-41.015625,0.0
1734581174.7872405,14.6484375,9.27734375,-70.80078125,54.19921875,0.0
1734581174.7911453,-20.99609375,3.90625,-68.359375,73.2421875,0.0
1734581174.79505,-22.4609375,7.32421875,-66.40625,-29.78515625,0.0
1734581174.7989545,4.8828125,4.8828125,-68.84765625,-120.1171875,0.0
1734581174.802859,-1.953125,-4.39453125,-68.359375,-72.75390625,0.0
1734581174.8067863,0.0,-4.39453125,-58.10546875,38.0859375,0.0
1734581174.8106909,0.0,-6.34765625,-52.734375,59.5703125,0.0
1734581174.8145955,0.0,-7.8125,-53.22265625,-13.18359375,0.0
1734581174.8185,0.0,-3.90625,-57.6171875,-100.5859375,0.0
1734581174.8224046,0.0,-6.34765625,-65.91796875,-76.171875,0.0
1734581174.8263092,0.0,-8.30078125,-74.21875,43.9453125,0.0
1734581174.8302138,0.0,-9.765625,-76.66015625,62.01171875,0.0
1734581174.8341184,0.0,-10.7421875,-76.171875,4.39453125,0.0
1734581174.8380232,0.0,-10.25390625,-69.82421875,-89.84375,0.0
1734581174.8419278,0.0,-10.25390625,-69.82421875,-100.5859375,0.0
1734581174.8458323,0.0,-5.859375,-68.84765625,0.9765625,0.0
1734581174.849737,0.0,0.48828125,-60.546875,47.8515625,0.0
1734581174.8536637,-27.83203125,3.90625,-54.6875,11.71875,0.0
1734581174.8575683,2.44140625,1.46484375,-50.78125,-75.68359375,0.0
1734581174.861473,31.25,0.9765625,-54.19921875,-98.14453125,0.0
1734581174.8653777,13.18359375,2.9296875,-56.15234375,9.27734375,0.0
1734581174.8692822,-0.48828125,-1.46484375,-52.734375,81.0546875,0.0
1734581174.8731868,-7.32421875,-7.8125,-57.6171875,36.62109375,0.0
1734581174.8770914,7.8125,-9.27734375,-59.08203125,-69.3359375,0.0
1734581174.880996,37.59765625,-2.44140625,-58.10546875,-99.609375,0.0
1734581174.8849006,22.94921875,-1.46484375,-63.96484375,8.30078125,0.0
1734581174.8888052,-18.5546875,-5.37109375,-60.546875,80.56640625,0.0
1734581174.89271,-39.55078125,-6.34765625,-55.17578125,41.015625,0.0
1734581174.8966146,-40.52734375,-12.6953125,-57.6171875,-40.52734375,0.0
1734581174.9005382,-16.11328125,-19.04296875,-55.17578125,-102.05078125,0.0
1734581174.9044428,-10.7421875,-26.85546875,-55.6640625,-20.99609375,0.0
1734581174.9083474,-33.69140625,-28.3203125,-56.15234375,73.73046875,0.0
1734581174.912252,-45.8984375,-22.94921875,-57.12890625,52.24609375,0.0
1734581174.9161565,-38.57421875,-18.06640625,-62.98828125,-43.45703125,0.0
1734581174.920061,1.953125,-16.11328125,-66.89453125,-130.859375,0.0
1734581174.9239657,14.6484375,-23.92578125,-67.3828125,-42.96875,0.0
1734581174.9278703,-14.16015625,-31.25,-65.4296875,58.10546875,0.0
1734581174.9317749,-22.94921875,-24.4140625,-60.546875,52.734375,0.0
1734581174.9356797,-8.7890625,-19.04296875,-59.08203125,-13.671875,0.0
1734581174.9395843,20.99609375,-18.06640625,-61.03515625,-95.703125,0.0
1734581174.9434888,17.08984375,-17.08984375,-66.40625,-36.1328125,0.0
1734581174.9474108,0.0,-17.578125,-67.3828125,56.15234375,0.0
1734581174.9513154,0.0,-20.5078125,-64.94140625,55.6640625,0.0
1734581174.95522,0.0,-22.4609375,-65.91796875,-11.23046875,0.0
1734581174.9591246,0.0,-20.01953125,-67.3828125,-97.65625,0.0
1734581174.9630291,0.0,-21.484375,-65.4296875,-50.78125,0.0
1734581174.9669337,0.0,-23.4375,-67.87109375,69.3359375,0.0
1734581174.9708383,0.0,-26.85546875,-75.1953125,88.37890625,0.0
1734581174.9747431,0.0,-25.87890625,-72.75390625,13.671875,0.0
1734581174.9786477,0.0,-23.4375,-56.640625,-87.890625,0.0
1734581174.9825523,0.0,-24.4140625,-55.6640625,-81.0546875,0.0
1734581174.9864569,0.0,-17.08984375,-66.89453125,45.41015625,0.0
1734581174.9903615,0.0,-11.23046875,-66.40625,83.0078125,0.0
1734581174.9943018,-13.18359375,-12.20703125,-62.01171875,20.5078125,0.0
1734581174.9982064,10.7421875,-12.6953125,-57.6171875,-73.2421875,0.0
1734581175.002111,26.85546875,-18.5546875,-61.5234375,-76.171875,0.0
1734581175.0060155,4.39453125,-18.5546875,-65.4296875,27.34375,0.0
1734581175.0099201,-11.71875,-17.578125,-62.01171875,53.22265625,0.0
1734581175.0138247,-31.73828125,-19.53125,-60.05859375,14.6484375,0.0
1734581175.0177295,-19.04296875,-17.578125,-52.734375,-54.6875,0.0
1734581175.021634,0.9765625,-14.6484375,-43.9453125,-79.58984375,0.0
1734581175.0255387,-4.39453125,-9.765625,-41.015625,30.76171875,0.0
1734581175.0294433,-22.94921875,-8.30078125,-41.015625,97.16796875,0.0
1734581175.0333478,-29.78515625,-5.37109375,-42.48046875,52.734375,0.0
1734581175.0372524,1.46484375,-1.46484375,-41.50390625,-41.015625,0.0
1734581175.041187,28.3203125,0.48828125,-42.96875,-72.75390625,0.0
1734581175.0450916,20.5078125,0.48828125,-42.96875,41.50390625,0.0
1734581175.0489962,-11.23046875,-2.44140625,-42.96875,94.7265625,0.0
1734581175.0529008,-17.08984375,-3.41796875,-45.41015625,53.7109375,0.0
1734581175.0568054,24.4140625,-5.37109375,-40.52734375,-30.76171875,0.0
1734581175.0607102,53.7109375,4.39453125,-53.22265625,-86.9140625,0.0
1734581175.0646148,37.59765625,5.37109375,-90.8203125,-5.859375,0.0
1734581175.0685194,9.765625,-2.9296875,-104.00390625,71.77734375,0.0
1734581175.072424,-19.53125,6.8359375,-101.07421875,44.43359375,0.0
1734581175.0763285,-17.08984375,12.6953125,-115.72265625,-62.01171875,0.0
1734581175.080233,0.9765625,11.23046875,-125.48828125,-110.83984375,0.0
1734581175.0841377,-42.48046875,2.9296875,-118.1640625,-12.6953125,0.0
1734581175.0880725,-101.5625,-5.859375,-124.51171875,67.3828125,0.0
1734581175.0919771,-92.7734375,3.41796875,-130.859375,51.7578125,0.0
1734581175.0958817,-71.77734375,18.06640625,-129.8828125,-51.26953125,0.0
1734581175.0997863,-23.4375,16.11328125,-132.32421875,-130.859375,0.0
1734581175.1036909,-18.06640625,11.23046875,-133.30078125,-71.2890625,0.0
1734581175.1075954,-70.80078125,9.27734375,-135.7421875,20.5078125,0.0
1734581175.1115,-76.171875,12.20703125,-128.41796875,44.43359375,0.0
1734581175.1154046,-41.015625,24.4140625,-125.9765625,-33.69140625,0.0
1734581175.1193094,-3.41796875,29.296875,-126.953125,-124.0234375,0.0
1734581175.123214,-13.671875,19.04296875,-120.1171875,-67.87109375,0.0
1734581175.1271186,-38.57421875,14.16015625,-115.72265625,33.203125,0.0
1734581175.1310232,-30.2734375,14.6484375,-112.79296875,52.24609375,0.0
1734581175.1349576,0.0,14.16015625,-107.421875,-11.71875,0.0
1734581175.1388621,0.0,6.8359375,-100.09765625,-102.05078125,0.0
1734581175.1427667,0.0,3.90625,-91.30859375,-47.8515625,0.0
1734581175.1466713,0.0,3.41796875,-88.8671875,66.89453125,0.0
1734581175.1505759,0.0,1.46484375,-88.37890625,69.3359375,0.0
1734581175.1544805,0.0,4.39453125,-75.1953125,5.37109375,0.0
1734581175.1583853,0.0,5.37109375,-100.5859375,-77.63671875,0.0
1734581175.1622899,0.0,1.46484375,-140.13671875,-51.26953125,0.0
1734581175.1661944,0.0,-3.41796875,-143.06640625,70.3125,0.0
1734581175.170099,0.0,-5.37109375,-139.6484375,104.00390625,0.0
1734581175.1740036,0.0,-6.34765625,-129.8828125,41.9921875,0.0
1734581175.1779082,0.0,-6.34765625,-125.48828125,-71.2890625,0.0
1734581175.1817906,-37.109375,-5.37109375,-124.51171875,0.0,0.0
1734581175.1856952,-30.2734375,-5.37109375,-117.67578125,0.0,0.0
1734581175.1895998,-10.7421875,1.953125,-102.5390625,0.0,0.0
1734581175.1935043,-13.671875,-1.953125,-96.19140625,0.0,0.0
1734581175.197409,-27.34375,-6.8359375,-94.23828125,0.0,0.0
1734581175.2013135,-32.2265625,-0.48828125,-92.28515625,0.0,0.0
1734581175.205218,-4.39453125,-1.953125,-83.0078125,0.0,0.0
1734581175.2091227,18.06640625,-7.8125,-73.73046875,0.0,0.0
1734581175.2130275,1.953125,-7.32421875,-71.2890625,0.0,0.0
1734581175.216932,-22.94921875,-7.8125,-63.96484375,0.0,0.0
1734581175.2208366,-31.73828125,-6.8359375,-61.5234375,0.0,0.0
1734581175.2247412,-10.7421875,-7.32421875,-62.01171875,0.0,0.0
1734581175.2286754,-2.9296875,-12.20703125,-57.6171875,84.47265625,0.0
1734581175.23258,-37.109375,-13.671875,-56.640625,55.17578125,0.0
1734581175.2364845,-23.92578125,-17.08984375,-54.6875,-34.66796875,0.0
1734581175.240389,28.80859375,-13.671875,-51.26953125,-85.44921875,0.0
1734581175.244294,21.97265625,-8.30078125,-49.8046875,12.6953125,0.0
1734581175.2481985,8.30078125,-7.32421875,-45.41015625,90.33203125,0.0
1734581175.252103,-6.8359375,-11.23046875,-42.96875,77.1484375,0.0
1734581175.2560077,-7.32421875,-16.11328125,-38.0859375,6.34765625,0.0
1734581175.2599123,13.18359375,-8.30078125,-31.73828125,-62.98828125,0.0
1734581175.2638168,4.8828125,-0.48828125,-27.83203125,12.20703125,0.0
1734581175.2677214,-10.7421875,-4.8828125,-27.34375,103.02734375,0.0
1734581175.2716262,-20.5078125,-11.71875,-25.87890625,68.359375,0.0
1734581175.27555,-18.5546875,-5.859375,-27.34375,-3.90625,0.0
1734581175.2794545,4.39453125,-6.34765625,-30.2734375,-51.7578125,0.0
1734581175.283359,6.8359375,-14.6484375,-30.76171875,7.32421875,0.0
1734581175.2872636,-20.5078125,-15.13671875,-30.2734375,88.8671875,0.0
1734581175.2911682,-32.2265625,-13.671875,-28.80859375,102.05078125,0.0
1734581175.2950728,-26.85546875,-17.08984375,-35.15625,37.109375,0.0
1734581175.2989774,1.953125,-14.16015625,-39.0625,-61.5234375,0.0
1734581175.3028822,35.64453125,-5.859375,-31.25,-26.3671875,0.0
1734581175.3067868,21.97265625,-6.8359375,-28.3203125,90.8203125,0.0
1734581175.3106914,-9.765625,-10.7421875,-29.78515625,96.19140625,0.0
1734581175.314596,-4.39453125,-12.20703125,-27.83203125,17.08984375,0.0
1734581175.3185005,26.85546875,-8.7890625,-29.78515625,-53.22265625,0.0
1734581175.3224216,35.15625,-3.90625,-28.3203125,-21.484375,0.0
1734581175.3263261,0.9765625,-7.32421875,-28.80859375,72.265625,0.0
1734581175.3302307,-28.80859375,-12.6953125,-34.66796875,93.75,0.0
1734581175.3341355,-25.390625,-15.13671875,-34.66796875,28.80859375,0.0
1734581175.33804,13.18359375,-13.18359375,-34.1796875,-63.4765625,0.0
1734581175.3419447,49.31640625,-12.6953125,-38.57421875,-26.85546875,0.0
1734581175.3458493,36.1328125,-17.578125,-41.50390625,81.0546875,0.0
1734581175.3497539,-7.8125,-17.578125,-34.66796875,90.33203125,0.0
1734581175.3536584,-28.3203125,-17.08984375,-27.83203125,52.734375,0.0
1734581175.357563,-11.23046875,-17.578125,-19.04296875,-35.15625,0.0
1734581175.3614678,13.18359375,-16.6015625,-6.8359375,-70.80078125,0.0
1734581175.3653724,6.8359375,-22.4609375,-8.30078125,42.48046875,0.0
1734581175.3693097,-20.99609375,-28.3203125,-5.859375,101.5625,0.0
1734581175.3732142,-21.97265625,-25.87890625,1.46484375,57.12890625,0.0
1734581175.3771188,5.37109375,-20.01953125,1.46484375,-37.59765625,0.0
1734581175.3810236,14.16015625,-19.04296875,2.44140625,-54.6875,0.0
1734581175.3849282,-10.7421875,-20.5078125,2.44140625,50.29296875,0.0
1734581175.3888328,-25.87890625,-22.4609375,0.9765625,103.02734375,0.0
1734581175.3927374,-20.01953125,-20.99609375,0.0,76.171875,0.0
1734581175.396642,-16.11328125,-18.06640625,0.0,-11.71875,0.0
1734581175.4005466,8.30078125,-15.625,0.0,-59.08203125,0.0
1734581175.4044511,21.97265625,-7.8125,7.32421875,32.71484375,0.0
1734581175.408356,10.25390625,-2.44140625,14.16015625,92.28515625,0.0
1734581175.4122605,-4.8828125,-0.48828125,4.39453125,62.98828125,0.0
1734581175.4162164,21.97265625,-5.859375,-5.37109375,-16.6015625,0.0
1734581175.420121,56.15234375,-8.30078125,-8.7890625,-67.87109375,0.0
1734581175.4240255,43.45703125,-5.859375,-11.71875,10.25390625,0.0
1734581175.42793,-21.97265625,-13.18359375,-8.30078125,89.84375,0.0
1734581175.4318347,-55.6640625,-16.11328125,-5.859375,77.1484375,0.0
1734581175.4357395,-24.90234375,-13.671875,-18.06640625,-15.625,0.0
1734581175.439644,10.25390625,-14.6484375,-23.92578125,-79.1015625,0.0
1734581175.4435487,16.11328125,-12.6953125,-25.390625,1.953125,0.0
1734581175.4474533,-20.01953125,-12.6953125,-27.34375,88.37890625,0.0
1734581175.4513578,-47.8515625,-10.25390625,-25.87890625,87.40234375,0.0
1734581175.4552624,-34.1796875,-10.7421875,-30.2734375,8.7890625,0.0
1734581175.459167,-6.34765625,-17.578125,-37.59765625,-91.796875,0.0
1734581175.4631004,0.0,-11.23046875,0.0,-19.53125,0.0
1734581175.4670053,0.0,-8.7890625,0.0,76.171875,0.0
1734581175.4709098,0.0,-17.578125,0.0,47.8515625,0.0
1734581175.4748144,0.0,-20.5078125,0.0,-5.859375,0.0
1734581175.478719,0.0,-20.99609375,0.0,-95.21484375,0.0
1734581175.4826236,0.0,-19.04296875,0.0,-65.91796875,0.0
1734581175.4865282,0.0,-13.18359375,0.0,60.05859375,0.0
1734581175.4904327,0.0,-10.7421875,0.0,75.68359375,0.0
1734581175.4943373,0.0,-17.578125,0.0,21.484375,0.0
1734581175.4982421,0.0,-34.66796875,0.0,-60.546875,0.0
1734581175.5021467,0.0,-36.1328125,0.0,-54.6875,0.0
1734581175.5060513,0.0,-19.53125,0.0,54.19921875,0.0
1734581175.5099814,-27.83203125,-22.4609375,-46.875,76.66015625,0.0
1734581175.5138862,-72.265625,-33.69140625,-48.828125,3.90625,0.0
1734581175.5177908,-40.0390625,-26.85546875,-50.78125,-85.44921875,0.0
1734581175.5216954,-5.859375,-24.4140625,-47.8515625,-72.265625,0.0
1734581175.5256,-10.25390625,-26.3671875,-42.96875,43.45703125,0.0
1734581175.5295045,-27.83203125,-26.3671875,-42.96875,66.89453125,0.0
1734581175.533409,-47.8515625,-36.62109375,-52.734375,14.6484375,0.0
1734581175.5373137,-48.828125,-43.45703125,-61.5234375,-70.3125,0.0
1734581175.5412185,-16.11328125,-38.0859375,-63.96484375,-90.33203125,0.0
1734581175.545123,-9.27734375,-36.1328125,-58.10546875,17.08984375,0.0
1734581175.5490277,-29.296875,-34.66796875,-48.828125,58.10546875,0.0
1734581175.5529323,-25.87890625,-35.15625,-47.8515625,15.13671875,0.0
1734581175.55686,-4.8828125,-36.1328125,-45.8984375,-56.15234375,0.0
1734581175.5607646,22.4609375,-34.1796875,-48.33984375,-77.63671875,0.0
1734581175.5646691,10.7421875,-31.25,-49.8046875,9.27734375,0.0
1734581175.5685737,-16.6015625,-31.25,-46.38671875,56.640625,0.0
1734581175.5724783,-26.3671875,-36.1328125,-43.9453125,39.0625,0.0
1734581175.5763829,-20.01953125,-38.0859375,-40.0390625,-40.52734375,0.0
1734581175.5802875,17.578125,-31.25,-44.921875,-81.0546875,0.0
1734581175.5841923,28.3203125,-24.90234375,-41.50390625,26.85546875,0.0
1734581175.5880969,-1.46484375,-23.92578125,-39.55078125,83.49609375,0.0
1734581175.5920014,-11.71875,-23.92578125,-37.59765625,50.78125,0.0
1734581175.595906,-10.7421875,-23.92578125,-34.1796875,-9.765625,0.0
1734581175.5998106,-0.48828125,-22.4609375,-42.48046875,-51.26953125,0.0
1734581175.603739,-3.41796875,-26.85546875,-44.921875,14.16015625,0.0
1734581175.6076436,-14.16015625,-28.80859375,-38.57421875,87.890625,0.0
1734581175.6115482,-25.390625,-30.2734375,-42.48046875,88.37890625,0.0
1734581175.6154528,-24.90234375,-33.203125,-42.96875,-3.41796875,0.0
1734581175.6193573,19.04296875,-26.85546875,-36.62109375,-66.89453125,0.0
1734581175.6232622,37.59765625,-24.4140625,-36.62109375,20.5078125,0.0
1734581175.6271667,5.37109375,-25.390625,-38.57421875,111.81640625,0.0
1734581175.6310713,-35.64453125,-21.484375,-38.57421875,98.14453125,0.0
1734581175.634976,-25.390625,-17.578125,-40.52734375,15.13671875,0.0
1734581175.6388805,21.484375,-12.20703125,-40.0390625,-41.9921875,0.0
1734581175.642785,31.25,-7.32421875,-33.203125,3.90625,0.0
1734581175.64669,12.6953125,-6.34765625,-35.15625,90.8203125,0.0
1734581175.6506135,3.41796875,-5.37109375,-33.69140625,103.515625,0.0
1734581175.6545181,16.6015625,-8.30078125,-32.2265625,50.29296875,0.0
1734581175.658423,35.64453125,-11.71875,-38.0859375,-47.36328125,0.0
1734581175.6623275,12.6953125,-14.6484375,-35.15625,-17.578125,0.0
1734581175.666232,-0.48828125,-14.16015625,-33.69140625,94.7265625,0.0
1734581175.6701367,-7.8125,-8.7890625,-33.69140625,101.5625,0.0
1734581175.6740413,-5.37109375,-9.27734375,-31.73828125,55.6640625,0.0
1734581175.6779459,33.203125,-9.27734375,-31.73828125,-19.04296875,0.0
1734581175.6818504,35.15625,-9.765625,-32.2265625,-15.13671875,0.0
1734581175.6857553,-1.953125,-10.7421875,-37.59765625,75.68359375,0.0
1734581175.6896598,-18.06640625,-9.765625,-42.48046875,109.375,0.0
1734581175.6935644,-25.390625,-13.18359375,-42.48046875,62.01171875,0.0
1734581175.697486,8.30078125,-15.625,-40.0390625,-23.92578125,0.0
1734581175.7013905,39.0625,-12.6953125,-37.109375,-26.3671875,0.0
1734581175.705295,17.578125,-5.859375,-29.296875,71.2890625,0.0
1734581175.7091997,-3.41796875,-2.9296875,-24.4140625,111.81640625,0.0
1734581175.7131045,-6.34765625,-8.30078125,-24.90234375,49.31640625,0.0
1734581175.717009,-9.765625,-12.6953125,-29.296875,-40.52734375,0.0
1734581175.7209136,6.34765625,-14.16015625,-40.0390625,-45.8984375,0.0
1734581175.7248182,20.01953125,-15.625,-51.26953125,49.31640625,0.0
1734581175.7287228,-16.6015625,-19.53125,-54.6875,96.19140625,0.0
1734581175.7326274,-24.90234375,-25.390625,-63.96484375,63.4765625,0.0
1734581175.736532,-23.92578125,-30.2734375,-72.75390625,-26.3671875,0.0
1734581175.7404368,-15.13671875,-30.76171875,-67.3828125,-75.68359375,0.0
1734581175.744373,-3.41796875,-25.390625,-60.05859375,34.1796875,0.0
1734581175.7482777,-30.76171875,-20.5078125,-59.5703125,106.93359375,0.0
1734581175.7521825,-49.31640625,-21.484375,-64.453125,69.3359375,0.0
1734581175.756087,-24.90234375,-21.97265625,-64.94140625,-19.04296875,0.0
1734581175.7599916,1.953125,-22.94921875,-65.4296875,-87.40234375,0.0
1734581175.7638962,-8.7890625,-22.94921875,-64.94140625,-1.46484375,0.0
1734581175.7678008,-20.5078125,-25.87890625,-62.5,85.9375,0.0
1734581175.7717054,-34.1796875,-31.25,-65.91796875,57.6171875,0.0
1734581175.7756102,-8.7890625,-27.83203125,-63.4765625,-22.94921875,0.0
1734581175.7795148,20.99609375,-29.78515625,-57.6171875,-65.4296875,0.0
1734581175.7834194,-8.30078125,-34.1796875,-58.59375,-12.20703125,0.0
1734581175.787324,-33.203125,-32.2265625,-56.15234375,60.05859375,0.0
1734581175.7912588,-58.59375,-34.66796875,-56.640625,63.4765625,0.0
1734581175.7951634,-58.59375,-30.2734375,-55.17578125,8.30078125,0.0
1734581175.799068,-25.390625,-26.85546875,-45.8984375,-65.91796875,0.0
1734581175.8029726,17.578125,-30.2734375,-41.50390625,-39.0625,0.0
1734581175.8068774,14.6484375,-24.4140625,-43.9453125,56.640625,0.0
1734581175.810782,-22.94921875,-20.5078125,-43.9453125,70.3125,0.0
1734581175.8146865,-17.578125,-22.4609375,-38.57421875,5.37109375,0.0
1734581175.818591,4.8828125,-23.92578125,-30.2734375,-58.59375,0.0
1734581175.8224957,1.46484375,-24.90234375,-20.01953125,-0.48828125,0.0
1734581175.8264003,-28.80859375,-29.78515625,-20.5078125,96.19140625,0.0
1734581175.8303049,-34.66796875,-31.25,-21.484375,98.6328125,0.0
1734581175.8342097,-42.48046875,-24.4140625,-24.4140625,45.8984375,0.0
1734581175.8381414,-26.3671875,-27.83203125,-26.3671875,-30.76171875,0.0
1734581175.842046,1.953125,-24.90234375,-18.5546875,-8.7890625,0.0
1734581175.8459508,10.7421875,-20.5078125,-15.13671875,86.9140625,0.0
1734581175.8498554,-23.4375,-25.390625,-16.6015625,114.74609375,0.0
1734581175.85376,-41.9921875,-26.85546875,-16.6015625,58.59375,0.0
1734581175.8576646,7.8125,-27.34375,-27.34375,-33.203125,0.0
1734581175.8615692,34.1796875,-25.87890625,-34.66796875,-26.3671875,0.0
1734581175.8654737,17.08984375,-27.83203125,-32.71484375,28.3203125,0.0
1734581175.8693783,-10.7421875,-33.203125,-29.296875,71.2890625,0.0
1734581175.8732831,-13.18359375,-31.25,-23.4375,59.5703125,0.0
1734581175.8771877,21.97265625,-27.34375,-24.90234375,-39.0625,0.0
1734581175.8810923,39.0625,-30.2734375,-27.83203125,-52.734375,0.0
1734581175.8850217,27.34375,-29.296875,-22.94921875,43.9453125,0.0
1734581175.8889263,3.90625,-29.296875,-25.87890625,92.28515625,0.0
1734581175.8928308,11.71875,-35.15625,-32.71484375,49.31640625,0.0
1734581175.8967354,31.73828125,-35.15625,-35.15625,-28.3203125,0.0
1734581175.90064,34.1796875,-30.76171875,-37.59765625,-40.52734375,0.0
1734581175.9045448,16.11328125,-35.15625,-36.62109375,36.62109375,0.0
1734581175.9084494,16.6015625,-32.71484375,-33.69140625,71.77734375,0.0
1734581175.912354,-1.953125,-24.90234375,-34.66796875,70.80078125,0.0
1734581175.9162586,-15.13671875,-28.80859375,-36.62109375,10.7421875,0.0
1734581175.9201632,14.6484375,-26.85546875,-29.78515625,-42.96875,0.0
1734581175.9240677,0.48828125,-23.4375,-27.34375,31.25,0.0
1734581175.9279726,-34.66796875,-27.83203125,-33.69140625,83.49609375,0.0
1734581175.931901,-46.38671875,-25.390625,-36.1328125,61.5234375,0.0
1734581175.9358056,-3.90625,-25.87890625,-34.66796875,10.25390625,0.0
1734581175.9397101,41.9921875,-21.484375,-37.59765625,-20.99609375,0.0
1734581175.9436147,20.5078125,-15.13671875,-35.15625,41.9921875,0.0
1734581175.9475195,0.9765625,-19.04296875,-30.76171875,89.84375,0.0
1734581175.9514241,-11.71875,-24.4140625,-31.25,69.82421875,0.0
1734581175.9553287,-13.18359375,-27.83203125,-29.296875,-1.953125,0.0
1734581175.9592333,32.71484375,-29.78515625,-26.3671875,-58.59375,0.0
1734581175.9631379,31.73828125,-33.69140625,-36.62109375,-11.23046875,0.0
1734581175.9670424,0.0,-35.64453125,-38.57421875,54.19921875,0.0
1734581175.9709473,-22.4609375,-38.57421875,-34.1796875,53.22265625,0.0
1734581175.9748518,-14.16015625,-40.0390625,-42.48046875,-1.46484375,0.0
1734581175.9787781,30.2734375,-37.59765625,-48.33984375,-31.25,0.0
1734581175.9826827,39.0625,-33.69140625,-44.43359375,20.5078125,0.0
1734581175.9865873,15.13671875,-29.78515625,-36.1328125,53.22265625,0.0
1734581175.990492,-3.90625,-33.203125,-36.1328125,51.7578125,0.0
1734581175.9943967,-4.39453125,-34.66796875,-42.48046875,25.390625,0.0
1734581175.9983013,6.8359375,-33.203125,-48.33984375,-42.96875,0.0
1734581176.0022058,-5.37109375,-37.59765625,-48.828125,3.41796875,0.0
1734581176.0061104,-27.34375,-36.1328125,-41.015625,106.93359375,0.0
1734581176.010015,-28.80859375,-21.484375,-48.33984375,102.05078125,0.0
1734581176.0139198,-23.92578125,-19.53125,-58.59375,35.15625,0.0
1734581176.0178244,-9.27734375,-30.76171875,-59.08203125,-45.41015625,0.0
1734581176.021729,-2.44140625,-24.4140625,-62.5,-19.53125,0.0
1734581176.0256536,1.953125,-19.53125,-61.5234375,84.47265625,0.0
1734581176.0295582,-4.8828125,-22.4609375,-61.03515625,90.8203125,0.0
1734581176.0334628,-20.5078125,-14.6484375,-60.05859375,40.52734375,0.0
1734581176.0373673,0.9765625,-24.90234375,-63.4765625,-31.73828125,0.0
1734581176.0412722,28.80859375,-34.1796875,-63.96484375,-25.390625,0.0
1734581176.0451767,26.85546875,-32.71484375,-55.17578125,57.12890625,0.0
1734581176.0490813,-25.87890625,-39.55078125,-54.6875,101.5625,0.0
1734581176.052986,-45.8984375,-38.0859375,-57.12890625,49.31640625,0.0
1734581176.0568905,18.06640625,-30.2734375,-57.12890625,-27.83203125,0.0
1734581176.060795,62.98828125,-22.94921875,-60.05859375,-14.16015625,0.0
1734581176.0647,35.15625,-26.85546875,-63.96484375,54.6875,0.0
1734581176.0686045,-5.859375,-35.64453125,-62.01171875,72.265625,0.0
1734581176.0725262,-8.7890625,-34.1796875,-62.98828125,42.48046875,0.0
1734581176.0764308,21.97265625,-40.0390625,-63.96484375,-15.625,0.0
1734581176.0803354,44.921875,-38.57421875,-65.91796875,-36.62109375,0.0
1734581176.08424,20.5078125,-27.34375,-66.89453125,54.6875,0.0
1734581176.0881445,-23.4375,-21.97265625,-67.87109375,103.515625,0.0
1734581176.0920491,-46.38671875,-27.83203125,-72.265625,60.546875,0.0
1734581176.095954,-7.32421875,-32.2265625,-75.68359375,0.9765625,0.0
1734581176.0998585,24.4140625,-29.78515625,-82.51953125,-11.23046875,0.0
1734581176.103763,15.13671875,-31.25,-88.8671875,37.109375,0.0
1734581176.1076677,-9.765625,-34.66796875,-89.84375,55.17578125,0.0
1734581176.1115723,-22.94921875,-35.64453125,-85.9375,59.08203125,0.0
1734581176.1154768,-16.11328125,-40.0390625,-81.54296875,4.39453125,0.0
1734581176.1194172,26.3671875,-41.015625,-84.9609375,0.0,0.0
1734581176.1233218,47.36328125,-40.0390625,-84.47265625,0.0,0.0
1734581176.1272264,6.34765625,-37.59765625,-81.0546875,0.0,0.0
1734581176.131131,-26.85546875,-38.0859375,-86.42578125,0.0,0.0
1734581176.1350358,-11.71875,-43.9453125,-92.28515625,0.0,0.0
1734581176.1389403,32.2265625,-41.50390625,-89.84375,0.0,0.0
1734581176.142845,41.9921875,-39.0625,-88.8671875,0.0,0.0
1734581176.1467495,11.23046875,-42.96875,-95.703125,0.0,0.0
1734581176.150654,-4.8828125,-43.9453125,-93.26171875,0.0,0.0
1734581176.1545587,14.6484375,-38.57421875,-85.44921875,0.0,0.0
1734581176.1584635,23.92578125,-42.48046875,-90.8203125,0.0,0.0
1734581176.162368,46.38671875,-42.48046875,-95.21484375,0.0,0.0
1734581176.1663027,21.484375,-39.0625,-88.8671875,70.3125,0.0
1734581176.1702073,-34.1796875,-38.57421875,-89.35546875,80.56640625,0.0
1734581176.174112,-28.80859375,-28.80859375,-96.19140625,17.08984375,0.0
1734581176.1780167,-6.34765625,-19.04296875,-103.515625,-54.6875,0.0
1734581176.1819212,12.6953125,-9.765625,-109.86328125,-31.25,0.0
1734581176.1858258,16.11328125,-2.9296875,-104.4921875,52.734375,0.0
1734581176.1897304,-23.4375,-4.39453125,-102.05078125,66.89453125,0.0
1734581176.1936352,-28.3203125,-4.8828125,-104.98046875,25.390625,0.0
1734581176.1975398,20.99609375,-4.8828125,-105.46875,-40.0390625,0.0
1734581176.2014444,36.1328125,-10.7421875,-110.83984375,-16.6015625,0.0
1734581176.205349,11.71875,-12.6953125,-119.140625,71.2890625,0.0
1734581176.2092535,-19.53125,-13.18359375,-120.60546875,88.8671875,0.0
1734581176.213187,-23.4375,-20.5078125,-125.0,37.109375,0.0
1734581176.2170918,3.41796875,-26.85546875,-132.32421875,-62.5,0.0
1734581176.2209964,12.20703125,-24.90234375,-133.30078125,-62.98828125,0.0
1734581176.224901,25.390625,-24.4140625,-133.30078125,34.1796875,0.0
1734581176.2288055,6.34765625,-26.3671875,-127.44140625,59.08203125,0.0
1734581176.2327101,-17.08984375,-18.5546875,-120.1171875,32.71484375,0.0
1734581176.2366147,13.18359375,-16.6015625,-120.60546875,-35.15625,0.0
1734581176.2405195,42.48046875,-26.3671875,-127.44140625,-64.453125,0.0
1734581176.244424,15.13671875,-34.1796875,-131.34765625,28.80859375,0.0
1734581176.2483287,-18.06640625,-32.71484375,-125.48828125,85.44921875,0.0
1734581176.2522333,-21.484375,-30.76171875,-122.0703125,38.57421875,0.0
1734581176.2561378,12.20703125,-33.69140625,-119.62890625,-30.76171875,0.0
1734581176.2600684,36.1328125,-30.76171875,-116.2109375,-53.22265625,0.0
1734581176.263973,9.27734375,-26.3671875,-113.28125,39.0625,0.0
1734581176.2678776,-29.296875,-30.2734375,-110.83984375,88.8671875,0.0
1734581176.2717824,-66.40625,-35.15625,-115.234375,34.66796875,0.0
1734581176.275687,-26.3671875,-35.64453125,-116.2109375,-30.76171875,0.0
1734581176.2795916,23.92578125,-34.66796875,-111.81640625,-66.89453125,0.0
1734581176.2834961,3.90625,-38.0859375,-114.74609375,10.25390625,0.0
1734581176.2874007,-16.6015625,-42.96875,-110.3515625,66.89453125,0.0
1734581176.2913053,-34.66796875,-39.0625,-101.07421875,25.87890625,0.0
1734581176.2952101,-32.2265625,-35.64453125,-97.65625,-16.6015625,0.0
1734581176.2991147,14.6484375,-38.57421875,-97.65625,-46.875,0.0
1734581176.3030193,22.4609375,-35.15625,-92.7734375,15.13671875,0.0
1734581176.306948,-1.953125,-34.66796875,-91.30859375,84.9609375,0.0
1734581176.3108525,-20.01953125,-39.0625,-85.9375,57.12890625,0.0
1734581176.3147573,-23.4375,-43.45703125,-80.56640625,-21.97265625,0.0
1734581176.318662,20.5078125,-53.7109375,-83.984375,-61.5234375,0.0
1734581176.3225665,35.15625,-62.01171875,-89.35546875,-10.7421875,0.0
1734581176.326471,2.44140625,-58.10546875,-84.9609375,43.9453125,0.0
1734581176.3303757,-38.57421875,-60.05859375,-80.56640625,28.3203125,0.0
1734581176.3342803,-34.66796875,-66.40625,-81.0546875,-22.4609375,0.0
1734581176.338185,8.7890625,-62.5,-79.1015625,-72.75390625,0.0
1734581176.3420897,4.8828125,-62.98828125,-77.63671875,-49.8046875,0.0
1734581176.3459942,-38.0859375,-62.98828125,-81.0546875,20.5078125,0.0
1734581176.3498988,-53.22265625,-48.828125,-75.68359375,47.36328125,0.0
1734581176.353826,-53.7109375,-44.43359375,-73.73046875,10.25390625,0.0
1734581176.3577306,-32.2265625,-51.26953125,-80.56640625,-51.26953125,0.0
1734581176.3616354,-1.953125,-52.734375,-85.44921875,-26.85546875,0.0
1734581176.36554,-20.99609375,-49.31640625,-86.9140625,55.6640625,0.0
1734581176.3694446,-41.9921875,-45.41015625,-78.125,69.3359375,0.0
1734581176.3733492,-26.85546875,-45.41015625,-80.078125,13.671875,0.0
1734581176.3772538,9.27734375,-51.7578125,-89.84375,-37.59765625,0.0
1734581176.3811584,27.83203125,-51.7578125,-81.0546875,-14.16015625,0.0
1734581176.3850632,29.296875,-45.8984375,-77.1484375,49.31640625,0.0
1734581176.3889678,-20.99609375,-47.8515625,-83.984375,53.7109375,0.0
1734581176.3928723,-37.109375,-52.24609375,-80.56640625,12.20703125,0.0
1734581176.396777,9.27734375,-51.26953125,-82.03125,-55.6640625,0.0
1734581176.400701,20.01953125,-48.33984375,-81.54296875,-51.7578125,0.0
1734581176.4046056,19.04296875,-47.8515625,-74.70703125,41.50390625,0.0
1734581176.4085102,-9.765625,-50.78125,-73.2421875,68.359375,0.0
1734581176.4124148,-19.04296875,-54.6875,-77.1484375,6.8359375,0.0
1734581176.4163194,16.11328125,-53.22265625,-79.1015625,-54.6875,0.0
1734581176.4202242,50.29296875,-51.7578125,-76.171875,-61.5234375,0.0
1734581176.4241288,29.296875,-57.6171875,-76.66015625,5.37109375,0.0
1734581176.4280334,-12.20703125,-60.05859375,-75.68359375,56.640625,0.0
1734581176.431938,-53.7109375,-54.19921875,-73.73046875,28.3203125,0.0
1734581176.4358425,-54.19921875,-54.19921875,-70.80078125,-43.9453125,0.0
1734581176.4397473,10.7421875,-54.6875,-65.91796875,-71.2890625,0.0
1734581176.443652,-3.90625,-56.15234375,-64.453125,18.06640625,0.0
1734581176.447582,-23.92578125,-49.31640625,-65.91796875,71.77734375,0.0
1734581176.4514866,-19.04296875,-44.43359375,-61.5234375,43.45703125,0.0
1734581176.4553914,-27.83203125,-52.24609375,-53.7109375,-24.90234375,0.0
1734581176.459296,3.41796875,-53.22265625,-55.6640625,-76.171875,0.0
1734581176.4632006,13.18359375,-52.24609375,-50.29296875,-2.9296875,0.0
1734581176.4671052,-15.625,-47.36328125,-56.15234375,56.640625,0.0
1734581176.4710097,-40.0390625,-43.9453125,-71.2890625,25.87890625,0.0
1734581176.4749143,-21.97265625,-46.38671875,-67.3828125,-37.109375,0.0
1734581176.4788191,2.9296875,-49.8046875,-71.2890625,-84.47265625,0.0
1734581176.4827237,5.859375,-51.7578125,-77.1484375,-22.94921875,0.0
1734581176.4866283,-10.7421875,-52.734375,-75.1953125,54.19921875,0.0
1734581176.4905329,-16.11328125,-54.19921875,-76.171875,37.59765625,0.0
1734581176.4944863,-1.46484375,-58.10546875,-76.66015625,-24.90234375,0.0
1734581176.498391,29.296875,-56.15234375,-71.77734375,-84.47265625,0.0
1734581176.5022955,26.85546875,-59.08203125,-67.87109375,-52.24609375,0.0
1734581176.5062,-20.01953125,-67.87109375,-64.453125,24.90234375,0.0
1734581176.5101047,-50.78125,-70.80078125,-62.01171875,31.73828125,0.0
1734581176.5140092,-36.62109375,-74.21875,-62.01171875,-11.71875,0.0
1734581176.517914,22.4609375,-74.70703125,-68.359375,-54.19921875,0.0
1734581176.5218186,30.2734375,-76.66015625,-66.89453125,-33.69140625,0.0
1734581176.5257232,-26.3671875,-75.68359375,-59.08203125,47.8515625,0.0
1734581176.5296278,-59.08203125,-75.1953125,-59.5703125,60.05859375,0.0
1734581176.5335324,-50.29296875,-73.73046875,-57.12890625,4.39453125,0.0
1734581176.5374372,-6.34765625,-71.77734375,-55.6640625,-62.5,0.0
1734581176.5413728,21.484375,-75.1953125,-56.640625,-33.203125,0.0
1734581176.5452774,-3.90625,-71.2890625,-54.6875,52.734375,0.0
1734581176.549182,-38.57421875,-69.82421875,-57.6171875,39.55078125,0.0
1734581176.5530868,-37.59765625,-74.70703125,-58.10546875,-6.8359375,0.0
1734581176.5569913,-16.11328125,-80.56640625,-60.546875,-48.33984375,0.0
1734581176.560896,-22.94921875,-82.03125,-64.453125,-36.1328125,0.0
1734581176.5648005,-26.85546875,-82.51953125,-60.546875,21.97265625,0.0
1734581176.568705,-50.78125,-80.078125,-61.5234375,30.2734375,0.0
1734581176.57261,-66.40625,-75.68359375,-62.98828125,16.6015625,0.0
1734581176.5765145,-24.90234375,-76.171875,-56.15234375,-34.66796875,0.0
1734581176.580419,8.30078125,-76.171875,-55.17578125,-71.2890625,0.0
1734581176.5843236,-2.44140625,-77.63671875,-59.08203125,0.0,0.0
1734581176.5882578,-34.1796875,-76.171875,-62.01171875,50.78125,0.0
1734581176.5921626,-54.19921875,-77.63671875,-66.40625,25.87890625,0.0
1734581176.5960672,-52.24609375,-76.171875,-65.91796875,-40.52734375,0.0
1734581176.5999718,-37.109375,-75.68359375,-66.89453125,-79.1015625,0.0
1734581176.6038764,-26.85546875,-76.66015625,-62.98828125,-15.13671875,0.0
1734581176.607781,-54.6875,-68.359375,-54.6875,40.0390625,0.0
1734581176.6116855,-85.44921875,-70.80078125,-50.29296875,28.80859375,0.0
1734581176.6155903,-70.3125,-72.265625,-46.38671875,-30.76171875,0.0
1734581176.619495,-24.4140625,-74.21875,-35.64453125,-64.453125,0.0
1734581176.6233995,-27.83203125,-79.1015625,-33.69140625,11.23046875,0.0
1734581176.627304,-58.10546875,-78.125,-33.69140625,52.734375,0.0
1734581176.6312087,-71.77734375,-76.171875,-27.83203125,33.203125,0.0
1734581176.635139,-56.640625,-76.66015625,-28.3203125,-16.11328125,0.0
1734581176.6390438,-11.23046875,-71.77734375,-30.76171875,-72.265625,0.0
1734581176.6429484,0.9765625,-68.84765625,-43.9453125,-27.34375,0.0
1734581176.646853,-24.90234375,-72.265625,-47.8515625,26.3671875,0.0
1734581176.6507576,-65.91796875,-77.1484375,-44.921875,-6.34765625,0.0
1734581176.6546621,-48.828125,-79.1015625,-46.875,-60.546875,0.0
1734581176.6585667,15.625,-75.68359375,-40.52734375,-88.8671875,0.0
1734581176.6624715,10.25390625,-76.66015625,-39.0625,-31.73828125,0.0
1734581176.666376,-46.875,-77.1484375,-46.875,28.80859375,0.0
1734581176.6702807,-74.21875,-72.265625,-53.7109375,4.8828125,0.0
1734581176.6741853,-66.40625,-69.82421875,-59.08203125,-35.15625,0.0
1734581176.6780899,-25.390625,-73.73046875,-63.4765625,-98.6328125,0.0
1734581176.6820192,-9.765625,-75.68359375,-64.94140625,-62.98828125,0.0
1734581176.685924,-41.50390625,-68.84765625,-62.01171875,18.06640625,0.0
1734581176.6898286,-52.734375,-66.89453125,-61.5234375,9.27734375,0.0
1734581176.6937332,-48.33984375,-67.3828125,-65.91796875,-48.33984375,0.0
1734581176.6976378,-20.01953125,-63.96484375,-62.98828125,-88.37890625,0.0
1734581176.7015424,-10.25390625,-65.91796875,-53.7109375,-50.29296875,0.0
1734581176.7054472,-30.76171875,-67.3828125,-50.29296875,42.48046875,0.0
1734581176.7093518,-48.828125,-58.10546875,-49.8046875,67.3828125,0.0
1734581176.7132564,-76.171875,-53.7109375,-52.734375,9.27734375,0.0
1734581176.717161,-48.828125,-57.12890625,-58.10546875,-71.2890625,0.0
1734581176.7210655,-5.37109375,-55.17578125,-59.5703125,-56.640625,0.0
1734581176.7249703,-12.20703125,-49.31640625,-55.6640625,50.29296875,0.0
1734581176.7288973,-42.48046875,-52.734375,-50.78125,52.734375,0.0
1734581176.732802,-57.12890625,-57.6171875,-51.26953125,-9.27734375,0.0
1734581176.7367065,-20.01953125,-54.19921875,-53.7109375,-59.08203125,0.0
1734581176.740611,6.8359375,-60.546875,-53.22265625,-71.77734375,0.0
1734581176.7445157,-14.6484375,-65.4296875,-55.6640625,0.9765625,0.0
1734581176.7484205,-27.34375,-60.546875,-60.546875,42.96875,0.0
1734581176.752325,-15.625,-56.15234375,-60.05859375,1.953125,0.0
1734581176.7562296,-14.6484375,-56.640625,-57.12890625,-68.84765625,0.0
1734581176.7601342,10.25390625,-61.03515625,-54.19921875,-75.68359375,0.0
1734581176.7640388,-7.32421875,-65.91796875,-54.19921875,17.08984375,0.0
1734581176.7679436,-60.05859375,-64.453125,-57.6171875,59.08203125,0.0
1734581176.7718482,-70.80078125,-68.84765625,-55.17578125,32.71484375,0.0
1734581176.7757738,-41.015625,-76.171875,-56.640625,-20.5078125,0.0
1734581176.7796783,-15.13671875,-66.89453125,-62.98828125,-58.59375,0.0
1734581176.783583,-15.625,-60.05859375,-58.10546875,-7.32421875,0.0
1734581176.7874875,-28.80859375,-63.96484375,-49.31640625,39.55078125,0.0
1734581176.7913923,-40.0390625,-63.96484375,-54.19921875,11.71875,0.0
1734581176.795297,-20.5078125,-52.734375,-60.546875,-37.109375,0.0
1734581176.7992015,10.25390625,-43.45703125,-59.08203125,-56.15234375,0.0
1734581176.803106,5.859375,-44.921875,-61.5234375,-8.7890625,0.0
1734581176.8070107,-35.64453125,-50.78125,-63.96484375,27.34375,0.0
1734581176.8109155,-44.921875,-52.734375,-61.03515625,16.6015625,0.0
1734581176.81482,-26.3671875,-51.26953125,-61.03515625,-36.62109375,0.0
1734581176.8187246,-3.41796875,-47.36328125,-65.91796875,-89.84375,0.0
1734581176.8226469,15.625,-45.41015625,-61.5234375,-25.390625,0.0
1734581176.8265514,-14.16015625,-52.734375,-51.26953125,38.57421875,0.0
1734581176.830456,-61.03515625,-55.17578125,-53.22265625,6.34765625,0.0
1734581176.8343606,-48.33984375,-55.17578125,-55.17578125,-48.828125,0.0
1734581176.8382652,7.32421875,-51.7578125,-52.734375,-81.54296875,0.0
1734581176.84217,14.6484375,-48.33984375,-61.03515625,-29.78515625,0.0
1734581176.8460746,-32.71484375,-49.31640625,-63.96484375,41.50390625,0.0
1734581176.8499792,-59.08203125,-54.6875,-64.453125,25.390625,0.0
1734581176.8538837,-65.4296875,-52.24609375,-69.82421875,-32.2265625,0.0
1734581176.8577883,-34.1796875,-47.8515625,-73.73046875,-76.66015625,0.0
1734581176.8616931,-27.83203125,-51.7578125,-72.75390625,-59.08203125,0.0
1734581176.8655977,-51.26953125,-54.6875,-66.89453125,6.34765625,0.0
1734581176.8695345,0.0,-52.24609375,-66.89453125,22.94921875,0.0
1734581176.873439,0.0,-52.734375,-66.40625,-20.99609375,0.0
1734581176.8773437,0.0,-50.29296875,-63.4765625,-84.9609375,0.0
1734581176.8812485,0.0,-42.48046875,-63.4765625,-54.19921875,0.0
1734581176.885153,0.0,-42.48046875,-66.89453125,21.484375,0.0
1734581176.8890576,0.0,-53.7109375,-68.84765625,12.6953125,0.0
1734581176.8929622,0.0,-53.7109375,-65.91796875,-2.44140625,0.0
1734581176.8968668,0.0,-44.43359375,-66.40625,-62.98828125,0.0
1734581176.9007716,0.0,-44.43359375,-75.1953125,-64.453125,0.0
1734581176.9046762,0.0,-45.8984375,-76.66015625,24.4140625,0.0
1734581176.9085808,0.0,-46.38671875,-73.73046875,41.015625,0.0
1734581176.9124854,0.0,-44.921875,-74.70703125,-12.20703125,0.0
1734581176.916421,-5.859375,-42.96875,-74.21875,-68.84765625,0.0
1734581176.9203255,28.3203125,-40.0390625,-72.75390625,-44.921875,0.0
1734581176.9242303,8.7890625,-35.64453125,-67.3828125,28.3203125,0.0
1734581176.928135,-39.55078125,-35.64453125,-70.80078125,25.390625,0.0
1734581176.9320395,-82.51953125,-40.52734375,-16.11328125,-3.90625,0.0
1734581176.935944,-62.5,-43.9453125,56.15234375,-63.4765625,0.0
1734581176.9398487,-4.8828125,-42.48046875,63.96484375,-75.1953125,0.0
1734581176.9437535,-9.27734375,-35.64453125,66.40625,19.04296875,0.0
1734581176.947658,-38.0859375,-31.25,68.359375,54.6875,0.0
1734581176.9515626,-56.640625,-27.83203125,60.05859375,12.20703125,0.0
1734581176.9554672,-43.9453125,-27.83203125,45.8984375,-81.54296875,0.0
1734581176.9593718,-13.18359375,-32.2265625,35.64453125,-108.3984375,0.0
1734581176.96331,-9.765625,-30.2734375,31.25,-33.69140625,0.0
1734581176.9672146,-45.8984375,-33.203125,29.78515625,4.8828125,0.0
1734581176.9711192,-71.2890625,-35.15625,27.34375,6.8359375,0.0
1734581176.975024,-37.109375,-28.80859375,29.296875,-42.48046875,0.0
1734581176.9789286,5.859375,-27.83203125,28.80859375,-79.58984375,0.0
1734581176.9828331,-12.20703125,-30.2734375,18.5546875,-38.0859375,0.0
1734581176.9867377,-29.296875,-29.296875,13.671875,20.01953125,0.0
1734581176.9906423,-44.43359375,-26.3671875,15.625,24.4140625,0.0
1734581176.9945471,-46.38671875,-27.83203125,14.16015625,-48.828125,0.0
1734581176.9984517,-0.9765625,-26.3671875,18.06640625,-100.5859375,0.0
1734581177.0023563,32.71484375,-23.4375,16.11328125,-24.4140625,0.0
1734581177.0062609,-3.90625,-31.25,9.765625,43.45703125,0.0
1734581177.0101953,-55.6640625,-36.62109375,9.27734375,16.6015625,0.0
1734581177.0140998,-42.48046875,-35.64453125,13.671875,-33.203125,0.0
1734581177.0180047,5.37109375,-38.0859375,12.6953125,-75.1953125,0.0
1734581177.0219092,13.671875,-37.59765625,8.30078125,-41.50390625,0.0
1734581177.0258138,-10.25390625,-24.4140625,8.7890625,28.3203125,0.0
1734581177.0297184,-42.48046875,-23.4375,8.7890625,31.25,0.0
1734581177.0336232,-62.01171875,-32.2265625,4.39453125,-15.13671875,0.0
1734581177.0375278,-31.25,-33.69140625,6.34765625,-65.91796875,0.0
1734581177.0414324,2.9296875,-31.25,3.90625,-45.41015625,0.0
1734581177.045337,-18.5546875,-28.80859375,-0.48828125,7.8125,0.0
1734581177.0492415,-50.78125,-27.83203125,-1.46484375,17.08984375,0.0
1734581177.0531464,-69.82421875,-28.80859375,-3.41796875,-2.44140625,0.0
1734581177.0570753,0.0,-33.69140625,-8.7890625,-79.1015625,0.0
1734581177.06098,0.0,-29.296875,-8.30078125,-76.66015625,0.0
1734581177.0648847,0.0,-30.2734375,-6.8359375,15.625,0.0
1734581177.0687892,0.0,-38.0859375,-10.7421875,29.296875,0.0
1734581177.0726938,0.0,-41.50390625,-9.27734375,-14.6484375,0.0
1734581177.0765984,0.0,-40.52734375,-3.90625,-75.68359375,0.0
1734581177.0805032,0.0,-42.96875,-9.27734375,-72.75390625,0.0
1734581177.0844078,0.0,-42.48046875,-11.71875,25.87890625,0.0
1734581177.0883124,0.0,-41.015625,-8.7890625,53.7109375,0.0
1734581177.092217,0.0,-42.48046875,-13.18359375,-4.8828125,0.0
1734581177.0961218,0.0,-45.8984375,-18.5546875,-78.125,0.0
1734581177.1000264,0.0,-43.9453125,-16.6015625,-86.42578125,0.0
1734581177.1039016,-39.0625,-34.1796875,-16.6015625,-0.9765625,0.0
1734581177.1078062,4.39453125,-31.25,-24.4140625,18.5546875,0.0
1734581177.111711,-5.859375,-34.1796875,-31.25,-12.20703125,0.0
1734581177.1156156,-43.45703125,-34.1796875,-41.9921875,-54.19921875,0.0
1734581177.1195202,-54.6875,-35.64453125,-51.26953125,-68.84765625,0.0
1734581177.1234248,-21.97265625,-41.50390625,-47.8515625,-21.97265625,0.0
1734581177.1273296,-8.7890625,-43.9453125,-47.36328125,33.203125,0.0
1734581177.1312342,-8.7890625,-44.921875,-53.7109375,32.71484375,0.0
1734581177.1351388,-49.31640625,-47.36328125,-48.828125,-58.10546875,0.0
1734581177.1390433,-58.10546875,-48.828125,-45.8984375,-92.7734375,0.0
1734581177.142948,-6.8359375,-52.24609375,-54.19921875,-23.92578125,0.0
1734581177.1468527,24.90234375,-51.26953125,-51.26953125,30.76171875,0.0
1734581177.150781,-43.9453125,-49.8046875,0.0,23.4375,0.0
1734581177.1546855,-15.13671875,-47.8515625,0.0,-44.921875,0.0
1734581177.15859,19.53125,-38.57421875,0.0,-86.9140625,0.0
1734581177.162495,2.44140625,-37.109375,0.0,-5.859375,0.0
1734581177.1663995,-26.3671875,-46.875,0.0,55.6640625,0.0
1734581177.170304,-44.43359375,-48.828125,0.0,20.99609375,0.0
1734581177.1742086,-29.296875,-45.8984375,0.0,-50.29296875,0.0
1734581177.1781132,26.3671875,-41.50390625,0.0,-95.21484375,0.0
1734581177.182018,44.921875,-31.25,0.0,-24.4140625,0.0
1734581177.1859226,11.23046875,-30.2734375,0.0,44.921875,0.0
1734581177.1898272,-18.06640625,-38.0859375,0.0,37.59765625,0.0
1734581177.1937318,-46.875,-38.57421875,0.0,0.0,0.0
1734581177.197656,0.0,-33.69140625,-68.84765625,-71.2890625,0.0
1734581177.2015605,0.0,-33.69140625,-69.82421875,-47.36328125,0.0
1734581177.205465,0.0,-35.64453125,-70.80078125,39.55078125,0.0
1734581177.2093697,0.0,-30.2734375,-66.40625,28.3203125,0.0
1734581177.2132745,0.0,-28.3203125,-64.453125,-25.390625,0.0
1734581177.217179,0.0,-32.2265625,-83.49609375,-62.98828125,0.0
1734581177.2210836,0.0,-30.2734375,-109.375,-41.015625,0.0
1734581177.2249882,0.0,-30.2734375,-119.140625,25.390625,0.0
1734581177.228893,0.0,-36.62109375,-118.65234375,28.80859375,0.0
1734581177.2327976,0.0,-46.875,-116.69921875,-9.765625,0.0
1734581177.2367022,0.0,-52.734375,-118.1640625,-57.6171875,0.0
1734581177.2406068,0.0,-41.50390625,-117.1875,-61.5234375,0.0
1734581177.2444925,-28.3203125,-28.80859375,-120.60546875,-13.671875,0.0
1734581177.248397,6.34765625,-30.2734375,-111.328125,13.18359375,0.0
1734581177.2523017,-21.97265625,-32.2265625,-100.5859375,3.90625,0.0
1734581177.2562063,-41.015625,-31.25,-104.98046875,-62.01171875,0.0
1734581177.2601109,-40.0390625,-30.76171875,-107.421875,-68.84765625,0.0
1734581177.2640157,-4.8828125,-26.85546875,-104.00390625,18.5546875,0.0
1734581177.2679203,28.3203125,-25.87890625,-103.02734375,37.109375,0.0
1734581177.2718248,-15.625,-32.2265625,-102.05078125,-4.8828125,0.0
1734581177.2757294,-34.66796875,-36.1328125,-97.16796875,-58.59375,0.0
1734581177.279634,-34.1796875,-36.1328125,-90.33203125,-69.3359375,0.0
1734581177.2835388,-6.8359375,-40.52734375,-87.40234375,10.7421875,0.0
1734581177.2874434,37.59765625,-39.55078125,-89.84375,40.52734375,0.0
1734581177.2913299,3.90625,-29.78515625,0.0,21.484375,0.0
1734581177.2952344,-58.59375,-30.2734375,0.0,-38.57421875,0.0
1734581177.299139,-68.84765625,-42.48046875,0.0,-69.3359375,0.0
1734581177.3030436,-16.6015625,-44.921875,0.0,11.23046875,0.0
1734581177.3069484,28.80859375,-44.43359375,0.0,60.05859375,0.0
1734581177.310853,33.203125,-51.7578125,0.0,54.6875,0.0
1734581177.3147576,-28.3203125,-51.26953125,0.0,-24.4140625,0.0
1734581177.3186622,-78.61328125,-44.921875,0.0,-83.49609375,0.0
1734581177.322567,-49.8046875,-37.59765625,0.0,-24.4140625,0.0
1734581177.3264716,-4.8828125,-38.0859375,0.0,20.5078125,0.0
1734581177.3303761,-3.90625,-44.921875,0.0,5.859375,0.0
1734581177.3342807,-45.41015625,-44.43359375,0.0,-45.8984375,0.0
1734581177.3381622,-57.6171875,-43.9453125,-70.3125,0.0,0.0
1734581177.342067,-10.25390625,-47.8515625,-70.80078125,0.0,0.0
1734581177.3459716,14.16015625,-47.36328125,-70.3125,0.0,0.0
1734581177.3498762,-15.13671875,-45.8984375,-62.98828125,0.0,0.0
1734581177.3537807,-38.57421875,-49.8046875,-58.10546875,0.0,0.0
1734581177.3576853,-54.6875,-55.6640625,-64.94140625,0.0,0.0
1734581177.3615901,-26.3671875,-48.828125,-67.3828125,0.0,0.0
1734581177.3654947,19.04296875,-43.9453125,-62.01171875,0.0,0.0
1734581177.3693993,23.4375,-46.38671875,-61.5234375,0.0,0.0
1734581177.373304,-4.39453125,-48.33984375,-63.4765625,0.0,0.0
1734581177.3772087,-31.25,-44.921875,-63.4765625,0.0,0.0
1734581177.3811133,11.23046875,-43.45703125,-66.89453125,0.0,0.0
1734581177.3850455,12.6953125,-42.96875,-63.96484375,47.8515625,0.0
1734581177.38895,-40.0390625,-42.96875,-60.546875,59.5703125,0.0
1734581177.392855,-50.78125,-45.8984375,-59.08203125,-1.46484375,0.0
1734581177.3967595,0.48828125,-42.96875,-62.5,-66.89453125,0.0
1734581177.400664,21.97265625,-40.52734375,-69.3359375,-54.6875,0.0
1734581177.4045687,1.953125,-41.50390625,-72.265625,20.01953125,0.0
1734581177.4084733,-22.4609375,-39.55078125,-64.94140625,50.29296875,0.0
1734581177.412378,-26.85546875,-33.69140625,-62.98828125,38.57421875,0.0
1734581177.4162827,-7.8125,-36.1328125,-84.47265625,-34.66796875,0.0
1734581177.4201872,34.1796875,-39.0625,-99.12109375,-50.78125,0.0
1734581177.4240918,37.109375,-40.52734375,-98.6328125,37.109375,0.0
1734581177.4279966,7.32421875,-42.48046875,-91.796875,60.546875,0.0
1734581177.4319298,0.0,-41.50390625,-83.49609375,24.4140625,0.0
1734581177.4358344,0.0,-44.43359375,-82.03125,-45.8984375,0.0
1734581177.439739,0.0,-42.96875,-79.1015625,-57.6171875,0.0
1734581177.4436438,0.0,-45.41015625,-75.68359375,27.34375,0.0
1734581177.4475484,0.0,-51.7578125,-78.61328125,58.59375,0.0
1734581177.451453,0.0,-46.38671875,-76.171875,30.76171875,0.0
1734581177.4553576,0.0,-42.48046875,-72.75390625,-24.90234375,0.0
1734581177.4592624,0.0,-45.8984375,-77.1484375,-56.640625,0.0
1734581177.463167,0.0,-42.96875,-82.03125,15.13671875,0.0
1734581177.4670715,0.0,-35.64453125,-78.61328125,61.03515625,0.0
1734581177.470976,0.0,-29.78515625,-76.171875,41.015625,0.0
1734581177.4748807,0.0,-25.390625,-75.1953125,-3.90625,0.0
1734581177.478808,18.5546875,-34.66796875,-62.01171875,-41.015625,0.0
1734581177.4827125,-0.9765625,-48.33984375,-54.19921875,14.6484375,0.0
1734581177.4866173,-40.52734375,-47.36328125,-51.7578125,43.9453125,0.0
1734581177.490522,-48.33984375,-41.50390625,-44.43359375,33.203125,0.0
1734581177.4944265,-10.25390625,-45.41015625,-35.64453125,-5.37109375,0.0
1734581177.498331,10.7421875,-42.48046875,-32.2265625,-86.42578125,0.0
1734581177.5022357,2.9296875,-38.57421875,-34.1796875,-23.92578125,0.0
1734581177.5061405,-32.2265625,-40.52734375,-34.66796875,59.5703125,0.0
1734581177.510045,-62.5,-32.71484375,-39.0625,37.109375,0.0
1734581177.5139496,-41.50390625,-30.76171875,-42.96875,-14.16015625,0.0
1734581177.5178542,0.9765625,-39.55078125,-36.62109375,-77.63671875,0.0
1734581177.5217588,-27.83203125,-43.45703125,-33.203125,-28.3203125,0.0
1734581177.5256863,-83.0078125,-42.96875,-42.48046875,16.6015625,0.0
1734581177.5295908,-87.890625,-40.52734375,-42.96875,8.30078125,0.0
1734581177.5334957,-56.15234375,-37.109375,-35.15625,-4.8828125,0.0
1734581177.5374002,-33.203125,-45.41015625,-29.296875,-71.77734375,0.0
1734581177.5413048,-31.73828125,-51.26953125,-27.34375,-33.203125,0.0
1734581177.5452094,-20.5078125,-43.9453125,-23.92578125,48.33984375,0.0
1734581177.5491142,-35.15625,-40.0390625,-24.4140625,53.7109375,0.0
1734581177.5530188,-67.3828125,-37.59765625,-30.76171875,0.0,0.0
1734581177.5569234,-35.64453125,-32.71484375,-31.25,-76.171875,0.0
1734581177.560828,2.9296875,-30.76171875,-25.390625,-46.38671875,0.0
1734581177.5647326,-41.9921875,-32.71484375,-23.4375,22.4609375,0.0
1734581177.5686374,-71.77734375,-32.71484375,-22.94921875,27.83203125,0.0
1734581177.572561,-54.19921875,-36.62109375,-21.97265625,-0.48828125,0.0
1734581177.5764658,-29.78515625,-42.96875,-29.296875,-44.921875,0.0
1734581177.5803704,7.32421875,-42.96875,-35.15625,-38.0859375,0.0
1734581177.584275,-4.8828125,-37.59765625,-36.62109375,36.62109375,0.0
1734581177.5881796,-38.57421875,-37.59765625,-36.62109375,50.29296875,0.0
1734581177.5920844,-59.5703125,-37.109375,-36.62109375,14.6484375,0.0
1734581177.595989,-47.8515625,-33.203125,-35.15625,-43.9453125,0.0
1734581177.5998936,-8.7890625,-40.52734375,-34.66796875,-70.3125,0.0
1734581177.6037982,-32.71484375,-46.38671875,-33.203125,0.48828125,0.0
1734581177.6077027,-58.59375,-43.45703125,-27.34375,60.05859375,0.0
1734581177.6116076,-33.203125,-40.52734375,-25.87890625,33.69140625,0.0
1734581177.6155121,-22.94921875,-41.50390625,-32.2265625,-59.08203125,0.0
1734581177.6194918,-4.39453125,-44.43359375,-35.64453125,-74.21875,0.0
1734581177.6233964,-15.13671875,-46.38671875,-34.66796875,38.0859375,0.0
1734581177.627301,-61.5234375,-45.41015625,-31.25,73.73046875,0.0
1734581177.6312056,-59.5703125,-37.59765625,-27.83203125,12.20703125,0.0
1734581177.6351104,-12.20703125,-35.64453125,-25.87890625,-38.57421875,0.0
1734581177.639015,27.34375,-41.9921875,-30.76171875,-39.0625,0.0
1734581177.6429195,1.953125,-46.38671875,-34.1796875,30.2734375,0.0
1734581177.6468241,-37.109375,-45.8984375,-33.69140625,81.0546875,0.0
1734581177.6507287,-49.8046875,-43.45703125,-30.2734375,49.8046875,0.0
1734581177.6546335,-41.9921875,-43.45703125,-30.2734375,-18.5546875,0.0
1734581177.658538,-2.9296875,-44.921875,-35.15625,-49.31640625,0.0
1734581177.6624427,12.20703125,-49.31640625,-34.1796875,22.94921875,0.0
1734581177.6663787,-17.08984375,-47.36328125,-31.73828125,83.49609375,0.0
1734581177.6702836,-36.62109375,-44.43359375,-27.34375,47.8515625,0.0
1734581177.6741881,-12.6953125,-45.41015625,-24.4140625,-15.625,0.0
1734581177.6780927,34.66796875,-38.0859375,-22.94921875,-61.5234375,0.0
1734581177.6819973,21.97265625,-37.59765625,-21.97265625,-23.4375,0.0
1734581177.6859019,-31.25,-45.8984375,-21.484375,54.6875,0.0
1734581177.6898067,-54.19921875,-43.9453125,-18.06640625,67.3828125,0.0
1734581177.6937113,-50.78125,-46.38671875,-24.4140625,17.578125,0.0
1734581177.6976159,-22.4609375,-55.6640625,-32.71484375,-49.8046875,0.0
1734581177.7015204,-11.23046875,-57.12890625,-31.25,-7.32421875,0.0
1734581177.7054253,-21.97265625,-53.7109375,-25.390625,68.359375,0.0
1734581177.7093298,-40.52734375,-42.96875,-23.92578125,62.98828125,0.0
1734581177.7132635,-43.45703125,-41.50390625,-25.87890625,9.765625,0.0
1734581177.717168,-25.390625,-52.734375,-27.34375,-50.29296875,0.0
1734581177.7210727,9.27734375,-52.24609375,-29.296875,-23.92578125,0.0
1734581177.7249775,-11.71875,-44.43359375,-30.76171875,58.59375,0.0
1734581177.728882,-54.19921875,-40.52734375,-27.34375,49.8046875,0.0
1734581177.7327867,-50.78125,-44.43359375,-30.2734375,-0.9765625,0.0
1734581177.7366912,-5.37109375,-44.921875,-34.1796875,-38.57421875,0.0
1734581177.7405958,27.83203125,-43.9453125,-30.2734375,-18.5546875,0.0
1734581177.7445006,-8.7890625,-44.43359375,-29.296875,74.70703125,0.0
1734581177.7484052,-36.1328125,-41.50390625,-30.76171875,67.87109375,0.0
1734581177.7523098,-37.59765625,-41.015625,-34.1796875,8.7890625,0.0
1734581177.7562144,-10.25390625,-42.96875,-33.69140625,-30.76171875,0.0
1734581177.7601504,28.80859375,-40.52734375,-33.203125,-28.80859375,0.0
1734581177.7640553,-0.48828125,-42.96875,-36.62109375,60.546875,0.0
1734581177.7679598,-44.43359375,-47.36328125,-31.73828125,76.171875,0.0
1734581177.7718644,-49.8046875,-49.8046875,-26.85546875,21.484375,0.0
1734581177.775769,-27.83203125,-51.26953125,-24.90234375,-33.69140625,0.0
1734581177.7796738,4.39453125,-48.828125,-24.4140625,-49.31640625,0.0
1734581177.7835784,8.7890625,-44.921875,-26.85546875,25.87890625,0.0
1734581177.787483,-26.85546875,-45.41015625,-23.4375,75.1953125,0.0
1734581177.7913876,-46.875,-46.38671875,-19.53125,61.03515625,0.0
1734581177.7952921,-18.5546875,-43.9453125,-20.5078125,-20.01953125,0.0
1734581177.799197,1.46484375,-42.48046875,-18.06640625,-45.41015625,0.0
1734581177.8031015,0.0,-43.45703125,-18.06640625,32.2265625,0.0
1734581177.8070314,-33.203125,-44.43359375,-18.5546875,70.3125,0.0
1734581177.8109362,-71.77734375,-44.43359375,-14.6484375,55.6640625,0.0
1734581177.8148408,-37.109375,-44.921875,-19.53125,2.44140625,0.0
1734581177.8187454,33.69140625,-43.9453125,-22.94921875,-31.73828125,0.0
1734581177.82265,25.390625,-44.43359375,-23.4375,38.57421875,0.0
1734581177.8265548,-22.4609375,-47.36328125,-22.4609375,73.2421875,0.0
1734581177.8304594,-41.50390625,-49.8046875,-25.87890625,35.15625,0.0
1734581177.834364,-26.3671875,-50.78125,-28.80859375,-4.39453125,0.0
1734581177.8382685,7.32421875,-48.33984375,-25.87890625,-33.69140625,0.0
1734581177.8421733,-2.44140625,-48.828125,-26.3671875,22.94921875,0.0
1734581177.846078,-22.94921875,-52.734375,-26.85546875,83.49609375,0.0
1734581177.8499825,-38.57421875,-58.10546875,-28.3203125,55.6640625,0.0
1734581177.8539124,-35.64453125,-56.15234375,-30.76171875,0.0,0.0
1734581177.857817,6.34765625,-54.19921875,-31.73828125,0.0,0.0
1734581177.8617215,7.32421875,-57.12890625,-28.3203125,0.0,0.0
1734581177.865626,-34.1796875,-52.24609375,-25.87890625,0.0,0.0
1734581177.869531,-46.875,-49.8046875,-24.4140625,0.0,0.0
1734581177.8734355,-41.50390625,-48.33984375,-23.4375,0.0,0.0
1734581177.87734,-11.23046875,-45.8984375,-22.94921875,0.0,0.0
1734581177.8812447,3.41796875,-46.38671875,-23.4375,0.0,0.0
1734581177.8851495,-13.671875,-48.828125,-22.94921875,0.0,0.0
1734581177.889054,-21.97265625,-49.31640625,-24.90234375,0.0,0.0
1734581177.8929586,-57.6171875,-48.33984375,-28.3203125,0.0,0.0
1734581177.8968632,-37.59765625,-42.96875,-33.203125,0.0,0.0
1734581177.900787,12.20703125,-35.64453125,-32.2265625,-33.203125,0.0
1734581177.9046917,-7.8125,-39.55078125,-28.80859375,58.59375,0.0
1734581177.9085963,-29.296875,-40.0390625,-25.390625,82.03125,0.0
1734581177.9125009,-8.7890625,-35.15625,-17.08984375,22.4609375,0.0
1734581177.9164054,17.578125,-34.1796875,-16.6015625,-49.8046875,0.0
1734581177.9203103,6.8359375,-38.0859375,-19.04296875,-36.1328125,0.0
1734581177.9242148,-13.18359375,-40.52734375,-21.97265625,55.17578125,0.0
1734581177.9281194,-41.9921875,-35.15625,-21.97265625,88.8671875,0.0
1734581177.932024,-42.48046875,-35.15625,-27.83203125,37.109375,0.0
1734581177.9359288,3.90625,-39.0625,-41.015625,-29.296875,0.0
1734581177.9398334,26.3671875,-35.15625,-36.1328125,-5.859375,0.0
1734581177.943738,1.46484375,-41.50390625,-21.97265625,68.359375,0.0
1734581177.94766,-41.015625,-45.41015625,-15.625,67.3828125,0.0
1734581177.9515646,-49.31640625,-43.9453125,-12.6953125,58.59375,0.0
1734581177.9554691,-24.90234375,-48.33984375,-15.625,-12.6953125,0.0
1734581177.959374,0.0,-48.33984375,-11.71875,-51.7578125,0.0
1734581177.9632785,-19.53125,-54.6875,-9.765625,45.8984375,0.0
1734581177.967183,-39.55078125,-60.05859375,-9.765625,98.14453125,0.0
1734581177.9710877,-37.59765625,-55.6640625,-6.8359375,79.1015625,0.0
1734581177.9749925,-17.578125,-52.734375,-6.8359375,-2.44140625,0.0
1734581177.978897,8.7890625,-54.6875,-11.23046875,-31.25,0.0
1734581177.9828017,0.0,-52.24609375,-7.8125,61.03515625,0.0
1734581177.9867063,-43.9453125,-47.36328125,-8.7890625,88.8671875,0.0
1734581177.990611,-68.84765625,-47.8515625,-14.6484375,74.70703125,0.0
1734581177.9945729,-33.69140625,-55.17578125,-9.765625,44.43359375,0.0
1734581177.9984775,-2.9296875,-61.03515625,-8.30078125,-11.23046875,0.0
1734581178.002382,-2.9296875,-55.6640625,-13.671875,19.04296875,0.0
1734581178.0062866,-15.625,-48.33984375,-9.765625,77.1484375,0.0
1734581178.0101914,-45.41015625,-47.8515625,-10.25390625,76.171875,0.0
1734581178.014096,-43.45703125,-48.828125,-7.32421875,8.30078125,0.0
1734581178.0180006,2.9296875,-49.31640625,-4.8828125,-41.50390625,0.0
1734581178.0219052,22.4609375,-40.52734375,-2.9296875,6.8359375,0.0
1734581178.02581,-10.7421875,-37.109375,-0.48828125,87.40234375,0.0
1734581178.0297146,-40.52734375,-41.50390625,-3.41796875,91.796875,0.0
1734581178.0336192,-25.390625,-35.15625,-0.48828125,12.20703125,0.0
1734581178.0375237,17.578125,-35.64453125,-0.48828125,-48.828125,0.0
1734581178.0414608,10.7421875,-43.9453125,-0.48828125,2.9296875,0.0
1734581178.0453653,-25.87890625,-49.31640625,0.0,60.546875,0.0
1734581178.0492702,-53.22265625,-55.17578125,0.0,47.36328125,0.0
1734581178.0531747,-68.359375,-54.6875,2.44140625,6.8359375,0.0
1734581178.0570793,-13.671875,-46.38671875,-1.46484375,-45.41015625,0.0
1734581178.060984,26.85546875,-41.9921875,-5.37109375,-15.625,0.0
1734581178.0648887,-5.37109375,-39.0625,-3.90625,71.77734375,0.0
1734581178.0687933,-53.7109375,-36.62109375,-0.9765625,70.80078125,0.0
1734581178.0726979,-53.7109375,-33.69140625,-1.46484375,11.71875,0.0
1734581178.0766025,-29.296875,-32.71484375,-6.34765625,-28.80859375,0.0
1734581178.0805073,-31.25,-36.62109375,-2.44140625,-18.5546875,0.0
1734581178.0844119,-29.78515625,-41.015625,-0.9765625,49.31640625,0.0
1734581178.088375,-63.4765625,-41.015625,-5.859375,68.84765625,0.0
1734581178.0922797,-77.1484375,-33.69140625,-2.9296875,29.296875,0.0
1734581178.0961843,-10.7421875,-30.2734375,3.90625,-22.4609375,0.0
1734581178.1000888,9.27734375,-40.0390625,3.90625,-24.4140625,0.0
1734581178.1039937,-18.06640625,-46.875,5.859375,41.50390625,0.0
1734581178.1078982,-28.80859375,-44.921875,9.765625,85.9375,0.0
1734581178.1118028,-35.64453125,-41.015625,12.20703125,54.19921875,0.0
1734581178.1157074,0.0,-39.0625,7.32421875,-30.2734375,0.0
1734581178.1196122,10.7421875,-46.875,2.44140625,-37.59765625,0.0
1734581178.1235168,-16.11328125,-50.78125,2.44140625,44.921875,0.0
1734581178.1274214,-34.1796875,-44.921875,-1.46484375,63.4765625,0.0
1734581178.131326,-41.015625,-40.0390625,-3.41796875,53.7109375,0.0
1734581178.1352706,0.0,-38.0859375,-4.39453125,-8.7890625,0.0
1734581178.1391754,0.0,-46.38671875,-10.25390625,-46.38671875,0.0
1734581178.14308,0.0,-53.22265625,-14.16015625,27.83203125,0.0
1734581178.1469846,0.0,-50.29296875,-15.13671875,50.29296875,0.0
1734581178.1508892,0.0,-46.38671875,-10.25390625,29.296875,0.0
1734581178.154794,0.0,-46.875,-7.32421875,-20.01953125,0.0
1734581178.1586986,0.0,-44.921875,-13.18359375,-62.01171875,0.0
1734581178.1626031,0.0,-38.57421875,-14.6484375,23.92578125,0.0
1734581178.1665077,0.0,-37.109375,-11.71875,86.9140625,0.0
1734581178.1704125,0.0,-38.0859375,-1.46484375,65.91796875,0.0
1734581178.1743171,0.0,-37.109375,1.46484375,9.765625,0.0
1734581178.1782217,0.0,-33.203125,1.46484375,-22.94921875,0.0
1734581178.1821506,1.46484375,-38.0859375,4.39453125,26.85546875,0.0
1734581178.1860554,-19.04296875,-39.0625,3.41796875,77.1484375,0.0
1734581178.18996,-38.0859375,-35.64453125,4.39453125,79.1015625,0.0
1734581178.1938646,-5.859375,-38.0859375,2.44140625,9.765625,0.0
1734581178.1977692,34.66796875,-38.0859375,-2.44140625,-52.734375,0.0
1734581178.201674,24.90234375,-36.62109375,-0.9765625,3.90625,0.0
1734581178.2055786,-22.94921875,-40.52734375,-1.46484375,76.171875,0.0
1734581178.2094831,-26.85546875,-44.43359375,-6.8359375,68.359375,0.0
1734581178.213388,-6.34765625,-46.38671875,-5.859375,1.46484375,0.0
1734581178.2172925,8.30078125,-47.36328125,-4.8828125,-63.4765625,0.0
1734581178.2211971,16.6015625,-43.45703125,2.44140625,-0.48828125,0.0
1734581178.2251017,-3.90625,-38.0859375,8.30078125,79.1015625,0.0
1734581178.2290297,-35.64453125,-40.52734375,-0.9765625,63.96484375,0.0
1734581178.2329342,-33.203125,-44.921875,-4.8828125,11.71875,0.0
1734581178.2368388,11.71875,-41.9921875,-5.859375,-58.10546875,0.0
1734581178.2407436,22.4609375,-37.109375,-6.34765625,-22.94921875,0.0
1734581178.2446482,-11.71875,-34.66796875,-2.44140625,69.3359375,0.0
1734581178.2485528,-33.69140625,-39.0625,-2.9296875,63.4765625,0.0
1734581178.2524576,-24.4140625,-45.41015625,-6.8359375,22.94921875,0.0
1734581178.2563622,-4.39453125,-43.45703125,-5.859375,-21.484375,0.0
1734581178.2602668,2.9296875,-37.59765625,0.48828125,-28.3203125,0.0
1734581178.2641714,-3.90625,-36.62109375,-0.48828125,34.1796875,0.0
1734581178.2680762,-28.80859375,-36.62109375,-7.8125,54.19921875,0.0
1734581178.2719808,-34.66796875,-33.69140625,-9.27734375,21.97265625,0.0
1734581178.275905,-12.20703125,-33.69140625,-8.7890625,-30.2734375,0.0
1734581178.2798095,-3.41796875,-35.64453125,-12.6953125,-30.2734375,0.0
1734581178.2837143,-26.85546875,-36.62109375,-17.578125,35.64453125,0.0
1734581178.2876189,-45.8984375,-32.71484375,-17.578125,62.01171875,0.0
1734581178.2915235,-45.8984375,-33.203125,-19.53125,20.99609375,0.0
1734581178.295428,-24.4140625,-40.0390625,-23.4375,-39.55078125,0.0
1734581178.2993329,5.37109375,-40.52734375,-25.390625,-32.2265625,0.0
1734581178.3032374,6.34765625,-42.48046875,-26.85546875,57.6171875,0.0
1734581178.307142,-22.94921875,-39.0625,-22.94921875,76.66015625,0.0
1734581178.3110466,-37.59765625,-38.0859375,-20.01953125,30.76171875,0.0
1734581178.3149514,-35.15625,-43.9453125,-20.99609375,-26.3671875,0.0
1734581178.318856,8.30078125,-42.96875,-20.01953125,-34.1796875,0.0
1734581178.322779,0.0,-39.55078125,-20.5078125,40.0390625,0.0
1734581178.3266835,0.0,-44.921875,-24.90234375,85.9375,0.0
1734581178.3305883,0.0,-44.921875,-25.87890625,67.3828125,0.0
1734581178.334493,0.0,-38.57421875,-20.99609375,-10.25390625,0.0
1734581178.3383975,0.0,-39.55078125,-25.390625,-40.52734375,0.0
1734581178.3423023,0.0,-35.64453125,-26.3671875,39.55078125,0.0
1734581178.346207,0.0,-35.15625,-19.53125,96.19140625,0.0
1734581178.3501115,0.0,-41.9921875,-25.87890625,73.73046875,0.0
1734581178.354016,0.0,-43.9453125,-28.80859375,11.71875,0.0
1734581178.357921,0.0,-43.45703125,-29.296875,-26.3671875,0.0
1734581178.3618255,0.0,-46.38671875,-29.296875,27.34375,0.0
1734581178.36573,0.0,-47.8515625,-32.71484375,88.8671875,0.0
1734581178.3696709,-42.96875,-44.43359375,0.0,82.51953125,0.0
1734581178.3735754,-41.015625,-46.875,0.0,14.6484375,0.0
1734581178.37748,6.8359375,-44.921875,0.0,-33.69140625,0.0
1734581178.3813846,8.7890625,-44.43359375,0.0,10.25390625,0.0
1734581178.3852894,-26.3671875,-51.26953125,0.0,71.2890625,0.0
1734581178.389194,-40.0390625,-46.38671875,0.0,84.9609375,0.0
1734581178.3930986,-23.4375,-40.52734375,0.0,23.4375,0.0
1734581178.3970034,30.2734375,-42.96875,0.0,-37.59765625,0.0
1734581178.400908,41.015625,-42.48046875,0.0,27.83203125,0.0
1734581178.4048126,-0.9765625,-41.015625,0.0,91.30859375,0.0
1734581178.4087172,-41.50390625,-43.9453125,0.0,89.84375,0.0
1734581178.412622,-60.05859375,-52.24609375,0.0,37.59765625,0.0
1734581178.4165595,-26.3671875,-50.29296875,-17.08984375,-23.4375,0.0
1734581178.4204643,8.30078125,-46.38671875,-18.06640625,3.90625,0.0
1734581178.4243689,-10.7421875,-41.015625,-19.53125,71.77734375,0.0
1734581178.4282734,-37.59765625,-39.55078125,-12.20703125,84.9609375,0.0
1734581178.432178,-22.94921875,-43.45703125,-8.30078125,41.50390625,0.0
1734581178.4360828,-0.9765625,-41.015625,-7.8125,-15.625,0.0
1734581178.4399874,-6.34765625,-41.015625,-9.765625,-1.46484375,0.0
1734581178.443892,-14.6484375,-41.015625,-14.6484375,82.51953125,0.0
1734581178.4477968,-27.83203125,-42.48046875,-7.8125,102.05078125,0.0
1734581178.4517014,-40.52734375,-43.45703125,-0.9765625,67.87109375,0.0
1734581178.455606,-8.7890625,-39.55078125,4.39453125,-14.16015625,0.0
1734581178.4595106,21.97265625,-39.55078125,2.44140625,-37.109375,0.0
1734581178.4634492,9.765625,-42.96875,-5.859375,0.0,0.0
1734581178.4673538,-18.06640625,-40.0390625,-4.8828125,0.0,0.0
1734581178.4712586,-32.71484375,-41.015625,-1.953125,0.0,0.0
1734581178.4751632,-5.37109375,-45.41015625,-2.9296875,0.0,0.0
1734581178.4790678,15.625,-46.38671875,-6.8359375,0.0,0.0
1734581178.4829726,-17.578125,-50.29296875,-12.20703125,0.0,0.0
1734581178.4868772,-44.43359375,-54.6875,-9.765625,0.0,0.0
1734581178.4907818,-29.78515625,-50.78125,-6.8359375,0.0,0.0
1734581178.4946864,-5.37109375,-45.8984375,-5.859375,0.0,0.0
1734581178.4985912,22.94921875,-44.921875,-7.32421875,0.0,0.0
1734581178.5024958,3.41796875,-50.78125,-13.18359375,0.0,0.0
1734581178.5064003,-40.52734375,-48.33984375,-12.20703125,0.0,0.0
1734581178.5103323,-58.59375,-48.33984375,-12.20703125,43.45703125,0.0
1734581178.514237,-49.8046875,-55.17578125,-16.6015625,-15.13671875,0.0
1734581178.5181417,2.9296875,-54.6875,-20.5078125,-55.17578125,0.0
1734581178.5220463,3.41796875,-48.33984375,-21.97265625,1.46484375,0.0
1734581178.525951,-47.36328125,-50.78125,-21.97265625,53.7109375,0.0
1734581178.5298555,-53.22265625,-57.12890625,-23.92578125,47.36328125,0.0
1734581178.5337603,-14.16015625,-46.875,-19.53125,-1.46484375,0.0
1734581178.537665,22.94921875,-40.52734375,-11.71875,-51.26953125,0.0
1734581178.5415695,16.11328125,-42.96875,-11.23046875,6.34765625,0.0
1734581178.545474,-28.3203125,-43.9453125,-20.01953125,64.94140625,0.0
1734581178.5493789,-51.7578125,-47.36328125,-25.390625,36.62109375,0.0
1734581178.5532835,-44.43359375,-49.31640625,-24.4140625,-17.578125,0.0
1734581178.5572147,13.18359375,-42.48046875,-23.4375,-54.19921875,0.0
1734581178.5611193,12.20703125,-38.0859375,-25.87890625,-1.953125,0.0
1734581178.565024,-23.92578125,-41.015625,-25.390625,57.6171875,0.0
1734581178.5689287,-5.859375,-36.1328125,-19.04296875,43.45703125,0.0
1734581178.5728333,-13.671875,-36.1328125,-23.92578125,-3.90625,0.0
1734581178.5767379,4.39453125,-36.62109375,-27.83203125,-60.546875,0.0
1734581178.5806427,38.0859375,-33.203125,-25.390625,-32.2265625,0.0
1734581178.5845473,-0.48828125,-32.2265625,-24.4140625,62.5,0.0
1734581178.5884519,-31.25,-30.76171875,-25.87890625,70.3125,0.0
1734581178.5923564,-44.921875,-32.71484375,-29.296875,13.18359375,0.0
1734581178.5962613,-28.3203125,-28.80859375,-30.2734375,-41.9921875,0.0
1734581178.6001658,-6.8359375,-30.76171875,-25.390625,-29.78515625,0.0
1734581178.6040947,-40.0390625,-35.15625,0.0,0.0,0.0
1734581178.6079993,-49.8046875,-29.78515625,0.0,0.0,0.0
1734581178.6119041,-34.1796875,-32.71484375,0.0,0.0,0.0
1734581178.6158087,6.34765625,-38.0859375,0.0,0.0,0.0
1734581178.6197133,28.80859375,-37.109375,0.0,0.0,0.0
1734581178.623618,1.953125,-37.109375,0.0,0.0,0.0
1734581178.6275227,-51.7578125,-38.0859375,0.0,0.0,0.0
1734581178.6314273,-57.6171875,-36.1328125,0.0,0.0,0.0
1734581178.6353319,-1.953125,-31.73828125,0.0,0.0,0.0
1734581178.6392367,29.78515625,-34.66796875,0.0,0.0,0.0
1734581178.6431413,0.0,-32.2265625,0.0,0.0,0.0
1734581178.6470459,-35.64453125,-32.2265625,0.0,0.0,0.0
1734581178.6509187,-23.92578125,-33.203125,-19.53125,17.578125,0.0
1734581178.6548233,8.7890625,-34.1796875,-20.5078125,-43.45703125,0.0
1734581178.6587281,44.43359375,-29.296875,-20.99609375,-57.12890625,0.0
1734581178.6626327,37.109375,-28.80859375,-24.4140625,25.390625,0.0
1734581178.6665373,-5.859375,-31.73828125,-29.296875,67.3828125,0.0
1734581178.6704419,-43.45703125,-31.25,-24.4140625,55.17578125,0.0
1734581178.6743467,-36.1328125,-37.109375,-21.484375,7.8125,0.0
1734581178.6782513,-20.99609375,-38.0859375,-24.4140625,-29.296875,0.0
1734581178.6821558,-26.85546875,-33.203125,-23.4375,42.96875,0.0
1734581178.6860607,-32.2265625,-34.66796875,-27.34375,70.80078125,0.0
1734581178.6899652,-42.96875,-40.0390625,-35.64453125,38.0859375,0.0
1734581178.6938698,-18.5546875,-37.59765625,-34.1796875,-3.41796875,0.0
1734581178.6977935,33.203125,-27.34375,-21.484375,-53.7109375,0.0
1734581178.7016983,36.62109375,-25.87890625,-21.484375,-8.7890625,0.0
1734581178.705603,-11.23046875,-30.76171875,-19.53125,67.87109375,0.0
1734581178.7095075,-40.52734375,-32.2265625,-21.97265625,86.42578125,0.0
1734581178.713412,-19.04296875,-34.66796875,-19.53125,17.578125,0.0
1734581178.7173169,22.4609375,-29.78515625,-15.625,-54.19921875,0.0
1734581178.7212214,11.23046875,-31.25,-16.6015625,3.41796875,0.0
1734581178.725126,-38.57421875,-34.1796875,-10.7421875,67.3828125,0.0
1734581178.7290308,-48.33984375,-29.78515625,-7.32421875,54.19921875,0.0
1734581178.7329354,-21.97265625,-29.78515625,-14.16015625,-1.46484375,0.0
1734581178.73684,15.625,-28.80859375,-15.625,-54.19921875,0.0
1734581178.7407446,30.76171875,-29.78515625,-18.5546875,-23.4375,0.0
1734581178.7446856,0.0,-33.69140625,0.0,56.640625,0.0
1734581178.7485905,0.0,-32.2265625,0.0,79.58984375,0.0
1734581178.752495,0.0,-32.71484375,0.0,20.01953125,0.0
1734581178.7563996,0.0,-34.1796875,0.0,-39.0625,0.0
1734581178.7603042,0.0,-28.80859375,0.0,-12.6953125,0.0
1734581178.764209,0.0,-24.4140625,0.0,43.45703125,0.0
1734581178.7681136,0.0,-22.94921875,0.0,53.22265625,0.0
1734581178.7720182,0.0,-25.390625,0.0,17.578125,0.0
1734581178.775923,0.0,-32.2265625,0.0,-40.52734375,0.0
1734581178.7798276,0.0,-31.25,0.0,-11.71875,0.0
1734581178.7837322,0.0,-28.3203125,0.0,45.8984375,0.0
1734581178.7876368,0.0,-29.296875,0.0,42.96875,0.0
1734581178.7915938,-50.78125,-30.76171875,-20.01953125,27.34375,0.0
1734581178.7954984,-7.8125,-29.78515625,-26.85546875,-28.80859375,0.0
1734581178.799403,21.97265625,-28.80859375,-27.34375,-35.15625,0.0
1734581178.8033078,-7.8125,-30.76171875,-22.4609375,41.50390625,0.0
1734581178.8072124,-21.484375,-23.4375,-20.01953125,56.15234375,0.0
1734581178.811117,-31.25,-23.4375,-19.04296875,14.6484375,0.0
1734581178.8150218,-19.53125,-29.296875,-20.01953125,-36.1328125,0.0
1734581178.8189263,26.3671875,-31.73828125,-27.83203125,-54.19921875,0.0
1734581178.822831,9.27734375,-29.296875,-28.80859375,27.83203125,0.0
1734581178.8267355,-23.4375,-21.97265625,-22.94921875,84.9609375,0.0
1734581178.8306403,-33.69140625,-24.4140625,-19.53125,49.8046875,0.0
1734581178.834545,-20.99609375,-30.2734375,-21.97265625,-19.04296875,0.0
1734581178.83848,14.6484375,-27.34375,-22.94921875,-38.0859375,0.0
1734581178.8423848,0.0,-21.484375,-15.625,44.43359375,0.0
1734581178.8462894,-34.66796875,-24.90234375,-17.08984375,66.40625,0.0
1734581178.850194,-44.43359375,-32.2265625,-19.04296875,41.50390625,0.0
1734581178.8540986,-24.90234375,-33.203125,-24.4140625,-8.7890625,0.0
1734581178.8580034,23.92578125,-30.76171875,-28.80859375,-47.36328125,0.0
1734581178.861908,20.01953125,-30.2734375,-26.85546875,19.04296875,0.0
1734581178.8658125,-21.97265625,-33.69140625,-31.25,64.94140625,0.0
1734581178.8697174,-29.78515625,-36.62109375,-29.78515625,48.33984375,0.0
1734581178.873622,-17.578125,-36.1328125,-26.3671875,-0.9765625,0.0
1734581178.8775265,0.48828125,-34.66796875,-32.2265625,-63.96484375,0.0
1734581178.881431,0.48828125,-34.1796875,-34.1796875,-26.85546875,0.0
1734581178.8853645,-27.34375,-39.0625,-30.76171875,50.29296875,0.0
1734581178.889269,-44.921875,-41.015625,-26.3671875,50.78125,0.0
1734581178.893174,-27.34375,-38.0859375,-24.90234375,0.9765625,0.0
1734581178.8970785,16.11328125,-37.109375,-25.87890625,-48.33984375,0.0
1734581178.900983,3.41796875,-35.15625,-28.3203125,-19.04296875,0.0
1734581178.904888,-28.3203125,-35.15625,-29.78515625,63.96484375,0.0
1734581178.9087925,-31.25,-40.52734375,-29.78515625,66.40625,0.0
1734581178.912697,-28.80859375,-41.9921875,-29.296875,7.32421875,0.0
1734581178.916602,-12.6953125,-35.64453125,-24.90234375,-35.15625,0.0
1734581178.9205065,-7.8125,-40.52734375,-26.85546875,-26.85546875,0.0
1734581178.924411,-14.16015625,-46.875,-26.3671875,45.8984375,0.0
1734581178.9283156,-33.203125,-43.45703125,-21.97265625,62.98828125,0.0
1734581178.9322464,-27.83203125,-39.55078125,0.0,9.27734375,0.0
1734581178.9361513,12.6953125,-35.15625,0.0,-33.69140625,0.0
1734581178.9400558,17.08984375,-31.73828125,0.0,-18.5546875,0.0
1734581178.9439604,-3.90625,-34.1796875,0.0,43.9453125,0.0
1734581178.9478652,-20.01953125,-37.109375,0.0,47.8515625,0.0
1734581178.9517698,-37.59765625,-41.9921875,0.0,3.41796875,0.0
1734581178.9556744,-5.37109375,-45.8984375,0.0,-45.8984375,0.0
1734581178.9595792,32.71484375,-44.921875,0.0,-34.1796875,0.0
1734581178.9634838,9.765625,-44.43359375,0.0,60.05859375,0.0
1734581178.9673884,-21.484375,-44.43359375,0.0,65.91796875,0.0
1734581178.971293,-32.71484375,-44.43359375,0.0,21.97265625,0.0
1734581178.9751978,-7.32421875,-40.0390625,0.0,-25.87890625,0.0
1734581178.9791288,46.38671875,-34.66796875,-12.6953125,0.0,0.0
1734581178.9830334,35.15625,-38.57421875,-20.5078125,0.0,0.0
1734581178.986938,-26.3671875,-43.9453125,-28.3203125,0.0,0.0
1734581178.9908428,-36.1328125,-41.50390625,-27.83203125,0.0,0.0
1734581178.9947474,18.06640625,-36.1328125,-30.2734375,0.0,0.0
1734581178.998652,44.43359375,-25.390625,-27.34375,0.0,0.0
1734581179.0025566,15.625,-19.04296875,-24.4140625,0.0,0.0
1734581179.0064614,-45.41015625,-23.92578125,-23.92578125,0.0,0.0
1734581179.010366,-46.38671875,-25.87890625,-22.94921875,0.0,0.0
1734581179.0142705,-4.8828125,-20.5078125,-23.4375,0.0,0.0
1734581179.0181754,14.6484375,-12.6953125,-28.3203125,0.0,0.0
1734581179.02208,-5.859375,-13.18359375,-29.78515625,0.0,0.0
1734581179.0260103,-33.203125,-16.11328125,-25.87890625,14.16015625,0.0
1734581179.0299149,-50.78125,-20.5078125,-26.85546875,5.859375,0.0
1734581179.0338194,-41.9921875,-23.92578125,-31.73828125,-36.1328125,0.0
1734581179.0377243,6.8359375,-21.484375,-37.59765625,-71.77734375,0.0
1734581179.0416288,4.39453125,-24.4140625,-37.109375,-20.5078125,0.0
1734581179.0455334,-47.8515625,-31.73828125,-31.25,17.08984375,0.0
1734581179.0494382,-67.87109375,-34.66796875,-32.71484375,5.37109375,0.0
1734581179.0533428,-44.43359375,-27.83203125,-32.71484375,-35.64453125,0.0
1734581179.0572474,-21.484375,-24.90234375,-28.3203125,-71.77734375,0.0
1734581179.061152,-36.62109375,-23.4375,-27.83203125,-30.2734375,0.0
1734581179.0650568,-43.9453125,-25.87890625,-30.2734375,38.57421875,0.0
1734581179.0689614,-56.15234375,-27.83203125,-32.71484375,39.55078125,0.0
1734581179.0728843,-53.7109375,-26.3671875,-35.64453125,-30.76171875,0.0
1734581179.076789,-19.04296875,-35.15625,-37.59765625,-86.9140625,0.0
1734581179.0806937,-8.7890625,-35.15625,-33.69140625,-55.17578125,0.0
1734581179.0845983,-36.62109375,-29.78515625,-31.25,9.27734375,0.0
1734581179.088503,-62.98828125,-32.2265625,-35.15625,37.59765625,0.0
1734581179.0924077,-58.10546875,-31.73828125,-35.64453125,-0.9765625,0.0
1734581179.0963123,-21.484375,-30.76171875,-36.1328125,-70.3125,0.0
1734581179.1002169,-5.859375,-36.62109375,-34.66796875,-43.45703125,0.0
1734581179.1041217,-30.2734375,-34.66796875,-35.64453125,28.80859375,0.0
1734581179.1080263,-47.8515625,-36.62109375,-40.0390625,41.015625,0.0
1734581179.1119308,-48.828125,-44.921875,-39.55078125,8.30078125,0.0
1734581179.1158354,-27.83203125,-41.9921875,-33.69140625,-33.203125,0.0
1734581179.1197772,-24.90234375,-41.9921875,-28.80859375,-32.71484375,0.0
1734581179.1236818,-48.828125,-45.8984375,-32.71484375,10.25390625,0.0
1734581179.1275866,-53.22265625,-40.0390625,-35.64453125,31.73828125,0.0
1734581179.1314912,-68.84765625,-37.109375,-41.9921875,-4.8828125,0.0
1734581179.1353958,-28.80859375,-42.96875,-45.8984375,-62.5,0.0
1734581179.1393006,20.99609375,-44.921875,-42.96875,-62.01171875,0.0
1734581179.1432052,-17.08984375,-44.921875,-37.109375,7.32421875,0.0
1734581179.1471097,-72.75390625,-40.52734375,-31.25,49.31640625,0.0
1734581179.1510146,-71.77734375,-39.0625,-33.203125,31.25,0.0
1734581179.1549191,-28.80859375,-39.0625,-34.1796875,-42.96875,0.0
1734581179.1588237,6.34765625,-38.57421875,-37.59765625,-64.94140625,0.0
1734581179.1627283,-1.46484375,-42.96875,-34.66796875,12.6953125,0.0
1734581179.1666687,0.0,-42.48046875,-34.1796875,0.0,0.0
1734581179.1705732,0.0,-40.0390625,-35.64453125,0.0,0.0
1734581179.1744778,0.0,-41.015625,-30.2734375,0.0,0.0
1734581179.1783826,0.0,-41.015625,-32.2265625,0.0,0.0
1734581179.1822872,0.0,-42.48046875,-31.25,0.0,0.0
1734581179.1861918,0.0,-41.9921875,-24.4140625,0.0,0.0
1734581179.1900966,0.0,-37.59765625,-18.06640625,0.0,0.0
1734581179.1940012,0.0,-39.0625,-21.484375,0.0,0.0
1734581179.1979058,0.0,-39.0625,-29.78515625,0.0,0.0
1734581179.2018106,0.0,-40.0390625,-36.62109375,0.0,0.0
1734581179.2057152,0.0,-46.875,-37.109375,0.0,0.0
1734581179.2096198,0.0,-45.41015625,-33.69140625,0.0,0.0
1734581179.2135584,-51.7578125,-41.9921875,-36.1328125,-3.90625,0.0
1734581179.217463,-10.7421875,-37.59765625,-38.0859375,-44.43359375,0.0
1734581179.2213678,15.13671875,-28.80859375,-35.15625,6.34765625,0.0
1734581179.2252724,-26.85546875,-30.76171875,-35.15625,72.265625,0.0
1734581179.229177,-53.7109375,-32.71484375,-35.15625,62.5,0.0
1734581179.2330816,-20.01953125,-31.25,-32.2265625,10.25390625,0.0
1734581179.2369864,32.71484375,-31.73828125,-27.34375,-24.90234375,0.0
1734581179.240891,13.671875,-36.62109375,-30.2734375,8.7890625,0.0
1734581179.2447956,-44.43359375,-43.9453125,-35.15625,73.2421875,0.0
1734581179.2487004,-70.80078125,-42.96875,-31.73828125,64.94140625,0.0
1734581179.252605,-55.17578125,-37.59765625,-32.2265625,0.48828125,0.0
1734581179.2565095,-4.39453125,-36.1328125,-33.203125,-40.52734375,0.0
1734581179.2604463,0.0,-37.59765625,0.0,0.0,0.0
1734581179.264351,0.0,-39.0625,0.0,0.0,0.0
1734581179.2682555,0.0,-41.015625,0.0,0.0,0.0
1734581179.2721603,0.0,-46.875,0.0,0.0,0.0
1734581179.2760649,0.0,-47.36328125,0.0,0.0,0.0
1734581179.2799695,0.0,-45.8984375,0.0,0.0,0.0
1734581179.2838743,0.0,-46.38671875,0.0,0.0,0.0
1734581179.2877789,0.0,-44.921875,0.0,0.0,0.0
1734581179.2916834,0.0,-44.921875,0.0,0.0,0.0
1734581179.295588,0.0,-41.015625,0.0,0.0,0.0
1734581179.2994928,0.0,-32.2265625,0.0,0.0,0.0
1734581179.3033974,0.0,-24.90234375,0.0,0.0,0.0
1734581179.30733,-17.08984375,-28.80859375,-42.96875,62.01171875,0.0
1734581179.3112345,-23.92578125,-32.2265625,-41.50390625,27.34375,0.0
1734581179.315139,24.4140625,-32.71484375,-41.015625,-40.52734375,0.0
1734581179.3190439,42.96875,-31.25,-43.45703125,-36.1328125,0.0
1734581179.3229485,-8.30078125,-35.15625,-40.52734375,60.546875,0.0
1734581179.326853,-27.34375,-41.015625,-44.43359375,80.078125,0.0
1734581179.3307579,-41.9921875,-31.73828125,-43.9453125,43.45703125,0.0
1734581179.3346624,-31.73828125,-31.25,-39.55078125,-5.37109375,0.0
1734581179.338567,13.671875,-31.25,-41.015625,-26.85546875,0.0
1734581179.3424716,11.23046875,-24.90234375,-45.41015625,31.73828125,0.0
1734581179.3463764,-4.39453125,-31.25,-46.875,51.7578125,0.0
1734581179.350281,-31.73828125,-39.55078125,-39.55078125,34.66796875,0.0
1734581179.3542101,-16.11328125,-39.0625,0.0,-0.9765625,0.0
1734581179.358115,27.34375,-37.59765625,0.0,-46.875,0.0
1734581179.3620195,10.25390625,-37.109375,0.0,-4.39453125,0.0
1734581179.3659241,-17.08984375,-36.62109375,0.0,45.8984375,0.0
1734581179.369829,-35.64453125,-38.0859375,0.0,30.2734375,0.0
1734581179.3737335,-16.6015625,-35.15625,0.0,-24.90234375,0.0
1734581179.377638,29.296875,-32.71484375,0.0,-60.05859375,0.0
1734581179.381543,24.90234375,-37.109375,0.0,10.7421875,0.0
1734581179.3854475,-10.25390625,-35.64453125,0.0,52.734375,0.0
1734581179.389352,-33.69140625,-34.1796875,0.0,23.92578125,0.0
1734581179.393257,-24.4140625,-35.15625,0.0,-33.203125,0.0
1734581179.3971615,2.44140625,-35.15625,0.0,-81.0546875,0.0
1734581179.4010892,4.8828125,-35.64453125,-46.38671875,-21.484375,0.0
1734581179.4049938,-13.671875,-34.66796875,-42.96875,40.52734375,0.0
1734581179.4088986,-28.3203125,-34.1796875,-44.921875,40.0390625,0.0
1734581179.4128032,-31.73828125,-36.62109375,-45.8984375,2.44140625,0.0
1734581179.4167078,-7.32421875,-34.66796875,-46.875,-67.87109375,0.0
1734581179.4206123,12.6953125,-31.73828125,-46.875,-45.8984375,0.0
1734581179.4245172,-12.6953125,-35.15625,-43.9453125,51.26953125,0.0
1734581179.4284217,-43.45703125,-44.43359375,-47.8515625,63.96484375,0.0
1734581179.4323263,-46.38671875,-44.921875,-48.828125,2.44140625,0.0
1734581179.4362311,3.41796875,-42.48046875,-43.45703125,-62.5,0.0
1734581179.4401357,31.25,-40.52734375,-43.45703125,-28.80859375,0.0
1734581179.4440403,-7.32421875,-37.109375,-46.38671875,46.875,0.0
1734581179.4479635,-35.15625,-37.59765625,-42.96875,34.66796875,0.0
1734581179.451868,-21.97265625,-35.64453125,-38.57421875,-14.6484375,0.0
1734581179.4557729,28.80859375,-35.64453125,-31.73828125,-63.96484375,0.0
1734581179.4596775,24.4140625,-40.52734375,-27.83203125,-29.296875,0.0
1734581179.463582,-11.71875,-35.15625,-29.296875,46.875,0.0
1734581179.4674866,-41.9921875,-33.203125,-31.73828125,55.17578125,0.0
1734581179.4713914,-54.6875,-37.59765625,-36.62109375,7.32421875,0.0
1734581179.475296,-8.30078125,-32.2265625,-41.50390625,-58.10546875,0.0
1734581179.4792006,33.69140625,-32.2265625,-39.55078125,-41.50390625,0.0
1734581179.4831054,7.8125,-41.9921875,-27.34375,41.9921875,0.0
1734581179.48701,-39.55078125,-45.41015625,-21.484375,50.78125,0.0
1734581179.4909146,-44.43359375,-45.8984375,-29.296875,20.5078125,0.0
1734581179.4948456,0.0,-41.015625,-27.34375,-36.1328125,0.0
1734581179.4987504,0.0,-43.45703125,-20.01953125,-41.015625,0.0
1734581179.502655,0.0,-55.17578125,-21.484375,14.6484375,0.0
1734581179.5065596,0.0,-58.10546875,-23.4375,33.203125,0.0
1734581179.5104644,0.0,-51.7578125,-21.97265625,30.76171875,0.0
1734581179.514369,0.0,-44.921875,-22.94921875,-25.390625,0.0
1734581179.5182736,0.0,-51.7578125,-22.94921875,-55.6640625,0.0
1734581179.5221784,0.0,-51.7578125,-16.6015625,16.11328125,0.0
1734581179.526083,0.0,-41.015625,-15.625,58.10546875,0.0
1734581179.5299876,0.0,-37.109375,-15.13671875,52.24609375,0.0
1734581179.5338922,0.0,-40.52734375,-16.11328125,-2.44140625,0.0
1734581179.537797,0.0,-44.921875,-20.01953125,-52.24609375,0.0
1734581179.541736,7.32421875,-42.48046875,-16.6015625,25.87890625,0.0
1734581179.5456407,-44.43359375,-39.0625,-19.53125,83.49609375,0.0
1734581179.5495453,-69.82421875,-41.9921875,-20.5078125,63.96484375,0.0
1734581179.5534499,-37.109375,-44.43359375,-20.01953125,11.23046875,0.0
1734581179.5573547,-6.34765625,-46.38671875,-29.296875,-41.9921875,0.0
1734581179.5612593,-10.25390625,-40.52734375,-29.296875,13.18359375,0.0
1734581179.5651639,-38.0859375,-36.62109375,-31.25,87.40234375,0.0
1734581179.5690687,-52.24609375,-40.52734375,-36.1328125,62.01171875,0.0
1734581179.5729733,-30.2734375,-36.1328125,-34.66796875,-4.39453125,0.0
1734581179.5768778,-3.41796875,-33.69140625,-32.2265625,-33.69140625,0.0
1734581179.5807827,21.97265625,-37.59765625,-31.73828125,10.25390625,0.0
1734581179.5846872,-5.859375,-40.0390625,-30.76171875,72.75390625,0.0
1734581179.5886252,-41.015625,-46.875,0.0,80.56640625,0.0
1734581179.59253,-44.43359375,-47.36328125,0.0,28.3203125,0.0
1734581179.5964346,-16.11328125,-44.43359375,0.0,-28.3203125,0.0
1734581179.6003392,14.6484375,-37.59765625,0.0,9.27734375,0.0
1734581179.604244,-13.18359375,-38.57421875,0.0,71.2890625,0.0
1734581179.6081486,-39.0625,-45.8984375,0.0,83.49609375,0.0
1734581179.6120532,-49.31640625,-42.48046875,0.0,63.96484375,0.0
1734581179.615958,-20.99609375,-39.55078125,0.0,1.953125,0.0
1734581179.6198626,-3.41796875,-42.48046875,0.0,-8.7890625,0.0
1734581179.6237671,-20.01953125,-41.50390625,0.0,73.2421875,0.0
1734581179.627672,-26.3671875,-36.1328125,0.0,105.46875,0.0
1734581179.6315765,-6.34765625,-34.1796875,0.0,70.3125,0.0
1734581179.6355107,29.78515625,-37.109375,-36.1328125,-7.32421875,0.0
1734581179.6394153,26.3671875,-40.0390625,-38.57421875,-13.671875,0.0
1734581179.64332,-5.37109375,-37.109375,-38.0859375,78.61328125,0.0
1734581179.6472247,-29.78515625,-33.203125,-35.15625,101.5625,0.0
1734581179.6511292,-31.25,-35.15625,-34.1796875,40.0390625,0.0
1734581179.655034,20.5078125,-40.0390625,-35.15625,-29.78515625,0.0
1734581179.6589386,49.31640625,-43.9453125,-34.1796875,-28.80859375,0.0
1734581179.6628432,20.99609375,-39.0625,-32.2265625,52.24609375,0.0
1734581179.666748,-7.8125,-39.0625,-29.296875,90.8203125,0.0
1734581179.6706526,-9.27734375,-43.9453125,-31.73828125,62.5,0.0
1734581179.6745572,42.48046875,-41.015625,-35.64453125,-2.44140625,0.0
1734581179.678462,67.3828125,-43.9453125,-43.45703125,-28.80859375,0.0
1734581179.6823957,54.6875,-46.38671875,-44.43359375,59.08203125,0.0
1734581179.6863003,19.04296875,-45.8984375,-33.203125,88.37890625,0.0
1734581179.690205,-3.90625,-45.41015625,-27.34375,40.52734375,0.0
1734581179.6941097,28.3203125,-37.109375,-32.71484375,-22.94921875,0.0
1734581179.6980143,47.8515625,-36.62109375,-31.25,-48.33984375,0.0
1734581179.701919,44.921875,-38.57421875,-29.78515625,40.52734375,0.0
1734581179.7058237,26.85546875,-32.71484375,-31.25,94.23828125,0.0
1734581179.7097282,-12.6953125,-34.1796875,-33.69140625,69.3359375,0.0
1734581179.713633,-27.83203125,-42.96875,-36.62109375,-8.7890625,0.0
1734581179.7175376,9.765625,-43.9453125,-37.59765625,-68.359375,0.0
1734581179.7214422,19.53125,-42.48046875,-35.64453125,-13.671875,0.0
1734581179.725347,-20.5078125,-45.41015625,-35.64453125,58.10546875,0.0
1734581179.7292783,-37.59765625,-41.015625,-34.1796875,52.734375,0.0
1734581179.733183,-10.7421875,-37.59765625,-36.62109375,-10.7421875,0.0
1734581179.7370875,30.2734375,-38.57421875,-41.015625,-43.45703125,0.0
1734581179.7409923,23.4375,-32.71484375,-38.57421875,-0.48828125,0.0
1734581179.744897,-7.32421875,-32.2265625,-38.0859375,45.41015625,0.0
1734581179.7488015,-22.4609375,-33.203125,-32.71484375,43.45703125,0.0
1734581179.7527063,-15.625,-35.64453125,-32.71484375,-10.25390625,0.0
1734581179.7566109,14.16015625,-39.55078125,-35.15625,-64.94140625,0.0
1734581179.7605155,25.87890625,-41.9921875,-36.1328125,-40.52734375,0.0
1734581179.7644203,6.8359375,-41.50390625,-38.0859375,18.5546875,0.0
1734581179.7683249,-24.90234375,-41.50390625,-34.1796875,26.85546875,0.0
1734581179.7722294,-24.4140625,-40.0390625,-33.203125,-9.27734375,0.0
1734581179.776159,23.4375,-36.62109375,-37.59765625,-61.5234375,0.0
1734581179.7800639,26.85546875,-37.59765625,-37.109375,-34.1796875,0.0
1734581179.7839684,6.8359375,-34.66796875,-30.76171875,45.8984375,0.0
1734581179.787873,-17.578125,-37.109375,-31.25,53.7109375,0.0
1734581179.7917778,-38.57421875,-43.45703125,-37.59765625,-10.7421875,0.0
1734581179.7956824,-27.34375,-39.0625,-36.62109375,-50.78125,0.0
1734581179.799587,-18.5546875,-38.0859375,-34.1796875,-4.8828125,0.0
1734581179.8034918,-26.85546875,-37.59765625,-34.1796875,45.8984375,0.0
1734581179.8073964,-49.31640625,-36.62109375,-35.64453125,39.0625,0.0
1734581179.811301,-39.55078125,-37.109375,-33.69140625,15.13671875,0.0
1734581179.8152058,-9.765625,-34.66796875,-28.80859375,-10.7421875,0.0
1734581179.8191104,12.20703125,-32.71484375,-31.73828125,-28.3203125,0.0
1734581179.823035,-0.48828125,-37.59765625,-32.71484375,9.765625,0.0
1734581179.8269396,-36.1328125,-46.875,-35.15625,51.7578125,0.0
1734581179.8308444,-44.921875,-42.96875,-40.0390625,20.5078125,0.0
1734581179.834749,-0.48828125,-35.15625,-39.0625,-35.15625,0.0
1734581179.8386536,33.69140625,-34.66796875,-32.2265625,-27.34375,0.0
1734581179.8425584,2.9296875,-31.73828125,-30.2734375,59.08203125,0.0
1734581179.846463,-26.3671875,-29.296875,-33.69140625,104.4921875,0.0
1734581179.8503675,-44.921875,-29.296875,-31.73828125,48.33984375,0.0
1734581179.8542724,-10.7421875,-31.25,-34.1796875,-20.99609375,0.0
1734581179.858177,46.875,-35.15625,-35.15625,-40.0390625,0.0
1734581179.8620815,17.08984375,-36.62109375,-33.203125,18.5546875,0.0
1734581179.8659863,-12.20703125,-38.0859375,-37.109375,64.453125,0.0
1734581179.8699071,-8.7890625,-40.52734375,-39.55078125,34.1796875,0.0
1734581179.8738117,2.44140625,-41.9921875,-41.50390625,-41.50390625,0.0
1734581179.8777163,23.4375,-37.59765625,-42.96875,-67.87109375,0.0
1734581179.8816211,21.97265625,-34.66796875,-43.45703125,11.23046875,0.0
1734581179.8855257,-20.01953125,-34.1796875,-44.43359375,49.31640625,0.0
1734581179.8894303,-29.296875,-30.2734375,-38.57421875,55.17578125,0.0
1734581179.893335,8.30078125,-29.78515625,-36.62109375,20.5078125,0.0
1734581179.8972397,39.55078125,-31.25,-34.1796875,-44.43359375,0.0
1734581179.9011443,27.83203125,-33.203125,-34.66796875,6.8359375,0.0
1734581179.905049,-25.390625,-30.76171875,-31.73828125,71.2890625,0.0
1734581179.9089537,-79.58984375,-29.78515625,-24.90234375,68.84765625,0.0
1734581179.9128582,-47.8515625,-33.203125,-33.69140625,17.578125,0.0
1734581179.916796,11.23046875,-30.2734375,-33.69140625,-47.36328125,0.0
1734581179.9207006,4.8828125,-31.25,-29.78515625,-9.27734375,0.0
1734581179.9246054,-16.6015625,-33.69140625,-32.71484375,64.94140625,0.0
1734581179.92851,-15.625,-34.66796875,-29.78515625,69.82421875,0.0
1734581179.9324145,-24.90234375,-42.96875,-26.3671875,20.01953125,0.0
1734581179.9363194,3.41796875,-43.45703125,-27.83203125,-50.78125,0.0
1734581179.940224,37.59765625,-32.71484375,-27.34375,-43.45703125,0.0
1734581179.9441285,11.71875,-30.2734375,-27.83203125,52.24609375,0.0
1734581179.9480333,-16.11328125,-32.71484375,-30.2734375,78.125,0.0
1734581179.951938,-15.13671875,-30.76171875,-34.66796875,14.6484375,0.0
1734581179.9558425,22.4609375,-28.80859375,-35.64453125,-43.45703125,0.0
1734581179.9597473,57.6171875,-29.296875,-31.25,-36.62109375,0.0
1734581179.9636874,0.0,-30.76171875,-28.3203125,35.64453125,0.0
1734581179.967592,0.0,-31.73828125,-31.73828125,68.84765625,0.0
1734581179.9714966,0.0,-26.85546875,-31.73828125,19.53125,0.0
1734581179.9754014,0.0,-20.5078125,-29.78515625,-53.7109375,0.0
1734581179.979306,0.0,-23.92578125,-31.73828125,-39.0625,0.0
1734581179.9832108,0.0,-23.92578125,-31.25,34.1796875,0.0
1734581179.9871154,0.0,-23.92578125,-31.25,68.359375,0.0
1734581179.99102,0.0,-27.83203125,-33.203125,21.97265625,0.0
1734581179.9949248,0.0,-32.2265625,-31.25,-48.33984375,0.0
1734581179.9988294,0.0,-29.296875,-32.71484375,-35.64453125,0.0
1734581180.002734,0.0,-20.99609375,-30.76171875,17.578125,0.0
1734581180.0066388,0.0,-23.4375,-21.97265625,56.640625,0.0
1734581180.0105722,-54.6875,-26.85546875,-21.484375,37.109375,0.0
1734581180.0144768,-12.20703125,-23.92578125,-24.4140625,-37.59765625,0.0
1734581180.0183814,38.57421875,-18.5546875,-20.01953125,-25.87890625,0.0
1734581180.0222862,10.25390625,-20.5078125,-17.08984375,55.17578125,0.0
1734581180.0261908,-27.34375,-25.390625,-22.4609375,56.15234375,0.0
1734581180.0300953,-39.0625,-24.90234375,-24.90234375,11.71875,0.0
1734581180.0340002,-27.34375,-28.3203125,-27.34375,-32.71484375,0.0
1734581180.0379047,4.8828125,-31.73828125,-28.80859375,-48.33984375,0.0
1734581180.0418093,5.37109375,-25.87890625,-29.78515625,17.578125,0.0
1734581180.0457141,-22.4609375,-20.5078125,-32.71484375,61.03515625,0.0
1734581180.0496187,-34.66796875,-17.578125,-28.80859375,49.31640625,0.0
1734581180.0535233,-0.9765625,-15.13671875,-26.3671875,-3.41796875,0.0
1734581180.0574534,21.484375,-14.16015625,-30.76171875,-27.34375,0.0
1734581180.061358,-7.8125,-11.71875,-30.2734375,19.04296875,0.0
1734581180.0652628,-29.296875,-8.7890625,-30.76171875,56.640625,0.0
1734581180.0691674,-36.1328125,-9.27734375,-28.3203125,45.41015625,0.0
1734581180.073072,-27.83203125,-10.25390625,-26.3671875,-4.8828125,0.0
1734581180.0769768,29.78515625,-9.765625,-30.2734375,-39.55078125,0.0
1734581180.0808814,22.94921875,-10.7421875,-30.2734375,1.46484375,0.0
1734581180.084786,-27.34375,-11.71875,-31.73828125,63.4765625,0.0
1734581180.0886908,-58.10546875,-19.04296875,-39.0625,65.4296875,0.0
1734581180.0925953,-59.08203125,-22.4609375,-42.96875,-4.8828125,0.0
1734581180.0965002,-15.625,-27.34375,-38.0859375,-57.6171875,0.0
1734581180.1004047,-1.46484375,-30.2734375,-34.1796875,-9.27734375,0.0
1734581180.1043344,-20.5078125,-21.484375,-39.55078125,53.7109375,0.0
1734581180.108239,-34.66796875,-21.484375,-41.50390625,69.3359375,0.0
1734581180.1121438,-45.41015625,-28.80859375,-36.1328125,0.0,0.0
1734581180.1160483,-18.06640625,-26.3671875,-38.0859375,-75.1953125,0.0
1734581180.119953,27.83203125,-25.390625,-35.64453125,-34.1796875,0.0
1734581180.1238577,-7.32421875,-23.4375,-35.15625,47.8515625,0.0
1734581180.1277623,-23.92578125,-21.97265625,-37.109375,44.43359375,0.0
1734581180.131667,-24.90234375,-22.94921875,-32.2265625,4.39453125,0.0
1734581180.1355717,-12.6953125,-16.11328125,-26.3671875,-58.59375,0.0
1734581180.1394763,21.484375,-11.23046875,-26.85546875,-56.640625,0.0
1734581180.1433809,-13.671875,-20.01953125,-26.3671875,22.4609375,0.0
1734581180.1472857,-80.56640625,-26.3671875,-25.390625,29.78515625,0.0
1734581180.1512117,-76.66015625,-23.92578125,0.0,1.953125,0.0
1734581180.1551166,-9.27734375,-21.484375,0.0,-41.50390625,0.0
1734581180.1590211,-0.9765625,-20.5078125,0.0,-49.31640625,0.0
1734581180.162926,-21.484375,-17.08984375,0.0,37.59765625,0.0
1734581180.1668305,-31.73828125,-13.18359375,0.0,43.45703125,0.0
1734581180.1707351,-39.0625,-16.11328125,0.0,25.390625,0.0
1734581180.17464,-32.71484375,-19.04296875,0.0,-9.27734375,0.0
1734581180.1785445,-1.953125,-21.484375,0.0,-52.24609375,0.0
1734581180.182449,-8.7890625,-20.5078125,0.0,14.16015625,0.0
1734581180.186354,-52.734375,-20.01953125,0.0,57.12890625,0.0
1734581180.1902585,-35.15625,-16.6015625,0.0,27.34375,0.0
1734581180.194163,-33.69140625,-11.71875,0.0,-31.25,0.0
1734581180.1980858,-9.765625,-16.6015625,-21.97265625,-39.55078125,0.0
1734581180.2019904,5.859375,-18.5546875,-24.90234375,26.85546875,0.0
1734581180.2058952,-6.8359375,-22.4609375,-26.3671875,63.96484375,0.0
1734581180.2097998,-24.90234375,-21.97265625,-24.90234375,51.26953125,0.0
1734581180.2137043,-31.25,-20.5078125,-25.87890625,-25.87890625,0.0
1734581180.2176092,2.9296875,-24.4140625,-28.3203125,-81.0546875,0.0
1734581180.2215137,4.39453125,-25.390625,-30.76171875,12.20703125,0.0
1734581180.2254183,-41.9921875,-30.2734375,-21.97265625,61.5234375,0.0
1734581180.2293231,-53.7109375,-34.66796875,-18.5546875,36.62109375,0.0
1734581180.2332277,-30.2734375,-37.109375,-23.4375,-18.5546875,0.0
1734581180.2371325,-3.90625,-40.52734375,-26.3671875,-75.68359375,0.0
1734581180.2410371,11.71875,-40.0390625,-34.66796875,-5.37109375,0.0
1734581180.2449827,0.0,-40.52734375,-39.55078125,55.6640625,0.0
1734581180.2488875,0.0,-41.9921875,-39.55078125,41.50390625,0.0
1734581180.2527921,0.0,-41.50390625,-36.62109375,11.71875,0.0
1734581180.2566967,0.0,-41.015625,-36.62109375,-59.5703125,0.0
1734581180.2606015,0.0,-41.9921875,-32.2265625,-39.55078125,0.0
1734581180.264506,0.0,-42.96875,-25.87890625,64.94140625,0.0
1734581180.268411,0.0,-34.66796875,-27.34375,72.75390625,0.0
1734581180.2723155,0.0,-28.80859375,-22.94921875,13.18359375,0.0
1734581180.27622,0.0,-33.203125,-21.97265625,-49.8046875,0.0
1734581180.280125,0.0,-34.1796875,-28.3203125,-12.6953125,0.0
1734581180.2840295,0.0,-35.15625,-25.390625,56.640625,0.0
1734581180.287934,0.0,-38.0859375,-23.92578125,40.0390625,0.0
1734581180.2918212,-17.08984375,-38.0859375,-27.34375,0.0,0.0
1734581180.2957258,-55.17578125,-34.66796875,-28.3203125,0.0,0.0
1734581180.2996304,-20.01953125,-35.15625,-30.76171875,0.0,0.0
1734581180.3035352,27.83203125,-37.109375,-29.78515625,0.0,0.0
1734581180.3074398,18.06640625,-40.52734375,-21.97265625,0.0,0.0
1734581180.3113444,-16.6015625,-43.45703125,-18.06640625,0.0,0.0
1734581180.3152492,-43.9453125,-41.50390625,-24.4140625,0.0,0.0
1734581180.3191538,-13.671875,-36.1328125,-25.87890625,0.0,0.0
1734581180.3230586,25.87890625,-35.64453125,-17.08984375,0.0,0.0
1734581180.3269632,29.296875,-37.59765625,-7.8125,0.0,0.0
1734581180.3308678,1.953125,-34.66796875,-8.30078125,0.0,0.0
1734581180.3347726,-23.92578125,-35.15625,-14.6484375,0.0,0.0
1734581180.3387082,13.671875,-38.0859375,-14.6484375,-41.9921875,0.0
1734581180.3426127,-20.5078125,-38.0859375,-16.11328125,21.97265625,0.0
1734581180.3465176,-36.1328125,-36.1328125,-23.92578125,61.03515625,0.0
1734581180.3504221,-50.78125,-37.109375,-25.87890625,38.0859375,0.0
1734581180.3543267,-30.2734375,-37.59765625,-26.85546875,-20.99609375,0.0
1734581180.3582315,14.16015625,-38.0859375,-30.2734375,-31.73828125,0.0
1734581180.3621361,-8.30078125,-38.0859375,-32.71484375,39.0625,0.0
1734581180.3660407,-53.7109375,-38.57421875,-35.15625,69.82421875,0.0
1734581180.3699455,-37.109375,-43.45703125,-34.1796875,39.55078125,0.0
1734581180.37385,-18.06640625,-41.50390625,-32.71484375,-20.5078125,0.0
1734581180.3777547,6.34765625,-36.1328125,-34.1796875,-62.98828125,0.0
1734581180.3816595,9.27734375,-39.0625,-36.62109375,12.6953125,0.0
1734581180.3856134,-20.01953125,-40.0390625,-41.50390625,68.359375,0.0
1734581180.389518,-21.97265625,-33.69140625,-44.921875,33.203125,0.0
1734581180.3934228,2.9296875,-31.73828125,-41.50390625,-18.06640625,0.0
1734581180.3973274,23.4375,-29.78515625,-43.9453125,-50.78125,0.0
1734581180.401232,5.37109375,-32.2265625,-46.875,22.94921875,0.0
1734581180.4051368,-38.57421875,-38.57421875,-42.48046875,79.1015625,0.0
1734581180.4090414,-71.77734375,-38.0859375,-42.96875,56.640625,0.0
1734581180.4129462,-51.26953125,-39.0625,-44.921875,3.41796875,0.0
1734581180.4168508,1.953125,-39.0625,-43.45703125,-36.1328125,0.0
1734581180.4207554,7.32421875,-33.69140625,-43.45703125,1.46484375,0.0
1734581180.4246602,-28.3203125,-35.64453125,-41.50390625,54.19921875,0.0
1734581180.4285648,-24.4140625,-40.0390625,-35.15625,55.6640625,0.0
1734581180.4324973,0.0,-36.62109375,-32.2265625,34.1796875,0.0
1734581180.4364018,0.0,-32.71484375,-33.69140625,-0.9765625,0.0
1734581180.4403064,0.0,-32.71484375,-32.2265625,-6.34765625,0.0
1734581180.4442112,0.0,-35.15625,-29.78515625,43.9453125,0.0
1734581180.4481158,0.0,-36.1328125,-27.34375,75.1953125,0.0
1734581180.4520204,0.0,-34.1796875,-27.34375,9.27734375,0.0
1734581180.4559252,0.0,-28.3203125,-27.34375,-55.6640625,0.0
1734581180.4598298,0.0,-33.203125,-30.76171875,-11.71875,0.0
1734581180.4637346,0.0,-37.59765625,-30.2734375,64.453125,0.0
1734581180.4676392,0.0,-31.25,-25.87890625,69.3359375,0.0
1734581180.4715438,0.0,-29.78515625,-30.2734375,35.15625,0.0
1734581180.4754486,0.0,-29.296875,-37.109375,3.41796875,0.0
1734581180.4793224,-5.37109375,-30.2734375,0.0,-4.39453125,0.0
1734581180.483227,20.5078125,-32.2265625,0.0,52.734375,0.0
1734581180.4871316,21.97265625,-37.109375,0.0,72.265625,0.0
1734581180.4910364,-14.6484375,-43.45703125,0.0,20.01953125,0.0
1734581180.494941,-44.43359375,-38.0859375,0.0,-36.1328125,0.0
1734581180.4988458,-47.36328125,-37.109375,0.0,-8.30078125,0.0
1734581180.5027504,7.8125,-36.62109375,0.0,86.9140625,0.0
1734581180.506655,31.25,-28.80859375,0.0,112.3046875,0.0
1734581180.5105598,0.9765625,-20.5078125,0.0,68.359375,0.0
1734581180.5144644,-30.2734375,-22.4609375,0.0,-0.48828125,0.0
1734581180.518369,-18.06640625,-28.3203125,0.0,-13.18359375,0.0
1734581180.5222738,6.8359375,-26.85546875,0.0,54.6875,0.0
1734581180.526201,-7.8125,-26.3671875,-28.3203125,89.35546875,0.0
1734581180.5301058,-2.44140625,-24.90234375,-32.2265625,66.89453125,0.0
1734581180.5340104,29.296875,-22.94921875,-33.203125,-0.48828125,0.0
1734581180.5379152,39.0625,-28.3203125,-37.59765625,-27.34375,0.0
1734581180.5418198,1.46484375,-38.57421875,-43.9453125,47.36328125,0.0
1734581180.5457244,-18.06640625,-39.0625,-37.109375,79.1015625,0.0
1734581180.5496292,-12.6953125,-31.25,-30.76171875,68.359375,0.0
1734581180.5535338,14.16015625,-36.1328125,-34.66796875,17.08984375,0.0
1734581180.5574384,44.921875,-39.0625,-43.45703125,-40.0390625,0.0
1734581180.5613432,11.23046875,-27.34375,-48.828125,25.87890625,0.0
1734581180.5652478,-49.31640625,-29.296875,-52.24609375,82.03125,0.0
1734581180.5691524,-54.19921875,-36.62109375,-57.12890625,52.734375,0.0
1734581180.5730762,-11.71875,-31.25,-53.22265625,-2.9296875,0.0
1734581180.5769808,37.59765625,-27.34375,-48.828125,-32.71484375,0.0
1734581180.5808856,19.53125,-33.69140625,-52.24609375,25.87890625,0.0
1734581180.5847902,-10.25390625,-37.59765625,-55.17578125,94.7265625,0.0
1734581180.5886948,-17.08984375,-36.1328125,-58.10546875,88.8671875,0.0
1734581180.5925996,-2.44140625,-35.15625,-63.4765625,25.390625,0.0
1734581180.5965042,28.3203125,-35.64453125,-69.3359375,-32.71484375,0.0
1734581180.600409,13.671875,-33.203125,-66.40625,-10.25390625,0.0
1734581180.6043136,-5.37109375,-33.203125,-60.546875,64.453125,0.0
1734581180.6082182,-3.41796875,-35.64453125,-53.22265625,70.80078125,0.0
1734581180.612123,17.08984375,-32.71484375,-38.57421875,13.18359375,0.0
1734581180.6160276,53.22265625,-28.3203125,-30.2734375,-36.62109375,0.0
1734581180.6199703,61.5234375,-27.83203125,0.0,9.27734375,0.0
1734581180.623875,22.94921875,-28.3203125,0.0,77.63671875,0.0
1734581180.6277797,-17.578125,-28.3203125,0.0,81.0546875,0.0
1734581180.6316843,-20.99609375,-35.64453125,0.0,26.3671875,0.0
1734581180.635589,11.71875,-38.57421875,0.0,-41.015625,0.0
1734581180.6394937,15.625,-36.62109375,0.0,-2.44140625,0.0
1734581180.6433983,11.71875,-32.71484375,0.0,67.87109375,0.0
1734581180.6473029,-0.9765625,-29.296875,0.0,78.61328125,0.0
1734581180.6512077,-21.484375,-32.2265625,0.0,48.33984375,0.0
1734581180.6551123,15.13671875,-39.55078125,0.0,0.0,0.0
1734581180.659017,45.41015625,-36.62109375,0.0,-2.9296875,0.0
1734581180.6629217,24.90234375,-31.25,0.0,62.98828125,0.0
1734581180.6668603,-12.20703125,-35.64453125,-27.34375,80.078125,0.0
1734581180.6707652,-5.37109375,-32.71484375,-25.87890625,46.875,0.0
1734581180.6746697,15.13671875,-30.2734375,-26.3671875,-2.9296875,0.0
1734581180.6785743,32.71484375,-33.203125,-30.2734375,-3.90625,0.0
1734581180.6824791,13.671875,-36.62109375,-27.83203125,67.3828125,0.0
1734581180.6863837,-20.99609375,-35.15625,-28.80859375,104.00390625,0.0
1734581180.6902885,-8.30078125,-36.1328125,-32.2265625,60.546875,0.0
1734581180.6941931,20.99609375,-42.48046875,-30.2734375,-30.2734375,0.0
1734581180.6980977,47.36328125,-45.41015625,-29.78515625,-48.33984375,0.0
1734581180.7020025,25.87890625,-48.33984375,-32.2265625,32.2265625,0.0
1734581180.705907,0.48828125,-45.41015625,-32.71484375,73.2421875,0.0
1734581180.7098117,4.8828125,-41.015625,-36.1328125,51.26953125,0.0
1734581180.7137504,25.390625,-41.015625,-38.0859375,0.0,0.0
1734581180.7176552,53.7109375,-32.71484375,-31.73828125,0.0,0.0
1734581180.7215598,45.8984375,-27.83203125,-39.55078125,0.0,0.0
1734581180.7254646,11.23046875,-33.69140625,-48.33984375,0.0,0.0
1734581180.7293692,-15.625,-39.0625,-44.921875,0.0,0.0
1734581180.7332737,0.0,-43.9453125,-46.875,0.0,0.0
1734581180.7371786,34.1796875,-41.50390625,-50.29296875,0.0,0.0
1734581180.7410831,44.921875,-33.69140625,-46.38671875,0.0,0.0
1734581180.7449877,25.87890625,-34.1796875,-41.9921875,0.0,0.0
1734581180.7488925,0.48828125,-36.1328125,-41.015625,0.0,0.0
1734581180.7527971,-2.44140625,-33.69140625,-32.2265625,0.0,0.0
1734581180.756702,29.296875,-31.73828125,-33.69140625,0.0,0.0
1734581180.7606359,0.0,-35.15625,0.0,40.52734375,0.0
1734581180.7645404,0.0,-36.1328125,0.0,106.4453125,0.0
1734581180.7684453,0.0,-31.25,0.0,87.40234375,0.0
1734581180.7723498,0.0,-34.1796875,0.0,33.69140625,0.0
1734581180.7762544,0.0,-41.015625,0.0,-17.578125,0.0
1734581180.7801592,0.0,-43.45703125,0.0,20.01953125,0.0
1734581180.7840638,0.0,-42.48046875,0.0,89.35546875,0.0
1734581180.7879684,0.0,-42.48046875,0.0,87.890625,0.0
1734581180.7918732,0.0,-36.62109375,0.0,23.4375,0.0
1734581180.7957778,0.0,-31.25,0.0,-43.45703125,0.0
1734581180.7996826,0.0,-36.1328125,0.0,-4.8828125,0.0
1734581180.8035872,0.0,-37.59765625,0.0,83.984375,0.0
1734581180.807521,-18.5546875,-38.0859375,-46.38671875,88.8671875,0.0
1734581180.8114257,-5.37109375,-38.57421875,-42.96875,35.64453125,0.0
1734581180.8153305,57.12890625,-32.71484375,-41.015625,-1.46484375,0.0
1734581180.819235,61.03515625,-29.296875,-41.50390625,13.18359375,0.0
1734581180.8231397,28.3203125,-41.015625,-37.59765625,85.9375,0.0
1734581180.8270445,1.46484375,-45.8984375,-37.59765625,89.84375,0.0
1734581180.830949,-28.80859375,-34.66796875,-37.59765625,38.57421875,0.0
1734581180.8348536,12.6953125,-33.69140625,-32.2265625,-1.46484375,0.0
1734581180.8387585,59.08203125,-27.34375,-31.73828125,14.16015625,0.0
1734581180.842663,42.96875,-20.01953125,-35.64453125,80.078125,0.0
1734581180.8465679,13.671875,-28.3203125,-37.59765625,95.703125,0.0
1734581180.8504725,-12.20703125,-40.0390625,-39.0625,34.66796875,0.0
1734581180.8544025,11.71875,-34.1796875,0.0,-20.5078125,0.0
1734581180.8583074,52.734375,-32.2265625,0.0,-7.8125,0.0
1734581180.862212,52.734375,-40.52734375,0.0,71.77734375,0.0
1734581180.8661165,-2.44140625,-39.0625,0.0,102.5390625,0.0
1734581180.8700213,-61.03515625,-46.38671875,0.0,43.9453125,0.0
1734581180.873926,-16.6015625,-56.15234375,0.0,-17.08984375,0.0
1734581180.8778307,39.0625,-53.7109375,0.0,-6.8359375,0.0
1734581180.8817353,31.25,-52.24609375,0.0,69.82421875,0.0
1734581180.88564,1.953125,-44.43359375,0.0,92.28515625,0.0
1734581180.8895447,-10.7421875,-36.62109375,0.0,65.91796875,0.0
1734581180.8934493,7.8125,-25.390625,0.0,12.20703125,0.0
1734581180.8973541,21.484375,0.48828125,0.0,-23.92578125,0.0
1734581180.901283,12.6953125,19.04296875,-31.73828125,29.296875,0.0
1734581180.9051876,-3.41796875,14.6484375,-23.4375,84.47265625,0.0
1734581180.9090922,-11.23046875,2.44140625,-21.484375,84.47265625,0.0
1734581180.912997,13.18359375,7.32421875,-28.3203125,15.625,0.0
1734581180.9169016,41.015625,13.18359375,-34.1796875,-22.94921875,0.0
1734581180.9208062,22.94921875,6.34765625,-34.1796875,52.24609375,0.0
1734581180.924711,-6.34765625,-4.39453125,-31.73828125,103.02734375,0.0
1734581180.9286156,-28.80859375,-10.25390625,-33.203125,71.2890625,0.0
1734581180.9325204,0.48828125,-15.625,-39.55078125,-8.30078125,0.0
1734581180.936425,59.08203125,-25.390625,-36.62109375,-22.4609375,0.0
1734581180.9403296,59.5703125,-31.25,-33.69140625,49.31640625,0.0
1734581180.9442344,4.39453125,-43.45703125,-39.0625,89.35546875,0.0
1734581180.9481592,-20.99609375,-53.7109375,-39.55078125,92.28515625,0.0
1734581180.952064,23.4375,-49.8046875,-39.0625,51.26953125,0.0
1734581180.9559686,52.734375,-57.6171875,-42.96875,-19.04296875,0.0
1734581180.9598734,58.10546875,-65.91796875,-47.8515625,29.78515625,0.0
1734581180.963778,43.9453125,-64.94140625,-47.8515625,100.5859375,0.0
1734581180.9676826,6.34765625,-66.40625,-43.45703125,100.09765625,0.0
1734581180.9715874,-3.90625,-73.2421875,-45.8984375,57.6171875,0.0
1734581180.975492,46.38671875,-75.68359375,-46.38671875,-8.7890625,0.0
1734581180.9793968,59.5703125,-78.61328125,-39.0625,18.5546875,0.0
1734581180.9833014,36.1328125,-85.9375,-39.55078125,83.49609375,0.0
1734581180.987206,22.94921875,-95.21484375,-44.921875,92.28515625,0.0
1734581180.9911108,6.8359375,-100.5859375,-41.50390625,65.4296875,0.0
1734581180.9950562,0.0,-100.5859375,-42.48046875,15.13671875,0.0
1734581180.9989607,0.0,-97.16796875,-48.33984375,23.92578125,0.0
1734581181.0028653,0.0,-99.609375,-46.38671875,105.46875,0.0
1734581181.0067701,0.0,-105.95703125,-40.52734375,124.0234375,0.0
1734581181.0106747,0.0,-105.46875,-41.015625,72.75390625,0.0
1734581181.0145795,0.0,-104.00390625,-46.875,26.85546875,0.0
1734581181.018484,0.0,-103.02734375,-48.33984375,40.0390625,0.0
1734581181.0223887,0.0,-106.4453125,-46.38671875,112.79296875,0.0
1734581181.0262935,0.0,-109.375,-47.8515625,112.3046875,0.0
1734581181.030198,0.0,-106.4453125,-55.17578125,75.1953125,0.0
1734581181.0341027,0.0,-105.46875,-52.734375,39.55078125,0.0
1734581181.0380075,0.0,-106.93359375,-49.31640625,22.4609375,0.0
1734581181.0418901,48.33984375,-107.91015625,-49.8046875,102.5390625,0.0
1734581181.0457947,78.125,-108.3984375,-43.9453125,146.484375,0.0
1734581181.0496995,41.50390625,-108.3984375,-43.45703125,112.3046875,0.0
1734581181.0536041,6.34765625,-117.67578125,-48.33984375,49.8046875,0.0
1734581181.0575087,11.23046875,-124.0234375,-49.31640625,31.73828125,0.0
1734581181.0614135,42.96875,-127.44140625,-51.26953125,93.75,0.0
1734581181.065318,83.984375,-129.8828125,-55.17578125,148.92578125,0.0
1734581181.069223,59.08203125,-125.0,-59.5703125,129.8828125,0.0
1734581181.0731275,13.671875,-125.48828125,-62.98828125,45.8984375,0.0
1734581181.077032,9.765625,-127.9296875,-60.546875,40.52734375,0.0
1734581181.080937,54.19921875,-131.8359375,-58.59375,110.3515625,0.0
1734581181.0848415,90.8203125,-137.20703125,-62.5,131.34765625,0.0
1734581181.0887783,60.05859375,-143.06640625,-65.4296875,119.62890625,0.0
1734581181.0926828,78.125,-139.6484375,-61.03515625,72.265625,0.0
1734581181.0965877,120.60546875,-136.71875,-50.29296875,36.62109375,0.0
1734581181.1004922,97.16796875,-140.13671875,-47.8515625,94.7265625,0.0
1734581181.104397,53.7109375,-140.625,-44.43359375,149.4140625,0.0
1734581181.1083016,50.78125,-145.01953125,-32.2265625,138.671875,0.0
1734581181.1122062,94.23828125,-146.484375,-30.2734375,82.03125,0.0
1734581181.116111,135.7421875,-145.5078125,-33.203125,22.4609375,0.0
1734581181.1200156,111.81640625,-146.484375,-35.15625,68.359375,0.0
1734581181.1239204,76.171875,-147.4609375,-42.96875,148.4375,0.0
1734581181.127825,76.66015625,-150.87890625,-42.96875,129.8828125,0.0
1734581181.1317296,92.7734375,-152.34375,-35.15625,73.73046875,0.0
1734581181.1356652,0.0,-158.203125,-34.66796875,24.90234375,0.0
1734581181.1395698,0.0,-161.1328125,-32.71484375,56.640625,0.0
1734581181.1434743,0.0,-159.1796875,-32.71484375,133.7890625,0.0
1734581181.1473792,0.0,-166.015625,-34.1796875,124.0234375,0.0
1734581181.1512837,0.0,-169.43359375,-30.2734375,76.171875,0.0
1734581181.1551886,0.0,-162.59765625,-30.76171875,44.43359375,0.0
1734581181.1590931,0.0,-157.2265625,-37.59765625,63.4765625,0.0
1734581181.1629977,0.0,-157.71484375,-45.41015625,125.48828125,0.0
1734581181.1669025,0.0,-159.66796875,-44.43359375,153.80859375,0.0
1734581181.1708071,0.0,-161.1328125,-43.45703125,108.3984375,0.0
1734581181.174712,0.0,-164.0625,-43.9453125,40.0390625,0.0
1734581181.1786165,0.0,-165.0390625,-44.921875,47.8515625,0.0
1734581181.1824918,114.2578125,-165.52734375,-49.8046875,121.09375,0.0
1734581181.1863966,106.93359375,-168.45703125,-50.29296875,143.5546875,0.0
1734581181.1903012,81.54296875,-171.875,-48.33984375,115.72265625,0.0
1734581181.1942058,40.0390625,-171.38671875,-46.875,64.453125,0.0
1734581181.1981106,45.8984375,-168.45703125,-46.38671875,38.0859375,0.0
1734581181.2020152,111.81640625,-169.43359375,-52.734375,103.02734375,0.0
1734581181.20592,117.1875,-177.24609375,-53.22265625,137.20703125,0.0
1734581181.2098246,113.76953125,-177.24609375,-46.875,116.69921875,0.0
1734581181.2137291,104.00390625,-173.828125,-47.8515625,49.8046875,0.0
1734581181.217634,73.2421875,-172.8515625,-50.78125,26.85546875,0.0
1734581181.2215385,121.58203125,-170.41015625,-54.19921875,106.4453125,0.0
1734581181.2254434,137.20703125,-173.33984375,-51.26953125,145.99609375,0.0
1734581181.2293737,95.21484375,-174.8046875,-47.8515625,140.625,0.0
1734581181.2332785,127.44140625,-175.78125,-49.8046875,84.9609375,0.0
1734581181.237183,154.296875,-178.7109375,-53.22265625,37.59765625,0.0
1734581181.2410877,119.140625,-180.17578125,-57.6171875,92.7734375,0.0
1734581181.2449925,92.7734375,-181.15234375,-55.6640625,135.7421875,0.0
1734581181.248897,108.88671875,-181.15234375,-58.10546875,114.74609375,0.0
1734581181.252802,143.06640625,-182.12890625,-61.03515625,86.42578125,0.0
1734581181.2567065,172.8515625,-187.5,-57.6171875,44.43359375,0.0
1734581181.260611,156.73828125,-187.01171875,-61.5234375,89.84375,0.0
1734581181.2645159,127.9296875,-179.19921875,-66.89453125,146.97265625,0.0
1734581181.2684205,102.5390625,-178.7109375,-66.40625,128.41796875,0.0
1734581181.2723253,93.75,-179.6875,-66.40625,86.42578125,0.0
1734581181.2762544,135.25390625,-175.29296875,0.0,38.0859375,0.0
1734581181.280159,152.83203125,-174.8046875,0.0,92.7734375,0.0
1734581181.2840638,126.46484375,-171.38671875,0.0,152.34375,0.0
1734581181.2879684,122.55859375,-162.59765625,0.0,134.27734375,0.0
1734581181.291873,151.3671875,-166.015625,0.0,86.9140625,0.0
1734581181.2957778,173.828125,-176.26953125,0.0,33.203125,0.0
1734581181.2996824,147.4609375,-184.5703125,0.0,82.03125,0.0
1734581181.3035872,116.69921875,-185.546875,0.0,160.15625,0.0
1734581181.3074918,104.00390625,-182.6171875,0.0,138.18359375,0.0
1734581181.3113964,99.609375,-185.546875,0.0,87.890625,0.0
1734581181.3153012,139.16015625,-189.453125,0.0,39.0625,0.0
1734581181.3192058,159.1796875,-186.03515625,0.0,63.96484375,0.0
1734581181.32313,115.72265625,-182.6171875,-73.2421875,131.8359375,0.0
1734581181.3270347,78.125,-187.98828125,-77.63671875,151.85546875,0.0
1734581181.3309393,91.30859375,-192.87109375,-73.2421875,103.515625,0.0
1734581181.3348439,141.11328125,-193.359375,-78.125,16.6015625,0.0
1734581181.3387487,173.828125,-191.89453125,-78.125,39.0625,0.0
1734581181.3426533,142.578125,-194.3359375,-75.68359375,130.859375,0.0
1734581181.346558,104.00390625,-195.80078125,-80.56640625,134.765625,0.0
1734581181.3504627,98.14453125,-195.3125,-83.984375,93.26171875,0.0
1734581181.3543673,133.7890625,-200.68359375,-95.703125,47.36328125,0.0
1734581181.358272,167.96875,-201.171875,-107.91015625,41.015625,0.0
1734581181.3621767,145.99609375,-198.73046875,-110.3515625,113.76953125,0.0
1734581181.3660815,111.328125,-198.2421875,-110.83984375,140.13671875,0.0
1734581181.3700247,100.5859375,-198.73046875,-114.74609375,124.0234375,0.0
1734581181.3739293,119.140625,-200.1953125,-121.58203125,71.77734375,0.0
1734581181.3778338,150.390625,-204.58984375,-121.58203125,19.04296875,0.0
1734581181.3817387,152.83203125,-201.66015625,-117.67578125,92.28515625,0.0
1734581181.3856432,127.44140625,-197.265625,-109.375,141.6015625,0.0
1734581181.389548,98.14453125,-199.21875,-99.12109375,110.83984375,0.0
1734581181.3934526,107.421875,-202.63671875,-96.6796875,67.87109375,0.0
1734581181.3973572,134.27734375,-207.03125,-105.46875,37.59765625,0.0
1734581181.401262,129.8828125,-207.03125,-110.83984375,83.984375,0.0
1734581181.4051666,112.79296875,-203.125,-110.83984375,127.44140625,0.0
1734581181.4090714,96.6796875,-199.70703125,-107.421875,108.3984375,0.0
1734581181.412976,112.79296875,-198.2421875,-102.05078125,39.0625,0.0
1734581181.4169152,145.01953125,-194.82421875,-103.02734375,8.7890625,0.0
1734581181.4208198,143.06640625,-199.70703125,-104.98046875,62.98828125,0.0
1734581181.4247246,115.234375,-200.68359375,-104.98046875,109.86328125,0.0
1734581181.4286292,100.09765625,-193.84765625,-102.05078125,110.3515625,0.0
