timestamps,TP9,AF7,AF8,TP10,Right AUX
1734582135.495374,43.45703125,-14.16015625,150.87890625,10.7421875,0.0
1734582135.499261,-60.546875,-14.16015625,85.44921875,-57.12890625,0.0
1734582135.5031478,-115.234375,-8.30078125,98.6328125,-88.8671875,0.0
1734582135.5070348,6.34765625,-7.8125,158.203125,-42.96875,0.0
1734582135.5109217,66.89453125,-10.25390625,63.4765625,14.16015625,0.0
1734582135.5148087,-43.45703125,-11.23046875,-4.39453125,10.7421875,0.0
1734582135.5186954,-66.89453125,-9.765625,92.7734375,-53.22265625,0.0
1734582135.5225823,-23.4375,-5.37109375,127.9296875,-87.890625,0.0
1734582135.5264692,-39.55078125,-3.90625,212.40234375,-53.22265625,0.0
1734582135.5303562,-29.296875,-6.34765625,245.1171875,13.671875,0.0
1734582135.534243,38.57421875,-8.7890625,204.58984375,13.671875,0.0
1734582135.5384176,-9.765625,-8.7890625,109.375,-50.78125,0.0
1734582135.5423045,-86.42578125,-6.34765625,95.21484375,-88.8671875,0.0
1734582135.5461915,-38.0859375,-2.9296875,148.4375,-56.640625,0.0
1734582135.5500784,31.25,-0.48828125,187.01171875,6.8359375,0.0
1734582135.5539653,15.625,1.953125,117.67578125,12.6953125,0.0
1734582135.5578525,-47.8515625,0.9765625,54.19921875,-32.2265625,0.0
1734582135.5617394,-121.58203125,-5.37109375,100.09765625,-78.125,0.0
1734582135.5656264,-36.62109375,-14.16015625,154.78515625,-71.2890625,0.0
1734582135.5695133,39.55078125,-15.625,101.5625,-11.71875,0.0
1734582135.5734003,21.97265625,-15.13671875,68.359375,20.5078125,0.0
1734582135.5772872,-45.8984375,-13.671875,166.50390625,-42.96875,0.0
1734582135.5811744,-111.328125,-5.37109375,146.484375,-112.3046875,0.0
1734582135.5853229,-91.30859375,-3.90625,168.45703125,-86.9140625,0.0
1734582135.5892098,39.55078125,0.48828125,149.90234375,-21.97265625,0.0
1734582135.593097,41.9921875,5.859375,177.24609375,6.34765625,0.0
1734582135.596984,-81.0546875,-4.39453125,172.8515625,-28.80859375,0.0
1734582135.600871,-47.8515625,-5.859375,94.7265625,-85.9375,0.0
1734582135.604758,-28.80859375,-0.48828125,97.65625,-78.61328125,0.0
1734582135.6086452,-12.20703125,-5.859375,144.04296875,-23.4375,0.0
1734582135.6125321,29.78515625,-3.90625,185.546875,5.37109375,0.0
1734582135.6164193,-14.16015625,-5.37109375,16.6015625,-14.16015625,0.0
1734582135.6203063,-110.83984375,-10.25390625,-95.21484375,-76.171875,0.0
1734582135.6241934,-99.609375,-10.25390625,168.9453125,-85.44921875,0.0
1734582135.6280804,17.08984375,-5.37109375,158.69140625,-25.87890625,0.0
1734582135.6322105,53.7109375,-6.34765625,186.5234375,6.8359375,0.0
1734582135.6360974,-13.18359375,-6.8359375,174.8046875,-15.13671875,0.0
1734582135.6399846,-80.078125,-5.859375,148.4375,-69.3359375,0.0
1734582135.6438718,-92.7734375,-9.765625,89.84375,-90.33203125,0.0
1734582135.647759,-21.484375,-9.765625,28.80859375,-44.921875,0.0
1734582135.651646,26.3671875,-7.32421875,147.94921875,12.6953125,0.0
1734582135.655533,-14.16015625,-6.34765625,212.40234375,0.48828125,0.0
1734582135.6594203,-55.6640625,-7.8125,18.06640625,-64.453125,0.0
1734582135.6633074,-81.54296875,-7.32421875,-167.96875,-73.73046875,0.0
1734582135.6671944,-20.01953125,-3.41796875,125.9765625,-38.57421875,0.0
1734582135.6710815,50.29296875,-4.8828125,224.12109375,10.25390625,0.0
1734582135.6749687,-14.6484375,-3.90625,149.90234375,17.578125,0.0
1734582135.6790838,-76.66015625,-9.27734375,60.05859375,-62.01171875,0.0
1734582135.682971,-80.56640625,-13.18359375,123.046875,-104.4921875,0.0
1734582135.6868582,-47.8515625,-10.7421875,170.41015625,-52.734375,0.0
1734582135.6907454,20.99609375,-11.23046875,181.640625,12.20703125,0.0
1734582135.6946325,14.6484375,-11.71875,152.83203125,18.5546875,0.0
1734582135.6985197,-83.49609375,-11.71875,110.3515625,-40.0390625,0.0
1734582135.702407,-103.515625,-6.8359375,135.7421875,-85.44921875,0.0
1734582135.706294,-53.7109375,-8.30078125,-53.22265625,-43.9453125,0.0
1734582135.7101812,5.859375,-16.6015625,-41.015625,19.53125,0.0
1734582135.7140684,31.25,-14.6484375,191.40625,15.13671875,0.0
1734582135.7179556,-61.5234375,-14.16015625,124.0234375,-48.828125,0.0
1734582135.7218428,-95.21484375,-15.625,144.53125,-100.09765625,0.0
1734582135.725933,-54.19921875,-13.18359375,142.578125,-77.1484375,0.0
1734582135.7298203,-0.9765625,-13.671875,171.38671875,-15.13671875,0.0
1734582135.7337074,25.390625,-16.6015625,132.8125,7.32421875,0.0
1734582135.7375948,-40.52734375,-16.6015625,3.41796875,-41.015625,0.0
1734582135.741482,-100.5859375,-12.6953125,45.8984375,-101.5625,0.0
1734582135.7453692,-91.30859375,-13.671875,116.69921875,-82.51953125,0.0
1734582135.7492564,21.97265625,-10.7421875,26.3671875,-7.32421875,0.0
1734582135.7531438,55.6640625,-1.953125,-35.15625,31.25,0.0
1734582135.757031,-35.15625,-1.953125,99.12109375,-18.5546875,0.0
1734582135.7609181,-103.515625,-8.7890625,104.4921875,-89.84375,0.0
1734582135.7648053,-74.70703125,-12.6953125,153.80859375,-83.49609375,0.0
1734582135.7686927,8.30078125,-10.25390625,138.671875,-10.7421875,0.0
1734582135.7727745,32.2265625,-9.27734375,109.86328125,22.94921875,0.0
1734582135.7766619,-36.1328125,-13.18359375,97.65625,-20.5078125,0.0
1734582135.780549,-98.14453125,-12.20703125,15.13671875,-83.984375,0.0
1734582135.7844365,-68.84765625,-8.30078125,51.7578125,-90.8203125,0.0
1734582135.7883236,9.27734375,-4.8828125,88.37890625,-26.3671875,0.0
1734582135.792211,42.96875,-2.44140625,58.10546875,25.87890625,0.0
1734582135.7960982,-19.04296875,-10.25390625,-94.23828125,4.8828125,0.0
1734582135.7999854,-93.75,-15.13671875,-200.1953125,-71.77734375,0.0
1734582135.8038728,-89.35546875,-12.20703125,56.15234375,-108.3984375,0.0
1734582135.80776,-2.9296875,-5.859375,154.296875,-38.57421875,0.0
1734582135.8116474,42.48046875,0.48828125,161.62109375,29.296875,0.0
1734582135.8155346,-18.06640625,-7.8125,96.6796875,0.0,0.0
1734582135.8195982,-82.51953125,-5.37109375,95.21484375,-79.58984375,0.0
1734582135.8234854,-73.2421875,-2.9296875,42.48046875,-92.7734375,0.0
1734582135.8273728,-15.13671875,-6.34765625,-0.9765625,-40.52734375,0.0
1734582135.8312602,24.90234375,-2.44140625,136.23046875,6.8359375,0.0
1734582135.8351474,-8.7890625,2.44140625,122.0703125,0.48828125,0.0
1734582135.8390348,-78.61328125,-1.953125,-85.44921875,-54.6875,0.0
1734582135.8429222,-88.37890625,-9.27734375,-184.08203125,-78.125,0.0
1734582135.8468094,-41.015625,-9.765625,48.33984375,-44.921875,0.0
1734582135.8506968,16.11328125,-4.8828125,158.69140625,7.8125,0.0
1734582135.8545842,5.37109375,0.48828125,104.00390625,18.06640625,0.0
1734582135.8584714,-83.0078125,-1.46484375,6.34765625,-34.66796875,0.0
1734582135.8623588,-101.07421875,-2.9296875,58.59375,-75.68359375,0.0
1734582135.8665428,-19.04296875,-0.48828125,107.91015625,-33.203125,0.0
1734582135.8704302,47.36328125,-1.953125,96.6796875,47.36328125,0.0
1734582135.8743176,34.66796875,-10.7421875,85.9375,59.08203125,0.0
1734582135.878205,-49.31640625,-18.5546875,100.09765625,-12.20703125,0.0
1734582135.8820925,-87.40234375,-18.5546875,50.29296875,-55.17578125,0.0
1734582135.88598,-35.64453125,-19.04296875,-105.46875,-24.4140625,0.0
1734582135.8898673,27.34375,-16.11328125,-74.21875,35.15625,0.0
1734582135.8937547,15.625,-9.27734375,108.3984375,39.55078125,0.0
1734582135.8976421,-59.08203125,-9.27734375,86.9140625,-29.296875,0.0
1734582135.9015296,-106.93359375,-11.23046875,-46.38671875,-77.63671875,0.0
1734582135.905417,-61.03515625,-7.8125,49.31640625,-40.52734375,0.0
1734582135.9093044,30.76171875,-8.7890625,169.921875,26.3671875,0.0
1734582135.9134655,38.0859375,-11.23046875,79.58984375,51.26953125,0.0
1734582135.917353,-48.828125,-10.25390625,-8.30078125,-4.39453125,0.0
1734582135.9212406,-109.375,-8.7890625,69.3359375,-83.0078125,0.0
1734582135.925128,-69.82421875,-12.20703125,110.83984375,-61.03515625,0.0
1734582135.9290154,0.48828125,-19.04296875,69.82421875,11.23046875,0.0
1734582135.932903,3.90625,-18.06640625,-5.859375,33.69140625,0.0
1734582135.9367905,-57.12890625,-9.27734375,76.66015625,-16.11328125,0.0
1734582135.940678,-95.21484375,-2.44140625,147.94921875,-93.75,0.0
1734582135.9445653,-66.89453125,-5.37109375,-17.578125,-87.40234375,0.0
1734582135.948453,-4.8828125,-9.765625,-43.45703125,-5.859375,0.0
1734582135.9523404,31.25,-6.8359375,143.06640625,39.0625,0.0
1734582135.9562278,-26.3671875,-7.32421875,116.2109375,-6.34765625,0.0
1734582135.9603655,-99.12109375,-11.23046875,88.37890625,-81.54296875,0.0
1734582135.9642532,-76.171875,-8.30078125,47.36328125,-87.890625,0.0
1734582135.9681406,-2.44140625,-9.27734375,150.87890625,-22.94921875,0.0
1734582135.9720283,38.57421875,-17.08984375,160.64453125,30.2734375,0.0
1734582135.975916,-17.578125,-12.6953125,76.66015625,-1.46484375,0.0
1734582135.9798033,-93.75,-11.71875,65.4296875,-83.0078125,0.0
1734582135.983691,-88.8671875,-14.16015625,98.6328125,-104.98046875,0.0
1734582135.9875784,-18.5546875,-14.6484375,103.02734375,-34.1796875,0.0
1734582135.991466,42.48046875,-9.27734375,142.08984375,44.43359375,0.0
1734582135.9953535,1.46484375,-2.9296875,124.51171875,26.3671875,0.0
1734582135.999241,-86.42578125,-3.41796875,120.60546875,-59.08203125,0.0
1734582136.0031285,-94.23828125,-8.30078125,82.51953125,-88.8671875,0.0
1734582136.0072556,-22.94921875,-13.18359375,131.34765625,-38.57421875,0.0
1734582136.0111432,31.25,-13.18359375,156.73828125,24.90234375,0.0
1734582136.0150309,-16.11328125,-13.671875,148.4375,13.18359375,0.0
1734582136.0189185,-74.21875,-10.7421875,64.94140625,-33.69140625,0.0
1734582136.0228062,-83.0078125,-12.6953125,-63.4765625,-65.91796875,0.0
1734582136.0266936,-40.52734375,-14.16015625,51.7578125,-51.26953125,0.0
1734582136.0305812,12.6953125,-3.90625,211.9140625,4.8828125,0.0
1734582136.034469,-12.6953125,-5.37109375,42.48046875,12.6953125,0.0
1734582136.0383565,-90.33203125,-7.32421875,-206.0546875,-44.921875,0.0
1734582136.0422442,-110.83984375,-7.8125,72.75390625,-90.8203125,0.0
1734582136.0461318,-74.70703125,-11.71875,180.17578125,-56.640625,0.0
1734582136.0500193,-5.859375,-9.765625,167.48046875,18.06640625,0.0
1734582136.054134,0.0,-5.37109375,108.88671875,37.59765625,0.0
1734582136.0580218,0.0,-5.37109375,111.81640625,-25.87890625,0.0
1734582136.0619094,0.0,-12.20703125,87.890625,-81.54296875,0.0
1734582136.065797,0.0,-13.18359375,71.2890625,-49.8046875,0.0
1734582136.0696847,0.0,-8.30078125,144.04296875,22.94921875,0.0
1734582136.0735724,0.0,-3.90625,124.0234375,42.48046875,0.0
1734582136.07746,0.0,0.0,58.10546875,-14.6484375,0.0
1734582136.0813477,0.0,-2.9296875,24.90234375,-59.08203125,0.0
1734582136.0852354,0.0,-7.8125,-3.41796875,-28.3203125,0.0
1734582136.089123,0.0,-10.7421875,149.90234375,15.625,0.0
1734582136.0930107,0.0,-14.16015625,164.0625,41.50390625,0.0
1734582136.0968983,0.0,-16.6015625,157.2265625,-3.41796875,0.0
1734582136.1011248,-91.30859375,-17.08984375,113.28125,-75.1953125,0.0
1734582136.1050127,-42.96875,-20.01953125,116.69921875,-61.03515625,0.0
1734582136.1089003,36.62109375,-16.6015625,118.65234375,21.484375,0.0
1734582136.112788,45.41015625,-11.23046875,109.86328125,65.4296875,0.0
1734582136.1166759,4.8828125,-3.90625,112.3046875,21.97265625,0.0
1734582136.1205635,-62.5,-4.39453125,73.73046875,-50.78125,0.0
1734582136.1244514,-30.2734375,-8.7890625,2.44140625,-51.26953125,0.0
1734582136.128339,-4.39453125,-7.8125,-23.4375,25.390625,0.0
1734582136.132227,-32.71484375,-9.27734375,157.71484375,63.4765625,0.0
1734582136.1361146,-11.71875,-6.34765625,172.8515625,24.90234375,0.0
1734582136.1400023,-62.5,-9.27734375,132.8125,-42.96875,0.0
1734582136.1438901,-72.265625,-17.08984375,52.24609375,-56.640625,0.0
1734582136.1479576,-13.671875,-11.71875,132.32421875,0.48828125,0.0
1734582136.1518455,15.13671875,-8.7890625,183.59375,33.203125,0.0
1734582136.155733,-17.08984375,-11.23046875,70.3125,27.34375,0.0
1734582136.159621,-60.05859375,-12.20703125,70.80078125,-36.1328125,0.0
1734582136.163509,-61.5234375,-8.30078125,87.40234375,-68.359375,0.0
1734582136.1673965,-34.1796875,-10.25390625,54.19921875,-5.859375,0.0
1734582136.1712844,3.90625,-11.23046875,69.82421875,44.921875,0.0
1734582136.1751723,-26.3671875,-12.6953125,82.51953125,35.15625,0.0
1734582136.17906,-94.7265625,-10.7421875,64.94140625,-39.0625,0.0
1734582136.1829479,-131.8359375,5.859375,122.0703125,-90.8203125,0.0
1734582136.1868355,-63.96484375,7.8125,32.71484375,-31.73828125,0.0
1734582136.1907234,59.08203125,-4.8828125,-2.9296875,48.828125,0.0
1734582136.1947794,0.0,-10.7421875,166.015625,34.1796875,0.0
1734582136.1986673,0.0,-14.16015625,79.58984375,-39.0625,0.0
1734582136.2025552,0.0,5.37109375,43.45703125,-91.796875,0.0
1734582136.2064428,0.0,1.953125,120.1171875,-40.52734375,0.0
1734582136.2103307,0.0,-22.94921875,177.24609375,32.71484375,0.0
1734582136.2142186,0.0,-18.06640625,71.77734375,22.4609375,0.0
1734582136.2181065,0.0,-10.25390625,-79.58984375,-39.55078125,0.0
1734582136.2219944,0.0,-7.8125,87.40234375,-93.26171875,0.0
1734582136.225882,0.0,-15.13671875,95.703125,-56.640625,0.0
1734582136.22977,0.0,-12.6953125,307.6171875,3.41796875,0.0
1734582136.2336578,0.0,-13.18359375,323.2421875,-6.8359375,0.0
1734582136.2375457,0.0,-21.484375,75.68359375,-41.9921875,0.0
1734582136.2417238,-137.20703125,-15.625,98.6328125,-105.95703125,0.0
1734582136.2456117,-147.94921875,-14.6484375,44.921875,-112.3046875,0.0
1734582136.2494996,-111.81640625,-21.97265625,65.91796875,-40.0390625,0.0
1734582136.2533875,-72.265625,-18.06640625,155.76171875,-10.25390625,0.0
1734582136.2572753,-68.84765625,1.953125,62.01171875,-32.2265625,0.0
1734582136.2611632,-116.2109375,19.04296875,-84.9609375,-95.21484375,0.0
1734582136.2650511,-91.796875,-17.578125,-18.06640625,-97.16796875,0.0
1734582136.268939,-4.8828125,-34.66796875,13.671875,-4.8828125,0.0
1734582136.2728271,-51.26953125,-4.8828125,112.3046875,9.765625,0.0
1734582136.276715,-95.703125,-2.9296875,-31.25,-24.4140625,0.0
1734582136.280603,-127.9296875,-22.94921875,-75.68359375,-76.171875,0.0
1734582136.2844908,-55.17578125,-35.64453125,115.234375,-58.10546875,0.0
1734582136.288639,37.109375,-41.9921875,72.75390625,41.015625,0.0
1734582136.292527,41.50390625,-35.15625,121.58203125,55.17578125,0.0
1734582136.296415,-54.6875,2.44140625,112.3046875,-33.69140625,0.0
1734582136.300303,-202.1484375,20.01953125,110.83984375,-127.9296875,0.0
1734582136.304191,-139.16015625,-23.92578125,27.83203125,-96.19140625,0.0
1734582136.308079,-30.76171875,-21.97265625,-81.0546875,-16.11328125,0.0
1734582136.311967,-36.62109375,-19.53125,67.3828125,38.57421875,0.0
1734582136.315855,-56.15234375,-28.3203125,167.48046875,15.625,0.0
1734582136.319743,-146.97265625,0.9765625,-15.625,-87.40234375,0.0
1734582136.323631,-160.15625,-8.30078125,-94.7265625,-97.65625,0.0
1734582136.327519,-8.7890625,-30.76171875,76.171875,-11.23046875,0.0
1734582136.3314068,0.48828125,-17.08984375,135.7421875,18.06640625,0.0
1734582136.3355367,-35.64453125,-6.34765625,103.515625,1.46484375,0.0
1734582136.3394246,-69.3359375,-6.8359375,5.37109375,-57.12890625,0.0
1734582136.3433127,-136.23046875,-0.9765625,90.8203125,-89.35546875,0.0
1734582136.3472009,-72.75390625,-21.97265625,117.67578125,-20.01953125,0.0
1734582136.3510888,-16.6015625,-16.11328125,81.54296875,25.390625,0.0
1734582136.354977,-51.26953125,-7.32421875,82.51953125,2.44140625,0.0
1734582136.358865,-80.56640625,-24.4140625,35.64453125,-51.7578125,0.0
1734582136.362753,-104.98046875,-11.23046875,-2.44140625,-84.9609375,0.0
1734582136.366641,-34.66796875,-7.8125,-182.6171875,-25.87890625,0.0
1734582136.370529,6.8359375,-9.27734375,-135.25390625,32.2265625,0.0
1734582136.374417,-29.78515625,-11.71875,145.01953125,20.99609375,0.0
1734582136.3783052,-63.96484375,-13.18359375,59.5703125,-34.66796875,0.0
1734582136.3824203,-110.83984375,-19.53125,89.35546875,-79.1015625,0.0
1734582136.3863084,-94.7265625,-27.83203125,100.09765625,-46.38671875,0.0
1734582136.3901966,17.08984375,-17.08984375,147.94921875,30.2734375,0.0
1734582136.3940847,29.296875,-8.7890625,113.76953125,45.8984375,0.0
1734582136.3979726,-91.796875,-15.625,-8.7890625,-17.578125,0.0
1734582136.4018607,-130.859375,-30.2734375,-3.90625,-65.91796875,0.0
1734582136.4057488,-13.18359375,-34.66796875,110.3515625,-46.875,0.0
1734582136.409637,53.7109375,-19.04296875,57.12890625,15.625,0.0
1734582136.413525,-5.37109375,-20.01953125,39.0625,51.7578125,0.0
1734582136.4174132,-42.96875,-16.6015625,152.83203125,-20.5078125,0.0
1734582136.4213014,-67.3828125,-7.32421875,100.09765625,-87.40234375,0.0
1734582136.4251895,-58.10546875,-4.39453125,128.41796875,-45.41015625,0.0
1734582136.4292936,17.578125,-2.9296875,91.30859375,18.5546875,0.0
1734582136.4331818,57.12890625,-2.9296875,147.4609375,33.69140625,0.0
1734582136.43707,13.671875,-4.8828125,125.9765625,-8.30078125,0.0
1734582136.440958,-77.1484375,-4.8828125,44.921875,-74.70703125,0.0
1734582136.4448464,-74.21875,-5.859375,65.4296875,-67.3828125,0.0
1734582136.4487345,10.25390625,-13.671875,104.4921875,0.0,0.0
1734582136.4526227,52.734375,-8.7890625,156.25,22.94921875,0.0
1734582136.4565108,-3.41796875,-1.46484375,-63.4765625,-5.859375,0.0
1734582136.460399,-76.66015625,-3.41796875,-179.19921875,-64.453125,0.0
1734582136.464287,-76.171875,-0.48828125,135.25390625,-81.54296875,0.0
1734582136.4681752,-0.48828125,-1.953125,149.90234375,-14.16015625,0.0
1734582136.4720633,30.2734375,5.37109375,156.25,31.25,0.0
1734582136.4761543,-7.32421875,0.0,141.11328125,-3.41796875,0.0
1734582136.4800427,-58.10546875,-17.578125,122.0703125,-80.078125,0.0
1734582136.4839308,-70.80078125,-9.765625,39.55078125,-97.65625,0.0
1734582136.487819,-17.08984375,-12.20703125,-1.46484375,-30.2734375,0.0
1734582136.4917073,31.73828125,-17.578125,118.65234375,20.5078125,0.0
1734582136.4955955,-2.44140625,-16.6015625,88.8671875,-6.34765625,0.0
1734582136.4994836,-86.42578125,-13.18359375,-15.625,-66.40625,0.0
1734582136.503372,-87.40234375,-7.8125,-136.71875,-73.73046875,0.0
1734582136.50726,-18.06640625,-8.30078125,54.6875,-32.71484375,0.0
1734582136.5111482,36.62109375,-4.8828125,211.9140625,16.6015625,0.0
1734582136.5150366,-13.18359375,-4.39453125,103.02734375,6.8359375,0.0
1734582136.5189247,-113.76953125,-6.8359375,22.94921875,-62.98828125,0.0
1734582136.5229878,-87.40234375,-7.8125,121.58203125,-98.6328125,0.0
1734582136.526876,-12.6953125,-13.671875,138.671875,-45.8984375,0.0
1734582136.5307643,22.94921875,-11.71875,116.2109375,25.87890625,0.0
1734582136.5346525,-12.6953125,-10.25390625,110.3515625,13.671875,0.0
1734582136.5385408,-97.65625,-6.34765625,93.75,-67.3828125,0.0
1734582136.542429,-84.47265625,-15.625,111.81640625,-100.5859375,0.0
1734582136.5463173,-24.4140625,-22.94921875,-41.50390625,-43.45703125,0.0
1734582136.5502055,33.203125,-12.20703125,-103.02734375,26.3671875,0.0
1734582136.5540938,10.7421875,-16.6015625,161.62109375,16.6015625,0.0
1734582136.557982,-107.421875,-24.4140625,139.16015625,-64.453125,0.0
1734582136.5618703,-141.11328125,-8.30078125,142.08984375,-104.98046875,0.0
1734582136.5657585,-55.17578125,-3.41796875,130.859375,-66.40625,0.0
1734582136.5698097,14.16015625,-6.34765625,169.921875,-1.46484375,0.0
1734582136.5736978,44.43359375,-3.90625,124.0234375,37.109375,0.0
1734582136.5775862,-43.45703125,-10.25390625,79.1015625,-17.578125,0.0
1734582136.5814745,-110.83984375,-11.71875,104.4921875,-94.7265625,0.0
1734582136.5853627,-37.59765625,-16.6015625,148.92578125,-66.40625,0.0
1734582136.589251,47.36328125,-10.7421875,100.5859375,17.08984375,0.0
1734582136.5931394,10.25390625,-8.7890625,-33.69140625,43.45703125,0.0
1734582136.5970275,-87.890625,-14.16015625,104.00390625,-26.85546875,0.0
1734582136.600916,-64.453125,-21.484375,142.08984375,-84.47265625,0.0
1734582136.6048043,-12.20703125,-10.7421875,60.546875,-64.453125,0.0
1734582136.6086924,19.53125,-7.8125,62.98828125,-8.30078125,0.0
1734582136.6125808,-8.7890625,-6.8359375,158.203125,19.04296875,0.0
1734582136.6166108,-49.31640625,-12.6953125,129.39453125,-24.4140625,0.0
1734582136.6204991,-74.70703125,-13.18359375,20.01953125,-85.44921875,0.0
1734582136.6243875,-49.8046875,-6.34765625,55.17578125,-83.0078125,0.0
1734582136.6282759,4.39453125,-4.39453125,150.87890625,-25.390625,0.0
1734582136.632164,-40.52734375,-11.23046875,107.91015625,30.2734375,0.0
1734582136.6360524,-14.6484375,-22.4609375,-2.9296875,4.39453125,0.0
1734582136.6399407,-33.203125,-11.71875,41.015625,-84.47265625,0.0
1734582136.643829,-61.03515625,-14.16015625,78.61328125,-95.703125,0.0
1734582136.6477175,-5.859375,-11.71875,132.8125,-38.0859375,0.0
1734582136.6516058,26.85546875,-12.20703125,39.55078125,32.2265625,0.0
1734582136.655494,-41.015625,-15.13671875,-11.71875,7.8125,0.0
1734582136.6593823,-110.3515625,-5.859375,125.0,-69.82421875,0.0
1734582136.6635408,-41.015625,-10.7421875,92.28515625,-74.21875,0.0
1734582136.6674292,-30.2734375,-20.99609375,151.3671875,-26.3671875,0.0
1734582136.6713176,-77.63671875,-17.08984375,164.0625,33.69140625,0.0
1734582136.675206,-33.203125,-2.9296875,146.97265625,21.484375,0.0
1734582136.6790946,-54.19921875,-9.27734375,20.01953125,-53.22265625,0.0
1734582136.682983,-56.640625,-18.5546875,-79.1015625,-75.68359375,0.0
1734582136.6868713,10.7421875,-13.18359375,99.12109375,-31.73828125,0.0
1734582136.6907597,44.43359375,-2.44140625,169.43359375,15.625,0.0
1734582136.694648,18.06640625,-2.9296875,53.22265625,11.23046875,0.0
1734582136.6985364,-59.08203125,-8.30078125,21.484375,-32.71484375,0.0
1734582136.7024248,-92.28515625,-16.6015625,113.76953125,-64.94140625,0.0
1734582136.7063131,-21.97265625,-21.484375,149.4140625,-25.390625,0.0
1734582136.710449,34.66796875,-23.4375,136.23046875,17.578125,0.0
1734582136.7143373,8.30078125,-29.296875,58.59375,16.6015625,0.0
1734582136.718226,-52.734375,-16.6015625,110.3515625,-32.2265625,0.0
1734582136.7221143,-78.61328125,-8.30078125,97.16796875,-86.9140625,0.0
1734582136.7260027,-35.15625,-11.23046875,68.359375,-54.6875,0.0
1734582136.7298913,17.578125,-20.01953125,102.05078125,22.4609375,0.0
1734582136.7337797,-18.5546875,-15.625,142.08984375,27.83203125,0.0
1734582136.7376683,-90.33203125,-20.5078125,115.234375,-29.78515625,0.0
1734582136.7415566,-39.0625,-21.484375,-208.984375,-58.10546875,0.0
1734582136.745445,14.16015625,-9.27734375,-207.51953125,-54.6875,0.0
1734582136.7493336,26.85546875,-2.44140625,205.56640625,-12.20703125,0.0
1734582136.753222,16.11328125,-5.37109375,154.78515625,41.50390625,0.0
1734582136.757347,0.0,1.953125,106.4453125,-4.8828125,0.0
1734582136.7612357,0.0,-3.41796875,109.86328125,-66.40625,0.0
1734582136.765124,0.0,-13.18359375,145.99609375,-61.03515625,0.0
1734582136.7690127,0.0,-14.16015625,107.421875,8.7890625,0.0
1734582136.7729013,0.0,-23.92578125,62.5,59.08203125,0.0
1734582136.7767897,0.0,-16.6015625,67.87109375,-5.37109375,0.0
1734582136.7806783,0.0,-8.7890625,43.9453125,-83.0078125,0.0
1734582136.7845666,0.0,-15.13671875,13.18359375,-71.77734375,0.0
1734582136.7884552,0.0,-18.5546875,0.0,-3.41796875,0.0
1734582136.7923439,0.0,-13.18359375,164.55078125,28.3203125,0.0
1734582136.7962322,0.0,-10.7421875,123.046875,-24.4140625,0.0
1734582136.8001208,0.0,-15.625,-8.30078125,-83.984375,0.0
1734582136.8042142,-61.03515625,-5.859375,-3.90625,-75.1953125,0.0
1734582136.8081028,-1.46484375,-11.23046875,142.578125,-26.3671875,0.0
1734582136.8119915,20.01953125,-30.2734375,161.1328125,22.94921875,0.0
1734582136.81588,-16.6015625,-34.1796875,90.33203125,1.46484375,0.0
1734582136.8197684,-93.75,-20.01953125,54.6875,-65.91796875,0.0
1734582136.823657,-114.74609375,-13.18359375,11.23046875,-77.63671875,0.0
1734582136.8275456,-4.8828125,-8.7890625,137.6953125,-18.5546875,0.0
1734582136.8314342,42.48046875,-8.7890625,27.34375,45.41015625,0.0
1734582136.8353229,-4.39453125,-18.5546875,-98.6328125,11.71875,0.0
1734582136.8392115,-142.578125,-18.06640625,123.046875,-79.58984375,0.0
1734582136.8430998,-130.859375,-30.76171875,97.65625,-84.9609375,0.0
1734582136.8469884,5.37109375,-33.203125,114.74609375,-8.30078125,0.0
1734582136.8510664,67.87109375,-22.94921875,144.04296875,45.41015625,0.0
1734582136.854955,18.5546875,-1.953125,147.94921875,14.6484375,0.0
1734582136.8588436,-101.5625,-11.71875,65.4296875,-60.546875,0.0
1734582136.8627322,-102.05078125,-15.625,-4.39453125,-97.65625,0.0
1734582136.8666208,-5.37109375,-8.7890625,55.6640625,-41.50390625,0.0
1734582136.8705094,19.04296875,-7.8125,113.76953125,22.94921875,0.0
1734582136.874398,-12.20703125,-1.953125,65.4296875,21.484375,0.0
1734582136.8782866,-65.4296875,-1.46484375,-79.58984375,-43.9453125,0.0
1734582136.8821752,-118.1640625,-10.7421875,70.3125,-108.3984375,0.0
1734582136.8860638,-82.51953125,-22.94921875,152.34375,-69.3359375,0.0
1734582136.8899524,-2.44140625,-12.20703125,107.421875,6.34765625,0.0
1734582136.893841,16.11328125,-8.7890625,57.6171875,27.83203125,0.0
1734582136.8979137,-54.6875,-9.765625,128.90625,-29.296875,0.0
1734582136.9018023,-111.81640625,-5.37109375,122.0703125,-80.56640625,0.0
1734582136.905691,-36.1328125,-14.16015625,95.703125,-49.8046875,0.0
1734582136.9095795,40.52734375,-14.16015625,152.34375,27.34375,0.0
1734582136.9134684,29.296875,-22.94921875,113.76953125,33.203125,0.0
1734582136.917357,-73.73046875,-26.85546875,84.47265625,-55.6640625,0.0
1734582136.9212456,-144.04296875,-15.625,-86.42578125,-98.6328125,0.0
1734582136.9251342,-45.41015625,-25.390625,-192.3828125,-53.22265625,0.0
1734582136.9290228,32.71484375,-3.90625,155.76171875,21.97265625,0.0
1734582136.9329116,-14.16015625,7.32421875,153.80859375,57.6171875,0.0
1734582136.9368002,-40.52734375,-18.06640625,177.734375,13.18359375,0.0
1734582136.9406888,-58.10546875,-7.8125,129.8828125,-49.8046875,0.0
1734582136.9447355,-42.48046875,-5.859375,100.09765625,-44.921875,0.0
1734582136.9486241,27.34375,-19.53125,139.16015625,20.01953125,0.0
1734582136.952513,26.3671875,-25.390625,132.8125,43.9453125,0.0
1734582136.9564016,-53.22265625,-13.671875,149.90234375,-28.80859375,0.0
1734582136.9602902,-111.328125,-18.5546875,116.69921875,-91.796875,0.0
1734582136.964179,-76.66015625,-15.13671875,18.06640625,-71.2890625,0.0
1734582136.9680676,-11.23046875,-3.90625,-40.52734375,6.34765625,0.0
1734582136.9719565,33.203125,-14.6484375,137.6953125,46.875,0.0
1734582136.975845,-26.3671875,-19.53125,138.18359375,2.44140625,0.0
1734582136.9797337,-134.765625,-18.06640625,18.5546875,-65.4296875,0.0
1734582136.9836226,-107.421875,-13.671875,32.2265625,-67.3828125,0.0
1734582136.9875112,10.25390625,-6.8359375,151.3671875,3.90625,0.0
1734582136.991549,70.3125,4.8828125,179.6875,56.640625,0.0
1734582136.9954376,-10.7421875,-6.8359375,165.0390625,22.94921875,0.0
1734582136.9993265,-89.84375,-12.6953125,94.7265625,-57.12890625,0.0
1734582137.0032153,-86.42578125,-0.48828125,104.4921875,-74.21875,0.0
1734582137.007104,-29.296875,0.48828125,121.58203125,-19.04296875,0.0
1734582137.0109928,25.390625,-2.44140625,83.0078125,42.48046875,0.0
1734582137.0148814,-18.06640625,-7.32421875,128.41796875,25.87890625,0.0
1734582137.0187702,-109.375,-10.7421875,90.33203125,-47.8515625,0.0
1734582137.0226588,-117.67578125,-15.13671875,58.10546875,-83.984375,0.0
1734582137.0265477,-44.921875,-1.46484375,13.18359375,-27.83203125,0.0
1734582137.0304363,33.69140625,0.0,33.203125,53.22265625,0.0
1734582137.0343251,8.30078125,-10.25390625,133.7890625,36.1328125,0.0
1734582137.038467,-95.703125,-9.765625,76.66015625,-43.9453125,0.0
1734582137.0423558,-116.69921875,-11.23046875,118.65234375,-82.51953125,0.0
1734582137.0462444,-38.57421875,-12.6953125,125.48828125,-47.36328125,0.0
1734582137.0501332,25.87890625,-8.30078125,187.98828125,16.11328125,0.0
1734582137.054022,-8.7890625,-15.625,106.93359375,26.85546875,0.0
1734582137.057911,-57.6171875,-20.01953125,-43.45703125,-32.2265625,0.0
1734582137.0617998,-91.30859375,-14.6484375,86.42578125,-64.94140625,0.0
1734582137.0656884,-77.63671875,-12.6953125,182.6171875,-24.90234375,0.0
1734582137.0695772,8.30078125,-12.6953125,50.29296875,49.31640625,0.0
1734582137.073466,43.45703125,-10.25390625,-62.01171875,63.4765625,0.0
1734582137.077355,-60.546875,-17.578125,111.81640625,-20.01953125,0.0
1734582137.0812435,-131.8359375,-10.7421875,147.94921875,-92.28515625,0.0
1734582137.0853655,-83.49609375,-7.8125,112.3046875,-60.546875,0.0
1734582137.0892544,14.6484375,-15.625,79.1015625,36.62109375,0.0
1734582137.0931432,27.83203125,-8.7890625,167.96875,54.6875,0.0
1734582137.097032,-59.5703125,-16.11328125,121.09375,-21.484375,0.0
1734582137.100921,-80.56640625,-14.6484375,-20.01953125,-62.01171875,0.0
1734582137.1048098,-46.38671875,-9.27734375,27.83203125,-43.45703125,0.0
1734582137.1086986,42.48046875,-14.6484375,132.8125,36.62109375,0.0
1734582137.1125875,43.9453125,-13.18359375,119.62890625,62.98828125,0.0
1734582137.1164763,-61.03515625,-4.39453125,52.734375,2.9296875,0.0
1734582137.1203651,-104.4921875,0.0,0.48828125,-60.05859375,0.0
1734582137.124254,-39.55078125,-8.30078125,118.1640625,-50.29296875,0.0
1734582137.1281428,35.15625,7.8125,163.57421875,18.06640625,0.0
1734582137.1322508,23.92578125,7.8125,169.43359375,54.19921875,0.0
1734582137.1361396,-52.734375,-14.6484375,145.01953125,12.6953125,0.0
1734582137.1400287,-86.9140625,-16.11328125,127.9296875,-62.98828125,0.0
1734582137.1439176,-91.796875,-9.765625,64.453125,-64.94140625,0.0
1734582137.1478064,-21.97265625,-4.39453125,17.08984375,8.7890625,0.0
1734582137.1516953,71.77734375,-0.9765625,132.32421875,54.19921875,0.0
1734582137.155584,1.46484375,2.44140625,161.1328125,4.8828125,0.0
1734582137.1594732,-101.07421875,0.9765625,11.71875,-63.4765625,0.0
1734582137.163362,-89.84375,-3.41796875,-68.84765625,-61.03515625,0.0
1734582137.1672509,-14.6484375,-8.7890625,138.18359375,11.71875,0.0
1734582137.1711397,35.15625,-8.30078125,195.3125,52.24609375,0.0
1734582137.1750288,1.953125,0.0,206.0546875,4.8828125,0.0
1734582137.1791286,-76.66015625,-2.9296875,121.09375,-59.5703125,0.0
1734582137.1830175,-81.54296875,-6.34765625,109.86328125,-65.91796875,0.0
1734582137.1869066,-2.44140625,-5.859375,135.25390625,-3.90625,0.0
1734582137.1907954,40.0390625,-5.859375,118.1640625,59.5703125,0.0
1734582137.1946845,-10.25390625,-2.9296875,102.5390625,38.57421875,0.0
1734582137.1985734,-70.80078125,-6.34765625,68.359375,-35.15625,0.0
1734582137.2024624,-84.9609375,-2.44140625,35.15625,-77.63671875,0.0
1734582137.2063513,-35.64453125,-3.90625,157.71484375,-27.83203125,0.0
1734582137.2102401,38.0859375,-18.06640625,208.984375,46.875,0.0
1734582137.2141292,2.44140625,-20.01953125,102.5390625,33.203125,0.0
1734582137.218018,-93.75,-16.11328125,93.75,-44.43359375,0.0
1734582137.2219071,-125.0,-9.765625,25.390625,-79.58984375,0.0
1734582137.2261047,-40.0390625,-2.9296875,73.73046875,-31.25,0.0
1734582137.2299936,36.1328125,-6.8359375,187.01171875,40.0390625,0.0
1734582137.2338827,3.90625,-7.32421875,121.09375,40.52734375,0.0
1734582137.2377717,-66.89453125,-15.13671875,81.0546875,-36.1328125,0.0
1734582137.2416608,-118.65234375,-11.23046875,92.28515625,-81.0546875,0.0
1734582137.2455497,-40.52734375,-2.9296875,115.72265625,-48.828125,0.0
1734582137.2494388,46.38671875,-15.13671875,81.0546875,26.3671875,0.0
1734582137.2533278,-0.48828125,-18.06640625,3.90625,58.10546875,0.0
1734582137.257217,-90.33203125,-8.7890625,117.67578125,-19.53125,0.0
1734582137.261106,-98.6328125,-9.765625,151.3671875,-84.9609375,0.0
1734582137.2649949,-70.80078125,-18.06640625,127.9296875,-57.12890625,0.0
1734582137.268884,4.39453125,-15.625,128.90625,16.6015625,0.0
1734582137.2729414,6.8359375,-21.97265625,118.65234375,41.50390625,0.0
1734582137.2768304,-90.8203125,-22.94921875,104.00390625,-25.390625,0.0
1734582137.2807195,-102.05078125,-20.01953125,115.72265625,-83.0078125,0.0
1734582137.2846086,-40.52734375,-19.04296875,104.00390625,-71.2890625,0.0
1734582137.2884977,27.34375,-17.08984375,130.37109375,0.0,0.0
1734582137.2923868,39.0625,-20.99609375,75.1953125,48.33984375,0.0
1734582137.2962759,-73.2421875,-15.13671875,61.5234375,-3.90625,0.0
1734582137.300165,-123.046875,-16.6015625,125.9765625,-85.9375,0.0
1734582137.3040538,-34.1796875,-18.5546875,108.88671875,-81.0546875,0.0
1734582137.3079429,0.48828125,-11.23046875,163.0859375,-7.32421875,0.0
1734582137.311832,26.3671875,-10.7421875,110.83984375,47.8515625,0.0
1734582137.315721,-23.4375,-10.7421875,-38.57421875,19.53125,0.0
1734582137.3197713,-102.05078125,-13.671875,131.34765625,-77.63671875,0.0
1734582137.3236604,-53.7109375,-21.97265625,100.5859375,-86.9140625,0.0
1734582137.3275495,36.1328125,-27.83203125,72.75390625,1.953125,0.0
1734582137.3314385,54.19921875,-23.4375,165.0390625,38.0859375,0.0
1734582137.3353276,-30.2734375,-19.04296875,146.484375,-25.87890625,0.0
1734582137.3392167,-109.86328125,-20.5078125,53.22265625,-101.07421875,0.0
1734582137.3431058,-106.4453125,-11.71875,-23.4375,-109.86328125,0.0
1734582137.3469949,-22.4609375,-10.7421875,113.76953125,-46.38671875,0.0
1734582137.350884,52.24609375,-10.7421875,238.28125,21.484375,0.0
1734582137.354773,5.37109375,-9.27734375,51.26953125,-4.8828125,0.0
1734582137.3586621,-115.72265625,-19.53125,-88.8671875,-101.07421875,0.0
1734582137.3625515,-93.26171875,-18.5546875,125.48828125,-135.25390625,0.0
1734582137.3665817,-28.3203125,-17.08984375,183.10546875,-61.03515625,0.0
1734582137.370471,25.87890625,-19.53125,188.96484375,-2.9296875,0.0
1734582137.37436,5.859375,-16.11328125,118.1640625,-11.23046875,0.0
1734582137.3782492,-75.1953125,-13.671875,145.01953125,-84.9609375,0.0
1734582137.3821383,-104.98046875,-12.6953125,121.58203125,-122.0703125,0.0
1734582137.3860276,-32.2265625,-12.20703125,84.47265625,-53.22265625,0.0
1734582137.3899167,37.59765625,-12.6953125,143.06640625,13.18359375,0.0
1734582137.3938057,4.8828125,-8.30078125,154.78515625,8.7890625,0.0
1734582137.3976948,-74.70703125,-11.71875,139.6484375,-60.546875,0.0
1734582137.4015841,-114.2578125,-3.41796875,136.71875,-94.7265625,0.0
1734582137.4054732,-48.828125,7.8125,130.37109375,-35.15625,0.0
1734582137.4093623,57.12890625,0.9765625,200.68359375,24.4140625,0.0
1734582137.4135084,47.8515625,-3.90625,0.0,16.6015625,0.0
1734582137.4173977,-41.50390625,-7.32421875,0.0,-42.96875,0.0
1734582137.4212868,-83.984375,-10.25390625,0.0,-90.33203125,0.0
1734582137.4251761,-40.52734375,-14.16015625,0.0,-59.5703125,0.0
1734582137.4290652,23.4375,-17.08984375,0.0,14.6484375,0.0
1734582137.4329545,12.20703125,-13.18359375,0.0,34.1796875,0.0
1734582137.4368436,-54.6875,-16.11328125,0.0,-35.64453125,0.0
1734582137.440733,-94.7265625,-2.9296875,0.0,-94.23828125,0.0
1734582137.444622,-57.6171875,12.6953125,0.0,-63.96484375,0.0
1734582137.4485114,34.1796875,-4.8828125,0.0,27.83203125,0.0
1734582137.4524004,43.45703125,-14.6484375,0.0,53.22265625,0.0
1734582137.4562898,-67.87109375,-5.37109375,0.0,-32.71484375,0.0
1734582137.460421,-100.5859375,-9.765625,152.83203125,-78.61328125,0.0
1734582137.4643104,-48.33984375,-19.04296875,101.07421875,-60.05859375,0.0
1734582137.4681997,12.20703125,-16.6015625,180.6640625,8.30078125,0.0
1734582137.4720888,62.98828125,-17.08984375,221.6796875,47.36328125,0.0
1734582137.4759781,-5.37109375,-17.578125,104.98046875,-5.37109375,0.0
1734582137.4798675,-80.56640625,-18.06640625,80.078125,-70.3125,0.0
1734582137.4837568,-48.828125,-19.04296875,178.7109375,-62.98828125,0.0
1734582137.4876459,20.01953125,-14.16015625,143.06640625,1.46484375,0.0
1734582137.4915352,53.22265625,-11.23046875,197.265625,43.45703125,0.0
1734582137.4954245,-10.25390625,-10.7421875,171.875,12.20703125,0.0
1734582137.4993138,-72.75390625,-7.8125,134.765625,-67.3828125,0.0
1734582137.503203,-49.8046875,-9.765625,145.5078125,-71.77734375,0.0
1734582137.5073085,15.13671875,-8.30078125,162.109375,-1.953125,0.0
1734582137.5111978,54.6875,-6.34765625,172.8515625,45.41015625,0.0
1734582137.5150871,-0.48828125,-4.8828125,160.64453125,7.32421875,0.0
1734582137.5189764,-100.09765625,-5.37109375,94.23828125,-70.3125,0.0
1734582137.5228658,-102.5390625,-14.6484375,10.7421875,-76.171875,0.0
1734582137.526755,-20.5078125,-16.11328125,92.7734375,-19.53125,0.0
1734582137.5306444,25.87890625,-20.01953125,194.3359375,35.15625,0.0
1734582137.5345337,-5.859375,-15.625,70.3125,18.5546875,0.0
1734582137.538423,-74.21875,-9.27734375,-41.50390625,-56.640625,0.0
1734582137.5423124,-79.58984375,-9.765625,126.46484375,-94.23828125,0.0
1734582137.5462017,-18.5546875,-14.6484375,167.48046875,-41.9921875,0.0
1734582137.550091,23.4375,-7.32421875,220.703125,27.83203125,0.0
1734582137.5541778,-12.6953125,-5.37109375,170.41015625,18.06640625,0.0
1734582137.558067,-71.2890625,-19.53125,126.953125,-57.12890625,0.0
1734582137.5619564,-53.22265625,-19.53125,144.04296875,-84.9609375,0.0
1734582137.5658457,-28.3203125,-17.08984375,131.34765625,-47.8515625,0.0
1734582137.569735,12.6953125,-24.90234375,145.01953125,0.9765625,0.0
1734582137.5736246,14.16015625,-25.390625,119.62890625,6.34765625,0.0
1734582137.577514,-59.08203125,-18.06640625,153.3203125,-54.19921875,0.0
1734582137.5814033,-112.3046875,-15.13671875,-17.578125,-101.07421875,0.0
1734582137.5852926,-54.6875,-12.20703125,-82.03125,-62.5,0.0
1734582137.589182,41.015625,-7.8125,186.5234375,16.6015625,0.0
1734582137.5930712,29.296875,-10.25390625,175.29296875,26.3671875,0.0
1734582137.5969605,-50.78125,-3.41796875,166.9921875,-37.59765625,0.0
1734582137.6010303,-73.73046875,0.0,152.83203125,-83.49609375,0.0
1734582137.60492,-31.25,-6.34765625,154.78515625,-64.94140625,0.0
1734582137.6088092,13.18359375,-8.7890625,158.203125,6.8359375,0.0
1734582137.6126986,8.30078125,-11.71875,150.87890625,26.85546875,0.0
1734582137.616588,-46.875,-6.8359375,133.7890625,-39.55078125,0.0
1734582137.6204774,-81.0546875,-16.6015625,124.0234375,-95.703125,0.0
1734582137.6243668,-47.8515625,-17.578125,78.125,-72.75390625,0.0
1734582137.6282563,3.41796875,-16.6015625,23.4375,-4.8828125,0.0
1734582137.6321456,0.9765625,-17.08984375,170.8984375,22.4609375,0.0
1734582137.636035,-30.2734375,-20.01953125,152.83203125,-27.34375,0.0
1734582137.6399245,-77.63671875,-22.4609375,276.85546875,-83.49609375,0.0
1734582137.6438138,-68.84765625,-14.16015625,254.8828125,-70.80078125,0.0
1734582137.6478808,-5.37109375,-17.578125,124.0234375,-14.6484375,0.0
1734582137.65177,15.625,-21.97265625,195.80078125,20.01953125,0.0
1734582137.6556597,-37.109375,-19.53125,139.16015625,-8.30078125,0.0
1734582137.659549,-78.125,-14.6484375,111.328125,-62.01171875,0.0
1734582137.6634386,-56.640625,-11.23046875,89.84375,-63.4765625,0.0
1734582137.667328,-1.46484375,-16.6015625,134.27734375,-14.16015625,0.0
1734582137.6712174,12.20703125,-14.6484375,35.64453125,36.62109375,0.0
1734582137.6751068,-29.296875,-14.6484375,-91.796875,11.71875,0.0
1734582137.6789963,-77.1484375,-13.18359375,144.04296875,-66.89453125,0.0
1734582137.6828856,-61.03515625,-20.01953125,120.1171875,-90.8203125,0.0
1734582137.6867752,-17.08984375,-16.11328125,132.8125,-35.15625,0.0
1734582137.6906645,18.5546875,-8.30078125,163.57421875,36.1328125,0.0
1734582137.6947129,-12.20703125,-14.6484375,159.1796875,11.71875,0.0
1734582137.6986024,-80.078125,-16.6015625,122.0703125,-62.01171875,0.0
1734582137.7024918,-62.5,-6.8359375,93.26171875,-79.1015625,0.0
1734582137.7063813,-8.7890625,-9.27734375,128.41796875,-31.25,0.0
1734582137.710271,9.765625,-15.13671875,174.31640625,26.3671875,0.0
1734582137.7141602,-11.71875,-11.71875,84.9609375,16.11328125,0.0
1734582137.7180498,-76.66015625,-10.25390625,-57.6171875,-55.17578125,0.0
1734582137.721939,-76.171875,-12.20703125,52.24609375,-91.30859375,0.0
1734582137.7258286,-3.41796875,-15.13671875,140.625,-52.24609375,0.0
1734582137.7297182,16.6015625,-17.08984375,88.8671875,5.37109375,0.0
1734582137.7336075,-8.30078125,-17.08984375,83.0078125,20.99609375,0.0
1734582137.737497,-66.89453125,-13.18359375,142.578125,-48.828125,0.0
1734582137.7416437,-82.51953125,-16.6015625,146.484375,-104.00390625,0.0
1734582137.7455332,-33.69140625,-17.578125,106.4453125,-60.05859375,0.0
1734582137.7494228,-12.6953125,-16.6015625,84.9609375,3.90625,0.0
1734582137.7533123,6.8359375,-14.6484375,161.1328125,15.13671875,0.0
1734582137.757202,-51.26953125,-15.625,171.38671875,-43.9453125,0.0
1734582137.7610912,-103.515625,-18.5546875,44.43359375,-87.890625,0.0
1734582137.7649808,-59.08203125,-3.90625,-51.7578125,-45.8984375,0.0
1734582137.7688704,11.71875,-8.7890625,147.94921875,28.3203125,0.0
1734582137.77276,20.01953125,-20.5078125,141.6015625,37.109375,0.0
1734582137.7766495,-56.640625,-16.11328125,-2.9296875,-29.78515625,0.0
1734582137.780539,-98.14453125,-13.671875,55.17578125,-75.1953125,0.0
1734582137.7844286,-40.52734375,-6.8359375,145.01953125,-54.19921875,0.0
1734582137.7885628,17.578125,-3.90625,162.109375,7.32421875,0.0
1734582137.7924523,-5.37109375,-0.48828125,178.22265625,30.76171875,0.0
1734582137.796342,-71.2890625,0.48828125,148.4375,-18.5546875,0.0
1734582137.8002315,-99.12109375,-11.23046875,140.625,-75.68359375,0.0
1734582137.8041213,-70.3125,-15.13671875,99.12109375,-61.03515625,0.0
1734582137.8080108,1.953125,-12.20703125,59.08203125,13.671875,0.0
1734582137.8119004,29.78515625,-12.20703125,90.8203125,60.546875,0.0
1734582137.81579,-46.38671875,-10.7421875,155.2734375,2.44140625,0.0
1734582137.8196795,-108.3984375,-13.18359375,25.390625,-86.42578125,0.0
1734582137.823569,-102.5390625,-24.4140625,-137.6953125,-76.171875,0.0
1734582137.8274586,-44.921875,-27.83203125,135.7421875,-11.23046875,0.0
1734582137.8313484,1.953125,-22.4609375,220.21484375,26.3671875,0.0
1734582137.835476,-43.45703125,-22.94921875,177.734375,-13.671875,0.0
1734582137.8393655,-116.69921875,-23.92578125,81.54296875,-78.61328125,0.0
1734582137.843255,-89.35546875,-27.34375,110.3515625,-91.30859375,0.0
1734582137.8471448,-2.44140625,-25.87890625,162.109375,-21.97265625,0.0
1734582137.8510344,13.671875,-21.484375,169.921875,37.109375,0.0
1734582137.8549242,-61.03515625,-20.5078125,121.58203125,-4.39453125,0.0
1734582137.8588138,-123.046875,-10.25390625,95.703125,-78.125,0.0
1734582137.8627033,-94.23828125,-13.18359375,113.76953125,-90.33203125,0.0
1734582137.8665931,-25.390625,-16.11328125,19.04296875,-24.4140625,0.0
1734582137.8704827,27.34375,-9.765625,10.7421875,37.109375,0.0
1734582137.8743722,-12.6953125,-13.18359375,182.6171875,-5.859375,0.0
1734582137.878262,-106.4453125,-15.625,133.7890625,-78.125,0.0
1734582137.8823662,-95.21484375,-10.7421875,140.13671875,-90.8203125,0.0
1734582137.886256,-19.04296875,-10.25390625,140.13671875,-41.015625,0.0
1734582137.8901455,35.15625,-7.8125,177.24609375,16.6015625,0.0
1734582137.8940353,-4.39453125,-10.25390625,142.08984375,11.71875,0.0
1734582137.8979251,-103.515625,-17.08984375,43.9453125,-48.33984375,0.0
1734582137.9018147,-114.74609375,-20.01953125,62.5,-98.6328125,0.0
1734582137.9057045,-37.59765625,-16.11328125,132.8125,-60.05859375,0.0
1734582137.909594,35.15625,-8.30078125,115.234375,23.4375,0.0
1734582137.9134839,22.4609375,-8.7890625,27.83203125,35.64453125,0.0
1734582137.9173734,-81.0546875,-1.46484375,131.8359375,-53.22265625,0.0
1734582137.9212632,-115.234375,-12.6953125,139.16015625,-107.91015625,0.0
1734582137.925153,-22.4609375,-20.5078125,119.140625,-58.59375,0.0
1734582137.9292345,53.7109375,-12.20703125,123.046875,15.13671875,0.0
1734582137.9331243,23.92578125,-11.71875,181.640625,29.78515625,0.0
1734582137.9370139,-59.08203125,-8.7890625,148.4375,-37.59765625,0.0
1734582137.9409037,-82.51953125,-1.46484375,118.65234375,-91.796875,0.0
1734582137.9447935,-36.62109375,-2.44140625,103.02734375,-60.546875,0.0
1734582137.9486833,31.25,-10.7421875,166.50390625,7.8125,0.0
1734582137.9525728,36.1328125,-9.765625,265.13671875,29.296875,0.0
1734582137.9564626,-41.015625,-6.34765625,-18.06640625,-14.6484375,0.0
1734582137.9603524,-121.58203125,-7.8125,-136.71875,-80.56640625,0.0
1734582137.9642422,-74.70703125,-2.9296875,143.5546875,-76.171875,0.0
1734582137.9681318,34.1796875,-3.41796875,176.26953125,5.859375,0.0
1734582137.9720216,45.41015625,-8.30078125,231.4453125,42.48046875,0.0
1734582137.976099,0.0,-4.39453125,0.0,-25.87890625,0.0
1734582137.9799888,0.0,-0.9765625,0.0,-99.609375,0.0
1734582137.9838786,0.0,-2.44140625,0.0,-87.890625,0.0
1734582137.9877682,0.0,-7.8125,0.0,-21.484375,0.0
1734582137.991658,0.0,-15.625,0.0,40.52734375,0.0
1734582137.9955478,0.0,-17.578125,0.0,4.8828125,0.0
1734582137.9994376,0.0,-8.30078125,0.0,-82.03125,0.0
1734582138.0033274,0.0,-1.953125,0.0,-95.703125,0.0
1734582138.0072172,0.0,-5.37109375,0.0,-35.64453125,0.0
1734582138.011107,0.0,-11.23046875,0.0,32.2265625,0.0
1734582138.0149968,0.0,-12.6953125,0.0,6.34765625,0.0
1734582138.0188866,0.0,-11.71875,0.0,-81.0546875,0.0
1734582138.0229468,-102.5390625,-10.25390625,96.19140625,-110.83984375,0.0
1734582138.0268366,-10.7421875,-0.48828125,155.2734375,-45.41015625,0.0
1734582138.0307264,29.296875,-2.9296875,166.015625,15.625,0.0
1734582138.0346162,-34.66796875,-17.578125,152.83203125,-16.11328125,0.0
1734582138.038506,-103.02734375,-20.99609375,119.140625,-85.44921875,0.0
1734582138.042396,-107.421875,-19.04296875,105.95703125,-104.98046875,0.0
1734582138.0462859,-15.13671875,-15.13671875,-58.59375,-42.96875,0.0
1734582138.0501757,28.3203125,-15.625,-83.49609375,27.83203125,0.0
1734582138.0540655,-25.87890625,-18.5546875,190.4296875,-3.41796875,0.0
1734582138.0579553,-92.7734375,-26.3671875,135.7421875,-87.890625,0.0
1734582138.061845,-111.328125,-22.4609375,61.03515625,-111.81640625,0.0
1734582138.0657349,-30.76171875,-15.13671875,120.1171875,-52.24609375,0.0
1734582138.069777,36.62109375,-14.16015625,189.453125,7.32421875,0.0
1734582138.0736668,-4.8828125,-6.34765625,156.25,7.32421875,0.0
1734582138.0775566,-77.1484375,-6.8359375,132.32421875,-58.59375,0.0
1734582138.0814466,-83.49609375,-5.37109375,138.671875,-101.5625,0.0
1734582138.0853364,-30.76171875,-2.44140625,157.71484375,-47.36328125,0.0
1734582138.0892262,26.3671875,-3.90625,136.23046875,32.2265625,0.0
1734582138.093116,5.37109375,-3.90625,46.38671875,31.25,0.0
1734582138.097006,-82.03125,-12.6953125,115.234375,-55.6640625,0.0
1734582138.100896,-104.98046875,-16.11328125,167.48046875,-101.07421875,0.0
1734582138.1047857,-31.73828125,-14.6484375,36.1328125,-54.6875,0.0
1734582138.1086755,29.296875,-17.578125,84.9609375,8.30078125,0.0
1734582138.1125655,21.97265625,-14.16015625,196.77734375,21.484375,0.0
1734582138.1165957,0.0,-5.37109375,155.76171875,-28.80859375,0.0
1734582138.1204855,0.0,-4.8828125,95.703125,-91.30859375,0.0
1734582138.1243756,0.0,-5.37109375,46.875,-70.80078125,0.0
1734582138.1282654,0.0,-2.44140625,166.50390625,5.859375,0.0
1734582138.1321552,0.0,-5.859375,244.140625,23.4375,0.0
1734582138.1360452,0.0,-5.859375,67.3828125,-27.83203125,0.0
1734582138.139935,0.0,-13.671875,10.25390625,-87.40234375,0.0
1734582138.143825,0.0,-18.06640625,138.671875,-80.56640625,0.0
1734582138.1477149,0.0,-11.23046875,119.140625,-9.765625,0.0
1734582138.1516047,0.0,-10.7421875,90.33203125,38.57421875,0.0
1734582138.1554947,0.0,-6.34765625,116.2109375,-13.18359375,0.0
1734582138.1593845,0.0,-3.41796875,110.3515625,-98.14453125,0.0
1734582138.1635206,-76.171875,-7.8125,0.0,-83.984375,0.0
1734582138.1674104,-9.27734375,-1.46484375,0.0,-20.5078125,0.0
1734582138.1713004,20.5078125,-1.953125,0.0,16.6015625,0.0
1734582138.1751904,-37.59765625,-11.71875,0.0,-23.4375,0.0
1734582138.1790802,-110.83984375,-5.37109375,0.0,-96.19140625,0.0
1734582138.1829703,-95.703125,-1.46484375,0.0,-91.30859375,0.0
1734582138.18686,-9.765625,1.953125,0.0,-30.76171875,0.0
1734582138.1907501,37.109375,0.0,0.0,15.13671875,0.0
1734582138.1946402,-25.390625,1.46484375,0.0,8.7890625,0.0
1734582138.19853,-112.79296875,-0.48828125,0.0,-62.01171875,0.0
1734582138.20242,-106.93359375,-6.34765625,0.0,-100.09765625,0.0
1734582138.20631,-23.92578125,-6.34765625,0.0,-37.109375,0.0
1734582138.21043,35.15625,-6.8359375,191.40625,24.4140625,0.0
1734582138.21432,1.953125,-1.953125,93.75,14.16015625,0.0
1734582138.21821,-76.66015625,-5.859375,37.109375,-66.40625,0.0
1734582138.2220998,-87.890625,-11.71875,41.015625,-102.5390625,0.0
1734582138.2259898,-11.23046875,-8.30078125,79.58984375,-48.33984375,0.0
1734582138.2298799,43.9453125,-10.25390625,125.9765625,14.16015625,0.0
1734582138.23377,6.8359375,-11.23046875,153.3203125,2.44140625,0.0
1734582138.23766,-73.73046875,-8.30078125,107.421875,-75.1953125,0.0
1734582138.24155,-101.5625,-7.32421875,-45.41015625,-98.14453125,0.0
1734582138.24544,-37.59765625,-8.7890625,-76.171875,-43.9453125,0.0
1734582138.2493298,42.96875,-2.9296875,195.3125,12.6953125,0.0
1734582138.2532198,12.20703125,-8.7890625,168.45703125,11.23046875,0.0
1734582138.2573125,-90.33203125,-12.20703125,130.37109375,-67.3828125,0.0
1734582138.2612026,-126.46484375,-8.30078125,113.76953125,-109.86328125,0.0
1734582138.2650926,-63.4765625,-18.06640625,126.46484375,-73.73046875,0.0
1734582138.2689826,29.78515625,-18.5546875,136.71875,-14.6484375,0.0
1734582138.2728727,18.06640625,-19.04296875,49.31640625,-2.9296875,0.0
1734582138.2767627,-75.1953125,-19.04296875,23.4375,-57.6171875,0.0
1734582138.280653,-116.2109375,-12.6953125,82.03125,-92.28515625,0.0
1734582138.284543,-53.22265625,-8.7890625,35.15625,-73.73046875,0.0
1734582138.288433,20.5078125,-5.859375,3.90625,3.41796875,0.0
1734582138.292323,18.5546875,-2.44140625,147.94921875,23.4375,0.0
1734582138.2962132,-45.8984375,-4.39453125,163.57421875,-49.8046875,0.0
1734582138.3001032,-112.3046875,-12.20703125,72.265625,-108.88671875,0.0
1734582138.304199,0.0,-18.5546875,43.45703125,0.0,0.0
1734582138.3080893,0.0,-12.20703125,164.0625,0.0,0.0
1734582138.3119793,0.0,-8.30078125,170.8984375,0.0,0.0
1734582138.3158693,0.0,-17.08984375,148.92578125,0.0,0.0
1734582138.3197594,0.0,-19.53125,84.9609375,0.0,0.0
1734582138.3236494,0.0,-11.71875,63.4765625,0.0,0.0
1734582138.3275397,0.0,-8.30078125,211.9140625,0.0,0.0
1734582138.3314297,0.0,-12.20703125,37.109375,0.0,0.0
1734582138.3353198,0.0,-19.53125,-110.3515625,0.0,0.0
1734582138.3392098,0.0,-19.04296875,148.92578125,0.0,0.0
1734582138.3431,0.0,-15.625,128.90625,0.0,0.0
1734582138.34699,0.0,-14.16015625,213.8671875,0.0,0.0
1734582138.3510652,42.96875,-18.06640625,196.77734375,28.3203125,0.0
1734582138.3549552,-25.390625,-20.01953125,152.34375,-14.6484375,0.0
1734582138.3588455,-92.28515625,-20.01953125,118.1640625,-71.2890625,0.0
1734582138.3627355,-91.796875,-18.06640625,72.75390625,-72.75390625,0.0
1734582138.3666255,-7.8125,-13.671875,146.484375,-27.83203125,0.0
1734582138.3705158,46.38671875,-8.7890625,183.10546875,21.484375,0.0
1734582138.3744059,-13.671875,-9.765625,83.0078125,8.30078125,0.0
1734582138.3782961,-79.58984375,-18.06640625,-50.78125,-52.24609375,0.0
1734582138.3821862,-80.078125,-16.6015625,100.09765625,-86.42578125,0.0
1734582138.3860762,-15.625,-6.8359375,164.55078125,-35.64453125,0.0
1734582138.3899665,32.71484375,1.953125,155.76171875,29.78515625,0.0
1734582138.3938565,-7.8125,-1.46484375,97.16796875,11.71875,0.0
1734582138.3979235,-58.59375,-4.39453125,0.0,-63.96484375,0.0
1734582138.4018137,-58.59375,-7.32421875,0.0,-78.125,0.0
1734582138.4057038,-13.671875,-17.08984375,0.0,-33.203125,0.0
1734582138.409594,27.34375,-13.671875,0.0,17.578125,0.0
1734582138.413484,21.97265625,-0.48828125,0.0,33.69140625,0.0
1734582138.4173744,-34.1796875,-2.9296875,0.0,-35.15625,0.0
1734582138.4212644,-65.91796875,-12.6953125,0.0,-74.70703125,0.0
1734582138.4251547,-16.6015625,-11.71875,0.0,-32.2265625,0.0
1734582138.429045,44.43359375,-6.34765625,0.0,20.99609375,0.0
1734582138.432935,27.34375,-1.953125,0.0,20.99609375,0.0
1734582138.4368253,-43.9453125,-4.39453125,0.0,-41.015625,0.0
1734582138.4407153,-62.5,-9.27734375,0.0,-85.44921875,0.0
1734582138.4447675,-16.6015625,-11.23046875,160.15625,-55.17578125,0.0
1734582138.4486575,31.73828125,-13.671875,181.640625,3.90625,0.0
1734582138.4525478,9.27734375,-14.6484375,155.76171875,26.85546875,0.0
1734582138.456438,-68.84765625,-16.6015625,122.0703125,-33.203125,0.0
1734582138.4603283,-104.00390625,-16.6015625,138.18359375,-101.07421875,0.0
1734582138.4642184,-54.6875,-12.6953125,87.40234375,-71.2890625,0.0
1734582138.4681087,3.41796875,-13.671875,106.4453125,0.0,0.0
1734582138.471999,11.71875,-12.6953125,203.61328125,20.01953125,0.0
1734582138.475889,-44.921875,-5.37109375,166.015625,-28.80859375,0.0
1734582138.4797792,-90.8203125,-7.8125,79.58984375,-84.47265625,0.0
1734582138.4836695,-53.22265625,-10.25390625,43.45703125,-73.73046875,0.0
1734582138.4875598,9.765625,-11.23046875,133.30078125,-10.7421875,0.0
1734582138.4915898,24.4140625,-12.20703125,209.9609375,17.578125,0.0
1734582138.49548,-46.875,-12.20703125,154.78515625,-1.953125,0.0
1734582138.49937,-91.796875,-6.34765625,55.17578125,-61.5234375,0.0
1734582138.5032604,-52.734375,-5.37109375,140.13671875,-74.21875,0.0
1734582138.5071507,9.765625,-10.25390625,153.80859375,-11.23046875,0.0
1734582138.511041,20.99609375,-13.671875,103.515625,33.203125,0.0
1734582138.5149312,-27.83203125,-18.06640625,115.72265625,8.30078125,0.0
1734582138.5188215,-83.49609375,-19.53125,107.91015625,-69.82421875,0.0
1734582138.5227115,-73.2421875,-21.97265625,90.8203125,-79.58984375,0.0
1734582138.5266018,-5.37109375,-18.06640625,106.93359375,-17.08984375,0.0
1734582138.530492,18.06640625,-10.7421875,167.48046875,29.296875,0.0
1734582138.5343823,-20.99609375,-8.7890625,168.9453125,-3.41796875,0.0
1734582138.538513,-82.03125,-10.7421875,142.578125,-81.54296875,0.0
1734582138.5424032,-80.078125,-14.16015625,160.15625,-90.33203125,0.0
1734582138.5462935,-18.06640625,-13.18359375,167.96875,-30.76171875,0.0
1734582138.5501838,15.13671875,-6.8359375,202.1484375,24.90234375,0.0
1734582138.554074,-27.34375,-6.8359375,136.23046875,7.8125,0.0
1734582138.5579643,-88.8671875,-11.23046875,14.16015625,-67.3828125,0.0
1734582138.5618546,-83.984375,-14.16015625,114.2578125,-95.21484375,0.0
1734582138.5657449,-25.87890625,-14.6484375,216.796875,-38.0859375,0.0
1734582138.5696352,9.765625,-13.671875,106.4453125,15.625,0.0
1734582138.5735254,-1.953125,-8.7890625,23.92578125,19.53125,0.0
1734582138.5774157,-70.3125,-5.859375,153.80859375,-44.43359375,0.0
1734582138.581306,-105.95703125,-7.32421875,174.31640625,-115.72265625,0.0
1734582138.5854166,-38.0859375,-7.32421875,227.05078125,-70.80078125,0.0
1734582138.5893068,0.9765625,-8.30078125,172.8515625,5.859375,0.0
1734582138.593197,-22.4609375,-15.13671875,149.90234375,7.32421875,0.0
1734582138.5970876,-70.80078125,-15.13671875,178.7109375,-69.3359375,0.0
1734582138.600978,-92.7734375,-12.20703125,125.9765625,-105.95703125,0.0
1734582138.6048682,-51.7578125,-9.765625,131.34765625,-64.453125,0.0
1734582138.6087587,-3.90625,-3.90625,185.05859375,-5.859375,0.0
1734582138.612649,-9.765625,-3.41796875,150.87890625,3.90625,0.0
1734582138.6165392,-66.40625,-3.90625,18.5546875,-41.50390625,0.0
1734582138.6204295,-99.12109375,-1.953125,-34.66796875,-82.51953125,0.0
1734582138.62432,-63.4765625,-7.8125,172.8515625,-68.359375,0.0
1734582138.6282103,0.9765625,-10.25390625,216.30859375,-4.39453125,0.0
1734582138.6323106,10.25390625,-8.7890625,235.83984375,16.6015625,0.0
1734582138.6362011,-62.01171875,-12.20703125,159.1796875,-47.36328125,0.0
1734582138.6400914,-94.7265625,-10.7421875,135.7421875,-90.33203125,0.0
1734582138.643982,-57.6171875,-10.7421875,126.953125,-70.80078125,0.0
1734582138.6478722,-8.30078125,-15.625,131.8359375,-12.6953125,0.0
1734582138.6517627,10.25390625,-14.16015625,122.55859375,24.4140625,0.0
1734582138.655653,-45.41015625,-10.7421875,153.3203125,-13.671875,0.0
1734582138.6595435,-96.6796875,-10.25390625,77.63671875,-83.0078125,0.0
1734582138.6634338,-70.80078125,-8.30078125,-38.57421875,-86.9140625,0.0
1734582138.6673243,-19.04296875,-11.23046875,130.859375,-20.5078125,0.0
1734582138.6712146,4.39453125,-12.20703125,195.80078125,11.71875,0.0
1734582138.675105,-48.828125,-13.18359375,144.53125,-26.85546875,0.0
1734582138.6791887,-100.5859375,-17.578125,80.56640625,-82.51953125,0.0
1734582138.6830792,-79.58984375,-17.08984375,137.6953125,-77.63671875,0.0
1734582138.6869698,-15.625,-13.18359375,171.38671875,-20.01953125,0.0
1734582138.69086,22.4609375,-15.13671875,167.96875,28.80859375,0.0
1734582138.6947505,-44.921875,-18.5546875,119.62890625,6.34765625,0.0
1734582138.698641,-91.796875,-15.625,106.4453125,-62.98828125,0.0
1734582138.7025313,-57.6171875,-13.18359375,205.078125,-78.125,0.0
1734582138.7064219,-16.6015625,-14.16015625,-3.41796875,-11.23046875,0.0
1734582138.7103124,24.4140625,-13.671875,-111.328125,43.9453125,0.0
1734582138.7142026,-16.11328125,-11.23046875,182.12890625,2.44140625,0.0
1734582138.7180932,-87.40234375,-11.71875,134.765625,-67.87109375,0.0
1734582138.7219837,-74.21875,-15.13671875,156.73828125,-81.0546875,0.0
1734582138.726052,-13.671875,-16.6015625,162.109375,-31.25,0.0
1734582138.7299426,18.06640625,-19.53125,171.38671875,21.97265625,0.0
1734582138.7338328,-15.13671875,-22.4609375,138.18359375,4.39453125,0.0
1734582138.7377234,-74.70703125,-22.94921875,32.71484375,-65.91796875,0.0
1734582138.7416139,-81.54296875,-25.87890625,89.35546875,-95.21484375,0.0
1734582138.7455044,-22.4609375,-26.3671875,116.69921875,-52.734375,0.0
1734582138.749395,16.11328125,-24.90234375,97.65625,0.0,0.0
1734582138.7532852,-21.97265625,-23.92578125,9.765625,12.6953125,0.0
1734582138.7571757,-77.63671875,-20.99609375,99.609375,-51.7578125,0.0
1734582138.7610662,-83.0078125,-15.13671875,149.90234375,-95.703125,0.0
1734582138.7649567,-31.73828125,-12.20703125,78.125,-43.9453125,0.0
1734582138.7688472,10.25390625,-14.16015625,90.8203125,10.25390625,0.0
1734582138.7728934,-4.39453125,-18.5546875,140.625,4.8828125,0.0
1734582138.776784,-65.91796875,-13.18359375,118.1640625,-49.8046875,0.0
1734582138.7806745,-93.26171875,-12.6953125,100.5859375,-88.8671875,0.0
1734582138.784565,-41.9921875,-17.08984375,85.9375,-55.6640625,0.0
1734582138.7884555,17.578125,-8.7890625,96.6796875,2.9296875,0.0
1734582138.792346,-3.41796875,-9.765625,133.30078125,8.7890625,0.0
1734582138.7962365,-76.66015625,-14.16015625,-26.3671875,-37.59765625,0.0
1734582138.800127,-99.12109375,-8.7890625,-208.0078125,-80.56640625,0.0
1734582138.8040175,-49.8046875,-2.9296875,101.5625,-71.77734375,0.0
1734582138.807908,9.27734375,-1.953125,143.5546875,-5.859375,0.0
1734582138.8117986,9.27734375,-5.859375,112.79296875,26.3671875,0.0
1734582138.815689,-48.33984375,-6.8359375,116.2109375,-29.296875,0.0
1734582138.8197231,-86.42578125,-7.8125,97.16796875,-78.125,0.0
1734582138.8236136,-61.03515625,-11.23046875,83.49609375,-67.87109375,0.0
1734582138.8275042,-18.06640625,-14.16015625,129.8828125,-25.87890625,0.0
1734582138.8313947,-2.9296875,-13.671875,141.6015625,18.5546875,0.0
1734582138.8352852,-34.66796875,-9.27734375,125.48828125,-21.97265625,0.0
1734582138.8391757,-79.58984375,-11.23046875,59.5703125,-84.9609375,0.0
1734582138.8430662,-67.87109375,-19.04296875,-83.0078125,-67.3828125,0.0
1734582138.8469567,-10.25390625,-13.18359375,98.14453125,-16.6015625,0.0
1734582138.8508472,19.04296875,-5.37109375,174.31640625,10.25390625,0.0
1734582138.8547378,-36.62109375,-8.30078125,48.33984375,-21.484375,0.0
1734582138.8586285,-85.9375,-10.25390625,19.04296875,-92.28515625,0.0
1734582138.862519,-67.87109375,-11.23046875,104.00390625,-97.65625,0.0
1734582138.8665447,-22.94921875,-13.18359375,0.0,-30.76171875,0.0
1734582138.8704352,-1.46484375,-13.671875,0.0,10.7421875,0.0
1734582138.8743258,-44.43359375,-18.5546875,0.0,-20.5078125,0.0
1734582138.8782163,-94.23828125,-25.87890625,0.0,-73.2421875,0.0
1734582138.882107,-72.265625,-17.08984375,0.0,-77.1484375,0.0
1734582138.8859975,-35.64453125,-12.20703125,0.0,-35.15625,0.0
1734582138.889888,-10.7421875,-15.625,0.0,8.30078125,0.0
1734582138.8937786,-26.3671875,-9.765625,0.0,-20.5078125,0.0
1734582138.8976693,-102.5390625,-9.765625,0.0,-84.47265625,0.0
1734582138.9015598,-121.58203125,-12.6953125,0.0,-104.98046875,0.0
1734582138.9054503,-73.2421875,-10.7421875,0.0,-53.7109375,0.0
1734582138.9093409,-28.80859375,-8.30078125,0.0,-2.9296875,0.0
1734582138.913468,-43.9453125,-8.30078125,131.8359375,-34.1796875,0.0
1734582138.9173584,-104.98046875,-5.859375,134.27734375,-103.02734375,0.0
1734582138.9212492,-120.1171875,-2.9296875,124.51171875,-127.44140625,0.0
1734582138.9251397,-57.6171875,-10.7421875,112.3046875,-83.984375,0.0
1734582138.9290304,-6.8359375,-14.16015625,94.7265625,-29.296875,0.0
1734582138.932921,-20.5078125,-7.32421875,69.82421875,-16.11328125,0.0
1734582138.9368114,-74.70703125,-6.34765625,110.3515625,-74.21875,0.0
1734582138.9407022,-102.05078125,-9.27734375,144.04296875,-109.375,0.0
1734582138.9445927,-56.15234375,-14.6484375,23.92578125,-53.22265625,0.0
1734582138.9484835,1.46484375,-15.625,32.71484375,4.8828125,0.0
1734582138.952374,-11.71875,-12.20703125,160.64453125,-3.41796875,0.0
1734582138.9562647,-63.96484375,-15.625,129.39453125,-62.5,0.0
1734582138.9603682,-82.03125,-16.11328125,151.85546875,-89.84375,0.0
1734582138.9642587,-49.31640625,-12.6953125,90.33203125,-62.5,0.0
1734582138.9681494,-2.44140625,-13.18359375,131.34765625,-15.13671875,0.0
1734582138.97204,-6.8359375,-17.08984375,163.57421875,5.37109375,0.0
1734582138.9759307,-67.3828125,-18.5546875,60.05859375,-36.62109375,0.0
1734582138.9798214,-95.21484375,-17.08984375,4.8828125,-85.44921875,0.0
1734582138.983712,-55.6640625,-17.08984375,86.42578125,-77.63671875,0.0
1734582138.9876027,-6.34765625,-12.6953125,178.7109375,-14.16015625,0.0
1734582138.9914935,-0.9765625,-12.20703125,-0.9765625,25.87890625,0.0
1734582138.995384,-53.22265625,-9.27734375,-97.65625,-25.87890625,0.0
1734582138.9992747,-86.42578125,-11.23046875,127.44140625,-98.6328125,0.0
1734582139.0031652,-48.828125,-12.6953125,105.46875,-78.61328125,0.0
1734582139.0072608,19.53125,-12.6953125,139.6484375,-12.20703125,0.0
1734582139.0111516,21.97265625,-17.08984375,145.01953125,16.6015625,0.0
1734582139.0150423,-40.52734375,-13.671875,137.20703125,-20.99609375,0.0
1734582139.018933,-76.171875,-13.18359375,85.44921875,-74.70703125,0.0
1734582139.0228238,-49.31640625,-13.671875,10.7421875,-76.171875,0.0
1734582139.0267143,-3.90625,-6.8359375,51.26953125,-8.7890625,0.0
1734582139.030605,2.9296875,-6.34765625,176.7578125,30.76171875,0.0
1734582139.0344958,-26.3671875,-11.23046875,87.890625,-5.859375,0.0
1734582139.0383866,-66.89453125,-10.25390625,-99.609375,-63.4765625,0.0
1734582139.0422773,-61.5234375,-3.90625,109.375,-78.61328125,0.0
1734582139.046168,-0.9765625,-1.46484375,146.484375,-18.06640625,0.0
1734582139.0500586,31.73828125,-4.39453125,284.66796875,19.53125,0.0
1734582139.0541475,-14.6484375,-4.39453125,271.484375,11.71875,0.0
1734582139.0580382,-74.70703125,-6.8359375,79.1015625,-57.12890625,0.0
1734582139.061929,-72.265625,-10.25390625,133.30078125,-111.328125,0.0
1734582139.0658197,-22.94921875,-9.765625,111.328125,-52.734375,0.0
1734582139.0697105,21.484375,-10.25390625,119.140625,5.859375,0.0
1734582139.0736012,-3.41796875,-10.25390625,78.125,1.46484375,0.0
1734582139.077492,-53.22265625,-11.23046875,105.95703125,-59.08203125,0.0
1734582139.0813828,-51.26953125,-8.30078125,-75.1953125,-75.1953125,0.0
1734582139.0852735,-24.90234375,-12.6953125,-193.359375,-25.87890625,0.0
1734582139.0891643,15.13671875,-21.97265625,177.734375,13.671875,0.0
1734582139.093055,2.9296875,-18.06640625,137.20703125,5.859375,0.0
1734582139.0969458,-65.4296875,-9.27734375,86.42578125,-49.8046875,0.0
1734582139.1010134,-88.37890625,-8.7890625,119.62890625,-83.984375,0.0
1734582139.1049042,-48.33984375,-10.7421875,140.625,-41.50390625,0.0
1734582139.1087952,0.48828125,-8.7890625,107.421875,21.484375,0.0
1734582139.112686,-16.6015625,-9.27734375,95.703125,8.30078125,0.0
1734582139.1165767,-70.80078125,-9.27734375,94.7265625,-53.7109375,0.0
1734582139.1204674,-85.44921875,-9.27734375,39.55078125,-89.35546875,0.0
1734582139.1243582,-44.921875,-15.625,43.9453125,-50.29296875,0.0
1734582139.128249,7.32421875,-17.08984375,14.6484375,17.578125,0.0
1734582139.1321397,-0.48828125,-13.18359375,127.44140625,8.30078125,0.0
1734582139.1360307,-62.01171875,-13.671875,168.45703125,-46.38671875,0.0
1734582139.1399214,-95.703125,-12.6953125,33.69140625,-78.61328125,0.0
1734582139.1438122,-41.50390625,-12.6953125,41.9921875,-58.59375,0.0
1734582139.1479743,13.671875,-15.625,159.66796875,0.0,0.0
1734582139.151865,0.0,-13.18359375,174.31640625,10.7421875,0.0
1734582139.1557558,-57.6171875,-11.23046875,131.34765625,-26.85546875,0.0
1734582139.1596467,-83.0078125,-15.625,46.875,-65.4296875,0.0
1734582139.1635375,-53.7109375,-16.11328125,52.734375,-40.52734375,0.0
1734582139.1674285,-15.625,-14.6484375,171.38671875,-3.41796875,0.0
1734582139.1713192,-10.25390625,-8.7890625,25.87890625,15.625,0.0
1734582139.17521,-49.8046875,-5.859375,-153.3203125,-19.04296875,0.0
1734582139.179101,-94.7265625,-8.30078125,116.2109375,-91.30859375,0.0
1734582139.1829917,-66.89453125,-8.7890625,115.234375,-76.171875,0.0
1734582139.1868827,-3.41796875,-13.671875,146.484375,-9.765625,0.0
1734582139.1907735,7.32421875,-14.6484375,197.75390625,25.390625,0.0
1734582139.1948097,-28.80859375,-10.7421875,165.52734375,-16.6015625,0.0
1734582139.1987007,-91.796875,-13.18359375,141.6015625,-71.77734375,0.0
1734582139.2025914,-84.47265625,-18.5546875,141.11328125,-68.84765625,0.0
1734582139.2064824,-8.30078125,-17.08984375,159.1796875,-20.99609375,0.0
1734582139.2103732,16.6015625,-14.6484375,177.24609375,20.5078125,0.0
1734582139.2142642,-36.1328125,-19.53125,145.99609375,-4.8828125,0.0
1734582139.218155,-83.984375,-18.5546875,91.796875,-72.265625,0.0
1734582139.222046,-68.359375,-17.578125,83.0078125,-84.9609375,0.0
1734582139.2259367,-6.34765625,-18.06640625,167.48046875,-28.3203125,0.0
1734582139.2298276,24.4140625,-16.6015625,91.796875,30.76171875,0.0
1734582139.2337184,-23.4375,-18.06640625,-100.09765625,24.4140625,0.0
1734582139.2376094,-73.2421875,-10.7421875,100.5859375,-47.36328125,0.0
1734582139.241622,-64.453125,-9.27734375,164.55078125,-86.9140625,0.0
1734582139.2455127,-23.92578125,-14.16015625,188.96484375,-49.31640625,0.0
1734582139.2494037,18.5546875,-8.30078125,147.94921875,14.6484375,0.0
1734582139.2532947,-7.8125,-3.90625,177.24609375,7.8125,0.0
1734582139.2571855,-79.58984375,-9.27734375,140.13671875,-64.94140625,0.0
1734582139.2610765,-89.35546875,-15.625,39.0625,-83.984375,0.0
1734582139.2649674,-37.59765625,-18.06640625,119.62890625,-35.64453125,0.0
1734582139.2688582,14.16015625,-15.625,195.3125,-2.44140625,0.0
1734582139.2727492,-6.34765625,-12.20703125,154.78515625,-11.23046875,0.0
1734582139.27664,-62.98828125,-10.25390625,135.25390625,-65.4296875,0.0
1734582139.280531,-68.84765625,-11.71875,127.9296875,-88.8671875,0.0
1734582139.284422,-26.85546875,-13.671875,179.19921875,-57.6171875,0.0
1734582139.2885454,3.41796875,-12.20703125,189.94140625,-15.625,0.0
1734582139.2924364,1.953125,-6.8359375,183.59375,-1.46484375,0.0
1734582139.2963274,-46.875,-7.32421875,149.4140625,-49.8046875,0.0
1734582139.3002183,-77.1484375,-11.23046875,140.13671875,-86.9140625,0.0
1734582139.3041093,-30.76171875,-15.13671875,135.25390625,-58.10546875,0.0
1734582139.308,18.06640625,-20.5078125,149.90234375,-4.8828125,0.0
1734582139.311891,20.5078125,-15.13671875,172.8515625,17.578125,0.0
1734582139.315782,-40.52734375,-11.23046875,192.87109375,-29.296875,0.0
1734582139.319673,-76.171875,-13.18359375,72.75390625,-79.58984375,0.0
1734582139.323564,-18.06640625,-15.625,40.0390625,-55.6640625,0.0
1734582139.327455,30.76171875,-16.11328125,166.015625,-0.48828125,0.0
1734582139.3313458,26.85546875,-15.625,159.1796875,19.53125,0.0
1734582139.3354604,-31.25,-14.16015625,155.2734375,-16.6015625,0.0
1734582139.3393514,-68.359375,-21.484375,83.0078125,-61.5234375,0.0
1734582139.3432424,-45.8984375,-24.90234375,155.76171875,-61.5234375,0.0
1734582139.3471334,0.48828125,-15.13671875,197.265625,-6.8359375,0.0
1734582139.3510244,35.15625,-10.7421875,166.50390625,24.90234375,0.0
1734582139.3549154,-8.7890625,-12.6953125,145.01953125,-20.99609375,0.0
1734582139.3588064,-44.921875,-16.6015625,144.04296875,-70.3125,0.0
1734582139.3626974,0.9765625,-13.18359375,189.453125,-65.91796875,0.0
1734582139.3665884,62.5,-5.37109375,81.54296875,22.4609375,0.0
1734582139.3704793,86.9140625,-5.37109375,0.9765625,71.2890625,0.0
1734582139.3743703,52.734375,-1.46484375,202.1484375,16.6015625,0.0
1734582139.3782613,5.859375,-0.48828125,187.01171875,-28.80859375,0.0
1734582139.382362,28.3203125,-5.37109375,223.6328125,-39.55078125,0.0
1734582139.3862529,88.8671875,-7.32421875,233.3984375,4.39453125,0.0
1734582139.390144,106.93359375,-11.23046875,217.7734375,58.10546875,0.0
1734582139.394035,63.4765625,-14.16015625,187.5,36.1328125,0.0
1734582139.397926,2.44140625,-15.625,159.66796875,-22.4609375,0.0
1734582139.401817,18.06640625,-14.6484375,170.8984375,-34.66796875,0.0
1734582139.405708,78.125,-10.25390625,226.07421875,9.765625,0.0
1734582139.4095993,96.6796875,-8.7890625,200.68359375,64.94140625,0.0
1734582139.4134903,60.05859375,-4.39453125,125.48828125,59.08203125,0.0
1734582139.4173813,-0.9765625,-4.39453125,182.12890625,-25.390625,0.0
1734582139.4212723,-9.765625,-10.7421875,168.45703125,-76.171875,0.0
1734582139.4251635,42.96875,-8.30078125,364.74609375,-3.41796875,0.0
1734582139.4292405,69.82421875,-7.32421875,379.8828125,67.87109375,0.0
1734582139.4331317,43.45703125,-7.32421875,178.22265625,41.50390625,0.0
1734582139.4370227,-11.23046875,-7.8125,186.5234375,-17.08984375,0.0
1734582139.440914,-27.83203125,-8.7890625,192.87109375,-51.26953125,0.0
1734582139.444805,17.578125,-7.8125,193.359375,-25.87890625,0.0
1734582139.448696,52.734375,-13.18359375,183.10546875,31.73828125,0.0
1734582139.4525871,35.15625,-11.71875,245.60546875,39.0625,0.0
1734582139.456478,-29.296875,-11.23046875,32.71484375,-12.6953125,0.0
1734582139.460369,-58.10546875,-10.25390625,-84.47265625,-62.5,0.0
1734582139.4642603,0.48828125,-1.953125,197.75390625,-49.31640625,0.0
1734582139.4681513,52.734375,1.953125,182.12890625,13.671875,0.0
1734582139.4720426,17.578125,-3.90625,181.640625,16.6015625,0.0
1734582139.4761066,0.0,-6.8359375,196.77734375,0.0,0.0
1734582139.4799976,0.0,-6.34765625,178.7109375,0.0,0.0
1734582139.4838889,0.0,-9.765625,176.7578125,0.0,0.0
1734582139.4877799,0.0,-11.23046875,219.7265625,0.0,0.0
1734582139.491671,0.0,-6.8359375,189.453125,0.0,0.0
1734582139.4955623,0.0,-5.37109375,127.9296875,0.0,0.0
1734582139.4994533,0.0,-7.8125,108.3984375,0.0,0.0
1734582139.5033445,0.0,-11.71875,45.8984375,0.0,0.0
1734582139.5072355,0.0,-13.18359375,144.04296875,0.0,0.0
1734582139.5111268,0.0,-11.23046875,222.16796875,0.0,0.0
1734582139.5150177,0.0,-16.6015625,130.859375,0.0,0.0
1734582139.518909,0.0,-18.5546875,97.16796875,0.0,0.0
1734582139.522959,-53.22265625,-11.23046875,151.85546875,-67.87109375,0.0
1734582139.5268502,-3.90625,-9.765625,209.47265625,-8.7890625,0.0
1734582139.5307412,1.46484375,-13.671875,181.640625,11.71875,0.0
1734582139.5346324,-46.38671875,-13.18359375,88.8671875,-28.80859375,0.0
1734582139.5385237,-95.703125,-7.8125,133.30078125,-94.23828125,0.0
1734582139.5424147,-75.68359375,-6.34765625,153.80859375,-87.890625,0.0
1734582139.546306,-13.671875,-9.765625,49.8046875,-15.13671875,0.0
1734582139.5501971,2.9296875,-8.30078125,20.5078125,40.52734375,0.0
1734582139.5540884,-45.8984375,-5.859375,169.43359375,-10.25390625,0.0
1734582139.5579793,-91.796875,-8.7890625,139.6484375,-86.9140625,0.0
1734582139.5618706,-77.1484375,-7.8125,141.11328125,-89.84375,0.0
1734582139.5657618,-39.55078125,-10.7421875,179.6875,-34.1796875,0.0
1734582139.5697978,-4.39453125,-20.99609375,197.75390625,18.5546875,0.0
1734582139.573689,-18.06640625,-22.4609375,179.19921875,15.13671875,0.0
1734582139.5775802,-91.796875,-15.13671875,154.78515625,-63.4765625,0.0
1734582139.5814712,-93.26171875,-15.625,150.87890625,-109.86328125,0.0
1734582139.5853624,-22.4609375,-21.97265625,190.4296875,-51.7578125,0.0
1734582139.5892537,9.765625,-22.4609375,168.45703125,13.18359375,0.0
1734582139.593145,-22.94921875,-19.53125,60.05859375,5.37109375,0.0
1734582139.5970361,-69.82421875,-15.625,133.30078125,-56.640625,0.0
1734582139.6009274,-73.2421875,-12.20703125,177.24609375,-87.890625,0.0
1734582139.6048183,-26.3671875,-13.18359375,78.125,-49.8046875,0.0
1734582139.6087096,29.78515625,-7.8125,78.125,20.01953125,0.0
1734582139.6126008,14.16015625,-2.9296875,175.29296875,31.73828125,0.0
1734582139.6166215,-58.10546875,-6.8359375,0.0,-47.36328125,0.0
1734582139.6205127,-73.2421875,-6.8359375,0.0,-86.42578125,0.0
1734582139.624404,-16.11328125,-6.8359375,0.0,-43.9453125,0.0
1734582139.6282952,28.3203125,-10.7421875,0.0,20.01953125,0.0
1734582139.6321862,8.7890625,-11.71875,0.0,16.6015625,0.0
1734582139.6360774,-54.6875,-5.859375,0.0,-51.26953125,0.0
1734582139.6399686,-77.63671875,-8.7890625,0.0,-87.40234375,0.0
1734582139.6438599,-36.62109375,-14.16015625,0.0,-57.6171875,0.0
1734582139.647751,5.859375,-11.23046875,0.0,-2.44140625,0.0
1734582139.6516423,-3.41796875,-7.8125,0.0,11.71875,0.0
1734582139.6555336,-53.7109375,-9.27734375,0.0,-33.203125,0.0
1734582139.6594248,-79.1015625,-9.27734375,0.0,-89.84375,0.0
1734582139.6632216,0.0,-4.8828125,162.59765625,-65.91796875,0.0
1734582139.6671128,0.0,1.46484375,171.38671875,0.9765625,0.0
1734582139.671004,0.0,0.48828125,93.75,18.06640625,0.0
1734582139.6748953,0.0,-4.39453125,178.22265625,-28.3203125,0.0
1734582139.6787865,0.0,-3.90625,153.80859375,-78.125,0.0
1734582139.6826777,0.0,-8.30078125,72.265625,-58.10546875,0.0
1734582139.6865687,0.0,-13.671875,134.27734375,-9.27734375,0.0
1734582139.69046,0.0,-14.16015625,121.09375,1.953125,0.0
1734582139.6943512,0.0,-20.5078125,133.30078125,-37.109375,0.0
1734582139.6982424,0.0,-18.5546875,121.09375,-89.35546875,0.0
1734582139.7021337,0.0,-8.7890625,67.87109375,-83.984375,0.0
1734582139.706025,0.0,-3.90625,135.25390625,-24.90234375,0.0
1734582139.7101302,-0.48828125,-2.44140625,153.80859375,7.8125,0.0
1734582139.7140214,-43.9453125,0.0,74.21875,-18.06640625,0.0
1734582139.7179127,-84.9609375,-3.41796875,127.44140625,-84.9609375,0.0
1734582139.721804,-68.359375,-9.765625,151.3671875,-109.375,0.0
1734582139.7256951,-18.06640625,-18.06640625,129.39453125,-62.5,0.0
1734582139.7295864,10.25390625,-15.13671875,131.34765625,-1.46484375,0.0
1734582139.7334776,-22.4609375,-9.27734375,160.64453125,-21.97265625,0.0
1734582139.7373688,-78.125,-12.6953125,173.828125,-95.703125,0.0
1734582139.74126,-79.1015625,-15.13671875,-33.203125,-96.19140625,0.0
1734582139.7451513,-34.1796875,-15.13671875,-129.39453125,-33.203125,0.0
1734582139.7490425,2.9296875,-10.7421875,147.4609375,3.41796875,0.0
1734582139.7529337,-24.4140625,-11.23046875,124.51171875,-31.25,0.0
1734582139.7570167,-83.0078125,-13.671875,164.55078125,-85.44921875,0.0
1734582139.760908,-91.30859375,-17.08984375,145.01953125,-108.3984375,0.0
1734582139.7647994,-40.0390625,-12.20703125,146.97265625,-63.4765625,0.0
1734582139.7686906,3.41796875,-7.32421875,143.5546875,4.39453125,0.0
1734582139.7725818,-25.390625,-8.30078125,67.3828125,-13.18359375,0.0
1734582139.776473,-85.9375,-11.71875,85.9375,-74.21875,0.0
1734582139.7803643,-98.14453125,-19.53125,160.15625,-99.609375,0.0
1734582139.7842557,-41.50390625,-16.11328125,97.16796875,-64.94140625,0.0
1734582139.788147,8.7890625,-11.23046875,-31.73828125,11.23046875,0.0
1734582139.7920382,-21.484375,-9.27734375,124.0234375,2.44140625,0.0
1734582139.7959294,-79.1015625,-9.765625,149.4140625,-66.89453125,0.0
1734582139.7998207,-93.26171875,-11.23046875,102.05078125,-97.65625,0.0
1734582139.8038926,-58.10546875,-10.25390625,108.88671875,-50.78125,0.0
1734582139.8077838,-7.32421875,-8.7890625,141.11328125,3.41796875,0.0
1734582139.8116753,-14.16015625,-9.765625,100.09765625,-0.48828125,0.0
1734582139.8155665,-80.56640625,-10.7421875,80.078125,-52.734375,0.0
1734582139.8194578,-115.234375,-6.34765625,76.66015625,-102.5390625,0.0
1734582139.8233492,-65.4296875,-6.34765625,48.828125,-68.84765625,0.0
1734582139.8272405,-11.71875,-9.765625,182.12890625,0.48828125,0.0
1734582139.831132,-5.859375,-3.90625,-19.04296875,26.85546875,0.0
1734582139.8350232,-57.12890625,1.953125,-185.05859375,-24.4140625,0.0
1734582139.8389144,-98.14453125,-0.48828125,110.3515625,-92.7734375,0.0
1734582139.8428059,-63.96484375,-4.39453125,91.30859375,-85.9375,0.0
1734582139.846697,-3.41796875,-2.9296875,116.2109375,-24.90234375,0.0
1734582139.8507512,7.8125,-1.953125,160.15625,5.859375,0.0
1734582139.8546426,-56.15234375,-8.7890625,134.27734375,-46.875,0.0
1734582139.8585339,-97.16796875,-13.671875,96.19140625,-106.93359375,0.0
1734582139.8624253,-74.21875,-13.671875,117.67578125,-93.26171875,0.0
1734582139.8663166,-22.4609375,-11.71875,116.69921875,-32.2265625,0.0
1734582139.870208,-11.23046875,-13.18359375,103.515625,6.8359375,0.0
1734582139.8740993,-59.5703125,-20.01953125,78.125,-40.52734375,0.0
1734582139.8779907,-102.5390625,-19.53125,-31.25,-102.5390625,0.0
1734582139.881882,-81.0546875,-13.18359375,84.47265625,-92.7734375,0.0
1734582139.8857734,-17.08984375,-11.71875,199.70703125,-32.71484375,0.0
1734582139.8896646,5.859375,-13.18359375,58.59375,13.671875,0.0
1734582139.893556,-45.41015625,-16.11328125,-98.14453125,-8.7890625,0.0
1734582139.8976064,-86.9140625,-18.5546875,0.0,-75.1953125,0.0
1734582139.9014978,-68.359375,-17.578125,0.0,-92.7734375,0.0
1734582139.905389,-12.20703125,-14.6484375,0.0,-31.73828125,0.0
1734582139.9092805,14.16015625,-19.04296875,0.0,10.7421875,0.0
1734582139.913172,-25.87890625,-14.6484375,0.0,-16.6015625,0.0
1734582139.9170632,-85.44921875,-5.37109375,0.0,-77.1484375,0.0
1734582139.9209547,-88.37890625,-9.765625,0.0,-88.8671875,0.0
1734582139.924846,-37.59765625,-16.6015625,0.0,-34.1796875,0.0
1734582139.9287374,-1.46484375,-19.53125,0.0,0.9765625,0.0
1734582139.9326289,-37.59765625,-18.5546875,0.0,-5.37109375,0.0
1734582139.93652,-85.44921875,-9.765625,0.0,-63.96484375,0.0
1734582139.9404116,-79.58984375,-9.27734375,0.0,-89.35546875,0.0
1734582139.9444382,-42.96875,-15.13671875,151.3671875,-50.29296875,0.0
1734582139.9483297,-1.46484375,-18.06640625,184.5703125,-17.08984375,0.0
1734582139.9522212,-18.5546875,-13.671875,180.17578125,-12.20703125,0.0
1734582139.9561124,-69.3359375,-15.625,141.6015625,-62.98828125,0.0
1734582139.9600039,-84.47265625,-19.04296875,98.6328125,-105.46875,0.0
1734582139.9638953,-35.64453125,-19.04296875,62.01171875,-68.359375,0.0
1734582139.9677868,4.8828125,-20.5078125,105.46875,12.6953125,0.0
1734582139.971678,-24.4140625,-22.94921875,192.87109375,4.8828125,0.0
1734582139.9755695,-74.70703125,-21.484375,176.7578125,-67.3828125,0.0
1734582139.979461,-91.30859375,-24.4140625,46.875,-100.5859375,0.0
1734582139.9833524,-51.26953125,-25.390625,0.48828125,-74.70703125,0.0
1734582139.9872437,4.39453125,-21.97265625,161.1328125,-4.8828125,0.0
1734582139.9912548,-1.46484375,-20.99609375,163.57421875,9.27734375,0.0
1734582139.9951463,-63.96484375,-14.16015625,104.98046875,-34.66796875,0.0
1734582139.9990377,-88.8671875,-12.6953125,35.15625,-95.21484375,0.0
1734582140.0029292,-49.31640625,-15.13671875,111.81640625,-88.8671875,0.0
1734582140.0068207,0.9765625,-11.71875,153.3203125,-18.06640625,0.0
1734582140.0107121,-3.90625,-10.25390625,188.4765625,16.11328125,0.0
1734582140.0146034,-62.5,-11.71875,153.3203125,-29.78515625,0.0
1734582140.0184948,-93.26171875,-12.6953125,94.7265625,-91.796875,0.0
1734582140.0223863,-55.6640625,-11.71875,126.953125,-87.890625,0.0
1734582140.0262778,17.578125,-10.7421875,110.3515625,-9.27734375,0.0
1734582140.0301692,30.76171875,-10.7421875,85.44921875,34.66796875,0.0
1734582140.0340607,-35.15625,-9.765625,145.5078125,-26.3671875,0.0
1734582140.0381691,-83.984375,-9.27734375,117.1875,-91.30859375,0.0
1734582140.0420606,-50.78125,-8.30078125,143.06640625,-84.9609375,0.0
1734582140.045952,12.6953125,-10.7421875,168.45703125,-34.1796875,0.0
1734582140.0498435,22.4609375,-12.6953125,181.640625,0.0,0.0
1734582140.053735,-32.2265625,-18.06640625,104.98046875,-19.53125,0.0
1734582140.0576265,-83.0078125,-21.97265625,66.40625,-87.890625,0.0
1734582140.061518,-69.3359375,-14.6484375,123.53515625,-98.14453125,0.0
1734582140.0654094,-13.671875,-13.18359375,183.10546875,-39.0625,0.0
1734582140.069301,20.01953125,-15.13671875,92.28515625,9.27734375,0.0
1734582140.0731924,-24.4140625,-11.71875,35.15625,-9.27734375,0.0
1734582140.0770838,-85.9375,-9.765625,104.98046875,-79.58984375,0.0
1734582140.0809753,-80.56640625,-19.53125,124.51171875,-103.515625,0.0
1734582140.0850785,-15.13671875,-18.06640625,132.8125,-43.9453125,0.0
1734582140.08897,21.97265625,-6.8359375,90.33203125,15.13671875,0.0
1734582140.0928617,-19.53125,-8.7890625,155.76171875,0.48828125,0.0
1734582140.0967531,-76.171875,-13.671875,138.18359375,-74.21875,0.0
1734582140.1006446,-73.2421875,-15.625,86.42578125,-98.14453125,0.0
1734582140.104536,-23.4375,-11.23046875,105.46875,-44.43359375,0.0
1734582140.1084275,18.5546875,-8.7890625,175.29296875,12.6953125,0.0
1734582140.1123192,-2.44140625,-11.23046875,172.8515625,-0.48828125,0.0
1734582140.1162107,-65.4296875,-14.6484375,4.8828125,-56.640625,0.0
1734582140.1201022,-70.3125,-13.671875,-84.47265625,-76.66015625,0.0
1734582140.1239936,-8.7890625,-7.32421875,141.11328125,-43.9453125,0.0
1734582140.1278853,28.3203125,-7.8125,150.390625,15.625,0.0
1734582140.1319692,-2.9296875,-10.7421875,208.49609375,7.8125,0.0
1734582140.1358607,-63.4765625,-11.71875,156.25,-60.05859375,0.0
1734582140.1397521,-88.37890625,-10.25390625,106.4453125,-98.14453125,0.0
1734582140.1436439,-35.15625,-9.765625,111.328125,-58.59375,0.0
1734582140.1475353,16.11328125,-9.765625,41.50390625,16.6015625,0.0
1734582140.1514268,0.48828125,-5.859375,123.53515625,19.04296875,0.0
1734582140.1553185,-59.08203125,-4.39453125,148.4375,-46.875,0.0
1734582140.15921,-88.37890625,-9.27734375,66.89453125,-90.33203125,0.0
1734582140.1631017,-42.48046875,-10.7421875,-40.52734375,-52.734375,0.0
1734582140.1669931,6.8359375,-14.16015625,87.890625,5.859375,0.0
1734582140.1708846,-1.953125,-15.625,155.2734375,9.765625,0.0
1734582140.1747763,-47.36328125,-11.23046875,82.03125,-45.41015625,0.0
1734582140.178844,-77.1484375,-8.7890625,58.59375,-87.890625,0.0
1734582140.1827354,-50.29296875,-12.20703125,113.28125,-65.91796875,0.0
1734582140.1866271,1.46484375,-14.6484375,164.55078125,-8.30078125,0.0
1734582140.1905186,-0.48828125,-16.11328125,179.6875,18.5546875,0.0
1734582140.1944103,-55.17578125,-11.71875,85.9375,-27.83203125,0.0
1734582140.1983018,-85.44921875,-11.71875,91.796875,-77.63671875,0.0
1734582140.2021935,-62.01171875,-19.53125,178.7109375,-70.80078125,0.0
1734582140.206085,-9.27734375,-15.13671875,0.9765625,-7.32421875,0.0
1734582140.2099767,8.30078125,-8.30078125,-142.08984375,37.59765625,0.0
1734582140.2138681,-33.69140625,-8.30078125,141.6015625,-20.99609375,0.0
1734582140.2177598,-78.61328125,-11.23046875,93.75,-81.0546875,0.0
1734582140.2216513,-59.5703125,-10.7421875,85.44921875,-61.5234375,0.0
1734582140.2257097,-7.32421875,-7.8125,105.95703125,-13.18359375,0.0
1734582140.2296014,18.06640625,-3.90625,121.09375,-0.48828125,0.0
1734582140.2334929,-25.390625,-4.8828125,151.85546875,-31.73828125,0.0
1734582140.2373846,-96.6796875,-8.30078125,134.765625,-78.61328125,0.0
1734582140.2412763,-83.984375,-14.6484375,94.7265625,-94.7265625,0.0
1734582140.2451677,-22.94921875,-18.5546875,110.83984375,-48.828125,0.0
1734582140.2490594,-0.48828125,-9.765625,99.12109375,11.23046875,0.0
1734582140.2529511,-34.66796875,-3.41796875,-44.921875,1.46484375,0.0
1734582140.2568426,-83.0078125,-10.25390625,125.48828125,-70.3125,0.0
1734582140.2607343,-78.125,-17.578125,170.41015625,-97.16796875,0.0
1734582140.264626,-25.87890625,-14.16015625,79.58984375,-40.52734375,0.0
1734582140.2685175,6.34765625,-11.71875,98.6328125,6.8359375,0.0
1734582140.2725632,-28.80859375,-15.625,161.62109375,-7.32421875,0.0
1734582140.276455,-89.84375,-15.13671875,145.5078125,-69.3359375,0.0
1734582140.2803464,-77.1484375,-13.671875,133.30078125,-98.6328125,0.0
1734582140.284238,-20.99609375,-20.01953125,73.2421875,-46.38671875,0.0
1734582140.2881298,5.859375,-17.578125,152.34375,13.18359375,0.0
1734582140.2920215,-14.16015625,-15.625,183.59375,3.90625,0.0
1734582140.2959132,-80.56640625,-13.671875,-67.87109375,-29.78515625,0.0
1734582140.2998047,-90.8203125,-9.765625,-100.5859375,-69.82421875,0.0
1734582140.3036964,-23.92578125,-7.8125,170.41015625,-74.70703125,0.0
1734582140.307588,19.53125,-7.8125,151.3671875,-9.765625,0.0
1734582140.3114798,-10.7421875,-14.16015625,145.5078125,3.41796875,0.0
1734582140.3153715,-70.3125,-11.71875,149.90234375,-53.7109375,0.0
1734582140.3193967,-87.890625,-6.8359375,128.90625,-93.26171875,0.0
1734582140.3232884,-39.0625,-5.859375,141.11328125,-62.01171875,0.0
1734582140.32718,8.30078125,-6.8359375,178.7109375,5.37109375,0.0
1734582140.3310716,-15.13671875,-11.23046875,166.015625,9.765625,0.0
1734582140.3349633,-60.05859375,-10.25390625,127.9296875,-52.24609375,0.0
1734582140.338855,-88.37890625,-9.27734375,67.3828125,-104.4921875,0.0
1734582140.3427467,-60.546875,-4.39453125,-3.41796875,-66.40625,0.0
1734582140.3466384,2.44140625,0.0,135.25390625,0.0,0.0
1734582140.3505301,9.765625,-0.9765625,207.03125,14.16015625,0.0
1734582140.3544219,-50.78125,-4.39453125,49.8046875,-40.52734375,0.0
1734582140.3583136,-91.30859375,-8.30078125,-15.625,-109.86328125,0.0
1734582140.3622053,-56.15234375,-9.27734375,123.53515625,-93.26171875,0.0
1734582140.366221,-7.8125,-9.765625,163.57421875,-14.6484375,0.0
1734582140.3701127,-1.46484375,-6.34765625,242.67578125,10.7421875,0.0
1734582140.3740044,-54.6875,-9.765625,157.2265625,-44.921875,0.0
1734582140.377896,-98.14453125,-16.11328125,86.9140625,-81.54296875,0.0
1734582140.3817878,-62.5,-9.765625,134.765625,-68.84765625,0.0
1734582140.3856795,-10.25390625,-7.8125,58.59375,-11.23046875,0.0
1734582140.3895712,1.953125,-14.6484375,-21.97265625,42.96875,0.0
1734582140.393463,-33.69140625,-20.99609375,150.390625,-8.7890625,0.0
1734582140.3973546,-70.80078125,-20.01953125,111.81640625,-63.4765625,0.0
1734582140.4012463,-59.08203125,-15.625,1.46484375,-61.5234375,0.0
1734582140.405138,-18.06640625,-14.6484375,96.19140625,-14.6484375,0.0
1734582140.4090297,11.71875,-9.27734375,181.640625,18.06640625,0.0
1734582140.4131427,-28.80859375,-5.37109375,131.8359375,-12.20703125,0.0
1734582140.4170344,-79.58984375,-7.32421875,160.64453125,-64.453125,0.0
1734582140.420926,-63.96484375,-13.18359375,152.83203125,-84.9609375,0.0
1734582140.4248178,-3.90625,-14.16015625,155.2734375,-18.06640625,0.0
1734582140.4287097,19.53125,-12.20703125,158.69140625,38.57421875,0.0
1734582140.4326015,-24.90234375,-11.23046875,126.953125,-2.44140625,0.0
1734582140.4364932,-69.3359375,-6.8359375,127.44140625,-69.3359375,0.0
1734582140.4403849,-64.94140625,-4.39453125,159.1796875,-85.44921875,0.0
1734582140.4442766,-16.11328125,-3.90625,96.6796875,-22.94921875,0.0
1734582140.4481685,20.5078125,-5.37109375,89.84375,37.59765625,0.0
1734582140.4520602,-15.625,-18.06640625,164.0625,24.90234375,0.0
1734582140.455952,-86.9140625,-26.85546875,119.62890625,-43.9453125,0.0
1734582140.4600492,-83.984375,-22.4609375,242.67578125,-89.35546875,0.0
1734582140.463941,-27.34375,-18.5546875,215.8203125,-56.15234375,0.0
1734582140.4678328,13.18359375,-17.578125,120.1171875,10.7421875,0.0
1734582140.4717245,-0.9765625,-13.671875,171.38671875,18.06640625,0.0
1734582140.4756165,-58.59375,-14.16015625,116.2109375,-54.6875,0.0
1734582140.4795082,-72.75390625,-13.671875,100.09765625,-91.30859375,0.0
1734582140.4834,-34.66796875,-15.13671875,136.23046875,-54.6875,0.0
1734582140.4872918,11.71875,-17.578125,197.265625,3.90625,0.0
1734582140.4911835,2.9296875,-16.11328125,25.390625,16.6015625,0.0
1734582140.4950755,-62.98828125,-21.484375,-116.69921875,-41.9921875,0.0
1734582140.4989672,-83.0078125,-21.484375,140.625,-97.65625,0.0
1734582140.5028589,-33.69140625,-17.08984375,132.32421875,-65.91796875,0.0
1734582140.5069373,13.18359375,-16.11328125,147.94921875,-9.765625,0.0
1734582140.5108292,6.8359375,-14.6484375,183.10546875,7.8125,0.0
1734582140.514721,-54.19921875,-16.6015625,161.1328125,-33.203125,0.0
1734582140.5186129,-75.68359375,-15.13671875,113.28125,-77.63671875,0.0
1734582140.5225048,-35.64453125,-10.25390625,37.59765625,-60.546875,0.0
1734582140.5263965,-0.48828125,-10.25390625,139.6484375,-8.7890625,0.0
1734582140.5302885,8.7890625,-9.765625,221.19140625,16.11328125,0.0
1734582140.5341802,-33.203125,-11.23046875,106.93359375,-25.390625,0.0
1734582140.538072,-82.51953125,-19.04296875,-49.8046875,-69.82421875,0.0
1734582140.5419638,-54.19921875,-18.5546875,95.21484375,-65.4296875,0.0
1734582140.5458558,12.20703125,-19.53125,181.15234375,-15.13671875,0.0
1734582140.5497475,25.87890625,-21.97265625,106.4453125,15.625,0.0
1734582140.5538175,-34.66796875,-20.01953125,91.30859375,-28.80859375,0.0
1734582140.5577092,-81.54296875,-16.11328125,126.953125,-90.8203125,0.0
1734582140.5616012,-53.7109375,-12.20703125,145.99609375,-91.30859375,0.0
1734582140.565493,13.671875,-11.23046875,155.76171875,-21.97265625,0.0
1734582140.569385,21.97265625,-9.765625,83.984375,30.2734375,0.0
1734582140.5732768,-36.1328125,-10.25390625,118.65234375,-12.6953125,0.0
1734582140.5771687,-80.078125,-14.16015625,192.87109375,-89.84375,0.0
1734582140.5810606,-65.4296875,-19.04296875,-18.06640625,-85.9375,0.0
1734582140.5849524,-7.8125,-17.08984375,-117.1875,-26.3671875,0.0
1734582140.5888443,27.83203125,-12.6953125,205.56640625,8.7890625,0.0
1734582140.5927362,-16.6015625,-11.71875,158.203125,-5.37109375,0.0
1734582140.596628,-80.078125,-14.6484375,108.88671875,-65.91796875,0.0
1734582140.6006758,-57.6171875,-16.6015625,135.7421875,-95.21484375,0.0
1734582140.6045678,0.0,-11.23046875,166.9921875,-47.36328125,0.0
1734582140.6084595,19.04296875,-8.7890625,187.01171875,7.8125,0.0
1734582140.6123514,-16.6015625,-13.18359375,170.8984375,-9.765625,0.0
1734582140.6162434,-69.3359375,-11.71875,125.9765625,-68.359375,0.0
1734582140.6201353,-65.4296875,-14.16015625,138.671875,-80.078125,0.0
1734582140.6240273,-19.04296875,-21.97265625,96.19140625,-35.15625,0.0
1734582140.6279192,14.6484375,-23.4375,33.69140625,9.765625,0.0
1734582140.631811,-1.46484375,-18.06640625,159.66796875,11.71875,0.0
1734582140.6357028,-49.8046875,-14.6484375,166.50390625,-49.31640625,0.0
1734582140.6395948,-66.89453125,-14.6484375,90.33203125,-101.5625,0.0
1734582140.6434867,-24.90234375,-8.30078125,60.05859375,-64.453125,0.0
1734582140.6475267,13.671875,-5.37109375,164.55078125,-2.9296875,0.0
1734582140.6514187,0.9765625,-6.34765625,198.73046875,10.25390625,0.0
1734582140.6553106,-62.5,-8.30078125,157.71484375,-42.96875,0.0
1734582140.6592026,-87.890625,-8.30078125,73.2421875,-90.33203125,0.0
1734582140.6630945,-27.83203125,-4.8828125,118.1640625,-58.10546875,0.0
1734582140.6669865,20.99609375,-8.7890625,158.69140625,4.39453125,0.0
1734582140.6708784,0.48828125,-7.32421875,51.26953125,18.5546875,0.0
1734582140.6747704,-57.12890625,-2.9296875,-27.83203125,-24.90234375,0.0
1734582140.6786623,-77.1484375,-4.8828125,138.18359375,-70.80078125,0.0
1734582140.6825542,-46.875,-5.859375,148.92578125,-57.6171875,0.0
1734582140.6864462,-6.8359375,-9.765625,166.9921875,2.9296875,0.0
1734582140.6903381,-5.859375,-10.7421875,192.87109375,35.64453125,0.0
1734582140.6943629,-61.5234375,-14.6484375,151.3671875,-19.04296875,0.0
1734582140.6982548,-91.30859375,-20.99609375,96.6796875,-94.7265625,0.0
1734582140.7021468,-64.94140625,-16.6015625,158.203125,-80.078125,0.0
1734582140.706039,-10.7421875,-16.6015625,185.546875,-2.44140625,0.0
1734582140.709931,13.18359375,-18.06640625,167.96875,22.4609375,0.0
1734582140.7138228,-39.55078125,-15.625,123.53515625,-30.2734375,0.0
1734582140.7177148,-89.84375,-15.625,-13.671875,-71.77734375,0.0
1734582140.7216067,-55.17578125,-12.6953125,78.61328125,-71.2890625,0.0
1734582140.7254987,-15.13671875,-11.71875,212.40234375,-33.69140625,0.0
1734582140.7293906,-2.44140625,-17.08984375,106.93359375,4.39453125,0.0
1734582140.7332826,-35.15625,-19.04296875,55.17578125,-28.80859375,0.0
1734582140.7371745,-74.21875,-14.16015625,163.57421875,-86.42578125,0.0
1734582140.741182,-47.36328125,-9.765625,182.6171875,-84.47265625,0.0
1734582140.745074,-3.41796875,-10.25390625,171.38671875,-19.04296875,0.0
1734582140.748966,10.7421875,-13.671875,125.9765625,22.4609375,0.0
1734582140.7528582,-28.3203125,-20.01953125,170.41015625,-10.25390625,0.0
1734582140.75675,-86.9140625,-29.296875,156.25,-85.44921875,0.0
1734582140.760642,-86.9140625,-31.25,93.26171875,-97.65625,0.0
1734582140.764534,-29.78515625,-20.5078125,128.41796875,-33.203125,0.0
1734582140.768426,-3.41796875,-16.6015625,144.04296875,16.11328125,0.0
1734582140.772318,-28.3203125,-18.06640625,157.71484375,-8.30078125,0.0
1734582140.77621,-76.171875,-14.6484375,76.171875,-60.546875,0.0
1734582140.780102,-75.1953125,-10.25390625,38.0859375,-77.1484375,0.0
1734582140.783994,-22.4609375,-10.25390625,170.8984375,-39.0625,0.0
1734582140.7881086,20.99609375,-14.16015625,174.8046875,20.01953125,0.0
1734582140.7920008,-9.765625,-16.11328125,216.30859375,10.25390625,0.0
1734582140.7958927,-67.87109375,-16.6015625,171.875,-61.03515625,0.0
1734582140.7997847,-67.87109375,-12.20703125,135.7421875,-92.28515625,0.0
1734582140.8036768,-20.99609375,-10.25390625,129.8828125,-44.43359375,0.0
1734582140.8075688,15.625,-13.671875,165.0390625,7.32421875,0.0
1734582140.8114607,-17.08984375,-16.11328125,155.2734375,-1.953125,0.0
1734582140.815353,-70.80078125,-10.7421875,129.39453125,-53.22265625,0.0
1734582140.8192449,-87.890625,-9.765625,51.26953125,-82.51953125,0.0
1734582140.8231368,-52.24609375,-7.32421875,-17.578125,-54.19921875,0.0
1734582140.827029,15.625,-3.41796875,174.31640625,0.48828125,0.0
1734582140.830921,5.859375,-5.859375,174.31640625,8.7890625,0.0
1734582140.8350234,-69.3359375,-3.90625,251.953125,-40.52734375,0.0
1734582140.8389153,-78.61328125,-0.9765625,192.3828125,-69.82421875,0.0
1734582140.8428075,-33.203125,-4.39453125,101.07421875,-67.3828125,0.0
1734582140.8466995,-5.37109375,-7.32421875,184.5703125,-17.08984375,0.0
1734582140.8505917,-1.46484375,-4.39453125,101.07421875,9.27734375,0.0
1734582140.8544836,-48.33984375,-0.9765625,22.94921875,-32.71484375,0.0
1734582140.8583758,-91.796875,-7.32421875,44.921875,-76.171875,0.0
1734582140.8622677,-54.6875,-9.765625,155.76171875,-56.640625,0.0
1734582140.86616,4.8828125,2.44140625,1.953125,9.27734375,0.0
1734582140.8700519,6.34765625,-0.48828125,-139.16015625,27.83203125,0.0
1734582140.873944,-50.78125,-11.71875,124.0234375,-38.0859375,0.0
1734582140.877836,-83.49609375,-10.7421875,116.2109375,-101.07421875,0.0
1734582140.8819249,0.0,-5.859375,118.65234375,-83.984375,0.0
1734582140.885817,0.0,-2.44140625,171.38671875,-20.01953125,0.0
1734582140.8897092,0.0,-2.9296875,166.50390625,7.32421875,0.0
1734582140.8936012,0.0,-3.90625,144.53125,-38.57421875,0.0
1734582140.8974934,0.0,-3.41796875,126.953125,-81.0546875,0.0
1734582140.9013855,0.0,-9.27734375,120.60546875,-69.3359375,0.0
1734582140.9052775,0.0,-14.6484375,184.5703125,-23.4375,0.0
1734582140.9091697,0.0,-12.6953125,156.73828125,9.27734375,0.0
1734582140.9130619,0.0,-7.8125,75.68359375,-6.34765625,0.0
1734582140.9169538,0.0,-3.90625,132.32421875,-60.546875,0.0
1734582140.920846,0.0,0.0,156.25,-83.0078125,0.0
1734582140.9247382,0.0,-2.44140625,106.93359375,-19.53125,0.0
1734582140.92881,19.53125,-5.859375,100.5859375,31.25,0.0
1734582140.932702,-28.3203125,-8.30078125,144.04296875,0.48828125,0.0
1734582140.9365942,-72.265625,-9.27734375,135.7421875,-71.77734375,0.0
1734582140.9404864,-57.12890625,-7.8125,87.890625,-91.796875,0.0
1734582140.9443784,-21.484375,-11.71875,69.82421875,-42.96875,0.0
1734582140.9482706,-0.9765625,-10.7421875,170.8984375,12.20703125,0.0
1734582140.9521627,-7.8125,-6.8359375,204.58984375,-1.46484375,0.0
1734582140.956055,-58.10546875,-8.30078125,-96.6796875,-57.6171875,0.0
1734582140.959947,-66.40625,-9.765625,-138.671875,-77.1484375,0.0
1734582140.9638393,0.48828125,-8.30078125,178.7109375,-44.921875,0.0
1734582140.9677312,29.296875,-7.32421875,159.1796875,5.859375,0.0
1734582140.9716234,-8.7890625,-14.16015625,174.8046875,-3.90625,0.0
1734582140.9756799,-63.96484375,-16.11328125,148.4375,-67.87109375,0.0
1734582140.979572,-79.1015625,-12.6953125,140.625,-103.515625,0.0
1734582140.983464,-24.90234375,-10.7421875,144.04296875,-57.6171875,0.0
1734582140.9873562,24.90234375,-7.32421875,169.921875,0.9765625,0.0
1734582140.9912484,-0.48828125,-5.859375,166.015625,-1.46484375,0.0
1734582140.9951406,-58.59375,-6.8359375,150.390625,-51.7578125,0.0
1734582140.9990327,-78.61328125,-7.32421875,75.1953125,-94.23828125,0.0
1734582141.002925,-42.48046875,-8.7890625,-16.11328125,-53.7109375,0.0
1734582141.006817,19.04296875,-5.859375,141.6015625,-2.44140625,0.0
1734582141.0107093,-1.46484375,-5.859375,227.05078125,8.30078125,0.0
1734582141.0146015,-73.73046875,-11.71875,76.66015625,-34.66796875,0.0
1734582141.0184937,-83.0078125,-14.6484375,1.46484375,-98.6328125,0.0
1734582141.022534,-43.9453125,-15.13671875,144.53125,-72.75390625,0.0
1734582141.026426,-0.48828125,-12.20703125,188.4765625,-19.53125,0.0
1734582141.0303183,4.39453125,-5.859375,174.31640625,3.41796875,0.0
1734582141.0342104,-49.31640625,-5.859375,84.47265625,-34.1796875,0.0
1734582141.0381026,-83.0078125,-11.23046875,94.23828125,-82.51953125,0.0
1734582141.0419948,-58.10546875,-17.08984375,103.515625,-80.56640625,0.0
1734582141.0458872,-8.30078125,-18.06640625,80.078125,-6.8359375,0.0
1734582141.0497794,1.46484375,-14.16015625,100.09765625,32.71484375,0.0
1734582141.0536716,-52.734375,-13.18359375,183.59375,-35.15625,0.0
1734582141.0575638,-93.75,-11.71875,101.5625,-90.8203125,0.0
1734582141.061456,-67.87109375,-7.8125,94.23828125,-83.49609375,0.0
1734582141.0653481,-10.7421875,-6.8359375,166.9921875,-19.53125,0.0
1734582141.0693746,0.9765625,-10.25390625,173.828125,19.53125,0.0
1734582141.073267,-42.96875,-10.7421875,122.0703125,-30.2734375,0.0
1734582141.0771592,-90.8203125,-5.37109375,149.90234375,-80.56640625,0.0
1734582141.0810513,-73.73046875,-3.90625,148.92578125,-71.77734375,0.0
1734582141.0849435,0.48828125,-4.39453125,116.2109375,-18.5546875,0.0
1734582141.0888357,25.390625,-4.8828125,141.6015625,24.4140625,0.0
1734582141.0927281,-30.76171875,-7.8125,75.1953125,7.8125,0.0
1734582141.0966203,-71.77734375,-12.6953125,56.640625,-57.12890625,0.0
1734582141.1005125,-51.26953125,-9.765625,162.59765625,-72.265625,0.0
1734582141.1044047,-4.39453125,-6.8359375,60.05859375,-26.3671875,0.0
1734582141.1082969,22.4609375,-4.39453125,66.40625,12.6953125,0.0
1734582141.1121893,-17.578125,-1.953125,196.2890625,-3.90625,0.0
1734582141.1162038,0.0,-1.953125,0.0,-56.640625,0.0
1734582141.120096,0.0,0.48828125,0.0,-74.70703125,0.0
1734582141.1239884,0.0,1.953125,0.0,-26.3671875,0.0
1734582141.1278806,0.0,-1.46484375,0.0,19.04296875,0.0
1734582141.1317728,0.0,1.46484375,0.0,10.25390625,0.0
1734582141.135665,0.0,0.0,0.0,-40.52734375,0.0
1734582141.1395574,0.0,-8.30078125,0.0,-71.2890625,0.0
1734582141.1434495,0.0,-2.9296875,0.0,-39.0625,0.0
1734582141.1473417,0.0,-2.9296875,0.0,20.5078125,0.0
1734582141.1512341,0.0,-9.27734375,0.0,25.87890625,0.0
1734582141.1551263,0.0,-11.71875,0.0,-45.8984375,0.0
1734582141.1590185,0.0,-8.7890625,0.0,-90.33203125,0.0
1734582141.1631243,-16.6015625,-5.859375,115.72265625,-53.7109375,0.0
1734582141.1670165,29.296875,0.0,231.93359375,10.25390625,0.0
1734582141.170909,15.13671875,1.953125,147.94921875,20.01953125,0.0
1734582141.174801,-47.8515625,-1.953125,82.03125,-33.69140625,0.0
1734582141.1786935,-62.01171875,0.48828125,114.74609375,-68.359375,0.0
1734582141.1825857,-11.71875,0.9765625,89.35546875,-39.55078125,0.0
1734582141.1864781,22.4609375,-1.46484375,165.52734375,5.859375,0.0
1734582141.1903703,13.18359375,-6.8359375,202.63671875,15.13671875,0.0
1734582141.1942625,-38.57421875,-11.71875,90.8203125,-18.5546875,0.0
1734582141.198155,-73.73046875,-9.27734375,20.01953125,-77.63671875,0.0
1734582141.202047,-40.0390625,-9.27734375,130.859375,-75.1953125,0.0
1734582141.2059395,21.97265625,-9.765625,135.7421875,-4.39453125,0.0
1734582141.210032,22.4609375,-5.37109375,208.984375,22.4609375,0.0
1734582141.2139244,-49.31640625,-2.44140625,196.77734375,-27.34375,0.0
1734582141.2178166,-82.03125,-8.30078125,108.88671875,-92.7734375,0.0
1734582141.221709,-56.15234375,-14.6484375,133.30078125,-84.9609375,0.0
1734582141.2256014,-16.11328125,-19.04296875,164.0625,-23.4375,0.0
1734582141.2294936,-16.6015625,-23.92578125,168.45703125,3.41796875,0.0
1734582141.233386,-67.3828125,-17.578125,108.3984375,-44.43359375,0.0
1734582141.2372782,-88.8671875,-13.18359375,183.10546875,-100.5859375,0.0
1734582141.2411706,-50.78125,-16.6015625,-5.37109375,-83.49609375,0.0
1734582141.245063,-6.8359375,-15.13671875,-125.48828125,-23.4375,0.0
1734582141.2489552,16.6015625,-14.6484375,205.078125,3.90625,0.0
1734582141.2528477,-27.34375,-19.53125,160.15625,-25.87890625,0.0
1734582141.2569265,-95.21484375,-17.578125,124.51171875,-86.9140625,0.0
1734582141.260819,-78.125,-13.18359375,170.41015625,-90.33203125,0.0
1734582141.2647114,-4.8828125,-11.23046875,172.36328125,-30.76171875,0.0
1734582141.2686038,9.765625,-11.71875,163.57421875,17.08984375,0.0
1734582141.272496,-39.0625,-12.20703125,226.07421875,-1.46484375,0.0
1734582141.2763884,-83.984375,-13.671875,217.7734375,-75.1953125,0.0
1734582141.2802808,-87.890625,-22.94921875,159.66796875,-105.95703125,0.0
1734582141.2841733,-35.15625,-24.4140625,146.484375,-53.7109375,0.0
1734582141.2880657,-4.39453125,-17.578125,195.3125,7.8125,0.0
1734582141.2919579,-43.9453125,-18.5546875,253.41796875,-13.18359375,0.0
1734582141.2958503,-75.68359375,-19.04296875,174.31640625,-80.56640625,0.0
1734582141.2997427,-78.61328125,-21.484375,102.05078125,-98.14453125,0.0
