timestamps,TP9,AF7,AF8,TP10,Right AUX
1734422674.6502495,-161.1328125,96.6796875,11.71875,-63.4765625,0.0
1734422674.6541555,-93.75,68.84765625,-106.4453125,-55.17578125,0.0
1734422674.6580617,26.85546875,69.82421875,114.2578125,-57.12890625,0.0
1734422674.6619678,22.94921875,73.2421875,232.91015625,-57.12890625,0.0
1734422674.665874,-22.4609375,56.640625,63.96484375,-58.10546875,0.0
1734422674.66978,-130.859375,60.546875,-139.16015625,-61.03515625,0.0
1734422674.6736863,-111.328125,85.9375,-38.57421875,-67.87109375,0.0
1734422674.6775923,31.25,81.0546875,148.92578125,-64.453125,0.0
1734422674.6814985,30.76171875,46.38671875,-25.390625,-44.43359375,0.0
1734422674.6854045,-25.390625,62.01171875,-104.00390625,-41.9921875,0.0
1734422674.6893108,-112.79296875,97.65625,163.57421875,-61.5234375,0.0
1734422674.693217,-103.02734375,87.890625,131.8359375,-55.17578125,0.0
1734422674.6971247,17.578125,85.44921875,146.97265625,-47.8515625,0.0
1734422674.7010307,43.45703125,62.5,209.47265625,-54.19921875,0.0
1734422674.704937,22.4609375,32.71484375,219.7265625,-56.15234375,0.0
1734422674.708843,-92.7734375,70.3125,140.13671875,-71.2890625,0.0
1734422674.7127492,-135.25390625,88.8671875,20.5078125,-87.890625,0.0
1734422674.7166553,-5.37109375,75.68359375,52.734375,-73.73046875,0.0
1734422674.7205615,30.76171875,73.73046875,172.8515625,-65.4296875,0.0
1734422674.7244675,8.7890625,53.22265625,206.0546875,-77.1484375,0.0
1734422674.7283738,-82.51953125,30.2734375,-69.3359375,-73.73046875,0.0
1734422674.7322798,-146.484375,50.78125,-18.5546875,-85.9375,0.0
1734422674.736186,-23.92578125,67.3828125,224.12109375,-82.03125,0.0
1734422674.740092,50.78125,58.59375,149.4140625,-60.546875,0.0
1734422674.7439997,31.25,45.8984375,144.04296875,-61.5234375,0.0
1734422674.747906,-63.96484375,56.640625,172.36328125,-75.68359375,0.0
1734422674.751812,-147.94921875,64.453125,154.78515625,-78.125,0.0
1734422674.7557182,-36.1328125,31.73828125,86.9140625,-60.546875,0.0
1734422674.7596242,43.45703125,31.73828125,75.1953125,-48.828125,0.0
1734422674.7635305,25.87890625,24.90234375,99.12109375,-47.8515625,0.0
1734422674.7674365,-54.6875,-1.953125,102.5390625,-51.26953125,0.0
1734422674.7713428,-144.04296875,31.73828125,-159.1796875,-62.01171875,0.0
1734422674.7752488,-42.48046875,50.78125,-199.21875,-65.91796875,0.0
1734422674.779155,37.59765625,49.8046875,205.56640625,-64.453125,0.0
1734422674.783061,20.01953125,51.26953125,220.703125,-52.734375,0.0
1734422674.7869673,-37.59765625,48.828125,65.4296875,-53.7109375,0.0
1734422674.7908747,-143.5546875,44.921875,0.0,-65.91796875,0.0
1734422674.7947807,-72.75390625,47.8515625,0.0,-72.265625,0.0
1734422674.798687,40.52734375,46.38671875,0.0,-59.08203125,0.0
1734422674.802593,47.8515625,35.64453125,0.0,-43.45703125,0.0
1734422674.8064992,-6.8359375,27.83203125,0.0,-47.8515625,0.0
1734422674.8104053,-116.69921875,24.4140625,0.0,-58.10546875,0.0
1734422674.8143115,-72.265625,24.90234375,0.0,-60.05859375,0.0
1734422674.8182178,40.52734375,38.57421875,0.0,-54.19921875,0.0
1734422674.8221238,42.96875,50.29296875,0.0,-51.26953125,0.0
1734422674.82603,-17.08984375,42.48046875,0.0,-54.6875,0.0
1734422674.829936,-133.7890625,41.9921875,0.0,-70.3125,0.0
1734422674.8338423,-95.703125,26.85546875,0.0,-88.8671875,0.0
1734422674.837745,33.203125,12.6953125,39.55078125,-79.1015625,0.0
1734422674.8416512,35.15625,24.4140625,169.43359375,-52.734375,0.0
1734422674.8455572,14.6484375,11.71875,168.45703125,-45.41015625,0.0
1734422674.8494635,-82.03125,39.0625,165.52734375,-52.734375,0.0
1734422674.8533695,-99.609375,43.9453125,134.765625,-72.75390625,0.0
1734422674.8572757,16.11328125,17.08984375,41.9921875,-82.51953125,0.0
1734422674.8611817,52.734375,26.85546875,53.22265625,-59.08203125,0.0
1734422674.865088,25.87890625,25.390625,-42.48046875,-51.26953125,0.0
1734422674.868994,-86.42578125,25.87890625,74.70703125,-78.125,0.0
1734422674.8729002,-117.1875,12.20703125,227.05078125,-78.125,0.0
1734422674.8768063,10.7421875,8.7890625,52.24609375,-48.828125,0.0
1734422674.8807125,50.29296875,31.73828125,15.625,-44.921875,0.0
1734422674.8846195,14.16015625,41.50390625,213.8671875,-52.24609375,0.0
1734422674.8885257,-64.453125,15.625,116.69921875,-55.6640625,0.0
1734422674.8924317,-125.0,15.625,12.20703125,-69.3359375,0.0
1734422674.896338,-25.87890625,38.0859375,109.375,-66.89453125,0.0
1734422674.900244,31.25,20.99609375,207.51953125,-53.7109375,0.0
1734422674.9041502,-1.953125,17.08984375,164.55078125,-50.78125,0.0
1734422674.9080563,-83.49609375,6.34765625,-142.578125,-53.22265625,0.0
1734422674.9119625,-151.3671875,-16.11328125,-122.55859375,-75.1953125,0.0
1734422674.9158685,-39.0625,13.18359375,195.3125,-83.984375,0.0
1734422674.9197748,27.34375,24.90234375,160.15625,-71.2890625,0.0
1734422674.9236808,22.94921875,10.7421875,152.83203125,-54.19921875,0.0
1734422674.927587,-47.8515625,14.6484375,171.875,-56.640625,0.0
1734422674.9314938,-154.296875,20.01953125,155.2734375,-78.61328125,0.0
1734422674.9353998,-63.4765625,7.8125,93.75,-69.3359375,0.0
1734422674.939306,26.3671875,4.39453125,93.26171875,-61.03515625,0.0
1734422674.943212,14.6484375,3.90625,205.56640625,-61.5234375,0.0
1734422674.9471183,-43.45703125,-4.8828125,177.734375,-59.5703125,0.0
1734422674.9510243,-144.04296875,1.953125,-70.80078125,-76.66015625,0.0
1734422674.9549305,-83.49609375,19.53125,-192.3828125,-76.171875,0.0
1734422674.9588366,6.8359375,-2.44140625,35.15625,-66.40625,0.0
1734422674.9627428,-1.953125,-13.671875,213.8671875,-70.80078125,0.0
1734422674.9666488,-32.2265625,5.37109375,-22.94921875,-64.94140625,0.0
1734422674.970555,-138.18359375,18.06640625,-155.76171875,-74.70703125,0.0
1734422674.974461,-89.84375,29.296875,169.921875,-83.984375,0.0
1734422674.9783692,34.1796875,20.5078125,183.59375,-65.91796875,0.0
1734422674.9822755,40.52734375,1.953125,164.55078125,-60.546875,0.0
1734422674.9861815,-9.765625,-3.41796875,169.921875,-60.05859375,0.0
1734422674.9900877,-134.27734375,12.20703125,140.625,-80.078125,0.0
1734422674.9939938,-102.05078125,11.23046875,105.95703125,-77.63671875,0.0
1734422674.9979,29.296875,-8.7890625,-2.9296875,-53.7109375,0.0
1734422675.001806,40.0390625,-1.953125,82.51953125,-50.78125,0.0
1734422675.0057123,-2.9296875,16.6015625,198.73046875,-55.17578125,0.0
1734422675.0096183,-110.83984375,16.11328125,73.73046875,-70.80078125,0.0
1734422675.0135245,-99.12109375,7.32421875,-100.5859375,-67.3828125,0.0
1734422675.0174305,20.01953125,0.48828125,63.4765625,-60.546875,0.0
1734422675.0213368,38.57421875,-7.32421875,261.23046875,-68.359375,0.0
1734422675.0252447,12.6953125,8.7890625,106.4453125,-61.5234375,0.0
1734422675.029151,-92.28515625,20.01953125,17.578125,-69.3359375,0.0
1734422675.033057,-115.234375,13.18359375,116.69921875,-77.63671875,0.0
1734422675.0369632,17.08984375,-0.9765625,169.921875,-67.3828125,0.0
1734422675.0408692,49.31640625,-7.8125,91.796875,-57.12890625,0.0
1734422675.0447755,35.64453125,12.20703125,29.78515625,-49.31640625,0.0
1734422675.0486815,-60.05859375,26.85546875,32.71484375,-60.546875,0.0
1734422675.0525877,-119.140625,-13.671875,63.4765625,-72.75390625,0.0
1734422675.0564938,-4.8828125,-40.52734375,-76.66015625,-63.4765625,0.0
1734422675.0604,40.0390625,2.44140625,-106.93359375,-56.640625,0.0
1734422675.0643063,31.25,33.69140625,221.19140625,-58.10546875,0.0
1734422675.0682123,-48.828125,33.69140625,114.2578125,-61.5234375,0.0
1734422675.07212,-117.1875,15.13671875,-46.875,-68.84765625,0.0
1734422675.0760262,-10.7421875,13.18359375,69.3359375,-68.84765625,0.0
1734422675.0799322,41.015625,14.6484375,217.28515625,-65.4296875,0.0
1734422675.0838385,38.57421875,4.8828125,151.85546875,-54.6875,0.0
1734422675.0877445,-27.83203125,3.41796875,83.0078125,-51.26953125,0.0
1734422675.0916507,-121.58203125,-1.953125,18.06640625,-60.05859375,0.0
1734422675.0955567,-19.04296875,6.34765625,76.66015625,-57.12890625,0.0
1734422675.099463,57.12890625,24.4140625,177.24609375,-52.24609375,0.0
1734422675.103369,45.8984375,8.7890625,-89.84375,-42.96875,0.0
1734422675.1072752,-25.87890625,-2.9296875,-28.80859375,-53.22265625,0.0
1734422675.1111813,-126.953125,18.06640625,192.87109375,-81.0546875,0.0
1734422675.1150875,-34.1796875,3.41796875,76.171875,-70.80078125,0.0
1734422675.118995,0.0,-5.859375,79.58984375,-58.10546875,0.0
1734422675.1229012,0.0,-0.48828125,197.265625,-62.98828125,0.0
1734422675.1268072,0.0,-3.90625,129.39453125,-63.4765625,0.0
1734422675.1307135,0.0,-5.37109375,-24.90234375,-69.82421875,0.0
1734422675.1346195,0.0,-18.06640625,-32.71484375,-70.80078125,0.0
1734422675.1385257,0.0,-26.85546875,89.84375,-52.734375,0.0
1734422675.1424317,0.0,-13.671875,149.90234375,-50.78125,0.0
1734422675.146338,0.0,1.953125,-79.1015625,-53.7109375,0.0
1734422675.150244,0.0,-8.7890625,-171.38671875,-73.73046875,0.0
1734422675.1541502,0.0,0.0,148.4375,-83.984375,0.0
1734422675.1580563,0.0,19.53125,209.9609375,-59.5703125,0.0
1734422675.1619625,0.0,7.32421875,198.73046875,-53.7109375,0.0
1734422675.16587,1.46484375,5.37109375,210.44921875,-57.12890625,0.0
1734422675.169776,-101.07421875,0.0,193.359375,-66.40625,0.0
1734422675.1736822,-105.95703125,-4.8828125,144.53125,-63.96484375,0.0
1734422675.1775882,30.76171875,-5.37109375,181.640625,-49.8046875,0.0
1734422675.1814945,60.05859375,-18.06640625,204.58984375,-41.015625,0.0
1734422675.1854005,29.296875,-19.04296875,156.25,-41.50390625,0.0
1734422675.1893067,-73.73046875,-7.8125,112.79296875,-60.05859375,0.0
1734422675.1932127,-109.375,-9.765625,-142.08984375,-62.01171875,0.0
1734422675.197119,0.48828125,7.32421875,-8.7890625,-61.5234375,0.0
1734422675.201025,32.2265625,26.85546875,276.3671875,-60.546875,0.0
1734422675.2049313,25.87890625,23.92578125,178.7109375,-46.875,0.0
1734422675.2088373,-57.6171875,6.34765625,119.62890625,-58.10546875,0.0
1734422675.2127445,-117.67578125,-7.32421875,131.8359375,-73.2421875,0.0
1734422675.2166507,-1.953125,39.55078125,187.5,-66.40625,0.0
1734422675.2205567,46.875,39.55078125,124.0234375,-57.12890625,0.0
1734422675.224463,26.85546875,7.8125,101.07421875,-60.05859375,0.0
1734422675.228369,-69.3359375,19.53125,132.32421875,-74.70703125,0.0
1734422675.2322752,-144.04296875,18.5546875,62.01171875,-75.1953125,0.0
1734422675.2361813,-16.6015625,-2.9296875,-102.05078125,-59.5703125,0.0
1734422675.2400875,55.6640625,-10.7421875,-118.1640625,-44.921875,0.0
1734422675.2439935,16.11328125,10.25390625,177.24609375,-51.7578125,0.0
1734422675.2478998,-71.77734375,20.99609375,115.234375,-69.82421875,0.0
1734422675.2518058,-157.71484375,22.94921875,-15.13671875,-89.84375,0.0
1734422675.255712,-59.5703125,17.08984375,80.56640625,-82.03125,0.0
1734422675.259619,30.2734375,8.30078125,219.7265625,-59.5703125,0.0
1734422675.263525,10.25390625,5.859375,188.96484375,-60.546875,0.0
1734422675.2674313,-45.8984375,-4.39453125,132.8125,-73.2421875,0.0
1734422675.2713373,-138.18359375,1.953125,123.53515625,-87.890625,0.0
1734422675.2752435,-67.87109375,-20.5078125,126.953125,-75.68359375,0.0
1734422675.2791495,30.2734375,-28.80859375,151.85546875,-44.43359375,0.0
1734422675.2830558,21.484375,-15.13671875,-104.98046875,-31.25,0.0
1734422675.2869618,-32.2265625,2.9296875,-104.98046875,-59.08203125,0.0
1734422675.290868,-149.4140625,26.3671875,170.41015625,-93.75,0.0
1734422675.294774,-100.5859375,5.37109375,97.16796875,-89.35546875,0.0
1734422675.2986803,16.11328125,5.859375,129.39453125,-76.171875,0.0
1734422675.3025863,14.16015625,10.25390625,216.30859375,-71.2890625,0.0
1734422675.306493,-16.6015625,-10.25390625,137.6953125,-67.87109375,0.0
1734422675.3103993,-114.74609375,-2.9296875,-17.578125,-74.70703125,0.0
1734422675.3143053,-83.984375,-0.9765625,19.53125,-74.70703125,0.0
1734422675.3182116,35.15625,-0.9765625,193.359375,-63.96484375,0.0
1734422675.3221176,28.80859375,11.23046875,204.1015625,-64.94140625,0.0
1734422675.3260238,-7.8125,-4.39453125,-7.8125,-65.4296875,0.0
1734422675.3299298,-111.328125,-7.32421875,-237.3046875,-63.4765625,0.0
1734422675.333836,-118.1640625,-8.7890625,-61.5234375,-67.87109375,0.0
1734422675.337742,1.953125,-34.1796875,188.96484375,-68.359375,0.0
1734422675.3416483,29.78515625,-21.97265625,123.53515625,-53.22265625,0.0
1734422675.3455546,8.7890625,4.8828125,93.26171875,-45.41015625,0.0
1734422675.3494606,-99.12109375,6.8359375,175.29296875,-75.1953125,0.0
1734422675.3533688,-128.41796875,-9.27734375,132.32421875,-88.8671875,0.0
1734422675.357275,-8.7890625,-14.16015625,163.0859375,-75.1953125,0.0
1734422675.361181,31.73828125,-9.765625,206.54296875,-70.3125,0.0
1734422675.3650873,4.39453125,-10.7421875,180.6640625,-64.94140625,0.0
1734422675.3689933,-105.46875,-10.7421875,111.328125,-72.75390625,0.0
1734422675.3728995,-148.92578125,-19.53125,-52.24609375,-75.1953125,0.0
1734422675.3768055,-19.04296875,-17.08984375,48.33984375,-65.4296875,0.0
1734422675.3807118,27.83203125,-2.9296875,254.39453125,-54.19921875,0.0
1734422675.3846178,3.90625,-10.7421875,183.59375,-41.015625,0.0
1734422675.388524,-78.125,-22.4609375,-22.94921875,-53.22265625,0.0
1734422675.39243,-149.90234375,-15.625,48.828125,-75.1953125,0.0
1734422675.3963363,-38.57421875,-28.3203125,226.07421875,-67.87109375,0.0
1734422675.4002442,29.296875,-39.55078125,140.625,-52.734375,0.0
1734422675.4041505,19.53125,-23.92578125,131.34765625,-53.22265625,0.0
1734422675.4080565,-55.6640625,-16.11328125,171.38671875,-71.2890625,0.0
1734422675.4119627,-146.97265625,-28.3203125,146.484375,-79.58984375,0.0
1734422675.4158688,-41.50390625,-26.85546875,77.1484375,-62.98828125,0.0
1734422675.419775,38.57421875,-12.6953125,41.50390625,-53.22265625,0.0
1734422675.423681,9.27734375,-6.8359375,117.1875,-55.6640625,0.0
1734422675.4275873,-59.5703125,-7.32421875,140.625,-59.5703125,0.0
1734422675.4314933,-163.0859375,-21.484375,-134.27734375,-67.3828125,0.0
1734422675.4353995,-83.0078125,-27.34375,-167.96875,-66.89453125,0.0
1734422675.4393058,20.99609375,-12.20703125,204.1015625,-66.40625,0.0
1734422675.4432118,26.85546875,-1.46484375,191.89453125,-54.6875,0.0
1734422675.4471197,-26.3671875,-7.32421875,149.4140625,-51.26953125,0.0
1734422675.4510257,-144.53125,-17.578125,113.28125,-65.91796875,0.0
1734422675.454932,-67.87109375,-17.08984375,127.44140625,-63.96484375,0.0
1734422675.458838,38.0859375,-18.5546875,143.5546875,-45.8984375,0.0
1734422675.4627442,5.859375,-10.7421875,125.9765625,-37.59765625,0.0
1734422675.4666502,-34.1796875,-18.06640625,88.37890625,-48.33984375,0.0
1734422675.4705565,-136.23046875,-30.76171875,54.19921875,-64.453125,0.0
1734422675.4744625,-116.69921875,-23.4375,97.16796875,-66.89453125,0.0
1734422675.4783688,-10.7421875,-30.76171875,-102.05078125,-51.26953125,0.0
1734422675.4822748,-8.30078125,-20.99609375,-32.71484375,-48.33984375,0.0
1734422675.486181,-38.57421875,-11.23046875,201.66015625,-51.26953125,0.0
1734422675.490087,-119.62890625,-26.3671875,73.2421875,-59.5703125,0.0
1734422675.4939947,-115.234375,-19.53125,-30.76171875,-71.2890625,0.0
1734422675.497901,-9.27734375,-16.11328125,118.1640625,-65.4296875,0.0
1734422675.501807,8.30078125,-34.1796875,199.70703125,-55.17578125,0.0
1734422675.5057132,-8.7890625,-44.43359375,75.68359375,-51.7578125,0.0
1734422675.5096192,-98.14453125,-29.78515625,13.18359375,-56.15234375,0.0
1734422675.5135255,-123.046875,-14.6484375,11.71875,-64.453125,0.0
1734422675.5174315,-4.8828125,-24.90234375,65.91796875,-70.3125,0.0
1734422675.5213377,33.203125,-41.50390625,-59.08203125,-60.05859375,0.0
1734422675.5252438,10.25390625,-37.109375,-124.51171875,-59.5703125,0.0
1734422675.52915,-65.4296875,-16.11328125,147.4609375,-78.125,0.0
1734422675.533056,-115.72265625,-25.390625,117.67578125,-88.8671875,0.0
1734422675.5369623,-11.23046875,-31.25,108.3984375,-74.70703125,0.0
1734422675.5408697,0.0,-15.625,151.3671875,0.0,0.0
1734422675.5447757,0.0,-11.71875,153.3203125,0.0,0.0
1734422675.548682,0.0,-27.83203125,104.4921875,0.0,0.0
1734422675.552588,0.0,-33.203125,-6.34765625,0.0,0.0
1734422675.5564942,0.0,-30.76171875,88.37890625,0.0,0.0
1734422675.5604002,0.0,-31.73828125,132.8125,0.0,0.0
1734422675.5643065,0.0,-26.85546875,112.3046875,0.0,0.0
1734422675.5682125,0.0,-41.50390625,-105.95703125,0.0,0.0
1734422675.5721188,0.0,-40.0390625,-104.00390625,0.0,0.0
1734422675.5760248,0.0,-20.5078125,210.44921875,0.0,0.0
1734422675.579931,0.0,-11.71875,162.59765625,0.0,0.0
1734422675.5838373,0.0,-9.27734375,134.27734375,0.0,0.0
1734422675.5877442,-41.50390625,-3.90625,193.84765625,-77.1484375,0.0
1734422675.5916505,-127.44140625,-9.765625,165.52734375,-86.9140625,0.0
1734422675.5955565,-50.29296875,-19.53125,69.3359375,-76.171875,0.0
1734422675.5994627,43.45703125,-13.18359375,83.0078125,-64.453125,0.0
1734422675.6033688,20.01953125,-7.8125,138.671875,-63.96484375,0.0
1734422675.607275,-36.62109375,-12.20703125,99.12109375,-68.84765625,0.0
1734422675.611181,-128.41796875,-17.08984375,-114.2578125,-66.89453125,0.0
1734422675.6150873,-64.94140625,-12.20703125,-251.953125,-50.78125,0.0
1734422675.6189933,26.3671875,1.953125,95.703125,-60.546875,0.0
1734422675.6228995,2.44140625,-0.9765625,215.8203125,-74.70703125,0.0
1734422675.6268055,-31.73828125,-11.23046875,110.3515625,-75.68359375,0.0
1734422675.6307118,-145.5078125,-20.5078125,67.87109375,-102.05078125,0.0
1734422675.634619,-122.0703125,-21.484375,112.3046875,-114.74609375,0.0
1734422675.6385252,-0.9765625,-20.5078125,125.0,-98.14453125,0.0
1734422675.6424313,-8.7890625,-24.4140625,90.8203125,-96.19140625,0.0
1734422675.6463375,-51.7578125,-23.92578125,119.62890625,-102.05078125,0.0
1734422675.6502435,-164.0625,-29.78515625,56.15234375,-118.65234375,0.0
1734422675.6541498,-171.875,-37.109375,-145.01953125,-132.32421875,0.0
1734422675.6580558,-47.36328125,-50.29296875,-333.984375,-105.95703125,0.0
1734422675.661962,-26.85546875,-44.921875,-269.04296875,-97.16796875,0.0
1734422675.665868,-61.03515625,-22.4609375,-2.44140625,-129.39453125,0.0
1734422675.6697743,-160.15625,-35.15625,-78.61328125,-150.87890625,0.0
1734422675.6736803,-176.7578125,-46.875,-234.375,-141.6015625,0.0
1734422675.6775866,-65.4296875,-29.78515625,-48.828125,-131.34765625,0.0
1734422675.6814933,-35.15625,-13.671875,95.703125,-118.65234375,0.0
1734422675.6853995,-46.875,-22.94921875,-25.87890625,-103.515625,0.0
1734422675.6893055,-142.578125,-35.15625,-223.6328125,-122.0703125,0.0
1734422675.6932118,-203.61328125,-27.83203125,-200.1953125,-141.11328125,0.0
1734422675.6971178,-91.30859375,-35.64453125,-146.97265625,-126.953125,0.0
1734422675.701024,-21.97265625,-33.203125,-353.02734375,-102.5390625,0.0
1734422675.70493,-53.22265625,-17.578125,-413.57421875,-106.4453125,0.0
1734422675.7088363,-149.4140625,-7.32421875,-253.90625,-121.09375,0.0
1734422675.7127423,-208.49609375,-8.7890625,-280.2734375,-125.9765625,0.0
1734422675.7166486,-104.4921875,-20.5078125,-245.1171875,-121.58203125,0.0
1734422675.7205546,-51.26953125,-23.92578125,-226.5625,-106.4453125,0.0
1734422675.7244608,-54.6875,-15.13671875,-177.24609375,-100.5859375,0.0
1734422675.728369,0.0,-3.41796875,-159.1796875,-117.67578125,0.0
1734422675.732275,0.0,-0.48828125,-250.9765625,-129.8828125,0.0
1734422675.7361813,0.0,2.9296875,-212.890625,-104.4921875,0.0
1734422675.7400873,0.0,12.20703125,-73.73046875,-76.66015625,0.0
1734422675.7439935,0.0,17.08984375,-0.48828125,-74.70703125,0.0
1734422675.7478995,0.0,19.04296875,-216.30859375,-75.1953125,0.0
1734422675.7518058,0.0,27.34375,-293.45703125,-95.703125,0.0
1734422675.7557118,0.0,42.48046875,-158.69140625,-108.3984375,0.0
1734422675.759618,0.0,52.24609375,-167.48046875,-96.19140625,0.0
1734422675.763524,0.0,55.6640625,-236.81640625,-87.890625,0.0
1734422675.7674303,0.0,67.3828125,-155.2734375,-94.7265625,0.0
1734422675.7713363,0.0,80.078125,-138.671875,-104.00390625,0.0
1734422675.7752445,-104.98046875,81.0546875,-237.79296875,-91.30859375,0.0
1734422675.7791505,-4.8828125,68.359375,-231.93359375,-84.47265625,0.0
1734422675.7830567,-14.6484375,58.59375,-165.52734375,-86.9140625,0.0
1734422675.7869627,-52.734375,70.3125,-50.78125,-87.890625,0.0
1734422675.790869,-157.71484375,64.453125,-206.54296875,-99.12109375,0.0
1734422675.794775,-124.51171875,46.38671875,-390.13671875,-99.12109375,0.0
1734422675.7986813,0.9765625,46.875,-208.49609375,-81.54296875,0.0
1734422675.8025873,3.41796875,53.7109375,-162.59765625,-71.2890625,0.0
1734422675.8064935,-36.1328125,44.43359375,-351.07421875,-71.2890625,0.0
1734422675.8103995,-148.4375,22.94921875,-436.5234375,-84.9609375,0.0
1734422675.8143058,-145.99609375,36.1328125,-200.1953125,-104.00390625,0.0
1734422675.8182118,-14.6484375,34.1796875,-155.76171875,-91.30859375,0.0
1734422675.8221197,4.39453125,70.3125,-200.68359375,-73.2421875,0.0
1734422675.8260257,-22.94921875,178.7109375,-88.37890625,-85.44921875,0.0
1734422675.829932,-126.953125,258.7890625,-77.1484375,-104.4921875,0.0
1734422675.833838,-144.04296875,294.43359375,-248.046875,-101.5625,0.0
1734422675.8377442,-23.92578125,316.89453125,-285.15625,-84.47265625,0.0
1734422675.8416502,8.7890625,336.42578125,-228.515625,-70.3125,0.0
1734422675.8455565,-10.25390625,347.16796875,-232.91015625,-68.84765625,0.0
1734422675.8494625,-132.32421875,353.02734375,-279.78515625,-88.37890625,0.0
1734422675.8533688,-182.6171875,349.609375,-418.45703125,-93.75,0.0
1734422675.8572748,-49.31640625,360.83984375,-330.56640625,-84.9609375,0.0
1734422675.861181,2.9296875,374.0234375,-61.5234375,-80.56640625,0.0
1734422675.865087,-11.23046875,368.1640625,-87.40234375,-83.984375,0.0
1734422675.8689947,-102.5390625,365.234375,-249.0234375,-103.02734375,0.0
1734422675.8729007,-168.45703125,362.3046875,-237.79296875,-109.375,0.0
1734422675.876807,-53.22265625,355.46875,-186.5234375,-90.33203125,0.0
1734422675.880713,-5.37109375,333.0078125,-246.09375,-77.1484375,0.0
1734422675.8846192,-23.4375,312.98828125,-283.69140625,-67.3828125,0.0
1734422675.8885252,-97.16796875,307.6171875,-288.0859375,-76.171875,0.0
1734422675.8924315,-190.91796875,298.33984375,-285.64453125,-102.05078125,0.0
1734422675.8963375,-80.078125,279.78515625,-387.6953125,-82.51953125,0.0
1734422675.9002438,8.7890625,268.5546875,-442.87109375,-62.98828125,0.0
1734422675.9041498,-13.671875,269.53125,-51.26953125,-75.68359375,0.0
1734422675.908056,-70.80078125,251.953125,32.71484375,-76.171875,0.0
1734422675.911962,-179.6875,231.93359375,-192.3828125,-84.9609375,0.0
1734422675.9158695,-110.3515625,226.07421875,-250.9765625,-85.44921875,0.0
1734422675.9197755,-3.90625,219.23828125,-110.83984375,-74.21875,0.0
1734422675.9236817,-8.30078125,207.03125,35.64453125,-67.87109375,0.0
1734422675.9275877,-60.546875,196.2890625,-90.8203125,-72.75390625,0.0
1734422675.931494,-162.109375,191.40625,-226.07421875,-90.8203125,0.0
1734422675.9354,-114.2578125,179.19921875,-290.0390625,-86.9140625,0.0
1734422675.9393063,-16.6015625,175.29296875,-191.40625,-73.73046875,0.0
1734422675.9432123,-19.53125,166.9921875,-284.66796875,-65.91796875,0.0
1734422675.9471185,-69.3359375,161.62109375,-241.2109375,-67.87109375,0.0
1734422675.9510245,-175.78125,164.55078125,-95.21484375,-83.49609375,0.0
1734422675.9549308,-141.6015625,157.71484375,-226.07421875,-93.26171875,0.0
1734422675.9588368,-38.0859375,144.04296875,-266.6015625,-93.75,0.0
1734422675.9627442,-30.2734375,141.11328125,-87.890625,-93.75,0.0
1734422675.9666502,-49.8046875,141.11328125,90.8203125,-85.44921875,0.0
1734422675.9705565,-153.80859375,121.58203125,-122.55859375,-88.8671875,0.0
1734422675.9744625,-148.4375,106.4453125,-273.92578125,-94.7265625,0.0
1734422675.9783688,-16.11328125,104.4921875,-70.80078125,-73.73046875,0.0
1734422675.9822748,7.32421875,104.00390625,-66.40625,-63.4765625,0.0
1734422675.986181,-37.109375,89.35546875,-294.921875,-59.5703125,0.0
1734422675.990087,-137.6953125,76.171875,-380.37109375,-62.01171875,0.0
1734422675.9939933,-156.25,83.0078125,-174.8046875,-76.171875,0.0
1734422675.9978993,-22.94921875,85.9375,-14.6484375,-67.87109375,0.0
1734422676.0018055,9.27734375,79.1015625,-20.5078125,-57.6171875,0.0
1734422676.0057116,-31.73828125,67.87109375,-3.41796875,-62.01171875,0.0
1734422676.0096188,-109.375,59.5703125,67.87109375,-69.82421875,0.0
1734422676.0135248,-136.23046875,55.17578125,-1.953125,-68.84765625,0.0
1734422676.017431,-29.296875,51.7578125,-163.57421875,-61.03515625,0.0
1734422676.021337,3.90625,44.921875,-150.390625,-58.59375,0.0
1734422676.0252433,-11.71875,38.57421875,24.90234375,-54.19921875,0.0
1734422676.0291493,-85.44921875,23.92578125,-109.375,-62.01171875,0.0
1734422676.0330555,-147.94921875,2.9296875,-386.71875,-70.80078125,0.0
1734422676.0369616,-42.48046875,3.90625,-227.5390625,-69.3359375,0.0
1734422676.0408678,17.08984375,20.5078125,129.39453125,-67.87109375,0.0
1734422676.0447738,4.8828125,16.6015625,47.36328125,-57.12890625,0.0
1734422676.04868,-62.01171875,4.39453125,-82.03125,-64.94140625,0.0
1734422676.052586,-162.59765625,-5.37109375,-15.625,-81.0546875,0.0
1734422676.0564928,-69.3359375,-9.765625,62.98828125,-65.4296875,0.0
1734422676.060399,19.04296875,-25.390625,5.859375,-38.0859375,0.0
1734422676.064305,4.39453125,-38.57421875,-38.57421875,-41.015625,0.0
1734422676.0682113,-59.5703125,-35.64453125,58.10546875,-66.89453125,0.0
1734422676.0721173,-159.66796875,-37.59765625,33.203125,-79.1015625,0.0
1734422676.0760236,-86.42578125,-64.453125,-277.83203125,-69.82421875,0.0
1734422676.0799298,8.7890625,-82.03125,-354.00390625,-52.734375,0.0
1734422676.0838358,-7.8125,-71.77734375,-23.92578125,-58.10546875,0.0
1734422676.087742,-64.453125,-74.21875,-83.984375,-80.56640625,0.0
1734422676.091648,-154.296875,-81.0546875,-230.46875,-97.65625,0.0
1734422676.0955544,-91.30859375,-76.171875,-191.89453125,-90.33203125,0.0
1734422676.0994604,-1.953125,-75.68359375,12.20703125,-84.47265625,0.0
1734422676.1033685,-28.3203125,-87.890625,122.0703125,-86.42578125,0.0
1734422676.1072748,-56.640625,-101.07421875,-40.0390625,-83.49609375,0.0
1734422676.1111808,-148.4375,-106.93359375,-58.10546875,-96.6796875,0.0
1734422676.115087,-139.6484375,-114.74609375,14.16015625,-104.98046875,0.0
1734422676.118993,-25.390625,-125.0,19.53125,-86.42578125,0.0
1734422676.1228993,-0.48828125,-135.7421875,-85.44921875,-73.2421875,0.0
1734422676.1268053,-42.96875,-136.23046875,-107.91015625,-72.265625,0.0
1734422676.1307116,-166.9921875,-141.11328125,-100.5859375,-89.35546875,0.0
1734422676.1346176,-176.26953125,-152.83203125,-196.77734375,-105.95703125,0.0
1734422676.1385238,-60.05859375,-158.69140625,-239.74609375,-79.1015625,0.0
1734422676.1424298,-35.64453125,-154.78515625,-3.90625,-60.546875,0.0
1734422676.146336,-53.22265625,-149.4140625,148.4375,-63.96484375,0.0
1734422676.150244,-153.80859375,-158.203125,-80.078125,-75.1953125,0.0
1734422676.15415,-183.10546875,-164.55078125,-271.97265625,-87.40234375,0.0
1734422676.1580563,-51.26953125,-156.73828125,-57.6171875,-71.77734375,0.0
1734422676.1619623,-24.90234375,-154.296875,128.90625,-64.453125,0.0
1734422676.1658685,-39.55078125,-156.73828125,-7.32421875,-66.89453125,0.0
1734422676.1697745,-124.0234375,-159.66796875,-230.46875,-75.1953125,0.0
1734422676.1736808,-184.08203125,-164.0625,-272.4609375,-90.8203125,0.0
1734422676.1775868,-69.3359375,-163.0859375,-171.875,-85.44921875,0.0
1734422676.181493,-20.99609375,-166.9921875,-263.18359375,-69.3359375,0.0
1734422676.185399,-40.0390625,-166.9921875,-303.22265625,-60.05859375,0.0
1734422676.1893053,-133.30078125,-154.78515625,19.04296875,-87.40234375,0.0
1734422676.1932113,-200.1953125,-155.2734375,25.87890625,-106.4453125,0.0
1734422676.1971192,-89.35546875,-160.15625,-173.828125,-89.35546875,0.0
1734422676.2010252,-37.59765625,-158.69140625,-57.12890625,-75.1953125,0.0
1734422676.2049315,-63.4765625,-149.90234375,127.44140625,-75.1953125,0.0
1734422676.2088375,-128.41796875,-154.78515625,29.296875,-85.44921875,0.0
1734422676.2127438,-205.078125,-165.0390625,-189.94140625,-97.65625,0.0
1734422676.2166498,-110.83984375,-164.55078125,-303.22265625,-86.9140625,0.0
1734422676.220556,-49.8046875,-149.90234375,-65.4296875,-85.9375,0.0
1734422676.224462,-65.4296875,-147.4609375,67.3828125,-89.35546875,0.0
1734422676.2283683,-113.28125,-165.0390625,-251.46484375,-72.265625,0.0
1734422676.2322743,-214.84375,-159.66796875,-306.15234375,-86.42578125,0.0
1734422676.2361805,-139.6484375,-145.01953125,-88.8671875,-104.00390625,0.0
1734422676.2400866,-38.0859375,-144.04296875,-6.34765625,-91.30859375,0.0
1734422676.2439942,-49.31640625,-142.08984375,0.48828125,-75.68359375,0.0
1734422676.2479005,-107.91015625,-129.39453125,46.38671875,-76.66015625,0.0
1734422676.2518065,-212.40234375,-128.90625,19.53125,-97.16796875,0.0
1734422676.2557127,-162.59765625,-139.16015625,-193.84765625,-88.8671875,0.0
1734422676.2596188,-51.7578125,-142.578125,-170.41015625,-73.73046875,0.0
1734422676.263525,-49.8046875,-130.859375,33.203125,-69.82421875,0.0
1734422676.267431,-104.00390625,-118.65234375,-36.62109375,-73.73046875,0.0
1734422676.2713373,-209.47265625,-131.8359375,-339.84375,-84.47265625,0.0
1734422676.2752433,-182.12890625,-138.18359375,-399.90234375,-87.890625,0.0
1734422676.2791495,-65.4296875,-113.76953125,38.57421875,-92.28515625,0.0
1734422676.2830555,-46.38671875,-108.88671875,144.04296875,-77.63671875,0.0
1734422676.2869618,-68.359375,-122.55859375,-44.43359375,-62.98828125,0.0
1734422676.290869,-159.1796875,-128.90625,-80.078125,-69.82421875,0.0
1734422676.2947752,-153.80859375,-123.046875,-15.625,-84.47265625,0.0
1734422676.2986813,-37.59765625,-118.65234375,12.6953125,-92.7734375,0.0
1734422676.3025875,-10.7421875,-118.1640625,-4.8828125,-84.9609375,0.0
1734422676.3064935,-29.296875,-111.328125,-17.08984375,-67.3828125,0.0
1734422676.3103998,-126.46484375,-119.140625,-158.69140625,-77.63671875,0.0
1734422676.3143058,-142.578125,-125.48828125,-242.1875,-96.19140625,0.0
1734422676.318212,-14.6484375,-128.41796875,-308.59375,-72.265625,0.0
1734422676.322118,15.625,-123.53515625,-152.83203125,-58.10546875,0.0
1734422676.3260243,0.9765625,-111.328125,136.23046875,-71.2890625,0.0
1734422676.3299305,-76.171875,-120.60546875,-23.92578125,-80.56640625,0.0
1734422676.3338366,-109.86328125,-119.140625,-197.265625,-82.03125,0.0
1734422676.3377438,4.39453125,-111.328125,-41.50390625,-66.40625,0.0
1734422676.3416498,51.7578125,-115.234375,120.1171875,-52.24609375,0.0
1734422676.345556,40.52734375,-123.046875,17.08984375,-52.24609375,0.0
1734422676.349462,-43.45703125,-127.44140625,-120.60546875,-63.4765625,0.0
1734422676.3533683,-99.12109375,-125.48828125,-94.7265625,-67.87109375,0.0
1734422676.3572743,17.578125,-128.41796875,-120.1171875,-54.19921875,0.0
1734422676.3611805,84.9609375,-138.18359375,-252.9296875,-38.0859375,0.0
1734422676.3650866,64.94140625,-143.06640625,-324.21875,-31.73828125,0.0
1734422676.3689928,-30.2734375,-122.0703125,-10.7421875,-57.6171875,0.0
1734422676.3728988,-114.2578125,-119.140625,28.80859375,-84.9609375,0.0
1734422676.376805,-9.765625,-128.90625,-158.69140625,-70.80078125,0.0
1734422676.380711,61.5234375,-124.51171875,-14.6484375,-55.6640625,0.0
1734422676.384618,35.64453125,-123.046875,157.71484375,-64.94140625,0.0
1734422676.3885243,-28.80859375,-133.30078125,53.7109375,-69.82421875,0.0
1734422676.3924303,-113.28125,-140.625,-185.546875,-81.0546875,0.0
1734422676.3963366,-24.4140625,-131.8359375,-157.71484375,-80.56640625,0.0
1734422676.4002426,60.05859375,-126.953125,13.671875,-70.80078125,0.0
1734422676.4041488,52.24609375,-128.41796875,-71.2890625,-59.08203125,0.0
1734422676.4080548,-1.46484375,-136.71875,-318.359375,-51.7578125,0.0
1734422676.411961,-110.83984375,-135.7421875,-346.6796875,-77.63671875,0.0
1734422676.415867,-54.6875,-119.62890625,-91.796875,-84.47265625,0.0
1734422676.4197733,42.96875,-125.0,34.66796875,-72.265625,0.0
1734422676.4236794,41.50390625,-138.671875,52.734375,-63.4765625,0.0
1734422676.4275856,-6.8359375,-134.27734375,58.10546875,-65.91796875,0.0
1734422676.431494,-128.90625,-126.46484375,-1.46484375,-91.30859375,0.0
1734422676.4354,-106.93359375,-134.765625,-201.171875,-87.890625,0.0
1734422676.4393063,17.08984375,-129.8828125,-156.73828125,-69.82421875,0.0
1734422676.4432123,24.90234375,-120.60546875,88.8671875,-67.87109375,0.0
1734422676.4471185,-25.390625,-128.90625,93.26171875,-70.80078125,0.0
1734422676.4510245,-141.11328125,-153.80859375,-262.20703125,-77.1484375,0.0
1734422676.4549308,-123.046875,-159.1796875,-451.171875,-61.5234375,0.0
1734422676.4588368,2.44140625,-133.30078125,-158.203125,-52.24609375,0.0
1734422676.462743,19.53125,-122.55859375,90.8203125,-63.4765625,0.0
1734422676.466649,6.34765625,-126.46484375,10.25390625,-52.24609375,0.0
1734422676.4705553,-93.26171875,-132.8125,-124.51171875,-56.640625,0.0
1734422676.4744613,-109.86328125,-138.671875,23.4375,-70.3125,0.0
1734422676.4783695,14.16015625,-139.6484375,60.05859375,-50.78125,0.0
1734422676.4822757,35.15625,-132.8125,-10.7421875,-43.9453125,0.0
1734422676.4861817,14.16015625,-126.46484375,1.46484375,-44.921875,0.0
1734422676.490088,-82.03125,-132.32421875,42.96875,-62.01171875,0.0
1734422676.493994,-120.1171875,-144.53125,-99.609375,-79.1015625,0.0
1734422676.4979002,-2.44140625,-154.296875,-205.56640625,-65.91796875,0.0
1734422676.5018063,24.90234375,-148.4375,-176.26953125,-62.01171875,0.0
1734422676.5057125,5.37109375,-136.23046875,-40.0390625,-62.01171875,0.0
1734422676.5096185,-71.77734375,-138.671875,17.08984375,-69.3359375,0.0
1734422676.5135248,-130.37109375,-157.71484375,-297.8515625,-72.265625,0.0
1734422676.5174308,-34.1796875,-148.4375,-156.73828125,-64.94140625,0.0
1734422676.521337,19.53125,-129.39453125,171.38671875,-64.453125,0.0
1734422676.525245,11.23046875,-138.671875,44.921875,-71.2890625,0.0
1734422676.5291512,-70.3125,-145.99609375,-87.890625,-83.984375,0.0
1734422676.5330572,-137.20703125,-144.04296875,-69.3359375,-87.40234375,0.0
1734422676.5369635,-29.296875,-144.53125,24.4140625,-76.171875,0.0
1734422676.5408695,20.99609375,-153.3203125,-11.23046875,-62.5,0.0
1734422676.5447757,6.8359375,-158.69140625,-190.4296875,-53.7109375,0.0
1734422676.5486817,-50.78125,-147.94921875,-208.984375,-72.265625,0.0
1734422676.552588,-154.296875,-142.08984375,-228.02734375,-94.7265625,0.0
1734422676.556494,-77.63671875,-148.4375,-346.6796875,-82.03125,0.0
1734422676.5604002,22.4609375,-141.11328125,-317.87109375,-58.10546875,0.0
1734422676.5643063,11.23046875,-122.0703125,41.9921875,-62.98828125,0.0
1734422676.5682125,-49.8046875,-134.27734375,67.87109375,-73.73046875,0.0
1734422676.5721202,-159.1796875,-148.92578125,-172.8515625,-92.7734375,0.0
1734422676.5760264,-101.07421875,-143.5546875,-108.3984375,-99.12109375,0.0
1734422676.5799325,13.18359375,-138.18359375,89.84375,-77.63671875,0.0
1734422676.5838387,11.71875,-144.53125,89.35546875,-68.84765625,0.0
1734422676.5877447,-38.0859375,-149.90234375,-61.5234375,-72.265625,0.0
1734422676.591651,-136.71875,-155.76171875,-265.625,-79.58984375,0.0
1734422676.595557,-101.5625,-148.4375,-186.03515625,-83.49609375,0.0
1734422676.5994632,8.7890625,-139.16015625,-21.484375,-82.03125,0.0
1734422676.6033692,23.4375,-149.4140625,-214.84375,-62.98828125,0.0
1734422676.6072755,-6.34765625,-140.13671875,-142.08984375,-55.6640625,0.0
1734422676.6111815,-104.00390625,-128.41796875,76.66015625,-76.171875,0.0
1734422676.6150877,-91.30859375,-139.16015625,-141.6015625,-77.1484375,0.0
1734422676.6189952,16.11328125,-141.11328125,-109.86328125,-68.359375,0.0
1734422676.6229014,30.2734375,-133.30078125,101.07421875,-65.91796875,0.0
1734422676.6268075,24.4140625,-129.39453125,140.13671875,-59.5703125,0.0
1734422676.6307137,-73.2421875,-140.13671875,-109.86328125,-60.546875,0.0
1734422676.6346197,-111.328125,-150.390625,-220.21484375,-62.5,0.0
1734422676.638526,-1.953125,-150.390625,-111.328125,-58.59375,0.0
1734422676.642432,16.11328125,-148.4375,-143.06640625,-69.82421875,0.0
1734422676.6463382,-2.44140625,-148.92578125,-258.30078125,-67.3828125,0.0
1734422676.6502442,-74.70703125,-146.97265625,-371.58203125,-65.91796875,0.0
1734422676.6541505,-109.86328125,-129.39453125,-145.5078125,-74.70703125,0.0
1734422676.6580567,2.44140625,-129.39453125,26.3671875,-69.82421875,0.0
1734422676.6619627,47.36328125,-138.18359375,-19.04296875,-56.15234375,0.0
1734422676.6658702,44.921875,-134.27734375,8.7890625,-38.0859375,0.0
1734422676.6697764,-38.57421875,-129.39453125,82.51953125,-61.5234375,0.0
1734422676.6736825,-101.07421875,-132.32421875,-131.8359375,-79.1015625,0.0
1734422676.6775887,11.71875,-132.8125,-202.1484375,-60.546875,0.0
1734422676.6814947,64.94140625,-128.41796875,19.04296875,-53.7109375,0.0
1734422676.685401,42.48046875,-130.37109375,17.08984375,-50.78125,0.0
1734422676.689307,-35.15625,-136.23046875,-161.62109375,-55.6640625,0.0
1734422676.6932132,-101.07421875,-150.390625,-388.18359375,-62.5,0.0
1734422676.6971192,1.46484375,-131.34765625,-210.9375,-63.96484375,0.0
1734422676.7010255,51.7578125,-111.328125,135.25390625,-72.75390625,0.0
1734422676.7049315,34.66796875,-125.9765625,62.01171875,-58.59375,0.0
1734422676.7088377,-14.6484375,-125.9765625,-69.82421875,-44.921875,0.0
1734422676.712745,-106.4453125,-120.60546875,-145.99609375,-60.546875,0.0
1734422676.716651,-33.69140625,-123.046875,-30.76171875,-67.3828125,0.0
1734422676.7205572,51.26953125,-126.953125,-23.4375,-51.7578125,0.0
1734422676.7244632,34.66796875,-122.0703125,-65.4296875,-37.59765625,0.0
1734422676.7283695,-15.625,-113.76953125,14.6484375,-39.0625,0.0
1734422676.7322755,-109.375,-126.953125,-172.36328125,-58.10546875,0.0
1734422676.7361817,-56.15234375,-138.18359375,-347.65625,-59.08203125,0.0
1734422676.7400877,33.203125,-135.25390625,-395.5078125,-40.0390625,0.0
1734422676.743994,14.16015625,-115.234375,-66.40625,-50.78125,0.0
1734422676.7479,-39.55078125,-112.3046875,104.00390625,-65.4296875,0.0
1734422676.7518063,-138.18359375,-125.9765625,-101.5625,-74.21875,0.0
1734422676.7557123,-92.7734375,-122.55859375,-158.203125,-72.265625,0.0
1734422676.7596192,22.94921875,-119.140625,-14.16015625,-63.96484375,0.0
1734422676.7635255,22.94921875,-126.46484375,41.9921875,-55.6640625,0.0
1734422676.7674315,-22.4609375,-130.859375,-53.22265625,-47.8515625,0.0
1734422676.7713377,-123.53515625,-126.46484375,-154.78515625,-67.3828125,0.0
1734422676.7752438,-111.328125,-126.46484375,-162.109375,-78.125,0.0
1734422676.77915,-7.32421875,-127.44140625,-160.15625,-68.359375,0.0
1734422676.783056,2.9296875,-135.7421875,-312.5,-57.12890625,0.0
1734422676.7869623,-17.578125,-131.8359375,-181.15234375,-62.01171875,0.0
1734422676.7908683,-104.4921875,-123.53515625,31.73828125,-76.171875,0.0
1734422676.7947745,-111.328125,-130.37109375,-195.3125,-70.3125,0.0
1734422676.7986805,7.32421875,-130.859375,-88.37890625,-62.01171875,0.0
1734422676.8025868,38.57421875,-127.9296875,72.75390625,-51.7578125,0.0
1734422676.8064938,13.18359375,-123.046875,82.03125,-56.640625,0.0
1734422676.8103998,-85.44921875,-128.90625,-99.12109375,-66.89453125,0.0
1734422676.814306,-115.72265625,-131.34765625,-273.92578125,-60.05859375,0.0
1734422676.818212,-6.8359375,-124.0234375,-43.9453125,-62.01171875,0.0
1734422676.8221183,15.13671875,-125.9765625,132.8125,-60.546875,0.0
1734422676.8260243,6.34765625,-137.6953125,-145.01953125,-42.48046875,0.0
1734422676.8299305,-67.3828125,-145.01953125,-380.37109375,-41.50390625,0.0
1734422676.8338366,-142.08984375,-136.71875,-226.07421875,-61.03515625,0.0
1734422676.8377428,-32.2265625,-126.46484375,-29.296875,-58.10546875,0.0
1734422676.841649,25.87890625,-127.44140625,-74.70703125,-46.38671875,0.0
1734422676.845555,5.859375,-126.46484375,-125.48828125,-48.33984375,0.0
1734422676.8494613,-79.1015625,-120.60546875,67.3828125,-65.91796875,0.0
1734422676.8533692,-171.875,-133.30078125,-145.99609375,-75.1953125,0.0
1734422676.8572755,-71.77734375,-142.08984375,-248.53515625,-60.546875,0.0
1734422676.8611815,8.7890625,-126.953125,7.32421875,-52.734375,0.0
1734422676.8650877,-5.859375,-115.72265625,134.27734375,-50.29296875,0.0
1734422676.8689938,-71.77734375,-122.0703125,51.7578125,-56.640625,0.0
1734422676.8729,-161.1328125,-143.06640625,-344.7265625,-54.19921875,0.0
1734422676.876806,-77.63671875,-133.7890625,-354.4921875,-47.8515625,0.0
1734422676.8807123,5.37109375,-113.28125,83.0078125,-58.59375,0.0
1734422676.8846185,-8.7890625,-123.53515625,79.1015625,-53.22265625,0.0
1734422676.8885245,-54.19921875,-125.9765625,-138.18359375,-47.8515625,0.0
1734422676.8924308,-147.4609375,-118.65234375,-168.9453125,-59.5703125,0.0
1734422676.8963368,-82.51953125,-117.1875,-3.41796875,-62.5,0.0
1734422676.9002447,19.04296875,-123.53515625,19.04296875,-53.7109375,0.0
1734422676.904151,0.9765625,-126.46484375,-26.85546875,-57.6171875,0.0
1734422676.9080572,-53.7109375,-119.62890625,68.359375,-61.03515625,0.0
1734422676.9119632,-145.01953125,-126.46484375,-82.03125,-64.94140625,0.0
1734422676.9158695,-102.05078125,-134.27734375,-296.875,-62.5,0.0
1734422676.9197755,1.46484375,-131.8359375,-268.06640625,-58.10546875,0.0
1734422676.9236817,2.44140625,-131.34765625,-151.85546875,-59.5703125,0.0
1734422676.9275877,-30.76171875,-135.25390625,-127.44140625,-62.98828125,0.0
1734422676.931494,-136.71875,-142.08984375,-327.1484375,-78.61328125,0.0
1734422676.9354,-119.62890625,-134.27734375,-390.625,-81.0546875,0.0
1734422676.9393063,-15.13671875,-118.65234375,4.8828125,-76.171875,0.0
1734422676.9432123,-13.671875,-122.55859375,131.8359375,-74.70703125,0.0
1734422676.94712,0.0,-129.39453125,-42.96875,-70.80078125,0.0
1734422676.9510262,0.0,-134.765625,-161.62109375,-77.63671875,0.0
1734422676.9549322,0.0,-133.7890625,-145.99609375,-86.42578125,0.0
1734422676.9588385,0.0,-129.39453125,-14.16015625,-84.47265625,0.0
1734422676.9627445,0.0,-125.9765625,-59.5703125,-64.94140625,0.0
1734422676.9666507,0.0,-126.46484375,-209.9609375,-58.10546875,0.0
1734422676.9705567,0.0,-131.8359375,-206.0546875,-82.03125,0.0
1734422676.974463,0.0,-132.8125,-225.09765625,-86.9140625,0.0
1734422676.978369,0.0,-135.25390625,-331.0546875,-66.89453125,0.0
1734422676.9822752,0.0,-123.53515625,-146.97265625,-62.01171875,0.0
1734422676.9861813,0.0,-111.328125,133.7890625,-65.4296875,0.0
1734422676.9900875,0.0,-124.51171875,-92.28515625,-67.87109375,0.0
1734422676.9939907,-32.2265625,-127.9296875,-218.75,-76.66015625,0.0
1734422676.997897,-136.23046875,-119.140625,18.5546875,-70.3125,0.0
1734422677.001803,-148.92578125,-118.65234375,129.8828125,-68.84765625,0.0
1734422677.0057092,-18.06640625,-124.51171875,11.71875,-59.5703125,0.0
1734422677.0096152,10.7421875,-128.41796875,-181.640625,-61.03515625,0.0
1734422677.0135214,-13.671875,-133.30078125,-247.55859375,-73.73046875,0.0
1734422677.0174274,-113.28125,-135.7421875,-202.63671875,-62.5,0.0
1734422677.0213337,-154.78515625,-136.71875,-276.85546875,-47.8515625,0.0
1734422677.0252397,-31.73828125,-132.8125,-313.96484375,-50.78125,0.0
1734422677.029146,16.6015625,-114.74609375,-56.15234375,-69.82421875,0.0
1734422677.033052,3.90625,-121.09375,-177.734375,-70.80078125,0.0
1734422677.0369582,-77.63671875,-120.60546875,-238.28125,-55.6640625,0.0
1734422677.0408657,23.92578125,-105.95703125,20.01953125,-57.12890625,0.0
1734422677.0447717,-6.34765625,-108.3984375,141.6015625,-69.82421875,0.0
1734422677.048678,-51.7578125,-115.72265625,20.5078125,-63.4765625,0.0
1734422677.0525842,-142.578125,-121.58203125,-161.1328125,-67.87109375,0.0
1734422677.0564902,-84.47265625,-126.46484375,-75.68359375,-73.2421875,0.0
1734422677.0603964,14.16015625,-132.8125,-77.1484375,-52.734375,0.0
1734422677.0643024,6.8359375,-132.32421875,-79.1015625,-43.45703125,0.0
1734422677.0682087,-24.90234375,-137.20703125,-224.609375,-36.1328125,0.0
1734422677.0721147,-133.7890625,-136.71875,-308.10546875,-45.41015625,0.0
1734422677.076021,-97.65625,-120.60546875,20.99609375,-51.7578125,0.0
1734422677.079927,12.6953125,-123.53515625,43.45703125,-49.8046875,0.0
1734422677.0838332,6.8359375,-125.0,-4.8828125,-54.6875,0.0
1734422677.0877402,-21.484375,-123.53515625,60.546875,-50.78125,0.0
1734422677.0916464,-125.0,-134.27734375,-83.0078125,-68.84765625,0.0
1734422677.0955524,-117.67578125,-134.27734375,-228.02734375,-79.1015625,0.0
1734422677.0994587,-2.9296875,-124.51171875,-113.76953125,-70.3125,0.0
1734422677.103365,14.6484375,-118.1640625,102.5390625,-66.40625,0.0
1734422677.107271,-5.859375,-124.0234375,-26.3671875,-58.59375,0.0
1734422677.1111772,-110.83984375,-141.6015625,-335.44921875,-63.4765625,0.0
1734422677.1150832,-127.9296875,-140.13671875,-409.1796875,-70.80078125,0.0
1734422677.1189895,-10.7421875,-110.83984375,5.859375,-76.66015625,0.0
1734422677.1228955,19.04296875,-105.95703125,158.69140625,-69.82421875,0.0
1734422677.1268017,16.11328125,-112.79296875,-15.13671875,-61.03515625,0.0
1734422677.1307077,-91.30859375,-111.328125,-55.6640625,-88.37890625,0.0
1734422677.1346147,-154.78515625,-111.81640625,22.4609375,-108.3984375,0.0
1734422677.138521,-20.5078125,-113.28125,53.7109375,-86.9140625,0.0
1734422677.142427,24.90234375,-115.234375,-6.8359375,-70.3125,0.0
1734422677.1463332,4.8828125,-115.72265625,23.4375,-61.5234375,0.0
1734422677.1502392,-78.61328125,-118.65234375,-67.87109375,-61.03515625,0.0
1734422677.1541455,-139.16015625,-124.51171875,-243.1640625,-71.2890625,0.0
1734422677.1580515,-22.94921875,-130.37109375,-363.28125,-48.33984375,0.0
1734422677.1619577,22.4609375,-115.72265625,-174.8046875,-45.41015625,0.0
1734422677.1658638,-3.41796875,-99.12109375,142.08984375,-72.265625,0.0
1734422677.16977,-69.3359375,-109.375,-19.04296875,-72.75390625,0.0
1734422677.173676,-141.6015625,-109.86328125,-176.7578125,-69.82421875,0.0
1734422677.1775823,-34.1796875,-103.02734375,-37.59765625,-62.5,0.0
1734422677.181489,44.921875,-106.93359375,107.421875,-51.26953125,0.0
1734422677.1853952,25.390625,-111.328125,-71.2890625,-48.33984375,0.0
1734422677.1893013,-46.875,-110.83984375,-118.65234375,-67.3828125,0.0
1734422677.1932075,-135.25390625,-112.79296875,18.5546875,-86.42578125,0.0
1734422677.1971135,-41.50390625,-115.234375,31.25,-71.2890625,0.0
1734422677.2010198,56.15234375,-119.62890625,-179.19921875,-48.828125,0.0
1734422677.2049258,47.36328125,-121.09375,-352.5390625,-42.96875,0.0
1734422677.208832,-21.97265625,-117.67578125,-208.0078125,-58.59375,0.0
1734422677.212738,-137.20703125,-118.65234375,-191.40625,-82.51953125,0.0
1734422677.2166443,-79.1015625,-115.234375,-181.640625,-87.40234375,0.0
1734422677.2205503,22.4609375,-105.95703125,-5.37109375,-77.63671875,0.0
1734422677.2244565,13.671875,-100.09765625,117.67578125,-71.77734375,0.0
1734422677.2283647,-32.71484375,-109.375,34.66796875,-79.1015625,0.0
1734422677.232271,-133.30078125,-118.65234375,-147.94921875,-81.0546875,0.0
1734422677.236177,-85.44921875,-118.1640625,-83.984375,-75.68359375,0.0
1734422677.2400832,36.1328125,-115.72265625,95.703125,-72.75390625,0.0
1734422677.2439892,26.3671875,-115.72265625,40.52734375,-62.5,0.0
1734422677.2478955,-8.30078125,-119.62890625,-168.9453125,-45.8984375,0.0
1734422677.2518015,-97.65625,-116.2109375,-227.05078125,-51.26953125,0.0
1734422677.2557077,-99.12109375,-107.421875,-92.28515625,-65.4296875,0.0
1734422677.2596138,19.53125,-115.72265625,5.37109375,-62.98828125,0.0
1734422677.26352,30.76171875,-120.60546875,-126.953125,-50.29296875,0.0
1734422677.267426,-2.44140625,-113.76953125,-80.56640625,-46.38671875,0.0
1734422677.2713323,-100.5859375,-114.74609375,-47.8515625,-64.453125,0.0
1734422677.2752402,-115.72265625,-118.65234375,0.0,-66.89453125,0.0
1734422677.2791464,1.46484375,-116.69921875,0.0,-59.08203125,0.0
1734422677.2830524,26.85546875,-107.91015625,0.0,-66.89453125,0.0
1734422677.2869587,15.625,-104.98046875,0.0,-55.17578125,0.0
1734422677.2908647,-73.73046875,-114.74609375,0.0,-57.6171875,0.0
1734422677.294771,-116.69921875,-120.1171875,0.0,-65.4296875,0.0
1734422677.298677,0.48828125,-106.4453125,0.0,-52.734375,0.0
1734422677.3025832,25.87890625,-96.19140625,0.0,-51.7578125,0.0
1734422677.3064892,-8.7890625,-108.88671875,0.0,-53.22265625,0.0
1734422677.3103955,-91.796875,-115.234375,0.0,-65.4296875,0.0
1734422677.3143015,-138.18359375,-98.6328125,0.0,-77.1484375,0.0
1734422677.3182077,-11.23046875,-100.5859375,0.0,-53.7109375,0.0
1734422677.3221157,20.01953125,-102.05078125,41.015625,0.0,0.0
1734422677.3260217,-21.484375,-96.19140625,64.453125,0.0,0.0
1734422677.329928,-76.171875,-98.6328125,-9.765625,0.0,0.0
1734422677.333834,-126.953125,-102.05078125,-87.40234375,0.0,0.0
1734422677.3377402,-28.3203125,-105.95703125,-108.3984375,0.0,0.0
1734422677.3416462,31.25,-103.515625,-176.26953125,0.0,0.0
1734422677.3455524,10.25390625,-92.28515625,-10.25390625,0.0,0.0
1734422677.3494585,-55.17578125,-91.30859375,54.6875,0.0,0.0
1734422677.3533647,-147.94921875,-114.2578125,-308.10546875,0.0,0.0
1734422677.3572707,-70.3125,-110.83984375,-196.77734375,0.0,0.0
1734422677.361177,16.11328125,-89.35546875,165.52734375,0.0,0.0
1734422677.365083,5.37109375,-93.75,40.52734375,0.0,0.0
1734422677.3689907,-46.875,-97.65625,-59.5703125,-44.921875,0.0
1734422677.372897,-137.6953125,-97.16796875,13.18359375,-59.5703125,0.0
1734422677.376803,-63.4765625,-89.35546875,79.58984375,-57.12890625,0.0
1734422677.3807092,40.52734375,-88.8671875,20.01953125,-46.875,0.0
1734422677.3846152,35.64453125,-94.23828125,-61.5234375,-43.45703125,0.0
1734422677.3885214,-11.71875,-96.19140625,-130.37109375,-45.41015625,0.0
1734422677.3924274,-120.60546875,-99.12109375,-214.84375,-62.01171875,0.0
1734422677.3963337,-77.1484375,-105.46875,-319.3359375,-58.59375,0.0
1734422677.4002397,21.484375,-109.375,-323.2421875,-41.50390625,0.0
1734422677.404146,8.7890625,-87.890625,37.59765625,-55.17578125,0.0
1734422677.408052,-24.90234375,-81.54296875,107.91015625,-71.2890625,0.0
1734422677.4119582,-135.25390625,-97.65625,-95.703125,-82.03125,0.0
1734422677.4158657,0.0,-93.75,0.0,-78.61328125,0.0
1734422677.4197717,0.0,-88.8671875,0.0,-57.12890625,0.0
1734422677.423678,0.0,-95.703125,0.0,-59.08203125,0.0
1734422677.427584,0.0,-97.16796875,0.0,-59.5703125,0.0
1734422677.4314902,0.0,-100.09765625,0.0,-59.5703125,0.0
1734422677.4353962,0.0,-105.95703125,0.0,-65.4296875,0.0
1734422677.4393024,0.0,-105.95703125,0.0,-51.7578125,0.0
1734422677.4432085,0.0,-114.2578125,0.0,-32.2265625,0.0
1734422677.4471147,0.0,-104.98046875,0.0,-41.50390625,0.0
1734422677.4510207,0.0,-89.35546875,0.0,-75.68359375,0.0
1734422677.454927,0.0,-95.703125,0.0,-76.171875,0.0
1734422677.458833,0.0,-99.609375,0.0,-52.24609375,0.0
1734422677.4627402,43.9453125,-89.84375,89.84375,-42.48046875,0.0
1734422677.4666464,27.34375,-92.28515625,133.30078125,-46.38671875,0.0
1734422677.4705524,-55.17578125,-104.4921875,-36.1328125,-49.8046875,0.0
1734422677.4744587,-117.1875,-102.05078125,-217.28515625,-62.98828125,0.0
1734422677.4783647,-31.25,-96.6796875,-24.4140625,-76.171875,0.0
1734422677.482271,27.83203125,-101.5625,36.1328125,-66.89453125,0.0
1734422677.486177,19.53125,-110.83984375,-208.49609375,-52.734375,0.0
1734422677.4900832,-62.5,-109.86328125,-350.5859375,-63.96484375,0.0
1734422677.4939892,-141.6015625,-93.75,-54.6875,-85.9375,0.0
1734422677.4978955,-37.59765625,-93.75,91.796875,-69.82421875,0.0
1734422677.5018015,35.64453125,-100.09765625,30.76171875,-61.03515625,0.0
1734422677.5057077,-3.90625,-103.02734375,-26.85546875,-83.0078125,0.0
1734422677.5096147,-76.171875,-96.6796875,37.109375,-88.8671875,0.0
1734422677.513521,-137.6953125,-92.28515625,29.296875,-81.0546875,0.0
1734422677.517427,-42.96875,-95.21484375,-105.46875,-66.40625,0.0
1734422677.5213332,29.78515625,-90.8203125,24.4140625,-56.15234375,0.0
1734422677.5252392,17.578125,-86.9140625,117.67578125,-45.8984375,0.0
1734422677.5291455,-28.3203125,-91.30859375,-36.1328125,-44.43359375,0.0
1734422677.5330515,-115.72265625,-104.98046875,-358.3984375,-49.8046875,0.0
1734422677.5369577,-59.5703125,-92.7734375,-252.9296875,-43.9453125,0.0
1734422677.5408638,27.83203125,-72.75390625,140.625,-42.48046875,0.0
1734422677.54477,22.94921875,-79.1015625,91.796875,-40.0390625,0.0
1734422677.548676,-26.3671875,-83.984375,20.5078125,-45.8984375,0.0
1734422677.5525823,-122.55859375,-88.8671875,27.34375,-62.5,0.0
1734422677.5564892,-97.16796875,-97.65625,54.19921875,-66.40625,0.0
1734422677.5603952,5.859375,-108.3984375,56.640625,-54.19921875,0.0
1734422677.5643015,15.625,-107.421875,-8.7890625,-53.22265625,0.0
1734422677.5682075,-43.45703125,-96.19140625,18.06640625,-78.125,0.0
1734422677.5721138,-150.87890625,-98.14453125,29.78515625,-97.65625,0.0
1734422677.5760198,-122.55859375,-109.375,-220.703125,-71.2890625,0.0
1734422677.579926,1.46484375,-112.79296875,-393.5546875,-44.43359375,0.0
1734422677.583832,7.8125,-94.7265625,-63.4765625,-56.640625,0.0
1734422677.5877383,-29.78515625,-86.42578125,122.0703125,-68.359375,0.0
1734422677.5916443,-125.0,-98.14453125,-57.6171875,-81.0546875,0.0
1734422677.5955505,-132.32421875,-95.21484375,-72.75390625,-93.75,0.0
1734422677.5994565,-2.9296875,-84.47265625,81.0546875,-77.1484375,0.0
1734422677.6033647,27.34375,-88.37890625,101.5625,-56.15234375,0.0
1734422677.607271,-4.39453125,-96.19140625,-24.4140625,-56.15234375,0.0
1734422677.6111772,-96.19140625,-98.6328125,-32.2265625,-63.4765625,0.0
1734422677.6150832,-124.51171875,-95.21484375,28.80859375,-66.89453125,0.0
1734422677.6189895,-6.34765625,-89.84375,29.78515625,-63.96484375,0.0
1734422677.6228955,36.1328125,-94.23828125,-46.38671875,-57.12890625,0.0
1734422677.6268017,12.6953125,-96.6796875,-87.890625,-47.36328125,0.0
1734422677.6307077,-88.8671875,-95.21484375,-83.0078125,-53.22265625,0.0
1734422677.634614,-151.85546875,-88.8671875,-135.25390625,-72.75390625,0.0
1734422677.63852,-33.69140625,-90.33203125,-210.44921875,-60.05859375,0.0
1734422677.6424263,15.13671875,-87.890625,-20.99609375,-45.8984375,0.0
1734422677.6463323,-6.34765625,-85.44921875,144.53125,-51.26953125,0.0
1734422677.6502402,-82.51953125,-100.5859375,0.48828125,-63.4765625,0.0
1734422677.6541464,-162.59765625,-105.95703125,-188.4765625,-79.58984375,0.0
1734422677.6580524,-60.546875,-95.703125,-42.96875,-76.66015625,0.0
1734422677.6619587,11.23046875,-91.30859375,103.515625,-65.91796875,0.0
1734422677.6658647,-2.9296875,-100.5859375,-36.62109375,-57.12890625,0.0
1734422677.669771,-62.98828125,-112.3046875,-220.703125,-58.59375,0.0
1734422677.6736772,-149.90234375,-106.4453125,-248.046875,-82.03125,0.0
1734422677.6775832,-77.63671875,-98.6328125,-191.89453125,-85.9375,0.0
1734422677.6814895,7.8125,-108.88671875,-287.109375,-62.98828125,0.0
1734422677.6853955,-4.39453125,-109.375,-353.02734375,-51.7578125,0.0
1734422677.6893017,-61.03515625,-87.40234375,7.32421875,-67.3828125,0.0
1734422677.6932077,-145.5078125,-89.84375,53.7109375,-79.58984375,0.0
1734422677.6971157,-80.078125,-99.12109375,-129.8828125,-77.1484375,0.0
1734422677.7010217,9.765625,-95.21484375,-24.4140625,-66.40625,0.0
1734422677.704928,4.39453125,-89.35546875,117.67578125,-62.5,0.0
1734422677.708834,-23.4375,-86.9140625,58.10546875,-61.03515625,0.0
1734422677.7127402,-110.3515625,-91.796875,-148.92578125,-60.546875,0.0
1734422677.7166462,-74.21875,-96.6796875,-277.34375,-55.17578125,0.0
1734422677.7205524,22.4609375,-89.84375,-105.46875,-44.921875,0.0
1734422677.7244585,23.92578125,-80.078125,78.125,-37.109375,0.0
1734422677.7283647,-7.32421875,-97.65625,-190.4296875,-22.4609375,0.0
1734422677.7322707,-119.62890625,-103.515625,-219.7265625,-42.48046875,0.0
1734422677.736177,-114.74609375,-92.7734375,83.984375,-64.453125,0.0
1734422677.740083,0.9765625,-99.609375,27.34375,-52.734375,0.0
1734422677.7439907,29.296875,-102.05078125,-42.48046875,-34.1796875,0.0
1734422677.7478967,1.46484375,-91.796875,24.90234375,-32.2265625,0.0
1734422677.751803,-110.83984375,-85.9375,73.73046875,-58.10546875,0.0
1734422677.755709,-110.83984375,-87.890625,-97.65625,-60.546875,0.0
1734422677.7596152,12.6953125,-88.37890625,-164.0625,-41.9921875,0.0
1734422677.7635212,32.71484375,-87.40234375,-2.44140625,-32.2265625,0.0
1734422677.7674274,10.7421875,-86.42578125,3.41796875,-45.8984375,0.0
1734422677.7713335,-75.1953125,-99.12109375,-251.953125,-78.125,0.0
1734422677.7752397,-125.9765625,-96.19140625,-260.25390625,-90.33203125,0.0
1734422677.7791457,-23.92578125,-84.9609375,45.8984375,-79.58984375,0.0
1734422677.783052,18.5546875,-83.0078125,176.26953125,-71.77734375,0.0
1734422677.786958,2.44140625,-91.796875,-75.68359375,-65.4296875,0.0
1734422677.7908654,0.0,-97.16796875,-273.92578125,-67.87109375,0.0
1734422677.7947714,0.0,-88.37890625,28.3203125,-91.796875,0.0
1734422677.7986777,0.0,-90.33203125,51.26953125,-88.8671875,0.0
1734422677.8025837,0.0,-97.65625,-116.69921875,-67.87109375,0.0
1734422677.80649,0.0,-99.609375,-72.75390625,-51.7578125,0.0
1734422677.810396,0.0,-97.65625,-67.87109375,-51.7578125,0.0
1734422677.8143022,0.0,-95.21484375,-226.07421875,-73.73046875,0.0
1734422677.8182082,0.0,-99.609375,-345.21484375,-54.6875,0.0
1734422677.8221145,0.0,-94.23828125,-178.22265625,-33.203125,0.0
1734422677.8260205,0.0,-80.078125,143.06640625,-32.71484375,0.0
1734422677.8299267,0.0,-88.8671875,31.25,-28.3203125,0.0
1734422677.8338327,0.0,-92.28515625,-156.73828125,-52.734375,0.0
1734422677.83774,-50.78125,-83.984375,-67.3828125,-64.453125,0.0
1734422677.8416462,35.64453125,-82.03125,138.18359375,-55.17578125,0.0
1734422677.8455522,27.34375,-84.47265625,27.34375,-49.31640625,0.0
1734422677.8494585,-37.59765625,-82.51953125,-72.75390625,-55.17578125,0.0
1734422677.8533645,-138.671875,-81.54296875,-18.5546875,-70.80078125,0.0
1734422677.8572707,-58.59375,-81.0546875,-144.04296875,-64.94140625,0.0
1734422677.8611767,45.8984375,-79.1015625,-297.36328125,-50.29296875,0.0
1734422677.865083,38.0859375,-82.51953125,-350.5859375,-52.734375,0.0
1734422677.868989,-9.765625,-73.73046875,-52.24609375,-71.2890625,0.0
1734422677.8728952,-104.4921875,-74.21875,32.2265625,-81.54296875,0.0
1734422677.8768013,-60.546875,-77.1484375,-119.140625,-81.0546875,0.0
1734422677.8807075,27.83203125,-70.3125,-6.8359375,-81.0546875,0.0
1734422677.8846145,0.0,-66.40625,127.9296875,-70.3125,0.0
1734422677.8885205,0.0,-70.80078125,43.45703125,-52.24609375,0.0
1734422677.8924267,0.0,-78.61328125,-154.296875,-49.8046875,0.0
1734422677.896333,0.0,-77.63671875,-161.62109375,-52.24609375,0.0
1734422677.900239,0.0,-78.61328125,-4.8828125,-38.0859375,0.0
1734422677.9041452,0.0,-88.8671875,-49.8046875,-41.50390625,0.0
1734422677.9080513,0.0,-98.14453125,-337.40234375,-49.31640625,0.0
1734422677.9119575,0.0,-93.26171875,-291.015625,-67.87109375,0.0
1734422677.9158635,0.0,-79.58984375,19.53125,-83.49609375,0.0
1734422677.9197698,0.0,-83.49609375,6.8359375,-72.75390625,0.0
1734422677.9236758,0.0,-91.796875,-105.95703125,-67.3828125,0.0
1734422677.927582,0.0,-85.44921875,-23.92578125,-65.91796875,0.0
1734422677.9314888,-104.4921875,-83.984375,81.54296875,-79.58984375,0.0
1734422677.9353948,-140.13671875,-93.75,-104.00390625,-92.28515625,0.0
1734422677.939301,-19.53125,-95.703125,-152.83203125,-76.66015625,0.0
1734422677.943207,28.3203125,-83.49609375,81.0546875,-68.84765625,0.0
1734422677.9471133,6.34765625,-78.61328125,91.796875,-67.87109375,0.0
1734422677.9510193,-78.61328125,-94.23828125,-228.515625,-63.96484375,0.0
1734422677.9549255,-128.41796875,-104.98046875,-458.49609375,-66.40625,0.0
1734422677.9588315,-27.83203125,-82.03125,-114.74609375,-61.5234375,0.0
1734422677.9627378,25.390625,-68.359375,130.859375,-60.546875,0.0
1734422677.9666438,4.39453125,-76.66015625,4.39453125,-60.546875,0.0
1734422677.97055,-77.1484375,-79.58984375,-63.4765625,-57.6171875,0.0
1734422677.974456,-146.484375,-80.56640625,9.27734375,-64.94140625,0.0
1734422677.9783642,-35.15625,-81.54296875,54.6875,-48.33984375,0.0
1734422677.9822705,35.64453125,-83.984375,-76.171875,-38.0859375,0.0
1734422677.9861765,21.484375,-79.58984375,-76.66015625,-52.24609375,0.0
1734422677.9900827,-42.96875,-71.77734375,84.9609375,-65.4296875,0.0
1734422677.9939888,-129.39453125,-79.1015625,-27.83203125,-69.82421875,0.0
1734422677.997895,-48.33984375,-90.8203125,-254.8828125,-59.5703125,0.0
1734422678.001801,21.97265625,-85.44921875,-104.4921875,-62.01171875,0.0
1734422678.0057073,12.6953125,-81.0546875,149.4140625,-68.359375,0.0
1734422678.0096133,-37.109375,-90.8203125,22.94921875,-65.91796875,0.0
1734422678.0135195,-138.671875,-102.05078125,-227.05078125,-75.68359375,0.0
1734422678.0174258,-79.58984375,-87.890625,-132.32421875,-86.9140625,0.0
1734422678.0213318,22.94921875,-75.1953125,111.81640625,-80.56640625,0.0
1734422678.0252397,0.0,-84.47265625,53.7109375,-69.3359375,0.0
1734422678.029146,0.0,-85.44921875,-75.1953125,-60.05859375,0.0
1734422678.033052,0.0,-87.40234375,8.7890625,-59.5703125,0.0
1734422678.0369582,0.0,-88.8671875,58.10546875,-60.05859375,0.0
1734422678.0408642,0.0,-88.37890625,-64.453125,-57.6171875,0.0
1734422678.0447705,0.0,-96.6796875,-221.19140625,-54.19921875,0.0
1734422678.0486765,0.0,-94.23828125,-177.24609375,-55.6640625,0.0
1734422678.0525827,0.0,-92.28515625,-167.96875,-74.21875,0.0
1734422678.0564888,0.0,-100.5859375,-345.21484375,-71.2890625,0.0
1734422678.060395,0.0,-92.7734375,-357.91015625,-51.7578125,0.0
1734422678.064301,0.0,-70.80078125,31.73828125,-48.33984375,0.0
1734422678.0682073,0.0,-73.73046875,100.09765625,-42.96875,0.0
1734422678.072115,-89.84375,-83.984375,-121.58203125,-51.26953125,0.0
1734422678.076021,-98.6328125,-75.1953125,-85.9375,-56.15234375,0.0
1734422678.0799272,8.30078125,-66.40625,95.21484375,-56.640625,0.0
1734422678.0838332,36.62109375,-70.3125,101.5625,-61.5234375,0.0
1734422678.0877395,33.69140625,-66.89453125,-12.6953125,-45.41015625,0.0
1734422678.0916455,-51.7578125,-68.359375,-207.51953125,-52.24609375,0.0
1734422678.0955517,-96.19140625,-71.77734375,-198.2421875,-82.51953125,0.0
1734422678.0994577,1.46484375,-70.80078125,-22.4609375,-75.1953125,0.0
1734422678.103364,36.62109375,-86.9140625,-226.07421875,-41.9921875,0.0
1734422678.10727,12.6953125,-79.1015625,-147.94921875,-46.875,0.0
1734422678.1111763,-74.21875,-64.453125,143.5546875,-75.68359375,0.0
1734422678.1150825,-125.48828125,-77.63671875,-81.0546875,-78.125,0.0
1734422678.11899,-14.16015625,-78.125,-108.88671875,-64.453125,0.0
1734422678.1228962,36.1328125,-70.3125,97.65625,-56.640625,0.0
1734422678.1268022,18.06640625,-71.77734375,140.13671875,-53.22265625,0.0
1734422678.1307085,-56.15234375,-82.51953125,-26.85546875,-56.640625,0.0
1734422678.1346145,-136.23046875,-91.796875,-261.71875,-64.453125,0.0
1734422678.1385207,-41.015625,-94.7265625,-224.609375,-56.15234375,0.0
1734422678.1424267,23.92578125,-88.37890625,-10.7421875,-50.78125,0.0
1734422678.146333,-1.953125,-95.703125,-141.6015625,-40.52734375,0.0
1734422678.1502392,-61.5234375,-100.5859375,-368.1640625,-40.0390625,0.0
1734422678.1541452,-140.625,-84.47265625,-77.63671875,-65.91796875,0.0
1734422678.1580515,-46.38671875,-79.58984375,68.359375,-61.03515625,0.0
1734422678.1619575,51.26953125,-78.125,-45.8984375,-43.9453125,0.0
1734422678.165865,36.62109375,-76.66015625,-5.37109375,-42.48046875,0.0
1734422678.169771,-31.73828125,-79.1015625,120.60546875,-51.7578125,0.0
1734422678.1736772,-135.7421875,-89.35546875,12.6953125,-70.80078125,0.0
1734422678.1775832,-69.3359375,-92.7734375,-150.390625,-75.1953125,0.0
1734422678.1814895,17.08984375,-79.58984375,-13.18359375,-66.40625,0.0
1734422678.1853955,-4.8828125,-80.078125,58.59375,-57.12890625,0.0
1734422678.1893017,-42.48046875,-87.890625,-35.64453125,-64.94140625,0.0
1734422678.1932077,-133.30078125,-95.703125,-311.03515625,-63.96484375,0.0
1734422678.197114,-89.35546875,-90.8203125,-292.96875,-53.22265625,0.0
1734422678.20102,6.8359375,-79.58984375,78.125,-65.91796875,0.0
1734422678.2049263,5.859375,-81.54296875,78.61328125,-61.03515625,0.0
1734422678.2088323,-24.4140625,-81.54296875,11.71875,-51.26953125,0.0
1734422678.2127395,-132.32421875,-82.03125,18.06640625,-69.3359375,0.0
1734422678.2166457,-122.55859375,-82.03125,31.73828125,-70.80078125,0.0
1734422678.2205517,-3.90625,-87.40234375,-134.27734375,-52.24609375,0.0
1734422678.224458,3.41796875,-84.47265625,-124.51171875,-52.734375,0.0
1734422678.228364,-27.83203125,-78.125,42.96875,-59.08203125,0.0
1734422678.2322702,-120.60546875,-82.51953125,-139.16015625,-63.4765625,0.0
1734422678.2361763,-123.046875,-94.23828125,-383.7890625,-65.4296875,0.0
1734422678.2400825,-6.34765625,-96.6796875,-420.8984375,-60.05859375,0.0
1734422678.2439885,2.9296875,-75.1953125,-33.69140625,-67.3828125,0.0
1734422678.2478948,-16.11328125,-67.87109375,111.328125,-68.84765625,0.0
1734422678.2518008,-93.26171875,-78.125,-62.98828125,-62.98828125,0.0
1734422678.255707,-110.83984375,-83.0078125,-167.96875,-61.03515625,0.0
1734422678.259614,-5.37109375,-78.61328125,-8.30078125,-51.7578125,0.0
1734422678.26352,13.18359375,-82.51953125,102.05078125,-55.6640625,0.0
1734422678.2674263,-3.90625,-92.7734375,-35.15625,-56.640625,0.0
1734422678.2713323,-83.984375,-87.890625,-49.31640625,-72.75390625,0.0
1734422678.2752385,-141.6015625,-82.03125,-9.765625,-101.5625,0.0
1734422678.2791445,-36.62109375,-84.9609375,-125.0,-89.84375,0.0
1734422678.2830508,16.11328125,-92.28515625,-340.33203125,-65.4296875,0.0
1734422678.2869568,-2.44140625,-94.23828125,-204.58984375,-69.3359375,0.0
1734422678.290863,-87.40234375,-83.984375,104.4921875,-96.6796875,0.0
1734422678.294769,-154.296875,-87.40234375,-76.171875,-95.703125,0.0
1734422678.2986753,-47.36328125,-88.37890625,-126.953125,-79.1015625,0.0
1734422678.3025813,20.99609375,-76.66015625,71.77734375,-72.265625,0.0
1734422678.3064883,13.18359375,-72.75390625,126.953125,-61.5234375,0.0
1734422678.3103943,-50.78125,-80.078125,-76.66015625,-50.29296875,0.0
1734422678.3143005,-143.5546875,-85.44921875,-273.4375,-56.640625,0.0
1734422678.3182065,-55.6640625,-82.51953125,-107.421875,-59.08203125,0.0
1734422678.3221128,33.203125,-83.49609375,76.171875,-48.828125,0.0
1734422678.3260188,16.11328125,-97.65625,-136.71875,-39.0625,0.0
1734422678.329925,-44.921875,-105.95703125,-387.6953125,-42.96875,0.0
1734422678.3338313,-138.18359375,-93.26171875,-204.1015625,-67.87109375,0.0
1734422678.3377373,-71.77734375,-83.0078125,-141.11328125,-71.77734375,0.0
1734422678.3416436,19.04296875,-85.9375,-176.26953125,-66.89453125,0.0
1734422678.3455496,6.34765625,-86.42578125,3.90625,-71.77734375,0.0
1734422678.3494558,-28.3203125,-81.0546875,101.5625,-76.171875,0.0
1734422678.353364,0.0,-85.9375,23.4375,-90.8203125,0.0
1734422678.35727,0.0,-91.796875,-128.41796875,-92.28515625,0.0
1734422678.3611763,0.0,-79.1015625,-27.34375,-72.265625,0.0
1734422678.3650823,0.0,-72.265625,124.51171875,-68.84765625,0.0
1734422678.3689885,0.0,-80.56640625,39.0625,-76.171875,0.0
1734422678.3728945,0.0,-88.8671875,-186.03515625,-81.54296875,0.0
1734422678.3768008,0.0,-83.0078125,-235.83984375,-82.51953125,0.0
1734422678.3807068,0.0,-71.77734375,12.6953125,-80.078125,0.0
1734422678.384613,0.0,-76.66015625,65.91796875,-86.42578125,0.0
1734422678.388519,0.0,-88.8671875,-159.1796875,-84.47265625,0.0
1734422678.3924253,0.0,-77.63671875,-101.07421875,-88.37890625,0.0
1734422678.3963313,0.0,-62.98828125,11.23046875,-92.28515625,0.0
1734422678.4002395,0.48828125,-70.3125,-112.3046875,-77.63671875,0.0
1734422678.4041455,12.6953125,-72.265625,-71.2890625,-58.59375,0.0
1734422678.4080517,-15.13671875,-67.87109375,85.44921875,-39.55078125,0.0
1734422678.4119577,-103.02734375,-73.73046875,71.2890625,-43.9453125,0.0
1734422678.415864,-122.0703125,-82.51953125,-141.11328125,-45.8984375,0.0
1734422678.41977,10.25390625,-82.51953125,-281.73828125,-35.64453125,0.0
1734422678.4236763,38.57421875,-75.68359375,-157.71484375,-30.2734375,0.0
1734422678.4275823,7.8125,-78.61328125,-127.44140625,-30.2734375,0.0
1734422678.4314885,-67.87109375,-86.9140625,-311.5234375,-40.0390625,0.0
1734422678.4353945,-114.2578125,-84.9609375,-395.99609375,-49.31640625,0.0
1734422678.4393008,-14.16015625,-66.40625,-9.27734375,-56.640625,0.0
1734422678.4432068,30.2734375,-65.4296875,152.34375,-56.15234375,0.0
1734422678.4471147,11.23046875,-73.2421875,-58.59375,-53.7109375,0.0
1734422678.4510207,-68.359375,-74.70703125,-145.99609375,-66.40625,0.0
1734422678.454927,-139.16015625,-76.171875,4.8828125,-83.49609375,0.0
1734422678.458833,-43.9453125,-76.171875,-82.03125,-72.75390625,0.0
1734422678.4627392,13.18359375,-72.265625,-116.2109375,-61.03515625,0.0
1734422678.4666452,-12.6953125,-76.171875,-82.51953125,-56.15234375,0.0
1734422678.4705515,-82.51953125,-77.1484375,-120.60546875,-69.82421875,0.0
1734422678.4744575,-163.57421875,-72.75390625,-117.67578125,-88.8671875,0.0
1734422678.4783638,-83.984375,-87.40234375,-345.21484375,-74.21875,0.0
1734422678.4822698,-7.32421875,-80.56640625,-185.05859375,-65.91796875,0.0
1734422678.486176,-15.625,-62.98828125,129.39453125,-60.05859375,0.0
1734422678.4900823,-64.94140625,-74.70703125,11.71875,-59.5703125,0.0
1734422678.4939897,-153.80859375,-78.61328125,-174.31640625,-76.171875,0.0
1734422678.497896,-87.40234375,-68.84765625,-130.37109375,-61.5234375,0.0
1734422678.501802,13.18359375,-69.3359375,83.984375,-43.9453125,0.0
1734422678.5057082,16.11328125,-81.0546875,22.4609375,-27.34375,0.0
1734422678.5096142,-33.203125,-78.61328125,-119.140625,-21.484375,0.0
1734422678.5135205,-134.765625,-73.73046875,-202.63671875,-39.0625,0.0
1734422678.5174265,-80.078125,-71.2890625,-194.3359375,-41.9921875,0.0
1734422678.5213327,27.83203125,-70.80078125,-259.765625,-30.2734375,0.0
1734422678.5252388,22.4609375,-67.3828125,-323.73046875,-30.76171875,0.0
1734422678.529145,-20.99609375,-48.828125,31.73828125,-54.6875,0.0
1734422678.533051,-129.8828125,-56.15234375,39.55078125,-77.63671875,0.0
1734422678.5369573,-106.4453125,-70.3125,-155.76171875,-75.68359375,0.0
1734422678.5408647,8.7890625,-64.453125,7.32421875,-65.91796875,0.0
1734422678.5447707,1.46484375,-60.05859375,151.3671875,-74.70703125,0.0
1734422678.548677,-34.66796875,-62.98828125,96.19140625,-75.1953125,0.0
1734422678.552583,-126.953125,-75.68359375,-59.08203125,-74.70703125,0.0
1734422678.5564892,-130.859375,-79.1015625,-164.0625,-86.42578125,0.0
1734422678.5603952,-24.90234375,-71.77734375,-147.4609375,-81.0546875,0.0
1734422678.5643015,-8.7890625,-71.77734375,-131.8359375,-76.171875,0.0
1734422678.5682075,-38.0859375,-82.51953125,-308.10546875,-71.77734375,0.0
1734422678.5721138,-121.58203125,-81.0546875,-252.44140625,-77.63671875,0.0
1734422678.57602,-143.5546875,-73.2421875,-40.0390625,-93.26171875,0.0
1734422678.579926,-34.66796875,-84.47265625,-182.6171875,-84.9609375,0.0
1734422678.5838323,-19.53125,-92.28515625,-75.1953125,-79.1015625,0.0
1734422678.5877395,-40.52734375,-89.84375,104.98046875,-71.77734375,0.0
1734422678.5916455,-105.95703125,-93.75,77.63671875,-76.171875,0.0
1734422678.5955517,-151.85546875,-100.5859375,-132.32421875,-75.1953125,0.0
1734422678.5994577,-46.875,-94.7265625,-164.55078125,-56.640625,0.0
1734422678.603364,4.8828125,-84.9609375,52.24609375,-43.45703125,0.0
1734422678.60727,3.90625,-81.0546875,-22.4609375,-43.45703125,0.0
1734422678.6111763,-74.70703125,-87.40234375,-319.3359375,-47.8515625,0.0
1734422678.6150823,-149.4140625,-91.30859375,-422.8515625,-50.29296875,0.0
1734422678.6189885,-60.05859375,-72.75390625,-21.97265625,-59.5703125,0.0
1734422678.6228945,4.39453125,-67.87109375,134.27734375,-56.15234375,0.0
1734422678.6268008,1.46484375,-79.58984375,-3.41796875,-51.26953125,0.0
1734422678.6307068,-83.49609375,-85.9375,-34.1796875,-62.5,0.0
1734422678.6346138,-171.38671875,-82.03125,21.97265625,-80.078125,0.0
1734422678.63852,-68.84765625,-81.54296875,-140.625,-77.1484375,0.0
1734422678.6424263,21.484375,-76.171875,-180.17578125,-68.359375,0.0
1734422678.6463323,18.06640625,-67.3828125,30.2734375,-69.3359375,0.0
1734422678.6502385,-57.12890625,-68.84765625,62.01171875,-74.21875,0.0
1734422678.6541445,-161.1328125,-78.61328125,-115.72265625,-92.28515625,0.0
1734422678.6580508,-83.49609375,-87.40234375,-375.0,-81.54296875,0.0
1734422678.6619568,10.7421875,-77.63671875,-222.65625,-59.5703125,0.0
1734422678.665863,-0.9765625,-66.89453125,152.83203125,-57.12890625,0.0
1734422678.669769,-40.52734375,-78.125,41.50390625,-57.12890625,0.0
1734422678.6736753,-124.51171875,-84.47265625,-161.62109375,-61.03515625,0.0
1734422678.6775813,-74.70703125,-76.171875,-89.35546875,-46.875,0.0
1734422678.681488,17.578125,-71.77734375,97.65625,-32.2265625,0.0
1734422678.6853943,13.18359375,-75.1953125,27.83203125,-29.78515625,0.0
1734422678.6893003,-13.671875,-72.265625,-52.734375,-32.71484375,0.0
1734422678.6932065,-103.515625,-71.77734375,0.48828125,-47.8515625,0.0
1734422678.6971126,-89.84375,-79.1015625,-113.76953125,-52.734375,0.0
1734422678.7010188,14.6484375,-81.54296875,-263.671875,-45.41015625,0.0
1734422678.704925,24.90234375,-82.51953125,-345.21484375,-47.8515625,0.0
1734422678.708831,-7.32421875,-70.80078125,-108.88671875,-56.640625,0.0
1734422678.7127373,-105.46875,-66.40625,57.12890625,-75.68359375,0.0
1734422678.7166433,-114.74609375,-81.0546875,-148.92578125,-81.54296875,0.0
1734422678.7205496,-8.30078125,-76.66015625,-107.91015625,-67.87109375,0.0
1734422678.7244556,16.11328125,-62.98828125,135.25390625,-62.98828125,0.0
1734422678.7283638,-0.48828125,-69.3359375,112.3046875,-61.5234375,0.0
1734422678.73227,-99.12109375,-80.078125,-88.8671875,-68.84765625,0.0
1734422678.736176,-125.9765625,-73.2421875,-177.24609375,-76.66015625,0.0
1734422678.7400823,12.20703125,-60.05859375,11.23046875,-48.33984375,0.0
1734422678.7439883,43.9453125,-67.3828125,102.5390625,-35.64453125,0.0
1734422678.7478945,-2.9296875,-84.9609375,-79.58984375,-62.98828125,0.0
1734422678.7518005,-83.49609375,-79.58984375,-198.2421875,-75.1953125,0.0
1734422678.7557068,-124.0234375,-74.70703125,-181.15234375,-67.87109375,0.0
1734422678.7596128,-0.9765625,-86.42578125,-191.40625,-30.2734375,0.0
1734422678.763519,44.921875,-85.44921875,-175.29296875,-7.32421875,0.0
1734422678.767425,3.90625,-67.3828125,3.41796875,-36.1328125,0.0
1734422678.7713313,-66.89453125,-62.98828125,95.703125,-49.8046875,0.0
1734422678.7752392,-114.2578125,-69.82421875,-138.671875,-36.62109375,0.0
1734422678.7791452,-19.04296875,-68.84765625,-154.78515625,-40.52734375,0.0
1734422678.7830515,30.76171875,-62.5,81.0546875,-36.1328125,0.0
1734422678.7869575,14.6484375,-58.59375,129.39453125,-30.2734375,0.0
1734422678.7908638,-49.8046875,-64.94140625,-87.40234375,-47.8515625,0.0
1734422678.7947698,-136.23046875,-71.2890625,-329.58984375,-61.5234375,0.0
1734422678.798676,-53.22265625,-66.40625,-230.95703125,-60.05859375,0.0
1734422678.802582,36.1328125,-65.91796875,-110.3515625,-53.22265625,0.0
1734422678.8064883,12.20703125,-73.73046875,-223.14453125,-49.31640625,0.0
1734422678.8103943,-56.15234375,-79.58984375,-330.56640625,-55.6640625,0.0
1734422678.8143005,-136.71875,-65.4296875,-188.96484375,-70.80078125,0.0
1734422678.8182065,-64.453125,-62.98828125,-200.1953125,-65.91796875,0.0
1734422678.8221145,29.78515625,-63.4765625,-147.4609375,-59.08203125,0.0
1734422678.8260205,16.6015625,-59.5703125,36.1328125,-63.4765625,0.0
1734422678.8299267,-31.73828125,-57.6171875,103.515625,-65.91796875,0.0
1734422678.8338327,-125.0,-60.05859375,-3.41796875,-81.54296875,0.0
1734422678.837739,-90.33203125,-63.96484375,-122.55859375,-91.796875,0.0
1734422678.841645,7.32421875,-70.3125,-173.33984375,-77.1484375,0.0
1734422678.8455513,20.5078125,-69.82421875,-76.66015625,-52.734375,0.0
1734422678.8494573,-16.6015625,-71.77734375,35.15625,-39.55078125,0.0
1734422678.8533635,-117.1875,-93.26171875,-296.38671875,-35.15625,0.0
1734422678.8572695,-81.0546875,-80.56640625,-253.90625,-43.9453125,0.0
1734422678.8611758,33.69140625,-56.640625,123.046875,-46.38671875,0.0
1734422678.8650818,26.85546875,-62.01171875,81.0546875,-36.62109375,0.0
1734422678.8689895,-16.11328125,-69.82421875,-35.15625,-31.25,0.0
1734422678.8728955,-110.83984375,-77.1484375,-174.31640625,-33.69140625,0.0
1734422678.8768017,-88.8671875,-69.3359375,-180.17578125,-45.8984375,0.0
1734422678.8807077,12.20703125,-58.59375,-42.48046875,-50.29296875,0.0
1734422678.884614,16.6015625,-59.08203125,-9.765625,-44.921875,0.0
1734422678.88852,10.7421875,-58.10546875,-33.69140625,-38.57421875,0.0
1734422678.8924263,-79.58984375,-59.08203125,-137.20703125,-42.48046875,0.0
1734422678.8963325,-114.2578125,-75.1953125,-342.7734375,-52.24609375,0.0
1734422678.9002385,-5.37109375,-79.1015625,-355.46875,-51.7578125,0.0
1734422678.9041448,24.4140625,-61.5234375,27.83203125,-58.10546875,0.0
1734422678.9080508,11.23046875,-61.03515625,126.953125,-62.98828125,0.0
1734422678.911957,-62.98828125,-72.265625,-56.15234375,-69.82421875,0.0
1734422678.9158645,-106.93359375,-71.77734375,-72.75390625,-77.1484375,0.0
1734422678.9197705,-6.34765625,-61.5234375,88.37890625,-76.171875,0.0
1734422678.9236767,33.69140625,-61.5234375,107.91015625,-76.66015625,0.0
1734422678.9275827,7.32421875,-66.40625,-9.765625,-78.125,0.0
1734422678.931489,-80.56640625,-72.265625,-64.94140625,-80.56640625,0.0
1734422678.935395,-139.6484375,-81.0546875,-175.29296875,-87.890625,0.0
1734422678.9393013,-22.4609375,-74.21875,-202.1484375,-79.58984375,0.0
1734422678.9432073,43.9453125,-77.1484375,-290.0390625,-59.5703125,0.0
1734422678.9471135,24.90234375,-70.3125,-159.66796875,-51.26953125,0.0
1734422678.9510195,-36.62109375,-50.29296875,125.0,-57.12890625,0.0
1734422678.9549258,-114.2578125,-58.59375,-29.296875,-65.4296875,0.0
1734422678.9588318,-26.85546875,-60.05859375,-49.8046875,-60.546875,0.0
1734422678.962739,54.19921875,-51.7578125,78.125,-44.43359375,0.0
1734422678.9666452,40.52734375,-49.31640625,141.6015625,-30.76171875,0.0
1734422678.9705513,-12.20703125,-62.01171875,-15.625,-30.76171875,0.0
1734422678.9744575,-104.00390625,-73.2421875,-225.5859375,-38.0859375,0.0
1734422678.9783635,-43.9453125,-66.40625,-99.12109375,-44.43359375,0.0
1734422678.9822698,28.3203125,-57.6171875,-85.9375,-51.7578125,0.0
1734422678.9861758,5.37109375,-65.4296875,-266.11328125,-41.015625,0.0
1734422678.990082,-31.73828125,-70.3125,-329.1015625,-35.64453125,0.0
1734422678.993988,-121.09375,-61.03515625,-220.21484375,-59.5703125,0.0
1734422678.9978943,-62.5,-53.7109375,-115.72265625,-67.3828125,0.0
1734422679.0018003,37.109375,-51.7578125,-17.578125,-63.96484375,0.0
1734422679.0057065,24.4140625,-54.19921875,21.97265625,-66.89453125,0.0
1734422679.0096135,-16.6015625,-51.26953125,91.30859375,-71.77734375,0.0
1734422679.0135198,-102.05078125,-58.59375,21.484375,-75.1953125,0.0
1734422679.0174258,-88.37890625,-70.80078125,-130.859375,-86.42578125,0.0
1734422679.021332,-10.7421875,-67.87109375,-18.5546875,-94.23828125,0.0
1734422679.025238,1.46484375,-63.4765625,85.9375,-80.56640625,0.0
1734422679.0291443,-18.5546875,-68.84765625,-80.078125,-66.89453125,0.0
1734422679.0330503,-116.2109375,-83.984375,-372.0703125,-72.75390625,0.0
1734422679.0369565,-108.3984375,-83.0078125,-341.30859375,-78.125,0.0
1734422679.0408626,15.625,-63.96484375,61.5234375,-62.5,0.0
1734422679.0447688,38.57421875,-62.5,62.01171875,-48.33984375,0.0
1734422679.0486748,-0.9765625,-66.89453125,27.83203125,-52.734375,0.0
1734422679.052581,-85.9375,-69.3359375,-43.9453125,-59.5703125,0.0
1734422679.0564878,-104.98046875,-65.4296875,-135.7421875,-64.94140625,0.0
1734422679.0603938,-1.953125,-61.03515625,-39.55078125,-59.5703125,0.0
1734422679.0643,23.4375,-60.546875,-25.87890625,-47.8515625,0.0
1734422679.068206,0.9765625,-54.19921875,57.12890625,-40.0390625,0.0
1734422679.0721123,-69.82421875,-51.26953125,51.7578125,-41.9921875,0.0
1734422679.0760186,-128.41796875,-67.3828125,-226.5625,-49.31640625,0.0
1734422679.0799246,-33.69140625,-81.54296875,-386.23046875,-53.7109375,0.0
1734422679.0838308,18.5546875,-69.3359375,-156.25,-58.10546875,0.0
1734422679.0877368,10.7421875,-62.98828125,58.10546875,-44.43359375,0.0
1734422679.091643,-66.40625,-67.3828125,-47.8515625,-48.828125,0.0
1734422679.095549,-138.671875,-64.453125,-157.2265625,-76.66015625,0.0
1734422679.0994554,-29.78515625,-54.6875,37.59765625,-79.58984375,0.0
1734422679.1033635,0.0,-57.12890625,89.35546875,-57.12890625,0.0
1734422679.1072695,0.0,-64.453125,-24.90234375,-45.41015625,0.0
1734422679.1111758,0.0,-65.4296875,-107.91015625,-63.96484375,0.0
1734422679.1150818,0.0,-61.5234375,-158.69140625,-79.58984375,0.0
1734422679.118988,0.0,-54.6875,-74.21875,-70.3125,0.0
1734422679.122894,0.0,-63.4765625,-127.44140625,-53.7109375,0.0
1734422679.1268003,0.0,-66.40625,-82.03125,-60.546875,0.0
1734422679.1307063,0.0,-60.05859375,87.890625,-66.40625,0.0
1734422679.1346126,0.0,-70.3125,-49.8046875,-61.03515625,0.0
1734422679.1385186,0.0,-74.70703125,-235.83984375,-57.12890625,0.0
1734422679.1424248,0.0,-54.19921875,-45.8984375,-62.01171875,0.0
1734422679.1463308,0.0,-43.9453125,147.4609375,-57.12890625,0.0
1734422679.150239,-41.9921875,-56.640625,-58.10546875,-54.19921875,0.0
1734422679.1541452,-131.8359375,-70.3125,-239.2578125,-63.96484375,0.0
1734422679.1580513,-80.56640625,-67.3828125,-94.23828125,-58.59375,0.0
1734422679.1619575,17.578125,-52.24609375,90.33203125,-53.7109375,0.0
1734422679.1658635,8.7890625,-54.6875,7.32421875,-67.3828125,0.0
1734422679.1697698,-45.41015625,-66.40625,-213.8671875,-80.56640625,0.0
1734422679.1736758,-134.765625,-65.91796875,-223.6328125,-92.7734375,0.0
1734422679.177582,-93.75,-66.89453125,-176.7578125,-89.84375,0.0
1734422679.181488,6.34765625,-75.1953125,-292.96875,-75.1953125,0.0
1734422679.1853943,7.32421875,-75.1953125,-313.96484375,-74.70703125,0.0
1734422679.1893003,-24.90234375,-61.03515625,21.484375,-83.49609375,0.0
1734422679.1932065,-125.9765625,-61.5234375,38.57421875,-91.30859375,0.0
1734422679.1971142,-119.140625,-67.3828125,-135.7421875,-83.0078125,0.0
1734422679.2010205,0.48828125,-63.96484375,-16.6015625,-65.4296875,0.0
1734422679.2049265,19.04296875,-60.05859375,111.328125,-54.19921875,0.0
1734422679.2088327,6.8359375,-64.453125,49.8046875,-45.8984375,0.0
1734422679.2127388,-82.51953125,-73.73046875,-148.4375,-55.17578125,0.0
1734422679.216645,-128.41796875,-77.1484375,-281.73828125,-61.5234375,0.0
1734422679.220551,-15.625,-68.359375,-83.984375,-38.57421875,0.0
1734422679.2244573,12.6953125,-62.5,99.609375,-25.87890625,0.0
1734422679.2283635,-6.34765625,-75.1953125,-169.43359375,-20.5078125,0.0
1734422679.2322695,-85.44921875,-68.84765625,-320.3125,-29.78515625,0.0
1734422679.2361758,-128.41796875,-56.15234375,-72.75390625,-51.7578125,0.0
1734422679.2400818,-9.765625,-60.05859375,-7.8125,-48.33984375,0.0
1734422679.2439895,16.11328125,-53.7109375,-13.671875,-50.78125,0.0
1734422679.2478955,-13.671875,-45.41015625,93.26171875,-65.91796875,0.0
1734422679.2518017,-81.0546875,-52.734375,102.05078125,-68.84765625,0.0
1734422679.2557077,-138.671875,-61.03515625,-127.44140625,-77.1484375,0.0
1734422679.259614,-48.828125,-59.08203125,-173.33984375,-71.2890625,0.0
1734422679.26352,-6.8359375,-64.94140625,-55.17578125,-62.01171875,0.0
1734422679.2674263,-13.18359375,-66.89453125,-138.671875,-64.94140625,0.0
1734422679.2713325,-69.82421875,-70.3125,-323.2421875,-71.2890625,0.0
1734422679.2752385,-146.484375,-67.87109375,-397.4609375,-83.49609375,0.0
1734422679.2791448,-65.91796875,-48.828125,-16.11328125,-77.1484375,0.0
1734422679.2830508,0.0,-47.8515625,131.8359375,-62.98828125,0.0
1734422679.286957,-16.11328125,-58.10546875,51.7578125,-65.4296875,0.0
1734422679.2908645,0.0,-64.453125,-66.89453125,-83.0078125,0.0
1734422679.2947705,0.0,-59.5703125,-170.8984375,-94.7265625,0.0
1734422679.2986767,0.0,-56.640625,-26.3671875,-86.9140625,0.0
1734422679.3025827,0.0,-57.12890625,17.08984375,-73.2421875,0.0
1734422679.306489,0.0,-53.7109375,1.953125,-68.84765625,0.0
1734422679.310395,0.0,-62.98828125,-112.79296875,-54.6875,0.0
1734422679.3143013,0.0,-65.4296875,-212.40234375,-52.24609375,0.0
1734422679.3182073,0.0,-65.91796875,-343.75,-45.8984375,0.0
1734422679.3221135,0.0,-56.640625,-204.58984375,-48.33984375,0.0
1734422679.3260195,0.0,-46.38671875,140.13671875,-62.98828125,0.0
1734422679.3299258,0.0,-49.8046875,34.66796875,-40.0390625,0.0
1734422679.3338318,0.0,-53.7109375,-96.6796875,-41.9921875,0.0
1734422679.3377392,-121.09375,-57.6171875,-17.08984375,-72.75390625,0.0
1734422679.3416452,-20.5078125,-61.03515625,114.74609375,-71.77734375,0.0
1734422679.3455515,0.48828125,-71.2890625,44.921875,-59.5703125,0.0
1734422679.3494575,-25.87890625,-82.03125,-154.78515625,-50.78125,0.0
1734422679.3533638,-123.046875,-71.2890625,-228.515625,-62.98828125,0.0
1734422679.3572698,-132.32421875,-56.15234375,-200.68359375,-83.0078125,0.0
1734422679.361176,-19.53125,-67.3828125,-296.38671875,-68.84765625,0.0
1734422679.365082,14.6484375,-72.75390625,-337.40234375,-45.8984375,0.0
1734422679.3689883,-8.7890625,-47.8515625,18.5546875,-68.359375,0.0
1734422679.3728943,-117.1875,-44.43359375,85.44921875,-93.26171875,0.0
1734422679.3768005,-139.16015625,-57.6171875,-100.5859375,-77.1484375,0.0
1734422679.3807065,0.48828125,-48.828125,-8.30078125,-63.4765625,0.0
1734422679.3846135,29.78515625,-44.921875,138.18359375,-53.7109375,0.0
1734422679.3885198,-13.18359375,-56.15234375,116.69921875,-47.36328125,0.0
1734422679.392426,-103.515625,-62.5,-50.78125,-56.640625,0.0
1734422679.396332,-140.13671875,-61.03515625,-138.671875,-66.40625,0.0
1734422679.4002383,-27.83203125,-58.10546875,-27.34375,-54.6875,0.0
1734422679.4041443,3.90625,-64.94140625,13.671875,-44.921875,0.0
1734422679.4080505,-0.9765625,-79.1015625,-240.234375,-29.78515625,0.0
1734422679.4119565,-71.77734375,-76.171875,-343.26171875,-34.66796875,0.0
1734422679.4158628,-163.57421875,-56.15234375,-2.9296875,-70.3125,0.0
1734422679.4197688,-61.5234375,-55.17578125,21.484375,-62.5,0.0
1734422679.423675,3.90625,-57.12890625,11.71875,-52.24609375,0.0
1734422679.427581,-4.8828125,-56.640625,88.8671875,-49.31640625,0.0
1734422679.4314878,-58.10546875,-57.6171875,93.75,-57.6171875,0.0
1734422679.435394,-147.94921875,-60.05859375,-79.58984375,-68.359375,0.0
1734422679.4393,-63.4765625,-60.546875,-143.5546875,-70.3125,0.0
1734422679.4432063,13.671875,-50.78125,84.9609375,-71.2890625,0.0
1734422679.4471123,-0.9765625,-45.8984375,118.1640625,-60.05859375,0.0
1734422679.4510186,-46.38671875,-57.12890625,-134.27734375,-59.5703125,0.0
1734422679.4549246,-131.34765625,-69.3359375,-367.1875,-66.89453125,0.0
1734422679.4588308,-67.3828125,-56.640625,-203.61328125,-68.84765625,0.0
1734422679.4627368,34.1796875,-39.55078125,60.05859375,-57.6171875,0.0
1734422679.466643,40.52734375,-46.38671875,-12.20703125,-43.45703125,0.0
1734422679.470549,-29.78515625,-58.59375,-231.4453125,-45.8984375,0.0
1734422679.4744554,-126.953125,-49.8046875,-96.6796875,-74.70703125,0.0
1734422679.4783635,-67.3828125,-40.52734375,0.0,-70.80078125,0.0
1734422679.4822698,23.4375,-41.50390625,0.0,-43.45703125,0.0
1734422679.4861758,14.16015625,-41.9921875,0.0,-40.52734375,0.0
1734422679.490082,-31.25,-46.38671875,0.0,-49.31640625,0.0
1734422679.493988,-128.41796875,-52.24609375,0.0,-67.87109375,0.0
1734422679.4978943,-101.07421875,-60.05859375,0.0,-69.3359375,0.0
1734422679.5018003,13.671875,-59.5703125,0.0,-49.31640625,0.0
1734422679.5057065,18.5546875,-51.7578125,0.0,-39.0625,0.0
1734422679.5096126,-22.4609375,-54.19921875,0.0,-43.9453125,0.0
1734422679.5135188,-118.1640625,-66.40625,0.0,-51.7578125,0.0
1734422679.5174248,-117.1875,-66.40625,0.0,-59.5703125,0.0
1734422679.521331,-6.8359375,-57.6171875,0.0,-58.59375,0.0
1734422679.525239,13.671875,-51.7578125,43.9453125,-49.8046875,0.0
1734422679.5291452,-24.4140625,-55.17578125,-165.0390625,-64.453125,0.0
1734422679.5330513,-123.53515625,-53.22265625,-220.703125,-85.9375,0.0
1734422679.5369575,-126.953125,-49.31640625,-125.0,-83.49609375,0.0
1734422679.5408635,-18.06640625,-55.6640625,-87.40234375,-63.96484375,0.0
1734422679.5447698,-4.8828125,-64.453125,-183.59375,-53.7109375,0.0
1734422679.5486758,-25.390625,-66.89453125,-192.87109375,-60.05859375,0.0
1734422679.552582,-105.95703125,-65.91796875,-147.4609375,-80.078125,0.0
1734422679.556488,-147.94921875,-73.73046875,-308.59375,-91.796875,0.0
1734422679.5603943,-43.9453125,-74.70703125,-355.46875,-83.0078125,0.0
1734422679.5643003,-2.44140625,-61.03515625,2.44140625,-72.75390625,0.0
1734422679.5682065,-1.953125,-56.640625,113.76953125,-60.546875,0.0
1734422679.5721142,0.0,-60.546875,-52.734375,-69.82421875,0.0
1734422679.5760202,0.0,-58.59375,-135.7421875,-76.171875,0.0
1734422679.5799265,0.0,-51.7578125,12.6953125,-61.03515625,0.0
1734422679.5838325,0.0,-53.7109375,67.3828125,-45.41015625,0.0
1734422679.5877388,0.0,-57.6171875,-87.890625,-34.66796875,0.0
1734422679.5916448,0.0,-58.59375,-220.21484375,-31.73828125,0.0
1734422679.595551,0.0,-59.5703125,-228.02734375,-36.1328125,0.0
1734422679.599457,0.0,-53.22265625,-69.3359375,-38.57421875,0.0
1734422679.6033633,0.0,-60.546875,-216.30859375,-17.08984375,0.0
1734422679.6072693,0.0,-61.03515625,-200.68359375,-22.94921875,0.0
1734422679.6111755,0.0,-50.29296875,109.86328125,-50.29296875,0.0
1734422679.6150815,0.0,-60.546875,-32.71484375,-62.98828125,0.0
1734422679.6189892,-69.3359375,-67.3828125,-86.9140625,-67.3828125,0.0
1734422679.6228955,10.25390625,-57.6171875,61.03515625,-59.08203125,0.0
1734422679.6268015,-3.41796875,-54.6875,119.140625,-56.15234375,0.0
1734422679.6307077,-56.15234375,-64.94140625,-10.7421875,-62.01171875,0.0
1734422679.6346138,-145.01953125,-68.84765625,-213.8671875,-65.4296875,0.0
1734422679.63852,-87.890625,-68.84765625,-236.328125,-61.5234375,0.0
1734422679.642426,-3.90625,-65.91796875,-158.203125,-52.734375,0.0
1734422679.6463323,-7.8125,-70.80078125,-281.25,-42.48046875,0.0
1734422679.6502383,-42.48046875,-69.82421875,-341.796875,-41.9921875,0.0
1734422679.6541445,-141.11328125,-48.828125,-25.87890625,-65.4296875,0.0
1734422679.6580505,-103.02734375,-49.31640625,79.1015625,-70.3125,0.0
1734422679.6619568,8.30078125,-62.98828125,-20.5078125,-54.6875,0.0
1734422679.6658642,2.9296875,-62.98828125,15.625,-57.6171875,0.0
1734422679.6697702,-28.3203125,-59.08203125,119.140625,-67.3828125,0.0
1734422679.6736765,-115.234375,-65.91796875,29.296875,-70.3125,0.0
1734422679.6775825,-113.28125,-68.359375,-126.46484375,-66.89453125,0.0
1734422679.6814888,-8.7890625,-64.94140625,-36.62109375,-53.7109375,0.0
1734422679.6853948,9.27734375,-62.5,-30.76171875,-34.1796875,0.0
1734422679.689301,0.48828125,-54.19921875,-9.765625,-23.92578125,0.0
1734422679.693207,-82.51953125,-64.453125,-232.91015625,-24.4140625,0.0
1734422679.6971133,-116.69921875,-66.89453125,-259.765625,-35.64453125,0.0
1734422679.7010193,-13.18359375,-49.31640625,142.08984375,-44.921875,0.0
1734422679.7049255,19.53125,-52.734375,61.03515625,-30.2734375,0.0
1734422679.7088315,-7.32421875,-61.5234375,-82.03125,-36.1328125,0.0
1734422679.712739,-103.515625,-61.03515625,-39.55078125,-52.24609375,0.0
1734422679.716645,-135.7421875,-56.640625,-21.484375,-62.5,0.0
1734422679.7205513,-9.27734375,-52.24609375,-14.6484375,-56.640625,0.0
1734422679.7244573,25.87890625,-55.6640625,-16.11328125,-43.45703125,0.0
1734422679.7283635,-2.44140625,-57.12890625,59.08203125,-41.015625,0.0
1734422679.7322695,-76.171875,-58.10546875,-41.9921875,-43.45703125,0.0
1734422679.7361758,-127.9296875,-61.03515625,-332.03125,-41.9921875,0.0
1734422679.7400818,-28.80859375,-62.98828125,-352.05078125,-43.45703125,0.0
1734422679.743988,10.7421875,-48.828125,16.6015625,-55.6640625,0.0
1734422679.747894,-2.44140625,-41.9921875,144.53125,-60.546875,0.0
1734422679.7518003,-60.05859375,-45.8984375,-33.203125,-62.5,0.0
1734422679.7557063,-133.30078125,-44.43359375,-95.703125,-74.70703125,0.0
1734422679.7596135,-46.38671875,-44.43359375,60.546875,-70.3125,0.0
1734422679.7635195,22.4609375,-51.26953125,71.2890625,-47.36328125,0.0
1734422679.7674258,16.11328125,-57.12890625,-64.94140625,-38.0859375,0.0
1734422679.7713318,-40.52734375,-46.875,-31.25,-42.48046875,0.0
1734422679.775238,-138.18359375,-43.9453125,-5.37109375,-53.22265625,0.0
1734422679.779144,-51.7578125,-45.8984375,-131.8359375,-42.48046875,0.0
1734422679.7830503,44.43359375,-51.26953125,-338.37890625,-14.6484375,0.0
1734422679.7869563,18.06640625,-45.8984375,-223.14453125,-13.671875,0.0
1734422679.7908626,-32.2265625,-35.15625,120.1171875,-34.1796875,0.0
1734422679.7947686,-117.1875,-48.828125,-24.90234375,-39.55078125,0.0
1734422679.7986748,-80.56640625,-55.17578125,-133.7890625,-39.0625,0.0
1734422679.8025808,12.20703125,-49.8046875,-12.20703125,-39.0625,0.0
1734422679.8064878,15.625,-44.43359375,88.8671875,-42.96875,0.0
1734422679.8103938,-25.87890625,-54.19921875,21.97265625,-52.24609375,0.0
1734422679.8143,-124.0234375,-63.96484375,-150.87890625,-74.70703125,0.0
1734422679.818206,-94.7265625,-59.08203125,-68.359375,-85.44921875,0.0
1734422679.8221123,3.90625,-51.7578125,73.73046875,-63.96484375,0.0
1734422679.8260183,6.8359375,-53.7109375,-142.08984375,-42.96875,0.0
1734422679.8299246,-35.15625,-66.40625,-325.68359375,-45.41015625,0.0
1734422679.8338306,-133.7890625,-67.3828125,-208.0078125,-75.1953125,0.0
1734422679.8377368,-125.0,-64.453125,-197.265625,-78.125,0.0
1734422679.8416429,-15.625,-67.87109375,-237.79296875,-65.91796875,0.0
1734422679.845549,-1.46484375,-58.59375,-91.796875,-65.4296875,0.0
1734422679.849455,-27.34375,-51.26953125,127.44140625,-68.84765625,0.0
1734422679.8533633,-114.74609375,-56.640625,64.453125,-71.77734375,0.0
1734422679.8572695,-124.51171875,-62.98828125,-97.16796875,-64.94140625,0.0
1734422679.8611758,-2.9296875,-62.5,-38.57421875,-48.33984375,0.0
1734422679.8650818,30.76171875,-57.12890625,96.19140625,-29.78515625,0.0
1734422679.868988,11.71875,-55.17578125,53.22265625,-10.7421875,0.0
1734422679.872894,-84.9609375,-61.5234375,-174.8046875,-17.578125,0.0
1734422679.8768003,-137.20703125,-61.5234375,-241.2109375,-47.36328125,0.0
1734422679.8807063,-32.2265625,-49.8046875,16.6015625,-44.921875,0.0
1734422679.8846126,1.953125,-53.7109375,49.31640625,-39.55078125,0.0
1734422679.8885186,-8.7890625,-72.75390625,-144.04296875,-36.62109375,0.0
1734422679.8924248,-83.49609375,-72.265625,-61.5234375,-52.24609375,0.0
1734422679.8963308,-151.85546875,-58.10546875,58.10546875,-86.9140625,0.0
1734422679.9002388,-54.6875,-60.546875,-33.69140625,-77.63671875,0.0
1734422679.904145,-3.90625,-62.98828125,-35.15625,-68.84765625,0.0
1734422679.908051,-9.765625,-53.22265625,103.515625,-74.21875,0.0
1734422679.9119573,-60.546875,-45.8984375,105.95703125,-66.40625,0.0
1734422679.9158633,-148.4375,-51.26953125,-87.40234375,-79.58984375,0.0
1734422679.9197695,-65.4296875,-55.17578125,-276.3671875,-86.42578125,0.0
1734422679.9236755,9.765625,-46.875,-166.50390625,-71.2890625,0.0
1734422679.9275818,-4.8828125,-43.9453125,-29.296875,-68.84765625,0.0
1734422679.9314878,-58.10546875,-53.22265625,-250.0,-75.1953125,0.0
1734422679.935394,-150.390625,-62.01171875,-405.2734375,-80.56640625,0.0
1734422679.9393,-75.68359375,-49.31640625,-41.50390625,-87.40234375,0.0
1734422679.9432063,8.7890625,-49.31640625,87.40234375,-82.51953125,0.0
1734422679.947114,0.0,-61.03515625,-64.94140625,-68.84765625,0.0
1734422679.9510202,0.0,-58.10546875,-32.71484375,-59.08203125,0.0
1734422679.9549263,0.0,-50.78125,41.9921875,-65.4296875,0.0
1734422679.9588325,0.0,-50.29296875,28.80859375,-64.94140625,0.0
1734422679.9627385,0.0,-54.6875,-53.7109375,-42.96875,0.0
1734422679.9666448,0.0,-55.17578125,-211.9140625,-38.0859375,0.0
1734422679.9705508,0.0,-48.828125,-154.296875,-49.31640625,0.0
1734422679.974457,0.0,-45.41015625,-24.90234375,-61.03515625,0.0
1734422679.978363,0.0,-62.98828125,-297.36328125,-53.7109375,0.0
1734422679.9822693,0.0,-56.640625,-219.7265625,-35.64453125,0.0
1734422679.9861753,0.0,-36.62109375,144.53125,-37.59765625,0.0
1734422679.9900815,0.0,-41.015625,53.22265625,-41.50390625,0.0
1734422679.9939847,-2.9296875,-51.26953125,-90.33203125,-59.5703125,0.0
1734422679.9978907,-41.50390625,-50.78125,-15.625,-66.40625,0.0
1734422680.001797,-141.11328125,-41.9921875,98.6328125,-60.05859375,0.0
1734422680.005703,-85.44921875,-49.8046875,-2.9296875,-65.4296875,0.0
1734422680.0096092,19.04296875,-52.734375,-62.01171875,-70.3125,0.0
1734422680.0135152,15.13671875,-50.29296875,-124.0234375,-72.75390625,0.0
1734422680.0174215,-29.296875,-48.828125,-209.9609375,-65.91796875,0.0
1734422680.0213275,-129.8828125,-48.33984375,-294.43359375,-45.41015625,0.0
1734422680.0252337,-96.19140625,-51.7578125,-318.84765625,-42.48046875,0.0
1734422680.0291398,15.625,-38.57421875,18.06640625,-59.08203125,0.0
1734422680.033046,14.6484375,-38.57421875,82.51953125,-64.94140625,0.0
1734422680.036952,-18.5546875,-44.43359375,-65.91796875,-64.94140625,0.0
1734422680.0408595,-6.8359375,-49.8046875,-16.11328125,-63.4765625,0.0
1734422680.0447657,18.06640625,-48.828125,100.09765625,-56.640625,0.0
1734422680.0486717,8.30078125,-46.875,77.1484375,-43.9453125,0.0
1734422680.052578,-50.29296875,-55.17578125,-60.546875,-37.109375,0.0
1734422680.056484,-125.0,-57.6171875,-169.921875,-47.8515625,0.0
1734422680.0603902,-29.78515625,-53.22265625,-201.171875,-47.8515625,0.0
1734422680.0642962,33.203125,-46.875,-139.16015625,-46.38671875,0.0
1734422680.0682025,-6.8359375,-55.17578125,-303.7109375,-36.62109375,0.0
1734422680.0721085,-77.1484375,-48.33984375,-243.1640625,-45.41015625,0.0
1734422680.0760148,-131.34765625,-31.73828125,82.03125,-67.87109375,0.0
1734422680.0799208,-33.69140625,-39.55078125,-3.90625,-48.828125,0.0
1734422680.083827,30.76171875,-42.96875,-0.48828125,-38.0859375,0.0
1734422680.0877342,12.6953125,-33.203125,110.3515625,-50.78125,0.0
1734422680.0916402,-43.9453125,-33.203125,98.14453125,-58.10546875,0.0
1734422680.0955465,-128.90625,-42.48046875,-66.89453125,-70.3125,0.0
1734422680.0994525,-57.12890625,-45.41015625,-127.9296875,-70.80078125,0.0
1734422680.1033587,26.85546875,-40.0390625,42.48046875,-59.5703125,0.0
1734422680.1072648,14.16015625,-40.52734375,71.77734375,-45.8984375,0.0
1734422680.111171,-41.50390625,-55.17578125,-177.734375,-47.36328125,0.0
1734422680.115077,-125.48828125,-62.5,-394.04296875,-63.96484375,0.0
1734422680.1189833,-82.51953125,-45.41015625,-143.06640625,-71.2890625,0.0
1734422680.1228893,-1.46484375,-39.55078125,-1.953125,-52.24609375,0.0
1734422680.1267955,18.5546875,-51.7578125,-91.30859375,-36.62109375,0.0
1734422680.1307015,-26.85546875,-50.78125,-35.15625,-43.9453125,0.0
1734422680.1346087,-136.71875,-51.26953125,5.37109375,-58.10546875,0.0
1734422680.1385148,-90.33203125,-57.12890625,-116.2109375,-56.640625,0.0
1734422680.142421,25.87890625,-53.22265625,-140.13671875,-40.52734375,0.0
1734422680.146327,25.87890625,-46.875,-11.23046875,-34.66796875,0.0
1734422680.1502333,-18.5546875,-45.41015625,44.43359375,-37.109375,0.0
1734422680.1541393,-110.3515625,-50.78125,-145.01953125,-43.45703125,0.0
1734422680.1580455,-96.19140625,-54.6875,-393.5546875,-44.921875,0.0
1734422680.1619515,8.30078125,-45.41015625,-237.79296875,-46.38671875,0.0
1734422680.1658578,12.20703125,-32.2265625,143.06640625,-44.43359375,0.0
1734422680.1697638,-13.671875,-44.43359375,66.40625,-44.43359375,0.0
1734422680.17367,-103.02734375,-50.29296875,-133.7890625,-59.5703125,0.0
1734422680.177576,-110.3515625,-41.9921875,-105.46875,-62.01171875,0.0
1734422680.181483,0.0,-41.50390625,60.546875,-53.22265625,0.0
1734422680.185389,0.0,-48.828125,-53.22265625,-53.22265625,0.0
1734422680.1892953,0.0,-52.734375,-82.51953125,-60.05859375,0.0
1734422680.1932015,0.0,-47.8515625,47.8515625,-70.3125,0.0
1734422680.1971076,0.0,-49.31640625,19.53125,-67.3828125,0.0
1734422680.2010138,0.0,-61.5234375,-183.59375,-48.33984375,0.0
1734422680.2049198,0.0,-65.4296875,-291.50390625,-38.0859375,0.0
1734422680.208826,0.0,-51.26953125,-133.30078125,-43.45703125,0.0
1734422680.212732,0.0,-44.921875,44.921875,-60.546875,0.0
1734422680.2166383,0.0,-62.5,-188.4765625,-67.87109375,0.0
1734422680.2205443,0.0,-60.05859375,-267.08984375,-62.01171875,0.0
1734422680.2244506,0.0,-42.48046875,113.76953125,-51.26953125,0.0
1734422680.2283587,10.25390625,-50.29296875,0.0,-31.73828125,0.0
1734422680.2322648,-61.03515625,-57.6171875,0.0,-32.71484375,0.0
1734422680.236171,-135.7421875,-57.12890625,0.0,-48.828125,0.0
1734422680.240077,-25.87890625,-56.15234375,0.0,-33.69140625,0.0
1734422680.2439833,45.8984375,-54.19921875,0.0,-23.92578125,0.0
1734422680.2478893,26.3671875,-56.640625,0.0,-27.34375,0.0
1734422680.2517955,-39.55078125,-59.08203125,0.0,-32.2265625,0.0
1734422680.2557015,-135.7421875,-53.22265625,0.0,-55.6640625,0.0
1734422680.2596078,-55.17578125,-54.6875,0.0,-64.453125,0.0
1734422680.2635138,33.69140625,-59.08203125,0.0,-49.31640625,0.0
1734422680.26742,9.27734375,-53.22265625,0.0,-50.29296875,0.0
1734422680.271326,-42.96875,-51.26953125,0.0,-64.453125,0.0
1734422680.2752342,-118.65234375,-60.546875,-33.69140625,0.0,0.0
1734422680.2791402,-62.98828125,-65.4296875,-162.109375,0.0,0.0
1734422680.2830465,32.71484375,-59.5703125,-5.37109375,0.0,0.0
1734422680.2869525,27.83203125,-55.6640625,130.859375,0.0,0.0
1734422680.2908587,-10.7421875,-55.17578125,-6.34765625,0.0,0.0
1734422680.2947648,-107.421875,-61.03515625,-239.2578125,0.0,0.0
1734422680.298671,-70.80078125,-55.17578125,-260.25390625,0.0,0.0
1734422680.302577,19.53125,-48.33984375,-115.72265625,0.0,0.0
1734422680.3064833,2.44140625,-64.94140625,-223.14453125,0.0,0.0
1734422680.3103893,-14.16015625,-68.84765625,-314.94140625,0.0,0.0
1734422680.3142955,-103.02734375,-47.8515625,-5.859375,0.0,0.0
1734422680.3182015,-99.12109375,-48.828125,62.5,0.0,0.0
1734422680.3221095,1.46484375,-54.6875,-16.6015625,-70.80078125,0.0
1734422680.3260155,13.671875,-48.33984375,43.9453125,-56.15234375,0.0
1734422680.3299217,-16.6015625,-43.9453125,119.62890625,-62.5,0.0
1734422680.3338277,-106.4453125,-48.828125,70.80078125,-75.68359375,0.0
1734422680.337734,-108.88671875,-54.19921875,-138.18359375,-67.87109375,0.0
1734422680.34164,2.44140625,-50.29296875,-154.78515625,-49.31640625,0.0
1734422680.3455462,12.20703125,-51.26953125,46.38671875,-51.7578125,0.0
1734422680.3494523,-14.16015625,-54.19921875,69.3359375,-67.87109375,0.0
1734422680.3533585,-81.54296875,-61.03515625,-224.12109375,-61.5234375,0.0
1734422680.3572645,-114.2578125,-59.5703125,-237.3046875,-64.94140625,0.0
1734422680.3611708,-8.30078125,-46.38671875,50.78125,-71.2890625,0.0
1734422680.3650768,23.4375,-50.78125,16.11328125,-62.5,0.0
1734422680.3689845,0.48828125,-47.36328125,39.55078125,-70.80078125,0.0
1734422680.3728907,-53.22265625,-39.0625,94.23828125,-80.078125,0.0
1734422680.3767967,-92.7734375,-38.57421875,61.03515625,-78.125,0.0
1734422680.380703,-0.9765625,-41.9921875,-18.06640625,-66.40625,0.0
1734422680.384609,35.64453125,-46.875,-43.45703125,-62.5,0.0
1734422680.3885152,15.625,-49.31640625,-0.9765625,-65.4296875,0.0
1734422680.3924212,-55.17578125,-51.7578125,-59.08203125,-75.1953125,0.0
1734422680.3963275,-122.55859375,-58.10546875,-312.01171875,-74.21875,0.0
1734422680.4002335,-20.99609375,-58.10546875,-359.375,-56.15234375,0.0
1734422680.4041398,41.50390625,-42.96875,53.7109375,-57.12890625,0.0
1734422680.4080458,22.4609375,-40.52734375,172.36328125,-64.94140625,0.0
1734422680.411952,-49.8046875,-51.26953125,-39.55078125,-74.21875,0.0
1734422680.4158592,-138.671875,-54.19921875,-52.24609375,-80.56640625,0.0
1734422680.4197655,-52.24609375,-52.24609375,40.52734375,-72.265625,0.0
1734422680.4236715,15.625,-57.12890625,18.5546875,-63.96484375,0.0
1734422680.4275777,-8.7890625,-50.29296875,-6.8359375,-56.15234375,0.0
1734422680.4314837,-48.33984375,-44.43359375,-10.7421875,-60.05859375,0.0
1734422680.43539,-135.7421875,-52.24609375,-144.53125,-77.1484375,0.0
1734422680.4392962,-84.47265625,-51.26953125,-192.87109375,-71.77734375,0.0
1734422680.4432023,6.34765625,-57.12890625,-280.2734375,-54.19921875,0.0
1734422680.4471085,-2.44140625,-48.33984375,-162.59765625,-56.640625,0.0
1734422680.4510145,-50.29296875,-27.83203125,160.15625,-68.84765625,0.0
1734422680.4549208,-131.8359375,-41.9921875,-11.71875,-79.58984375,0.0
1734422680.4588268,-84.47265625,-48.828125,-145.99609375,-70.3125,0.0
1734422680.462734,15.625,-42.48046875,46.38671875,-52.734375,0.0
1734422680.4666402,17.08984375,-44.921875,178.7109375,-55.17578125,0.0
1734422680.4705462,-9.765625,-48.33984375,24.4140625,-52.734375,0.0
1734422680.4744525,-99.12109375,-48.828125,-118.65234375,-56.640625,0.0
1734422680.4783585,-81.0546875,-45.8984375,-32.2265625,-62.01171875,0.0
1734422680.4822648,19.04296875,-47.36328125,-25.87890625,-53.22265625,0.0
1734422680.4861708,20.01953125,-54.19921875,-147.4609375,-44.921875,0.0
1734422680.490077,-7.32421875,-63.96484375,-285.64453125,-50.29296875,0.0
1734422680.493983,-102.05078125,-55.17578125,-152.83203125,-61.03515625,0.0
1734422680.4978893,-115.234375,-43.9453125,39.0625,-62.5,0.0
1734422680.5017953,-4.8828125,-51.26953125,-58.10546875,-46.875,0.0
1734422680.5057015,16.6015625,-48.828125,-30.2734375,-35.15625,0.0
1734422680.5096085,-5.859375,-44.43359375,141.6015625,-45.41015625,0.0
1734422680.5135145,-80.56640625,-44.921875,64.94140625,-53.7109375,0.0
1734422680.5174208,-114.74609375,-51.7578125,-103.515625,-52.24609375,0.0
1734422680.5213268,-25.87890625,-50.78125,-24.90234375,-45.8984375,0.0
1734422680.525233,9.765625,-46.38671875,111.328125,-41.50390625,0.0
1734422680.529139,0.48828125,-49.8046875,41.50390625,-42.96875,0.0
1734422680.5330453,-76.66015625,-63.96484375,-269.53125,-52.24609375,0.0
1734422680.5369513,-137.6953125,-62.98828125,-342.28515625,-76.171875,0.0
1734422680.5408576,-33.203125,-46.875,-43.9453125,-76.171875,0.0
1734422680.5447636,13.18359375,-48.33984375,20.01953125,-61.5234375,0.0
1734422680.5486698,-9.27734375,-49.31640625,45.8984375,-58.10546875,0.0
1734422680.5525758,-68.84765625,-48.33984375,82.03125,-69.3359375,0.0
1734422680.5564828,-133.7890625,-55.17578125,24.4140625,-82.51953125,0.0
1734422680.5603888,-39.55078125,-62.98828125,-172.36328125,-68.359375,0.0
1734422680.564295,25.87890625,-53.22265625,-56.15234375,-53.7109375,0.0
1734422680.568201,17.08984375,-52.734375,135.25390625,-45.41015625,0.0
1734422680.5721073,-36.62109375,-55.6640625,75.68359375,-44.921875,0.0
1734422680.5760133,-119.140625,-61.5234375,-201.66015625,-52.24609375,0.0
1734422680.5799196,-45.8984375,-68.84765625,-383.7890625,-50.78125,0.0
1734422680.5838256,30.2734375,-49.8046875,-91.30859375,-49.31640625,0.0
1734422680.5877318,24.90234375,-36.62109375,147.94921875,-40.0390625,0.0
1734422680.5916378,-25.87890625,-46.875,-3.41796875,-42.48046875,0.0
1734422680.595544,-127.9296875,-50.29296875,-85.9375,-62.01171875,0.0
1734422680.59945,-67.3828125,-47.8515625,4.39453125,-63.96484375,0.0
1734422680.6033583,19.04296875,-48.33984375,68.359375,-54.6875,0.0
1734422680.6072645,1.953125,-46.38671875,87.890625,-44.921875,0.0
1734422680.6111705,-27.83203125,-46.38671875,37.109375,-48.828125,0.0
1734422680.6150768,-132.8125,-50.78125,49.8046875,-68.359375,0.0
1734422680.6189828,-104.4921875,-51.7578125,0.48828125,-63.4765625,0.0
1734422680.622889,7.32421875,-51.7578125,-119.62890625,-55.6640625,0.0
1734422680.626795,-1.953125,-45.8984375,-19.04296875,-54.6875,0.0
1734422680.6307013,-33.69140625,-38.0859375,163.0859375,-60.546875,0.0
1734422680.6346073,-119.62890625,-48.33984375,26.3671875,-72.75390625,0.0
1734422680.6385136,-112.3046875,-62.5,-178.7109375,-71.2890625,0.0
1734422680.6424196,-8.7890625,-55.6640625,-15.13671875,-63.96484375,0.0
1734422680.6463258,0.0,-50.29296875,152.34375,-60.546875,0.0
1734422680.6502337,-26.3671875,-54.6875,45.8984375,-54.6875,0.0
1734422680.65414,-98.14453125,-55.17578125,-135.25390625,-55.17578125,0.0
1734422680.658046,-109.86328125,-56.15234375,-211.42578125,-62.01171875,0.0
1734422680.6619523,-4.8828125,-54.19921875,-62.98828125,-53.7109375,0.0
1734422680.6658583,31.73828125,-51.26953125,40.52734375,-21.484375,0.0
1734422680.6697645,21.484375,-49.8046875,-109.375,-16.11328125,0.0
1734422680.6736705,-71.2890625,-48.33984375,-193.84765625,-39.55078125,0.0
1734422680.6775768,-121.58203125,-50.78125,-184.08203125,-43.9453125,0.0
1734422680.6814828,-8.30078125,-50.29296875,-175.29296875,-35.15625,0.0
1734422680.685389,30.76171875,-43.45703125,-238.28125,-32.71484375,0.0
1734422680.689295,10.25390625,-30.2734375,46.875,-39.0625,0.0
1734422680.6932013,-64.94140625,-35.15625,123.53515625,-39.0625,0.0
1734422680.697109,0.0,-41.50390625,-83.49609375,0.0,0.0
1734422680.7010152,0.0,-40.0390625,-11.71875,0.0,0.0
1734422680.7049212,0.0,-35.15625,133.7890625,0.0,0.0
1734422680.7088275,0.0,-38.57421875,130.859375,0.0,0.0
1734422680.7127335,0.0,-48.828125,-33.69140625,0.0,0.0
1734422680.7166398,0.0,-53.22265625,-218.75,0.0,0.0
1734422680.7205458,0.0,-49.8046875,-188.96484375,0.0,0.0
1734422680.724452,0.0,-46.875,9.27734375,0.0,0.0
1734422680.728358,0.0,-62.5,-124.0234375,0.0,0.0
1734422680.7322643,0.0,-58.10546875,-174.8046875,0.0,0.0
1734422680.7361703,0.0,-39.0625,100.5859375,0.0,0.0
1734422680.7400765,0.0,-43.9453125,24.4140625,0.0,0.0
1734422680.7439842,20.01953125,-47.8515625,46.875,-56.640625,0.0
1734422680.7478902,15.13671875,-48.33984375,120.1171875,-41.9921875,0.0
1734422680.7517965,-47.8515625,-52.734375,146.97265625,-46.38671875,0.0
1734422680.7557025,-140.625,-58.10546875,-52.24609375,-70.80078125,0.0
1734422680.7596087,-64.94140625,-56.15234375,-169.921875,-70.3125,0.0
1734422680.7635148,19.04296875,-47.8515625,34.1796875,-58.59375,0.0
1734422680.767421,8.30078125,-48.33984375,72.75390625,-52.734375,0.0
1734422680.771327,-25.390625,-60.05859375,-122.0703125,-44.921875,0.0
1734422680.7752333,-120.60546875,-66.40625,-313.4765625,-48.828125,0.0
1734422680.7791393,-89.84375,-52.24609375,-155.2734375,-65.4296875,0.0
1734422680.7830455,3.41796875,-43.45703125,66.89453125,-62.5,0.0
1734422680.7869515,7.8125,-41.9921875,77.63671875,-57.6171875,0.0
1734422680.790859,-23.92578125,-41.015625,45.41015625,-60.05859375,0.0
1734422680.7947652,-107.421875,-38.57421875,84.47265625,-64.94140625,0.0
1734422680.7986712,-81.0546875,-37.59765625,43.9453125,-67.87109375,0.0
1734422680.8025775,17.578125,-39.0625,7.32421875,-61.5234375,0.0
1734422680.8064835,32.2265625,-45.8984375,43.45703125,-41.015625,0.0
1734422680.8103898,6.34765625,-51.7578125,58.10546875,-40.52734375,0.0
1734422680.8142958,-95.21484375,-49.8046875,-79.58984375,-68.359375,0.0
1734422680.818202,-103.02734375,-59.5703125,-364.74609375,-67.87109375,0.0
1734422680.822108,12.6953125,-52.24609375,-204.1015625,-56.640625,0.0
1734422680.8260143,26.3671875,-33.69140625,177.24609375,-58.10546875,0.0
1734422680.8299205,0.0,-47.8515625,68.359375,-58.10546875,0.0
1734422680.8338265,-72.75390625,-57.6171875,-13.18359375,-64.453125,0.0
1734422680.8377337,-104.00390625,-51.26953125,-93.75,-60.546875,0.0
1734422680.84164,10.7421875,-39.55078125,-34.1796875,-46.38671875,0.0
1734422680.845546,42.48046875,-37.109375,54.19921875,-41.015625,0.0
1734422680.8494523,0.9765625,-46.38671875,11.71875,-44.43359375,0.0
1734422680.8533583,-68.84765625,-54.6875,28.80859375,-60.05859375,0.0
1734422680.8572645,-103.515625,-59.08203125,-134.27734375,-69.3359375,0.0
1734422680.8611705,-9.27734375,-61.03515625,-266.6015625,-58.59375,0.0
1734422680.8650768,34.1796875,-61.03515625,-285.64453125,-47.8515625,0.0
1734422680.8689828,21.484375,-41.9921875,43.45703125,-60.05859375,0.0
1734422680.872889,-62.01171875,-41.50390625,141.11328125,-77.1484375,0.0
1734422680.876795,-133.30078125,-54.19921875,-110.83984375,-77.63671875,0.0
1734422680.8807013,-40.0390625,-51.7578125,-74.70703125,-58.10546875,0.0
1734422680.8846083,15.13671875,-47.36328125,155.2734375,-46.875,0.0
1734422680.8885145,-7.32421875,-45.8984375,138.18359375,-56.640625,0.0
1734422680.8924205,-68.359375,-50.29296875,-31.73828125,-55.17578125,0.0
1734422680.8963268,-133.7890625,-55.6640625,-197.265625,-62.01171875,0.0
1734422680.9002328,-49.8046875,-50.78125,-109.375,-68.84765625,0.0
1734422680.904139,30.76171875,-44.921875,53.7109375,-54.19921875,0.0
1734422680.908045,29.296875,-50.78125,-191.40625,-40.0390625,0.0
1734422680.9119513,-37.59765625,-50.29296875,-233.3984375,-52.734375,0.0
1734422680.9158573,-132.8125,-40.0390625,62.01171875,-76.171875,0.0
1734422680.9197636,-71.77734375,-43.9453125,-5.859375,-75.68359375,0.0
1734422680.9236696,4.8828125,-46.875,9.765625,-67.87109375,0.0
1734422680.9275758,2.44140625,-40.52734375,131.34765625,-64.453125,0.0
1734422680.9314826,-39.0625,-37.59765625,131.8359375,-67.87109375,0.0
1734422680.9353886,-123.046875,-44.921875,-80.078125,-72.75390625,0.0
1734422680.9392948,-81.54296875,-43.45703125,-141.6015625,-64.453125,0.0
1734422680.9432008,23.92578125,-32.2265625,100.5859375,-47.8515625,0.0
1734422680.947107,42.48046875,-35.15625,135.7421875,-31.25,0.0
1734422680.9510133,-6.34765625,-43.9453125,-103.515625,-33.203125,0.0
1734422680.9549193,-119.62890625,-47.36328125,-350.09765625,-59.5703125,0.0
1734422680.9588256,-105.46875,-46.875,-262.20703125,-73.73046875,0.0
1734422680.9627316,0.48828125,-41.9921875,-15.625,-54.6875,0.0
1734422680.9666378,18.06640625,-43.9453125,43.9453125,-43.9453125,0.0
1734422680.9705439,-1.953125,-42.48046875,18.06640625,-46.38671875,0.0
1734422680.97445,-101.5625,-35.64453125,86.9140625,-63.96484375,0.0
1734422680.9783566,-123.53515625,-41.50390625,54.19921875,-71.77734375,0.0
1734422680.9822626,-16.6015625,-46.38671875,-16.6015625,-60.05859375,0.0
1734422680.9861689,3.90625,-50.29296875,44.43359375,-54.6875,0.0
1734422680.9900749,-8.7890625,-59.08203125,142.08984375,-49.31640625,0.0
1734422680.9939811,-89.35546875,-67.87109375,66.89453125,-52.734375,0.0
1734422680.9978874,-140.13671875,-72.265625,-139.6484375,-66.89453125,0.0
1734422681.0017934,-40.52734375,-69.3359375,-145.99609375,-75.68359375,0.0
1734422681.0056996,6.34765625,-57.6171875,109.375,-71.2890625,0.0
1734422681.0096056,1.953125,-54.19921875,111.328125,-60.05859375,0.0
1734422681.013512,-82.03125,-70.3125,-147.4609375,-58.10546875,0.0
1734422681.017418,-149.90234375,-72.75390625,-203.61328125,-69.3359375,0.0
1734422681.0213242,-39.55078125,-64.453125,39.0625,-52.734375,0.0
1734422681.025232,13.671875,-67.3828125,106.4453125,-39.0625,0.0
1734422681.0291383,-7.32421875,-65.4296875,77.63671875,-53.7109375,0.0
1734422681.0330443,-80.56640625,-62.5,73.73046875,-72.75390625,0.0
1734422681.0369506,-151.3671875,-63.96484375,70.3125,-76.171875,0.0
1734422681.0408566,-46.38671875,-71.77734375,17.578125,-48.33984375,0.0
1734422681.0447628,25.87890625,-79.1015625,-136.23046875,-33.69140625,0.0
1734422681.0486689,12.6953125,-71.2890625,-54.19921875,-41.50390625,0.0
1734422681.052575,-62.5,-66.89453125,-34.66796875,-54.19921875,0.0
1734422681.0564811,-145.5078125,-76.66015625,-315.91796875,-63.4765625,0.0
1734422681.0603874,-51.7578125,-78.125,-279.78515625,-46.875,0.0
1734422681.0642934,7.8125,-58.10546875,110.83984375,-49.31640625,0.0
1734422681.0681996,-15.625,-56.15234375,137.20703125,-52.734375,0.0
1734422681.0721073,-49.31640625,-67.87109375,0.0,-49.31640625,0.0
1734422681.0760136,-139.16015625,-72.265625,0.0,-58.59375,0.0
1734422681.0799198,-88.37890625,-65.4296875,0.0,-71.2890625,0.0
1734422681.0838258,13.18359375,-58.59375,0.0,-64.94140625,0.0
1734422681.087732,14.6484375,-62.5,0.0,-52.24609375,0.0
1734422681.091638,-37.109375,-70.3125,0.0,-59.08203125,0.0
1734422681.0955443,-143.5546875,-61.03515625,0.0,-77.63671875,0.0
1734422681.0994503,-107.421875,-49.8046875,0.0,-78.61328125,0.0
1734422681.1033566,14.6484375,-61.5234375,0.0,-54.6875,0.0
1734422681.1072626,15.625,-62.01171875,0.0,-50.29296875,0.0
1734422681.1111689,-33.69140625,-52.24609375,0.0,-61.5234375,0.0
1734422681.1150749,-126.46484375,-61.03515625,0.0,-66.40625,0.0
1734422681.118983,-122.55859375,-64.94140625,-47.36328125,-69.3359375,0.0
1734422681.122889,-11.71875,-52.24609375,104.4921875,-63.4765625,0.0
1734422681.1267953,2.9296875,-48.828125,157.2265625,-54.19921875,0.0
1734422681.1307013,-22.4609375,-60.546875,39.55078125,-55.6640625,0.0
1734422681.1346076,-108.3984375,-62.01171875,-177.24609375,-61.03515625,0.0
1734422681.1385136,-122.0703125,-58.59375,-218.26171875,-64.94140625,0.0
1734422681.1424198,-9.765625,-54.19921875,-145.01953125,-61.03515625,0.0
1734422681.146326,22.4609375,-49.8046875,-208.0078125,-40.0390625,0.0
1734422681.150232,18.06640625,-51.26953125,-293.45703125,-27.34375,0.0
1734422681.1541383,-91.796875,-42.96875,-16.11328125,-52.24609375,0.0
1734422681.1580443,-132.32421875,-40.0390625,91.30859375,-54.19921875,0.0
1734422681.1619506,-15.13671875,-44.921875,-9.765625,-31.25,0.0
1734422681.165858,-2.9296875,-45.41015625,45.41015625,-36.62109375,0.0
1734422681.169764,-28.80859375,-42.96875,145.99609375,-48.33984375,0.0
1734422681.1736703,-93.75,-46.875,77.63671875,-66.89453125,0.0
1734422681.1775763,-139.16015625,-50.29296875,-69.3359375,-79.1015625,0.0
1734422681.1814826,-45.8984375,-47.8515625,-8.7890625,-64.453125,0.0
1734422681.1853886,-4.8828125,-45.8984375,57.6171875,-50.29296875,0.0
1734422681.1892948,-31.73828125,-49.8046875,61.03515625,-61.03515625,0.0
1734422681.1932008,-94.23828125,-62.98828125,-216.796875,-66.40625,0.0
1734422681.197107,-159.66796875,-57.6171875,-286.62109375,-68.359375,0.0
1734422681.201013,-81.54296875,-40.52734375,118.1640625,-71.77734375,0.0
1734422681.2049193,-18.06640625,-39.55078125,102.05078125,-52.734375,0.0
1734422681.2088253,-15.13671875,-41.50390625,56.15234375,-45.8984375,0.0
1734422681.2127326,0.0,-46.38671875,98.6328125,-52.24609375,0.0
1734422681.2166388,0.0,-52.734375,76.66015625,-63.96484375,0.0
1734422681.2205448,0.0,-54.19921875,15.13671875,-59.5703125,0.0
1734422681.224451,0.0,-49.8046875,37.59765625,-41.9921875,0.0
1734422681.228357,0.0,-45.8984375,96.19140625,-34.1796875,0.0
1734422681.2322633,0.0,-49.31640625,-3.90625,-34.66796875,0.0
1734422681.2361696,0.0,-56.640625,-237.79296875,-47.36328125,0.0
1734422681.2400756,0.0,-57.6171875,-333.984375,-44.921875,0.0
1734422681.2439818,0.0,-41.015625,41.50390625,-41.015625,0.0
1734422681.2478878,0.0,-41.015625,219.23828125,-36.1328125,0.0
1734422681.251794,0.0,-53.7109375,17.578125,-30.76171875,0.0
1734422681.2557,0.0,-57.12890625,-196.77734375,-43.45703125,0.0
1734422681.259607,-86.9140625,-50.29296875,14.16015625,-52.734375,0.0
1734422681.2635133,2.9296875,-51.26953125,178.7109375,-53.22265625,0.0
1734422681.2674193,-2.44140625,-54.6875,102.5390625,-49.31640625,0.0
1734422681.2713256,-35.15625,-54.19921875,85.9375,-52.24609375,0.0
1734422681.2752316,-124.0234375,-57.12890625,73.2421875,-66.40625,0.0
1734422681.2791378,-110.83984375,-53.22265625,-33.69140625,-62.01171875,0.0
1734422681.2830439,-4.8828125,-53.22265625,-306.640625,-39.0625,0.0
1734422681.28695,9.765625,-37.59765625,-171.875,-34.66796875,0.0
1734422681.2908561,-15.625,-15.13671875,163.57421875,-44.43359375,0.0
1734422681.2947624,-98.6328125,-22.94921875,32.71484375,-55.17578125,0.0
1734422681.2986684,-96.19140625,-25.87890625,-79.58984375,-51.7578125,0.0
1734422681.3025746,22.4609375,-17.578125,41.50390625,-44.921875,0.0
1734422681.3064814,34.66796875,-14.6484375,179.6875,-50.78125,0.0
1734422681.3103876,7.32421875,-22.94921875,97.65625,-39.55078125,0.0
1734422681.3142936,-75.1953125,-27.83203125,-122.0703125,-42.96875,0.0
1734422681.3181999,-110.3515625,-25.87890625,-39.0625,-67.3828125,0.0
1734422681.322106,-5.37109375,-22.94921875,117.67578125,-50.78125,0.0
1734422681.3260121,31.25,-21.97265625,-9.765625,-29.296875,0.0
1734422681.3299181,14.6484375,-34.1796875,-236.328125,-21.97265625,0.0
1734422681.3338244,-75.68359375,-26.85546875,-83.0078125,-38.0859375,0.0
1734422681.3377304,-124.0234375,-20.01953125,100.5859375,-62.01171875,0.0
1734422681.3416367,-6.8359375,-27.34375,-11.23046875,-56.640625,0.0
1734422681.3455427,20.01953125,-23.4375,49.8046875,-42.48046875,0.0
1734422681.349449,9.765625,-21.97265625,142.578125,-38.0859375,0.0
1734422681.353357,-47.36328125,-32.71484375,75.68359375,-53.7109375,0.0
1734422681.357263,-135.7421875,-40.52734375,-54.19921875,-83.984375,0.0
1734422681.3611693,-41.9921875,-34.1796875,-0.48828125,-70.80078125,0.0
1734422681.3650753,21.484375,-29.296875,143.06640625,-48.828125,0.0
1734422681.3689816,0.9765625,-33.203125,105.95703125,-63.4765625,0.0
1734422681.3728878,-60.546875,-47.36328125,-54.19921875,-75.68359375,0.0
1734422681.3767939,-142.08984375,-52.734375,-213.8671875,-81.54296875,0.0
1734422681.3807,-58.59375,-38.57421875,-151.3671875,-75.1953125,0.0
1734422681.3846061,22.4609375,-26.85546875,58.59375,-66.89453125,0.0
1734422681.3885124,1.46484375,-46.875,-46.38671875,-57.6171875,0.0
1734422681.3924184,-57.6171875,-58.10546875,-41.50390625,-65.91796875,0.0
1734422681.3963246,-139.16015625,-46.38671875,125.9765625,-84.47265625,0.0
1734422681.4002326,-75.1953125,-47.8515625,17.08984375,-76.171875,0.0
1734422681.4041388,11.23046875,-42.96875,13.671875,-67.3828125,0.0
1734422681.4080448,5.37109375,-37.109375,118.1640625,-71.2890625,0.0
