timestamps,TP9,AF7,AF8,TP10,Right AUX
1734422748.8150423,-17.578125,-28.80859375,166.015625,-24.4140625,0.0
1734422748.818919,-17.578125,-32.2265625,194.82421875,-27.34375,0.0
1734422748.8227959,-37.59765625,-34.1796875,197.75390625,-26.3671875,0.0
1734422748.8266726,-83.0078125,-39.55078125,118.65234375,-28.3203125,0.0
1734422748.8305492,-52.734375,-43.9453125,107.91015625,-45.41015625,0.0
1734422748.8344262,-23.92578125,-43.9453125,156.25,-41.9921875,0.0
1734422748.8383029,-34.1796875,-39.0625,146.97265625,-40.0390625,0.0
1734422748.8421795,-42.96875,-33.69140625,140.625,-50.78125,0.0
1734422748.8460565,-67.3828125,-41.50390625,-91.796875,-47.36328125,0.0
1734422748.8499331,-54.19921875,-40.52734375,-7.8125,-47.36328125,0.0
1734422748.8538098,-27.83203125,-36.1328125,263.18359375,-40.0390625,0.0
1734422748.8576868,-23.92578125,-41.9921875,174.31640625,-35.64453125,0.0
1734422748.8619592,-27.34375,-37.59765625,165.0390625,-33.203125,0.0
1734422748.8658361,-68.359375,-35.15625,179.19921875,-41.50390625,0.0
1734422748.869713,-66.40625,-40.0390625,156.25,-45.8984375,0.0
1734422748.87359,-26.85546875,-41.50390625,105.95703125,-29.78515625,0.0
1734422748.877467,-16.6015625,-40.0390625,124.51171875,-25.87890625,0.0
1734422748.8813438,-21.97265625,-39.55078125,131.34765625,-25.87890625,0.0
1734422748.8852208,-66.40625,-38.0859375,152.34375,-31.73828125,0.0
1734422748.8890977,-73.2421875,-43.9453125,-59.08203125,-42.96875,0.0
1734422748.8929746,-37.109375,-47.36328125,-235.3515625,-40.52734375,0.0
1734422748.8968515,-24.90234375,-31.25,167.96875,-36.1328125,0.0
1734422748.9007285,-21.484375,-28.3203125,241.2109375,-29.78515625,0.0
1734422748.9046054,-57.12890625,-35.15625,87.890625,-30.76171875,0.0
1734422748.9088566,-64.94140625,-36.62109375,88.8671875,-33.69140625,0.0
1734422748.9127338,-20.01953125,-37.109375,171.875,-32.2265625,0.0
1734422748.9166107,0.48828125,-38.0859375,173.828125,-23.92578125,0.0
1734422748.9204879,-4.8828125,-38.57421875,183.59375,-17.578125,0.0
1734422748.924365,-48.33984375,-39.55078125,157.2265625,-22.94921875,0.0
1734422748.928242,-71.2890625,-44.43359375,32.71484375,-32.71484375,0.0
1734422748.9321191,-31.73828125,-41.015625,67.3828125,-27.83203125,0.0
1734422748.935996,-9.27734375,-40.0390625,-78.61328125,-20.99609375,0.0
1734422748.9398732,-20.5078125,-36.1328125,-1.953125,-34.66796875,0.0
1734422748.9437504,-57.12890625,-32.2265625,231.93359375,-47.36328125,0.0
1734422748.9476273,-71.2890625,-40.0390625,62.98828125,-53.22265625,0.0
1734422748.9515045,-37.59765625,-43.45703125,-27.34375,-40.52734375,0.0
1734422748.9557307,-27.34375,-41.015625,140.625,-37.59765625,0.0
1734422748.9596078,-25.87890625,-45.41015625,238.28125,-43.9453125,0.0
1734422748.963485,-47.36328125,-51.26953125,67.87109375,-38.0859375,0.0
1734422748.9673624,-76.171875,-49.8046875,-26.85546875,-40.0390625,0.0
1734422748.9712396,-41.9921875,-47.8515625,93.26171875,-34.66796875,0.0
1734422748.9751167,-8.7890625,-49.8046875,157.71484375,-32.71484375,0.0
1734422748.978994,-7.8125,-48.828125,-15.13671875,-24.4140625,0.0
1734422748.982871,-34.1796875,-44.921875,-148.92578125,-32.71484375,0.0
1734422748.9867485,-74.21875,-42.48046875,86.42578125,-48.33984375,0.0
1734422748.9906256,-42.96875,-42.48046875,162.59765625,-29.78515625,0.0
1734422748.9945028,-15.13671875,-41.015625,144.04296875,-26.85546875,0.0
1734422748.99838,-17.578125,-40.52734375,158.203125,-20.01953125,0.0
1734422749.0025764,-35.15625,-41.015625,192.87109375,-18.5546875,0.0
1734422749.0064538,-72.265625,-46.875,128.41796875,-34.66796875,0.0
1734422749.010331,-62.01171875,-55.6640625,-10.25390625,-39.55078125,0.0
1734422749.0142083,-30.2734375,-47.8515625,85.44921875,-27.34375,0.0
1734422749.0180857,-23.4375,-38.57421875,208.0078125,-7.32421875,0.0
1734422749.021963,-27.83203125,-40.52734375,149.4140625,-24.90234375,0.0
1734422749.0258403,-57.12890625,-50.29296875,-189.94140625,-29.296875,0.0
1734422749.0297177,-64.94140625,-52.24609375,-238.76953125,-24.90234375,0.0
1734422749.033595,-29.78515625,-42.96875,167.48046875,-41.50390625,0.0
1734422749.0374722,-18.06640625,-50.78125,189.453125,-34.1796875,0.0
1734422749.0413496,-34.66796875,-60.546875,145.5078125,-25.390625,0.0
1734422749.045227,-83.0078125,-53.7109375,147.94921875,-34.66796875,0.0
1734422749.0494092,-81.54296875,-46.875,124.51171875,-33.69140625,0.0
1734422749.0532866,-33.203125,-47.8515625,94.23828125,-30.76171875,0.0
1734422749.057164,-21.97265625,-44.921875,134.27734375,-29.296875,0.0
1734422749.0610414,-32.2265625,-41.015625,202.63671875,-33.69140625,0.0
1734422749.0649188,-61.5234375,-46.38671875,166.9921875,-37.59765625,0.0
1734422749.0687964,-67.3828125,-55.6640625,-77.63671875,-34.66796875,0.0
1734422749.0726738,-40.0390625,-59.5703125,-156.25,-39.55078125,0.0
1734422749.0765512,-25.87890625,-46.38671875,156.25,-45.8984375,0.0
1734422749.0804286,-22.4609375,-41.9921875,213.37890625,-45.8984375,0.0
1734422749.0843062,-58.59375,-53.7109375,44.43359375,-41.015625,0.0
1734422749.0881836,-82.51953125,-57.6171875,37.109375,-39.55078125,0.0
1734422749.092061,-42.96875,-48.828125,181.15234375,-44.43359375,0.0
1734422749.096421,0.0,-52.24609375,186.03515625,-33.203125,0.0
1734422749.1002986,0.0,-53.22265625,182.6171875,-21.97265625,0.0
1734422749.1041763,0.0,-45.8984375,145.5078125,-34.1796875,0.0
1734422749.108054,0.0,-48.33984375,112.79296875,-43.45703125,0.0
1734422749.1119316,0.0,-54.19921875,102.5390625,-36.1328125,0.0
1734422749.1158092,0.0,-57.12890625,44.43359375,-30.76171875,0.0
1734422749.1196868,0.0,-56.15234375,56.640625,-30.76171875,0.0
1734422749.1235645,0.0,-61.5234375,115.234375,-37.59765625,0.0
1734422749.1274421,0.0,-65.91796875,71.77734375,-49.31640625,0.0
1734422749.1313198,0.0,-66.40625,-93.75,-44.43359375,0.0
1734422749.1351974,0.0,-54.6875,72.75390625,-38.57421875,0.0
1734422749.139075,0.0,-45.41015625,226.5625,-38.57421875,0.0
1734422749.1434054,-43.9453125,-53.22265625,89.35546875,-48.828125,0.0
1734422749.1472833,-77.1484375,-58.10546875,26.85546875,-62.5,0.0
1734422749.151161,-50.29296875,-51.7578125,120.60546875,-49.31640625,0.0
1734422749.1550388,-18.5546875,-50.78125,187.98828125,-39.0625,0.0
1734422749.1589167,-22.94921875,-50.29296875,101.5625,-32.71484375,0.0
1734422749.1627946,-36.1328125,-50.78125,0.9765625,-16.6015625,0.0
1734422749.1666722,-70.3125,-62.5,22.94921875,-29.296875,0.0
1734422749.17055,-62.01171875,-58.10546875,155.2734375,-31.25,0.0
1734422749.174428,-28.3203125,-49.31640625,-39.55078125,-21.484375,0.0
1734422749.1783059,-23.4375,-55.6640625,-138.18359375,-28.3203125,0.0
1734422749.1821835,-41.50390625,-40.52734375,190.91796875,-31.25,0.0
1734422749.1860614,-72.75390625,-30.76171875,122.0703125,-38.57421875,0.0
1734422749.1903577,-67.87109375,-31.73828125,-37.109375,-55.6640625,0.0
1734422749.1942358,-33.69140625,-29.296875,65.4296875,-56.15234375,0.0
1734422749.1981137,-24.90234375,-25.87890625,203.61328125,-44.43359375,0.0
1734422749.2019918,-29.296875,-21.484375,158.69140625,-36.62109375,0.0
1734422749.2058697,-59.08203125,-25.87890625,-18.5546875,-37.109375,0.0
1734422749.2097476,-55.6640625,-27.34375,-109.375,-34.1796875,0.0
1734422749.2136257,-16.11328125,-24.4140625,42.96875,-31.25,0.0
1734422749.2175035,-17.08984375,-28.80859375,127.9296875,-41.9921875,0.0
1734422749.2213817,-19.04296875,-33.69140625,-80.078125,-42.96875,0.0
1734422749.2252595,-52.24609375,-22.4609375,-40.0390625,-41.015625,0.0
1734422749.2291374,-76.66015625,-19.04296875,157.2265625,-52.24609375,0.0
1734422749.2330155,-33.203125,-27.83203125,97.16796875,-44.43359375,0.0
1734422749.2372823,-13.671875,-20.99609375,126.953125,-39.0625,0.0
1734422749.2411604,-35.15625,-18.06640625,177.734375,-37.109375,0.0
1734422749.2450385,-62.01171875,-24.4140625,158.203125,-25.87890625,0.0
1734422749.2489166,-68.84765625,-32.2265625,-3.41796875,-29.78515625,0.0
1734422749.2527947,-33.69140625,-36.62109375,-49.8046875,-39.0625,0.0
1734422749.2566729,-11.71875,-31.73828125,79.58984375,-32.2265625,0.0
1734422749.260551,-17.08984375,-22.4609375,209.47265625,-24.90234375,0.0
1734422749.264429,-41.50390625,-36.62109375,-32.71484375,-22.94921875,0.0
1734422749.2683072,-64.94140625,-46.38671875,-299.8046875,-30.2734375,0.0
1734422749.2721853,-36.1328125,-24.90234375,96.19140625,-41.50390625,0.0
1734422749.2760634,-14.6484375,-22.94921875,198.73046875,-41.50390625,0.0
1734422749.2799416,-21.484375,-28.3203125,166.015625,-36.62109375,0.0
1734422749.2841816,-46.875,-30.76171875,147.4609375,-53.22265625,0.0
1734422749.28806,-79.1015625,-32.71484375,118.1640625,-69.3359375,0.0
1734422749.2919383,-38.57421875,-30.2734375,108.88671875,-53.7109375,0.0
1734422749.2958164,-8.30078125,-33.203125,136.23046875,-32.71484375,0.0
1734422749.2996948,-21.484375,-35.64453125,167.48046875,-24.4140625,0.0
1734422749.303573,-39.55078125,-43.45703125,61.03515625,-35.15625,0.0
1734422749.3074512,-71.77734375,-46.875,-36.1328125,-47.8515625,0.0
1734422749.3113296,-48.828125,-51.7578125,-241.69921875,-43.45703125,0.0
1734422749.3152077,-27.83203125,-48.33984375,-91.796875,-40.52734375,0.0
1734422749.319086,-36.62109375,-37.109375,227.5390625,-44.921875,0.0
1734422749.3229644,-43.45703125,-42.96875,117.67578125,-45.8984375,0.0
1734422749.3268425,-79.1015625,-48.33984375,40.52734375,-44.43359375,0.0
1734422749.331049,-58.59375,-39.0625,121.58203125,-50.78125,0.0
1734422749.3349273,-15.13671875,-38.57421875,185.05859375,-52.24609375,0.0
1734422749.3388057,-14.16015625,-47.36328125,131.34765625,-34.66796875,0.0
1734422749.342684,-23.4375,-44.43359375,95.21484375,-28.3203125,0.0
1734422749.3465624,-64.453125,-34.66796875,122.55859375,-40.0390625,0.0
1734422749.350441,-63.4765625,-35.15625,78.61328125,-41.015625,0.0
1734422749.3543193,-26.3671875,-48.828125,-63.96484375,-40.0390625,0.0
1734422749.3581977,-27.34375,-52.734375,-61.03515625,-37.109375,0.0
1734422749.362076,-39.55078125,-40.52734375,193.359375,-39.0625,0.0
1734422749.3659544,-76.66015625,-42.48046875,121.58203125,-49.31640625,0.0
1734422749.3698328,-67.87109375,-47.8515625,-59.08203125,-44.921875,0.0
1734422749.3737113,-22.94921875,-46.38671875,65.4296875,-36.62109375,0.0
1734422749.3778954,-12.6953125,-40.52734375,199.70703125,-36.1328125,0.0
1734422749.3817737,-26.85546875,-39.0625,168.45703125,-32.71484375,0.0
1734422749.3856523,-72.265625,-47.8515625,2.9296875,-42.48046875,0.0
1734422749.3895307,-72.75390625,-44.921875,17.578125,-57.6171875,0.0
1734422749.3934093,-25.390625,-34.66796875,131.8359375,-47.36328125,0.0
1734422749.3972878,-16.11328125,-34.66796875,100.09765625,-32.2265625,0.0
1734422749.4011662,-17.578125,-45.8984375,-144.53125,-23.92578125,0.0
1734422749.4050448,-48.33984375,-47.8515625,-162.59765625,-35.15625,0.0
1734422749.4089234,-67.87109375,-36.62109375,134.27734375,-49.8046875,0.0
1734422749.4128017,-28.3203125,-39.55078125,119.140625,-39.0625,0.0
1734422749.4166803,-17.578125,-42.96875,130.859375,-33.203125,0.0
1734422749.420559,-19.04296875,-39.55078125,201.66015625,-31.25,0.0
1734422749.4249237,-46.38671875,-46.38671875,184.5703125,-24.90234375,0.0
1734422749.4288023,-79.1015625,-56.15234375,-16.6015625,-41.50390625,0.0
1734422749.432681,-40.52734375,-51.26953125,-33.203125,-53.7109375,0.0
1734422749.4365597,-16.6015625,-46.875,182.12890625,-46.38671875,0.0
1734422749.4404383,-29.296875,-45.8984375,225.09765625,-41.9921875,0.0
1734422749.444317,-49.8046875,-49.8046875,-62.98828125,-40.0390625,0.0
1734422749.4481957,-76.171875,-59.5703125,-162.109375,-45.41015625,0.0
1734422749.4520745,-58.10546875,-57.12890625,155.2734375,-53.7109375,0.0
1734422749.4559531,-24.90234375,-50.29296875,189.453125,-38.0859375,0.0
1734422749.4598317,-22.94921875,-44.921875,84.9609375,-23.92578125,0.0
1734422749.4637105,-47.36328125,-42.96875,60.546875,-37.59765625,0.0
1734422749.4675891,-79.58984375,-42.96875,124.0234375,-52.734375,0.0
1734422749.4719098,0.0,-43.45703125,112.79296875,-51.7578125,0.0
1734422749.4757886,0.0,-43.45703125,152.83203125,-39.55078125,0.0
1734422749.4796677,0.0,-47.36328125,184.08203125,-37.59765625,0.0
1734422749.4835465,0.0,-46.875,145.99609375,-32.71484375,0.0
1734422749.4874253,0.0,-53.7109375,60.546875,-27.83203125,0.0
1734422749.4913042,0.0,-67.3828125,-82.51953125,-35.64453125,0.0
1734422749.495183,0.0,-60.05859375,-7.32421875,-27.83203125,0.0
1734422749.4990618,0.0,-48.828125,101.07421875,-23.4375,0.0
1734422749.5029407,0.0,-47.36328125,75.68359375,-27.34375,0.0
1734422749.5068195,0.0,-48.828125,-137.6953125,-20.01953125,0.0
1734422749.5106983,0.0,-46.875,-65.4296875,-25.87890625,0.0
1734422749.5145772,0.0,-41.015625,198.2421875,-32.71484375,0.0
1734422749.5188818,-14.6484375,-41.9921875,135.7421875,-25.390625,0.0
1734422749.5227609,-29.296875,-45.41015625,111.328125,-24.90234375,0.0
1734422749.52664,-68.84765625,-45.8984375,135.7421875,-39.55078125,0.0
1734422749.530519,-67.87109375,-45.41015625,141.11328125,-49.31640625,0.0
1734422749.5343978,-33.69140625,-45.8984375,87.890625,-46.875,0.0
1734422749.538277,-26.85546875,-45.8984375,28.80859375,-46.38671875,0.0
1734422749.542156,-30.76171875,-45.8984375,97.16796875,-43.9453125,0.0
1734422749.546035,-73.73046875,-49.31640625,117.67578125,-48.33984375,0.0
1734422749.549914,-87.40234375,-52.734375,-162.59765625,-45.8984375,0.0
1734422749.553793,-42.96875,-51.7578125,-167.96875,-31.25,0.0
1734422749.557672,-30.2734375,-44.921875,202.63671875,-35.15625,0.0
1734422749.561551,-27.34375,-48.828125,184.08203125,-36.1328125,0.0
1734422749.5658185,-52.24609375,-53.7109375,-13.671875,-31.73828125,0.0
1734422749.5696976,-72.265625,-52.734375,-8.30078125,-41.9921875,0.0
1734422749.573577,-30.76171875,-52.24609375,146.97265625,-42.96875,0.0
1734422749.577456,-4.8828125,-51.7578125,125.48828125,-35.15625,0.0
1734422749.581335,-14.16015625,-53.7109375,81.54296875,-33.69140625,0.0
1734422749.5852144,-43.9453125,-58.10546875,22.94921875,-35.64453125,0.0
1734422749.5890934,-74.70703125,-59.08203125,-48.828125,-42.96875,0.0
1734422749.5929725,-47.8515625,-59.08203125,22.94921875,-44.43359375,0.0
1734422749.5968518,-14.6484375,-60.546875,-104.4921875,-42.48046875,0.0
1734422749.600731,-28.80859375,-51.7578125,-6.34765625,-46.38671875,0.0
1734422749.6046102,-62.01171875,-46.38671875,190.91796875,-49.31640625,0.0
1734422749.6084893,-86.9140625,-52.24609375,-75.68359375,-48.33984375,0.0
1734422749.6127589,0.0,-48.828125,0.0,0.0,0.0
1734422749.6166382,0.0,-45.41015625,0.0,0.0,0.0
1734422749.6205175,0.0,-46.38671875,0.0,0.0,0.0
1734422749.6243968,0.0,-52.24609375,0.0,0.0,0.0
1734422749.628276,0.0,-58.59375,0.0,0.0,0.0
1734422749.6321552,0.0,-60.05859375,0.0,0.0,0.0
1734422749.6360345,0.0,-51.7578125,0.0,0.0,0.0
1734422749.6399138,0.0,-53.22265625,0.0,0.0,0.0
1734422749.643793,0.0,-58.10546875,0.0,0.0,0.0
1734422749.6476724,0.0,-46.38671875,0.0,0.0,0.0
1734422749.6515517,0.0,-43.9453125,0.0,0.0,0.0
1734422749.655431,0.0,-53.7109375,0.0,0.0,0.0
1734422749.6596494,-3.90625,-57.12890625,115.234375,-18.5546875,0.0
1734422749.6635287,-30.76171875,-50.29296875,168.9453125,-33.203125,0.0
1734422749.6674082,-62.98828125,-53.7109375,-15.13671875,-40.0390625,0.0
1734422749.6712875,-73.73046875,-56.15234375,-153.3203125,-44.921875,0.0
1734422749.675167,-42.48046875,-49.31640625,29.296875,-47.36328125,0.0
1734422749.6790464,-24.4140625,-48.828125,103.515625,-41.9921875,0.0
1734422749.682926,-34.66796875,-53.7109375,68.84765625,-39.55078125,0.0
1734422749.6868052,-75.1953125,-56.15234375,-193.359375,-41.50390625,0.0
1734422749.6906848,-68.84765625,-48.828125,-147.94921875,-45.8984375,0.0
1734422749.694564,-23.92578125,-41.9921875,170.41015625,-45.8984375,0.0
1734422749.6984437,-8.30078125,-49.8046875,110.83984375,-33.69140625,0.0
1734422749.702323,3.90625,-58.10546875,94.7265625,-12.6953125,0.0
1734422749.706513,-31.25,-54.6875,104.98046875,-27.34375,0.0
1734422749.7103925,-66.89453125,-44.43359375,100.09765625,-73.2421875,0.0
1734422749.714272,-36.62109375,-42.96875,46.38671875,-66.89453125,0.0
1734422749.7181516,-20.99609375,-45.41015625,66.40625,-36.1328125,0.0
1734422749.722031,-27.34375,-38.57421875,151.85546875,-35.15625,0.0
1734422749.7259107,-64.453125,-40.52734375,45.8984375,-62.5,0.0
1734422749.72979,-97.16796875,-47.36328125,-247.0703125,-83.984375,0.0
1734422749.7336695,-47.8515625,-48.33984375,-166.50390625,-68.84765625,0.0
1734422749.737549,-22.94921875,-44.43359375,169.43359375,-53.7109375,0.0
1734422749.7414286,-43.9453125,-44.921875,208.49609375,-51.26953125,0.0
1734422749.7453082,-70.80078125,-54.6875,-114.2578125,-48.33984375,0.0
1734422749.7491877,-93.26171875,-53.7109375,-250.9765625,-49.8046875,0.0
1734422749.7533538,-58.10546875,-41.9921875,134.765625,-55.6640625,0.0
1734422749.7572336,-30.2734375,-40.52734375,158.203125,-51.7578125,0.0
1734422749.7611132,-25.390625,-42.96875,70.3125,-45.8984375,0.0
1734422749.7649927,-51.7578125,-44.43359375,85.9375,-46.875,0.0
1734422749.7688725,-80.56640625,-51.26953125,39.0625,-53.22265625,0.0
1734422749.772752,-48.828125,-56.640625,-106.93359375,-55.17578125,0.0
1734422749.7766318,-22.4609375,-55.17578125,-299.31640625,-40.52734375,0.0
1734422749.7805114,-18.5546875,-50.78125,-125.9765625,-34.1796875,0.0
1734422749.7843912,-47.36328125,-50.29296875,96.19140625,-55.17578125,0.0
1734422749.7882707,-90.33203125,-52.734375,-165.52734375,-62.98828125,0.0
1734422749.7921503,-60.546875,-49.31640625,-99.609375,-51.7578125,0.0
1734422749.79603,-26.85546875,-38.57421875,137.20703125,-40.0390625,0.0
1734422749.8001719,-26.85546875,-33.69140625,166.015625,-38.0859375,0.0
1734422749.8040516,-34.1796875,-38.57421875,26.3671875,-41.50390625,0.0
1734422749.8079314,-74.70703125,-41.9921875,-185.05859375,-42.96875,0.0
1734422749.811811,-68.84765625,-41.9921875,-53.22265625,-54.19921875,0.0
1734422749.8156908,-17.08984375,-53.22265625,149.4140625,-51.26953125,0.0
1734422749.8195705,-3.41796875,-57.12890625,-72.75390625,-32.71484375,0.0
1734422749.8234503,-17.08984375,-42.96875,-157.2265625,-34.1796875,0.0
1734422749.82733,-61.5234375,-36.62109375,94.23828125,-50.29296875,0.0
1734422749.83121,-64.453125,-40.0390625,102.5390625,-46.38671875,0.0
1734422749.8350894,-23.4375,-43.45703125,-9.27734375,-40.52734375,0.0
1734422749.8389692,-18.06640625,-42.48046875,23.4375,-48.828125,0.0
1734422749.842849,-22.4609375,-46.38671875,146.97265625,-45.8984375,0.0
1734422749.8471687,0.0,-51.7578125,-59.5703125,-31.73828125,0.0
1734422749.8510485,0.0,-41.9921875,-197.265625,-33.203125,0.0
1734422749.8549285,0.0,-35.64453125,16.6015625,-34.1796875,0.0
1734422749.8588083,0.0,-37.59765625,152.34375,-32.2265625,0.0
1734422749.8626883,0.0,-44.921875,97.16796875,-37.59765625,0.0
1734422749.866568,0.0,-54.6875,-104.4921875,-44.921875,0.0
1734422749.870448,0.0,-56.640625,-242.67578125,-58.10546875,0.0
1734422749.874328,0.0,-49.8046875,-104.98046875,-55.6640625,0.0
1734422749.878208,0.0,-45.41015625,66.89453125,-50.78125,0.0
1734422749.8820877,0.0,-46.875,-80.56640625,-48.33984375,0.0
1734422749.8859677,0.0,-40.0390625,-30.76171875,-55.17578125,0.0
1734422749.8898475,0.0,-39.55078125,115.234375,-55.6640625,0.0
1734422749.8941407,-33.69140625,-43.45703125,4.39453125,-44.921875,0.0
1734422749.8980207,-19.04296875,-41.50390625,3.90625,-40.0390625,0.0
1734422749.9019008,-27.34375,-39.55078125,153.80859375,-33.69140625,0.0
1734422749.905781,-51.7578125,-38.57421875,56.15234375,-34.1796875,0.0
1734422749.909661,-74.70703125,-40.0390625,-153.3203125,-40.52734375,0.0
1734422749.913541,-43.45703125,-40.52734375,-240.234375,-37.59765625,0.0
1734422749.917421,-28.3203125,-39.55078125,-31.25,-39.55078125,0.0
1734422749.9213011,-28.80859375,-35.64453125,201.66015625,-46.875,0.0
1734422749.9251812,-53.7109375,-39.0625,-98.6328125,-46.38671875,0.0
1734422749.9290612,-87.40234375,-47.8515625,-348.6328125,-46.875,0.0
1734422749.9329412,-53.7109375,-43.9453125,41.50390625,-48.33984375,0.0
1734422749.9368212,-23.92578125,-42.48046875,165.52734375,-43.9453125,0.0
1734422749.9410884,-23.4375,-43.45703125,33.203125,-37.59765625,0.0
1734422749.9449685,-39.55078125,-44.43359375,55.17578125,-42.48046875,0.0
1734422749.9488487,-87.40234375,-47.8515625,86.42578125,-55.6640625,0.0
1734422749.952729,-65.4296875,-53.22265625,34.66796875,-57.12890625,0.0
1734422749.956609,-34.66796875,-59.08203125,58.59375,-56.640625,0.0
1734422749.9604893,-42.96875,-61.03515625,60.05859375,-54.19921875,0.0
1734422749.9643695,-46.38671875,-53.22265625,40.0390625,-53.22265625,0.0
1734422749.9682496,-86.42578125,-52.734375,-84.47265625,-66.89453125,0.0
1734422749.9721298,-64.94140625,-59.5703125,-319.3359375,-59.08203125,0.0
1734422749.97601,-22.4609375,-50.29296875,-66.89453125,-46.38671875,0.0
1734422749.97989,-34.66796875,-41.9921875,211.42578125,-50.78125,0.0
1734422749.9837704,-44.43359375,-47.36328125,68.359375,-44.43359375,0.0
1734422749.988013,-71.2890625,-47.36328125,2.9296875,-42.96875,0.0
1734422749.9918933,-62.5,-46.875,88.37890625,-41.50390625,0.0
1734422749.9957736,-23.4375,-48.828125,167.48046875,-38.57421875,0.0
1734422749.999654,-13.671875,-48.33984375,65.91796875,-28.80859375,0.0
1734422750.0035343,-19.04296875,-44.921875,21.97265625,-27.83203125,0.0
1734422750.0074146,-50.78125,-44.43359375,3.90625,-45.8984375,0.0
1734422750.0112948,-59.08203125,-45.41015625,-132.32421875,-48.33984375,0.0
1734422750.0151753,-24.90234375,-45.8984375,-207.03125,-35.64453125,0.0
1734422750.0190556,-10.25390625,-40.0390625,-223.6328125,-38.0859375,0.0
1734422750.0229359,-18.5546875,-33.69140625,33.203125,-43.45703125,0.0
1734422750.0268161,-47.36328125,-37.59765625,69.3359375,-38.57421875,0.0
1734422750.0306966,-53.7109375,-42.96875,-47.36328125,-48.33984375,0.0
1734422750.0349143,-24.4140625,-43.45703125,47.8515625,-55.6640625,0.0
1734422750.0387945,-25.87890625,-41.50390625,193.359375,-50.78125,0.0
1734422750.042675,-19.04296875,-41.9921875,125.0,-43.9453125,0.0
1734422750.0465555,-55.6640625,-49.8046875,8.7890625,-34.66796875,0.0
1734422750.050436,-87.890625,-50.78125,-6.34765625,-39.0625,0.0
1734422750.0543163,-35.64453125,-44.43359375,8.7890625,-33.69140625,0.0
1734422750.0581968,-18.06640625,-48.33984375,61.03515625,-23.92578125,0.0
1734422750.0620773,-20.99609375,-45.41015625,-138.671875,-25.390625,0.0
1734422750.0659578,-46.38671875,-35.64453125,-125.0,-30.2734375,0.0
1734422750.069838,-75.1953125,-36.62109375,133.7890625,-36.1328125,0.0
1734422750.0737185,-27.83203125,-46.875,32.2265625,-31.25,0.0
1734422750.077599,-1.46484375,-55.17578125,52.734375,-17.08984375,0.0
1734422750.0818043,-23.4375,-55.6640625,113.28125,-19.04296875,0.0
1734422750.085685,-62.98828125,-52.24609375,119.140625,-41.9921875,0.0
1734422750.0895655,-96.19140625,-53.22265625,-0.9765625,-54.19921875,0.0
1734422750.093446,-52.734375,-48.828125,-44.921875,-48.828125,0.0
1734422750.0973265,-20.01953125,-43.9453125,107.91015625,-40.0390625,0.0
1734422750.1012073,-29.296875,-46.875,90.33203125,-32.2265625,0.0
1734422750.1050878,-52.734375,-51.26953125,-87.40234375,-29.296875,0.0
1734422750.1089683,-80.56640625,-49.8046875,-288.57421875,-32.2265625,0.0
1734422750.1128488,-46.875,-38.57421875,14.16015625,-38.0859375,0.0
1734422750.1167293,-13.18359375,-40.0390625,178.22265625,-32.2265625,0.0
1734422750.12061,-14.6484375,-45.8984375,109.86328125,-26.85546875,0.0
1734422750.1244905,-34.1796875,-46.875,93.75,-27.83203125,0.0
1734422750.1286433,-79.1015625,-42.96875,73.73046875,-43.45703125,0.0
1734422750.132524,-62.5,-43.45703125,59.5703125,-41.015625,0.0
1734422750.1364045,-20.01953125,-43.9453125,25.87890625,-24.4140625,0.0
1734422750.1402853,-10.7421875,-39.0625,70.3125,-18.06640625,0.0
1734422750.144166,-20.01953125,-33.203125,72.75390625,-18.06640625,0.0
1734422750.1480465,-67.87109375,-41.50390625,-74.21875,-32.71484375,0.0
1734422750.1519272,-69.3359375,-53.7109375,-337.40234375,-39.0625,0.0
1734422750.155808,-30.76171875,-41.9921875,-145.99609375,-29.78515625,0.0
1734422750.1596885,-26.85546875,-37.59765625,203.125,-31.25,0.0
1734422750.1635692,-36.1328125,-48.33984375,117.67578125,-36.1328125,0.0
1734422750.1674497,-68.359375,-49.8046875,48.33984375,-39.55078125,0.0
1734422750.1713305,-68.84765625,-44.921875,65.91796875,-39.55078125,0.0
1734422750.1754613,-30.2734375,-44.921875,132.32421875,-36.62109375,0.0
1734422750.179342,-18.5546875,-47.36328125,94.7265625,-26.85546875,0.0
1734422750.1832228,-20.5078125,-44.43359375,70.3125,-19.53125,0.0
1734422750.1871035,-61.03515625,-42.96875,102.5390625,-39.0625,0.0
1734422750.1909842,-76.171875,-48.828125,69.82421875,-53.22265625,0.0
1734422750.194865,-32.2265625,-58.59375,-121.58203125,-40.52734375,0.0
1734422750.1987457,-20.01953125,-52.24609375,-127.44140625,-28.3203125,0.0
1734422750.2026265,-29.78515625,-38.57421875,117.1875,-34.1796875,0.0
1734422750.2065072,-48.828125,-38.57421875,103.515625,-31.25,0.0
1734422750.210388,-60.546875,-42.48046875,-74.21875,-35.15625,0.0
1734422750.2142687,-29.296875,-43.45703125,-39.55078125,-40.0390625,0.0
1734422750.2181494,-11.23046875,-43.9453125,150.87890625,-29.296875,0.0
1734422750.2224393,-17.578125,-42.96875,129.8828125,-24.90234375,0.0
1734422750.2263203,-43.9453125,-41.015625,3.41796875,-25.87890625,0.0
1734422750.230201,-69.3359375,-45.41015625,-120.60546875,-35.15625,0.0
1734422750.234082,-32.71484375,-43.9453125,27.34375,-30.76171875,0.0
1734422750.2379627,-14.6484375,-41.015625,104.4921875,-22.94921875,0.0
1734422750.2418437,-14.6484375,-41.50390625,-63.4765625,-22.94921875,0.0
1734422750.2457247,-36.1328125,-40.0390625,-178.7109375,-28.80859375,0.0
1734422750.2496054,-86.9140625,-42.48046875,-147.4609375,-43.45703125,0.0
1734422750.2534864,-55.6640625,-41.9921875,-28.3203125,-46.38671875,0.0
1734422750.2573671,-16.6015625,-43.45703125,-84.9609375,-39.55078125,0.0
1734422750.261248,-18.5546875,-46.875,-22.4609375,-41.015625,0.0
1734422750.265129,-29.78515625,-46.38671875,119.62890625,-44.43359375,0.0
1734422750.2694068,-75.1953125,-51.7578125,-37.109375,-46.38671875,0.0
1734422750.2732878,-52.24609375,-52.734375,-80.56640625,-34.66796875,0.0
1734422750.2771688,-18.06640625,-47.36328125,114.74609375,-27.34375,0.0
1734422750.2810497,-27.83203125,-43.9453125,161.62109375,-21.484375,0.0
1734422750.284931,-30.76171875,-46.875,29.296875,-6.34765625,0.0
1734422750.288812,-66.89453125,-50.78125,-235.83984375,-35.15625,0.0
1734422750.292693,-57.6171875,-43.45703125,-124.0234375,-52.734375,0.0
1734422750.2965739,-15.13671875,-37.109375,170.8984375,-42.96875,0.0
1734422750.3004549,-15.625,-43.9453125,-86.42578125,-35.15625,0.0
1734422750.304336,-32.2265625,-50.78125,-270.99609375,-29.78515625,0.0
1734422750.308217,-71.77734375,-49.31640625,58.10546875,-49.31640625,0.0
1734422750.312098,-66.40625,-51.26953125,74.21875,-48.33984375,0.0
1734422750.316351,-17.578125,-53.7109375,-24.90234375,-31.73828125,0.0
1734422750.3202322,-18.06640625,-52.24609375,1.46484375,-28.3203125,0.0
1734422750.3241134,-31.25,-46.875,93.75,-23.92578125,0.0
1734422750.3279943,-57.6171875,-47.36328125,67.87109375,-37.109375,0.0
1734422750.3318756,-63.96484375,-50.78125,-89.35546875,-44.43359375,0.0
1734422750.3357568,-30.2734375,-52.734375,-197.75390625,-32.2265625,0.0
1734422750.339638,-15.625,-50.29296875,-37.109375,-36.1328125,0.0
1734422750.343519,-16.11328125,-47.36328125,116.69921875,-39.0625,0.0
1734422750.3474002,-57.12890625,-53.7109375,-185.05859375,-33.69140625,0.0
1734422750.3512814,-67.3828125,-50.78125,-182.12890625,-35.15625,0.0
1734422750.3551624,-22.94921875,-41.015625,153.3203125,-43.9453125,0.0
1734422750.3590436,-11.23046875,-41.50390625,100.5859375,-39.0625,0.0
1734422750.3632722,-16.6015625,-44.921875,80.56640625,-26.85546875,0.0
1734422750.3671534,-46.38671875,-45.8984375,92.7734375,-34.1796875,0.0
1734422750.3710346,-67.3828125,-44.43359375,57.6171875,-44.43359375,0.0
1734422750.3749158,-20.5078125,-47.36328125,-12.6953125,-44.43359375,0.0
1734422750.3787973,0.0,-45.8984375,0.48828125,-35.64453125,0.0
1734422750.3826785,-13.671875,-45.41015625,68.359375,-26.3671875,0.0
1734422750.3865597,-46.38671875,-47.8515625,0.48828125,-30.2734375,0.0
1734422750.390441,-68.359375,-50.29296875,-270.99609375,-37.109375,0.0
1734422750.3943222,-29.78515625,-47.36328125,-335.9375,-39.0625,0.0
1734422750.3982036,-9.765625,-37.59765625,80.078125,-38.57421875,0.0
1734422750.4020848,-24.90234375,-38.57421875,176.26953125,-34.66796875,0.0
1734422750.405966,-50.29296875,-42.48046875,6.34765625,-37.109375,0.0
1734422750.4101727,0.0,-46.875,-22.94921875,0.0,0.0
1734422750.414054,0.0,-47.36328125,101.5625,0.0,0.0
1734422750.4179354,0.0,-44.921875,107.91015625,0.0,0.0
1734422750.4218168,0.0,-46.38671875,107.421875,0.0,0.0
1734422750.425698,0.0,-48.828125,83.49609375,0.0,0.0
1734422750.4295795,0.0,-50.29296875,-151.3671875,0.0,0.0
1734422750.433461,0.0,-47.36328125,-207.03125,0.0,0.0
1734422750.4373422,0.0,-50.78125,-258.30078125,0.0,0.0
1734422750.4412236,0.0,-55.6640625,-182.12890625,0.0,0.0
1734422750.445105,0.0,-46.38671875,104.00390625,0.0,0.0
1734422750.4489865,0.0,-49.31640625,-1.953125,0.0,0.0
1734422750.4528677,0.0,-50.78125,-72.75390625,0.0,0.0
1734422750.4570532,-26.85546875,-44.921875,83.49609375,-37.59765625,0.0
1734422750.4609346,-30.76171875,-48.828125,165.0390625,-39.0625,0.0
1734422750.464816,-43.45703125,-55.17578125,42.96875,-45.8984375,0.0
1734422750.4686975,-74.70703125,-55.6640625,-91.796875,-44.921875,0.0
1734422750.472579,-62.5,-50.78125,6.8359375,-44.921875,0.0
1734422750.4764605,-20.99609375,-46.875,17.08984375,-44.43359375,0.0
1734422750.480342,-22.4609375,-49.31640625,-102.05078125,-51.26953125,0.0
1734422750.4842236,-32.2265625,-51.7578125,-225.09765625,-45.8984375,0.0
1734422750.488105,-64.453125,-44.43359375,6.34765625,-39.55078125,0.0
1734422750.4919865,-57.6171875,-45.41015625,87.40234375,-50.78125,0.0
1734422750.495868,-12.20703125,-45.41015625,0.0,-46.38671875,0.0
1734422750.4997494,-11.71875,-45.41015625,6.34765625,-31.25,0.0
1734422750.5039077,-15.625,-45.41015625,112.79296875,-28.80859375,0.0
1734422750.5077894,-53.22265625,-47.36328125,82.03125,-47.36328125,0.0
1734422750.5116708,-80.56640625,-52.24609375,-109.86328125,-53.22265625,0.0
1734422750.5155525,-39.55078125,-50.78125,4.8828125,-37.59765625,0.0
1734422750.5194342,-25.87890625,-52.734375,118.1640625,-28.80859375,0.0
1734422750.5233157,-30.2734375,-50.78125,59.08203125,-25.390625,0.0
1734422750.5271974,-61.03515625,-52.734375,-230.46875,-26.85546875,0.0
1734422750.5310788,-78.125,-51.7578125,-292.96875,-34.66796875,0.0
1734422750.5349605,-39.0625,-46.38671875,94.23828125,-44.43359375,0.0
1734422750.538842,-24.90234375,-50.78125,88.37890625,-38.0859375,0.0
1734422750.5427237,-28.80859375,-51.26953125,52.24609375,-34.66796875,0.0
1734422750.546605,-57.12890625,-50.29296875,92.7734375,-47.36328125,0.0
1734422750.5507262,-68.84765625,-48.828125,78.125,-58.59375,0.0
1734422750.5546079,-26.85546875,-47.36328125,20.01953125,-43.9453125,0.0
1734422750.5584896,-13.18359375,-47.36328125,-50.29296875,-29.296875,0.0
1734422750.562371,-33.203125,-46.875,77.63671875,-31.73828125,0.0
1734422750.5662527,-64.94140625,-47.8515625,141.11328125,-37.59765625,0.0
1734422750.5701344,-86.42578125,-56.15234375,-208.49609375,-42.48046875,0.0
1734422750.574016,-57.12890625,-60.546875,-296.875,-44.43359375,0.0
1734422750.5778978,-32.71484375,-53.22265625,103.02734375,-41.50390625,0.0
1734422750.5817795,-34.1796875,-47.36328125,196.77734375,-29.296875,0.0
1734422750.5856612,-48.33984375,-49.8046875,-4.8828125,-36.1328125,0.0
1734422750.5895426,-77.63671875,-50.78125,-95.703125,-51.7578125,0.0
1734422750.5934243,-44.43359375,-47.36328125,60.05859375,-50.29296875,0.0
1734422750.5977004,-12.20703125,-45.41015625,97.16796875,-38.0859375,0.0
1734422750.601582,-14.6484375,-40.52734375,30.2734375,-27.34375,0.0
1734422750.605464,-29.296875,-41.50390625,21.97265625,-25.87890625,0.0
1734422750.6093457,-68.84765625,-42.48046875,78.125,-40.52734375,0.0
1734422750.6132276,-47.8515625,-44.921875,28.80859375,-48.33984375,0.0
1734422750.6171093,-11.71875,-48.828125,-128.41796875,-35.64453125,0.0
1734422750.620991,-20.01953125,-53.22265625,-84.47265625,-30.76171875,0.0
1734422750.624873,-34.1796875,-49.31640625,38.0859375,-36.62109375,0.0
1734422750.6287546,-72.75390625,-46.38671875,-139.6484375,-44.921875,0.0
1734422750.6326365,-71.77734375,-51.26953125,-268.06640625,-42.96875,0.0
1734422750.6365182,-27.83203125,-44.43359375,5.37109375,-36.1328125,0.0
1734422750.6404002,-16.11328125,-40.52734375,185.05859375,-29.78515625,0.0
1734422750.6446462,-21.97265625,-47.36328125,36.1328125,-27.34375,0.0
1734422750.648528,-57.12890625,-46.875,-49.31640625,-35.15625,0.0
1734422750.65241,-69.82421875,-49.8046875,11.71875,-44.43359375,0.0
1734422750.656292,-37.109375,-49.8046875,78.125,-34.66796875,0.0
1734422750.660174,-33.203125,-44.921875,58.10546875,-27.83203125,0.0
1734422750.6640558,-33.203125,-46.875,-45.41015625,-35.15625,0.0
1734422750.6679375,-61.5234375,-46.38671875,-9.27734375,-45.41015625,0.0
1734422750.6718194,-85.9375,-46.875,100.5859375,-47.8515625,0.0
1734422750.6757014,-40.52734375,-48.828125,-80.078125,-38.57421875,0.0
1734422750.6795833,-20.01953125,-51.26953125,-149.4140625,-38.57421875,0.0
1734422750.6834652,-22.94921875,-45.8984375,127.9296875,-38.0859375,0.0
1734422750.6873472,-51.7578125,-41.9921875,157.2265625,-37.109375,0.0
1734422750.6915755,-76.171875,-55.6640625,-198.2421875,-36.62109375,0.0
1734422750.6954575,-34.1796875,-55.6640625,-247.55859375,-28.3203125,0.0
1734422750.6993396,-13.18359375,-42.96875,148.92578125,-31.25,0.0
1734422750.7032216,-18.5546875,-42.96875,118.65234375,-29.296875,0.0
1734422750.7071035,-47.8515625,-46.875,-16.11328125,-32.71484375,0.0
1734422750.7109857,-77.1484375,-45.41015625,-172.36328125,-41.50390625,0.0
1734422750.7148676,-44.43359375,-39.55078125,-204.1015625,-47.8515625,0.0
1734422750.7187498,-22.94921875,-40.52734375,4.8828125,-47.8515625,0.0
1734422750.7226317,-18.06640625,-44.43359375,-135.25390625,-32.2265625,0.0
1734422750.7265139,-41.9921875,-40.0390625,-142.578125,-31.73828125,0.0
1734422750.7303958,-90.8203125,-44.921875,118.65234375,-52.24609375,0.0
1734422750.7342777,-57.12890625,-54.6875,-2.44140625,-46.38671875,0.0
1734422750.738494,-19.53125,-50.29296875,-33.203125,-31.73828125,0.0
1734422750.742376,-27.83203125,-42.96875,129.8828125,-24.90234375,0.0
1734422750.7462583,-38.0859375,-40.52734375,148.4375,-23.4375,0.0
1734422750.7501404,-75.1953125,-47.36328125,3.90625,-40.52734375,0.0
1734422750.7540226,-61.03515625,-45.8984375,-80.078125,-37.109375,0.0
1734422750.7579048,-19.04296875,-46.38671875,15.13671875,-25.87890625,0.0
1734422750.761787,-27.34375,-47.8515625,99.609375,-25.390625,0.0
1734422750.765669,-36.62109375,-47.8515625,-81.0546875,-22.4609375,0.0
1734422750.7695513,-68.84765625,-50.78125,-295.41015625,-28.80859375,0.0
1734422750.7734334,-63.4765625,-39.0625,16.6015625,-39.55078125,0.0
1734422750.7773154,-22.94921875,-37.59765625,159.66796875,-31.25,0.0
1734422750.7811975,-25.87890625,-43.45703125,92.7734375,-25.390625,0.0
1734422750.78538,-36.62109375,-42.96875,97.16796875,-28.3203125,0.0
1734422750.789262,-67.3828125,-41.015625,114.74609375,-31.73828125,0.0
1734422750.7931442,-68.84765625,-44.43359375,64.94140625,-41.9921875,0.0
1734422750.7970266,-31.73828125,-51.7578125,-67.87109375,-40.52734375,0.0
1734422750.8009088,-17.578125,-48.33984375,20.5078125,-20.5078125,0.0
1734422750.804791,-20.01953125,-46.875,99.12109375,-21.97265625,0.0
1734422750.8086734,-65.4296875,-50.78125,-83.49609375,-38.57421875,0.0
1734422750.8125556,-73.2421875,-53.22265625,-363.76953125,-36.1328125,0.0
1734422750.8164377,-26.85546875,-48.33984375,-167.48046875,-40.52734375,0.0
1734422750.8203201,-25.87890625,-46.875,199.21875,-48.33984375,0.0
1734422750.8242023,-31.25,-49.31640625,102.05078125,-31.73828125,0.0
1734422750.8280845,-45.41015625,-47.8515625,12.20703125,-25.87890625,0.0
1734422750.8322377,-63.96484375,-47.8515625,32.71484375,-33.69140625,0.0
1734422750.83612,-44.43359375,-44.921875,100.09765625,-39.0625,0.0
1734422750.8400023,-32.71484375,-44.43359375,52.734375,-43.45703125,0.0
1734422750.8438847,-38.0859375,-51.7578125,14.16015625,-36.1328125,0.0
1734422750.8477669,-67.87109375,-53.7109375,21.97265625,-35.64453125,0.0
1734422750.8516493,-83.0078125,-52.734375,-148.4375,-45.41015625,0.0
1734422750.8555317,-40.52734375,-54.6875,-322.265625,-39.0625,0.0
1734422750.8594139,-8.30078125,-52.734375,-310.05859375,-26.3671875,0.0
1734422750.8632963,-19.04296875,-45.8984375,32.2265625,-27.34375,0.0
1734422750.8671787,-64.453125,-46.38671875,106.4453125,-26.3671875,0.0
1734422750.871061,-79.1015625,-51.7578125,-106.93359375,-32.2265625,0.0
1734422750.8749433,-33.203125,-50.78125,-70.3125,-22.94921875,0.0
1734422750.8790917,-17.08984375,-49.31640625,141.11328125,-22.94921875,0.0
1734422750.8829741,-24.4140625,-48.828125,135.7421875,-31.25,0.0
1734422750.8868566,-35.15625,-46.38671875,-44.921875,-20.99609375,0.0
1734422750.890739,-56.640625,-43.9453125,-84.47265625,-27.34375,0.0
1734422750.8946214,-32.71484375,-43.45703125,37.59765625,-34.66796875,0.0
1734422750.898504,-7.32421875,-47.8515625,68.359375,-34.1796875,0.0
1734422750.9023864,-12.6953125,-54.19921875,-206.0546875,-14.16015625,0.0
1734422750.9062688,-29.78515625,-47.8515625,-248.046875,-4.8828125,0.0
1734422750.9101512,-67.3828125,-41.50390625,71.2890625,-28.80859375,0.0
1734422750.9140337,-48.828125,-49.31640625,6.8359375,-26.85546875,0.0
1734422750.917916,-6.8359375,-47.8515625,-39.0625,-17.578125,0.0
1734422750.9217985,1.46484375,-45.41015625,86.42578125,-15.625,0.0
1734422750.925911,-12.20703125,-46.875,147.4609375,-21.484375,0.0
1734422750.9297936,-69.3359375,-54.19921875,-79.1015625,-32.71484375,0.0
1734422750.933676,-62.98828125,-57.12890625,-229.00390625,-38.0859375,0.0
1734422750.9375584,-16.11328125,-51.26953125,45.8984375,-33.203125,0.0
1734422750.941441,-18.06640625,-50.29296875,177.734375,-21.97265625,0.0
1734422750.9453235,-18.06640625,-56.15234375,-85.44921875,-9.27734375,0.0
1734422750.949206,-53.7109375,-56.640625,-329.1015625,-11.71875,0.0
1734422750.9530885,-61.03515625,-47.36328125,-80.56640625,-26.85546875,0.0
1734422750.956971,-22.4609375,-44.43359375,120.1171875,-30.2734375,0.0
1734422750.9608536,-20.99609375,-45.8984375,-2.44140625,-19.53125,0.0
1734422750.964736,-29.78515625,-46.38671875,9.765625,-15.625,0.0
1734422750.9686184,-66.40625,-47.36328125,108.88671875,-30.2734375,0.0
1734422750.9728928,-76.66015625,-48.828125,32.71484375,-39.55078125,0.0
1734422750.9767754,-33.69140625,-47.36328125,-42.48046875,-32.71484375,0.0
1734422750.980658,-16.11328125,-43.9453125,40.0390625,-23.4375,0.0
1734422750.9845407,-23.92578125,-45.41015625,143.06640625,-25.87890625,0.0
1734422750.9884233,-52.24609375,-46.875,50.78125,-34.66796875,0.0
1734422750.992306,-65.4296875,-50.29296875,-193.84765625,-38.57421875,0.0
1734422750.9961886,-35.15625,-53.7109375,-174.8046875,-34.1796875,0.0
1734422751.0000713,-23.4375,-49.8046875,72.265625,-29.78515625,0.0
1734422751.0039537,-19.53125,-47.8515625,69.3359375,-22.94921875,0.0
1734422751.0078363,-41.50390625,-46.875,-142.578125,-27.83203125,0.0
1734422751.011719,-72.75390625,-42.48046875,-70.80078125,-49.31640625,0.0
1734422751.0156016,-43.9453125,-39.0625,114.74609375,-53.22265625,0.0
1734422751.0198438,-17.578125,-44.43359375,60.546875,-48.33984375,0.0
1734422751.0237267,-21.97265625,-48.828125,15.625,-28.3203125,0.0
1734422751.0276093,-49.8046875,-46.38671875,74.70703125,-16.6015625,0.0
1734422751.031492,-78.125,-49.8046875,53.7109375,-30.2734375,0.0
1734422751.0353749,-43.9453125,-56.15234375,-85.44921875,-22.94921875,0.0
1734422751.0392575,-17.08984375,-61.03515625,-198.2421875,-21.97265625,0.0
1734422751.0431404,-22.4609375,-54.6875,-40.52734375,-23.4375,0.0
1734422751.047023,-48.828125,-45.41015625,125.48828125,-31.73828125,0.0
1734422751.050906,-74.70703125,-48.828125,-190.91796875,-44.43359375,0.0
1734422751.0547886,-43.45703125,-51.7578125,-389.6484375,-40.0390625,0.0
1734422751.0586712,-23.92578125,-44.43359375,62.98828125,-32.71484375,0.0
1734422751.0625541,-39.55078125,-45.8984375,171.38671875,-33.69140625,0.0
1734422751.0667815,-59.5703125,-51.7578125,-32.71484375,-44.921875,0.0
1734422751.0706644,-84.47265625,-53.22265625,-64.453125,-55.6640625,0.0
1734422751.0745473,-64.453125,-55.17578125,-27.34375,-57.6171875,0.0
1734422751.0784302,-27.83203125,-54.19921875,31.25,-42.96875,0.0
1734422751.082313,-25.390625,-52.734375,-0.9765625,-30.2734375,0.0
1734422751.086196,-57.12890625,-53.22265625,-170.41015625,-33.203125,0.0
1734422751.0900788,-92.7734375,-51.26953125,-218.26171875,-48.33984375,0.0
1734422751.0939615,-63.4765625,-49.8046875,-212.40234375,-47.8515625,0.0
1734422751.0978444,-28.3203125,-48.828125,-285.15625,-25.390625,0.0
1734422751.1017272,-36.1328125,-45.8984375,-108.3984375,-33.203125,0.0
1734422751.1056101,-44.921875,-44.43359375,158.203125,-52.734375,0.0
1734422751.109493,-83.984375,-50.78125,-14.16015625,-52.24609375,0.0
1734422751.1136963,-83.49609375,-51.26953125,-108.88671875,-51.7578125,0.0
1734422751.1175792,-36.1328125,-47.8515625,69.82421875,-42.96875,0.0
1734422751.121462,-27.34375,-46.875,134.765625,-41.50390625,0.0
1734422751.1253452,-36.62109375,-45.8984375,40.0390625,-40.52734375,0.0
1734422751.129228,-64.94140625,-47.8515625,-74.70703125,-48.828125,0.0
1734422751.133111,-67.3828125,-50.29296875,-189.453125,-54.6875,0.0
1734422751.1369941,-39.0625,-47.36328125,-136.23046875,-46.38671875,0.0
1734422751.140877,-28.80859375,-50.78125,-98.14453125,-36.1328125,0.0
1734422751.14476,-31.73828125,-53.7109375,-229.00390625,-26.85546875,0.0
1734422751.148643,-72.75390625,-47.36328125,-0.9765625,-31.25,0.0
1734422751.152526,-84.47265625,-51.26953125,68.359375,-49.8046875,0.0
1734422751.1564088,-35.64453125,-53.22265625,-74.70703125,-49.8046875,0.0
1734422751.1605783,0.0,-47.36328125,22.4609375,-41.50390625,0.0
1734422751.1644614,0.0,-48.828125,151.85546875,-40.0390625,0.0
1734422751.1683443,0.0,-54.19921875,51.7578125,-47.36328125,0.0
1734422751.1722274,0.0,-54.6875,-138.671875,-47.8515625,0.0
1734422751.1761105,0.0,-52.734375,-48.33984375,-42.48046875,0.0
1734422751.1799936,0.0,-56.15234375,38.57421875,-40.52734375,0.0
1734422751.1838765,0.0,-54.19921875,3.41796875,-43.9453125,0.0
1734422751.1877596,0.0,-51.26953125,-259.27734375,-40.0390625,0.0
1734422751.1916428,0.0,-45.8984375,-319.82421875,-49.31640625,0.0
1734422751.1955256,0.0,-40.52734375,54.19921875,-53.7109375,0.0
1734422751.1994088,0.0,-43.45703125,68.84765625,-43.45703125,0.0
1734422751.203292,0.0,-41.50390625,24.4140625,-37.109375,0.0
1734422751.2074444,-28.80859375,-42.96875,87.40234375,-38.57421875,0.0
1734422751.2113278,-62.01171875,-49.8046875,55.6640625,-49.31640625,0.0
1734422751.215211,-34.66796875,-55.17578125,-129.8828125,-44.921875,0.0
1734422751.219094,-2.9296875,-54.6875,-111.81640625,-32.71484375,0.0
1734422751.2229772,-9.27734375,-52.734375,102.5390625,-30.2734375,0.0
1734422751.2268603,-39.55078125,-55.6640625,-0.48828125,-38.57421875,0.0
1734422751.2307434,-82.51953125,-63.96484375,-342.7734375,-49.31640625,0.0
1734422751.2346265,-67.87109375,-64.453125,-404.296875,-44.43359375,0.0
1734422751.2385097,-34.1796875,-52.24609375,49.31640625,-46.875,0.0
1734422751.2423928,-36.1328125,-52.734375,156.73828125,-50.29296875,0.0
1734422751.246276,-46.38671875,-58.10546875,25.390625,-48.33984375,0.0
1734422751.250159,-73.2421875,-58.10546875,-4.39453125,-53.7109375,0.0
1734422751.2542982,-56.640625,-55.6640625,45.41015625,-53.7109375,0.0
1734422751.2581816,-29.78515625,-48.828125,85.44921875,-40.52734375,0.0
1734422751.2620647,-37.109375,-49.8046875,6.8359375,-32.2265625,0.0
1734422751.265948,-48.33984375,-48.828125,42.48046875,-38.0859375,0.0
1734422751.2698312,-77.1484375,-46.38671875,12.6953125,-46.875,0.0
1734422751.2737143,-67.87109375,-47.36328125,-170.8984375,-49.31640625,0.0
1734422751.2775977,-28.3203125,-54.19921875,-324.21875,-27.34375,0.0
1734422751.2814808,-5.37109375,-65.4296875,-243.1640625,1.46484375,0.0
1734422751.2853642,8.7890625,-63.4765625,71.77734375,20.01953125,0.0
1734422751.2892473,-23.4375,-51.7578125,14.6484375,10.7421875,0.0
1734422751.2931306,-59.08203125,-39.0625,-86.42578125,-33.69140625,0.0
1734422751.2970138,-34.66796875,-42.96875,62.98828125,-53.7109375,0.0
1734422751.301118,1.46484375,-38.57421875,147.4609375,-33.203125,0.0
1734422751.3050013,9.27734375,-19.04296875,47.36328125,-5.859375,0.0
1734422751.3088846,-39.55078125,-18.06640625,-55.6640625,-26.3671875,0.0
1734422751.3127677,-49.31640625,-17.08984375,29.296875,-41.015625,0.0
1734422751.316651,2.44140625,-9.765625,90.8203125,-27.83203125,0.0
1734422751.3205345,9.765625,-13.671875,-67.3828125,-21.484375,0.0
1734422751.3244178,7.32421875,-19.53125,-175.29296875,-9.765625,0.0
1734422751.328301,-25.87890625,-7.32421875,53.22265625,-29.78515625,0.0
1734422751.3321843,-41.015625,-6.8359375,-10.7421875,-46.38671875,0.0
1734422751.3360677,0.9765625,-10.25390625,-213.37890625,-35.64453125,0.0
1734422751.3399508,12.20703125,-5.859375,-41.50390625,-40.52734375,0.0
1734422751.3438342,3.90625,-6.8359375,145.01953125,-46.38671875,0.0
1734422751.3480954,-39.0625,-6.8359375,52.24609375,-51.7578125,0.0
1734422751.351979,-74.21875,-13.18359375,-159.1796875,-59.08203125,0.0
1734422751.3558624,-28.3203125,-13.18359375,-86.42578125,-57.12890625,0.0
1734422751.3597457,-9.765625,-10.7421875,101.5625,-57.12890625,0.0
1734422751.363629,-24.4140625,-13.18359375,76.66015625,-60.05859375,0.0
1734422751.3675125,-45.41015625,-19.04296875,-116.69921875,-63.96484375,0.0
1734422751.371396,-79.1015625,-22.4609375,-276.3671875,-78.125,0.0
1734422751.3752794,-49.8046875,-19.04296875,-179.6875,-75.1953125,0.0
1734422751.3791628,-20.5078125,-18.06640625,-0.9765625,-60.546875,0.0
1734422751.3830462,-17.08984375,-22.4609375,-95.21484375,-45.41015625,0.0
1734422751.3869298,-45.41015625,-18.06640625,-14.6484375,-45.41015625,0.0
1734422751.390813,-92.7734375,-20.01953125,69.3359375,-60.546875,0.0
1734422751.395051,-47.8515625,-23.92578125,-163.0859375,-56.640625,0.0
1734422751.3989344,-9.765625,-20.01953125,-75.1953125,-51.26953125,0.0
1734422751.402818,-25.390625,-20.5078125,129.39453125,-51.26953125,0.0
1734422751.4067016,-36.62109375,-26.3671875,121.09375,-48.828125,0.0
1734422751.4105852,-63.96484375,-35.64453125,-121.58203125,-48.33984375,0.0
1734422751.4144685,-50.78125,-38.0859375,-316.40625,-44.921875,0.0
1734422751.4183521,-10.7421875,-29.296875,-55.17578125,-36.1328125,0.0
1734422751.4222357,-10.7421875,-23.4375,176.26953125,-30.76171875,0.0
1734422751.426119,-24.90234375,-33.203125,-97.65625,-22.4609375,0.0
1734422751.4300027,-62.5,-38.0859375,-386.71875,-23.92578125,0.0
1734422751.4338863,-54.6875,-31.73828125,-87.40234375,-33.69140625,0.0
1734422751.4377697,-4.39453125,-30.2734375,83.0078125,-20.01953125,0.0
1734422751.4419858,0.0,-29.296875,-22.94921875,-10.7421875,0.0
1734422751.4458694,0.0,-28.80859375,20.01953125,-19.04296875,0.0
1734422751.449753,0.0,-29.296875,42.48046875,-30.76171875,0.0
1734422751.4536366,0.0,-32.2265625,-185.546875,-28.80859375,0.0
1734422751.4575202,0.0,-33.203125,-228.515625,-20.01953125,0.0
1734422751.461404,0.0,-32.2265625,-168.45703125,-16.11328125,0.0
1734422751.4652877,0.0,-33.203125,-158.203125,-4.39453125,0.0
1734422751.4691713,0.0,-37.59765625,-200.1953125,-9.27734375,0.0
1734422751.473055,0.0,-44.43359375,-375.0,-19.53125,0.0
1734422751.4769385,0.0,-41.015625,-207.51953125,-23.4375,0.0
1734422751.480822,0.0,-32.71484375,122.55859375,-30.2734375,0.0
1734422751.4847057,0.0,-34.66796875,35.15625,-24.4140625,0.0
1734422751.4884346,0.0,-33.203125,-148.92578125,-24.4140625,0.0
1734422751.4923182,-3.90625,-28.80859375,-169.43359375,-39.55078125,0.0
1734422751.4962018,-42.96875,-35.15625,-135.7421875,-40.52734375,0.0
1734422751.5000854,-56.640625,-40.52734375,-115.72265625,-32.71484375,0.0
1734422751.503969,-16.11328125,-39.0625,-48.33984375,-24.90234375,0.0
1734422751.5078526,-3.41796875,-39.0625,-132.32421875,-23.4375,0.0
1734422751.5117362,-14.16015625,-42.96875,-279.296875,-29.78515625,0.0
1734422751.5156198,-54.19921875,-48.828125,-346.6796875,-24.90234375,0.0
1734422751.5195034,-63.96484375,-48.33984375,-349.12109375,-21.97265625,0.0
1734422751.523387,-26.85546875,-36.1328125,29.78515625,-24.4140625,0.0
1734422751.5272706,-13.18359375,-35.64453125,68.359375,-23.4375,0.0
1734422751.5311542,-17.08984375,-42.48046875,-181.640625,-38.0859375,0.0
1734422751.5353315,-41.9921875,-41.9921875,-78.61328125,-45.41015625,0.0
1734422751.5392153,-20.01953125,-34.1796875,98.14453125,-32.71484375,0.0
1734422751.543099,-25.390625,-37.59765625,83.49609375,-23.4375,0.0
1734422751.5469825,-39.55078125,-41.50390625,-48.828125,-22.4609375,0.0
1734422751.5508664,-68.84765625,-37.109375,-219.23828125,-36.1328125,0.0
1734422751.55475,-44.921875,-41.50390625,-273.4375,-36.1328125,0.0
1734422751.5586336,-20.5078125,-44.921875,-195.3125,-30.2734375,0.0
1734422751.5625174,-12.6953125,-47.36328125,-308.10546875,-25.87890625,0.0
1734422751.566401,-31.25,-43.9453125,-217.28515625,-28.80859375,0.0
1734422751.5702846,-78.125,-43.9453125,-95.703125,-41.9921875,0.0
1734422751.5741684,-56.640625,-46.38671875,-270.01953125,-43.9453125,0.0
1734422751.578052,-20.99609375,-41.9921875,-95.703125,-37.109375,0.0
1734422751.5822055,0.0,-35.64453125,102.5390625,-26.3671875,0.0
1734422751.5860894,0.0,-30.76171875,122.55859375,-17.578125,0.0
1734422751.589973,0.0,-42.48046875,-120.60546875,-26.3671875,0.0
1734422751.5938568,0.0,-48.828125,-252.44140625,-41.50390625,0.0
1734422751.5977407,0.0,-38.57421875,21.484375,-37.109375,0.0
1734422751.6016243,0.0,-39.55078125,75.1953125,-24.4140625,0.0
1734422751.605508,0.0,-46.875,-183.10546875,-22.4609375,0.0
1734422751.609392,0.0,-50.29296875,-375.0,-33.203125,0.0
1734422751.6132755,0.0,-40.0390625,-80.56640625,-41.50390625,0.0
1734422751.6171594,0.0,-37.109375,85.9375,-35.64453125,0.0
1734422751.6210432,0.0,-43.45703125,5.859375,-32.71484375,0.0
1734422751.6249268,0.0,-41.9921875,44.921875,-29.78515625,0.0
1734422751.6290612,-58.10546875,-44.921875,8.7890625,-34.1796875,0.0
1734422751.632945,-75.68359375,-48.33984375,-211.42578125,-38.0859375,0.0
1734422751.636829,-42.96875,-46.38671875,-207.03125,-32.2265625,0.0
1734422751.6407127,-21.484375,-46.38671875,39.0625,-25.87890625,0.0
1734422751.6445966,-16.6015625,-47.36328125,83.984375,-24.90234375,0.0
1734422751.6484804,-54.19921875,-49.31640625,-136.71875,-33.203125,0.0
1734422751.6523643,-75.1953125,-58.10546875,-424.8046875,-32.2265625,0.0
1734422751.656248,-36.1328125,-55.17578125,-324.70703125,-28.3203125,0.0
1734422751.660132,-22.4609375,-42.48046875,89.84375,-41.9921875,0.0
1734422751.6640158,-14.6484375,-44.43359375,71.2890625,-39.0625,0.0
1734422751.6678996,-37.59765625,-45.8984375,-104.4921875,-33.69140625,0.0
1734422751.6717834,-74.70703125,-43.45703125,-70.3125,-39.0625,0.0
1734422751.6758857,-29.296875,-39.55078125,63.96484375,-42.96875,0.0
1734422751.6797695,-6.8359375,-41.015625,19.04296875,-39.55078125,0.0
1734422751.6836534,-20.99609375,-46.875,-5.859375,-32.2265625,0.0
1734422751.6875374,-44.43359375,-47.36328125,63.96484375,-31.73828125,0.0
1734422751.6914213,-71.2890625,-47.36328125,-116.2109375,-41.50390625,0.0
1734422751.695305,-40.52734375,-51.7578125,-340.8203125,-40.0390625,0.0
1734422751.6991892,-20.99609375,-51.26953125,-336.42578125,-30.2734375,0.0
1734422751.703073,-26.85546875,-43.9453125,62.01171875,-33.203125,0.0
1734422751.7069569,-40.0390625,-42.48046875,14.6484375,-30.76171875,0.0
1734422751.7108407,-74.21875,-37.59765625,-261.71875,-33.69140625,0.0
1734422751.7147248,-55.17578125,-34.66796875,-68.359375,-45.8984375,0.0
1734422751.7186086,-18.06640625,-39.55078125,121.58203125,-41.9921875,0.0
1734422751.7228632,-7.8125,-41.9921875,106.93359375,-33.69140625,0.0
1734422751.7267473,-18.5546875,-42.48046875,-42.48046875,-25.87890625,0.0
1734422751.7306314,-67.87109375,-40.52734375,-81.0546875,-32.2265625,0.0
1734422751.7345154,-60.05859375,-39.55078125,21.484375,-42.48046875,0.0
1734422751.7383993,-20.01953125,-42.48046875,59.5703125,-39.0625,0.0
1734422751.7422833,-22.4609375,-49.8046875,-46.875,-39.0625,0.0
1734422751.7461674,-22.4609375,-47.8515625,-189.94140625,-39.55078125,0.0
1734422751.7500515,-62.01171875,-44.43359375,-201.171875,-39.0625,0.0
1734422751.7539353,-57.12890625,-48.33984375,-228.02734375,-42.48046875,0.0
1734422751.7578194,-15.625,-48.33984375,-228.515625,-29.296875,0.0
1734422751.7617035,-24.4140625,-47.36328125,22.94921875,-27.34375,0.0
1734422751.7655876,-26.85546875,-47.36328125,160.64453125,-37.109375,0.0
1734422751.7698085,-58.59375,-51.26953125,-64.453125,-40.0390625,0.0
1734422751.7736926,-66.40625,-45.8984375,-147.94921875,-39.55078125,0.0
1734422751.7775767,-25.390625,-39.0625,56.15234375,-40.52734375,0.0
1734422751.7814608,-9.27734375,-43.9453125,132.32421875,-37.109375,0.0
1734422751.7853448,-20.5078125,-49.31640625,16.11328125,-28.80859375,0.0
1734422751.7892292,-66.89453125,-52.24609375,-215.33203125,-30.76171875,0.0
1734422751.7931132,-75.68359375,-48.33984375,-233.88671875,-34.1796875,0.0
1734422751.7969973,-33.203125,-41.015625,52.734375,-39.55078125,0.0
1734422751.8008814,-18.5546875,-43.45703125,-53.7109375,-35.15625,0.0
1734422751.8047655,-27.34375,-46.38671875,-266.6015625,-24.90234375,0.0
1734422751.8086495,-63.96484375,-41.50390625,-133.30078125,-36.1328125,0.0
1734422751.8125339,-80.078125,-44.921875,-122.55859375,-39.0625,0.0
1734422751.8167439,-30.2734375,-46.875,-52.24609375,-34.1796875,0.0
1734422751.8206282,-20.01953125,-41.9921875,47.8515625,-39.0625,0.0
1734422751.8245122,-30.2734375,-45.8984375,117.1875,-41.9921875,0.0
1734422751.8283966,-50.78125,-49.31640625,50.78125,-42.96875,0.0
1734422751.8322809,-76.66015625,-45.41015625,-149.90234375,-52.734375,0.0
1734422751.836165,-39.55078125,-44.43359375,-245.60546875,-49.8046875,0.0
1734422751.8400493,-19.53125,-41.9921875,-129.8828125,-41.015625,0.0
1734422751.8439333,-21.484375,-40.0390625,-82.51953125,-32.71484375,0.0
1734422751.8478177,-41.50390625,-48.33984375,-294.43359375,-20.01953125,0.0
1734422751.851702,-85.9375,-45.8984375,-278.3203125,-39.55078125,0.0
1734422751.855586,-58.10546875,-36.1328125,60.05859375,-49.31640625,0.0
1734422751.8594704,-20.99609375,-40.52734375,40.52734375,-36.62109375,0.0
1734422751.8636591,-21.484375,-42.48046875,-7.32421875,-42.48046875,0.0
1734422751.8675435,-35.15625,-42.96875,26.85546875,-37.109375,0.0
1734422751.8714278,-64.94140625,-44.43359375,-104.00390625,-35.15625,0.0
1734422751.875312,-44.43359375,-41.015625,-230.46875,-39.0625,0.0
1734422751.8791964,-7.8125,-39.0625,-126.46484375,-25.390625,0.0
1734422751.8830807,-4.8828125,-35.64453125,-35.64453125,-19.53125,0.0
1734422751.886965,-31.73828125,-39.55078125,-47.36328125,-39.55078125,0.0
1734422751.8908494,-69.3359375,-47.36328125,-222.16796875,-55.17578125,0.0
1734422751.8947337,-43.9453125,-47.36328125,-417.48046875,-53.7109375,0.0
1734422751.898618,-13.18359375,-38.0859375,4.39453125,-45.41015625,0.0
1734422751.9025023,-17.578125,-40.0390625,132.8125,-39.0625,0.0
1734422751.9063866,-27.83203125,-45.41015625,-55.17578125,-37.59765625,0.0
1734422751.9105542,-68.84765625,-46.875,-58.59375,-41.015625,0.0
1734422751.9144385,-66.40625,-47.36328125,58.10546875,-41.50390625,0.0
1734422751.9183228,-32.2265625,-45.41015625,-9.27734375,-32.2265625,0.0
1734422751.9222074,-25.87890625,-39.55078125,-91.796875,-31.25,0.0
1734422751.9260917,-29.78515625,-37.59765625,19.04296875,-44.921875,0.0
1734422751.9299762,-62.01171875,-45.8984375,-110.83984375,-59.08203125,0.0
1734422751.9338605,-63.4765625,-46.875,-256.8359375,-49.8046875,0.0
1734422751.9377449,-13.671875,-46.875,-355.95703125,-37.109375,0.0
1734422751.9416294,-8.7890625,-43.9453125,-208.984375,-37.109375,0.0
1734422751.9455137,-29.296875,-37.109375,140.13671875,-39.0625,0.0
1734422751.949398,-58.10546875,-41.015625,-21.484375,-41.015625,0.0
1734422751.9532826,-70.80078125,-42.96875,-200.68359375,-45.8984375,0.0
1734422751.9574242,-36.62109375,-37.59765625,-17.08984375,-36.62109375,0.0
1734422751.9613087,-24.4140625,-41.9921875,139.16015625,-27.34375,0.0
1734422751.9651933,-29.296875,-55.6640625,-9.27734375,-24.90234375,0.0
1734422751.9690776,-59.08203125,-59.08203125,-114.2578125,-24.90234375,0.0
1734422751.9729621,-79.1015625,-53.7109375,-129.39453125,-45.8984375,0.0
1734422751.9768467,-43.45703125,-51.7578125,-205.56640625,-53.7109375,0.0
1734422751.9807312,-20.01953125,-56.640625,-279.296875,-41.015625,0.0
1734422751.9846156,-29.78515625,-60.546875,-339.84375,-32.71484375,0.0
1734422751.9885,-48.828125,-53.22265625,-192.3828125,-31.73828125,0.0
1734422751.9923847,-63.4765625,-38.57421875,-91.30859375,-44.921875,0.0
1734422751.996269,-41.015625,-34.1796875,-79.1015625,-46.38671875,0.0
1734422752.0001535,-20.99609375,-38.0859375,-15.13671875,-52.24609375,0.0
1734422752.004273,-22.94921875,-45.41015625,101.5625,-50.78125,0.0
1734422752.0081575,-26.3671875,-47.36328125,37.109375,-39.55078125,0.0
1734422752.012042,-67.87109375,-39.0625,-174.31640625,-43.9453125,0.0
1734422752.0159266,-65.91796875,-42.48046875,-131.34765625,-38.0859375,0.0
1734422752.0198112,-26.3671875,-33.69140625,57.12890625,-35.64453125,0.0
1734422752.0236957,-29.296875,-28.80859375,-54.6875,-44.921875,0.0
1734422752.0275803,-51.7578125,-40.52734375,-397.94921875,-35.64453125,0.0
1734422752.0314648,-84.9609375,-43.9453125,-400.390625,-39.55078125,0.0
1734422752.0353494,-51.7578125,-34.1796875,-37.109375,-42.96875,0.0
1734422752.039234,-5.37109375,-36.62109375,20.5078125,-34.66796875,0.0
1734422752.0431185,-20.99609375,-42.48046875,-10.7421875,-35.64453125,0.0
1734422752.047003,-35.64453125,-37.59765625,-81.0546875,-25.87890625,0.0
1734422752.0510988,0.0,-37.59765625,0.0,-22.4609375,0.0
1734422752.0549834,0.0,-41.015625,0.0,-26.85546875,0.0
1734422752.0588682,0.0,-35.15625,0.0,-21.484375,0.0
1734422752.0627527,0.0,-26.3671875,0.0,2.9296875,0.0
1734422752.0666373,0.0,-32.2265625,0.0,-10.7421875,0.0
1734422752.0705218,0.0,-48.828125,0.0,-57.6171875,0.0
1734422752.0744066,0.0,-56.640625,0.0,-49.8046875,0.0
1734422752.0782912,0.0,-47.8515625,0.0,-28.80859375,0.0
1734422752.0821757,0.0,-48.33984375,0.0,-34.1796875,0.0
1734422752.0860603,0.0,-61.03515625,0.0,-43.45703125,0.0
1734422752.089945,0.0,-69.3359375,0.0,-68.359375,0.0
1734422752.0938296,0.0,-61.5234375,0.0,-77.63671875,0.0
1734422752.0980587,-82.51953125,-64.453125,-19.53125,-63.4765625,0.0
1734422752.1019435,-83.0078125,-72.75390625,-21.97265625,-67.87109375,0.0
1734422752.105828,-115.72265625,-62.98828125,-107.91015625,-82.03125,0.0
1734422752.1097128,-170.41015625,-73.73046875,-135.7421875,-109.375,0.0
1734422752.1135976,-187.01171875,-88.8671875,-219.7265625,-115.72265625,0.0
1734422752.1174822,-161.1328125,-88.37890625,-303.22265625,-123.046875,0.0
1734422752.121367,-177.24609375,-91.796875,-268.5546875,-144.53125,0.0
1734422752.1252518,-191.40625,-89.84375,-187.98828125,-152.83203125,0.0
1734422752.1291363,-230.46875,-78.61328125,-218.75,-179.19921875,0.0
1734422752.133021,-271.97265625,-88.8671875,-351.07421875,-198.73046875,0.0
1734422752.136906,-230.46875,-88.8671875,-229.00390625,-189.453125,0.0
1734422752.1407905,-199.70703125,-77.63671875,14.16015625,-202.63671875,0.0
1734422752.1450112,-203.125,-78.61328125,-74.70703125,-198.73046875,0.0
1734422752.148896,-244.140625,-81.0546875,-266.6015625,-199.21875,0.0
1734422752.1527808,-270.99609375,-76.66015625,-246.58203125,-208.984375,0.0
1734422752.1566656,-223.14453125,-74.21875,-161.1328125,-187.98828125,0.0
1734422752.1605504,-189.453125,-78.61328125,-193.359375,-167.96875,0.0
1734422752.1644354,-203.125,-85.44921875,-299.8046875,-181.640625,0.0
1734422752.1683202,-219.7265625,-83.0078125,-261.23046875,-190.4296875,0.0
1734422752.172205,-213.37890625,-75.1953125,-221.19140625,-173.828125,0.0
1734422752.1760898,-158.203125,-70.3125,-320.3125,-156.25,0.0
1734422752.1799746,-142.578125,-66.89453125,-368.65234375,-148.92578125,0.0
1734422752.1838593,-167.96875,-51.7578125,3.41796875,-158.69140625,0.0
1734422752.1877441,-182.6171875,-59.5703125,78.125,-159.66796875,0.0
1734422752.1919336,-191.40625,-70.80078125,-128.90625,-150.390625,0.0
1734422752.1958184,-128.41796875,-88.37890625,-96.6796875,-120.1171875,0.0
1734422752.1997035,-90.8203125,-99.609375,104.00390625,-113.28125,0.0
1734422752.2035882,-115.234375,-66.40625,106.4453125,-121.58203125,0.0
1734422752.2074733,-132.32421875,-54.6875,-54.19921875,-117.67578125,0.0
1734422752.211358,-148.4375,-81.0546875,-234.86328125,-119.62890625,0.0
1734422752.215243,-134.27734375,-84.9609375,-226.07421875,-119.140625,0.0
1734422752.219128,-99.12109375,-59.5703125,-96.19140625,-85.44921875,0.0
1734422752.223013,-54.6875,-68.359375,-217.7734375,-39.0625,0.0
1734422752.2268977,-57.12890625,-72.75390625,-237.79296875,-42.48046875,0.0
1734422752.2307827,-114.74609375,-51.7578125,63.4765625,-77.63671875,0.0
1734422752.2346675,-92.28515625,-58.59375,15.13671875,-59.08203125,0.0
1734422752.238843,-14.6484375,-64.94140625,0.0,-12.20703125,0.0
1734422752.242728,17.578125,-57.12890625,145.01953125,10.25390625,0.0
1734422752.246613,12.20703125,-42.48046875,162.109375,-3.90625,0.0
1734422752.250498,-42.96875,-50.78125,22.94921875,-33.69140625,0.0
1734422752.254383,-55.6640625,-59.08203125,-65.91796875,-40.52734375,0.0
1734422752.258268,-2.9296875,-52.24609375,19.04296875,-23.92578125,0.0
1734422752.262153,19.53125,-49.31640625,145.99609375,2.9296875,0.0
1734422752.266038,35.64453125,-48.33984375,6.34765625,18.5546875,0.0
1734422752.269923,15.13671875,-49.31640625,-258.7890625,17.578125,0.0
1734422752.273808,-4.8828125,-47.8515625,4.8828125,3.41796875,0.0
1734422752.277693,36.62109375,-51.7578125,149.4140625,24.4140625,0.0
1734422752.281578,67.3828125,-69.3359375,69.3359375,48.828125,0.0
1734422752.2857368,75.1953125,-71.77734375,0.0,56.640625,0.0
1734422752.2896218,36.1328125,-43.45703125,0.0,54.19921875,0.0
1734422752.293507,24.90234375,-38.57421875,0.0,43.9453125,0.0
1734422752.2973921,57.6171875,-31.73828125,0.0,47.36328125,0.0
1734422752.3012772,57.12890625,-42.48046875,0.0,50.78125,0.0
1734422752.3051622,67.87109375,-52.24609375,0.0,65.4296875,0.0
1734422752.3090472,46.38671875,-24.4140625,0.0,57.12890625,0.0
1734422752.3129325,-1.953125,-26.85546875,0.0,35.64453125,0.0
1734422752.3168175,9.765625,-32.2265625,0.0,38.0859375,0.0
1734422752.3207026,40.52734375,-23.92578125,0.0,43.9453125,0.0
1734422752.3245876,39.55078125,-36.1328125,0.0,41.50390625,0.0
1734422752.3284726,21.97265625,-32.71484375,0.0,26.85546875,0.0
1734422752.3326085,-4.8828125,-18.06640625,114.2578125,15.13671875,0.0
1734422752.3364937,18.06640625,-14.6484375,148.4375,12.20703125,0.0
1734422752.3403788,48.828125,-26.3671875,109.86328125,20.01953125,0.0
1734422752.344264,57.6171875,-40.0390625,65.4296875,31.73828125,0.0
1734422752.348149,37.109375,-33.203125,95.703125,31.73828125,0.0
1734422752.3520343,-13.671875,-25.87890625,50.78125,20.01953125,0.0
1734422752.3559194,5.37109375,-39.55078125,-72.75390625,17.578125,0.0
1734422752.3598046,28.3203125,-47.36328125,-143.06640625,21.484375,0.0
1734422752.3636897,33.69140625,-41.50390625,139.6484375,12.20703125,0.0
1734422752.367575,25.87890625,-35.64453125,218.75,4.39453125,0.0
1734422752.37146,-25.87890625,-30.76171875,4.8828125,-6.34765625,0.0
1734422752.3753452,-3.41796875,-33.203125,36.1328125,-3.41796875,0.0
1734422752.3794901,45.8984375,-32.71484375,165.0390625,16.6015625,0.0
1734422752.3833754,41.50390625,-28.3203125,156.73828125,24.90234375,0.0
1734422752.3872607,32.71484375,-25.390625,145.5078125,28.3203125,0.0
1734422752.391146,3.41796875,-25.390625,114.74609375,20.5078125,0.0
1734422752.3950312,-3.41796875,-26.85546875,71.2890625,11.71875,0.0
1734422752.3989165,28.3203125,-28.3203125,88.8671875,17.08984375,0.0
1734422752.4028015,35.64453125,-27.34375,-148.92578125,23.92578125,0.0
1734422752.4066868,19.04296875,-28.80859375,-259.27734375,16.6015625,0.0
1734422752.410572,-25.87890625,-26.85546875,59.08203125,-4.39453125,0.0
1734422752.4144573,-29.296875,-23.92578125,32.2265625,-7.32421875,0.0
1734422752.4183426,10.25390625,-23.92578125,25.87890625,-3.90625,0.0
1734422752.4222276,22.4609375,-24.90234375,155.2734375,-0.9765625,0.0
1734422752.4263265,24.4140625,-28.80859375,176.7578125,5.859375,0.0
1734422752.4302118,-11.23046875,-33.203125,22.4609375,-4.8828125,0.0
1734422752.434097,-24.90234375,-31.73828125,-79.58984375,-9.765625,0.0
1734422752.4379823,18.5546875,-32.2265625,81.0546875,-1.46484375,0.0
1734422752.4418678,36.62109375,-35.15625,147.94921875,7.32421875,0.0
1734422752.445753,27.83203125,-35.15625,-37.109375,11.71875,0.0
1734422752.4496384,-8.7890625,-38.0859375,-295.8984375,-2.44140625,0.0
1734422752.4535236,-39.55078125,-29.296875,-74.21875,-19.04296875,0.0
1734422752.457409,-4.39453125,-25.390625,119.62890625,-7.8125,0.0
1734422752.4612942,30.76171875,-31.73828125,-34.66796875,3.41796875,0.0
1734422752.4651794,24.4140625,-34.66796875,-124.51171875,-2.44140625,0.0
1734422752.4690647,-20.99609375,-33.69140625,49.31640625,-17.578125,0.0
1734422752.4732957,-50.78125,-40.52734375,38.0859375,-27.83203125,0.0
1734422752.4771812,-9.27734375,-46.875,-107.91015625,-19.53125,0.0
1734422752.4810665,22.4609375,-45.8984375,-16.6015625,-9.765625,0.0
1734422752.484952,9.765625,-45.8984375,110.3515625,-6.8359375,0.0
1734422752.4888372,-21.484375,-48.33984375,28.80859375,-7.8125,0.0
1734422752.4927227,-41.015625,-50.29296875,-213.8671875,-8.7890625,0.0
1734422752.496608,-14.16015625,-47.8515625,-274.90234375,-10.7421875,0.0
1734422752.5004935,6.8359375,-43.45703125,-154.296875,-11.71875,0.0
1734422752.5043788,9.27734375,-41.9921875,-30.76171875,-10.7421875,0.0
1734422752.5082643,-18.06640625,-47.36328125,-156.73828125,-13.671875,0.0
1734422752.5121496,-67.3828125,-43.45703125,-236.81640625,-27.83203125,0.0
1734422752.516035,-42.48046875,-41.9921875,-126.46484375,-34.66796875,0.0
1734422752.5202348,-11.71875,-53.22265625,-140.13671875,-24.90234375,0.0
1734422752.5241203,-11.71875,-52.734375,-205.56640625,-20.01953125,0.0
1734422752.5280058,-16.11328125,-41.9921875,-56.15234375,-15.13671875,0.0
1734422752.5318913,-57.6171875,-40.0390625,-34.1796875,-17.08984375,0.0
1734422752.5357769,-56.640625,-49.31640625,-250.9765625,-26.3671875,0.0
1734422752.5396621,-16.6015625,-53.22265625,-329.1015625,-22.94921875,0.0
1734422752.5435476,-7.8125,-46.875,-179.6875,-9.27734375,0.0
1734422752.5474331,-19.53125,-38.57421875,21.97265625,-7.8125,0.0
1734422752.5513186,-51.7578125,-42.48046875,-231.93359375,-19.53125,0.0
1734422752.5552042,-41.015625,-46.875,-480.95703125,-13.671875,0.0
1734422752.5590897,-13.671875,-39.55078125,-117.1875,-22.94921875,0.0
1734422752.5629752,-17.578125,-42.48046875,45.41015625,-32.2265625,0.0
1734422752.5671566,0.0,-47.8515625,0.0,-29.296875,0.0
1734422752.5710423,0.0,-48.33984375,0.0,-36.1328125,0.0
1734422752.5749278,0.0,-49.31640625,0.0,-40.52734375,0.0
1734422752.5788133,0.0,-46.875,0.0,-39.0625,0.0
1734422752.5826988,0.0,-47.36328125,0.0,-37.59765625,0.0
1734422752.5865846,0.0,-47.8515625,0.0,-34.1796875,0.0
1734422752.59047,0.0,-43.45703125,0.0,-33.203125,0.0
1734422752.5943556,0.0,-46.38671875,0.0,-41.50390625,0.0
1734422752.598241,0.0,-45.8984375,0.0,-34.1796875,0.0
1734422752.6021268,0.0,-41.015625,0.0,-22.94921875,0.0
1734422752.6060123,0.0,-45.41015625,0.0,-20.01953125,0.0
1734422752.6098979,0.0,-48.828125,0.0,-22.4609375,0.0
1734422752.6140673,-48.828125,-43.45703125,-329.1015625,-22.4609375,0.0
1734422752.617953,-21.97265625,-36.62109375,-103.515625,-29.296875,0.0
1734422752.6218386,-9.27734375,-35.64453125,102.5390625,-30.2734375,0.0
1734422752.6257243,-5.37109375,-36.1328125,20.01953125,-26.85546875,0.0
1734422752.62961,-37.109375,-40.52734375,-189.453125,-42.96875,0.0
1734422752.6334956,-62.98828125,-39.55078125,-300.29296875,-44.921875,0.0
1734422752.6373813,-31.25,-39.0625,-187.5,-37.109375,0.0
1734422752.6412668,-2.44140625,-45.41015625,-255.37109375,-34.1796875,0.0
1734422752.6451526,0.48828125,-42.48046875,-360.83984375,-22.4609375,0.0
1734422752.6490383,-33.203125,-29.296875,5.859375,-28.3203125,0.0
1734422752.6529238,-68.84765625,-30.76171875,35.64453125,-37.109375,0.0
1734422752.6568096,-43.45703125,-42.48046875,-127.9296875,-45.41015625,0.0
1734422752.6609592,-17.578125,-41.50390625,-7.32421875,-49.31640625,0.0
1734422752.664845,-16.11328125,-36.1328125,118.65234375,-38.57421875,0.0
1734422752.6687307,-33.203125,-43.45703125,67.87109375,-44.921875,0.0
1734422752.6726165,-68.84765625,-43.9453125,-111.81640625,-49.31640625,0.0
1734422752.6765022,-46.38671875,-40.52734375,-98.6328125,-41.50390625,0.0
1734422752.680388,-18.06640625,-43.45703125,-53.22265625,-40.52734375,0.0
1734422752.6842737,-22.4609375,-41.50390625,-148.92578125,-31.73828125,0.0
1734422752.6881595,-33.69140625,-48.828125,-355.46875,-16.6015625,0.0
1734422752.6920452,-67.87109375,-47.36328125,-324.21875,-32.2265625,0.0
1734422752.6959307,-61.03515625,-36.1328125,9.765625,-53.7109375,0.0
1734422752.6998165,-21.97265625,-39.0625,-4.39453125,-44.43359375,0.0
1734422752.7037022,-25.390625,-41.9921875,-42.48046875,-37.109375,0.0
1734422752.7078285,0.0,-39.0625,57.12890625,-35.15625,0.0
1734422752.7117143,0.0,-38.0859375,45.8984375,-46.875,0.0
1734422752.7156,0.0,-44.921875,-158.69140625,-46.38671875,0.0
1734422752.719486,0.0,-45.8984375,-236.328125,-26.3671875,0.0
1734422752.7233717,0.0,-40.0390625,-12.6953125,-29.296875,0.0
1734422752.7272575,0.0,-46.38671875,-62.5,-41.50390625,0.0
1734422752.7311432,0.0,-50.78125,-368.65234375,-41.9921875,0.0
1734422752.735029,0.0,-46.875,-431.640625,-36.62109375,0.0
1734422752.7389147,0.0,-34.1796875,-41.9921875,-33.203125,0.0
1734422752.7428007,0.0,-33.203125,103.02734375,-26.3671875,0.0
1734422752.7466865,0.0,-43.45703125,-34.1796875,-28.3203125,0.0
1734422752.7505722,0.0,-43.45703125,-71.2890625,-50.78125,0.0
1734422752.7546737,-65.91796875,-37.59765625,21.484375,-58.59375,0.0
1734422752.7585597,-23.92578125,-33.69140625,49.8046875,-41.9921875,0.0
1734422752.7624454,-8.30078125,-34.1796875,-91.796875,-30.76171875,0.0
1734422752.7663314,-15.625,-36.1328125,-57.12890625,-31.73828125,0.0
1734422752.7702172,-47.36328125,-43.9453125,21.484375,-35.15625,0.0
1734422752.7741032,-70.3125,-48.33984375,-182.12890625,-35.64453125,0.0
1734422752.777989,-39.0625,-50.78125,-404.296875,-22.94921875,0.0
1734422752.781875,-19.53125,-47.8515625,-253.90625,-28.80859375,0.0
1734422752.7857606,-23.4375,-41.015625,116.2109375,-39.55078125,0.0
1734422752.7896464,-47.36328125,-45.41015625,7.32421875,-35.64453125,0.0
1734422752.7935324,-84.47265625,-46.38671875,-175.29296875,-35.15625,0.0
1734422752.797418,-59.5703125,-42.96875,-73.2421875,-34.66796875,0.0
1734422752.8014996,-28.3203125,-43.9453125,86.9140625,-27.34375,0.0
1734422752.8053856,-27.83203125,-51.7578125,34.1796875,-15.625,0.0
1734422752.8092713,-41.9921875,-57.12890625,-70.80078125,-21.97265625,0.0
1734422752.8131573,-78.125,-46.38671875,-30.2734375,-48.33984375,0.0
1734422752.8170433,-56.15234375,-39.55078125,5.859375,-61.03515625,0.0
1734422752.8209293,-30.2734375,-44.43359375,-206.54296875,-55.17578125,0.0
1734422752.824815,-42.96875,-45.8984375,-341.796875,-55.6640625,0.0
1734422752.828701,-58.59375,-38.57421875,-67.3828125,-64.453125,0.0
1734422752.832587,-86.42578125,-32.2265625,83.49609375,-62.01171875,0.0
1734422752.8364727,-58.59375,-38.57421875,-162.109375,-52.24609375,0.0
1734422752.8403587,-20.5078125,-39.55078125,-150.390625,-36.62109375,0.0
1734422752.8442447,-18.06640625,-32.2265625,125.9765625,-33.203125,0.0
1734422752.8484557,-42.96875,-35.15625,77.1484375,-51.26953125,0.0
1734422752.8523417,-80.078125,-39.55078125,-120.60546875,-62.98828125,0.0
1734422752.8562276,-61.03515625,-39.0625,-127.44140625,-52.734375,0.0
1734422752.8601136,-29.296875,-35.15625,74.70703125,-39.55078125,0.0
1734422752.8639996,-29.78515625,-34.66796875,86.42578125,-42.96875,0.0
1734422752.8678856,-33.203125,-39.55078125,-102.5390625,-30.2734375,0.0
1734422752.8717716,-62.5,-38.0859375,-260.7421875,-30.2734375,0.0
1734422752.8756576,-61.5234375,-35.64453125,-214.35546875,-50.29296875,0.0
1734422752.8795435,-27.34375,-38.0859375,-43.9453125,-43.45703125,0.0
1734422752.8834298,-18.5546875,-42.96875,-104.4921875,-28.80859375,0.0
1734422752.8873158,-31.25,-41.015625,-34.1796875,-36.62109375,0.0
1734422752.8912017,-66.89453125,-49.31640625,96.6796875,-55.17578125,0.0
1734422752.8954008,-69.82421875,-51.26953125,-77.1484375,-53.22265625,0.0
1734422752.899287,-37.109375,-42.48046875,-89.84375,-47.8515625,0.0
1734422752.903173,-16.11328125,-39.55078125,110.83984375,-43.45703125,0.0
1734422752.9070592,-22.4609375,-40.52734375,142.08984375,-38.0859375,0.0
1734422752.9109452,-72.265625,-44.921875,-92.7734375,-49.31640625,0.0
1734422752.9148312,-89.35546875,-47.8515625,-350.09765625,-54.6875,0.0
1734422752.9187174,-48.33984375,-44.43359375,-135.7421875,-46.38671875,0.0
1734422752.9226034,-31.73828125,-39.0625,164.55078125,-38.57421875,0.0
1734422752.9264896,-29.78515625,-43.45703125,-41.9921875,-35.64453125,0.0
1734422752.9303756,-54.6875,-42.96875,-335.9375,-41.015625,0.0
1734422752.9342618,-83.0078125,-39.0625,-80.56640625,-55.6640625,0.0
1734422752.9381478,-50.29296875,-41.50390625,36.62109375,-41.50390625,0.0
1734422752.942325,-24.4140625,-41.015625,-59.08203125,-36.62109375,0.0
1734422752.9462113,-24.4140625,-38.57421875,29.296875,-43.9453125,0.0
1734422752.9500976,-56.15234375,-37.109375,98.6328125,-44.43359375,0.0
1734422752.9539835,-81.54296875,-43.45703125,-17.08984375,-57.12890625,0.0
1734422752.9578698,-40.0390625,-43.9453125,-157.2265625,-50.29296875,0.0
1734422752.961756,-14.16015625,-41.50390625,-187.01171875,-25.390625,0.0
1734422752.9656422,-27.34375,-38.0859375,-149.4140625,-21.97265625,0.0
1734422752.9695282,-40.0390625,-34.66796875,-142.578125,-24.90234375,0.0
1734422752.9734144,-75.1953125,-48.828125,-369.62890625,-30.2734375,0.0
1734422752.9773006,-59.08203125,-48.828125,-307.12890625,-42.96875,0.0
1734422752.9811869,-19.04296875,-36.62109375,79.1015625,-45.41015625,0.0
1734422752.985073,-9.27734375,-40.0390625,87.890625,-35.64453125,0.0
1734422752.9892344,0.0,-41.9921875,14.16015625,-35.15625,0.0
1734422752.9931207,0.0,-40.0390625,0.48828125,-36.62109375,0.0
1734422752.997007,0.0,-41.50390625,8.30078125,-37.59765625,0.0
1734422753.000893,0.0,-36.1328125,-75.1953125,-16.6015625,0.0
1734422753.0047793,0.0,-32.2265625,-74.21875,-10.7421875,0.0
1734422753.0086656,0.0,-40.0390625,-65.4296875,-41.50390625,0.0
1734422753.0125518,0.0,-44.921875,-126.46484375,-71.2890625,0.0
1734422753.016438,0.0,-45.41015625,-278.80859375,-66.89453125,0.0
1734422753.0203242,0.0,-48.33984375,-356.93359375,-49.31640625,0.0
1734422753.0242107,0.0,-39.55078125,51.7578125,-46.38671875,0.0
1734422753.028097,0.0,-35.15625,134.27734375,-36.62109375,0.0
1734422753.0319831,0.0,-41.015625,-78.61328125,-36.1328125,0.0
1734422753.036125,-65.4296875,-41.9921875,-111.328125,-47.36328125,0.0
1734422753.0400114,-29.78515625,-40.0390625,52.734375,-51.26953125,0.0
1734422753.0438976,-18.5546875,-42.48046875,88.37890625,-37.59765625,0.0
1734422753.0477839,-28.80859375,-45.8984375,3.90625,-47.8515625,0.0
1734422753.0516703,-57.12890625,-43.45703125,-43.45703125,-58.59375,0.0
1734422753.0555565,-62.5,-41.50390625,-188.4765625,-55.6640625,0.0
1734422753.059443,-31.73828125,-42.48046875,-193.359375,-56.15234375,0.0
1734422753.0633292,-20.01953125,-47.36328125,-310.05859375,-33.203125,0.0
1734422753.0672157,-29.296875,-45.41015625,-208.984375,-26.3671875,0.0
1734422753.071102,-63.96484375,-36.1328125,112.79296875,-43.9453125,0.0
1734422753.0749881,-70.3125,-39.55078125,-71.77734375,-45.41015625,0.0
1734422753.0788746,-31.25,-43.45703125,-81.0546875,-36.62109375,0.0
1734422753.082988,0.0,-43.9453125,104.4921875,-41.015625,0.0
1734422753.0868742,0.0,-44.43359375,147.94921875,-37.59765625,0.0
1734422753.0907607,0.0,-48.33984375,9.765625,-35.64453125,0.0
1734422753.0946472,0.0,-47.36328125,-218.26171875,-42.96875,0.0
1734422753.0985334,0.0,-42.96875,-90.8203125,-31.25,0.0
1734422753.1024199,0.0,-45.41015625,61.5234375,-14.6484375,0.0
1734422753.1063063,0.0,-55.6640625,-88.8671875,-30.76171875,0.0
1734422753.1101925,0.0,-59.08203125,-281.25,-38.57421875,0.0
1734422753.114079,0.0,-43.9453125,-72.75390625,-31.25,0.0
1734422753.1179655,0.0,-44.43359375,-42.48046875,-33.203125,0.0
1734422753.1218517,0.0,-46.38671875,-163.57421875,-31.25,0.0
1734422753.1257381,0.0,-41.015625,21.484375,-31.73828125,0.0
1734422753.129838,-45.8984375,-42.96875,114.74609375,-41.9921875,0.0
1734422753.1337245,-80.56640625,-45.41015625,7.32421875,-48.828125,0.0
1734422753.137611,-41.9921875,-46.38671875,-144.04296875,-37.59765625,0.0
1734422753.1414974,-7.8125,-40.0390625,-1.46484375,-24.90234375,0.0
1734422753.1453838,-14.6484375,-38.0859375,107.91015625,-26.3671875,0.0
1734422753.1492703,-41.50390625,-46.875,19.53125,-30.2734375,0.0
1734422753.1531568,-78.61328125,-58.10546875,-358.88671875,-36.62109375,0.0
1734422753.1570432,-48.33984375,-56.15234375,-347.65625,-41.015625,0.0
1734422753.1609297,-17.578125,-45.8984375,127.9296875,-33.203125,0.0
1734422753.164816,-30.76171875,-50.29296875,81.0546875,-31.25,0.0
1734422753.1687024,-45.8984375,-51.26953125,-17.08984375,-45.41015625,0.0
1734422753.1725888,-75.68359375,-47.8515625,15.13671875,-48.33984375,0.0
1734422753.1766653,-55.17578125,-48.33984375,-20.01953125,-41.015625,0.0
1734422753.1805518,-22.4609375,-49.8046875,-69.3359375,-28.80859375,0.0
1734422753.1844382,-26.3671875,-51.7578125,-88.37890625,-33.203125,0.0
1734422753.1883247,-39.0625,-51.7578125,46.38671875,-38.0859375,0.0
1734422753.1922114,-71.77734375,-52.24609375,42.48046875,-47.36328125,0.0
1734422753.1960979,-61.03515625,-51.7578125,-315.4296875,-47.36328125,0.0
1734422753.1999843,-28.80859375,-47.36328125,-339.84375,-39.0625,0.0
1734422753.2038708,-34.1796875,-45.41015625,44.43359375,-42.96875,0.0
1734422753.2077572,-37.59765625,-45.41015625,138.671875,-30.2734375,0.0
1734422753.2116437,-60.546875,-47.36328125,-133.7890625,-43.45703125,0.0
1734422753.2155302,-72.265625,-49.31640625,-273.4375,-57.12890625,0.0
1734422753.2194169,-34.66796875,-44.43359375,7.8125,-43.45703125,0.0
1734422753.223628,-15.13671875,-41.015625,103.515625,-39.0625,0.0
1734422753.2275145,-19.04296875,-43.45703125,-41.50390625,-31.73828125,0.0
1734422753.2314012,-55.6640625,-42.96875,-23.92578125,-35.64453125,0.0
1734422753.2352877,-72.265625,-45.41015625,-9.27734375,-46.875,0.0
1734422753.2391744,-40.52734375,-53.22265625,-187.98828125,-44.921875,0.0
1734422753.2430608,-28.3203125,-56.640625,-219.23828125,-50.78125,0.0
1734422753.2469475,-33.203125,-53.22265625,-208.0078125,-45.41015625,0.0
1734422753.250834,-58.10546875,-43.9453125,-137.20703125,-39.55078125,0.0
1734422753.2547207,-70.3125,-41.9921875,-71.77734375,-45.8984375,0.0
1734422753.2586071,-40.0390625,-41.50390625,-204.58984375,-37.109375,0.0
1734422753.2624938,-23.4375,-36.62109375,-21.97265625,-35.15625,0.0
1734422753.2663803,-24.4140625,-38.57421875,155.2734375,-50.29296875,0.0
1734422753.2705603,-41.50390625,-43.45703125,11.71875,-54.6875,0.0
1734422753.274447,-68.359375,-44.43359375,-186.03515625,-46.875,0.0
1734422753.2783337,-41.9921875,-39.0625,-41.9921875,-42.48046875,0.0
1734422753.2822204,-20.01953125,-41.015625,145.5078125,-33.203125,0.0
1734422753.286107,-28.80859375,-45.8984375,46.875,-25.87890625,0.0
1734422753.2899938,-46.875,-45.41015625,-197.265625,-26.85546875,0.0
1734422753.2938805,-87.890625,-45.41015625,-241.2109375,-36.62109375,0.0
1734422753.297767,-60.546875,-38.57421875,-161.62109375,-39.0625,0.0
1734422753.3016536,-24.90234375,-36.1328125,-277.83203125,-30.76171875,0.0
1734422753.3055403,-30.2734375,-38.57421875,-311.03515625,-27.83203125,0.0
1734422753.309427,-41.9921875,-32.2265625,32.2265625,-38.57421875,0.0
1734422753.3133137,-75.68359375,-38.57421875,39.55078125,-52.24609375,0.0
1734422753.3174875,-62.5,-41.9921875,-149.90234375,-50.29296875,0.0
1734422753.3213742,-26.3671875,-34.66796875,-22.4609375,-39.55078125,0.0
1734422753.3252609,-18.06640625,-32.71484375,123.046875,-35.64453125,0.0
1734422753.3291478,-42.96875,-33.69140625,75.68359375,-35.15625,0.0
1734422753.3330345,-79.58984375,-38.57421875,-155.2734375,-42.48046875,0.0
1734422753.3369212,-55.6640625,-40.0390625,-296.38671875,-37.109375,0.0
1734422753.340808,-33.69140625,-41.50390625,-191.40625,-41.015625,0.0
1734422753.3446946,-29.78515625,-39.55078125,-35.64453125,-50.29296875,0.0
1734422753.3485816,-31.25,-44.43359375,-214.35546875,-39.0625,0.0
1734422753.3524683,-73.73046875,-48.828125,-295.8984375,-43.45703125,0.0
1734422753.356355,-70.3125,-46.875,-162.59765625,-53.7109375,0.0
1734422753.3602417,-33.203125,-46.875,-221.6796875,-35.15625,0.0
1734422753.3643951,-20.5078125,-39.0625,-55.17578125,-20.5078125,0.0
1734422753.368282,-26.85546875,-34.66796875,108.88671875,-20.5078125,0.0
1734422753.3721688,-63.96484375,-36.62109375,79.58984375,-26.85546875,0.0
1734422753.3760557,-65.4296875,-45.8984375,-157.71484375,-35.64453125,0.0
1734422753.3799424,-33.203125,-50.78125,-170.41015625,-39.55078125,0.0
1734422753.3838294,-26.85546875,-44.921875,29.296875,-39.0625,0.0
1734422753.387716,-26.3671875,-40.0390625,43.45703125,-40.52734375,0.0
1734422753.391603,-56.640625,-48.828125,-223.6328125,-41.50390625,0.0
1734422753.3954897,-83.984375,-56.640625,-441.89453125,-42.48046875,0.0
1734422753.3993766,-50.78125,-41.9921875,1.46484375,-42.96875,0.0
1734422753.4032633,-35.15625,-38.57421875,161.62109375,-33.203125,0.0
1734422753.4071503,-22.94921875,-44.921875,4.8828125,-23.4375,0.0
1734422753.4112792,0.0,-41.9921875,4.8828125,-30.76171875,0.0
1734422753.415166,0.0,-44.43359375,-44.921875,-45.8984375,0.0
1734422753.4190528,0.0,-51.7578125,-201.171875,-42.96875,0.0
1734422753.4229398,0.0,-43.45703125,-144.53125,-32.71484375,0.0
1734422753.4268267,0.0,-39.55078125,31.73828125,-28.80859375,0.0
1734422753.4307134,0.0,-42.96875,-69.3359375,-26.85546875,0.0
1734422753.4346004,0.0,-43.45703125,-223.6328125,-44.43359375,0.0
1734422753.4384873,0.0,-44.921875,-361.81640625,-46.875,0.0
1734422753.4423742,0.0,-39.0625,-178.22265625,-28.3203125,0.0
1734422753.4462612,0.0,-36.62109375,180.6640625,-40.0390625,0.0
1734422753.4501479,0.0,-41.015625,27.83203125,-47.36328125,0.0
1734422753.4540348,0.0,-42.48046875,-169.921875,-46.38671875,0.0
1734422753.458146,-58.59375,-45.8984375,-54.6875,-55.6640625,0.0
1734422753.462033,-29.296875,-47.8515625,135.7421875,-51.26953125,0.0
1734422753.46592,-24.4140625,-49.8046875,54.19921875,-36.62109375,0.0
1734422753.4698071,-36.62109375,-50.78125,-10.7421875,-31.25,0.0
1734422753.473694,-69.82421875,-51.7578125,-15.13671875,-42.48046875,0.0
1734422753.477581,-53.7109375,-54.19921875,-126.46484375,-46.875,0.0
1734422753.481468,-13.671875,-53.7109375,-236.328125,-30.2734375,0.0
1734422753.485355,-17.578125,-47.8515625,-281.25,-20.01953125,0.0
1734422753.4892418,-39.55078125,-41.50390625,27.83203125,-31.25,0.0
1734422753.4931288,-73.2421875,-44.43359375,77.63671875,-44.921875,0.0
1734422753.4970157,-46.38671875,-44.43359375,-66.40625,-49.8046875,0.0
1734422753.5009027,-3.90625,-41.50390625,8.30078125,-44.921875,0.0
1734422753.5049858,-16.6015625,-40.0390625,145.01953125,-32.2265625,0.0
1734422753.5088727,-29.296875,-42.96875,129.39453125,-25.390625,0.0
1734422753.51276,-71.2890625,-50.78125,-80.56640625,-39.0625,0.0
1734422753.5166469,-76.171875,-51.26953125,-82.03125,-49.31640625,0.0
1734422753.5205338,-26.85546875,-46.875,71.2890625,-42.96875,0.0
1734422753.5244207,-16.11328125,-50.78125,42.96875,-36.1328125,0.0
1734422753.528308,-27.83203125,-55.17578125,-239.74609375,-25.390625,0.0
1734422753.5321949,-56.640625,-50.78125,-383.7890625,-30.76171875,0.0
1734422753.5360818,-57.12890625,-40.0390625,-160.15625,-40.0390625,0.0
1734422753.5399687,-19.53125,-42.96875,-19.53125,-37.109375,0.0
1734422753.543856,-21.484375,-41.50390625,62.5,-37.59765625,0.0
1734422753.5477428,-21.484375,-37.59765625,120.1171875,-29.78515625,0.0
1734422753.5518136,-49.31640625,-43.9453125,103.515625,-30.2734375,0.0
1734422753.5557005,-70.3125,-50.78125,-124.0234375,-41.50390625,0.0
1734422753.5595877,-24.4140625,-44.921875,-128.90625,-34.1796875,0.0
1734422753.5634747,-7.32421875,-37.109375,110.3515625,-20.99609375,0.0
1734422753.5673618,-14.16015625,-40.52734375,149.4140625,-21.484375,0.0
1734422753.5712488,-39.55078125,-46.38671875,-146.484375,-23.4375,0.0
1734422753.575136,-66.89453125,-51.26953125,-379.39453125,-31.73828125,0.0
1734422753.579023,-31.73828125,-51.26953125,-26.3671875,-40.52734375,0.0
1734422753.5829098,-18.06640625,-52.24609375,165.0390625,-29.78515625,0.0
1734422753.586797,-24.90234375,-51.26953125,-22.94921875,-21.97265625,0.0
1734422753.590684,-44.43359375,-49.31640625,-90.33203125,-29.296875,0.0
1734422753.594571,-73.2421875,-49.31640625,-96.6796875,-41.9921875,0.0
1734422753.5987601,-43.9453125,-49.8046875,-90.8203125,-51.7578125,0.0
1734422753.602647,-20.01953125,-49.8046875,0.9765625,-48.828125,0.0
1734422753.6065342,-16.11328125,-48.33984375,15.13671875,-37.109375,0.0
1734422753.6104214,-27.83203125,-48.828125,67.3828125,-33.203125,0.0
1734422753.6143086,-63.96484375,-48.828125,-10.7421875,-37.109375,0.0
1734422753.6181958,-51.26953125,-46.38671875,-168.45703125,-37.109375,0.0
1734422753.6220827,-21.484375,-42.48046875,-203.125,-32.2265625,0.0
1734422753.62597,-15.625,-37.109375,24.90234375,-26.85546875,0.0
1734422753.629857,-38.0859375,-43.45703125,44.43359375,-27.83203125,0.0
1734422753.6337442,-72.265625,-56.15234375,-270.01953125,-42.48046875,0.0
1734422753.6376314,-58.10546875,-44.921875,-123.53515625,-46.875,0.0
1734422753.6415184,-25.390625,-40.0390625,151.3671875,-37.59765625,0.0
1734422753.645702,-20.01953125,-56.15234375,65.4296875,-29.78515625,0.0
1734422753.649589,-25.87890625,-57.12890625,-1.953125,-13.671875,0.0
1734422753.6534765,-63.96484375,-36.62109375,-100.09765625,-23.4375,0.0
1734422753.6573637,-74.70703125,-31.25,-160.15625,-65.91796875,0.0
1734422753.6612508,-46.38671875,-35.15625,-27.34375,-88.8671875,0.0
1734422753.665138,-58.10546875,-31.73828125,-177.734375,-83.984375,0.0
1734422753.6690252,-74.21875,-22.4609375,-151.3671875,-88.37890625,0.0
1734422753.6729124,-114.2578125,-18.06640625,65.91796875,-113.76953125,0.0
1734422753.6767995,-126.46484375,-23.4375,-214.84375,-116.2109375,0.0
1734422753.680687,-86.42578125,-16.6015625,-391.11328125,-116.2109375,0.0
1734422753.6845741,-104.00390625,2.44140625,41.50390625,-134.765625,0.0
1734422753.6884613,-132.32421875,8.30078125,113.28125,-140.13671875,0.0
1734422753.6926258,-160.64453125,5.37109375,-112.3046875,-145.5078125,0.0
1734422753.696513,-171.38671875,4.39453125,-208.984375,-154.296875,0.0
1734422753.7004004,-138.671875,12.20703125,-90.8203125,-149.90234375,0.0
1734422753.7042875,-136.71875,20.01953125,65.91796875,-159.66796875,0.0
1734422753.708175,-157.71484375,17.08984375,-76.66015625,-178.22265625,0.0
1734422753.7120621,-175.78125,10.7421875,-291.9921875,-172.36328125,0.0
1734422753.7159495,-185.05859375,13.18359375,-277.34375,-184.5703125,0.0
1734422753.7198367,-162.59765625,12.20703125,-231.93359375,-187.01171875,0.0
1734422753.7237241,-145.01953125,9.765625,-343.75,-162.109375,0.0
1734422753.7276113,-146.484375,15.625,-180.6640625,-160.15625,0.0
1734422753.7314985,-172.36328125,19.04296875,77.1484375,-178.22265625,0.0
1734422753.735386,-186.03515625,16.6015625,-123.53515625,-178.7109375,0.0
1734422753.7395244,-145.5078125,20.5078125,-131.8359375,0.0,0.0
1734422753.7434115,-125.9765625,17.08984375,73.73046875,0.0,0.0
1734422753.747299,-114.74609375,15.13671875,143.5546875,0.0,0.0
1734422753.7511864,-134.27734375,17.578125,-57.12890625,0.0,0.0
1734422753.7550738,-171.875,15.625,-315.91796875,0.0,0.0
1734422753.758961,-124.0234375,15.13671875,-293.45703125,0.0,0.0
1734422753.7628484,-89.84375,18.5546875,-19.04296875,0.0,0.0
1734422753.7667358,-91.796875,10.25390625,-9.27734375,0.0,0.0
1734422753.770623,-111.81640625,-1.46484375,-315.4296875,0.0,0.0
1734422753.7745104,-149.4140625,3.90625,-240.72265625,0.0,0.0
1734422753.7783978,-128.90625,4.8828125,-44.921875,0.0,0.0
1734422753.7822852,-92.7734375,2.9296875,16.11328125,0.0,0.0
1734422753.7864132,-92.7734375,-0.48828125,31.25,-122.55859375,0.0
1734422753.7903006,-100.5859375,-2.44140625,93.26171875,-111.328125,0.0
1734422753.794188,-116.2109375,-2.44140625,-0.9765625,-110.3515625,0.0
1734422753.7980754,-104.98046875,-3.90625,-137.6953125,-116.69921875,0.0
1734422753.8019629,-77.63671875,-2.44140625,-44.921875,-118.65234375,0.0
1734422753.8058503,-65.91796875,-5.37109375,0.0,-94.7265625,0.0
1734422753.8097377,-75.1953125,-9.765625,-129.8828125,-98.14453125,0.0
1734422753.813625,-126.46484375,-13.18359375,-398.92578125,-105.46875,0.0
1734422753.8175125,-121.58203125,-12.6953125,-370.1171875,-104.00390625,0.0
1734422753.8214,-69.82421875,-12.6953125,26.3671875,-99.609375,0.0
1734422753.8252873,-53.7109375,-20.99609375,58.10546875,-71.77734375,0.0
1734422753.8291748,-71.2890625,-28.80859375,-72.75390625,-63.4765625,0.0
1734422753.8332827,-109.86328125,-34.1796875,-181.15234375,-83.49609375,0.0
1734422753.8371701,-100.09765625,-26.3671875,-100.09765625,-87.890625,0.0
1734422753.8410575,-62.5,-20.5078125,-42.96875,-80.56640625,0.0
1734422753.844945,-52.734375,-26.3671875,-29.296875,-75.68359375,0.0
1734422753.8488326,-50.78125,-27.34375,41.015625,-73.73046875,0.0
1734422753.85272,-80.56640625,-29.78515625,-170.8984375,-71.2890625,0.0
1734422753.8566074,-82.03125,-33.203125,-381.8359375,-82.03125,0.0
1734422753.8604949,-44.43359375,-38.0859375,-369.62890625,-69.82421875,0.0
1734422753.8643825,-35.15625,-31.73828125,14.6484375,-57.12890625,0.0
1734422753.86827,-42.96875,-25.390625,115.72265625,-68.359375,0.0
1734422753.8721573,-82.51953125,-35.15625,-108.88671875,-70.80078125,0.0
1734422753.8760448,-90.8203125,-44.43359375,-208.0078125,-71.2890625,0.0
1734422753.8801272,-45.41015625,-41.015625,-26.85546875,-57.12890625,0.0
1734422753.8840148,-38.0859375,-35.15625,105.95703125,-60.546875,0.0
1734422753.8879023,-37.109375,-35.15625,-27.83203125,-74.70703125,0.0
1734422753.89179,-60.05859375,-41.015625,-194.3359375,-65.91796875,0.0
1734422753.8956773,-84.47265625,-40.52734375,-245.1171875,-60.05859375,0.0
1734422753.899565,-43.45703125,-36.1328125,-194.82421875,-67.3828125,0.0
1734422753.9034524,-17.08984375,-40.52734375,-341.796875,-36.62109375,0.0
1734422753.90734,-20.99609375,-38.57421875,-255.37109375,-17.578125,0.0
1734422753.9112275,-53.22265625,-27.34375,95.21484375,-36.1328125,0.0
1734422753.915115,-68.84765625,-32.71484375,-67.87109375,-38.0859375,0.0
1734422753.9190025,-47.8515625,-40.52734375,-197.265625,-33.203125,0.0
1734422753.92289,-38.57421875,-36.1328125,6.34765625,-35.15625,0.0
1734422753.9269538,-26.85546875,-35.64453125,112.3046875,-29.78515625,0.0
1734422753.9308412,-38.0859375,-38.0859375,-35.64453125,-21.97265625,0.0
1734422753.9347289,-80.078125,-41.9921875,-187.01171875,-48.828125,0.0
1734422753.9386165,-52.734375,-48.33984375,-34.66796875,-51.7578125,0.0
1734422753.942504,-17.08984375,-48.33984375,95.703125,-37.59765625,0.0
1734422753.9463916,-24.4140625,-48.828125,-119.62890625,-41.015625,0.0
1734422753.9502792,-49.8046875,-53.22265625,-365.234375,-36.62109375,0.0
1734422753.9541667,-88.8671875,-46.38671875,-241.69921875,-43.45703125,0.0
1734422753.9580543,-64.94140625,-43.45703125,-48.828125,-50.29296875,0.0
1734422753.961942,-29.78515625,-51.7578125,-48.828125,-40.0390625,0.0
1734422753.9658294,-30.2734375,-48.33984375,-27.34375,-34.1796875,0.0
1734422753.969717,-44.43359375,-37.109375,70.80078125,-32.71484375,0.0
1734422753.9738996,-72.265625,-38.0859375,-10.7421875,-40.0390625,0.0
1734422753.9777873,-64.94140625,-43.45703125,-168.9453125,-46.875,0.0
1734422753.981675,-38.57421875,-38.57421875,-66.89453125,-58.10546875,0.0
1734422753.9855626,-35.64453125,-34.1796875,122.55859375,-59.08203125,0.0
1734422753.9894502,-35.64453125,-34.66796875,34.66796875,-31.25,0.0
1734422753.9933379,-71.2890625,-40.52734375,-207.03125,-30.2734375,0.0
1734422753.9972255,-83.49609375,-46.38671875,-277.34375,-67.87109375,0.0
1734422754.0011132,-52.24609375,-46.38671875,-161.1328125,-69.3359375,0.0
1734422754.0050008,-50.29296875,-41.015625,-8.7890625,-52.24609375,0.0
1734422754.0088885,-46.38671875,-39.0625,-150.390625,-50.78125,0.0
1734422754.0127761,-82.51953125,-37.59765625,-253.41796875,-54.19921875,0.0
1734422754.0166638,-87.40234375,-33.69140625,-129.39453125,-61.5234375,0.0
1734422754.020828,-46.875,-38.57421875,-67.87109375,-59.08203125,0.0
1734422754.0247157,-46.38671875,-44.43359375,23.92578125,-60.05859375,0.0
1734422754.0286033,-58.59375,-48.33984375,22.94921875,-60.05859375,0.0
1734422754.0324912,-88.37890625,-42.48046875,14.16015625,-62.01171875,0.0
1734422754.0363789,-90.8203125,-41.50390625,-108.88671875,-57.12890625,0.0
1734422754.0402665,-49.8046875,-51.7578125,-292.96875,-46.875,0.0
1734422754.0441542,-37.109375,-51.7578125,-81.54296875,-39.0625,0.0
1734422754.048042,-45.41015625,-46.38671875,156.73828125,-41.50390625,0.0
1734422754.0519297,-71.77734375,-47.8515625,-143.06640625,-50.78125,0.0
1734422754.0558174,-90.8203125,-48.828125,-446.77734375,-56.640625,0.0
1734422754.059705,-60.546875,-39.55078125,-62.5,-60.546875,0.0
1734422754.063593,-31.25,-34.66796875,129.39453125,-50.29296875,0.0
1734422754.0677388,-26.85546875,-42.96875,-46.875,-47.36328125,0.0
1734422754.0716267,-55.6640625,-47.8515625,-187.01171875,-43.45703125,0.0
1734422754.0755143,-83.0078125,-42.48046875,-164.55078125,-49.31640625,0.0
1734422754.0794022,-60.546875,-41.50390625,-47.8515625,-51.26953125,0.0
1734422754.0832899,-39.55078125,-48.828125,-47.36328125,-40.52734375,0.0
1734422754.0871778,-31.25,-48.828125,-186.5234375,-31.25,0.0
1734422754.0910656,-57.12890625,-45.8984375,-206.54296875,-46.38671875,0.0
1734422754.0949533,-100.09765625,-49.31640625,-215.8203125,-70.80078125,0.0
1734422754.0988412,-66.89453125,-50.78125,-367.67578125,-59.5703125,0.0
1734422754.1027288,-32.71484375,-49.31640625,-203.125,-36.1328125,0.0
1734422754.1066167,-42.48046875,-45.8984375,119.62890625,-37.109375,0.0
1734422754.1105044,-67.3828125,-49.8046875,-2.44140625,-31.25,0.0
1734422754.1146438,-98.6328125,-48.33984375,-122.55859375,-42.48046875,0.0
1734422754.1185317,-82.51953125,-44.921875,-18.06640625,-65.4296875,0.0
1734422754.1224196,-54.6875,-50.78125,123.53515625,-56.15234375,0.0
1734422754.1263075,-41.015625,-53.7109375,39.55078125,-37.109375,0.0
1734422754.1301954,-39.0625,-52.734375,-176.26953125,-32.2265625,0.0
1734422754.134083,-87.40234375,-47.8515625,-230.46875,-45.41015625,0.0
1734422754.137971,-89.84375,-44.921875,-175.29296875,-55.6640625,0.0
1734422754.1418588,-40.0390625,-45.8984375,-263.18359375,-47.36328125,0.0
1734422754.1457467,-29.296875,-44.43359375,-336.9140625,-35.15625,0.0
1734422754.1496346,-44.921875,-35.64453125,6.8359375,-41.015625,0.0
1734422754.1535225,-86.42578125,-34.1796875,76.66015625,-51.26953125,0.0
1734422754.1574101,-72.75390625,-48.33984375,-138.671875,-52.24609375,0.0
1734422754.161532,-37.109375,-52.24609375,-46.38671875,-41.015625,0.0
1734422754.1654198,-40.52734375,-44.921875,101.5625,-36.1328125,0.0
1734422754.1693077,-48.33984375,-41.015625,56.15234375,-47.36328125,0.0
1734422754.1731956,-87.890625,-39.55078125,-89.35546875,-59.5703125,0.0
1734422754.1770835,-88.8671875,-47.36328125,-206.54296875,-58.10546875,0.0
1734422754.1809714,-41.9921875,-56.640625,-232.421875,-46.875,0.0
1734422754.1848593,-41.9921875,-53.7109375,-196.2890625,-44.43359375,0.0
1734422754.1887472,-45.8984375,-54.19921875,-358.88671875,-46.38671875,0.0
1734422754.192635,-62.5,-52.24609375,-372.0703125,-52.24609375,0.0
1734422754.196523,-71.2890625,-43.45703125,-154.296875,-47.8515625,0.0
1734422754.2004108,-39.55078125,-44.43359375,-155.2734375,-53.22265625,0.0
1734422754.204299,-34.1796875,-49.8046875,-95.21484375,-58.10546875,0.0
1734422754.2084029,-28.80859375,-49.31640625,11.71875,-41.015625,0.0
1734422754.212291,-46.38671875,-46.875,7.8125,-45.8984375,0.0
1734422754.216179,-88.8671875,-50.29296875,-212.40234375,-62.01171875,0.0
1734422754.2200668,-60.05859375,-45.41015625,-272.4609375,-72.265625,0.0
1734422754.223955,-22.4609375,-42.96875,-113.76953125,-55.6640625,0.0
1734422754.2278428,-31.73828125,-49.31640625,-192.87109375,-38.57421875,0.0
1734422754.2317307,-55.6640625,-51.26953125,-403.80859375,-38.0859375,0.0
1734422754.2356188,-82.51953125,-43.9453125,-492.67578125,-55.6640625,0.0
1734422754.2395067,-58.10546875,-32.2265625,-261.71875,-66.89453125,0.0
1734422754.2433946,-35.64453125,-34.1796875,-162.109375,-46.38671875,0.0
1734422754.2472827,-34.1796875,-37.59765625,-226.5625,-36.1328125,0.0
1734422754.2511706,-53.7109375,-32.2265625,-268.5546875,-47.36328125,0.0
1734422754.255254,-91.796875,-33.69140625,-217.7734375,0.0,0.0
1734422754.2591422,-64.94140625,-39.55078125,-232.421875,0.0,0.0
1734422754.26303,-30.2734375,-37.59765625,-243.65234375,0.0,0.0
1734422754.2669182,-31.25,-34.1796875,-149.90234375,0.0,0.0
1734422754.270806,-47.36328125,-32.2265625,-192.3828125,0.0,0.0
1734422754.2746942,-77.1484375,-41.50390625,-317.87109375,0.0,0.0
1734422754.278582,-66.40625,-49.8046875,-477.05078125,0.0,0.0
1734422754.2824702,-31.73828125,-45.8984375,-406.25,0.0,0.0
1734422754.286358,-23.4375,-41.015625,-32.71484375,0.0,0.0
1734422754.2902462,-50.78125,-41.015625,-40.52734375,0.0,0.0
1734422754.2941341,-83.49609375,-36.1328125,-237.3046875,0.0,0.0
1734422754.2980223,-65.4296875,-33.203125,-242.1875,0.0,0.0
1734422754.3020878,-25.390625,-32.71484375,0.0,-20.5078125,0.0
1734422754.305976,-28.80859375,-35.15625,0.0,-24.4140625,0.0
1734422754.309864,-57.12890625,-37.59765625,0.0,-42.48046875,0.0
1734422754.313752,-82.03125,-35.64453125,0.0,-45.8984375,0.0
1734422754.31764,-64.453125,-33.69140625,0.0,-36.1328125,0.0
1734422754.3215282,-32.71484375,-40.52734375,0.0,-31.25,0.0
1734422754.3254163,-42.48046875,-47.8515625,0.0,-34.66796875,0.0
1734422754.3293042,-46.875,-38.57421875,0.0,-32.2265625,0.0
1734422754.3331923,-65.91796875,-36.62109375,0.0,-44.921875,0.0
1734422754.3370805,-78.125,-39.55078125,0.0,-56.15234375,0.0
1734422754.3409684,-41.9921875,-39.0625,0.0,-52.24609375,0.0
1734422754.3448565,-29.296875,-37.59765625,0.0,-47.8515625,0.0
1734422754.3490393,-39.0625,-40.52734375,-7.32421875,-50.29296875,0.0
1734422754.3529274,-65.4296875,-40.0390625,-186.03515625,-58.10546875,0.0
1734422754.3568156,-66.40625,-41.50390625,-275.87890625,-43.9453125,0.0
1734422754.3607037,-41.015625,-51.7578125,-168.9453125,-48.33984375,0.0
1734422754.3645918,-34.66796875,-51.26953125,-65.4296875,-61.5234375,0.0
1734422754.36848,-38.57421875,-48.828125,-166.50390625,-48.828125,0.0
1734422754.372368,-56.15234375,-50.29296875,-293.9453125,-40.0390625,0.0
1734422754.3762562,-67.3828125,-45.8984375,-300.29296875,-36.1328125,0.0
1734422754.3801446,-49.31640625,-46.38671875,-263.18359375,-40.0390625,0.0
1734422754.3840327,-40.52734375,-47.36328125,-285.64453125,-42.48046875,0.0
1734422754.3879209,-43.9453125,-40.0390625,-100.5859375,-48.33984375,0.0
1734422754.391809,-68.359375,-34.66796875,64.94140625,-59.08203125,0.0
1734422754.3959758,0.0,-31.25,-164.55078125,-46.875,0.0
1734422754.399864,0.0,-32.71484375,-241.69921875,-50.78125,0.0
1734422754.403752,0.0,-40.52734375,-32.2265625,-64.453125,0.0
1734422754.4076405,0.0,-46.38671875,93.26171875,-37.109375,0.0
1734422754.4115286,0.0,-50.78125,-49.8046875,-38.57421875,0.0
1734422754.4154167,0.0,-51.7578125,-332.03125,-50.29296875,0.0
1734422754.419305,0.0,-47.8515625,-250.9765625,-50.78125,0.0
1734422754.4231932,0.0,-46.38671875,8.30078125,-45.8984375,0.0
1734422754.4270813,0.0,-51.7578125,-180.17578125,-45.8984375,0.0
1734422754.4309697,0.0,-56.15234375,-404.78515625,-41.50390625,0.0
1734422754.4348578,0.0,-51.7578125,-176.7578125,-39.55078125,0.0
1734422754.438746,0.0,-49.31640625,-186.5234375,-54.19921875,0.0
1734422754.4428854,-34.66796875,-53.7109375,-216.30859375,-47.36328125,0.0
1734422754.4467738,-44.921875,-53.22265625,-34.1796875,-41.015625,0.0
1734422754.450662,-59.08203125,-53.7109375,-39.0625,-38.57421875,0.0
1734422754.4545503,-87.40234375,-52.24609375,-227.5390625,-56.640625,0.0
1734422754.4584384,-73.2421875,-52.24609375,-273.4375,-60.546875,0.0
1734422754.4623268,-34.66796875,-59.08203125,-269.53125,-45.41015625,0.0
1734422754.4662151,-23.92578125,-53.22265625,-228.02734375,-38.0859375,0.0
1734422754.4701033,-28.80859375,-47.36328125,-191.89453125,-48.828125,0.0
1734422754.4739916,-76.66015625,-54.19921875,-405.76171875,-59.5703125,0.0
1734422754.4778798,-85.44921875,-51.26953125,-394.53125,-57.6171875,0.0
1734422754.4817681,-61.5234375,-45.41015625,-107.421875,-50.78125,0.0
1734422754.4856565,-37.109375,-47.36328125,-71.77734375,-41.9921875,0.0
1734422754.4897892,-20.5078125,-44.43359375,-118.1640625,-39.0625,0.0
1734422754.4936774,-70.3125,-42.48046875,-134.765625,-54.6875,0.0
1734422754.4975657,-70.3125,-51.26953125,-180.17578125,-72.75390625,0.0
1734422754.501454,-48.828125,-58.59375,-251.953125,-67.87109375,0.0
1734422754.5053425,-41.015625,-57.12890625,-191.40625,-53.22265625,0.0
1734422754.5092309,-19.04296875,-56.640625,-173.33984375,-46.875,0.0
1734422754.5131192,-64.453125,-55.17578125,-208.0078125,-61.5234375,0.0
1734422754.5170076,-82.03125,-58.10546875,-334.9609375,-60.546875,0.0
1734422754.520896,-28.80859375,-57.12890625,-438.96484375,-40.0390625,0.0
1734422754.524784,-21.97265625,-43.45703125,-53.7109375,-38.57421875,0.0
1734422754.5286725,-30.2734375,-41.015625,77.1484375,-28.80859375,0.0
1734422754.5325608,-46.38671875,-42.96875,-105.95703125,-25.87890625,0.0
1734422754.5366704,0.0,-40.52734375,-243.65234375,-40.52734375,0.0
1734422754.5405588,0.0,-35.15625,-169.921875,-34.1796875,0.0
1734422754.5444472,0.0,-35.15625,-40.52734375,-23.92578125,0.0
1734422754.5483356,0.0,-40.0390625,-76.66015625,-19.04296875,0.0
1734422754.5522242,0.0,-41.9921875,-78.125,-28.80859375,0.0
1734422754.5561125,0.0,-45.41015625,-216.796875,-50.29296875,0.0
1734422754.560001,0.0,-42.48046875,-263.671875,-49.31640625,0.0
1734422754.5638893,0.0,-44.921875,-364.74609375,-24.90234375,0.0
1734422754.5677776,0.0,-44.921875,-271.484375,-22.4609375,0.0
1734422754.571666,0.0,-38.57421875,70.80078125,-42.96875,0.0
1734422754.5755544,0.0,-35.15625,-71.2890625,-39.55078125,0.0
1734422754.5794427,0.0,-38.57421875,-174.31640625,-27.34375,0.0
1734422754.5835304,-26.85546875,-44.921875,6.8359375,-21.484375,0.0
1734422754.5874188,-2.44140625,-36.62109375,150.87890625,-27.34375,0.0
1734422754.5913072,-38.57421875,-41.015625,14.6484375,-29.296875,0.0
1734422754.5951958,-84.9609375,-47.8515625,-157.2265625,-41.015625,0.0
1734422754.5990841,-45.8984375,-36.62109375,-30.2734375,-45.8984375,0.0
1734422754.6029725,-10.7421875,-38.57421875,-38.57421875,-26.85546875,0.0
1734422754.606861,-17.08984375,-39.0625,-158.203125,-23.4375,0.0
1734422754.6107495,-22.4609375,-38.57421875,-250.9765625,-20.99609375,0.0
1734422754.6146379,-60.05859375,-33.69140625,-53.7109375,-37.109375,0.0
1734422754.6185265,-53.7109375,-33.69140625,76.171875,-44.921875,0.0
1734422754.6224148,-14.16015625,-42.96875,-31.73828125,-35.64453125,0.0
1734422754.6263032,0.48828125,-39.0625,15.13671875,-27.83203125,0.0
1734422754.6303778,-20.99609375,-37.109375,109.86328125,-28.80859375,0.0
1734422754.6342664,-65.91796875,-41.015625,21.484375,-36.62109375,0.0
1734422754.6381547,-46.875,-43.9453125,-160.64453125,-41.50390625,0.0
1734422754.6420434,-5.859375,-42.96875,-62.98828125,-52.24609375,0.0
1734422754.6459317,-14.6484375,-35.64453125,103.515625,-49.31640625,0.0
1734422754.6498203,-32.71484375,-38.57421875,7.32421875,-50.78125,0.0
1734422754.6537087,-41.015625,-48.33984375,-353.02734375,-34.66796875,0.0
1734422754.6575973,-50.29296875,-51.7578125,-395.99609375,-28.80859375,0.0
1734422754.6614857,-26.3671875,-47.8515625,-14.16015625,-39.0625,0.0
1734422754.6653743,-11.23046875,-41.015625,36.1328125,-33.203125,0.0
1734422754.6692626,-22.94921875,-41.015625,36.1328125,-41.015625,0.0
1734422754.6731513,-52.24609375,-44.921875,41.50390625,-49.31640625,0.0
1734422754.6772165,-82.03125,-44.43359375,44.921875,-56.15234375,0.0
1734422754.6811051,-44.921875,-47.36328125,24.4140625,-53.22265625,0.0
1734422754.6849935,-6.34765625,-45.41015625,-11.23046875,-35.64453125,0.0
1734422754.688882,-22.4609375,-35.64453125,107.421875,-34.66796875,0.0
1734422754.6927707,-54.19921875,-33.203125,74.21875,-47.8515625,0.0
1734422754.696659,-60.05859375,-39.55078125,-245.1171875,-48.33984375,0.0
1734422754.7005477,-21.484375,-41.9921875,-392.08984375,-37.109375,0.0
1734422754.7044363,-6.34765625,-40.0390625,-33.203125,-18.5546875,0.0
1734422754.7083247,-12.20703125,-38.57421875,157.2265625,-18.06640625,0.0
1734422754.7122133,-47.8515625,-31.73828125,-58.59375,-44.921875,0.0
1734422754.716102,-89.84375,-33.203125,-206.0546875,-54.6875,0.0
1734422754.7199903,-36.1328125,-37.59765625,0.9765625,-46.38671875,0.0
1734422754.7241673,0.0,-35.64453125,46.875,-31.73828125,0.0
1734422754.728056,0.0,-42.96875,-60.546875,-24.90234375,0.0
1734422754.7319446,0.0,-41.015625,-8.7890625,-25.390625,0.0
1734422754.7358332,0.0,-41.015625,39.55078125,-37.59765625,0.0
1734422754.7397218,0.0,-46.38671875,0.0,-51.7578125,0.0
1734422754.7436104,0.0,-42.96875,-107.421875,-46.38671875,0.0
1734422754.747499,0.0,-45.8984375,-188.96484375,-54.19921875,0.0
1734422754.7513876,0.0,-47.36328125,-171.38671875,-60.546875,0.0
1734422754.7552762,0.0,-53.7109375,-152.34375,-58.10546875,0.0
1734422754.7591648,0.0,-54.6875,-274.90234375,-47.8515625,0.0
1734422754.7630534,0.0,-41.015625,-84.9609375,-32.71484375,0.0
1734422754.766942,0.0,-37.59765625,138.671875,-41.9921875,0.0
1734422754.7710943,-59.08203125,-47.8515625,12.20703125,-54.19921875,0.0
1734422754.7749832,-83.49609375,-48.828125,-133.7890625,-64.94140625,0.0
1734422754.7788718,-61.03515625,-41.50390625,-42.48046875,-58.10546875,0.0
1734422754.7827604,-25.87890625,-42.48046875,42.48046875,-40.0390625,0.0
1734422754.7866492,-17.08984375,-40.0390625,-38.57421875,-36.1328125,0.0
1734422754.7905378,-24.4140625,-43.9453125,-189.94140625,-24.4140625,0.0
1734422754.7944264,-56.640625,-42.96875,-173.828125,-29.78515625,0.0
1734422754.798315,-47.36328125,-39.0625,56.640625,-33.69140625,0.0
1734422754.802204,-5.37109375,-42.48046875,-89.35546875,-11.71875,0.0
1734422754.8060925,-10.25390625,-39.55078125,-291.50390625,-22.4609375,0.0
1734422754.809981,-20.01953125,-38.0859375,26.85546875,-39.0625,0.0
1734422754.8138697,-59.08203125,-41.50390625,85.44921875,-57.12890625,0.0
1734422754.818003,-70.80078125,-45.8984375,-108.88671875,-55.6640625,0.0
1734422754.8218915,-27.83203125,-38.57421875,-37.109375,-36.62109375,0.0
1734422754.8257804,-27.34375,-32.71484375,98.14453125,-42.48046875,0.0
1734422754.829669,-20.99609375,-35.64453125,88.37890625,-38.0859375,0.0
1734422754.8335578,-50.29296875,-43.45703125,-96.19140625,-43.9453125,0.0
1734422754.8374465,-77.1484375,-54.19921875,-281.73828125,-48.33984375,0.0
1734422754.8413353,-34.1796875,-43.45703125,-187.98828125,-39.0625,0.0
1734422754.845224,-16.11328125,-36.62109375,-85.44921875,-42.48046875,0.0
1734422754.8491127,-25.390625,-44.43359375,-303.22265625,-38.57421875,0.0
1734422754.8530014,-58.59375,-38.57421875,-241.69921875,-28.80859375,0.0
1734422754.8568902,-93.26171875,-40.52734375,55.17578125,-32.71484375,0.0
1734422754.8607788,-61.03515625,-50.78125,-18.5546875,-49.8046875,0.0
1734422754.864906,-41.9921875,-46.38671875,-5.859375,-52.734375,0.0
1734422754.868795,-31.25,-41.50390625,107.91015625,-29.78515625,0.0
1734422754.8726835,-24.4140625,-39.55078125,20.5078125,-12.6953125,0.0
1734422754.8765724,-58.59375,-40.0390625,-191.40625,-32.71484375,0.0
1734422754.8804612,-25.87890625,-40.52734375,-194.3359375,-41.9921875,0.0
1734422754.88435,-1.46484375,-44.43359375,-132.8125,-25.390625,0.0
1734422754.8882387,-3.90625,-39.55078125,-103.515625,-18.06640625,0.0
1734422754.8921275,-18.5546875,-41.9921875,-155.76171875,-35.15625,0.0
1734422754.8960164,-58.59375,-50.78125,-365.234375,-43.9453125,0.0
1734422754.8999052,-35.15625,-41.50390625,-159.1796875,-36.62109375,0.0
1734422754.9037938,-3.41796875,-38.0859375,-72.75390625,-32.71484375,0.0
1734422754.9076827,-8.30078125,-41.015625,-103.02734375,-22.4609375,0.0
1734422754.9117925,-39.55078125,-44.43359375,0.9765625,-26.85546875,0.0
1734422754.9156814,-73.2421875,-37.109375,41.015625,-49.31640625,0.0
1734422754.9195702,-48.33984375,-35.64453125,-3.90625,-43.45703125,0.0
1734422754.923459,-8.30078125,-46.38671875,-106.4453125,-21.484375,0.0
1734422754.927348,5.37109375,-44.921875,-14.16015625,-9.765625,0.0
1734422754.9312367,-28.3203125,-49.8046875,-63.96484375,-26.85546875,0.0
1734422754.9351256,-58.10546875,-56.640625,-223.14453125,-41.015625,0.0
1734422754.9390144,-44.43359375,-60.546875,-441.89453125,-26.85546875,0.0
1734422754.9429033,-30.76171875,-55.6640625,-286.62109375,-34.66796875,0.0
1734422754.9467921,-28.80859375,-43.9453125,140.13671875,-51.7578125,0.0
1734422754.9506807,-18.06640625,-44.921875,41.9921875,-35.64453125,0.0
1734422754.9545696,-60.546875,-51.7578125,-138.18359375,-41.9921875,0.0
1734422754.9586627,-72.265625,-49.31640625,-91.796875,-49.31640625,0.0
1734422754.9625516,1.953125,-45.8984375,32.2265625,-21.484375,0.0
1734422754.9664404,-3.41796875,-47.36328125,-28.80859375,-15.625,0.0
1734422754.9703295,-39.0625,-49.8046875,-18.06640625,-26.85546875,0.0
1734422754.9742184,-50.78125,-57.12890625,17.08984375,-6.34765625,0.0
1734422754.9781072,-49.31640625,-55.6640625,-167.48046875,-0.9765625,0.0
1734422754.981996,-23.92578125,-53.7109375,-322.265625,-29.78515625,0.0
1734422754.985885,-9.27734375,-49.31640625,-311.03515625,-27.34375,0.0
1734422754.989774,-5.859375,-37.59765625,25.390625,-16.6015625,0.0
1734422754.9936628,-35.64453125,-43.45703125,106.93359375,-19.53125,0.0
1734422754.9975517,-64.94140625,-48.828125,-140.13671875,-28.3203125,0.0
1734422755.0014405,-24.90234375,-43.45703125,-102.5390625,-35.64453125,0.0
1734422755.0055158,2.9296875,-38.57421875,123.046875,-34.1796875,0.0
1734422755.0094047,-8.7890625,-37.109375,125.9765625,-22.94921875,0.0
1734422755.0132937,-42.96875,-43.9453125,-45.41015625,-23.92578125,0.0
1734422755.0171826,-72.265625,-42.96875,-95.21484375,-41.9921875,0.0
1734422755.0210717,-35.15625,-39.0625,32.71484375,-40.52734375,0.0
1734422755.0249605,-9.765625,-47.8515625,33.69140625,-23.4375,0.0
1734422755.0288494,-13.671875,-51.26953125,-149.90234375,-10.7421875,0.0
1734422755.0327384,-41.015625,-48.33984375,-273.4375,-24.90234375,0.0
1734422755.0366273,-76.171875,-41.015625,-83.0078125,-48.828125,0.0
1734422755.0405164,-32.2265625,-38.0859375,12.6953125,-41.50390625,0.0
1734422755.0444052,-9.27734375,-39.55078125,18.5546875,-24.90234375,0.0
1734422755.048294,-14.16015625,-37.109375,125.48828125,-25.390625,0.0
1734422755.052346,-12.6953125,-38.0859375,142.578125,-32.71484375,0.0
1734422755.0562348,-65.4296875,-40.52734375,6.34765625,-42.48046875,0.0
1734422755.060124,-54.6875,-37.109375,-33.203125,-47.8515625,0.0
1734422755.0640128,-15.13671875,-35.15625,125.9765625,-42.96875,0.0
1734422755.0679018,-16.6015625,-38.57421875,177.734375,-32.2265625,0.0
1734422755.071791,-37.59765625,-44.921875,-14.16015625,-33.69140625,0.0
1734422755.0756798,-84.9609375,-43.9453125,-248.53515625,-54.6875,0.0
1734422755.0795689,-69.82421875,-35.64453125,-4.8828125,-59.5703125,0.0
1734422755.0834577,-21.97265625,-31.73828125,105.46875,-50.29296875,0.0
1734422755.0873468,-18.5546875,-36.62109375,11.71875,-45.41015625,0.0
1734422755.0912356,-37.59765625,-38.57421875,90.33203125,-36.1328125,0.0
1734422755.0951247,-73.2421875,-36.62109375,124.51171875,-50.78125,0.0
1734422755.0992985,0.0,-36.62109375,70.80078125,-50.29296875,0.0
1734422755.1031876,0.0,-39.0625,67.3828125,-47.8515625,0.0
1734422755.1070766,0.0,-41.50390625,122.55859375,-48.33984375,0.0
1734422755.1109657,0.0,-40.0390625,168.45703125,-37.59765625,0.0
1734422755.1148546,0.0,-41.015625,76.66015625,-41.50390625,0.0
1734422755.1187437,0.0,-41.015625,-135.25390625,-48.828125,0.0
1734422755.1226327,0.0,-36.62109375,-94.23828125,-45.41015625,0.0
1734422755.1265218,0.0,-31.73828125,97.16796875,-44.43359375,0.0
1734422755.130411,0.0,-29.78515625,113.76953125,-41.9921875,0.0
1734422755.1343,0.0,-35.15625,-85.9375,-45.41015625,0.0
1734422755.138189,0.0,-37.109375,-18.06640625,-57.12890625,0.0
1734422755.142078,0.0,-29.78515625,117.67578125,-56.15234375,0.0
1734422755.1462407,-9.765625,-31.73828125,72.265625,-46.875,0.0
1734422755.15013,-7.8125,-34.1796875,121.09375,-20.5078125,0.0
1734422755.154019,-50.29296875,-31.25,128.41796875,-26.3671875,0.0
1734422755.1579082,-89.84375,-34.1796875,86.42578125,-63.4765625,0.0
1734422755.1617973,-56.640625,-37.59765625,74.21875,-58.59375,0.0
1734422755.1656864,-43.9453125,-42.96875,52.24609375,-43.9453125,0.0
1734422755.1695755,-46.38671875,-36.1328125,96.19140625,-42.48046875,0.0
1734422755.1734645,-68.84765625,-35.15625,191.89453125,-59.08203125,0.0
1734422755.1773539,-109.86328125,-48.33984375,-48.33984375,-81.54296875,0.0
1734422755.181243,-72.265625,-45.41015625,-250.0,-72.75390625,0.0
1734422755.185132,-34.1796875,-29.296875,100.09765625,-52.24609375,0.0
1734422755.189021,-35.64453125,-23.92578125,201.66015625,-54.19921875,0.0
1734422755.1931584,-58.10546875,-36.62109375,43.45703125,0.0,0.0
1734422755.1970475,-85.9375,-41.9921875,14.6484375,0.0,0.0
1734422755.2009368,-49.31640625,-35.64453125,69.82421875,0.0,0.0
1734422755.2048259,-25.390625,-37.109375,104.00390625,0.0,0.0
1734422755.2087152,-36.62109375,-39.0625,91.796875,0.0,0.0
1734422755.2126043,-62.01171875,-40.52734375,23.92578125,0.0,0.0
1734422755.2164934,-91.30859375,-43.9453125,-91.796875,0.0,0.0
1734422755.2203827,-67.3828125,-41.9921875,-130.37109375,0.0,0.0
1734422755.2242718,-33.203125,-43.9453125,-203.125,0.0,0.0
1734422755.228161,-25.87890625,-40.52734375,-126.953125,0.0,0.0
1734422755.2320502,-32.2265625,-34.66796875,161.62109375,0.0,0.0
1734422755.2359393,-75.1953125,-43.9453125,-3.41796875,0.0,0.0
1734422755.2400496,-67.3828125,-46.38671875,-57.6171875,-42.96875,0.0
1734422755.243939,-19.04296875,-41.9921875,118.1640625,-24.4140625,0.0
1734422755.247828,-36.1328125,-40.0390625,152.34375,-31.73828125,0.0
1734422755.2517173,-66.40625,-37.59765625,73.2421875,-32.2265625,0.0
1734422755.2556067,-76.171875,-39.55078125,-74.70703125,-34.66796875,0.0
1734422755.2594957,-62.5,-41.015625,-192.3828125,-50.78125,0.0
1734422755.263385,-30.76171875,-37.59765625,-67.87109375,-55.17578125,0.0
1734422755.2672741,-20.01953125,-37.59765625,-24.90234375,-47.36328125,0.0
1734422755.2711635,-30.2734375,-41.9921875,-211.42578125,-34.66796875,0.0
1734422755.2750528,-64.453125,-34.1796875,-10.25390625,-36.62109375,0.0
1734422755.2789419,-62.98828125,-34.1796875,91.30859375,-31.73828125,0.0
1734422755.2828312,-20.01953125,-45.41015625,-14.6484375,-14.16015625,0.0
1734422755.2869356,-17.08984375,-46.875,0.0,-21.484375,0.0
1734422755.290825,-36.1328125,-43.9453125,0.0,-36.62109375,0.0
1734422755.294714,-71.2890625,-53.22265625,0.0,-46.875,0.0
1734422755.2986033,-74.70703125,-56.15234375,0.0,-43.45703125,0.0
1734422755.3024926,-36.1328125,-47.36328125,0.0,-27.34375,0.0
1734422755.306382,-25.390625,-49.31640625,0.0,-23.4375,0.0
1734422755.3102713,-23.92578125,-54.6875,0.0,-23.92578125,0.0
1734422755.3141603,-47.8515625,-60.546875,0.0,-30.2734375,0.0
1734422755.3180497,-74.70703125,-53.7109375,0.0,-24.90234375,0.0
1734422755.321939,-38.57421875,-45.8984375,0.0,-21.484375,0.0
1734422755.3258283,-19.53125,-50.78125,0.0,-32.2265625,0.0
1734422755.3297176,-31.25,-48.828125,0.0,-30.2734375,0.0
1734422755.3338037,-41.50390625,-45.41015625,41.015625,-17.08984375,0.0
1734422755.337693,-65.4296875,-39.55078125,7.32421875,-30.2734375,0.0
1734422755.3415823,-53.7109375,-36.1328125,-33.69140625,-49.8046875,0.0
1734422755.3454716,-30.76171875,-39.0625,-14.16015625,-47.36328125,0.0
1734422755.349361,-26.3671875,-37.59765625,78.61328125,-38.0859375,0.0
1734422755.3532503,-53.22265625,-41.9921875,-58.10546875,-43.45703125,0.0
1734422755.3571396,-88.8671875,-51.7578125,-320.80078125,-59.5703125,0.0
1734422755.361029,-57.12890625,-49.8046875,-354.4921875,-52.24609375,0.0
1734422755.3649182,-24.4140625,-34.66796875,-12.20703125,-40.0390625,0.0
1734422755.3688076,-29.78515625,-32.2265625,130.859375,-39.0625,0.0
1734422755.3726969,-47.36328125,-45.41015625,-41.9921875,-44.43359375,0.0
1734422755.3765862,-76.171875,-50.78125,-209.47265625,-55.6640625,0.0
1734422755.3806498,-50.78125,-44.43359375,-190.4296875,-43.45703125,0.0
1734422755.3845391,-12.20703125,-41.015625,3.41796875,-28.3203125,0.0
1734422755.3884287,-17.08984375,-44.43359375,-11.23046875,-20.99609375,0.0
1734422755.392318,-45.8984375,-45.8984375,-34.66796875,-20.5078125,0.0
1734422755.3962073,-83.0078125,-55.17578125,8.30078125,-25.87890625,0.0
1734422755.4000967,-56.15234375,-54.6875,-185.05859375,-28.80859375,0.0
1734422755.403986,-45.41015625,-52.24609375,-246.58203125,-20.99609375,0.0
1734422755.4078755,-63.96484375,-50.78125,-110.83984375,-10.7421875,0.0
1734422755.4117649,-56.640625,-36.1328125,61.03515625,-16.11328125,0.0
1734422755.4156542,-82.03125,-36.62109375,-25.390625,-31.73828125,0.0
1734422755.4195435,-64.453125,-45.8984375,-244.140625,-34.1796875,0.0
1734422755.4234328,-26.85546875,-41.015625,-43.9453125,-28.3203125,0.0
1734422755.4274817,-54.19921875,-35.15625,147.4609375,-47.8515625,0.0
1734422755.431371,-64.453125,-39.55078125,10.25390625,-56.640625,0.0
1734422755.4352603,-72.265625,-37.109375,-69.3359375,-50.78125,0.0
1734422755.4391499,-78.61328125,-41.50390625,-128.41796875,-44.921875,0.0
1734422755.4430392,-46.38671875,-51.26953125,-95.21484375,-41.50390625,0.0
1734422755.4469285,-43.9453125,-53.22265625,-74.21875,-35.64453125,0.0
1734422755.450818,-51.26953125,-46.38671875,-279.78515625,-41.015625,0.0
1734422755.4547074,-71.2890625,-39.55078125,-89.35546875,-53.7109375,0.0
1734422755.4585967,-82.03125,-39.0625,58.10546875,-52.734375,0.0
1734422755.4624863,-48.828125,-41.50390625,-98.14453125,-43.9453125,0.0
1734422755.4663756,-22.94921875,-42.48046875,-92.28515625,-41.50390625,0.0
1734422755.4702652,-17.578125,-40.0390625,136.23046875,-47.8515625,0.0
1734422755.4744253,-51.7578125,-43.45703125,35.64453125,-51.26953125,0.0
1734422755.4783146,-69.82421875,-48.33984375,-185.05859375,-43.45703125,0.0
1734422755.4822042,-40.0390625,-41.9921875,-70.80078125,-32.2265625,0.0
1734422755.4860935,-28.80859375,-37.109375,96.19140625,-40.0390625,0.0
1734422755.489983,-31.73828125,-41.9921875,50.29296875,-25.390625,0.0
1734422755.4938726,-53.22265625,-44.921875,-191.40625,-11.71875,0.0
1734422755.497762,-73.2421875,-40.52734375,-308.10546875,-37.109375,0.0
1734422755.5016515,-58.59375,-39.55078125,-224.609375,-53.22265625,0.0
1734422755.505541,-49.31640625,-39.55078125,-194.82421875,-37.109375,0.0
1734422755.5094304,-44.921875,-33.203125,-239.74609375,-24.4140625,0.0
1734422755.51332,-82.51953125,-32.71484375,-119.140625,-32.2265625,0.0
1734422755.5172093,-96.6796875,-35.64453125,-10.7421875,-61.5234375,0.0
1734422755.5213494,0.0,-38.0859375,-93.26171875,-58.59375,0.0
1734422755.525239,0.0,-39.55078125,-61.03515625,-33.69140625,0.0
1734422755.5291286,0.0,-31.25,41.9921875,-45.41015625,0.0
1734422755.533018,0.0,-28.3203125,25.390625,-49.8046875,0.0
1734422755.5369077,0.0,-30.2734375,-213.37890625,-55.6640625,0.0
1734422755.5407972,0.0,-37.109375,-383.7890625,-42.96875,0.0
1734422755.5446868,0.0,-33.203125,-220.21484375,-43.9453125,0.0
1734422755.548576,0.0,-30.76171875,37.109375,-59.5703125,0.0
1734422755.5524657,0.0,-48.828125,-158.69140625,-55.6640625,0.0
1734422755.5563552,0.0,-59.08203125,-516.11328125,-50.29296875,0.0
1734422755.5602448,0.0,-50.78125,-302.734375,-30.76171875,0.0
1734422755.5641344,0.0,-44.921875,-57.6171875,-14.16015625,0.0
1734422755.5682657,0.0,-45.41015625,-84.47265625,-13.671875,0.0
1734422755.5721552,-6.8359375,-47.8515625,-81.0546875,-15.13671875,0.0
1734422755.5760448,-57.6171875,-50.78125,-77.1484375,-25.390625,0.0
1734422755.5799344,-68.84765625,-54.19921875,-205.078125,-38.0859375,0.0
1734422755.583824,-37.109375,-55.6640625,-231.93359375,-39.55078125,0.0
1734422755.5877135,-33.203125,-55.17578125,-229.98046875,-20.99609375,0.0
1734422755.591603,-40.52734375,-54.6875,-216.796875,-9.765625,0.0
1734422755.5954928,-75.1953125,-51.7578125,-215.33203125,-38.57421875,0.0
1734422755.5993824,-84.9609375,-54.6875,-416.015625,-62.98828125,0.0
