timestamps,TP9,AF7,AF8,TP10,Right AUX
1734412724.800215,-23.4375,-50.78125,-51.26953125,-47.36328125,0.0
1734412724.804121,-14.6484375,-49.8046875,-50.29296875,-48.828125,0.0
1734412724.8080268,-18.06640625,-52.24609375,-51.7578125,-41.50390625,0.0
1734412724.8119328,-23.4375,-50.29296875,-51.26953125,-31.73828125,0.0
1734412724.8158386,-23.4375,-51.26953125,-50.78125,-40.52734375,0.0
1734412724.8197446,-22.4609375,-54.19921875,-53.7109375,-44.921875,0.0
1734412724.8236504,-13.18359375,-53.22265625,-55.17578125,-31.25,0.0
1734412724.8275564,-18.06640625,-42.48046875,-45.41015625,-29.78515625,0.0
1734412724.8314621,-25.390625,-44.921875,-43.9453125,-36.62109375,0.0
1734412724.8353682,-15.625,-49.8046875,-43.9453125,-37.109375,0.0
1734412724.839274,-15.625,-45.41015625,-34.66796875,-32.71484375,0.0
1734412724.8431647,-23.4375,-41.50390625,-32.71484375,-32.71484375,0.0
1734412724.8470705,-26.3671875,-43.9453125,-32.2265625,-31.25,0.0
1734412724.8509765,-33.69140625,-49.8046875,-37.59765625,-29.296875,0.0
1734412724.8548822,-39.0625,-53.22265625,-42.48046875,-34.66796875,0.0
1734412724.8587883,-38.0859375,-52.734375,-39.0625,-40.0390625,0.0
1734412724.862694,-34.66796875,-47.36328125,-41.015625,-43.9453125,0.0
1734412724.8666,-36.62109375,-51.26953125,-47.36328125,-45.8984375,0.0
1734412724.8705058,-44.43359375,-53.7109375,-52.734375,-41.9921875,0.0
1734412724.8744118,-39.0625,-55.6640625,-56.640625,-46.875,0.0
1734412724.8783176,-29.296875,-55.6640625,-52.24609375,-51.7578125,0.0
1734412724.8822236,-25.390625,-50.78125,-45.41015625,-51.7578125,0.0
1734412724.8861294,-26.85546875,-53.22265625,-45.41015625,-58.10546875,0.0
1734412724.8900118,-35.64453125,-54.6875,-42.96875,-52.24609375,0.0
1734412724.8939176,-26.3671875,-47.8515625,-45.41015625,-41.9921875,0.0
1734412724.8978236,-12.20703125,-46.38671875,-45.8984375,-37.109375,0.0
1734412724.9017293,-16.6015625,-48.33984375,-42.48046875,-31.73828125,0.0
1734412724.9056354,-18.06640625,-47.8515625,-41.015625,-36.62109375,0.0
1734412724.9095411,-20.01953125,-48.33984375,-41.015625,-33.203125,0.0
1734412724.9134471,-25.87890625,-46.38671875,-39.0625,-29.78515625,0.0
1734412724.917353,-35.64453125,-46.875,-39.55078125,-43.45703125,0.0
1734412724.921259,-31.25,-49.31640625,-41.9921875,-44.921875,0.0
1734412724.9251647,-26.3671875,-48.33984375,-43.9453125,-37.59765625,0.0
1734412724.9290707,-42.96875,-45.8984375,-44.921875,-41.015625,0.0
1734412724.9329765,-51.26953125,-44.43359375,-46.875,-35.15625,0.0
1734412724.9369175,-41.50390625,-48.33984375,-47.36328125,-32.2265625,0.0
1734412724.9408236,-35.64453125,-50.78125,-48.33984375,-42.48046875,0.0
1734412724.9447293,-41.9921875,-46.875,-45.41015625,-41.015625,0.0
1734412724.9486353,-46.38671875,-43.9453125,-36.1328125,-39.0625,0.0
1734412724.952541,-38.0859375,-44.921875,-36.62109375,-35.15625,0.0
1734412724.9564471,-31.25,-45.8984375,-41.015625,-35.15625,0.0
1734412724.960353,-25.390625,-40.0390625,-35.15625,-43.9453125,0.0
1734412724.964259,-37.59765625,-36.1328125,-38.0859375,-46.875,0.0
1734412724.9681647,-40.0390625,-37.109375,-47.36328125,-43.9453125,0.0
1734412724.9720707,-27.83203125,-41.50390625,-49.31640625,-28.3203125,0.0
1734412724.9759767,-31.73828125,-43.9453125,-47.36328125,-32.2265625,0.0
1734412724.9798825,-30.2734375,-43.9453125,-46.38671875,-43.45703125,0.0
1734412724.9838176,-16.11328125,-43.45703125,-45.41015625,-40.52734375,0.0
1734412724.9877234,-15.13671875,-44.43359375,-46.875,-38.0859375,0.0
1734412724.9916294,-10.7421875,-41.50390625,-48.828125,-38.57421875,0.0
1734412724.9955351,0.9765625,-41.015625,-48.33984375,-34.66796875,0.0
1734412724.9994411,9.27734375,-40.0390625,-47.8515625,-29.78515625,0.0
1734412725.003347,9.765625,-37.109375,-49.31640625,-30.76171875,0.0
1734412725.007253,-5.859375,-39.55078125,-49.31640625,-26.85546875,0.0
1734412725.0111587,-24.90234375,-38.0859375,-43.9453125,-28.3203125,0.0
1734412725.0150647,-34.1796875,-40.52734375,-45.41015625,-24.90234375,0.0
1734412725.0189705,-34.1796875,-40.52734375,-41.50390625,-14.6484375,0.0
1734412725.0228765,-34.1796875,-33.203125,-38.0859375,-15.625,0.0
1734412725.0267823,-45.8984375,-37.109375,-42.96875,-26.3671875,0.0
1734412725.0307248,-51.7578125,-41.015625,-44.921875,-29.78515625,0.0
1734412725.0346305,-45.8984375,-33.69140625,-46.38671875,-34.66796875,0.0
1734412725.0385365,-33.203125,-34.66796875,-47.36328125,-45.8984375,0.0
1734412725.0424423,-27.83203125,-37.109375,-51.7578125,-47.36328125,0.0
1734412725.0463483,-30.76171875,-33.203125,-49.31640625,-43.45703125,0.0
1734412725.050254,-33.203125,-35.64453125,-42.96875,-51.26953125,0.0
1734412725.05416,-38.57421875,-40.0390625,-41.50390625,-57.12890625,0.0
1734412725.058066,-38.57421875,-41.50390625,-43.45703125,-59.5703125,0.0
1734412725.061972,-33.69140625,-44.921875,-45.8984375,-61.5234375,0.0
1734412725.0658777,-41.50390625,-42.96875,-45.8984375,-69.82421875,0.0
1734412725.0697837,-52.24609375,-41.015625,-48.33984375,-65.4296875,0.0
1734412725.0736897,-50.78125,-45.8984375,-51.7578125,-50.78125,0.0
1734412725.0776098,-33.203125,-46.38671875,-50.29296875,-54.6875,0.0
1734412725.0815156,-24.4140625,-47.36328125,-48.33984375,-49.31640625,0.0
1734412725.0854216,-40.52734375,-53.22265625,-54.6875,-39.55078125,0.0
1734412725.0893273,-44.921875,-51.7578125,-57.12890625,-48.828125,0.0
1734412725.0932333,-36.1328125,-44.921875,-52.24609375,-39.0625,0.0
1734412725.0971391,-20.01953125,-42.96875,-50.78125,-20.01953125,0.0
1734412725.1010451,-3.90625,-38.0859375,-46.38671875,-20.99609375,0.0
1734412725.104951,0.9765625,-37.59765625,-52.734375,-14.6484375,0.0
1734412725.108857,-8.7890625,-41.50390625,-55.17578125,-6.34765625,0.0
1734412725.112763,-20.99609375,-34.66796875,-47.36328125,-15.625,0.0
1734412725.1166687,-23.92578125,-34.66796875,-43.9453125,-26.85546875,0.0
1734412725.1205747,-30.2734375,-43.45703125,-43.45703125,-32.2265625,0.0
1734412725.1244905,-26.85546875,-41.015625,-43.9453125,-32.71484375,0.0
1734412725.1283965,-28.80859375,-40.0390625,-41.50390625,-28.3203125,0.0
1734412725.1323023,-32.2265625,-40.52734375,-43.9453125,-35.15625,0.0
1734412725.1362083,-28.3203125,-35.15625,-46.38671875,-33.69140625,0.0
1734412725.140114,-32.2265625,-34.1796875,-43.9453125,-29.78515625,0.0
1734412725.14402,-46.875,-35.15625,-41.015625,-41.9921875,0.0
1734412725.1479259,-59.08203125,-31.73828125,-42.48046875,-47.36328125,0.0
1734412725.1518319,-44.921875,-30.2734375,-44.43359375,-31.73828125,0.0
1734412725.1557376,-41.015625,-31.25,-41.9921875,-38.57421875,0.0
1734412725.1596437,-50.29296875,-36.1328125,-48.33984375,-62.5,0.0
1734412725.1635494,-62.01171875,-40.52734375,-53.22265625,-68.359375,0.0
1734412725.1674554,-75.1953125,-42.96875,-51.26953125,-60.546875,0.0
1734412725.171357,-72.265625,-41.50390625,-48.33984375,-61.03515625,0.0
1734412725.175263,-59.5703125,-40.52734375,-44.43359375,-65.91796875,0.0
1734412725.1791687,-56.15234375,-41.50390625,-44.921875,-60.05859375,0.0
1734412725.1830747,-59.5703125,-41.50390625,-45.41015625,-64.94140625,0.0
1734412725.1869805,-64.453125,-41.9921875,-48.33984375,-74.70703125,0.0
1734412725.1908865,-55.6640625,-44.921875,-49.31640625,-65.91796875,0.0
1734412725.1947923,-48.33984375,-43.9453125,-44.43359375,-49.31640625,0.0
1734412725.1986983,-34.1796875,-37.109375,-41.015625,-39.0625,0.0
1734412725.202604,-37.109375,-35.15625,-43.45703125,-40.0390625,0.0
1734412725.20651,-35.64453125,-38.0859375,-43.45703125,-29.78515625,0.0
1734412725.2104158,-18.5546875,-39.55078125,-40.52734375,-18.06640625,0.0
1734412725.2143219,-22.4609375,-39.0625,-39.0625,-29.78515625,0.0
1734412725.218214,-35.64453125,-40.52734375,-41.9921875,-33.203125,0.0
1734412725.2221198,-36.62109375,-42.96875,-47.36328125,-21.97265625,0.0
1734412725.2260258,-34.66796875,-41.015625,-45.41015625,-33.69140625,0.0
1734412725.2299316,-31.73828125,-34.1796875,-42.96875,-41.015625,0.0
1734412725.2338376,-31.25,-30.76171875,-42.48046875,-33.69140625,0.0
1734412725.2377434,-27.34375,-26.3671875,-41.50390625,-30.2734375,0.0
1734412725.2416494,-14.6484375,-29.296875,-49.8046875,-21.484375,0.0
1734412725.2455552,-26.85546875,-34.66796875,-52.24609375,-24.4140625,0.0
1734412725.2494612,-51.7578125,-35.15625,-51.7578125,-44.43359375,0.0
1734412725.253367,-40.0390625,-35.15625,-50.78125,-45.41015625,0.0
1734412725.257273,-38.57421875,-37.59765625,-48.33984375,-48.33984375,0.0
1734412725.2611787,-41.50390625,-38.0859375,-47.8515625,-60.546875,0.0
1734412725.2650576,-38.57421875,-37.109375,-48.33984375,-59.08203125,0.0
1734412725.2689633,-47.8515625,-37.109375,-48.828125,-53.22265625,0.0
1734412725.2728693,-43.9453125,-41.9921875,-51.26953125,-50.29296875,0.0
1734412725.2767751,-33.69140625,-44.921875,-49.31640625,-51.7578125,0.0
1734412725.2806811,-31.25,-43.45703125,-47.36328125,-50.29296875,0.0
1734412725.284587,-27.83203125,-43.9453125,-50.78125,-38.57421875,0.0
1734412725.288493,-32.2265625,-41.015625,-50.78125,-32.2265625,0.0
1734412725.2923987,-43.9453125,-35.15625,-50.29296875,-36.62109375,0.0
1734412725.2963047,-41.9921875,-39.55078125,-50.78125,-34.1796875,0.0
1734412725.3002105,-36.1328125,-44.921875,-53.7109375,-22.94921875,0.0
1734412725.3041165,-30.76171875,-43.9453125,-55.17578125,-10.25390625,0.0
1734412725.3080223,-29.78515625,-43.45703125,-53.7109375,-16.6015625,0.0
1734412725.312038,-29.296875,-41.9921875,-60.05859375,-28.3203125,0.0
1734412725.3159437,-11.23046875,-41.9921875,-63.4765625,-33.69140625,0.0
1734412725.3198497,-19.04296875,-39.55078125,-52.734375,-26.85546875,0.0
1734412725.3237555,-35.15625,-32.71484375,-47.8515625,-25.87890625,0.0
1734412725.3276615,-27.83203125,-33.69140625,-47.8515625,-19.53125,0.0
1734412725.3315673,-25.87890625,-44.921875,-46.875,-14.6484375,0.0
1734412725.3354733,-30.76171875,-47.36328125,-46.38671875,-16.6015625,0.0
1734412725.3393793,-32.71484375,-43.45703125,-45.41015625,-17.08984375,0.0
1734412725.343285,-36.1328125,-43.9453125,-44.921875,-30.76171875,0.0
1734412725.347191,-25.390625,-41.50390625,-46.38671875,-32.71484375,0.0
1734412725.3510969,-27.83203125,-36.62109375,-46.875,-27.34375,0.0
1734412725.3550029,-31.73828125,-39.55078125,-51.26953125,-28.80859375,0.0
1734412725.3589377,-27.83203125,-41.50390625,-49.31640625,-33.69140625,0.0
1734412725.3628438,-36.62109375,-44.921875,-45.41015625,-31.25,0.0
1734412725.3667498,-44.43359375,-45.41015625,-46.38671875,-36.62109375,0.0
1734412725.3706555,-35.15625,-41.015625,-47.36328125,-35.64453125,0.0
1734412725.3745615,-28.80859375,-39.55078125,-46.875,-31.25,0.0
1734412725.3784673,-28.3203125,-41.9921875,-45.41015625,-36.62109375,0.0
1734412725.3823733,-30.2734375,-39.55078125,-43.9453125,-33.69140625,0.0
1734412725.386279,-30.2734375,-33.69140625,-38.57421875,-26.3671875,0.0
1734412725.390185,-33.69140625,-35.15625,-39.55078125,-21.484375,0.0
1734412725.394091,-28.3203125,-41.50390625,-42.96875,-26.85546875,0.0
1734412725.397997,-23.4375,-41.9921875,-45.8984375,-33.69140625,0.0
1734412725.4019027,-28.80859375,-40.52734375,-49.8046875,-29.296875,0.0
1734412725.405828,-12.6953125,-41.50390625,-48.828125,-12.6953125,0.0
1734412725.4097338,-3.90625,-37.109375,-41.9921875,-10.25390625,0.0
1734412725.4136398,-9.765625,-35.64453125,-41.9921875,-19.04296875,0.0
1734412725.4175456,-10.7421875,-34.1796875,-43.9453125,-21.97265625,0.0
1734412725.4214516,-14.16015625,-32.71484375,-45.41015625,-23.92578125,0.0
1734412725.4253573,-24.90234375,-33.69140625,-46.875,-23.4375,0.0
1734412725.4292634,-26.3671875,-35.64453125,-45.8984375,-20.5078125,0.0
1734412725.4331691,-13.671875,-39.0625,-48.33984375,-13.671875,0.0
1734412725.4370751,-10.25390625,-45.41015625,-45.8984375,-13.18359375,0.0
1734412725.440981,-17.578125,-45.8984375,-41.9921875,-16.6015625,0.0
1734412725.444887,-23.92578125,-43.45703125,-47.36328125,-20.01953125,0.0
1734412725.4487927,-32.2265625,-45.8984375,-48.33984375,-18.06640625,0.0
1734412725.452709,-33.69140625,-46.38671875,-47.8515625,-20.5078125,0.0
1734412725.4566147,-38.57421875,-45.41015625,-52.24609375,-30.76171875,0.0
1734412725.4605207,-39.0625,-40.0390625,-52.24609375,-36.1328125,0.0
1734412725.4644268,-26.3671875,-33.203125,-51.7578125,-33.203125,0.0
1734412725.4683325,-23.4375,-27.83203125,-48.33984375,-37.109375,0.0
1734412725.4722385,-32.71484375,-30.76171875,-48.828125,-39.55078125,0.0
1734412725.4761443,-29.78515625,-31.73828125,-53.22265625,-40.52734375,0.0
1734412725.4800503,-17.578125,-33.69140625,-52.734375,-36.62109375,0.0
1734412725.483956,-25.390625,-39.55078125,-53.22265625,-27.34375,0.0
1734412725.487862,-43.45703125,-39.55078125,-49.8046875,-33.69140625,0.0
1734412725.491768,-41.50390625,-40.52734375,-48.33984375,-42.48046875,0.0
1734412725.495674,-36.62109375,-42.48046875,-55.17578125,-41.9921875,0.0
1734412725.499581,-30.2734375,-32.2265625,-55.17578125,-41.50390625,0.0
1734412725.503487,-29.296875,-30.2734375,-56.15234375,-45.8984375,0.0
1734412725.507393,-28.3203125,-34.1796875,-55.6640625,-43.45703125,0.0
1734412725.511299,-25.87890625,-33.203125,-56.640625,-38.57421875,0.0
1734412725.5152047,-27.83203125,-36.1328125,-57.6171875,-38.0859375,0.0
1734412725.5191107,-26.3671875,-41.9921875,-54.19921875,-41.015625,0.0
1734412725.5230165,-34.1796875,-46.875,-55.17578125,-50.78125,0.0
1734412725.5269225,-31.73828125,-46.38671875,-55.6640625,-44.43359375,0.0
1734412725.5308282,-25.390625,-39.55078125,-47.8515625,-31.73828125,0.0
1734412725.5347342,-22.94921875,-34.66796875,-43.9453125,-34.1796875,0.0
1734412725.53864,-10.25390625,-41.015625,-47.8515625,-34.1796875,0.0
1734412725.542546,-10.25390625,-46.38671875,-49.8046875,-20.5078125,0.0
1734412725.5464458,-38.0859375,-42.48046875,-45.41015625,-21.97265625,0.0
1734412725.5503516,-57.6171875,-44.43359375,-41.9921875,-27.34375,0.0
1734412725.5542576,-69.3359375,-49.8046875,-44.43359375,-27.34375,0.0
1734412725.5581634,-67.87109375,-53.7109375,-46.875,-41.015625,0.0
1734412725.5620694,-54.6875,-48.33984375,-45.8984375,-48.828125,0.0
1734412725.5659752,-49.31640625,-44.921875,-45.41015625,-47.36328125,0.0
1734412725.5698812,-41.50390625,-50.78125,-40.52734375,-46.875,0.0
1734412725.573787,-35.15625,-48.828125,-36.62109375,-38.57421875,0.0
1734412725.577693,-32.2265625,-41.9921875,-36.62109375,-47.36328125,0.0
1734412725.5815988,-39.55078125,-47.36328125,-43.45703125,-63.4765625,0.0
1734412725.5855048,-50.29296875,-42.96875,-43.45703125,-58.10546875,0.0
1734412725.5894105,-47.36328125,-37.109375,-42.48046875,-58.59375,0.0
1734412725.5933008,-51.26953125,-36.1328125,-45.8984375,-57.12890625,0.0
1734412725.5972066,-43.9453125,-37.109375,-45.41015625,-55.6640625,0.0
1734412725.6011126,-25.87890625,-42.96875,-48.33984375,-58.10546875,0.0
1734412725.6050184,-26.3671875,-48.33984375,-49.31640625,-48.33984375,0.0
1734412725.6089244,-25.87890625,-49.31640625,-44.43359375,-48.33984375,0.0
1734412725.6128304,-20.01953125,-47.36328125,-48.828125,-63.96484375,0.0
1734412725.6167362,-14.6484375,-49.31640625,-46.875,-53.7109375,0.0
1734412725.6206422,-12.6953125,-42.96875,-31.25,-40.52734375,0.0
1734412725.624548,-30.76171875,-37.109375,-30.76171875,-56.15234375,0.0
1734412725.628454,-44.43359375,-41.015625,-41.50390625,-62.01171875,0.0
1734412725.6323597,-38.0859375,-41.015625,-38.57421875,-50.78125,0.0
1734412725.6362658,-35.15625,-39.0625,-31.73828125,-45.41015625,0.0
1734412725.640147,-42.48046875,-40.0390625,-32.71484375,-55.6640625,0.0
1734412725.644053,-49.31640625,-41.015625,-36.62109375,-69.3359375,0.0
1734412725.6479588,-47.8515625,-41.50390625,-42.48046875,-67.3828125,0.0
1734412725.6518648,-31.25,-39.55078125,-44.921875,-60.05859375,0.0
1734412725.6557705,-26.85546875,-37.109375,-45.41015625,-53.7109375,0.0
1734412725.6596766,-28.80859375,-43.45703125,-44.43359375,-53.22265625,0.0
1734412725.6635823,-26.3671875,-46.875,-43.9453125,-51.26953125,0.0
1734412725.6674883,-28.80859375,-41.9921875,-42.48046875,-43.9453125,0.0
1734412725.671394,-32.2265625,-43.45703125,-41.9921875,-46.38671875,0.0
1734412725.6753001,-32.71484375,-48.33984375,-41.9921875,-51.26953125,0.0
1734412725.679206,-23.92578125,-43.45703125,-39.55078125,-44.43359375,0.0
1734412725.683112,-10.25390625,-39.55078125,-40.0390625,-41.50390625,0.0
1734412725.687055,-0.9765625,-41.015625,-38.57421875,-40.52734375,0.0
1734412725.6909611,4.39453125,-38.57421875,-40.0390625,-38.0859375,0.0
1734412725.694867,-0.9765625,-34.66796875,-41.9921875,-41.015625,0.0
1734412725.698773,-13.18359375,-36.1328125,-42.48046875,-41.9921875,0.0
1734412725.7026787,-5.859375,-37.59765625,-45.8984375,-39.55078125,0.0
1734412725.7065847,-2.9296875,-40.0390625,-45.8984375,-41.015625,0.0
1734412725.7104905,-16.11328125,-40.0390625,-46.875,-44.921875,0.0
1734412725.7143965,-25.390625,-41.015625,-47.8515625,-52.734375,0.0
1734412725.7183022,-29.78515625,-44.43359375,-49.31640625,-55.17578125,0.0
1734412725.7222083,-25.87890625,-48.828125,-51.26953125,-50.29296875,0.0
1734412725.726114,-20.01953125,-42.96875,-43.9453125,-56.640625,0.0
1734412725.73002,-32.2265625,-38.0859375,-40.52734375,-62.98828125,0.0
1734412725.733957,-41.50390625,-44.921875,-43.9453125,-60.05859375,0.0
1734412725.7378628,-41.9921875,-47.36328125,-40.52734375,-55.6640625,0.0
1734412725.7417688,-40.52734375,-44.921875,-38.0859375,-59.08203125,0.0
1734412725.7456746,-41.50390625,-46.875,-43.9453125,-78.125,0.0
1734412725.7495806,-39.55078125,-51.26953125,-46.38671875,-79.1015625,0.0
1734412725.7534864,-43.9453125,-57.12890625,-48.828125,-75.68359375,0.0
1734412725.7573924,-53.7109375,-55.17578125,-46.875,-78.125,0.0
1734412725.7612984,-62.5,-48.33984375,-44.921875,-75.68359375,0.0
1734412725.7652042,-62.98828125,-51.26953125,-50.78125,-71.77734375,0.0
1734412725.7691102,-54.6875,-53.22265625,-47.8515625,-68.84765625,0.0
1734412725.773016,-52.24609375,-46.38671875,-41.50390625,-62.01171875,0.0
1734412725.776922,-43.9453125,-47.8515625,-48.33984375,-55.6640625,0.0
1734412725.780915,-40.0390625,-52.24609375,-58.59375,-59.5703125,0.0
1734412725.784821,-41.50390625,-49.8046875,-55.17578125,-56.640625,0.0
1734412725.7887268,-36.1328125,-46.875,-53.7109375,-53.7109375,0.0
1734412725.7926328,-35.15625,-42.96875,-56.640625,-47.8515625,0.0
1734412725.7965386,-31.25,-40.0390625,-51.7578125,-41.50390625,0.0
1734412725.8004446,-28.80859375,-41.015625,-45.41015625,-43.45703125,0.0
1734412725.8043504,-36.1328125,-43.9453125,-45.41015625,-38.57421875,0.0
1734412725.8082564,-36.1328125,-42.96875,-50.78125,-45.41015625,0.0
1734412725.8121622,-27.34375,-40.52734375,-53.22265625,-47.8515625,0.0
1734412725.8160682,-21.484375,-37.59765625,-46.38671875,-52.24609375,0.0
1734412725.819974,-16.11328125,-38.57421875,-47.8515625,-67.87109375,0.0
1734412725.82388,-30.76171875,-48.33984375,-49.8046875,-67.3828125,0.0
1734412725.827794,-48.33984375,-45.8984375,-45.41015625,-57.12890625,0.0
1734412725.8317,-52.24609375,-39.0625,-43.9453125,-59.5703125,0.0
1734412725.8356059,-49.31640625,-38.57421875,-42.48046875,-68.359375,0.0
1734412725.8395119,-36.1328125,-38.0859375,-40.0390625,-69.3359375,0.0
1734412725.8434176,-30.76171875,-40.0390625,-40.0390625,-60.546875,0.0
1734412725.8473237,-46.38671875,-43.9453125,-40.0390625,-59.08203125,0.0
1734412725.8512294,-55.17578125,-43.9453125,-41.015625,-69.3359375,0.0
1734412725.8551354,-51.26953125,-34.66796875,-37.59765625,-70.3125,0.0
1734412725.8590412,-48.828125,-29.78515625,-38.57421875,-69.3359375,0.0
1734412725.8629472,-45.41015625,-31.25,-35.64453125,-68.359375,0.0
1734412725.866853,-33.203125,-27.83203125,-35.64453125,-59.5703125,0.0
1734412725.870759,-34.1796875,-33.203125,-44.921875,-59.08203125,0.0
1734412725.874739,-48.828125,-38.57421875,-45.41015625,-51.7578125,0.0
1734412725.878645,-50.29296875,-33.203125,-42.96875,-51.26953125,0.0
1734412725.8825507,-44.921875,-39.0625,-47.8515625,-56.640625,0.0
1734412725.8864567,-41.9921875,-46.875,-49.8046875,-48.828125,0.0
1734412725.8903625,-39.0625,-37.59765625,-41.50390625,-40.52734375,0.0
1734412725.8942685,-29.78515625,-30.2734375,-32.2265625,-38.0859375,0.0
1734412725.8981743,-22.94921875,-34.66796875,-31.73828125,-33.203125,0.0
1734412725.9020803,-27.34375,-35.15625,-38.0859375,-21.97265625,0.0
1734412725.905986,-32.2265625,-30.76171875,-38.0859375,-19.04296875,0.0
1734412725.909892,-23.4375,-31.25,-35.15625,-27.83203125,0.0
1734412725.9137979,-22.4609375,-34.1796875,-40.52734375,-32.71484375,0.0
1734412725.9177039,-20.99609375,-33.69140625,-38.0859375,-34.66796875,0.0
1734412725.9216018,-15.625,-24.90234375,-34.66796875,-37.109375,0.0
1734412725.9255078,-16.6015625,-22.94921875,-36.62109375,-41.50390625,0.0
1734412725.9294138,-25.390625,-34.1796875,-32.2265625,-43.9453125,0.0
1734412725.9333196,-34.66796875,-37.59765625,-34.1796875,-41.50390625,0.0
1734412725.9372256,-32.71484375,-38.57421875,-40.0390625,-46.875,0.0
1734412725.9411314,-30.2734375,-42.48046875,-40.52734375,-50.29296875,0.0
1734412725.9450374,-41.9921875,-42.96875,-44.921875,-49.31640625,0.0
1734412725.9489431,-50.78125,-41.9921875,-43.9453125,-62.5,0.0
1734412725.9528491,-46.38671875,-41.9921875,-44.921875,-74.21875,0.0
1734412725.956755,-48.33984375,-44.921875,-48.828125,-79.1015625,0.0
1734412725.960661,-48.33984375,-52.734375,-49.31640625,-77.63671875,0.0
1734412725.9645667,-47.8515625,-53.7109375,-52.734375,-64.94140625,0.0
1734412725.968461,-56.15234375,-47.36328125,-53.7109375,-58.10546875,0.0
1734412725.9723668,-55.17578125,-48.828125,-55.17578125,-62.01171875,0.0
1734412725.9762728,-47.8515625,-46.875,-55.6640625,-62.98828125,0.0
1734412725.9801786,-38.57421875,-39.55078125,-53.7109375,-48.33984375,0.0
1734412725.9840846,-31.73828125,-40.0390625,-54.19921875,-43.9453125,0.0
1734412725.9879904,-46.38671875,-47.8515625,-51.7578125,-67.87109375,0.0
1734412725.9918964,-55.17578125,-51.26953125,-51.7578125,-74.70703125,0.0
1734412725.9958022,-48.828125,-45.41015625,-53.22265625,-63.4765625,0.0
1734412725.9997082,-43.9453125,-41.9921875,-49.31640625,-56.15234375,0.0
1734412726.0036142,-38.0859375,-43.9453125,-41.9921875,-51.26953125,0.0
1734412726.00752,-43.9453125,-45.41015625,-41.9921875,-47.36328125,0.0
1734412726.011426,-52.24609375,-43.9453125,-40.0390625,-40.52734375,0.0
1734412726.015313,-43.9453125,-39.55078125,-37.109375,-41.015625,0.0
1734412726.019219,-31.25,-42.96875,-37.59765625,-43.45703125,0.0
1734412726.0231247,-31.73828125,-44.43359375,-42.48046875,-34.66796875,0.0
1734412726.0270307,-31.25,-40.52734375,-45.41015625,-31.73828125,0.0
1734412726.0309365,-27.83203125,-40.52734375,-43.45703125,-25.87890625,0.0
1734412726.0348425,-31.25,-45.41015625,-45.41015625,-26.3671875,0.0
1734412726.0387483,-28.80859375,-47.8515625,-47.8515625,-31.25,0.0
1734412726.0426543,-19.53125,-42.96875,-47.8515625,-37.59765625,0.0
1734412726.04656,-24.4140625,-42.96875,-46.875,-44.43359375,0.0
1734412726.050466,-36.62109375,-44.921875,-42.48046875,-38.57421875,0.0
1734412726.0543718,-41.9921875,-40.0390625,-39.55078125,-30.2734375,0.0
1734412726.0582778,-29.78515625,-31.73828125,-38.57421875,-40.52734375,0.0
1734412726.0622265,0.0,-29.78515625,0.0,-40.52734375,0.0
1734412726.0661325,0.0,-33.69140625,0.0,-34.66796875,0.0
1734412726.0700383,0.0,-36.1328125,0.0,-44.43359375,0.0
1734412726.0739443,0.0,-31.73828125,0.0,-46.875,0.0
1734412726.07785,0.0,-33.69140625,0.0,-35.64453125,0.0
1734412726.081756,0.0,-44.921875,0.0,-24.4140625,0.0
1734412726.085662,0.0,-45.8984375,0.0,-24.4140625,0.0
1734412726.089568,0.0,-41.50390625,0.0,-29.78515625,0.0
1734412726.093474,0.0,-41.50390625,0.0,-34.1796875,0.0
1734412726.0973797,0.0,-43.45703125,0.0,-30.2734375,0.0
1734412726.1012857,0.0,-41.9921875,0.0,-35.64453125,0.0
1734412726.1051915,0.0,-41.9921875,0.0,-35.64453125,0.0
1734412726.1091335,-24.90234375,-41.9921875,-35.64453125,-26.85546875,0.0
1734412726.1130393,-13.671875,-40.52734375,-40.0390625,-26.85546875,0.0
1734412726.1169453,-9.765625,-38.57421875,-37.59765625,-24.90234375,0.0
1734412726.120851,-14.6484375,-36.62109375,-37.109375,-19.04296875,0.0
1734412726.124757,-6.34765625,-36.62109375,-39.55078125,-24.90234375,0.0
1734412726.1286628,0.9765625,-38.0859375,-38.0859375,-27.83203125,0.0
1734412726.1325688,-15.625,-38.0859375,-39.55078125,-26.85546875,0.0
1734412726.1364746,-19.04296875,-35.15625,-43.9453125,-35.15625,0.0
1734412726.1403806,-15.13671875,-36.1328125,-49.8046875,-36.62109375,0.0
1734412726.1442864,-29.296875,-35.64453125,-47.36328125,-37.59765625,0.0
1734412726.1481924,-34.66796875,-29.78515625,-41.9921875,-46.38671875,0.0
1734412726.1520984,-33.69140625,-30.76171875,-47.36328125,-46.875,0.0
1734412726.1560223,-38.57421875,-31.73828125,-49.31640625,-48.33984375,0.0
1734412726.159928,-24.90234375,-30.76171875,-45.41015625,-41.9921875,0.0
1734412726.163834,-17.08984375,-26.85546875,-45.8984375,-36.1328125,0.0
1734412726.16774,-28.3203125,-27.34375,-49.31640625,-39.55078125,0.0
1734412726.1716459,-24.90234375,-28.3203125,-48.33984375,-32.2265625,0.0
1734412726.175552,-18.06640625,-28.80859375,-47.36328125,-36.1328125,0.0
1734412726.1794577,-22.4609375,-30.2734375,-46.875,-43.45703125,0.0
1734412726.1833637,-26.3671875,-31.73828125,-45.8984375,-42.48046875,0.0
1734412726.1872694,-26.85546875,-36.1328125,-50.29296875,-44.921875,0.0
1734412726.1911755,-26.3671875,-33.203125,-46.38671875,-43.9453125,0.0
1734412726.1950812,-19.04296875,-36.1328125,-38.0859375,-41.015625,0.0
1734412726.1989872,-11.23046875,-40.52734375,-43.9453125,-50.78125,0.0
1734412726.2029073,-19.53125,-42.96875,-52.24609375,-54.19921875,0.0
1734412726.206813,-29.296875,-47.8515625,-53.22265625,-55.17578125,0.0
1734412726.210719,-26.85546875,-45.41015625,-42.96875,-35.15625,0.0
1734412726.214625,-24.4140625,-45.41015625,-37.59765625,-25.87890625,0.0
1734412726.218531,-20.5078125,-47.8515625,-38.0859375,-40.52734375,0.0
1734412726.2224367,-22.94921875,-49.8046875,-41.015625,-44.921875,0.0
1734412726.2263427,-29.296875,-48.33984375,-42.96875,-40.52734375,0.0
1734412726.2302485,-37.109375,-46.875,-39.55078125,-29.296875,0.0
1734412726.2341545,-37.109375,-49.31640625,-41.9921875,-35.64453125,0.0
1734412726.2380602,-31.73828125,-44.43359375,-46.875,-48.33984375,0.0
1734412726.2419662,-24.4140625,-44.921875,-51.26953125,-44.43359375,0.0
1734412726.2458723,-29.78515625,-53.22265625,-51.7578125,-50.29296875,0.0
1734412726.2497895,-37.59765625,-49.8046875,-51.26953125,-50.78125,0.0
1734412726.2536955,-25.390625,-40.52734375,-49.31640625,-50.78125,0.0
1734412726.2576013,-23.92578125,-42.96875,-54.19921875,-53.22265625,0.0
1734412726.2615073,-29.296875,-46.38671875,-53.22265625,-48.828125,0.0
1734412726.265413,-23.92578125,-44.921875,-50.29296875,-49.8046875,0.0
1734412726.269319,-25.87890625,-46.875,-48.33984375,-53.7109375,0.0
1734412726.2732248,-22.94921875,-41.50390625,-46.875,-42.96875,0.0
1734412726.2771308,-15.13671875,-34.1796875,-46.875,-31.73828125,0.0
1734412726.2810369,-24.4140625,-33.203125,-38.0859375,-30.76171875,0.0
1734412726.2849426,-37.59765625,-38.57421875,-35.64453125,-37.109375,0.0
1734412726.2888486,-40.0390625,-41.9921875,-47.36328125,-41.015625,0.0
1734412726.2927544,-38.57421875,-41.9921875,-48.828125,-42.96875,0.0
1734412726.2966535,-35.64453125,-46.875,-47.8515625,-50.29296875,0.0
1734412726.3005595,-43.45703125,-51.26953125,-53.22265625,-53.22265625,0.0
1734412726.3044653,-54.6875,-49.31640625,-52.24609375,-52.24609375,0.0
1734412726.3083713,-50.29296875,-43.45703125,-45.41015625,-41.015625,0.0
1734412726.312277,-46.875,-42.96875,-42.96875,-41.015625,0.0
1734412726.316183,-43.45703125,-49.8046875,-45.41015625,-36.62109375,0.0
1734412726.3200889,-28.80859375,-55.6640625,-48.33984375,-35.64453125,0.0
1734412726.3239949,-29.78515625,-52.734375,-46.875,-36.1328125,0.0
1734412726.3279006,-47.36328125,-44.43359375,-41.015625,-38.0859375,0.0
1734412726.3318067,-51.26953125,-41.50390625,-34.1796875,-44.43359375,0.0
1734412726.3357127,-46.875,-40.0390625,-37.109375,-50.29296875,0.0
1734412726.3396184,-40.52734375,-37.59765625,-41.50390625,-53.22265625,0.0
1734412726.34365,-36.62109375,-37.59765625,-45.41015625,-54.6875,0.0
1734412726.347556,-34.66796875,-36.62109375,-47.8515625,-45.8984375,0.0
1734412726.3514621,-31.25,-38.57421875,-48.828125,-44.921875,0.0
1734412726.355368,-42.96875,-39.55078125,-52.734375,-50.78125,0.0
1734412726.359274,-40.0390625,-40.52734375,-53.22265625,-51.26953125,0.0
1734412726.3631797,-33.203125,-43.45703125,-55.6640625,-50.78125,0.0
1734412726.3670857,-42.48046875,-45.41015625,-57.6171875,-44.43359375,0.0
1734412726.3709915,-53.22265625,-41.015625,-48.33984375,-44.43359375,0.0
1734412726.3748975,-43.45703125,-40.52734375,-46.38671875,-51.7578125,0.0
1734412726.3788033,-23.4375,-48.33984375,-49.31640625,-46.875,0.0
1734412726.3827093,-27.83203125,-54.6875,-49.31640625,-33.69140625,0.0
1734412726.3866153,-35.64453125,-53.7109375,-42.96875,-30.76171875,0.0
1734412726.3904939,0.0,-51.7578125,-40.0390625,-33.203125,0.0
1734412726.3943996,0.0,-54.19921875,-48.828125,-39.55078125,0.0
1734412726.3983057,0.0,-53.22265625,-48.828125,-33.203125,0.0
1734412726.4022117,0.0,-50.29296875,-49.8046875,-28.3203125,0.0
1734412726.4061174,0.0,-53.22265625,-54.19921875,-28.3203125,0.0
1734412726.4100235,0.0,-57.12890625,-52.24609375,-17.08984375,0.0
1734412726.4139292,0.0,-53.22265625,-46.875,-17.578125,0.0
1734412726.4178352,0.0,-47.36328125,-47.8515625,-32.2265625,0.0
1734412726.421741,0.0,-47.36328125,-50.78125,-43.9453125,0.0
1734412726.425647,0.0,-53.22265625,-49.31640625,-44.43359375,0.0
1734412726.4295528,0.0,-53.22265625,-52.734375,-35.15625,0.0
1734412726.4334588,0.0,-48.828125,-52.24609375,-41.9921875,0.0
1734412726.4373417,-44.921875,-46.875,-52.24609375,-56.640625,0.0
1734412726.4412475,-49.8046875,-52.24609375,-58.59375,-54.6875,0.0
1734412726.4451535,-40.52734375,-52.24609375,-60.546875,-59.5703125,0.0
1734412726.4490592,-40.0390625,-47.8515625,-58.10546875,-64.453125,0.0
1734412726.4529653,-49.8046875,-49.31640625,-59.08203125,-57.12890625,0.0
1734412726.456871,-48.33984375,-49.31640625,-55.17578125,-65.4296875,0.0
1734412726.460777,-37.59765625,-47.8515625,-52.24609375,-68.359375,0.0
1734412726.4646828,-40.52734375,-46.38671875,-53.7109375,-67.87109375,0.0
1734412726.4685888,-35.64453125,-47.8515625,-53.7109375,-68.359375,0.0
1734412726.4724948,-28.3203125,-46.875,-52.24609375,-52.734375,0.0
1734412726.4764006,-41.50390625,-40.52734375,-49.8046875,-47.8515625,0.0
1734412726.4803066,-47.36328125,-39.55078125,-50.29296875,-56.15234375,0.0
1734412726.484308,-36.1328125,-46.38671875,-48.33984375,-53.7109375,0.0
1734412726.4882138,-33.203125,-42.96875,-37.109375,-42.48046875,0.0
1734412726.4921198,-37.59765625,-38.57421875,-37.109375,-38.57421875,0.0
1734412726.4960256,-33.69140625,-40.0390625,-46.38671875,-38.0859375,0.0
1734412726.4999316,-25.390625,-42.96875,-44.921875,-25.390625,0.0
1734412726.5038376,-28.80859375,-46.875,-44.43359375,-30.2734375,0.0
1734412726.5077434,-36.1328125,-37.59765625,-43.9453125,-55.17578125,0.0
1734412726.5116494,-33.69140625,-31.25,-41.50390625,-60.05859375,0.0
1734412726.5155551,-19.04296875,-35.64453125,-41.50390625,-42.48046875,0.0
1734412726.5194612,-17.08984375,-35.15625,-46.38671875,-31.73828125,0.0
1734412726.523367,-25.390625,-33.203125,-45.41015625,-36.62109375,0.0
1734412726.527273,-32.71484375,-33.203125,-42.48046875,-45.8984375,0.0
1734412726.5311954,-31.25,-33.203125,-45.41015625,-51.7578125,0.0
1734412726.5351012,-27.34375,-33.69140625,-42.96875,-51.26953125,0.0
1734412726.5390072,-28.80859375,-33.69140625,-43.9453125,-53.7109375,0.0
1734412726.5429132,-23.92578125,-33.69140625,-49.8046875,-58.59375,0.0
1734412726.546819,-34.66796875,-38.57421875,-48.33984375,-52.734375,0.0
1734412726.550725,-37.109375,-39.0625,-47.36328125,-41.015625,0.0
1734412726.5546308,-37.109375,-37.109375,-50.78125,-49.8046875,0.0
1734412726.5585368,-48.33984375,-36.1328125,-48.828125,-57.6171875,0.0
1734412726.5624425,-50.29296875,-40.0390625,-45.41015625,-60.546875,0.0
1734412726.5663486,-45.41015625,-38.57421875,-44.43359375,-66.89453125,0.0
1734412726.5702543,-44.921875,-37.59765625,-42.48046875,-70.80078125,0.0
1734412726.5741603,-42.96875,-43.9453125,-42.96875,-60.05859375,0.0
1734412726.578082,0.0,-48.33984375,0.0,-43.45703125,0.0
1734412726.5819879,0.0,-40.52734375,0.0,-53.7109375,0.0
1734412726.5858939,0.0,-37.59765625,0.0,-58.59375,0.0
1734412726.5898,0.0,-47.8515625,0.0,-58.59375,0.0
1734412726.5937057,0.0,-54.6875,0.0,-63.96484375,0.0
1734412726.5976117,0.0,-50.29296875,0.0,-58.59375,0.0
1734412726.6015174,0.0,-47.8515625,0.0,-56.15234375,0.0
1734412726.6054235,0.0,-50.78125,0.0,-53.7109375,0.0
1734412726.6093292,0.0,-50.78125,0.0,-44.43359375,0.0
1734412726.6132352,0.0,-45.41015625,0.0,-52.734375,0.0
1734412726.6171412,0.0,-43.9453125,0.0,-57.6171875,0.0
1734412726.621047,0.0,-46.875,0.0,-51.26953125,0.0
1734412726.6247602,-25.87890625,-47.36328125,-44.43359375,-49.8046875,0.0
1734412726.6286662,-29.78515625,-43.45703125,-41.9921875,-45.41015625,0.0
1734412726.632572,-46.38671875,-49.8046875,-41.50390625,-39.55078125,0.0
1734412726.636478,-58.59375,-56.15234375,-39.55078125,-29.78515625,0.0
1734412726.640384,-60.546875,-52.734375,-46.875,-33.203125,0.0
1734412726.6442897,-47.36328125,-50.78125,-50.29296875,-43.9453125,0.0
1734412726.6481957,-34.66796875,-48.828125,-45.41015625,-42.48046875,0.0
1734412726.6521015,-14.6484375,-50.29296875,-50.78125,-37.59765625,0.0
1734412726.6560075,-13.671875,-43.45703125,-49.31640625,-39.55078125,0.0
1734412726.6599133,-28.3203125,-37.109375,-45.41015625,-44.921875,0.0
1734412726.6638193,-28.3203125,-35.15625,-45.41015625,-47.8515625,0.0
1734412726.667725,-18.5546875,-37.109375,-42.48046875,-47.36328125,0.0
1734412726.6716597,-38.57421875,-36.62109375,-43.45703125,-51.7578125,0.0
1734412726.6755657,-42.48046875,-39.0625,-49.31640625,-56.15234375,0.0
1734412726.6794715,-45.41015625,-45.8984375,-52.734375,-58.10546875,0.0
1734412726.6833775,-44.921875,-48.33984375,-53.22265625,-48.33984375,0.0
1734412726.6872833,-40.52734375,-52.24609375,-54.6875,-48.828125,0.0
1734412726.6911893,-41.015625,-50.78125,-51.7578125,-62.01171875,0.0
1734412726.695095,-36.62109375,-45.41015625,-45.41015625,-54.6875,0.0
1734412726.699001,-35.64453125,-50.78125,-42.48046875,-58.59375,0.0
1734412726.702907,-36.1328125,-46.38671875,-38.57421875,-69.3359375,0.0
1734412726.7068129,-37.59765625,-41.015625,-39.55078125,-57.6171875,0.0
1734412726.7107189,-41.50390625,-44.43359375,-39.55078125,-45.8984375,0.0
1734412726.7146246,-18.5546875,-44.921875,-38.0859375,-41.9921875,0.0
1734412726.7185137,-9.27734375,-38.57421875,-37.109375,-39.55078125,0.0
1734412726.7224195,-21.484375,-33.69140625,-34.1796875,-31.73828125,0.0
1734412726.7263255,-24.90234375,-40.0390625,-37.109375,-36.62109375,0.0
1734412726.7302315,-26.85546875,-39.55078125,-39.0625,-38.57421875,0.0
1734412726.7341373,-23.92578125,-33.203125,-40.0390625,-37.59765625,0.0
1734412726.7380433,-11.71875,-32.2265625,-39.0625,-41.015625,0.0
1734412726.741949,-3.90625,-37.59765625,-40.0390625,-41.50390625,0.0
1734412726.745855,-17.08984375,-32.71484375,-46.38671875,-44.43359375,0.0
1734412726.7497609,-31.73828125,-26.85546875,-48.828125,-42.48046875,0.0
1734412726.7536669,-32.71484375,-27.34375,-48.828125,-41.015625,0.0
1734412726.7575727,-22.4609375,-27.34375,-46.875,-36.1328125,0.0
1734412726.7614787,-21.97265625,-21.97265625,-43.9453125,-40.52734375,0.0
1734412726.7653534,-24.4140625,-20.5078125,-49.31640625,-51.7578125,0.0
1734412726.7692595,-17.578125,-23.4375,-47.36328125,-46.38671875,0.0
1734412726.7731652,-25.87890625,-23.4375,-42.48046875,-45.8984375,0.0
1734412726.7770712,-39.0625,-26.85546875,-46.875,-62.5,0.0
1734412726.780977,-34.1796875,-28.80859375,-42.48046875,-65.91796875,0.0
1734412726.784883,-39.0625,-32.71484375,-37.59765625,-58.10546875,0.0
1734412726.788789,-48.33984375,-32.2265625,-40.52734375,-48.33984375,0.0
1734412726.7926948,-39.55078125,-26.3671875,-41.9921875,-47.36328125,0.0
1734412726.7966008,-31.73828125,-27.83203125,-45.8984375,-45.41015625,0.0
1734412726.8005066,-27.34375,-33.203125,-44.921875,-42.96875,0.0
1734412726.8044126,-23.92578125,-36.62109375,-42.96875,-49.8046875,0.0
1734412726.8083184,-28.3203125,-35.15625,-39.0625,-51.26953125,0.0
1734412726.8122628,0.0,-29.296875,-36.1328125,-43.9453125,0.0
1734412726.8161685,0.0,-26.85546875,-38.57421875,-33.203125,0.0
1734412726.8200746,0.0,-29.78515625,-40.52734375,-26.85546875,0.0
1734412726.8239803,0.0,-30.2734375,-42.96875,-35.64453125,0.0
1734412726.8278863,0.0,-34.1796875,-38.57421875,-46.38671875,0.0
1734412726.831792,0.0,-41.9921875,-39.0625,-48.828125,0.0
1734412726.8356981,0.0,-33.69140625,-39.0625,-42.48046875,0.0
1734412726.8396041,0.0,-23.4375,-39.0625,-51.26953125,0.0
1734412726.84351,0.0,-28.3203125,-47.36328125,-58.10546875,0.0
1734412726.847416,0.0,-33.203125,-51.7578125,-41.50390625,0.0
1734412726.8513217,0.0,-27.34375,-45.41015625,-40.52734375,0.0
1734412726.8552277,0.0,-24.4140625,-39.0625,-49.31640625,0.0
1734412726.8589654,-22.94921875,-25.87890625,-43.9453125,-57.6171875,0.0
1734412726.8628714,-7.8125,-21.484375,-47.36328125,-66.40625,0.0
1734412726.8667772,-5.37109375,-18.06640625,-49.8046875,-61.5234375,0.0
1734412726.8706832,-14.6484375,-18.06640625,-47.8515625,-62.5,0.0
1734412726.874589,-25.390625,-24.90234375,-45.41015625,-63.4765625,0.0
1734412726.878495,-28.3203125,-29.296875,-50.29296875,-61.5234375,0.0
1734412726.8824008,-20.5078125,-21.484375,-53.7109375,-67.87109375,0.0
1734412726.8863068,-27.83203125,-24.4140625,-49.31640625,-70.80078125,0.0
1734412726.8902125,-29.296875,-34.66796875,-50.78125,-67.3828125,0.0
1734412726.8941185,-27.34375,-35.15625,-53.7109375,-65.4296875,0.0
1734412726.8980243,-29.296875,-28.3203125,-47.36328125,-66.40625,0.0
1734412726.9019303,-20.01953125,-32.71484375,-53.22265625,-63.96484375,0.0
1734412726.9058816,-40.0390625,-41.9921875,-53.7109375,0.0,0.0
1734412726.9097874,-35.64453125,-42.96875,-47.36328125,0.0,0.0
1734412726.9136934,-30.76171875,-36.1328125,-51.7578125,0.0,0.0
1734412726.9175992,-11.23046875,-31.73828125,-51.26953125,0.0,0.0
1734412726.9215052,-2.44140625,-36.1328125,-46.38671875,0.0,0.0
1734412726.925411,-6.34765625,-43.45703125,-37.109375,0.0,0.0
1734412726.929317,-16.6015625,-43.9453125,-27.83203125,0.0,0.0
1734412726.9332228,-18.5546875,-37.59765625,-34.1796875,0.0,0.0
1734412726.9371288,-10.25390625,-36.62109375,-40.0390625,0.0,0.0
1734412726.9410346,-14.16015625,-36.62109375,-41.9921875,0.0,0.0
1734412726.9449406,-24.4140625,-37.109375,-45.41015625,0.0,0.0
1734412726.9488463,-30.76171875,-38.57421875,-41.9921875,0.0,0.0
1734412726.9525933,0.0,-31.73828125,-38.57421875,-44.43359375,0.0
1734412726.9564993,0.0,-29.78515625,-41.9921875,-38.57421875,0.0
1734412726.960405,0.0,-33.203125,-39.0625,-43.45703125,0.0
1734412726.9643111,0.0,-37.59765625,-37.109375,-25.390625,0.0
1734412726.968217,0.0,-37.59765625,-38.57421875,-16.6015625,0.0
1734412726.972123,0.0,-40.52734375,-39.55078125,-24.90234375,0.0
1734412726.976029,0.0,-39.0625,-39.0625,-27.34375,0.0
1734412726.9799347,0.0,-39.55078125,-43.45703125,-24.4140625,0.0
1734412726.9838407,0.0,-47.8515625,-47.8515625,-17.08984375,0.0
1734412726.9877465,0.0,-46.38671875,-46.875,-29.296875,0.0
1734412726.9916525,0.0,-41.50390625,-50.29296875,-41.015625,0.0
1734412726.9955583,0.0,-41.9921875,-47.8515625,-31.73828125,0.0
1734412726.999474,-20.01953125,-46.875,-45.8984375,-37.109375,0.0
1734412727.00338,-18.5546875,-44.43359375,-46.38671875,-30.2734375,0.0
1734412727.0072858,-22.94921875,-45.41015625,-49.8046875,-21.97265625,0.0
1734412727.0111918,-19.53125,-46.875,-54.19921875,-21.484375,0.0
1734412727.0150976,-21.484375,-40.0390625,-51.7578125,-24.4140625,0.0
1734412727.0190036,-26.3671875,-46.38671875,-48.33984375,-32.71484375,0.0
1734412727.0229094,-16.11328125,-48.33984375,-42.96875,-39.0625,0.0
1734412727.0268154,-13.18359375,-44.921875,-41.015625,-29.78515625,0.0
1734412727.0307212,-23.92578125,-41.015625,-46.875,-25.390625,0.0
1734412727.0346272,-22.4609375,-39.55078125,-51.7578125,-34.66796875,0.0
1734412727.0385332,-22.4609375,-47.8515625,-46.38671875,-37.59765625,0.0
1734412727.042439,-30.76171875,-49.31640625,-42.96875,-40.0390625,0.0
1734412727.0463433,-38.0859375,-44.43359375,-44.921875,-44.921875,0.0
1734412727.050249,-44.921875,-41.015625,-42.96875,-43.45703125,0.0
1734412727.054155,-34.66796875,-43.45703125,-44.921875,-38.57421875,0.0
1734412727.058061,-23.92578125,-48.828125,-44.921875,-38.0859375,0.0
1734412727.061967,-33.203125,-41.50390625,-43.45703125,-48.828125,0.0
1734412727.065873,-42.48046875,-41.015625,-47.36328125,-45.8984375,0.0
1734412727.0697787,-44.43359375,-42.96875,-44.921875,-35.64453125,0.0
1734412727.0736847,-46.875,-40.52734375,-40.0390625,-35.64453125,0.0
1734412727.0775905,-43.9453125,-37.59765625,-37.109375,-41.015625,0.0
1734412727.0814965,-44.43359375,-38.57421875,-42.96875,-44.43359375,0.0
1734412727.0854023,-41.9921875,-40.52734375,-44.921875,-49.31640625,0.0
1734412727.0893083,-41.9921875,-40.52734375,-40.52734375,-51.7578125,0.0
1734412727.0931962,-48.33984375,-42.48046875,-42.48046875,-57.6171875,0.0
1734412727.0971022,-28.80859375,-42.96875,-43.45703125,-43.9453125,0.0
1734412727.101008,-12.6953125,-40.0390625,-41.015625,-21.484375,0.0
1734412727.104914,-8.30078125,-35.15625,-43.45703125,-11.23046875,0.0
1734412727.10882,-11.23046875,-32.71484375,-41.9921875,-2.9296875,0.0
1734412727.1127257,-27.34375,-36.62109375,-44.43359375,-20.99609375,0.0
1734412727.1166317,-29.296875,-38.57421875,-49.8046875,-36.1328125,0.0
1734412727.1205375,-25.390625,-31.25,-48.33984375,-34.1796875,0.0
1734412727.1244435,-23.4375,-32.2265625,-51.26953125,-36.62109375,0.0
1734412727.1283493,-13.671875,-42.48046875,-52.24609375,-31.25,0.0
1734412727.1322553,-15.13671875,-41.50390625,-49.31640625,-26.3671875,0.0
1734412727.136161,-11.23046875,-33.69140625,-46.875,-33.69140625,0.0
1734412727.1400428,-15.13671875,-36.1328125,-41.9921875,-40.0390625,0.0
1734412727.1439488,-26.85546875,-38.0859375,-42.48046875,-35.15625,0.0
1734412727.1478546,-23.4375,-38.57421875,-44.921875,-37.59765625,0.0
1734412727.1517606,-32.2265625,-40.0390625,-44.921875,-51.26953125,0.0
1734412727.1556664,-36.1328125,-40.52734375,-48.33984375,-55.17578125,0.0
1734412727.1595724,-38.57421875,-48.828125,-54.6875,-59.08203125,0.0
1734412727.1634781,-45.41015625,-49.8046875,-56.15234375,-64.94140625,0.0
1734412727.1673841,-37.59765625,-44.921875,-52.734375,-67.87109375,0.0
1734412727.17129,-27.34375,-47.36328125,-49.8046875,-62.98828125,0.0
1734412727.175196,-18.06640625,-50.78125,-53.22265625,-52.24609375,0.0
1734412727.1791017,-20.99609375,-52.734375,-53.22265625,-57.12890625,0.0
1734412727.1830077,-34.66796875,-47.8515625,-52.24609375,-72.265625,0.0
1734412727.1869488,-40.0390625,-49.31640625,-53.7109375,-76.171875,0.0
1734412727.1908548,-50.78125,-52.734375,-54.19921875,-77.63671875,0.0
1734412727.1947606,-56.640625,-52.734375,-52.734375,-66.40625,0.0
1734412727.1986666,-66.89453125,-56.640625,-50.29296875,-64.453125,0.0
1734412727.2025723,-78.61328125,-56.15234375,-52.24609375,-64.453125,0.0
1734412727.2064784,-74.70703125,-51.26953125,-52.24609375,-45.8984375,0.0
1734412727.2103841,-64.94140625,-47.36328125,-42.48046875,-45.8984375,0.0
1734412727.2142901,-60.05859375,-48.33984375,-40.0390625,-62.98828125,0.0
1734412727.218196,-50.78125,-51.7578125,-41.50390625,-66.40625,0.0
1734412727.222102,-37.59765625,-53.7109375,-46.38671875,-56.640625,0.0
1734412727.2260077,-52.734375,-47.36328125,-48.33984375,-64.453125,0.0
1734412727.2299137,-68.84765625,-47.8515625,-48.33984375,-69.3359375,0.0
1734412727.2338471,-53.22265625,-49.31640625,-46.875,-53.22265625,0.0
1734412727.237753,-41.50390625,-46.38671875,-45.8984375,-44.921875,0.0
1734412727.241659,-43.45703125,-45.8984375,-44.921875,-49.8046875,0.0
1734412727.2455647,-35.64453125,-47.8515625,-45.8984375,-54.6875,0.0
1734412727.2494707,-31.25,-43.9453125,-50.29296875,-50.78125,0.0
1734412727.2533765,-29.296875,-42.48046875,-49.31640625,-47.8515625,0.0
1734412727.2572825,-26.3671875,-40.52734375,-38.57421875,-44.43359375,0.0
1734412727.2611883,-24.90234375,-34.1796875,-33.203125,-45.41015625,0.0
1734412727.2650943,-21.97265625,-33.69140625,-42.96875,-44.43359375,0.0
1734412727.269,-24.90234375,-30.2734375,-41.50390625,-36.62109375,0.0
1734412727.272906,-25.390625,-30.76171875,-37.109375,-38.0859375,0.0
1734412727.276812,-17.578125,-34.1796875,-42.48046875,-35.64453125,0.0
1734412727.2807388,-22.94921875,-37.59765625,-42.96875,-40.0390625,0.0
1734412727.2846446,-31.73828125,-37.109375,-41.9921875,-44.921875,0.0
1734412727.2885506,-33.203125,-32.71484375,-48.33984375,-48.828125,0.0
1734412727.2924564,-32.71484375,-36.1328125,-54.19921875,-47.36328125,0.0
1734412727.2963624,-25.87890625,-42.96875,-53.7109375,-38.0859375,0.0
1734412727.3002684,-11.71875,-40.0390625,-50.78125,-19.04296875,0.0
1734412727.3041742,-15.13671875,-34.1796875,-44.43359375,-11.71875,0.0
1734412727.3080802,-19.04296875,-31.25,-37.59765625,-24.90234375,0.0
1734412727.311986,-21.484375,-34.1796875,-40.52734375,-38.0859375,0.0
1734412727.315892,-29.296875,-33.69140625,-41.9921875,-43.45703125,0.0
1734412727.3197978,-28.80859375,-31.73828125,-42.96875,-41.50390625,0.0
1734412727.3237038,-34.1796875,-31.25,-48.828125,-39.55078125,0.0
1734412727.3276222,-35.15625,-32.2265625,-48.33984375,-33.203125,0.0
1734412727.331528,-33.69140625,-32.71484375,-47.36328125,-24.90234375,0.0
1734412727.335434,-33.203125,-29.296875,-44.43359375,-19.04296875,0.0
1734412727.33934,-30.2734375,-26.85546875,-46.38671875,-20.99609375,0.0
1734412727.3432457,-20.01953125,-25.390625,-43.45703125,-27.83203125,0.0
1734412727.3471518,-28.3203125,-27.34375,-39.55078125,-34.1796875,0.0
1734412727.3510575,-42.96875,-25.87890625,-38.57421875,-23.92578125,0.0
1734412727.3549635,-36.62109375,-25.390625,-38.0859375,-21.484375,0.0
1734412727.3588693,-29.296875,-28.80859375,-37.59765625,-25.390625,0.0
1734412727.3627753,-30.76171875,-23.92578125,-36.1328125,-40.52734375,0.0
1734412727.366681,-30.76171875,-23.92578125,-38.0859375,-52.24609375,0.0
1734412727.370587,-28.80859375,-25.390625,-41.015625,-54.6875,0.0
1734412727.3745625,-36.1328125,-25.390625,-40.52734375,-51.7578125,0.0
1734412727.3784683,-32.2265625,-27.34375,-42.96875,-49.8046875,0.0
1734412727.3823743,-24.90234375,-31.25,-50.78125,-51.26953125,0.0
1734412727.38628,-32.71484375,-37.109375,-52.24609375,-43.9453125,0.0
1734412727.390186,-33.69140625,-35.64453125,-49.31640625,-45.8984375,0.0
1734412727.3940918,-20.01953125,-34.1796875,-46.38671875,-51.26953125,0.0
1734412727.3979979,-21.484375,-38.0859375,-46.38671875,-56.15234375,0.0
1734412727.4019036,-29.296875,-40.52734375,-51.7578125,-56.15234375,0.0
1734412727.4058096,-31.25,-30.76171875,-49.31640625,-57.12890625,0.0
1734412727.4097154,-34.66796875,-25.390625,-42.96875,-54.19921875,0.0
1734412727.4136214,-36.1328125,-25.87890625,-40.0390625,-49.8046875,0.0
1734412727.4175274,-39.0625,-17.08984375,-38.0859375,-56.640625,0.0
1734412727.4214265,-39.55078125,-17.08984375,-36.62109375,-55.17578125,0.0
1734412727.4253323,-34.66796875,-24.4140625,-40.0390625,-53.7109375,0.0
1734412727.4292383,-27.83203125,-29.296875,-41.9921875,-43.9453125,0.0
1734412727.433144,-21.97265625,-32.71484375,-39.0625,-40.0390625,0.0
1734412727.43705,-22.94921875,-38.0859375,-36.62109375,-48.828125,0.0
1734412727.440956,-20.01953125,-43.9453125,-40.0390625,-47.8515625,0.0
1734412727.444862,-16.6015625,-43.45703125,-41.9921875,-41.50390625,0.0
1734412727.448768,-19.04296875,-40.52734375,-38.0859375,-44.921875,0.0
1734412727.4526737,-25.390625,-40.52734375,-35.64453125,-46.38671875,0.0
1734412727.4565797,-36.62109375,-40.0390625,-37.109375,-50.78125,0.0
1734412727.4604855,-38.0859375,-41.50390625,-40.0390625,-48.828125,0.0
1734412727.4643915,-38.0859375,-42.48046875,-41.9921875,-43.9453125,0.0
1734412727.468352,-44.921875,-38.0859375,-42.96875,-64.453125,0.0
1734412727.472258,-52.734375,-39.0625,-41.9921875,-73.2421875,0.0
1734412727.4761639,-44.921875,-40.0390625,-44.43359375,-64.453125,0.0
1734412727.4800699,-37.109375,-36.1328125,-44.921875,-70.80078125,0.0
1734412727.4839756,-41.50390625,-38.0859375,-42.48046875,-76.66015625,0.0
1734412727.4878817,-44.43359375,-43.9453125,-45.8984375,-72.265625,0.0
1734412727.4917877,-45.41015625,-49.8046875,-46.875,-66.40625,0.0
1734412727.4956934,-47.36328125,-42.48046875,-39.55078125,-68.84765625,0.0
1734412727.4995995,-53.7109375,-41.015625,-38.0859375,-82.03125,0.0
1734412727.5035052,-53.22265625,-44.921875,-40.52734375,-81.0546875,0.0
1734412727.5074112,-46.875,-42.48046875,-38.0859375,-73.2421875,0.0
1734412727.511317,-45.41015625,-44.921875,-37.109375,-70.80078125,0.0
1734412727.5152688,-38.57421875,-43.9453125,-39.0625,-66.40625,0.0
1734412727.5191746,-21.97265625,-40.52734375,-41.50390625,-57.6171875,0.0
1734412727.5230806,-17.08984375,-39.0625,-44.921875,-53.22265625,0.0
1734412727.5269864,-20.5078125,-39.0625,-44.921875,-41.50390625,0.0
1734412727.5308924,-27.83203125,-41.50390625,-40.52734375,-34.1796875,0.0
1734412727.5347981,-32.71484375,-46.38671875,-43.45703125,-39.0625,0.0
1734412727.5387042,-34.1796875,-49.8046875,-47.36328125,-41.015625,0.0
1734412727.54261,-32.71484375,-46.875,-45.8984375,-41.9921875,0.0
1734412727.546516,-23.4375,-36.62109375,-41.9921875,-47.36328125,0.0
1734412727.550422,-16.6015625,-39.0625,-44.43359375,-54.19921875,0.0
1734412727.5543277,-23.92578125,-46.875,-47.8515625,-54.6875,0.0
1734412727.5582337,-39.55078125,-39.0625,-41.9921875,-54.6875,0.0
1734412727.5621758,-35.64453125,-38.0859375,-40.52734375,-52.24609375,0.0
1734412727.5660818,-39.55078125,-40.0390625,-42.48046875,-58.59375,0.0
1734412727.5699875,-48.33984375,-36.1328125,-41.015625,-67.87109375,0.0
1734412727.5738935,-44.43359375,-35.15625,-39.0625,-58.59375,0.0
1734412727.5777993,-41.50390625,-37.59765625,-39.55078125,-57.6171875,0.0
1734412727.5817053,-41.015625,-41.50390625,-41.9921875,-62.5,0.0
1734412727.585611,-55.6640625,-42.48046875,-42.96875,-61.5234375,0.0
1734412727.589517,-64.453125,-39.0625,-47.8515625,-75.1953125,0.0
1734412727.593423,-55.6640625,-40.52734375,-43.9453125,-75.68359375,0.0
1734412727.597329,-44.921875,-46.38671875,-39.0625,-48.828125,0.0
1734412727.601235,-42.96875,-42.48046875,-36.1328125,-50.29296875,0.0
1734412727.6051407,-43.9453125,-37.59765625,-39.0625,-73.73046875,0.0
1734412727.60907,-39.0625,-39.0625,-42.96875,-65.91796875,0.0
1734412727.612976,-35.15625,-37.59765625,-40.0390625,-49.31640625,0.0
1734412727.616882,-27.34375,-36.1328125,-39.55078125,-49.8046875,0.0
1734412727.6207879,-28.80859375,-37.59765625,-40.0390625,-51.26953125,0.0
1734412727.6246939,-38.57421875,-44.921875,-38.57421875,-48.33984375,0.0
1734412727.6285996,-33.69140625,-47.36328125,-36.1328125,-37.109375,0.0
1734412727.6325057,-20.5078125,-41.9921875,-34.66796875,-30.76171875,0.0
1734412727.6364114,-21.97265625,-41.9921875,-34.66796875,-26.85546875,0.0
1734412727.6403174,-13.18359375,-47.36328125,-37.109375,-26.3671875,0.0
1734412727.6442232,-2.9296875,-47.36328125,-33.69140625,-21.97265625,0.0
1734412727.6481292,-11.71875,-36.62109375,-31.25,-28.3203125,0.0
1734412727.652035,-23.4375,-39.55078125,-34.66796875,-42.48046875,0.0
1734412727.6559575,-32.2265625,-48.828125,-36.62109375,-41.50390625,0.0
1734412727.6598632,-28.80859375,-45.41015625,-40.0390625,-32.71484375,0.0
1734412727.6637692,-31.25,-41.50390625,-41.50390625,-38.0859375,0.0
1734412727.667675,-32.71484375,-41.015625,-40.0390625,-54.19921875,0.0
1734412727.671581,-33.69140625,-41.9921875,-33.69140625,-46.38671875,0.0
1734412727.675487,-32.2265625,-42.48046875,-35.64453125,-35.64453125,0.0
1734412727.6793928,-30.76171875,-44.921875,-41.9921875,-43.45703125,0.0
1734412727.6832988,-38.57421875,-51.26953125,-43.9453125,-50.78125,0.0
1734412727.6872046,-41.9921875,-51.7578125,-46.38671875,-43.9453125,0.0
1734412727.6911106,-46.38671875,-44.43359375,-48.828125,-37.59765625,0.0
1734412727.6950164,-46.38671875,-45.8984375,-49.31640625,-52.734375,0.0
1734412727.6989224,-42.96875,-49.8046875,-49.31640625,-57.6171875,0.0
1734412727.7028399,-44.43359375,-48.33984375,-46.875,-55.6640625,0.0
1734412727.7067456,-48.828125,-50.29296875,-43.9453125,-51.7578125,0.0
1734412727.7106516,-52.734375,-50.78125,-48.33984375,-50.29296875,0.0
1734412727.7145574,-48.33984375,-49.31640625,-52.24609375,-60.05859375,0.0
1734412727.7184634,-38.57421875,-50.29296875,-53.22265625,-63.4765625,0.0
1734412727.7223692,-20.99609375,-53.22265625,-51.26953125,-52.24609375,0.0
1734412727.7262752,-11.23046875,-55.6640625,-50.78125,-51.7578125,0.0
1734412727.7301812,-36.1328125,-55.17578125,-47.36328125,-44.921875,0.0
1734412727.734087,-51.7578125,-55.6640625,-49.8046875,-28.3203125,0.0
1734412727.737993,-45.8984375,-49.8046875,-49.31640625,-35.64453125,0.0
1734412727.7418988,-38.0859375,-45.8984375,-47.8515625,-41.9921875,0.0
1734412727.7458048,-29.78515625,-49.31640625,-47.36328125,-41.9921875,0.0
1734412727.7497103,-32.71484375,-50.78125,-47.8515625,-40.52734375,0.0
1734412727.753616,-36.1328125,-46.875,-46.875,-34.66796875,0.0
1734412727.757522,-24.4140625,-47.8515625,-46.38671875,-36.1328125,0.0
1734412727.7614279,-10.7421875,-51.26953125,-52.734375,-41.50390625,0.0
1734412727.765334,-18.5546875,-45.8984375,-54.6875,-45.8984375,0.0
1734412727.7692397,-34.1796875,-45.41015625,-58.59375,-48.828125,0.0
1734412727.7731457,-47.8515625,-51.7578125,-56.15234375,-40.0390625,0.0
1734412727.7770514,-55.17578125,-54.19921875,-47.8515625,-30.2734375,0.0
1734412727.7809575,-40.52734375,-48.828125,-45.41015625,-33.203125,0.0
1734412727.7848635,-41.015625,-41.9921875,-45.8984375,-40.0390625,0.0
1734412727.7887692,-51.7578125,-41.015625,-48.33984375,-40.0390625,0.0
1734412727.7926753,-49.31640625,-46.875,-47.36328125,-48.828125,0.0
1734412727.7966452,-45.8984375,-46.875,-43.9453125,-52.24609375,0.0
1734412727.8005512,-45.8984375,-49.31640625,-41.50390625,-53.7109375,0.0
1734412727.804457,-51.26953125,-49.31640625,-46.38671875,-65.4296875,0.0
1734412727.808363,-45.41015625,-44.921875,-52.24609375,-64.94140625,0.0
1734412727.8122687,-44.43359375,-44.921875,-56.15234375,-72.75390625,0.0
1734412727.8161747,-41.015625,-44.921875,-56.15234375,-80.078125,0.0
1734412727.8200808,-26.3671875,-47.8515625,-52.734375,-73.73046875,0.0
1734412727.8239865,-23.92578125,-45.41015625,-48.33984375,-62.5,0.0
1734412727.8278925,-32.2265625,-38.0859375,-47.8515625,-70.80078125,0.0
1734412727.8317983,-30.76171875,-37.109375,-52.24609375,-74.21875,0.0
1734412727.8357043,-26.85546875,-39.55078125,-53.22265625,-66.89453125,0.0
1734412727.83961,-23.4375,-42.48046875,-47.36328125,-60.546875,0.0
1734412727.843497,-14.16015625,-43.9453125,-44.43359375,-54.19921875,0.0
1734412727.847403,-15.625,-41.50390625,-43.9453125,-48.33984375,0.0
1734412727.851309,-27.83203125,-45.8984375,-45.8984375,-63.4765625,0.0
1734412727.8552148,-29.296875,-43.9453125,-51.26953125,-77.63671875,0.0
1734412727.8591208,-21.97265625,-40.0390625,-50.78125,-63.96484375,0.0
1734412727.8630266,-20.99609375,-45.8984375,-48.828125,-59.5703125,0.0
1734412727.8669326,-32.71484375,-46.875,-50.29296875,-66.40625,0.0
1734412727.8708384,-44.921875,-43.45703125,-49.31640625,-60.546875,0.0
1734412727.8747444,-48.828125,-39.55078125,-49.31640625,-62.5,0.0
1734412727.8786502,-31.25,-38.0859375,-47.8515625,-65.4296875,0.0
1734412727.8825562,-14.6484375,-43.45703125,-45.8984375,-46.875,0.0
1734412727.8864622,-20.01953125,-41.9921875,-41.50390625,-53.22265625,0.0
1734412727.8904135,-27.83203125,-36.1328125,-39.55078125,-64.453125,0.0
1734412727.8943195,-24.4140625,-38.0859375,-37.109375,-59.08203125,0.0
1734412727.8982253,-18.06640625,-41.015625,-38.57421875,-64.453125,0.0
1734412727.9021313,-14.16015625,-38.57421875,-37.109375,-59.08203125,0.0
1734412727.906037,-15.625,-35.15625,-37.109375,-52.24609375,0.0
1734412727.909943,-9.27734375,-32.2265625,-40.52734375,-51.26953125,0.0
1734412727.9138489,-5.37109375,-35.15625,-40.52734375,-50.78125,0.0
1734412727.917755,-13.671875,-35.64453125,-40.0390625,-64.94140625,0.0
1734412727.9216607,-17.578125,-34.1796875,-44.921875,-73.73046875,0.0
1734412727.9255667,-18.5546875,-36.1328125,-45.8984375,-59.08203125,0.0
1734412727.9294727,-26.3671875,-38.0859375,-37.59765625,-42.96875,0.0
1734412727.9333785,-33.203125,-39.55078125,-42.96875,-38.0859375,0.0
1734412727.9373183,-30.2734375,-41.9921875,-49.8046875,-35.64453125,0.0
1734412727.9412243,-24.90234375,-45.41015625,-52.24609375,-47.8515625,0.0
1734412727.94513,-15.625,-44.43359375,-57.12890625,-65.4296875,0.0
1734412727.9490361,-26.85546875,-43.45703125,-47.8515625,-54.19921875,0.0
1734412727.952942,-39.0625,-44.43359375,-42.48046875,-45.41015625,0.0
1734412727.956848,-28.3203125,-45.8984375,-45.8984375,-50.29296875,0.0
1734412727.9607537,-26.85546875,-46.875,-43.9453125,-61.5234375,0.0
1734412727.9646597,-36.1328125,-47.36328125,-42.96875,-67.87109375,0.0
1734412727.9685657,-47.36328125,-48.828125,-46.875,-57.12890625,0.0
1734412727.9724715,-44.921875,-53.7109375,-49.31640625,-50.29296875,0.0
1734412727.9763775,-39.0625,-44.43359375,-41.9921875,-57.6171875,0.0
1734412727.9802833,-37.59765625,-37.59765625,-34.1796875,-60.05859375,0.0
1734412727.984215,-34.1796875,-41.015625,-41.015625,-66.40625,0.0
1734412727.988121,-40.0390625,-36.62109375,-44.921875,-75.68359375,0.0
1734412727.992027,-41.50390625,-32.71484375,-41.50390625,-70.3125,0.0
1734412727.9959328,-43.45703125,-35.15625,-41.015625,-71.2890625,0.0
1734412727.9998388,-45.41015625,-40.0390625,-36.62109375,-77.1484375,0.0
1734412728.0037446,-44.921875,-42.48046875,-33.69140625,-66.89453125,0.0
1734412728.0076506,-40.0390625,-38.57421875,-33.203125,-69.82421875,0.0
1734412728.0115564,-47.36328125,-39.0625,-36.1328125,-71.77734375,0.0
1734412728.0154624,-45.41015625,-42.48046875,-39.55078125,-64.453125,0.0
1734412728.0193684,-41.015625,-44.921875,-43.45703125,-64.453125,0.0
1734412728.0232742,-39.0625,-40.52734375,-41.9921875,-81.54296875,0.0
1734412728.0271802,-32.71484375,-34.1796875,-37.59765625,-86.9140625,0.0
1734412728.0311072,-45.8984375,-36.1328125,-40.0390625,-77.1484375,0.0
1734412728.0350132,-50.78125,-37.109375,-41.50390625,-58.10546875,0.0
1734412728.038919,-42.96875,-35.64453125,-36.1328125,-50.29296875,0.0
1734412728.042825,-34.66796875,-37.109375,-34.66796875,-59.08203125,0.0
1734412728.0467308,-31.73828125,-40.52734375,-35.15625,-59.08203125,0.0
1734412728.0506368,-36.62109375,-40.0390625,-32.71484375,-50.29296875,0.0
1734412728.0545428,-41.9921875,-40.52734375,-32.71484375,-45.8984375,0.0
1734412728.0584486,-37.109375,-44.43359375,-36.62109375,-49.31640625,0.0
1734412728.0623546,-22.4609375,-45.41015625,-39.0625,-44.921875,0.0
1734412728.0662603,-27.34375,-35.64453125,-37.59765625,-36.62109375,0.0
1734412728.0701663,-40.52734375,-29.78515625,-37.109375,-38.57421875,0.0
1734412728.0740721,-38.0859375,-34.66796875,-39.55078125,-46.875,0.0
1734412728.0780602,-22.94921875,-30.2734375,-40.52734375,-38.57421875,0.0
1734412728.081966,-20.5078125,-30.76171875,-41.9921875,-38.0859375,0.0
1734412728.085872,-24.90234375,-37.59765625,-39.55078125,-34.66796875,0.0
1734412728.089778,-25.390625,-36.62109375,-34.1796875,-25.390625,0.0
1734412728.0936837,-21.484375,-31.25,-32.71484375,-31.73828125,0.0
1734412728.0975897,-11.71875,-37.59765625,-34.1796875,-36.62109375,0.0
1734412728.1014955,-20.01953125,-42.48046875,-38.0859375,-40.0390625,0.0
1734412728.1054015,-35.15625,-44.43359375,-43.9453125,-45.8984375,0.0
1734412728.1093073,-41.50390625,-51.7578125,-43.9453125,-40.52734375,0.0
1734412728.1132133,-45.41015625,-42.96875,-36.1328125,-38.0859375,0.0
1734412728.1171193,-37.109375,-36.1328125,-38.0859375,-39.55078125,0.0
1734412728.121025,-29.78515625,-39.55078125,-42.96875,-32.2265625,0.0
1734412728.1249347,-31.73828125,-36.62109375,-38.57421875,-42.48046875,0.0
1734412728.1288404,-34.66796875,-39.0625,-37.109375,-54.19921875,0.0
1734412728.1327465,-34.66796875,-47.36328125,-42.48046875,-48.33984375,0.0
1734412728.1366525,-36.62109375,-46.38671875,-41.9921875,-47.8515625,0.0
1734412728.1405582,-43.9453125,-40.52734375,-42.96875,-53.22265625,0.0
1734412728.1444643,-45.41015625,-42.48046875,-41.9921875,-58.10546875,0.0
1734412728.14837,-46.38671875,-46.38671875,-37.59765625,-50.29296875,0.0
1734412728.152276,-44.921875,-46.38671875,-43.45703125,-43.45703125,0.0
1734412728.1561818,-33.69140625,-44.921875,-44.921875,-44.921875,0.0
1734412728.1600878,-38.0859375,-41.015625,-39.55078125,-35.64453125,0.0
1734412728.1639938,-38.0859375,-38.0859375,-39.55078125,-24.90234375,0.0
1734412728.1678996,-14.16015625,-46.38671875,-41.9921875,-25.390625,0.0
1734412728.1717968,-17.578125,-42.96875,-36.1328125,-20.99609375,0.0
1734412728.1757028,-26.3671875,-36.62109375,-37.109375,-12.20703125,0.0
1734412728.1796086,-22.94921875,-47.36328125,-41.015625,-10.7421875,0.0
1734412728.1835146,-21.97265625,-49.31640625,-38.57421875,-11.23046875,0.0
1734412728.1874206,-24.90234375,-47.8515625,-37.109375,-8.30078125,0.0
1734412728.1913264,-26.85546875,-49.8046875,-35.64453125,-7.32421875,0.0
1734412728.1952324,-17.578125,-53.22265625,-40.52734375,-6.34765625,0.0
1734412728.1991382,-5.859375,-53.7109375,-44.43359375,-5.859375,0.0
1734412728.2030442,-7.32421875,-48.828125,-43.45703125,-22.4609375,0.0
1734412728.20695,-17.08984375,-49.8046875,-42.48046875,-35.15625,0.0
1734412728.210856,-35.15625,-54.19921875,-35.15625,-23.4375,0.0
1734412728.214762,-45.41015625,-54.6875,-34.1796875,-26.3671875,0.0
1734412728.2186534,-35.64453125,-51.26953125,-36.1328125,-28.80859375,0.0
1734412728.2225595,-27.83203125,-51.26953125,-33.69140625,-17.578125,0.0
1734412728.2264652,-35.64453125,-51.7578125,-40.52734375,-40.0390625,0.0
1734412728.2303712,-47.36328125,-44.43359375,-46.38671875,-64.453125,0.0
1734412728.234277,-42.96875,-39.0625,-45.8984375,-58.59375,0.0
1734412728.238183,-43.45703125,-40.0390625,-46.38671875,-50.29296875,0.0
1734412728.2420888,-36.62109375,-40.0390625,-50.78125,-49.31640625,0.0
1734412728.2459948,-41.50390625,-38.57421875,-42.96875,-54.19921875,0.0
1734412728.2499008,-50.78125,-33.203125,-33.203125,-51.26953125,0.0
1734412728.2538066,-43.9453125,-28.80859375,-36.62109375,-40.52734375,0.0
1734412728.2577126,-39.0625,-30.2734375,-43.45703125,-34.1796875,0.0
1734412728.2616184,-32.71484375,-28.3203125,-43.9453125,-35.15625,0.0
1734412728.2655027,-38.0859375,-26.85546875,-41.015625,-38.0859375,0.0
1734412728.2694085,-39.0625,-27.83203125,-41.50390625,-27.83203125,0.0
1734412728.2733145,-23.4375,-31.73828125,-41.50390625,-28.80859375,0.0
1734412728.2772202,-17.08984375,-33.203125,-41.9921875,-28.3203125,0.0
1734412728.2811263,-14.16015625,-36.62109375,-41.9921875,-25.87890625,0.0
1734412728.285032,-10.25390625,-42.48046875,-43.45703125,-20.99609375,0.0
1734412728.288938,-13.671875,-47.36328125,-45.41015625,-15.625,0.0
1734412728.292844,-23.92578125,-40.0390625,-44.43359375,-28.80859375,0.0
1734412728.2967498,-26.85546875,-30.76171875,-46.875,-24.4140625,0.0
1734412728.3006558,-20.01953125,-33.203125,-49.8046875,-21.97265625,0.0
1734412728.3045616,-21.484375,-28.3203125,-42.96875,-19.04296875,0.0
1734412728.3084676,-24.90234375,-27.83203125,-44.921875,-21.97265625,0.0
1734412728.3124115,-24.4140625,-34.1796875,-47.36328125,-25.87890625,0.0
1734412728.3163176,-15.625,-30.76171875,-45.41015625,-31.25,0.0
1734412728.3202233,-4.39453125,-24.90234375,-45.41015625,-28.3203125,0.0
1734412728.3241293,-14.16015625,-28.80859375,-46.875,-29.296875,0.0
1734412728.3280354,-22.4609375,-33.69140625,-46.875,-30.76171875,0.0
1734412728.3319411,-15.625,-35.64453125,-41.015625,-28.3203125,0.0
1734412728.3358471,-22.4609375,-35.15625,-43.45703125,-40.52734375,0.0
1734412728.339753,-17.578125,-31.25,-47.36328125,-46.875,0.0
1734412728.343659,-3.41796875,-30.2734375,-41.9921875,-33.203125,0.0
1734412728.3475647,-12.6953125,-36.1328125,-43.9453125,-24.90234375,0.0
1734412728.3514707,-38.57421875,-33.69140625,-41.50390625,-34.1796875,0.0
1734412728.3553767,-53.7109375,-31.73828125,-39.55078125,-35.64453125,0.0
1734412728.3593102,-60.05859375,-40.52734375,-44.921875,-33.69140625,0.0
1734412728.363216,-59.08203125,-42.48046875,-45.8984375,-31.73828125,0.0
1734412728.367122,-56.15234375,-32.71484375,-42.48046875,-19.04296875,0.0
1734412728.371028,-53.7109375,-30.2734375,-44.43359375,-17.08984375,0.0
1734412728.3749337,-49.31640625,-33.69140625,-50.29296875,-23.4375,0.0
1734412728.3788397,-41.50390625,-33.203125,-48.828125,-29.296875,0.0
1734412728.3827455,-30.2734375,-28.80859375,-47.36328125,-38.0859375,0.0
1734412728.3866515,-32.2265625,-29.78515625,-52.24609375,-36.1328125,0.0
1734412728.3905573,-41.50390625,-33.69140625,-53.7109375,-28.80859375,0.0
1734412728.3944633,-41.50390625,-32.71484375,-53.22265625,-25.390625,0.0
1734412728.398369,-50.29296875,-28.3203125,-56.640625,-32.71484375,0.0
1734412728.402275,-46.875,-27.34375,-55.17578125,-34.66796875,0.0
1734412728.4061987,-40.0390625,-28.3203125,-52.24609375,-41.50390625,0.0
1734412728.4101048,-44.43359375,-26.85546875,-51.26953125,-50.78125,0.0
1734412728.4140105,-36.1328125,-23.92578125,-53.7109375,-49.31640625,0.0
1734412728.4179165,-20.5078125,-20.5078125,-52.734375,-36.1328125,0.0
1734412728.4218223,-26.85546875,-29.78515625,-50.29296875,-41.9921875,0.0
1734412728.4257283,-27.83203125,-32.71484375,-51.26953125,-52.24609375,0.0
1734412728.429634,-29.296875,-25.87890625,-48.33984375,-50.78125,0.0
1734412728.43354,-39.0625,-24.4140625,-46.38671875,-45.41015625,0.0
1734412728.437446,-32.71484375,-24.90234375,-48.33984375,-35.15625,0.0
1734412728.441352,-34.66796875,-18.06640625,-46.875,-41.015625,0.0
1734412728.445258,-35.64453125,-17.08984375,-45.41015625,-45.8984375,0.0
1734412728.4491637,-27.34375,-27.83203125,-49.31640625,-33.69140625,0.0
1734412728.4530787,0.0,-30.2734375,-49.31640625,-21.97265625,0.0
1734412728.4569845,0.0,-28.80859375,-41.50390625,-18.5546875,0.0
1734412728.4608905,0.0,-38.57421875,-46.875,-31.25,0.0
1734412728.4647965,0.0,-47.8515625,-51.7578125,-36.62109375,0.0
1734412728.4687023,0.0,-49.31640625,-46.875,-33.69140625,0.0
1734412728.4726083,0.0,-48.828125,-47.8515625,-29.78515625,0.0
1734412728.476514,0.0,-46.38671875,-53.22265625,-31.73828125,0.0
1734412728.48042,0.0,-49.31640625,-54.6875,-39.0625,0.0
1734412728.484326,0.0,-48.33984375,-48.33984375,-40.0390625,0.0
1734412728.488232,0.0,-41.015625,-41.9921875,-46.875,0.0
1734412728.492138,0.0,-44.43359375,-40.52734375,-47.36328125,0.0
1734412728.4960437,0.0,-44.921875,-43.45703125,-41.9921875,0.0
1734412728.499951,-39.55078125,-42.96875,-44.43359375,-50.78125,0.0
1734412728.5038567,-31.73828125,-47.8515625,-42.96875,-48.828125,0.0
1734412728.5077627,-40.52734375,-51.7578125,-43.9453125,-41.50390625,0.0
1734412728.5116684,-46.38671875,-46.38671875,-43.9453125,-30.76171875,0.0
1734412728.5155745,-28.80859375,-42.48046875,-45.8984375,-21.484375,0.0
1734412728.5194805,-18.06640625,-47.8515625,-46.38671875,-35.15625,0.0
1734412728.5233862,-20.99609375,-46.38671875,-45.8984375,-44.921875,0.0
1734412728.5272923,-31.73828125,-46.38671875,-47.8515625,-37.109375,0.0
1734412728.531198,-32.71484375,-38.57421875,-44.43359375,-37.59765625,0.0
1734412728.535104,-23.4375,-34.1796875,-42.48046875,-43.45703125,0.0
1734412728.5390098,-17.578125,-46.38671875,-46.38671875,-46.875,0.0
1734412728.5429158,-16.11328125,-48.828125,-49.31640625,-39.55078125,0.0
1734412728.54682,-20.5078125,-42.96875,-48.33984375,-31.25,0.0
1734412728.550726,-40.0390625,-45.41015625,-48.33984375,-34.66796875,0.0
1734412728.554632,-42.48046875,-53.22265625,-50.78125,-30.76171875,0.0
1734412728.5585377,-33.203125,-49.31640625,-43.9453125,-20.01953125,0.0
1734412728.5624437,-31.25,-42.48046875,-40.0390625,-20.99609375,0.0
1734412728.5663495,-24.4140625,-41.50390625,-42.48046875,-31.73828125,0.0
1734412728.5702555,-19.53125,-42.48046875,-42.48046875,-23.4375,0.0
1734412728.5741613,-25.87890625,-50.29296875,-42.48046875,-13.18359375,0.0
1734412728.5780673,-26.85546875,-44.921875,-37.59765625,-34.1796875,0.0
1734412728.5819733,-14.16015625,-41.015625,-37.59765625,-42.96875,0.0
1734412728.585879,-12.6953125,-47.36328125,-39.0625,-39.0625,0.0
1734412728.589785,-20.5078125,-48.828125,-43.9453125,-39.0625,0.0
1734412728.5936766,-31.73828125,-49.8046875,-50.29296875,-38.0859375,0.0
1734412728.5975823,-33.203125,-51.26953125,-50.78125,-40.52734375,0.0
1734412728.6014884,-27.34375,-50.29296875,-50.29296875,-36.1328125,0.0
1734412728.6053941,-22.4609375,-52.24609375,-49.8046875,-32.2265625,0.0
1734412728.6093001,-23.92578125,-53.22265625,-52.24609375,-30.2734375,0.0
1734412728.6132061,-28.3203125,-52.24609375,-50.29296875,-34.66796875,0.0
1734412728.617112,-28.3203125,-51.7578125,-47.8515625,-32.71484375,0.0
1734412728.621018,-31.73828125,-50.78125,-48.33984375,-35.64453125,0.0
1734412728.6249237,-42.48046875,-49.31640625,-47.8515625,-47.36328125,0.0
1734412728.6288297,-46.38671875,-47.36328125,-48.828125,-55.6640625,0.0
1734412728.6327355,-34.1796875,-42.96875,-50.78125,-57.6171875,0.0
1734412728.6366415,-31.73828125,-40.52734375,-43.9453125,-55.17578125,0.0
1734412728.6405196,-37.109375,-45.8984375,-43.45703125,-52.734375,0.0
1734412728.6444256,-26.85546875,-49.8046875,-48.828125,-49.31640625,0.0
1734412728.6483314,-22.4609375,-45.8984375,-46.875,-39.0625,0.0
1734412728.6522374,-34.66796875,-44.43359375,-49.8046875,-33.203125,0.0
1734412728.6561432,-39.0625,-48.828125,-56.15234375,-47.8515625,0.0
1734412728.6600492,-29.296875,-52.734375,-57.12890625,-50.78125,0.0
1734412728.6639552,-35.15625,-58.10546875,-51.26953125,-41.9921875,0.0
1734412728.667861,-46.38671875,-52.24609375,-51.26953125,-47.8515625,0.0
1734412728.671767,-37.109375,-46.38671875,-48.828125,-51.26953125,0.0
1734412728.6756728,-32.71484375,-48.33984375,-39.55078125,-43.45703125,0.0
1734412728.6795788,-37.59765625,-46.38671875,-34.66796875,-40.52734375,0.0
1734412728.6834846,-42.96875,-45.8984375,-37.109375,-48.828125,0.0
1734412728.6874275,-51.7578125,-46.875,-38.57421875,-52.24609375,0.0
1734412728.6913335,-41.50390625,-51.26953125,-41.015625,-39.55078125,0.0
1734412728.6952395,-34.1796875,-51.26953125,-44.43359375,-38.57421875,0.0
1734412728.6991453,-40.0390625,-49.31640625,-41.015625,-41.9921875,0.0
1734412728.7030513,-31.25,-47.36328125,-41.015625,-41.50390625,0.0
1734412728.706957,-26.3671875,-44.921875,-47.36328125,-45.8984375,0.0
1734412728.710863,-38.57421875,-43.9453125,-43.9453125,-45.8984375,0.0
1734412728.714769,-45.41015625,-42.96875,-42.96875,-46.875,0.0
1734412728.718675,-40.52734375,-42.96875,-45.41015625,-56.15234375,0.0
1734412728.722581,-31.25,-47.8515625,-47.8515625,-57.12890625,0.0
1734412728.7264867,-27.83203125,-44.43359375,-49.8046875,-56.640625,0.0
1734412728.7303927,-33.203125,-37.109375,-44.43359375,-58.10546875,0.0
1734412728.7344022,-40.52734375,-32.71484375,0.0,-48.828125,0.0
1734412728.738308,-35.64453125,-35.15625,0.0,-53.22265625,0.0
1734412728.742214,-25.390625,-41.50390625,0.0,-58.10546875,0.0
1734412728.7461197,-21.484375,-41.9921875,0.0,-42.48046875,0.0
1734412728.7500257,-20.99609375,-40.52734375,0.0,-28.80859375,0.0
1734412728.7539315,-12.6953125,-39.0625,0.0,-25.87890625,0.0
1734412728.7578375,-18.5546875,-38.57421875,0.0,-28.80859375,0.0
1734412728.7617435,-27.34375,-37.109375,0.0,-41.9921875,0.0
1734412728.7656493,-36.62109375,-42.96875,0.0,-60.546875,0.0
1734412728.7695553,-41.9921875,-48.33984375,0.0,-69.3359375,0.0
1734412728.773461,-51.26953125,-42.96875,0.0,-69.3359375,0.0
1734412728.777367,-50.78125,-43.9453125,0.0,-58.59375,0.0
1734412728.781293,-41.015625,-45.41015625,-46.38671875,-60.05859375,0.0
1734412728.785199,-48.33984375,-43.45703125,-43.9453125,-78.61328125,0.0
1734412728.789105,-52.24609375,-42.48046875,-44.921875,-77.1484375,0.0
1734412728.7930107,-42.96875,-47.36328125,-41.50390625,-62.01171875,0.0
1734412728.7969167,-32.71484375,-54.19921875,-46.38671875,-57.6171875,0.0
1734412728.8008225,-26.85546875,-57.12890625,-44.921875,-56.15234375,0.0
1734412728.8047285,-34.1796875,-48.828125,-40.0390625,-62.5,0.0
1734412728.8086343,-41.9921875,-37.59765625,-38.57421875,-66.40625,0.0
1734412728.8125403,-37.59765625,-41.50390625,-43.9453125,-63.4765625,0.0
1734412728.8164463,-37.109375,-42.96875,-48.828125,-62.5,0.0
1734412728.820352,-37.109375,-39.0625,-46.38671875,-69.82421875,0.0
1734412728.824258,-39.55078125,-40.52734375,-47.36328125,-73.73046875,0.0
1734412728.8282454,-47.36328125,-48.33984375,-49.8046875,-75.1953125,0.0
1734412728.8321514,-54.19921875,-49.31640625,-46.38671875,-81.0546875,0.0
1734412728.8360574,-43.45703125,-45.8984375,-42.48046875,-72.75390625,0.0
1734412728.8399632,-34.66796875,-47.8515625,-40.52734375,-62.5,0.0
1734412728.8438692,-37.59765625,-50.78125,-40.52734375,-59.5703125,0.0
1734412728.847775,-18.5546875,-46.38671875,-41.9921875,-53.22265625,0.0
1734412728.851681,-8.30078125,-43.9453125,-42.48046875,-49.31640625,0.0
1734412728.8555868,-12.20703125,-48.828125,-45.8984375,-51.7578125,0.0
1734412728.8594928,-19.04296875,-50.78125,-48.828125,-48.33984375,0.0
1734412728.8633988,-30.76171875,-48.33984375,-46.38671875,-38.57421875,0.0
1734412728.8673046,-29.78515625,-46.38671875,-47.8515625,-37.109375,0.0
1734412728.8712106,-32.71484375,-48.33984375,-47.8515625,-45.8984375,0.0
1734412728.875117,0.0,-48.33984375,-38.57421875,-46.38671875,0.0
1734412728.879023,0.0,-43.9453125,-40.0390625,-46.875,0.0
1734412728.8829288,0.0,-44.43359375,-44.921875,-44.43359375,0.0
1734412728.8868349,0.0,-46.38671875,-42.48046875,-41.015625,0.0
1734412728.8907409,0.0,-43.9453125,-37.109375,-44.43359375,0.0
1734412728.8946466,0.0,-46.38671875,-42.96875,-41.50390625,0.0
1734412728.8985527,0.0,-56.15234375,-51.7578125,-47.36328125,0.0
1734412728.9024584,0.0,-61.5234375,-55.17578125,-52.734375,0.0
1734412728.9063644,0.0,-55.6640625,-53.22265625,-62.5,0.0
1734412728.9102702,0.0,-53.22265625,-52.24609375,-72.75390625,0.0
1734412728.9141762,0.0,-56.640625,-49.31640625,-68.84765625,0.0
1734412728.9180822,0.0,-61.5234375,-45.8984375,-61.03515625,0.0
1734412728.9219778,-28.3203125,-54.19921875,-44.921875,-68.359375,0.0
1734412728.9258838,-37.109375,-45.41015625,-50.29296875,-74.21875,0.0
1734412728.9297895,-42.48046875,-52.734375,-51.26953125,-62.01171875,0.0
1734412728.9336956,-45.41015625,-59.08203125,-52.734375,-54.19921875,0.0
1734412728.9376013,-38.57421875,-60.546875,-53.7109375,-47.36328125,0.0
1734412728.9415073,-36.62109375,-61.5234375,-50.29296875,-43.9453125,0.0
1734412728.9454134,-37.109375,-60.05859375,-50.78125,-42.48046875,0.0
1734412728.9493191,-35.15625,-58.10546875,-52.24609375,-39.55078125,0.0
1734412728.9532251,-26.3671875,-53.7109375,-45.8984375,-28.80859375,0.0
1734412728.957131,-12.20703125,-49.8046875,-42.48046875,-14.6484375,0.0
1734412728.961037,-13.18359375,-47.8515625,-43.45703125,-17.08984375,0.0
1734412728.964943,-20.5078125,-46.38671875,-40.0390625,-25.87890625,0.0
1734412728.9688349,-17.08984375,-43.9453125,-37.109375,-24.4140625,0.0
1734412728.972741,-18.5546875,-44.921875,-41.015625,-7.8125,0.0
1734412728.9766467,-26.3671875,-47.8515625,-43.9453125,-17.08984375,0.0
1734412728.9805527,-9.27734375,-42.48046875,-36.62109375,-33.203125,0.0
1734412728.9844587,-5.37109375,-41.50390625,-37.59765625,-42.48046875,0.0
1734412728.9883645,-30.76171875,-43.9453125,-44.43359375,-43.45703125,0.0
1734412728.9922705,-44.43359375,-45.8984375,-45.41015625,-29.296875,0.0
1734412728.9961762,-52.24609375,-43.45703125,-44.43359375,-35.64453125,0.0
1734412729.0000823,-52.734375,-34.66796875,-41.015625,-55.17578125,0.0
1734412729.003988,-43.9453125,-35.64453125,-43.45703125,-65.4296875,0.0
1734412729.007894,-46.38671875,-38.0859375,-46.875,-68.359375,0.0
1734412729.0118,-48.33984375,-39.55078125,-48.33984375,-62.5,0.0
1734412729.0157628,-50.78125,-45.41015625,-49.8046875,-63.96484375,0.0
1734412729.0196688,-57.6171875,-47.8515625,-46.875,-66.40625,0.0
1734412729.0235746,-58.10546875,-41.50390625,-43.45703125,-66.40625,0.0
1734412729.0274806,-56.640625,-36.62109375,-46.875,-68.84765625,0.0
1734412729.0313864,-51.26953125,-38.57421875,-49.8046875,-62.01171875,0.0
1734412729.0352924,-39.55078125,-43.45703125,-56.640625,-62.98828125,0.0
1734412729.0391982,-29.78515625,-43.9453125,-59.5703125,-64.453125,0.0
1734412729.0431042,-32.2265625,-33.203125,-50.78125,-65.4296875,0.0
1734412729.0470102,-28.80859375,-31.73828125,-50.78125,-65.4296875,0.0
1734412729.050916,-24.90234375,-40.52734375,-49.8046875,-55.6640625,0.0
1734412729.054822,-22.4609375,-36.62109375,-42.48046875,-49.31640625,0.0
1734412729.0587277,-23.92578125,-28.80859375,-41.9921875,-39.55078125,0.0
1734412729.0626812,-20.99609375,-28.3203125,-40.0390625,-22.94921875,0.0
1734412729.0665872,-15.625,-33.69140625,-41.9921875,-29.78515625,0.0
1734412729.070493,-10.25390625,-32.2265625,-41.9921875,-37.109375,0.0
1734412729.074399,-7.32421875,-28.80859375,-34.66796875,-25.390625,0.0
1734412729.0783048,-20.5078125,-36.1328125,-37.109375,-32.2265625,0.0
1734412729.0822108,-19.53125,-38.57421875,-41.50390625,-41.50390625,0.0
1734412729.0861168,-14.16015625,-38.0859375,-41.015625,-44.43359375,0.0
1734412729.0900226,-21.484375,-36.62109375,-43.9453125,-47.36328125,0.0
1734412729.0939286,-29.78515625,-33.203125,-45.41015625,-47.36328125,0.0
1734412729.0978343,-41.50390625,-34.1796875,-43.9453125,-43.9453125,0.0
1734412729.1017404,-45.41015625,-29.296875,-41.9921875,-52.734375,0.0
1734412729.1056461,-36.1328125,-24.4140625,-39.55078125,-57.12890625,0.0
1734412729.109586,-38.57421875,-29.296875,-43.45703125,-51.26953125,0.0
1734412729.113492,-42.96875,-34.1796875,-47.8515625,-47.36328125,0.0
1734412729.1173978,-49.31640625,-33.69140625,-42.96875,-47.36328125,0.0
1734412729.1213038,-57.6171875,-36.1328125,-46.875,-59.08203125,0.0
1734412729.1252096,-55.17578125,-41.015625,-50.78125,-66.40625,0.0
1734412729.1291156,-51.7578125,-41.015625,-49.31640625,-68.84765625,0.0
1734412729.1330214,-52.734375,-36.1328125,-45.41015625,-65.91796875,0.0
1734412729.1369274,-50.78125,-31.73828125,-42.96875,-65.91796875,0.0
1734412729.1408334,-35.15625,-29.296875,-42.48046875,-62.01171875,0.0
1734412729.1447392,-19.53125,-30.76171875,-41.015625,-45.41015625,0.0
1734412729.1486452,-24.90234375,-32.71484375,-40.0390625,-39.0625,0.0
1734412729.152551,-26.85546875,-36.1328125,-34.66796875,-35.64453125,0.0
1734412729.1565504,-16.6015625,-40.52734375,-35.15625,-26.85546875,0.0
1734412729.1604564,-14.6484375,-37.59765625,-37.109375,-24.4140625,0.0
1734412729.1643622,-13.18359375,-35.15625,-37.109375,-37.109375,0.0
1734412729.1682682,-20.01953125,-38.57421875,-39.55078125,-42.48046875,0.0
1734412729.1721742,-38.57421875,-43.45703125,-43.9453125,-35.15625,0.0
1734412729.17608,-35.64453125,-36.62109375,-40.52734375,-26.85546875,0.0
1734412729.179986,-30.76171875,-34.1796875,-40.0390625,-30.2734375,0.0
1734412729.1838918,-23.4375,-36.62109375,-38.57421875,-44.43359375,0.0
1734412729.1877978,-18.5546875,-37.59765625,-38.57421875,-42.96875,0.0
1734412729.1917038,-33.203125,-31.25,-40.0390625,-43.45703125,0.0
1734412729.1956096,-44.921875,-32.71484375,-44.43359375,-50.29296875,0.0
1734412729.1995156,-41.9921875,-43.9453125,-48.828125,-52.734375,0.0
1734412729.2034256,-34.66796875,-46.875,-42.96875,-48.828125,0.0
1734412729.2073314,-35.64453125,-43.45703125,-41.015625,-54.19921875,0.0
1734412729.2112374,-44.43359375,-41.015625,-37.59765625,-59.08203125,0.0
1734412729.2151434,-55.17578125,-44.43359375,-36.1328125,-54.6875,0.0
1734412729.2190492,-57.12890625,-47.36328125,-38.0859375,-52.24609375,0.0
1734412729.2229552,-59.5703125,-45.8984375,-40.52734375,-54.6875,0.0
1734412729.226861,-60.05859375,-46.875,-49.31640625,-60.05859375,0.0
1734412729.230767,-54.6875,-41.015625,-45.41015625,-50.78125,0.0
1734412729.2346728,-59.08203125,-38.0859375,-41.9921875,-58.59375,0.0
1734412729.2385788,-63.96484375,-39.0625,-41.015625,-73.2421875,0.0
1734412729.2424848,-53.7109375,-35.15625,-43.45703125,-72.75390625,0.0
1734412729.2463906,-50.78125,-38.57421875,-46.38671875,-66.40625,0.0
1734412729.2503045,-45.8984375,-39.0625,-41.9921875,0.0,0.0
1734412729.2542105,-30.76171875,-34.1796875,-44.43359375,0.0,0.0
1734412729.2581165,-13.18359375,-35.64453125,-43.45703125,0.0,0.0
1734412729.2620223,5.37109375,-36.1328125,-37.109375,0.0,0.0
1734412729.2659283,-20.5078125,-41.50390625,-40.52734375,0.0,0.0
1734412729.269834,-56.15234375,-38.0859375,-46.38671875,0.0,0.0
1734412729.27374,-56.640625,-33.203125,-55.17578125,0.0,0.0
1734412729.277646,-46.38671875,-36.1328125,-57.6171875,0.0,0.0
1734412729.2815518,-57.6171875,-33.69140625,-54.6875,0.0,0.0
1734412729.2854578,-66.89453125,-35.15625,-62.01171875,0.0,0.0
1734412729.2893636,-72.265625,-41.9921875,-75.68359375,0.0,0.0
1734412729.2932696,-79.58984375,-41.015625,-81.0546875,0.0,0.0
1734412729.2971656,-76.171875,-39.0625,-84.9609375,-98.14453125,0.0
1734412729.3010716,-66.89453125,-41.015625,-87.40234375,-90.33203125,0.0
1734412729.3049774,-63.4765625,-48.33984375,-88.37890625,-84.9609375,0.0
1734412729.3088834,-61.03515625,-49.31640625,-84.9609375,-75.68359375,0.0
1734412729.3127892,-68.359375,-41.9921875,-78.125,-76.171875,0.0
1734412729.3166952,-60.546875,-29.78515625,-75.68359375,-79.1015625,0.0
1734412729.3206012,-43.9453125,-25.87890625,-70.80078125,-70.3125,0.0
1734412729.324507,-53.7109375,-40.52734375,-67.87109375,-76.66015625,0.0
1734412729.328413,-69.82421875,-44.921875,-71.77734375,-101.5625,0.0
1734412729.3323188,-64.453125,-48.33984375,-76.66015625,-99.12109375,0.0
1734412729.3362248,-60.546875,-50.78125,-79.1015625,-89.35546875,0.0
1734412729.3401308,-69.3359375,-47.8515625,-76.66015625,-93.75,0.0
1734412729.3440247,-61.5234375,-42.96875,-75.1953125,-86.42578125,0.0
1734412729.3479307,-52.734375,-40.52734375,-71.2890625,-81.0546875,0.0
1734412729.3518364,-67.3828125,-42.48046875,-65.91796875,-80.078125,0.0
1734412729.3557425,-72.75390625,-40.52734375,-60.546875,-78.125,0.0
1734412729.3596485,-65.4296875,-44.921875,-59.5703125,-76.66015625,0.0
1734412729.3635542,-57.12890625,-50.29296875,-65.91796875,-73.73046875,0.0
1734412729.3674603,-41.9921875,-48.828125,-72.75390625,-62.5,0.0
1734412729.371366,-37.59765625,-44.921875,-71.77734375,-57.6171875,0.0
1734412729.375272,-40.52734375,-41.015625,-65.91796875,-60.05859375,0.0
1734412729.379178,-38.57421875,-38.57421875,-54.19921875,-56.15234375,0.0
1734412729.3830838,-46.38671875,-39.0625,-52.24609375,-62.5,0.0
1734412729.3869898,-58.10546875,-44.43359375,-64.94140625,-78.125,0.0
1734412729.3908758,-49.8046875,-50.78125,-63.4765625,-65.4296875,0.0
1734412729.3947818,-40.52734375,-53.22265625,-60.546875,-48.33984375,0.0
1734412729.3986876,-35.15625,-52.24609375,-64.453125,-57.6171875,0.0
1734412729.4025936,-26.85546875,-45.8984375,-66.89453125,-69.82421875,0.0
1734412729.4064996,-31.25,-44.43359375,-65.91796875,-76.66015625,0.0
1734412729.4104054,-43.45703125,-53.22265625,-60.05859375,-73.2421875,0.0
1734412729.4143114,-45.8984375,-54.6875,-53.7109375,-63.96484375,0.0
1734412729.4182172,-44.921875,-44.43359375,-52.24609375,-65.4296875,0.0
1734412729.4221232,-44.921875,-40.0390625,-56.15234375,-68.359375,0.0
1734412729.426029,-43.9453125,-41.50390625,-58.59375,-62.5,0.0
1734412729.429935,-41.015625,-43.45703125,-60.546875,-58.10546875,0.0
1734412729.433841,-41.9921875,-41.50390625,-55.17578125,-53.22265625,0.0
1734412729.437791,0.0,-41.9921875,-57.12890625,-53.7109375,0.0
1734412729.441697,0.0,-41.015625,-61.5234375,-49.8046875,0.0
1734412729.445603,0.0,-38.57421875,-60.546875,-38.0859375,0.0
1734412729.4495087,0.0,-41.50390625,-54.6875,-30.2734375,0.0
1734412729.4534147,0.0,-43.9453125,-49.31640625,-30.2734375,0.0
1734412729.4573207,0.0,-51.7578125,-52.734375,-29.78515625,0.0
1734412729.4612265,0.0,-58.10546875,-55.17578125,-27.83203125,0.0
1734412729.4651325,0.0,-56.640625,-50.78125,-20.99609375,0.0
1734412729.4690382,0.0,-54.6875,-46.875,-24.4140625,0.0
1734412729.4729443,0.0,-50.78125,-51.7578125,-33.203125,0.0
1734412729.4768503,0.0,-40.0390625,-51.26953125,-30.2734375,0.0
1734412729.480756,0.0,-38.57421875,-49.31640625,-37.59765625,0.0
1734412729.484701,5.859375,-45.41015625,-56.640625,-39.55078125,0.0
1734412729.488607,-13.18359375,-54.6875,-62.01171875,-40.0390625,0.0
1734412729.4925127,-21.97265625,-53.22265625,-57.6171875,-37.59765625,0.0
1734412729.4964187,-27.83203125,-49.31640625,-53.7109375,-33.203125,0.0
1734412729.5003245,-37.109375,-57.6171875,-55.6640625,-34.66796875,0.0
1734412729.5042305,-41.50390625,-64.453125,-61.03515625,-39.0625,0.0
1734412729.5081365,-36.62109375,-63.4765625,-61.03515625,-42.96875,0.0
1734412729.5120423,-33.203125,-61.03515625,-54.19921875,-42.48046875,0.0
1734412729.5159483,-25.390625,-62.01171875,-57.12890625,-39.55078125,0.0
1734412729.519854,-20.5078125,-64.94140625,-60.546875,-40.52734375,0.0
1734412729.52376,-24.4140625,-59.5703125,-61.5234375,-47.8515625,0.0
1734412729.527666,-25.390625,-56.640625,-63.96484375,-53.7109375,0.0
1734412729.5315962,-42.96875,-62.98828125,-62.5,-53.22265625,0.0
1734412729.5355022,-56.640625,-67.3828125,-57.12890625,-55.6640625,0.0
1734412729.539408,-48.828125,-65.91796875,-57.6171875,-58.10546875,0.0
1734412729.543314,-44.921875,-63.96484375,-61.5234375,-59.5703125,0.0
1734412729.5472198,-41.015625,-64.453125,-62.98828125,-56.15234375,0.0
1734412729.5511258,-32.2265625,-61.03515625,-61.5234375,-52.24609375,0.0
1734412729.5550318,-21.484375,-51.26953125,-62.98828125,-51.26953125,0.0
1734412729.5589375,-16.6015625,-51.7578125,-62.01171875,-48.828125,0.0
1734412729.5628436,-20.5078125,-64.94140625,-59.5703125,-46.38671875,0.0
1734412729.5667493,-22.4609375,-62.5,-59.5703125,-47.36328125,0.0
1734412729.5706553,-18.06640625,-53.7109375,-62.01171875,-46.38671875,0.0
1734412729.5745614,-16.11328125,-57.12890625,-63.4765625,-34.66796875,0.0
1734412729.5784886,0.0,-60.05859375,0.0,0.0,0.0
1734412729.5823944,0.0,-51.26953125,0.0,0.0,0.0
1734412729.5863004,0.0,-45.8984375,0.0,0.0,0.0
1734412729.5902064,0.0,-50.29296875,0.0,0.0,0.0
1734412729.5941122,0.0,-49.8046875,0.0,0.0,0.0
1734412729.5980182,0.0,-51.26953125,0.0,0.0,0.0
1734412729.601924,0.0,-49.8046875,0.0,0.0,0.0
1734412729.60583,0.0,-49.31640625,0.0,0.0,0.0
1734412729.609736,0.0,-52.734375,0.0,0.0,0.0
1734412729.6136417,0.0,-41.50390625,0.0,0.0,0.0
1734412729.6175478,0.0,-35.15625,0.0,0.0,0.0
1734412729.6214535,0.0,-38.57421875,0.0,0.0,0.0
1734412729.6253622,-44.43359375,-32.71484375,-61.03515625,-70.80078125,0.0
1734412729.629268,-52.24609375,-34.66796875,-59.08203125,-76.66015625,0.0
1734412729.633174,-69.82421875,-43.45703125,-69.82421875,-85.9375,0.0
1734412729.63708,-82.51953125,-48.33984375,-69.3359375,-87.890625,0.0
1734412729.6409857,-88.8671875,-49.31640625,-65.4296875,-98.6328125,0.0
1734412729.6448917,-72.75390625,-49.31640625,-65.4296875,-99.609375,0.0
1734412729.6487975,-64.453125,-50.29296875,-64.94140625,-88.37890625,0.0
1734412729.6527035,-77.63671875,-47.36328125,-66.89453125,-88.8671875,0.0
1734412729.6566095,-86.9140625,-40.0390625,-61.5234375,-86.42578125,0.0
1734412729.6605153,-65.91796875,-32.71484375,-54.6875,-79.58984375,0.0
1734412729.6644213,-59.5703125,-43.45703125,-63.4765625,-85.44921875,0.0
1734412729.668327,-61.5234375,-50.78125,-60.05859375,-87.40234375,0.0
1734412729.672223,-68.84765625,-45.41015625,-48.33984375,-89.84375,0.0
1734412729.676129,-90.33203125,-41.9921875,-44.921875,-99.609375,0.0
1734412729.6800349,-89.35546875,-40.52734375,-43.45703125,-94.23828125,0.0
1734412729.683941,-75.68359375,-41.015625,-47.36328125,-79.58984375,0.0
1734412729.6878467,-65.4296875,-43.45703125,-49.31640625,-70.3125,0.0
1734412729.6917527,-59.08203125,-42.96875,-39.55078125,-65.4296875,0.0
1734412729.6956587,-54.19921875,-39.0625,-32.71484375,-68.84765625,0.0
1734412729.6995645,-63.96484375,-44.43359375,-33.69140625,-75.1953125,0.0
1734412729.7034705,-74.21875,-48.828125,-35.15625,-90.33203125,0.0
1734412729.7073762,-89.35546875,-57.6171875,-45.8984375,-111.328125,0.0
1734412729.7112823,-94.23828125,-57.6171875,-45.41015625,-103.515625,0.0
1734412729.7151883,-99.12109375,-51.7578125,-42.48046875,-90.33203125,0.0
1734412729.7190776,-95.21484375,-50.29296875,-37.109375,-81.0546875,0.0
1734412729.7229836,-75.1953125,-53.22265625,-30.76171875,-73.73046875,0.0
1734412729.7268896,-82.03125,-65.4296875,-32.71484375,-87.890625,0.0
1734412729.7307954,-106.4453125,-72.75390625,-33.69140625,-108.88671875,0.0
1734412729.7347014,-106.93359375,-69.82421875,-30.2734375,-109.86328125,0.0
1734412729.7386072,-88.8671875,-70.3125,-25.390625,-100.5859375,0.0
1734412729.7425132,-82.51953125,-77.63671875,-22.4609375,-93.75,0.0
1734412729.7464192,-84.9609375,-83.49609375,-11.71875,-100.5859375,0.0
1734412729.750325,-90.33203125,-86.42578125,0.48828125,-109.86328125,0.0
1734412729.754231,-85.44921875,-87.40234375,-1.46484375,-100.09765625,0.0
1734412729.7581367,-68.359375,-90.8203125,-6.8359375,-85.44921875,0.0
1734412729.7620428,-59.5703125,-99.12109375,0.0,-73.2421875,0.0
1734412729.7659302,-49.8046875,-99.609375,6.34765625,-66.40625,0.0
1734412729.7698362,-46.38671875,-93.26171875,6.34765625,-59.5703125,0.0
1734412729.773742,-53.7109375,-93.26171875,7.32421875,-48.828125,0.0
1734412729.777648,-53.7109375,-97.65625,3.41796875,-46.38671875,0.0
1734412729.781554,-59.5703125,-104.4921875,0.0,-51.7578125,0.0
1734412729.7854598,-36.1328125,-111.81640625,5.859375,-44.921875,0.0
1734412729.7893658,-15.13671875,-126.953125,6.34765625,-39.0625,0.0
1734412729.7932715,-22.4609375,-129.8828125,11.23046875,-39.55078125,0.0
1734412729.7971776,-17.08984375,-120.1171875,18.5546875,-29.78515625,0.0
1734412729.8010836,-4.39453125,-123.53515625,16.6015625,-20.01953125,0.0
1734412729.8049893,-2.44140625,-120.60546875,21.97265625,-10.25390625,0.0
1734412729.8088953,-8.7890625,-117.1875,18.06640625,-11.71875,0.0
1734412729.8128338,-5.859375,-147.4609375,4.39453125,-3.41796875,0.0
1734412729.8167398,20.01953125,-169.43359375,-8.30078125,36.62109375,0.0
1734412729.8206456,35.15625,-143.06640625,-0.9765625,49.8046875,0.0
1734412729.8245516,19.53125,-116.2109375,4.8828125,24.4140625,0.0
1734412729.8284574,22.4609375,-116.69921875,-1.46484375,26.85546875,0.0
1734412729.8323634,39.55078125,-124.0234375,-5.37109375,45.8984375,0.0
1734412729.8362694,42.96875,-122.0703125,-15.625,52.734375,0.0
1734412729.8401752,58.10546875,-118.1640625,-26.85546875,57.6171875,0.0
1734412729.8440812,78.125,-118.65234375,-28.80859375,65.91796875,0.0
1734412729.847987,72.75390625,-125.0,-38.0859375,78.125,0.0
1734412729.851893,69.3359375,-119.140625,-39.0625,75.68359375,0.0
1734412729.855799,78.125,-112.79296875,-38.57421875,75.68359375,0.0
1734412729.8597333,91.796875,-117.67578125,-47.36328125,83.0078125,0.0
1734412729.8636394,103.02734375,-118.1640625,-44.921875,93.26171875,0.0
1734412729.8675451,97.65625,-115.72265625,-52.24609375,87.40234375,0.0
1734412729.8714511,92.28515625,-115.234375,-60.546875,84.9609375,0.0
1734412729.8753572,91.796875,-119.62890625,-59.5703125,93.75,0.0
1734412729.879263,91.796875,-122.55859375,-57.12890625,86.42578125,0.0
1734412729.883169,88.8671875,-115.72265625,-47.36328125,77.63671875,0.0
1734412729.8870747,90.8203125,-100.5859375,-41.9921875,83.0078125,0.0
1734412729.8909807,99.609375,-95.21484375,-41.015625,95.21484375,0.0
1734412729.8948867,83.984375,-96.6796875,-41.50390625,97.65625,0.0
1734412729.8987925,73.73046875,-91.30859375,-46.38671875,77.1484375,0.0
1734412729.9026985,77.1484375,-94.23828125,-53.22265625,55.6640625,0.0
1734412729.906622,68.359375,-97.16796875,0.0,41.9921875,0.0
1734412729.910528,64.453125,-92.28515625,0.0,38.57421875,0.0
1734412729.914434,61.03515625,-90.33203125,0.0,46.38671875,0.0
1734412729.9183397,58.10546875,-88.37890625,0.0,44.921875,0.0
1734412729.9222457,63.96484375,-81.54296875,0.0,39.0625,0.0
1734412729.9261515,59.5703125,-79.1015625,0.0,33.203125,0.0
1734412729.9300575,44.921875,-75.68359375,0.0,22.94921875,0.0
1734412729.9339635,37.109375,-76.171875,0.0,13.671875,0.0
1734412729.9378693,42.96875,-82.51953125,0.0,15.13671875,0.0
1734412729.9417753,39.0625,-78.61328125,0.0,11.23046875,0.0
1734412729.945681,24.90234375,-71.2890625,0.0,9.765625,0.0
1734412729.949587,22.94921875,-70.3125,0.0,17.08984375,0.0
1734412729.9535122,23.4375,-71.2890625,-52.24609375,9.765625,0.0
1734412729.9574182,16.11328125,-70.80078125,-47.8515625,10.25390625,0.0
1734412729.961324,19.53125,-68.84765625,-46.38671875,10.7421875,0.0
1734412729.96523,24.4140625,-67.87109375,-48.33984375,-2.44140625,0.0
1734412729.969136,24.90234375,-67.87109375,-46.875,-9.27734375,0.0
1734412729.9730418,40.52734375,-66.89453125,-44.43359375,2.9296875,0.0
1734412729.9769478,28.80859375,-63.96484375,-45.41015625,8.7890625,0.0
1734412729.9808538,5.37109375,-67.3828125,-44.43359375,2.9296875,0.0
1734412729.9847596,9.27734375,-71.2890625,-40.0390625,3.41796875,0.0
1734412729.9886656,4.8828125,-64.453125,-40.0390625,-7.8125,0.0
1734412729.9925714,-10.25390625,-64.94140625,-44.921875,-15.13671875,0.0
1734412729.9964774,-6.8359375,-64.453125,-44.43359375,-11.71875,0.0
1734412730.0003831,4.8828125,-57.12890625,-40.52734375,-4.39453125,0.0
1734412730.0042892,11.23046875,-52.734375,-40.0390625,-5.859375,0.0
1734412730.008195,8.7890625,-52.24609375,-41.9921875,-5.859375,0.0
1734412730.012101,6.8359375,-52.734375,-46.875,1.46484375,0.0
1734412730.0160067,13.671875,-52.734375,-47.36328125,9.765625,0.0
1734412730.0199127,11.23046875,-52.734375,-44.921875,-0.9765625,0.0
1734412730.0238187,-0.48828125,-51.26953125,-44.43359375,-10.25390625,0.0
1734412730.0277245,-5.37109375,-54.19921875,-48.828125,-7.32421875,0.0
1734412730.0316305,-0.9765625,-55.6640625,-45.41015625,-18.5546875,0.0
1734412730.0355363,4.8828125,-46.875,-37.59765625,-21.484375,0.0
1734412730.0394423,1.46484375,-47.36328125,-38.57421875,-15.625,0.0
1734412730.0433483,3.41796875,-52.24609375,-39.55078125,-14.16015625,0.0
1734412730.0473142,10.25390625,-45.8984375,-36.1328125,-14.16015625,0.0
1734412730.05122,3.90625,-45.8984375,-34.1796875,-21.97265625,0.0
1734412730.055126,1.46484375,-52.24609375,-40.0390625,-20.99609375,0.0
1734412730.0590317,6.8359375,-48.33984375,-42.96875,-18.06640625,0.0
1734412730.0629377,15.13671875,-42.48046875,-37.109375,-25.390625,0.0
1734412730.0668437,20.5078125,-40.0390625,-34.1796875,-27.34375,0.0
1734412730.0707495,12.6953125,-45.41015625,-38.0859375,-21.97265625,0.0
1734412730.0746555,4.39453125,-47.36328125,-41.50390625,-14.6484375,0.0
1734412730.0785613,4.8828125,-41.015625,-39.55078125,-12.20703125,0.0
1734412730.0824673,2.9296875,-44.921875,-41.50390625,-10.25390625,0.0
1734412730.0863733,-1.953125,-51.7578125,-46.875,-5.859375,0.0
1734412730.090279,-15.625,-50.78125,-47.36328125,-5.859375,0.0
1734412730.0941656,-21.97265625,-47.8515625,-47.36328125,-10.25390625,0.0
1734412730.0980713,-19.04296875,-47.8515625,-46.875,-18.06640625,0.0
1734412730.1019773,-13.18359375,-49.31640625,-52.24609375,-24.4140625,0.0
1734412730.1058834,-7.8125,-43.9453125,-55.6640625,-19.04296875,0.0
1734412730.1097891,-15.625,-45.41015625,-51.26953125,-14.6484375,0.0
1734412730.1136951,-22.94921875,-52.24609375,-53.22265625,-15.13671875,0.0
1734412730.117601,-16.6015625,-48.828125,-51.26953125,-17.08984375,0.0
1734412730.121507,-9.765625,-43.9453125,-50.29296875,-20.01953125,0.0
1734412730.125413,-9.765625,-41.50390625,-53.7109375,-22.94921875,0.0
1734412730.1293187,-11.23046875,-43.45703125,-53.7109375,-19.53125,0.0
1734412730.1332247,-14.6484375,-50.29296875,-47.8515625,-8.30078125,0.0
1734412730.1371305,-14.6484375,-43.9453125,-41.015625,-6.34765625,0.0
1734412730.1410084,-12.20703125,-39.55078125,-45.41015625,-13.671875,0.0
1734412730.1449142,-12.20703125,-45.8984375,-52.24609375,-16.11328125,0.0
1734412730.1488202,-15.13671875,-50.29296875,-48.33984375,-17.578125,0.0
1734412730.152726,-22.4609375,-51.7578125,-47.8515625,-18.5546875,0.0
1734412730.156632,-19.53125,-46.38671875,-49.8046875,-12.6953125,0.0
1734412730.160538,-10.25390625,-47.8515625,-47.36328125,-4.39453125,0.0
1734412730.1644437,-4.39453125,-48.33984375,-48.33984375,-4.8828125,0.0
1734412730.1683497,-14.16015625,-39.55078125,-43.9453125,-10.25390625,0.0
1734412730.1722555,-24.4140625,-48.828125,-43.45703125,-8.7890625,0.0
1734412730.1761615,-16.6015625,-58.59375,-46.38671875,-2.9296875,0.0
1734412730.1800675,8.30078125,-45.8984375,-53.22265625,5.37109375,0.0
1734412730.1839733,9.27734375,-32.2265625,-55.17578125,-7.32421875,0.0
1734412730.18791,-17.08984375,-38.57421875,-54.19921875,-27.83203125,0.0
1734412730.1918159,-29.296875,-45.41015625,-60.05859375,-30.76171875,0.0
1734412730.1957219,-22.94921875,-41.9921875,-74.70703125,-42.96875,0.0
1734412730.1996276,-14.16015625,-38.0859375,-88.37890625,-55.6640625,0.0
1734412730.2035336,-3.90625,-34.66796875,-90.33203125,-62.98828125,0.0
1734412730.2074397,-13.18359375,-36.62109375,-96.19140625,-65.91796875,0.0
1734412730.2113454,-23.92578125,-34.1796875,-94.7265625,-59.08203125,0.0
1734412730.2152514,-13.671875,-32.2265625,-94.7265625,-54.19921875,0.0
1734412730.2191572,2.9296875,-28.3203125,-97.65625,-47.8515625,0.0
1734412730.2230632,13.671875,-20.5078125,-94.7265625,-40.0390625,0.0
1734412730.2269692,0.0,-19.53125,-88.8671875,-47.8515625,0.0
1734412730.230875,-9.765625,-21.484375,-89.35546875,-44.921875,0.0
1734412730.2348213,0.0,-22.4609375,0.0,0.0,0.0
1734412730.238727,0.0,-24.4140625,0.0,0.0,0.0
1734412730.242633,0.0,-24.90234375,0.0,0.0,0.0
1734412730.2465389,0.0,-26.85546875,0.0,0.0,0.0
1734412730.250445,0.0,-29.78515625,0.0,0.0,0.0
1734412730.254351,0.0,-30.76171875,0.0,0.0,0.0
1734412730.2582567,0.0,-26.85546875,0.0,0.0,0.0
1734412730.2621627,0.0,-25.87890625,0.0,0.0,0.0
1734412730.2660685,0.0,-28.80859375,0.0,0.0,0.0
1734412730.2699745,0.0,-33.203125,0.0,0.0,0.0
1734412730.2738805,0.0,-33.203125,0.0,0.0,0.0
1734412730.2777863,0.0,-30.2734375,0.0,0.0,0.0
1734412730.2815273,-4.39453125,-29.296875,-65.4296875,-40.0390625,0.0
1734412730.2854333,-2.44140625,-34.1796875,-62.01171875,-44.921875,0.0
1734412730.289339,-1.46484375,-37.109375,-62.5,-50.78125,0.0
1734412730.293245,-2.44140625,-37.109375,-62.01171875,-48.828125,0.0
1734412730.2971509,-7.32421875,-39.55078125,-60.546875,-47.36328125,0.0
1734412730.3010569,-11.23046875,-37.109375,-64.94140625,-55.6640625,0.0
1734412730.3049629,-9.27734375,-38.0859375,-64.94140625,-54.19921875,0.0
1734412730.3088686,-4.39453125,-43.45703125,-64.94140625,-51.7578125,0.0
1734412730.3127747,-2.9296875,-44.43359375,-69.82421875,-51.7578125,0.0
1734412730.3166804,-5.859375,-43.45703125,-68.84765625,-52.24609375,0.0
1734412730.3205864,-12.20703125,-41.015625,-61.5234375,-59.08203125,0.0
1734412730.3244925,-14.16015625,-43.9453125,-61.5234375,-65.4296875,0.0
1734412730.3284123,-30.76171875,-44.43359375,0.0,-62.5,0.0
1734412730.3323183,-27.34375,-39.55078125,0.0,-54.19921875,0.0
1734412730.336224,-17.578125,-36.62109375,0.0,-51.26953125,0.0
1734412730.34013,-24.90234375,-35.64453125,0.0,-48.33984375,0.0
1734412730.3440359,-28.80859375,-31.73828125,0.0,-45.8984375,0.0
1734412730.3479419,-13.671875,-32.2265625,0.0,-44.921875,0.0
1734412730.351848,-13.671875,-31.73828125,0.0,-40.0390625,0.0
1734412730.3557537,-15.13671875,-32.71484375,0.0,-41.9921875,0.0
1734412730.3596597,-9.27734375,-31.25,0.0,-43.9453125,0.0
1734412730.3635654,-17.08984375,-25.390625,0.0,-46.38671875,0.0
1734412730.3674715,-17.578125,-30.2734375,0.0,-45.41015625,0.0
1734412730.3713775,-17.08984375,-33.203125,0.0,-26.3671875,0.0
1734412730.3752859,-26.3671875,-32.71484375,-53.22265625,-26.3671875,0.0
1734412730.3791916,-22.94921875,-33.69140625,-53.7109375,-40.0390625,0.0
1734412730.3830976,-14.6484375,-30.2734375,-54.6875,-47.36328125,0.0
1734412730.3870034,-24.4140625,-28.80859375,-55.6640625,-41.50390625,0.0
1734412730.3909094,-27.34375,-27.34375,-52.24609375,-36.62109375,0.0
1734412730.3948154,-20.99609375,-29.78515625,-50.78125,-34.1796875,0.0
1734412730.3987212,-16.11328125,-33.69140625,-47.36328125,-30.76171875,0.0
1734412730.4026272,-15.625,-36.62109375,-51.7578125,-35.15625,0.0
1734412730.406533,-22.94921875,-32.71484375,-55.6640625,-41.015625,0.0
1734412730.410439,-25.390625,-23.4375,-48.828125,-40.52734375,0.0
1734412730.414345,-23.92578125,-25.87890625,-48.828125,-35.64453125,0.0
1734412730.4182508,-24.4140625,-34.66796875,-52.734375,-29.296875,0.0
1734412730.4221482,-19.04296875,-39.55078125,-54.19921875,-30.76171875,0.0
1734412730.426054,-5.859375,-41.50390625,-52.24609375,-27.83203125,0.0
1734412730.42996,-8.7890625,-33.69140625,-54.19921875,-34.66796875,0.0
1734412730.4338658,-41.9921875,-30.76171875,-60.05859375,-56.640625,0.0
1734412730.4377718,-58.10546875,-38.0859375,-64.94140625,-62.98828125,0.0
1734412730.4416778,-49.8046875,-39.55078125,-62.98828125,-67.3828125,0.0
1734412730.4455836,-47.36328125,-34.66796875,-64.453125,-67.87109375,0.0
1734412730.4494896,-50.78125,-32.71484375,-68.84765625,-60.546875,0.0
1734412730.4533954,-45.8984375,-22.4609375,-67.3828125,-60.05859375,0.0
1734412730.4573014,-46.875,-16.11328125,-64.94140625,-64.94140625,0.0
1734412730.4612074,-56.15234375,-25.87890625,-62.5,-71.2890625,0.0
1734412730.4651132,-47.8515625,-31.73828125,-67.3828125,-72.265625,0.0
1734412730.4690077,-31.25,-25.390625,-70.3125,-62.5,0.0
1734412730.4729137,-35.15625,-25.390625,-71.2890625,-61.03515625,0.0
1734412730.4768198,-40.0390625,-28.80859375,-75.68359375,-62.98828125,0.0
1734412730.4807255,-33.69140625,-27.34375,-74.21875,-62.5,0.0
1734412730.4846315,-26.3671875,-28.80859375,-72.265625,-59.08203125,0.0
1734412730.4885373,-36.1328125,-37.59765625,-79.1015625,-62.98828125,0.0
1734412730.4924433,-39.55078125,-43.9453125,-79.58984375,-60.546875,0.0
1734412730.4963493,-31.73828125,-37.109375,-73.2421875,-52.734375,0.0
1734412730.500255,-31.73828125,-26.85546875,-67.3828125,-48.33984375,0.0
1734412730.5041611,-28.80859375,-27.34375,-65.91796875,-40.52734375,0.0
1734412730.508067,-28.80859375,-31.25,-74.21875,-41.9921875,0.0
1734412730.511973,-30.76171875,-30.2734375,-72.265625,-45.8984375,0.0
1734412730.5158553,-32.2265625,-31.73828125,-62.01171875,-44.43359375,0.0
1734412730.5197613,-33.69140625,-32.2265625,-63.4765625,-39.0625,0.0
1734412730.5236673,-34.66796875,-35.15625,-68.359375,-35.64453125,0.0
1734412730.527573,-24.90234375,-33.203125,-68.359375,-35.64453125,0.0
1734412730.5314791,-19.04296875,-30.76171875,-64.453125,-28.3203125,0.0
1734412730.535385,-18.5546875,-36.62109375,-60.05859375,-24.90234375,0.0
1734412730.539291,-14.16015625,-36.62109375,-54.19921875,-27.34375,0.0
1734412730.543197,-14.16015625,-32.71484375,-54.19921875,-42.48046875,0.0
1734412730.5471027,-12.6953125,-30.76171875,-57.12890625,-39.0625,0.0
1734412730.5510087,-20.5078125,-32.2265625,-58.10546875,-28.80859375,0.0
1734412730.5549145,-35.64453125,-37.109375,-61.5234375,-29.78515625,0.0
1734412730.5588205,-35.64453125,-33.203125,-63.4765625,-22.4609375,0.0
1734412730.5628374,-21.484375,-28.80859375,-60.05859375,-19.53125,0.0
1734412730.5667431,-19.04296875,-33.69140625,-61.03515625,-26.3671875,0.0
1734412730.5706491,-30.2734375,-34.66796875,-60.05859375,-35.15625,0.0
1734412730.5745552,-32.71484375,-36.62109375,-53.7109375,-42.48046875,0.0
1734412730.578461,-12.6953125,-38.57421875,-56.640625,-40.52734375,0.0
1734412730.582367,-12.20703125,-39.55078125,-68.84765625,-36.62109375,0.0
1734412730.5862727,-34.66796875,-44.921875,-70.80078125,-36.62109375,0.0
1734412730.5901787,-37.59765625,-48.33984375,-60.546875,-37.109375,0.0
1734412730.5940847,-44.43359375,-49.31640625,-52.734375,-31.25,0.0
1734412730.5979905,-39.55078125,-52.24609375,-52.734375,-3.90625,0.0
1734412730.6018965,-27.83203125,-49.8046875,-56.15234375,-2.44140625,0.0
1734412730.6058023,-29.78515625,-47.8515625,-49.8046875,-35.15625,0.0
1734412730.60974,-19.53125,-40.52734375,-54.6875,-42.48046875,0.0
1734412730.6136458,-14.6484375,-36.62109375,-73.73046875,-28.3203125,0.0
1734412730.6175518,-23.92578125,-43.9453125,-66.40625,-32.2265625,0.0
1734412730.6214578,-28.80859375,-48.33984375,-48.33984375,-43.9453125,0.0
1734412730.6253636,-33.203125,-51.7578125,-45.8984375,-50.78125,0.0
1734412730.6292696,-38.57421875,-52.24609375,-41.9921875,-58.10546875,0.0
1734412730.6331754,-41.015625,-46.875,-38.0859375,-52.734375,0.0
1734412730.6370814,-33.69140625,-43.45703125,-45.8984375,-45.41015625,0.0
1734412730.6409874,-18.06640625,-45.41015625,-48.828125,-41.015625,0.0
1734412730.6448932,-10.25390625,-46.875,-40.52734375,-41.015625,0.0
1734412730.6487992,-27.34375,-41.9921875,-42.96875,-54.6875,0.0
1734412730.652705,-33.69140625,-40.0390625,-49.31640625,-62.98828125,0.0
1734412730.6566339,-18.5546875,-45.41015625,0.0,-53.22265625,0.0
1734412730.6605396,-4.39453125,-46.38671875,0.0,-54.6875,0.0
1734412730.6644456,-11.71875,-47.8515625,0.0,-62.98828125,0.0
1734412730.6683517,-16.6015625,-54.6875,0.0,-62.98828125,0.0
1734412730.6722574,-24.4140625,-55.6640625,0.0,-59.08203125,0.0
1734412730.6761634,-37.109375,-52.24609375,0.0,-47.36328125,0.0
1734412730.6800692,-44.43359375,-54.6875,0.0,-40.52734375,0.0
1734412730.6839752,-47.36328125,-57.6171875,0.0,-32.2265625,0.0
1734412730.6878812,-44.43359375,-57.12890625,0.0,-27.34375,0.0
1734412730.691787,-37.109375,-48.828125,0.0,-33.69140625,0.0
1734412730.695693,-38.0859375,-43.45703125,0.0,-38.57421875,0.0
1734412730.6995988,-35.15625,-44.43359375,0.0,-34.1796875,0.0
1734412730.7035189,-21.97265625,-37.109375,-36.1328125,-32.71484375,0.0
1734412730.7074246,-12.20703125,-33.69140625,-31.25,-36.1328125,0.0
1734412730.7113307,-13.18359375,-34.1796875,-33.203125,-35.64453125,0.0
1734412730.7152364,-21.484375,-34.1796875,-39.55078125,-34.66796875,0.0
1734412730.7191424,-20.99609375,-38.57421875,-45.41015625,-34.66796875,0.0
1734412730.7230484,-21.97265625,-44.921875,-53.22265625,-43.9453125,0.0
1734412730.7269542,-33.203125,-45.41015625,-48.828125,-53.22265625,0.0
1734412730.7308602,-34.1796875,-42.48046875,-37.59765625,-44.921875,0.0
1734412730.734766,-35.64453125,-46.875,-32.71484375,-38.0859375,0.0
1734412730.738672,-37.59765625,-40.0390625,-35.15625,-46.38671875,0.0
1734412730.742578,-29.296875,-34.66796875,-37.109375,-52.24609375,0.0
1734412730.7464838,-21.484375,-33.69140625,-30.76171875,-44.43359375,0.0
1734412730.7503886,-28.80859375,-33.203125,-32.71484375,-47.36328125,0.0
1734412730.7542946,-31.73828125,-35.64453125,-36.1328125,-43.45703125,0.0
1734412730.7582004,-21.484375,-36.62109375,-33.69140625,-39.55078125,0.0
1734412730.7621064,-16.6015625,-33.69140625,-33.69140625,-33.69140625,0.0
1734412730.7660124,-16.6015625,-32.71484375,-35.64453125,-29.78515625,0.0
1734412730.7699182,-14.16015625,-36.62109375,-36.1328125,-36.1328125,0.0
1734412730.7738242,-19.53125,-41.015625,-38.57421875,-35.15625,0.0
1734412730.7777302,-23.4375,-39.55078125,-36.1328125,-33.203125,0.0
1734412730.781636,-28.80859375,-32.71484375,-32.2265625,-26.3671875,0.0
1734412730.785542,-31.25,-29.296875,-34.66796875,-23.4375,0.0
1734412730.7894478,-26.3671875,-36.1328125,-27.34375,-30.76171875,0.0
1734412730.7933538,-15.13671875,-35.15625,-28.80859375,-33.69140625,0.0
1734412730.797263,-8.7890625,-30.2734375,-39.55078125,-35.15625,0.0
1734412730.801169,-14.16015625,-30.76171875,-44.921875,-30.76171875,0.0
1734412730.805075,-2.9296875,-28.3203125,-43.45703125,-14.16015625,0.0
1734412730.8089807,10.7421875,-29.78515625,-38.57421875,-3.41796875,0.0
1734412730.8128867,-23.4375,-41.50390625,-35.15625,-24.90234375,0.0
1734412730.8167925,-53.7109375,-45.41015625,-37.109375,-50.29296875,0.0
1734412730.8206985,-40.0390625,-46.38671875,-40.52734375,-49.8046875,0.0
1734412730.8246045,-36.62109375,-48.33984375,-46.38671875,-46.875,0.0
1734412730.8285103,-49.8046875,-39.55078125,-35.15625,-51.7578125,0.0
1734412730.8324163,-63.4765625,-44.43359375,-21.484375,-62.01171875,0.0
1734412730.836322,-58.10546875,-47.8515625,-28.3203125,-54.6875,0.0
1734412730.840228,-38.57421875,-39.0625,-26.3671875,-41.9921875,0.0
1734412730.8441174,0.0,-37.59765625,-20.5078125,-50.29296875,0.0
1734412730.8480234,0.0,-38.57421875,-28.3203125,-56.640625,0.0
1734412730.8519294,0.0,-44.43359375,-33.69140625,-38.57421875,0.0
1734412730.8558352,0.0,-48.828125,-35.15625,-34.1796875,0.0
1734412730.8597412,0.0,-45.41015625,-33.69140625,-39.55078125,0.0
1734412730.863647,0.0,-47.8515625,-41.50390625,-45.8984375,0.0
1734412730.867553,0.0,-50.29296875,-51.7578125,-50.78125,0.0
1734412730.871459,0.0,-49.8046875,-44.43359375,-45.41015625,0.0
1734412730.8753648,0.0,-44.43359375,-33.69140625,-45.41015625,0.0
1734412730.8792708,0.0,-40.52734375,-36.1328125,-46.875,0.0
1734412730.8831766,0.0,-41.015625,-35.64453125,-44.43359375,0.0
1734412730.8870826,0.0,-40.0390625,-31.73828125,-42.96875,0.0
1734412730.890827,-39.0625,-39.0625,-32.71484375,-49.8046875,0.0
1734412730.894733,-46.38671875,-39.0625,-38.0859375,-49.8046875,0.0
1734412730.898639,-38.0859375,-37.59765625,-40.52734375,-44.43359375,0.0
1734412730.9025447,-43.9453125,-40.52734375,-38.0859375,-49.8046875,0.0
1734412730.9064507,-45.8984375,-42.48046875,-39.55078125,-45.41015625,0.0
1734412730.9103565,-40.0390625,-45.41015625,-41.9921875,-36.1328125,0.0
1734412730.9142625,-46.38671875,-47.36328125,-39.55078125,-44.921875,0.0
1734412730.9181683,-52.24609375,-37.109375,-33.203125,-47.36328125,0.0
1734412730.9220743,-58.10546875,-30.76171875,-29.78515625,-36.62109375,0.0
1734412730.9259803,-49.8046875,-42.48046875,-37.59765625,-32.2265625,0.0
1734412730.929886,-28.80859375,-48.33984375,-41.50390625,-24.90234375,0.0
1734412730.933792,-35.64453125,-41.015625,-39.0625,-33.69140625,0.0
1734412730.9375393,-52.24609375,-41.015625,-40.52734375,0.0,0.0
1734412730.941445,-47.8515625,-40.0390625,-41.9921875,0.0,0.0
1734412730.9453511,-43.9453125,-41.015625,-42.48046875,0.0,0.0
1734412730.9492571,-41.9921875,-39.0625,-42.48046875,0.0,0.0
1734412730.953163,-32.2265625,-37.109375,-41.015625,0.0,0.0
1734412730.957069,-30.76171875,-41.9921875,-39.55078125,0.0,0.0
1734412730.9609747,-40.52734375,-43.9453125,-36.62109375,0.0,0.0
1734412730.9648807,-37.59765625,-45.41015625,-35.64453125,0.0,0.0
1734412730.9687867,-30.76171875,-46.38671875,-38.57421875,0.0,0.0
1734412730.9726925,-25.390625,-48.828125,-44.43359375,0.0,0.0
1734412730.9765985,-27.83203125,-45.8984375,-43.45703125,0.0,0.0
1734412730.9805043,-34.66796875,-45.8984375,-43.45703125,0.0,0.0
1734412730.9844437,-36.62109375,-49.8046875,-51.26953125,-39.0625,0.0
1734412730.9883494,-35.64453125,-49.8046875,-47.8515625,-41.9921875,0.0
1734412730.9922554,-24.90234375,-44.43359375,-41.50390625,-45.8984375,0.0
1734412730.9961612,-27.34375,-41.9921875,-47.8515625,-42.96875,0.0
1734412731.0000672,-37.59765625,-42.48046875,-48.33984375,-41.015625,0.0
1734412731.0039732,-31.73828125,-40.52734375,-43.45703125,-31.73828125,0.0
1734412731.007879,-26.3671875,-36.62109375,-41.015625,-35.64453125,0.0
1734412731.011785,-34.1796875,-35.15625,-41.9921875,-43.9453125,0.0
1734412731.0156908,-35.64453125,-37.59765625,-49.8046875,-29.78515625,0.0
1734412731.0195968,-32.71484375,-43.45703125,-58.59375,-19.53125,0.0
1734412731.0235028,-39.55078125,-42.48046875,-54.19921875,-25.390625,0.0
1734412731.0274086,-46.875,-40.0390625,-48.828125,-30.76171875,0.0
1734412731.0313344,-49.8046875,-41.015625,-49.8046875,-42.48046875,0.0
1734412731.0352402,-39.55078125,-40.52734375,-47.36328125,-46.38671875,0.0
1734412731.0391462,-33.69140625,-40.0390625,-42.96875,-36.1328125,0.0
1734412731.0430522,-30.76171875,-41.50390625,-42.96875,-29.78515625,0.0
1734412731.046958,-20.01953125,-44.921875,-43.9453125,-36.1328125,0.0
1734412731.050864,-9.27734375,-45.41015625,-39.55078125,-37.59765625,0.0
1734412731.0547698,-17.578125,-45.8984375,-42.48046875,-32.71484375,0.0
1734412731.0586758,-30.2734375,-41.50390625,-42.96875,-26.85546875,0.0
1734412731.0625818,-27.34375,-41.50390625,-43.9453125,-30.2734375,0.0
1734412731.0664876,-30.76171875,-40.52734375,-44.43359375,-37.109375,0.0
1734412731.0703936,-33.203125,-35.64453125,-40.52734375,-37.109375,0.0
1734412731.0742993,-34.66796875,-33.203125,-40.52734375,-47.8515625,0.0
1734412731.0782163,-41.015625,-34.66796875,-43.9453125,-51.7578125,0.0
1734412731.082122,-41.50390625,-38.0859375,-45.41015625,-44.43359375,0.0
1734412731.086028,-36.62109375,-36.1328125,-42.96875,-43.45703125,0.0
1734412731.089934,-38.57421875,-34.1796875,-43.45703125,-43.9453125,0.0
1734412731.09384,-51.7578125,-33.69140625,-44.921875,-40.52734375,0.0
1734412731.097746,-48.33984375,-38.57421875,-43.45703125,-39.0625,0.0
1734412731.1016517,-40.52734375,-43.45703125,-41.9921875,-41.9921875,0.0
1734412731.1055577,-37.59765625,-42.96875,-42.48046875,-41.015625,0.0
1734412731.1094637,-35.15625,-41.9921875,-44.43359375,-36.1328125,0.0
1734412731.1133695,-40.0390625,-39.55078125,-41.9921875,-42.48046875,0.0
1734412731.1172755,-38.57421875,-40.0390625,-41.015625,-41.9921875,0.0
1734412731.1211812,-25.87890625,-41.9921875,-44.921875,-32.2265625,0.0
1734412731.125091,-24.4140625,-41.9921875,-48.828125,-30.2734375,0.0
1734412731.128997,-16.6015625,-41.015625,-45.8984375,-30.76171875,0.0
1734412731.1329029,-29.78515625,-48.33984375,-44.43359375,-25.390625,0.0
1734412731.1368089,-30.2734375,-47.36328125,-42.48046875,-17.08984375,0.0
1734412731.1407146,-14.16015625,-40.52734375,-38.0859375,-21.484375,0.0
1734412731.1446207,-30.76171875,-43.45703125,-43.9453125,-25.87890625,0.0
1734412731.1485267,-36.1328125,-41.015625,-47.8515625,-18.06640625,0.0
1734412731.1524324,-25.87890625,-41.015625,-47.36328125,-9.27734375,0.0
1734412731.1563385,-26.3671875,-40.52734375,-44.921875,-13.18359375,0.0
1734412731.1602442,-19.53125,-38.57421875,-43.45703125,-12.6953125,0.0
1734412731.1641502,4.8828125,-43.45703125,-47.8515625,14.6484375,0.0
1734412731.1680562,7.8125,-34.66796875,-52.734375,10.7421875,0.0
1734412731.1719604,-24.4140625,-26.3671875,-52.734375,-32.2265625,0.0
1734412731.1758661,-46.38671875,-35.64453125,-52.734375,-48.828125,0.0
1734412731.1797721,-31.73828125,-39.55078125,-56.15234375,-41.50390625,0.0
1734412731.1836782,-20.99609375,-36.62109375,-53.7109375,-41.9921875,0.0
1734412731.187584,-20.5078125,-30.76171875,-50.78125,-41.50390625,0.0
1734412731.19149,-26.85546875,-31.73828125,-53.22265625,-38.57421875,0.0
1734412731.1953957,-34.1796875,-39.0625,-58.59375,-36.1328125,0.0
1734412731.1993017,-33.69140625,-30.2734375,-62.5,-41.50390625,0.0
1734412731.2032077,-27.34375,-20.5078125,-62.01171875,-59.08203125,0.0
1734412731.2071135,-24.4140625,-20.99609375,-64.453125,-69.3359375,0.0
1734412731.2110195,-20.01953125,-21.97265625,-61.5234375,-62.5,0.0
1734412731.2149253,-20.5078125,-18.5546875,-55.17578125,-53.7109375,0.0
1734412731.2188218,-29.78515625,-8.7890625,-54.6875,-55.6640625,0.0
1734412731.2227275,-32.2265625,-10.7421875,-63.96484375,-57.12890625,0.0
1734412731.2266335,-34.1796875,-17.08984375,-65.91796875,-67.87109375,0.0
1734412731.2305393,-26.3671875,-10.25390625,-60.546875,-62.5,0.0
1734412731.2344453,-8.7890625,-3.41796875,-59.08203125,-46.875,0.0
1734412731.2383513,-0.48828125,-8.30078125,-65.91796875,-44.43359375,0.0
1734412731.242257,0.48828125,-13.18359375,-71.2890625,-36.1328125,0.0
1734412731.2461631,6.34765625,-11.23046875,-70.3125,-37.59765625,0.0
1734412731.250069,3.90625,-9.27734375,-68.84765625,-46.38671875,0.0
1734412731.253975,2.9296875,-18.06640625,-71.77734375,-35.15625,0.0
1734412731.257881,14.6484375,-24.4140625,-76.66015625,-32.2265625,0.0
1734412731.2617867,15.13671875,-24.4140625,-73.2421875,-46.875,0.0
1734412731.2657533,-3.41796875,-30.2734375,-69.3359375,-51.7578125,0.0
1734412731.269659,-11.71875,-32.2265625,-61.03515625,-35.64453125,0.0
1734412731.273565,-17.578125,-29.296875,-60.05859375,-26.85546875,0.0
1734412731.277471,-27.83203125,-30.2734375,-61.03515625,-28.3203125,0.0
1734412731.2813768,-28.3203125,-32.2265625,-62.98828125,-33.69140625,0.0
1734412731.2852829,-20.99609375,-40.0390625,-60.546875,-32.71484375,0.0
1734412731.2891886,-19.04296875,-41.9921875,-54.19921875,-20.99609375,0.0
1734412731.2930946,-21.484375,-31.73828125,-49.31640625,-25.390625,0.0
1734412731.2970004,-8.30078125,-28.80859375,-51.26953125,-31.25,0.0
1734412731.3009064,-8.7890625,-35.64453125,-55.17578125,-20.5078125,0.0
1734412731.3048124,-8.30078125,-34.1796875,-52.24609375,-16.6015625,0.0
1734412731.3087182,-6.34765625,-28.80859375,-52.24609375,-20.99609375,0.0
1734412731.3126702,-28.3203125,-34.66796875,-53.7109375,-19.04296875,0.0
1734412731.3165762,-22.94921875,-40.0390625,-53.7109375,-21.484375,0.0
1734412731.320482,0.9765625,-31.25,-49.31640625,-23.92578125,0.0
1734412731.324388,-0.48828125,-29.296875,-43.45703125,-18.5546875,0.0
1734412731.3282938,-13.18359375,-40.0390625,-47.36328125,-19.53125,0.0
1734412731.3321998,-22.4609375,-43.9453125,-50.78125,-23.92578125,0.0
1734412731.3361058,-11.71875,-41.50390625,-52.24609375,-30.2734375,0.0
1734412731.3400116,-4.39453125,-38.0859375,-48.828125,-29.296875,0.0
1734412731.3439176,-5.37109375,-34.1796875,-45.8984375,-29.296875,0.0
1734412731.3478234,-2.44140625,-33.203125,-46.875,-23.4375,0.0
1734412731.3517294,-2.44140625,-28.80859375,-43.9453125,-23.4375,0.0
1734412731.3556354,-8.7890625,-28.3203125,-46.38671875,-30.2734375,0.0
1734412731.3595772,-14.6484375,-35.15625,-55.17578125,-30.76171875,0.0
1734412731.363483,-24.4140625,-35.64453125,-54.6875,-25.87890625,0.0
1734412731.367389,-26.85546875,-34.66796875,-59.5703125,-24.90234375,0.0
1734412731.371295,-19.04296875,-35.64453125,-62.5,-30.2734375,0.0
1734412731.3752007,-19.53125,-35.64453125,-61.03515625,-33.203125,0.0
1734412731.3791068,-19.53125,-41.9921875,-63.4765625,-41.015625,0.0
1734412731.3830125,-18.5546875,-46.38671875,-61.5234375,-44.921875,0.0
1734412731.3869185,-21.484375,-44.921875,-60.05859375,-40.52734375,0.0
1734412731.3908246,-27.83203125,-48.33984375,-62.98828125,-43.45703125,0.0
1734412731.3947303,-23.4375,-47.8515625,-64.94140625,-41.9921875,0.0
1734412731.3986363,-15.625,-39.55078125,-63.96484375,-34.66796875,0.0
1734412731.402542,-23.92578125,-45.41015625,-62.5,-35.15625,0.0
1734412731.4064763,-27.83203125,-57.12890625,-61.03515625,0.0,0.0
1734412731.4103823,-18.06640625,-52.24609375,-52.734375,0.0,0.0
1734412731.4142883,-18.5546875,-52.24609375,-53.22265625,0.0,0.0
1734412731.418194,-20.01953125,-53.7109375,-56.15234375,0.0,0.0
1734412731.4221,-8.7890625,-51.26953125,-51.26953125,0.0,0.0
1734412731.4260058,-8.7890625,-52.734375,-56.640625,0.0,0.0
1734412731.4299119,-24.4140625,-52.734375,-58.10546875,0.0,0.0
1734412731.4338179,-9.765625,-43.9453125,-61.5234375,0.0,0.0
1734412731.4377236,24.90234375,-41.015625,-58.59375,0.0,0.0
1734412731.4416296,12.6953125,-55.17578125,-39.0625,0.0,0.0
1734412731.4455357,-26.3671875,-62.98828125,-30.2734375,0.0,0.0
1734412731.4494414,-33.203125,-59.5703125,-34.1796875,0.0,0.0
1734412731.4533622,0.0,-57.12890625,0.0,-39.0625,0.0
1734412731.457268,0.0,-62.98828125,0.0,-37.109375,0.0
1734412731.461174,0.0,-65.4296875,0.0,-40.52734375,0.0
1734412731.4650798,0.0,-62.5,0.0,-37.59765625,0.0
1734412731.4689858,0.0,-59.08203125,0.0,-32.71484375,0.0
1734412731.4728918,0.0,-57.12890625,0.0,-28.3203125,0.0
1734412731.4767976,0.0,-54.6875,0.0,-25.87890625,0.0
1734412731.4807036,0.0,-58.59375,0.0,-32.71484375,0.0
1734412731.4846094,0.0,-66.89453125,0.0,-31.73828125,0.0
1734412731.4885154,0.0,-67.3828125,0.0,-25.87890625,0.0
1734412731.4924214,0.0,-72.265625,0.0,-27.83203125,0.0
1734412731.4963272,0.0,-77.63671875,0.0,-24.4140625,0.0
1734412731.5000386,-32.71484375,-84.47265625,10.7421875,0.0,0.0
1734412731.5039444,-41.50390625,-88.37890625,16.6015625,0.0,0.0
1734412731.5078504,-41.9921875,-85.44921875,16.11328125,0.0,0.0
1734412731.5117562,-47.36328125,-87.40234375,17.08984375,0.0,0.0
1734412731.5156622,-62.5,-92.7734375,21.484375,0.0,0.0
1734412731.519568,-69.3359375,-95.703125,21.97265625,0.0,0.0
1734412731.523474,-72.265625,-100.09765625,25.87890625,0.0,0.0
1734412731.52738,-77.63671875,-101.5625,28.3203125,0.0,0.0
1734412731.5312858,-71.77734375,-98.6328125,28.80859375,0.0,0.0
1734412731.5351918,-69.3359375,-97.65625,31.73828125,0.0,0.0
1734412731.5390975,-82.03125,-101.5625,30.76171875,0.0,0.0
1734412731.5430036,-82.51953125,-105.46875,35.15625,0.0,0.0
1734412731.546712,-86.42578125,-104.00390625,35.15625,-33.203125,0.0
1734412731.550618,-76.171875,-99.609375,29.296875,-43.9453125,0.0
1734412731.5545237,-75.68359375,-96.6796875,35.15625,-46.38671875,0.0
1734412731.5584297,-87.40234375,-100.09765625,33.203125,-47.36328125,0.0
1734412731.5623355,-84.9609375,-97.16796875,27.34375,-41.9921875,0.0
1734412731.5662415,-84.47265625,-96.6796875,29.78515625,-25.390625,0.0
1734412731.5701473,-87.40234375,-100.5859375,28.80859375,-13.18359375,0.0
1734412731.5740533,-83.984375,-100.09765625,20.99609375,-21.97265625,0.0
