timestamps,TP9,AF7,AF8,TP10,Right AUX
1734412544.106185,-59.08203125,19.04296875,-20.01953125,-66.89453125,0.0
1734412544.1100883,-52.734375,11.23046875,-24.4140625,-70.80078125,0.0
1734412544.113992,-53.7109375,6.34765625,-29.296875,-74.21875,0.0
1734412544.1178954,-66.89453125,20.99609375,-22.94921875,-78.61328125,0.0
1734412544.1217988,-69.3359375,21.484375,-32.2265625,-66.89453125,0.0
1734412544.1257021,-47.36328125,-0.9765625,-48.828125,-43.45703125,0.0
1734412544.1296058,-36.1328125,-1.953125,-46.875,-47.36328125,0.0
1734412544.1335092,-45.41015625,20.5078125,-25.87890625,-74.21875,0.0
1734412544.1374125,-49.8046875,14.6484375,-36.62109375,-74.21875,0.0
1734412544.141316,-50.29296875,5.37109375,-51.7578125,-56.15234375,0.0
1734412544.1452196,-45.8984375,10.25390625,-38.57421875,-63.96484375,0.0
1734412544.149123,-36.1328125,20.99609375,-24.90234375,-68.84765625,0.0
1734412544.1531007,-48.33984375,11.71875,-33.69140625,-66.40625,0.0
1734412544.157004,-60.546875,0.0,-43.9453125,-60.546875,0.0
1734412544.1609075,-53.7109375,6.34765625,-42.48046875,-52.734375,0.0
1734412544.164811,-61.03515625,7.8125,-40.0390625,-56.15234375,0.0
1734412544.1687145,-58.59375,8.30078125,-44.43359375,-61.03515625,0.0
1734412544.172618,-45.8984375,4.39453125,-52.24609375,-66.89453125,0.0
1734412544.1765213,-54.6875,4.8828125,-43.45703125,-79.1015625,0.0
1734412544.1804247,-69.3359375,9.27734375,-41.50390625,-87.890625,0.0
1734412544.1843283,-67.3828125,2.44140625,-57.12890625,-82.51953125,0.0
1734412544.1882317,-60.05859375,-3.90625,-60.546875,-67.87109375,0.0
1734412544.192135,-64.94140625,-2.9296875,-54.6875,-83.984375,0.0
1734412544.1960385,-73.73046875,7.8125,-50.29296875,-94.23828125,0.0
1734412544.2000341,-68.359375,5.37109375,-52.734375,-80.56640625,0.0
1734412544.2039375,-66.89453125,-2.44140625,-46.875,-81.0546875,0.0
1734412544.2078412,-76.66015625,6.34765625,-43.9453125,-88.37890625,0.0
1734412544.2117445,-63.96484375,11.71875,-41.9921875,-81.54296875,0.0
1734412544.215648,-55.17578125,1.953125,-47.36328125,-74.70703125,0.0
1734412544.2195513,-70.80078125,-15.13671875,-59.5703125,-72.265625,0.0
1734412544.223455,-72.265625,-13.18359375,-53.7109375,-65.4296875,0.0
1734412544.2273583,-66.89453125,1.953125,-46.875,-77.63671875,0.0
1734412544.2312617,-48.828125,-18.5546875,-69.82421875,-69.3359375,0.0
1734412544.235165,-39.0625,-28.80859375,-72.75390625,-54.6875,0.0
1734412544.2390687,-58.59375,1.953125,-29.296875,-70.3125,0.0
1734412544.2429721,-44.921875,3.41796875,-29.78515625,-59.5703125,0.0
1734412544.2469385,-26.85546875,1.953125,-48.828125,-53.7109375,0.0
1734412544.2508419,-25.390625,9.27734375,-45.41015625,-62.01171875,0.0
1734412544.2547452,-27.83203125,13.18359375,-36.62109375,-53.22265625,0.0
1734412544.2586489,-45.41015625,7.8125,-44.43359375,-55.6640625,0.0
1734412544.2625523,-49.8046875,-5.859375,-53.22265625,-43.9453125,0.0
1734412544.2664557,-37.59765625,-5.37109375,-47.36328125,-50.29296875,0.0
1734412544.2703593,-31.25,8.30078125,-39.0625,-83.49609375,0.0
1734412544.2742627,-41.50390625,0.0,-45.8984375,-69.82421875,0.0
1734412544.278166,-56.640625,-10.25390625,-51.7578125,-65.4296875,0.0
1734412544.2820694,-62.98828125,6.34765625,-39.0625,-86.42578125,0.0
1734412544.285973,-56.640625,11.23046875,-34.66796875,-83.984375,0.0
1734412544.2898765,-60.546875,2.9296875,-42.96875,-73.73046875,0.0
1734412544.2938387,-55.6640625,-8.30078125,-56.640625,-70.80078125,0.0
1734412544.2977421,-68.359375,3.41796875,-40.0390625,-97.65625,0.0
1734412544.3016455,-87.890625,16.6015625,-24.90234375,-98.14453125,0.0
1734412544.305549,-75.1953125,11.71875,-30.2734375,-76.171875,0.0
1734412544.3094525,-54.19921875,10.7421875,-32.71484375,-76.171875,0.0
1734412544.313356,-58.10546875,11.23046875,-35.15625,-81.0546875,0.0
1734412544.3172593,-69.3359375,11.71875,-40.52734375,-84.9609375,0.0
1734412544.321163,-73.73046875,-3.41796875,-62.98828125,-81.0546875,0.0
1734412544.3250663,-73.73046875,-5.859375,-57.12890625,-79.1015625,0.0
1734412544.3289697,-72.75390625,23.4375,-26.3671875,-89.35546875,0.0
1734412544.332873,-56.15234375,12.20703125,-38.57421875,-75.68359375,0.0
1734412544.3367767,-45.8984375,-1.953125,-45.8984375,-68.84765625,0.0
1734412544.3407364,-61.5234375,4.39453125,-44.43359375,-79.1015625,0.0
1734412544.3446398,-41.9921875,9.765625,-41.9921875,-73.73046875,0.0
1734412544.3485432,-36.62109375,0.9765625,-44.43359375,-68.359375,0.0
1734412544.3524468,-47.8515625,-5.37109375,-49.8046875,-55.17578125,0.0
1734412544.3563502,-41.9921875,1.46484375,-41.9921875,-47.8515625,0.0
1734412544.3602536,-43.9453125,-3.41796875,-45.41015625,-38.0859375,0.0
1734412544.3641572,-41.015625,-2.9296875,-40.52734375,-43.45703125,0.0
1734412544.3680606,-24.90234375,-10.7421875,-49.8046875,-35.15625,0.0
1734412544.371964,-24.90234375,5.859375,-45.41015625,-39.0625,0.0
1734412544.3758676,-52.734375,21.97265625,-29.78515625,-71.77734375,0.0
1734412544.379771,-58.10546875,-0.48828125,-49.31640625,-63.4765625,0.0
1734412544.3836744,-47.8515625,-4.39453125,-54.19921875,-61.03515625,0.0
1734412544.3876312,-41.9921875,12.20703125,-41.50390625,-83.49609375,0.0
1734412544.3915348,-43.9453125,6.8359375,-43.9453125,-86.9140625,0.0
1734412544.3954382,-48.828125,-7.32421875,-54.19921875,-77.63671875,0.0
1734412544.3993416,-70.3125,-2.44140625,-50.78125,-73.73046875,0.0
1734412544.4032452,-71.77734375,0.9765625,-47.36328125,-69.82421875,0.0
1734412544.4071486,-41.015625,-4.39453125,-48.828125,-72.265625,0.0
1734412544.411052,-30.2734375,-17.08984375,-62.01171875,-63.4765625,0.0
1734412544.4149556,-39.55078125,-18.06640625,-62.5,-54.19921875,0.0
1734412544.418859,-51.26953125,8.7890625,-33.69140625,-68.84765625,0.0
1734412544.4227624,-44.43359375,9.27734375,-41.015625,-72.75390625,0.0
1734412544.426666,-15.625,-2.9296875,-49.31640625,-68.359375,0.0
1734412544.4305694,-7.32421875,-0.9765625,-48.828125,-58.10546875,0.0
1734412544.4345229,-17.08984375,-0.9765625,-46.875,-45.41015625,0.0
1734412544.4384263,-8.7890625,-13.18359375,-47.8515625,-38.0859375,0.0
1734412544.4423296,-1.46484375,-16.6015625,-52.734375,-25.87890625,0.0
1734412544.4462333,-6.8359375,-6.8359375,-41.9921875,-15.625,0.0
1734412544.4501367,4.8828125,-7.8125,-37.59765625,-13.18359375,0.0
1734412544.45404,4.8828125,-18.06640625,-53.7109375,-20.99609375,0.0
1734412544.4579437,-7.8125,-31.25,-75.1953125,-6.8359375,0.0
1734412544.461847,-9.765625,-18.5546875,-55.6640625,5.859375,0.0
1734412544.4657505,-10.7421875,-0.48828125,-27.34375,-4.39453125,0.0
1734412544.469654,7.8125,-14.16015625,-43.45703125,0.48828125,0.0
1734412544.4735575,28.3203125,-15.13671875,-47.36328125,-3.41796875,0.0
1734412544.4774609,18.5546875,-2.44140625,-35.15625,-14.16015625,0.0
1734412544.4814107,2.9296875,0.0,-31.73828125,-6.34765625,0.0
1734412544.4853144,-2.9296875,-9.765625,-39.55078125,2.9296875,0.0
1734412544.4892178,-7.32421875,-13.671875,-41.015625,-16.11328125,0.0
1734412544.4931211,-14.6484375,-6.34765625,-37.109375,-23.92578125,0.0
1734412544.4970248,-18.06640625,-6.8359375,-44.921875,-26.3671875,0.0
1734412544.5009282,-5.859375,-25.390625,-67.87109375,-41.015625,0.0
1734412544.5048316,-12.20703125,-24.4140625,-60.05859375,-30.2734375,0.0
1734412544.508735,-19.04296875,2.44140625,-24.90234375,-41.9921875,0.0
1734412544.5126386,-19.53125,-10.25390625,-40.0390625,-55.6640625,0.0
1734412544.516542,-44.921875,-23.4375,-49.8046875,-47.36328125,0.0
1734412544.5204453,-50.29296875,-17.08984375,-39.0625,-44.43359375,0.0
1734412544.524349,-42.96875,-9.765625,-32.2265625,-55.6640625,0.0
1734412544.5283482,-42.48046875,-13.18359375,-30.76171875,-62.98828125,0.0
1734412544.5322518,-29.78515625,-17.08984375,-32.71484375,-56.15234375,0.0
1734412544.5361552,-45.41015625,-12.20703125,-36.1328125,-55.17578125,0.0
1734412544.5400586,-67.3828125,-8.30078125,-43.9453125,-55.6640625,0.0
1734412544.5439622,-48.828125,-13.671875,-41.50390625,-46.875,0.0
1734412544.5478656,-18.06640625,-28.3203125,-44.921875,-46.38671875,0.0
1734412544.5517693,-20.5078125,-22.94921875,-44.43359375,-62.01171875,0.0
1734412544.5556726,-36.1328125,-11.23046875,-37.59765625,-70.3125,0.0
1734412544.559576,-15.13671875,-18.06640625,-39.0625,-51.7578125,0.0
1734412544.5634797,-12.20703125,-22.94921875,-47.8515625,-35.15625,0.0
1734412544.567383,-44.43359375,-11.71875,-43.9453125,-54.6875,0.0
1734412544.5712864,-56.640625,-8.7890625,-41.015625,-69.3359375,0.0
1734412544.5752556,-48.828125,-9.765625,-45.41015625,-58.59375,0.0
1734412544.579159,-48.828125,-3.41796875,-41.015625,-47.36328125,0.0
1734412544.5830626,-41.50390625,6.34765625,-31.25,-50.78125,0.0
1734412544.586966,-29.296875,5.37109375,-25.87890625,-62.01171875,0.0
1734412544.5908697,-38.57421875,-7.8125,-37.109375,-58.59375,0.0
1734412544.594773,-44.43359375,-13.671875,-48.33984375,-58.59375,0.0
1734412544.5986764,-51.7578125,-0.48828125,-37.109375,-59.08203125,0.0
1734412544.60258,-64.94140625,8.30078125,-31.73828125,-57.6171875,0.0
1734412544.6064835,-43.9453125,-8.7890625,-50.78125,-71.77734375,0.0
1734412544.6103868,-41.50390625,-6.34765625,-43.45703125,-81.0546875,0.0
1734412544.6142905,-65.91796875,4.8828125,-30.2734375,-74.21875,0.0
1734412544.6181939,-79.1015625,0.0,-28.80859375,-83.49609375,0.0
1734412544.6221604,-72.265625,-22.94921875,-45.41015625,-69.3359375,0.0
1734412544.6260638,-59.08203125,-23.92578125,-37.59765625,-58.10546875,0.0
1734412544.6299675,-46.875,3.90625,-13.671875,-87.40234375,0.0
1734412544.6338708,-53.7109375,-1.46484375,-31.25,-84.9609375,0.0
1734412544.6377742,-71.2890625,-3.90625,-28.80859375,-63.96484375,0.0
1734412544.6416779,-62.01171875,-9.27734375,-30.76171875,-53.22265625,0.0
1734412544.6455812,-41.50390625,-7.32421875,-21.484375,-50.78125,0.0
1734412544.6494849,-33.69140625,4.8828125,-10.7421875,-51.26953125,0.0
1734412544.6533883,-19.53125,-5.859375,-32.2265625,-39.0625,0.0
1734412544.6572917,-29.296875,-4.8828125,-30.2734375,-55.17578125,0.0
1734412544.6611953,-63.4765625,-4.39453125,-20.5078125,-77.63671875,0.0
1734412544.6650987,-49.8046875,-10.7421875,-23.4375,-63.4765625,0.0
1734412544.669066,-26.85546875,-4.39453125,-28.3203125,-59.08203125,0.0
1734412544.6729696,-33.203125,-0.9765625,-29.296875,-67.87109375,0.0
1734412544.676873,-36.1328125,-1.953125,-24.90234375,-70.80078125,0.0
1734412544.6807764,-45.41015625,-10.25390625,-32.71484375,-64.94140625,0.0
1734412544.68468,-54.6875,-10.7421875,-38.0859375,-74.21875,0.0
1734412544.6885834,-47.8515625,-10.7421875,-34.1796875,-74.21875,0.0
1734412544.692487,-35.64453125,-9.765625,-28.80859375,-74.21875,0.0
1734412544.6963904,-33.203125,-16.11328125,-37.59765625,-63.96484375,0.0
1734412544.7002938,-44.43359375,-11.23046875,-41.50390625,-49.31640625,0.0
1734412544.7041974,-45.8984375,17.578125,-18.5546875,-55.17578125,0.0
1734412544.7081008,-32.71484375,15.13671875,-24.90234375,-57.6171875,0.0
1734412544.7120044,-35.15625,-1.953125,-36.62109375,-68.84765625,0.0
1734412544.7159665,0.0,-0.9765625,0.0,-67.3828125,0.0
1734412544.7198699,0.0,8.30078125,0.0,-62.98828125,0.0
1734412544.7237732,0.0,8.30078125,0.0,-69.82421875,0.0
1734412544.7276769,0.0,1.46484375,0.0,-72.265625,0.0
1734412544.7315803,0.0,-1.953125,0.0,-77.1484375,0.0
1734412544.735484,0.0,-13.18359375,0.0,-85.44921875,0.0
1734412544.7393873,0.0,-14.6484375,0.0,-86.9140625,0.0
1734412544.7432907,0.0,-24.4140625,0.0,-71.77734375,0.0
1734412544.7471943,0.0,-17.08984375,0.0,-68.84765625,0.0
1734412544.7510977,0.0,8.7890625,0.0,-66.40625,0.0
1734412544.7550013,0.0,0.0,0.0,-68.359375,0.0
1734412544.7589047,0.0,-6.34765625,0.0,-69.3359375,0.0
1734412544.7627907,-49.31640625,8.30078125,-31.73828125,-62.01171875,0.0
1734412544.766694,-52.734375,11.23046875,-29.296875,-70.80078125,0.0
1734412544.7705977,-47.8515625,-0.48828125,-43.9453125,-64.453125,0.0
1734412544.774501,-42.48046875,-4.39453125,-44.921875,-55.17578125,0.0
1734412544.7784047,-42.96875,-0.48828125,-35.64453125,-55.6640625,0.0
1734412544.782308,-51.7578125,-4.8828125,-36.62109375,-43.45703125,0.0
1734412544.7862115,-61.5234375,-14.6484375,-43.45703125,-31.73828125,0.0
1734412544.790115,-48.828125,-16.11328125,-45.8984375,-32.71484375,0.0
1734412544.7940185,-37.59765625,5.859375,-20.5078125,-49.8046875,0.0
1734412544.7979221,-43.45703125,4.8828125,-17.08984375,-54.19921875,0.0
1734412544.8018255,-52.734375,0.9765625,-19.04296875,-51.26953125,0.0
1734412544.805729,-55.6640625,5.37109375,-17.08984375,-54.6875,0.0
1734412544.8096852,-60.546875,-1.46484375,-24.4140625,-61.5234375,0.0
1734412544.8135889,-61.03515625,-3.90625,-26.85546875,-64.94140625,0.0
1734412544.8174922,-54.6875,-2.44140625,-25.390625,-67.87109375,0.0
1734412544.8213956,-64.94140625,1.953125,-20.5078125,-69.82421875,0.0
1734412544.8252993,-57.6171875,3.41796875,-21.97265625,-83.0078125,0.0
1734412544.8292027,-53.7109375,-11.23046875,-35.15625,-101.07421875,0.0
1734412544.8331063,-56.640625,-14.6484375,-39.0625,-89.35546875,0.0
1734412544.8370097,-67.87109375,0.48828125,-26.85546875,-79.1015625,0.0
1734412544.840913,-75.1953125,7.8125,-20.5078125,-61.03515625,0.0
1734412544.8448167,-61.03515625,3.90625,-28.3203125,-48.828125,0.0
1734412544.84872,-50.29296875,-6.34765625,-35.64453125,-26.85546875,0.0
1734412544.8526237,-47.8515625,2.44140625,-20.99609375,-41.9921875,0.0
1734412544.856577,-55.6640625,12.20703125,0.0,-74.21875,0.0
1734412544.8604805,-52.734375,0.48828125,0.0,-61.5234375,0.0
1734412544.864384,-33.203125,-7.32421875,0.0,-49.8046875,0.0
1734412544.8682873,-28.80859375,0.9765625,0.0,-50.78125,0.0
1734412544.872191,-28.3203125,7.8125,0.0,-32.2265625,0.0
1734412544.8760943,-20.99609375,-6.8359375,0.0,0.48828125,0.0
1734412544.879998,-23.4375,-7.32421875,0.0,-17.08984375,0.0
1734412544.8839014,-19.53125,18.5546875,0.0,-51.7578125,0.0
1734412544.887805,-11.23046875,20.01953125,0.0,-65.4296875,0.0
1734412544.8917084,-11.23046875,3.90625,0.0,-62.5,0.0
1734412544.8956118,-22.94921875,8.30078125,0.0,-59.5703125,0.0
1734412544.8995154,-32.71484375,18.5546875,0.0,-56.640625,0.0
1734412544.903488,-27.83203125,7.32421875,-25.390625,-55.6640625,0.0
1734412544.9073913,-22.4609375,1.46484375,-27.83203125,-55.17578125,0.0
1734412544.911295,-30.2734375,9.27734375,-20.5078125,-53.7109375,0.0
1734412544.9151983,-53.7109375,7.32421875,-17.578125,-51.7578125,0.0
1734412544.919102,-71.2890625,-4.8828125,-24.4140625,-61.03515625,0.0
1734412544.9230053,-62.5,-11.71875,-34.66796875,-65.4296875,0.0
1734412544.9269087,-50.78125,-11.23046875,-24.4140625,-72.265625,0.0
1734412544.9308124,-53.7109375,-1.46484375,-16.6015625,-78.125,0.0
1734412544.9347157,-68.359375,0.48828125,-19.04296875,-63.96484375,0.0
1734412544.9386194,-72.75390625,-20.01953125,-27.83203125,-54.19921875,0.0
1734412544.9425228,-63.96484375,-13.18359375,-24.4140625,-58.59375,0.0
1734412544.9464264,-57.12890625,5.859375,-11.23046875,-62.98828125,0.0
1734412544.9503977,-59.08203125,-3.41796875,0.0,-62.98828125,0.0
1734412544.954301,-49.8046875,-4.8828125,0.0,-62.01171875,0.0
1734412544.9582047,-47.36328125,6.8359375,0.0,-53.7109375,0.0
1734412544.9621081,-34.1796875,7.8125,0.0,-53.22265625,0.0
1734412544.9660115,-13.18359375,-3.41796875,0.0,-68.359375,0.0
1734412544.9699152,-24.4140625,-19.04296875,0.0,-54.19921875,0.0
1734412544.9738185,-35.15625,-7.8125,0.0,-43.45703125,0.0
1734412544.9777222,-28.3203125,4.39453125,0.0,-58.10546875,0.0
1734412544.9816256,-35.15625,-15.625,0.0,-47.8515625,0.0
1734412544.9855292,-40.0390625,-26.3671875,0.0,-47.36328125,0.0
1734412544.9894326,-26.3671875,3.41796875,0.0,-76.66015625,0.0
1734412544.9933362,-22.94921875,10.25390625,0.0,-76.171875,0.0
1734412544.9973044,-30.2734375,3.41796875,-18.06640625,-67.87109375,0.0
1734412545.0012078,-33.203125,10.25390625,-14.6484375,-62.98828125,0.0
1734412545.0051115,-29.296875,14.6484375,-13.671875,-64.453125,0.0
1734412545.0090148,-23.92578125,8.30078125,-12.6953125,-57.12890625,0.0
1734412545.0129185,-27.34375,3.90625,-15.625,-52.734375,0.0
1734412545.0168219,-36.1328125,5.37109375,-12.20703125,-59.08203125,0.0
1734412545.0207255,-58.10546875,11.23046875,-6.8359375,-73.73046875,0.0
1734412545.0246289,-65.91796875,12.20703125,-3.90625,-86.42578125,0.0
1734412545.0285323,-49.8046875,-7.8125,-24.4140625,-69.3359375,0.0
1734412545.032436,-58.10546875,0.48828125,-17.578125,-74.70703125,0.0
1734412545.0363393,-65.4296875,12.20703125,-6.34765625,-86.9140625,0.0
1734412545.040243,-63.4765625,4.8828125,-12.6953125,-79.58984375,0.0
1734412545.0442057,-62.5,7.8125,-7.32421875,-82.51953125,0.0
1734412545.0481093,-54.19921875,13.671875,-2.9296875,-87.40234375,0.0
1734412545.0520127,-42.48046875,7.32421875,-7.32421875,-84.9609375,0.0
1734412545.0559163,-51.26953125,-13.18359375,-20.5078125,-69.3359375,0.0
1734412545.0598197,-63.4765625,-15.625,-22.4609375,-69.3359375,0.0
1734412545.0637233,-59.08203125,-12.6953125,-20.5078125,-78.125,0.0
1734412545.0676267,-52.734375,-7.32421875,-20.01953125,-76.171875,0.0
1734412545.0715303,-43.45703125,-15.13671875,-34.1796875,-64.94140625,0.0
1734412545.0754337,-32.71484375,-15.13671875,-32.71484375,-50.78125,0.0
1734412545.0793371,-38.0859375,7.32421875,-10.25390625,-48.33984375,0.0
1734412545.0832407,-40.0390625,8.30078125,-9.765625,-55.17578125,0.0
1734412545.0871441,-27.34375,-9.27734375,-31.25,-72.75390625,0.0
1734412545.091103,-42.96875,-11.71875,-33.203125,-81.54296875,0.0
1734412545.0950067,-60.05859375,7.8125,-3.41796875,-76.66015625,0.0
1734412545.09891,-54.6875,3.41796875,-3.41796875,-56.15234375,0.0
1734412545.1028137,-50.78125,-3.41796875,-10.7421875,-42.96875,0.0
1734412545.106717,-46.875,0.9765625,-8.30078125,-69.3359375,0.0
1734412545.1106207,-39.0625,-2.44140625,-14.6484375,-90.33203125,0.0
1734412545.1145241,-45.41015625,-1.953125,-18.5546875,-82.03125,0.0
1734412545.1184278,-56.640625,-18.5546875,-32.71484375,-66.89453125,0.0
1734412545.1223311,-53.7109375,-2.44140625,-21.484375,-80.56640625,0.0
1734412545.1262348,-43.45703125,22.94921875,5.37109375,-98.14453125,0.0
1734412545.1301382,-35.15625,2.44140625,-8.30078125,-84.9609375,0.0
1734412545.1340418,-53.22265625,4.8828125,-14.6484375,-87.40234375,0.0
1734412545.1379974,-60.546875,12.20703125,-5.37109375,-85.44921875,0.0
1734412545.141901,-65.91796875,13.18359375,-1.46484375,-82.51953125,0.0
1734412545.1458044,-69.82421875,6.8359375,-11.71875,-76.171875,0.0
1734412545.149708,-49.8046875,-0.9765625,-19.53125,-58.59375,0.0
1734412545.1536114,-50.78125,2.9296875,-19.53125,-86.9140625,0.0
1734412545.157515,-62.01171875,-5.859375,-21.97265625,-101.5625,0.0
1734412545.1614184,-62.5,-23.92578125,-32.71484375,-80.078125,0.0
1734412545.165322,-48.828125,-21.484375,-32.2265625,-66.40625,0.0
1734412545.1692255,-41.015625,8.30078125,-3.90625,-69.82421875,0.0
1734412545.173129,-47.36328125,8.7890625,-6.8359375,-78.125,0.0
1734412545.1770325,-57.6171875,-6.34765625,-12.20703125,-77.63671875,0.0
1734412545.180936,-58.59375,-0.9765625,-8.30078125,-83.984375,0.0
1734412545.1848893,-40.52734375,11.71875,-4.39453125,-85.44921875,0.0
1734412545.188793,-38.57421875,8.30078125,-6.34765625,-73.2421875,0.0
1734412545.1926963,-48.828125,-0.48828125,-9.765625,-70.80078125,0.0
1734412545.1966,-46.38671875,-1.953125,-6.8359375,-62.5,0.0
1734412545.2005033,-42.48046875,-4.8828125,-9.27734375,-53.22265625,0.0
1734412545.204407,-40.52734375,-8.30078125,-14.6484375,-63.96484375,0.0
1734412545.2083104,-39.0625,-20.99609375,-29.78515625,-56.640625,0.0
1734412545.212214,-48.828125,-8.7890625,-22.4609375,-59.5703125,0.0
1734412545.2161174,-57.6171875,14.16015625,0.9765625,-83.984375,0.0
1734412545.220021,-50.29296875,9.27734375,-3.90625,-80.078125,0.0
1734412545.2239244,-49.31640625,-1.953125,-19.04296875,-72.265625,0.0
1734412545.227828,-48.828125,-2.9296875,-13.18359375,-72.75390625,0.0
1734412545.2317796,0.0,6.8359375,0.0,-59.08203125,0.0
1734412545.2356832,0.0,-1.953125,0.0,-70.80078125,0.0
1734412545.2395866,0.0,-8.30078125,0.0,-94.23828125,0.0
1734412545.2434902,0.0,9.765625,0.0,-93.75,0.0
1734412545.2473936,0.0,6.8359375,0.0,-101.5625,0.0
1734412545.2512972,0.0,-14.16015625,0.0,-80.078125,0.0
1734412545.2552006,0.0,-9.765625,0.0,-57.12890625,0.0
1734412545.2591043,0.0,16.6015625,0.0,-66.89453125,0.0
1734412545.2630076,0.0,13.18359375,0.0,-69.82421875,0.0
1734412545.2669113,0.0,3.90625,0.0,-74.21875,0.0
1734412545.2708147,0.0,7.8125,0.0,-83.0078125,0.0
1734412545.2747183,0.0,6.34765625,0.0,-70.80078125,0.0
1734412545.2786906,-23.92578125,-7.8125,-12.6953125,-52.734375,0.0
1734412545.282594,-28.3203125,-12.20703125,-10.7421875,-50.29296875,0.0
1734412545.2864976,-40.52734375,-0.9765625,1.953125,-53.7109375,0.0
1734412545.290401,-40.52734375,4.8828125,3.90625,-57.12890625,0.0
1734412545.2943046,-30.2734375,2.9296875,3.90625,-51.26953125,0.0
1734412545.2982082,-31.25,-4.39453125,0.9765625,-42.96875,0.0
1734412545.3021116,-41.50390625,5.37109375,9.27734375,-49.31640625,0.0
1734412545.3060153,-43.9453125,17.08984375,18.06640625,-63.4765625,0.0
1734412545.3099186,-29.78515625,9.765625,6.34765625,-59.08203125,0.0
1734412545.3138223,-27.83203125,-4.39453125,-8.30078125,-51.26953125,0.0
1734412545.3177257,-41.9921875,-1.46484375,-1.46484375,-59.08203125,0.0
1734412545.3216293,-41.015625,16.6015625,11.23046875,-64.453125,0.0
1734412545.3255992,0.0,17.578125,3.90625,0.0,0.0
1734412545.3295028,0.0,10.25390625,0.0,0.0,0.0
1734412545.3334062,0.0,18.5546875,5.37109375,0.0,0.0
1734412545.3373098,0.0,8.30078125,8.30078125,0.0,0.0
1734412545.3412132,0.0,-3.41796875,0.48828125,0.0,0.0
1734412545.3451169,0.0,-0.48828125,0.9765625,0.0,0.0
1734412545.3490202,0.0,10.7421875,16.11328125,0.0,0.0
1734412545.3529239,0.0,20.5078125,21.484375,0.0,0.0
1734412545.3568273,0.0,-4.39453125,-0.9765625,0.0,0.0
1734412545.360731,0.0,-8.30078125,-8.30078125,0.0,0.0
1734412545.3646343,0.0,20.01953125,14.16015625,0.0,0.0
1734412545.368538,0.0,14.6484375,11.23046875,0.0,0.0
1734412545.372506,-24.4140625,3.41796875,2.9296875,-66.40625,0.0
1734412545.3764093,-27.83203125,4.39453125,5.37109375,-52.734375,0.0
1734412545.380313,-32.2265625,5.859375,9.27734375,-48.33984375,0.0
1734412545.3842163,2.44140625,-1.46484375,8.7890625,-56.15234375,0.0
1734412545.38812,0.0,-9.765625,8.30078125,-51.7578125,0.0
1734412545.3920236,-20.5078125,-15.625,1.46484375,-40.52734375,0.0
1734412545.395927,-24.90234375,-6.8359375,1.46484375,-46.875,0.0
1734412545.3998306,-53.22265625,-2.44140625,-2.44140625,-58.10546875,0.0
1734412545.403734,-63.4765625,-18.5546875,-15.625,-49.31640625,0.0
1734412545.4076376,-57.12890625,-4.8828125,3.90625,-56.15234375,0.0
1734412545.411541,-55.6640625,7.32421875,14.16015625,-67.87109375,0.0
1734412545.4154446,-52.24609375,-7.32421875,-0.48828125,-76.66015625,0.0
1734412545.4194114,-57.6171875,-2.44140625,0.0,0.0,0.0
1734412545.4233148,-68.84765625,11.71875,0.0,0.0,0.0
1734412545.4272184,-61.03515625,8.30078125,0.0,0.0,0.0
1734412545.431122,-44.921875,-11.23046875,0.0,0.0,0.0
1734412545.4350255,-36.62109375,-17.578125,0.0,0.0,0.0
1734412545.438929,-40.52734375,-7.8125,0.0,0.0,0.0
1734412545.4428325,-45.41015625,2.9296875,0.0,0.0,0.0
1734412545.446736,-35.64453125,-5.859375,0.0,0.0,0.0
1734412545.4506395,-40.0390625,-13.18359375,0.0,0.0,0.0
1734412545.454543,-65.4296875,5.859375,0.0,0.0,0.0
1734412545.4584465,-62.01171875,-1.46484375,0.0,0.0,0.0
1734412545.4623501,-50.78125,-4.8828125,0.0,0.0,0.0
1734412545.4662433,-35.15625,8.30078125,15.625,-70.80078125,0.0
1734412545.470147,-18.5546875,7.8125,10.25390625,-67.3828125,0.0
1734412545.4740503,-22.94921875,-1.46484375,-6.8359375,-72.75390625,0.0
1734412545.477954,-36.62109375,-2.9296875,-2.44140625,-75.1953125,0.0
1734412545.4818573,-39.0625,0.0,-6.8359375,-73.2421875,0.0
1734412545.485761,-21.484375,-2.9296875,-11.23046875,-68.84765625,0.0
1734412545.4896643,-13.671875,-4.39453125,-0.48828125,-53.22265625,0.0
1734412545.493568,-21.484375,-18.5546875,-15.13671875,-45.8984375,0.0
1734412545.4974716,-39.0625,-3.41796875,-2.9296875,-68.359375,0.0
1734412545.501375,-41.50390625,12.6953125,8.7890625,-85.9375,0.0
1734412545.5052786,-24.90234375,-8.30078125,-5.37109375,-72.75390625,0.0
1734412545.509182,-29.296875,-3.90625,2.9296875,-55.17578125,0.0
1734412545.5131402,0.0,11.71875,0.0,-54.6875,0.0
1734412545.5170436,0.0,7.8125,0.0,-63.96484375,0.0
1734412545.5209472,0.0,1.46484375,0.0,-58.10546875,0.0
1734412545.5248506,0.0,10.25390625,0.0,-53.7109375,0.0
1734412545.5287542,0.0,16.6015625,0.0,-52.24609375,0.0
1734412545.5326579,0.0,11.23046875,0.0,-47.8515625,0.0
1734412545.5365613,0.0,-0.48828125,0.0,-29.296875,0.0
1734412545.5404649,0.0,-2.9296875,0.0,-32.71484375,0.0
1734412545.5443683,0.0,19.04296875,0.0,-64.94140625,0.0
1734412545.548272,0.0,20.99609375,0.0,-73.73046875,0.0
1734412545.5521753,0.0,10.25390625,0.0,-71.77734375,0.0
1734412545.556079,0.0,14.6484375,0.0,-75.68359375,0.0
1734412545.5600321,-48.33984375,20.01953125,-0.9765625,-80.56640625,0.0
1734412545.5639358,-52.734375,17.08984375,-5.859375,-83.49609375,0.0
1734412545.5678391,-56.15234375,17.08984375,-6.8359375,-67.3828125,0.0
1734412545.5717428,-47.36328125,18.5546875,-1.46484375,-51.7578125,0.0
1734412545.5756462,-28.80859375,15.13671875,-6.34765625,-56.640625,0.0
1734412545.5795498,-39.55078125,8.7890625,-9.765625,-60.05859375,0.0
1734412545.5834534,-38.57421875,-4.8828125,-22.94921875,-50.78125,0.0
1734412545.5873568,-33.69140625,7.32421875,-15.13671875,-61.03515625,0.0
1734412545.5912604,-41.015625,23.4375,-0.48828125,-70.80078125,0.0
1734412545.5951638,-50.78125,9.27734375,-11.71875,-48.33984375,0.0
1734412545.5990674,-42.48046875,3.41796875,-15.13671875,-41.015625,0.0
1734412545.6029708,-22.94921875,15.625,-9.27734375,-44.43359375,0.0
1734412545.6069221,0.0,24.4140625,-0.48828125,-49.31640625,0.0
1734412545.6108258,0.0,5.859375,-14.16015625,-60.05859375,0.0
1734412545.6147292,0.0,0.0,-22.94921875,-50.29296875,0.0
1734412545.6186328,0.0,17.578125,-12.20703125,-48.33984375,0.0
1734412545.6225364,0.0,25.390625,-9.765625,-48.33984375,0.0
1734412545.6264398,0.0,8.7890625,-28.80859375,-40.0390625,0.0
1734412545.6303434,0.0,1.46484375,-30.76171875,-41.9921875,0.0
1734412545.6342468,0.0,17.08984375,-7.32421875,-41.015625,0.0
1734412545.6381505,0.0,18.06640625,-8.30078125,-33.69140625,0.0
1734412545.642054,0.0,13.671875,-13.671875,-34.1796875,0.0
1734412545.6459575,0.0,15.625,-7.32421875,-37.109375,0.0
1734412545.649861,0.0,18.06640625,-5.859375,-55.17578125,0.0
1734412545.6537611,-28.3203125,8.7890625,-20.5078125,-73.73046875,0.0
1734412545.6576645,-27.34375,10.25390625,-21.97265625,-60.546875,0.0
1734412545.6615682,-40.52734375,18.5546875,-11.71875,-42.48046875,0.0
1734412545.6654716,-56.640625,23.92578125,-5.37109375,-64.94140625,0.0
1734412545.6693752,-42.96875,14.16015625,-17.08984375,-66.89453125,0.0
1734412545.6732788,-21.97265625,1.953125,-25.87890625,-59.5703125,0.0
1734412545.6771822,-17.578125,9.27734375,-16.11328125,-66.89453125,0.0
1734412545.6810858,-26.3671875,18.5546875,-14.16015625,-61.03515625,0.0
1734412545.6849892,-18.5546875,12.6953125,-21.97265625,-67.3828125,0.0
1734412545.6888928,-27.34375,-4.39453125,-32.71484375,-65.4296875,0.0
1734412545.6927965,-46.875,-4.8828125,-29.296875,-52.734375,0.0
1734412545.6966999,-53.7109375,-3.41796875,-26.3671875,-53.22265625,0.0
1734412545.7005966,-47.36328125,-7.32421875,-33.203125,-60.546875,0.0
1734412545.7045002,-29.296875,-0.9765625,-25.390625,-64.94140625,0.0
1734412545.7084036,-30.76171875,7.8125,-13.18359375,-71.2890625,0.0
1734412545.7123072,-37.109375,4.8828125,-19.04296875,-62.5,0.0
1734412545.7162108,-39.0625,-3.90625,-31.25,-45.41015625,0.0
1734412545.7201142,-43.45703125,-11.23046875,-31.25,-53.7109375,0.0
1734412545.7240179,-47.36328125,-1.46484375,-21.97265625,-61.03515625,0.0
1734412545.7279212,-50.78125,9.765625,-12.6953125,-48.33984375,0.0
1734412545.7318249,-39.55078125,-17.08984375,-31.73828125,-41.9921875,0.0
1734412545.7357285,-17.08984375,-25.390625,-41.015625,-45.8984375,0.0
1734412545.739632,-17.08984375,6.8359375,-10.7421875,-54.19921875,0.0
1734412545.7435355,-43.9453125,2.9296875,-12.6953125,-63.96484375,0.0
1734412545.7475045,-49.31640625,-4.39453125,-23.92578125,-64.94140625,0.0
1734412545.751408,-43.45703125,4.39453125,-20.01953125,-68.359375,0.0
1734412545.7553117,-48.33984375,5.37109375,-22.94921875,-80.56640625,0.0
1734412545.759215,-44.43359375,7.8125,-21.97265625,-72.265625,0.0
1734412545.7631187,-32.71484375,6.34765625,-16.6015625,-50.29296875,0.0
1734412545.7670221,-27.83203125,2.44140625,-18.06640625,-58.59375,0.0
1734412545.7709258,-27.83203125,7.32421875,-21.484375,-75.68359375,0.0
1734412545.7748294,-30.76171875,12.6953125,-19.53125,-73.73046875,0.0
1734412545.7787328,-26.3671875,-4.39453125,-28.3203125,-53.22265625,0.0
1734412545.7826364,-28.80859375,0.48828125,-16.11328125,-53.22265625,0.0
1734412545.7865398,-28.80859375,9.27734375,-9.765625,-58.10546875,0.0
1734412545.7904434,-27.34375,-3.41796875,-23.92578125,-48.33984375,0.0
1734412545.7944093,-27.83203125,-0.9765625,-25.87890625,0.0,0.0
1734412545.798313,-43.9453125,4.8828125,-17.08984375,0.0,0.0
1734412545.8022165,-52.24609375,3.41796875,-13.671875,0.0,0.0
1734412545.80612,-39.0625,-7.8125,-20.5078125,0.0,0.0
1734412545.8100235,-35.64453125,-13.18359375,-23.92578125,0.0,0.0
1734412545.813927,-33.69140625,-3.41796875,-26.3671875,0.0,0.0
1734412545.8178306,-52.734375,0.48828125,-22.4609375,0.0,0.0
1734412545.8217342,-51.7578125,-13.18359375,-34.66796875,0.0,0.0
1734412545.8256376,-27.34375,-10.25390625,-31.25,0.0,0.0
1734412545.8295412,-26.85546875,14.6484375,-11.71875,0.0,0.0
1734412545.8334448,-37.109375,5.37109375,-20.99609375,0.0,0.0
1734412545.8373482,-47.36328125,-5.37109375,-22.94921875,0.0,0.0
1734412545.8413072,0.0,6.8359375,-19.53125,-75.68359375,0.0
1734412545.8452108,0.0,10.25390625,-15.625,-81.0546875,0.0
1734412545.8491144,0.0,1.46484375,-19.53125,-93.75,0.0
1734412545.8530178,0.0,0.0,-23.4375,-92.28515625,0.0
1734412545.8569214,0.0,5.859375,-22.94921875,-85.9375,0.0
1734412545.860825,0.0,1.953125,-24.90234375,-63.96484375,0.0
1734412545.8647285,0.0,0.9765625,-21.97265625,-63.96484375,0.0
1734412545.868632,0.0,-10.25390625,-36.62109375,-62.98828125,0.0
1734412545.8725357,0.0,-10.7421875,-35.15625,-48.33984375,0.0
1734412545.876439,0.0,5.859375,-12.6953125,-53.22265625,0.0
1734412545.8803427,0.0,-6.34765625,-21.484375,-47.36328125,0.0
1734412545.884246,0.0,-12.6953125,-21.484375,-50.78125,0.0
1734412545.8881311,-58.10546875,-6.34765625,-12.6953125,-66.40625,0.0
1734412545.8920345,-62.01171875,-3.41796875,-13.18359375,-78.125,0.0
1734412545.8959382,-48.33984375,-10.7421875,-20.5078125,-66.89453125,0.0
1734412545.8998415,-41.9921875,-14.16015625,-24.4140625,-53.22265625,0.0
1734412545.9037452,-50.29296875,-5.37109375,-21.484375,-54.6875,0.0
1734412545.9076488,-59.5703125,-12.6953125,-23.4375,-43.45703125,0.0
1734412545.9115522,-54.6875,-24.90234375,-36.1328125,-24.4140625,0.0
1734412545.9154558,-38.57421875,-21.484375,-37.59765625,-36.62109375,0.0
1734412545.9193594,-40.52734375,6.34765625,-15.13671875,-62.5,0.0
1734412545.9232628,-46.38671875,8.7890625,-14.16015625,-68.84765625,0.0
1734412545.9271665,-55.17578125,-0.9765625,-20.01953125,-72.265625,0.0
1734412545.9310699,-62.01171875,-2.44140625,-22.4609375,-70.3125,0.0
1734412545.9350245,-20.99609375,5.859375,-12.20703125,-52.734375,0.0
1734412545.9389281,-29.78515625,10.7421875,-6.8359375,-46.38671875,0.0
1734412545.9428315,-39.55078125,5.37109375,-12.6953125,-72.265625,0.0
1734412545.9467351,-36.1328125,6.8359375,-8.30078125,-90.8203125,0.0
1734412545.9506388,-42.96875,7.32421875,-9.765625,-91.30859375,0.0
1734412545.9545422,-40.52734375,0.48828125,-19.04296875,-82.51953125,0.0
1734412545.9584458,-40.0390625,-11.71875,-30.2734375,-62.5,0.0
1734412545.9623492,-54.6875,5.859375,-17.08984375,-64.453125,0.0
1734412545.9662528,-68.359375,22.94921875,0.9765625,-83.0078125,0.0
1734412545.9701564,-63.4765625,7.32421875,-16.11328125,-89.84375,0.0
1734412545.9740598,-55.6640625,-7.32421875,-30.2734375,-71.77734375,0.0
1734412545.9779634,-63.96484375,0.9765625,-18.5546875,-68.84765625,0.0
1734412545.9819145,-64.94140625,13.18359375,-8.7890625,-82.51953125,0.0
1734412545.9858181,-47.8515625,-0.48828125,-18.06640625,-75.1953125,0.0
1734412545.9897215,-29.296875,-10.25390625,-24.90234375,-68.359375,0.0
1734412545.9936252,-28.80859375,5.859375,-15.13671875,-74.70703125,0.0
1734412545.9975288,-34.66796875,12.20703125,-10.25390625,-69.82421875,0.0
1734412546.0014322,-33.69140625,-2.44140625,-27.83203125,-47.36328125,0.0
1734412546.0053358,-24.4140625,-8.30078125,-32.2265625,-38.57421875,0.0
1734412546.0092394,-24.90234375,10.25390625,-3.90625,-64.94140625,0.0
1734412546.0131428,-12.6953125,17.578125,-1.46484375,-75.68359375,0.0
1734412546.0170465,1.46484375,-2.44140625,-20.01953125,-48.828125,0.0
1734412546.02095,-27.83203125,0.48828125,-16.6015625,-40.0390625,0.0
1734412546.0248535,-43.45703125,20.01953125,-2.44140625,-54.19921875,0.0
1734412546.0288262,0.0,9.765625,-8.7890625,-48.33984375,0.0
1734412546.0327299,0.0,-8.7890625,-21.484375,-52.734375,0.0
1734412546.0366333,0.0,-4.39453125,-13.671875,-63.96484375,0.0
1734412546.0405369,0.0,7.8125,-1.46484375,-56.640625,0.0
1734412546.0444405,0.0,1.953125,-6.8359375,-41.015625,0.0
1734412546.048344,0.0,-7.8125,-11.23046875,-39.0625,0.0
1734412546.0522475,0.0,-5.859375,-14.16015625,-60.546875,0.0
1734412546.0561512,0.0,2.44140625,-11.71875,-76.171875,0.0
1734412546.0600545,0.0,3.90625,-12.20703125,-75.68359375,0.0
1734412546.0639582,0.0,-5.37109375,-19.53125,-49.31640625,0.0
1734412546.0678618,0.0,-2.44140625,-8.30078125,-48.33984375,0.0
1734412546.0717652,0.0,11.23046875,3.90625,-62.5,0.0
1734412546.0757334,-45.41015625,8.30078125,0.0,-61.5234375,0.0
1734412546.0796368,-50.78125,-1.953125,0.0,-60.05859375,0.0
1734412546.0835404,-50.29296875,7.8125,0.0,-65.91796875,0.0
1734412546.087444,-47.36328125,13.18359375,0.0,-61.5234375,0.0
1734412546.0913475,-22.94921875,1.46484375,0.0,-48.33984375,0.0
1734412546.095251,-20.01953125,-10.25390625,0.0,-57.6171875,0.0
1734412546.0991547,-53.22265625,0.0,0.0,-58.59375,0.0
1734412546.103058,-63.4765625,13.18359375,0.0,-62.01171875,0.0
1734412546.1069617,-41.015625,-4.39453125,0.0,-54.19921875,0.0
1734412546.1108654,-14.16015625,-12.20703125,0.0,-29.296875,0.0
1734412546.1147687,-11.71875,15.13671875,0.0,-35.15625,0.0
1734412546.1186724,-29.78515625,12.20703125,0.0,-46.38671875,0.0
1734412546.122636,-36.62109375,0.48828125,-20.99609375,-62.98828125,0.0
1734412546.1265395,-20.99609375,7.8125,-11.71875,-62.98828125,0.0
1734412546.130443,-18.06640625,10.7421875,-10.25390625,-54.19921875,0.0
1734412546.1343467,-31.73828125,-0.48828125,-17.08984375,-53.7109375,0.0
1734412546.1382504,-36.1328125,-3.41796875,-18.5546875,-56.15234375,0.0
1734412546.1421537,-34.1796875,-6.8359375,-21.484375,-54.19921875,0.0
1734412546.1460574,-26.3671875,3.41796875,-7.8125,-59.08203125,0.0
1734412546.149961,-14.16015625,14.16015625,1.46484375,-57.12890625,0.0
1734412546.1538644,-18.5546875,-7.32421875,-28.80859375,-40.52734375,0.0
1734412546.157768,-36.62109375,1.953125,-27.34375,-42.48046875,0.0
1734412546.1616716,-41.50390625,16.11328125,-13.671875,-52.734375,0.0
1734412546.165575,-30.2734375,2.9296875,-21.484375,-48.828125,0.0
1734412546.169537,-14.6484375,9.765625,-15.13671875,-42.96875,0.0
1734412546.1734407,-13.671875,20.01953125,-9.765625,-46.38671875,0.0
1734412546.1773443,-34.1796875,14.16015625,-13.18359375,-52.734375,0.0
1734412546.1812477,-28.3203125,0.0,-23.92578125,-56.15234375,0.0
1734412546.1851513,-12.20703125,-3.41796875,-23.92578125,-56.640625,0.0
1734412546.189055,-31.73828125,-0.9765625,-13.671875,-60.546875,0.0
1734412546.1929586,-34.66796875,10.7421875,-4.8828125,-53.22265625,0.0
1734412546.196862,-17.08984375,1.953125,-19.53125,-37.59765625,0.0
1734412546.2007656,-27.34375,-4.8828125,-23.92578125,-29.78515625,0.0
1734412546.2046692,-45.41015625,25.390625,4.8828125,-38.0859375,0.0
1734412546.2085726,-26.3671875,16.6015625,-0.48828125,-47.36328125,0.0
1734412546.2124763,-24.4140625,0.9765625,-14.6484375,-51.26953125,0.0
1734412546.2164347,-46.38671875,8.30078125,-13.18359375,-56.15234375,0.0
1734412546.220338,-42.48046875,18.06640625,-9.27734375,-57.6171875,0.0
1734412546.2242417,-25.390625,11.71875,-12.6953125,-59.08203125,0.0
1734412546.2281454,-20.01953125,3.90625,-21.484375,-55.17578125,0.0
1734412546.232049,-24.4140625,7.8125,-20.99609375,-54.6875,0.0
1734412546.2359524,-30.76171875,-0.48828125,-20.99609375,-50.78125,0.0
1734412546.239856,-22.4609375,-0.48828125,-19.53125,-56.640625,0.0
1734412546.2437596,-18.5546875,-7.8125,-33.69140625,-51.7578125,0.0
1734412546.247663,-45.41015625,1.953125,-24.4140625,-54.19921875,0.0
1734412546.2515666,-50.78125,15.625,-11.71875,-68.84765625,0.0
1734412546.2554703,-44.43359375,-1.46484375,-28.80859375,-70.80078125,0.0
1734412546.259374,-48.33984375,0.9765625,-25.87890625,-74.21875,0.0
1734412546.2633283,-49.31640625,5.37109375,-18.5546875,-71.77734375,0.0
1734412546.2672317,-49.31640625,6.8359375,-16.6015625,-62.98828125,0.0
1734412546.2711353,-38.57421875,-3.90625,-23.92578125,-49.31640625,0.0
1734412546.275039,-47.8515625,-11.71875,-26.3671875,-72.265625,0.0
1734412546.2789426,-68.359375,-3.41796875,-18.5546875,-86.42578125,0.0
1734412546.282846,-64.94140625,-5.859375,-28.80859375,-78.61328125,0.0
1734412546.2867496,-34.1796875,-16.11328125,-44.921875,-72.265625,0.0
1734412546.2906532,-21.97265625,-19.04296875,-40.0390625,-55.6640625,0.0
1734412546.2945569,-41.9921875,2.44140625,-17.08984375,-64.453125,0.0
1734412546.2984602,-69.3359375,5.37109375,-20.01953125,-73.73046875,0.0
1734412546.3023639,-74.21875,-6.8359375,-29.78515625,-68.359375,0.0
1734412546.3062675,-53.22265625,2.44140625,-23.92578125,-71.77734375,0.0
1734412546.310244,-51.26953125,9.27734375,-19.53125,-74.21875,0.0
1734412546.3141477,-52.734375,-5.37109375,-27.83203125,-62.01171875,0.0
1734412546.318051,-46.38671875,-7.32421875,-34.1796875,-58.10546875,0.0
1734412546.3219547,-47.8515625,7.32421875,-21.97265625,-58.59375,0.0
1734412546.3258584,-31.73828125,9.765625,-20.01953125,-62.01171875,0.0
1734412546.329762,-26.85546875,0.0,-29.78515625,-74.21875,0.0
1734412546.3336654,-25.87890625,-10.7421875,-44.43359375,-69.82421875,0.0
1734412546.337569,-36.1328125,2.9296875,-34.1796875,-59.5703125,0.0
1734412546.3414726,-37.59765625,18.06640625,-13.671875,-58.59375,0.0
1734412546.345376,-19.04296875,5.859375,-29.78515625,-56.640625,0.0
1734412546.3492796,-23.92578125,-0.9765625,-37.59765625,-49.8046875,0.0
1734412546.3531833,-25.87890625,6.34765625,-30.76171875,-52.24609375,0.0
1734412546.3571312,-30.2734375,16.6015625,-18.5546875,-53.22265625,0.0
1734412546.3610349,-47.36328125,-0.48828125,-24.4140625,-41.015625,0.0
1734412546.3649383,-62.5,-7.32421875,-30.2734375,-50.78125,0.0
1734412546.368842,-61.5234375,9.765625,-20.01953125,-79.58984375,0.0
1734412546.3727455,-57.6171875,5.859375,-20.99609375,-69.82421875,0.0
1734412546.3766491,-49.8046875,-10.25390625,-37.109375,-42.96875,0.0
1734412546.3805525,-46.38671875,-4.8828125,-36.1328125,-52.734375,0.0
1734412546.3844562,-61.03515625,7.32421875,-18.5546875,-73.2421875,0.0
1734412546.3883598,-60.05859375,14.16015625,-17.578125,-82.51953125,0.0
1734412546.3922634,-38.0859375,-2.9296875,-38.57421875,-67.3828125,0.0
1734412546.3961668,-29.296875,-13.18359375,-41.015625,-44.43359375,0.0
1734412546.4000704,-37.59765625,13.18359375,-10.7421875,-37.109375,0.0
1734412546.4040413,-41.9921875,7.8125,-20.01953125,-36.1328125,0.0
1734412546.4079447,-44.43359375,4.8828125,-27.83203125,-67.87109375,0.0
1734412546.4118483,-41.015625,15.13671875,-20.99609375,-93.26171875,0.0
1734412546.415752,-51.7578125,19.04296875,-12.20703125,-85.44921875,0.0
1734412546.4196556,-50.78125,15.625,-19.04296875,-77.63671875,0.0
1734412546.423559,-49.8046875,5.37109375,-35.15625,-76.66015625,0.0
1734412546.4274626,-51.7578125,3.90625,-30.76171875,-74.21875,0.0
1734412546.4313662,-44.43359375,10.25390625,-18.06640625,-74.21875,0.0
1734412546.4352698,-45.8984375,4.8828125,-21.97265625,-62.5,0.0
1734412546.4391732,-37.109375,-12.20703125,-35.15625,-42.48046875,0.0
1734412546.4430768,-33.69140625,-6.8359375,-27.83203125,-40.0390625,0.0
1734412546.4469805,-34.66796875,9.765625,-17.578125,-55.17578125,0.0
1734412546.4509473,-37.109375,1.953125,-21.97265625,-79.58984375,0.0
1734412546.454851,-29.296875,-3.90625,-31.73828125,-81.54296875,0.0
1734412546.4587543,-41.50390625,7.32421875,-25.390625,-76.66015625,0.0
1734412546.462658,-54.19921875,3.41796875,-24.4140625,-71.77734375,0.0
1734412546.4665616,-41.50390625,-1.46484375,-27.83203125,-46.875,0.0
1734412546.4704652,-50.78125,-6.34765625,-32.71484375,-50.78125,0.0
1734412546.4743686,-65.91796875,-0.9765625,-33.203125,-89.35546875,0.0
1734412546.4782722,-74.70703125,10.25390625,-16.11328125,-85.9375,0.0
1734412546.4821758,-59.5703125,-6.34765625,-33.203125,-62.5,0.0
1734412546.4860795,-43.45703125,-10.7421875,-44.43359375,-76.66015625,0.0
1734412546.489983,-60.546875,17.08984375,-14.6484375,-94.7265625,0.0
1734412546.4938865,-67.87109375,16.6015625,-19.04296875,-95.703125,0.0
1734412546.4978497,-59.5703125,2.44140625,-34.66796875,-82.03125,0.0
1734412546.501753,-60.546875,9.765625,-27.83203125,-74.70703125,0.0
1734412546.5056567,-63.96484375,15.625,-18.5546875,-72.265625,0.0
1734412546.5095603,-44.921875,11.71875,-18.5546875,-65.91796875,0.0
1734412546.513464,-27.34375,4.8828125,-31.25,-75.68359375,0.0
1734412546.5173676,-41.015625,-3.41796875,-33.69140625,-70.3125,0.0
1734412546.521271,-51.7578125,-3.41796875,-23.4375,-50.78125,0.0
1734412546.5251746,-47.8515625,3.90625,-19.53125,-43.45703125,0.0
1734412546.5290782,-14.16015625,0.9765625,-28.80859375,-30.2734375,0.0
1734412546.5329819,-1.46484375,18.06640625,-15.625,-24.4140625,0.0
1734412546.5368853,-41.015625,22.4609375,-12.20703125,-49.31640625,0.0
1734412546.540789,-43.45703125,7.8125,-28.3203125,-59.08203125,0.0
1734412546.5447507,-27.34375,18.06640625,-20.01953125,-46.38671875,0.0
1734412546.548654,-30.2734375,25.390625,-10.7421875,-41.9921875,0.0
1734412546.5525577,-19.04296875,24.90234375,-21.97265625,-51.26953125,0.0
1734412546.5564613,-16.11328125,14.16015625,-33.69140625,-51.7578125,0.0
1734412546.560365,-44.921875,9.765625,-32.71484375,-41.9921875,0.0
1734412546.5642686,-46.38671875,10.25390625,-32.2265625,-59.5703125,0.0
1734412546.568172,-40.0390625,11.23046875,-25.390625,-85.44921875,0.0
1734412546.5720756,-45.8984375,0.9765625,-36.1328125,-78.125,0.0
1734412546.5759792,-41.9921875,-5.37109375,-38.0859375,-66.89453125,0.0
1734412546.5798829,-61.5234375,15.625,-15.625,-80.56640625,0.0
1734412546.5837865,-73.73046875,15.625,-22.94921875,-81.54296875,0.0
1734412546.5876899,-62.5,8.30078125,-27.83203125,-91.796875,0.0
1734412546.5916474,-66.40625,12.6953125,-24.4140625,-114.2578125,0.0
1734412546.5955508,-78.61328125,13.18359375,-27.34375,-116.2109375,0.0
1734412546.5994544,-76.171875,2.44140625,-37.109375,-105.95703125,0.0
1734412546.603358,-72.265625,2.9296875,-38.57421875,-91.30859375,0.0
1734412546.6072617,-74.70703125,3.90625,-28.80859375,-91.796875,0.0
1734412546.6111653,-63.96484375,-5.37109375,-39.0625,-91.796875,0.0
1734412546.6150687,-60.05859375,-4.8828125,-43.9453125,-101.5625,0.0
1734412546.6189723,-64.453125,-10.7421875,-50.78125,-91.30859375,0.0
1734412546.622876,-69.3359375,-2.9296875,-41.015625,-83.0078125,0.0
1734412546.6267796,-72.265625,13.671875,-20.01953125,-88.8671875,0.0
1734412546.6306832,-63.4765625,-0.9765625,-39.0625,-76.171875,0.0
1734412546.6345866,-56.640625,-6.34765625,-42.96875,-84.47265625,0.0
1734412546.6385398,-57.12890625,0.9765625,-28.3203125,-85.44921875,0.0
1734412546.6424434,-57.6171875,1.46484375,-26.3671875,-81.0546875,0.0
1734412546.646347,-51.26953125,-4.39453125,-33.69140625,-82.03125,0.0
1734412546.6502507,-44.43359375,-7.8125,-37.109375,-85.9375,0.0
1734412546.6541543,-49.31640625,-6.8359375,-33.203125,-89.35546875,0.0
1734412546.6580577,-44.921875,-14.6484375,-35.15625,-73.73046875,0.0
1734412546.6619613,-40.0390625,-22.4609375,-47.36328125,-65.4296875,0.0
1734412546.665865,-43.9453125,-18.5546875,-42.96875,-59.5703125,0.0
1734412546.6697686,-55.17578125,1.953125,-20.99609375,-78.125,0.0
1734412546.6736722,-66.89453125,0.48828125,-30.2734375,-104.00390625,0.0
1734412546.6775756,-72.75390625,-13.671875,-40.0390625,-101.5625,0.0
1734412546.6814792,-68.84765625,-6.34765625,-35.15625,-82.03125,0.0
1734412546.6854303,-69.82421875,7.32421875,-29.78515625,-75.68359375,0.0
1734412546.689334,-70.80078125,3.90625,-26.3671875,-94.23828125,0.0
1734412546.6932375,-60.546875,-2.9296875,-31.25,-106.93359375,0.0
1734412546.697141,-73.73046875,-0.48828125,-32.71484375,-100.5859375,0.0
1734412546.7010446,-75.68359375,-2.9296875,-35.64453125,-87.40234375,0.0
1734412546.7049482,-67.87109375,-0.48828125,-38.0859375,-83.0078125,0.0
1734412546.7088518,-59.08203125,-8.7890625,-48.33984375,-75.1953125,0.0
1734412546.7127554,-69.82421875,-3.90625,-35.64453125,-85.9375,0.0
1734412546.716659,-83.0078125,12.20703125,-13.18359375,-104.98046875,0.0
1734412546.7205625,-53.7109375,2.44140625,-24.4140625,-90.8203125,0.0
1734412546.724466,-52.734375,-1.953125,-27.83203125,-74.21875,0.0
1734412546.7283697,-52.24609375,8.7890625,-12.6953125,-68.84765625,0.0
1734412546.732319,-42.48046875,11.71875,-11.71875,-64.94140625,0.0
1734412546.7362227,-52.734375,0.48828125,-24.4140625,-69.82421875,0.0
1734412546.7401264,-58.10546875,2.44140625,-20.01953125,-77.1484375,0.0
1734412546.74403,-53.7109375,12.6953125,-12.6953125,-86.9140625,0.0
1734412546.7479334,-44.921875,9.27734375,-15.13671875,-77.63671875,0.0
1734412546.751837,-29.296875,-7.32421875,-29.78515625,-51.26953125,0.0
1734412546.7557406,-13.18359375,-12.20703125,-31.25,-36.62109375,0.0
1734412546.7596443,-24.90234375,1.46484375,-9.765625,-45.8984375,0.0
1734412546.763548,-34.66796875,2.44140625,-3.41796875,-54.6875,0.0
1734412546.7674515,-16.6015625,-14.6484375,-25.390625,-45.41015625,0.0
1734412546.771355,-12.6953125,-18.06640625,-33.69140625,-48.828125,0.0
1734412546.7752585,-31.25,-1.46484375,-18.06640625,-69.3359375,0.0
1734412546.7792292,-54.19921875,-6.8359375,-23.4375,-74.21875,0.0
1734412546.7831326,-56.640625,-13.671875,-26.3671875,-60.05859375,0.0
1734412546.7870362,-38.57421875,-5.859375,-16.6015625,-44.43359375,0.0
1734412546.7909398,-27.83203125,-4.8828125,-18.06640625,-48.828125,0.0
1734412546.7948434,-33.69140625,-14.6484375,-30.76171875,-65.4296875,0.0
1734412546.798747,-39.0625,-21.97265625,-34.1796875,-66.89453125,0.0
1734412546.8026507,-36.1328125,-11.71875,-30.2734375,-70.80078125,0.0
1734412546.806554,-38.0859375,2.9296875,-23.4375,-64.453125,0.0
1734412546.8104577,-23.4375,-1.953125,-28.3203125,-56.640625,0.0
1734412546.8143613,-20.01953125,-20.5078125,-37.109375,-50.29296875,0.0
1734412546.818265,-46.38671875,-17.08984375,-23.4375,-44.921875,0.0
1734412546.8221686,-47.8515625,-8.30078125,-18.5546875,-46.875,0.0
1734412546.826136,0.0,-9.765625,-20.01953125,-53.22265625,0.0
1734412546.8300397,0.0,-9.765625,-17.08984375,-61.03515625,0.0
1734412546.8339434,0.0,-7.32421875,-22.94921875,-55.6640625,0.0
1734412546.837847,0.0,-10.25390625,-25.87890625,-50.29296875,0.0
1734412546.8417506,0.0,-20.99609375,-36.1328125,-44.43359375,0.0
1734412546.8456542,0.0,-22.94921875,-45.8984375,-53.22265625,0.0
1734412546.8495579,0.0,-8.7890625,-35.15625,-73.2421875,0.0
1734412546.8534613,0.0,2.9296875,-27.34375,-72.75390625,0.0
1734412546.857365,0.0,-14.6484375,-49.31640625,-53.22265625,0.0
1734412546.8612685,0.0,-20.5078125,-57.6171875,-40.52734375,0.0
1734412546.8651721,0.0,6.34765625,-23.92578125,-41.50390625,0.0
1734412546.8690758,0.0,6.8359375,-25.390625,-43.45703125,0.0
1734412546.8730433,-34.1796875,-2.44140625,0.0,-45.41015625,0.0
1734412546.876947,-34.66796875,-3.41796875,0.0,-46.875,0.0
1734412546.8808503,-40.0390625,1.953125,0.0,-59.08203125,0.0
1734412546.884754,-32.71484375,10.7421875,0.0,-62.5,0.0
1734412546.8886576,-17.578125,8.7890625,0.0,-65.91796875,0.0
1734412546.8925612,-21.97265625,0.48828125,0.0,-62.5,0.0
1734412546.8964648,-35.64453125,6.8359375,0.0,-54.19921875,0.0
1734412546.9003685,-51.7578125,10.7421875,0.0,-59.08203125,0.0
1734412546.904272,-36.62109375,-11.71875,0.0,-53.7109375,0.0
1734412546.9081755,-40.52734375,-5.37109375,0.0,-69.3359375,0.0
1734412546.912079,-49.8046875,8.7890625,0.0,-77.1484375,0.0
1734412546.9159827,-40.0390625,2.44140625,0.0,-58.59375,0.0
1734412546.9199452,-47.36328125,3.90625,-29.78515625,0.0,0.0
1734412546.9238489,-41.50390625,11.23046875,-28.80859375,0.0,0.0
1734412546.9277525,-34.1796875,16.11328125,-23.92578125,0.0,0.0
1734412546.9316561,-24.90234375,6.8359375,-28.3203125,0.0,0.0
1734412546.9355595,-28.3203125,-7.8125,-42.96875,0.0,0.0
1734412546.9394631,-48.33984375,-10.25390625,-41.50390625,0.0,0.0
1734412546.9433668,-42.48046875,-9.27734375,-36.1328125,0.0,0.0
1734412546.9472704,-27.34375,-16.6015625,-47.8515625,0.0,0.0
1734412546.951174,-25.390625,-17.578125,-50.78125,0.0,0.0
1734412546.9550776,-48.33984375,-1.46484375,-30.2734375,0.0,0.0
1734412546.9589813,-62.01171875,-4.8828125,-33.69140625,0.0,0.0
1734412546.962885,-46.875,-10.7421875,-41.015625,0.0,0.0
1734412546.9668438,0.0,-4.8828125,0.0,-55.17578125,0.0
1734412546.9707475,0.0,0.48828125,0.0,-64.453125,0.0
1734412546.974651,0.0,-5.37109375,0.0,-75.1953125,0.0
1734412546.9785547,0.0,-8.30078125,0.0,-61.03515625,0.0
1734412546.9824584,0.0,-0.9765625,0.0,-62.01171875,0.0
1734412546.986362,0.0,-5.859375,0.0,-68.84765625,0.0
1734412546.9902656,0.0,-6.8359375,0.0,-78.125,0.0
1734412546.9941692,0.0,-18.5546875,0.0,-69.3359375,0.0
1734412546.9980729,0.0,-9.27734375,0.0,-72.265625,0.0
1734412547.0019765,0.0,13.671875,0.0,-78.125,0.0
1734412547.0058799,0.0,2.44140625,0.0,-62.98828125,0.0
1734412547.0097835,0.0,-2.9296875,0.0,-52.734375,0.0
1734412547.0137672,-25.87890625,4.39453125,-36.1328125,-56.15234375,0.0
1734412547.0176709,-54.19921875,2.9296875,-31.25,-59.5703125,0.0
1734412547.0215745,-59.5703125,-10.7421875,-33.203125,-62.01171875,0.0
1734412547.0254781,-49.8046875,-11.71875,-32.2265625,-70.3125,0.0
1734412547.0293818,-35.15625,-4.39453125,-25.390625,-86.42578125,0.0
1734412547.0332851,-6.34765625,-10.25390625,-24.4140625,-91.30859375,0.0
1734412547.0371888,-15.13671875,-23.4375,-30.76171875,-68.359375,0.0
1734412547.0410924,-49.31640625,-24.90234375,-34.66796875,-44.43359375,0.0
1734412547.044996,-59.08203125,4.39453125,-13.18359375,-68.84765625,0.0
1734412547.0488997,-36.62109375,5.37109375,-9.27734375,-77.63671875,0.0
1734412547.0528033,-23.4375,-17.08984375,-24.4140625,-61.5234375,0.0
1734412547.056707,-19.04296875,-14.16015625,-23.4375,-45.41015625,0.0
1734412547.0606613,0.0,1.46484375,0.0,0.0,0.0
1734412547.064565,0.0,-1.46484375,0.0,0.0,0.0
1734412547.0684686,0.0,-9.27734375,0.0,0.0,0.0
1734412547.0723722,0.0,-11.23046875,0.0,0.0,0.0
1734412547.0762758,0.0,-8.7890625,0.0,0.0,0.0
1734412547.0801792,0.0,-7.8125,0.0,0.0,0.0
1734412547.0840828,0.0,-2.9296875,0.0,0.0,0.0
1734412547.0879865,0.0,8.30078125,0.0,0.0,0.0
1734412547.09189,0.0,13.671875,0.0,0.0,0.0
1734412547.0957937,0.0,7.32421875,0.0,0.0,0.0
1734412547.0996974,0.0,-10.7421875,0.0,0.0,0.0
1734412547.103601,0.0,4.8828125,0.0,0.0,0.0
1734412547.1075783,-41.9921875,15.13671875,-21.484375,-54.6875,0.0
1734412547.111482,-21.97265625,-4.39453125,-39.0625,-59.5703125,0.0
1734412547.1153855,-25.87890625,-7.8125,-47.36328125,-67.3828125,0.0
1734412547.1192892,-49.31640625,4.39453125,-35.64453125,-78.125,0.0
1734412547.1231928,-55.6640625,9.27734375,-32.2265625,-64.453125,0.0
1734412547.1270962,-28.80859375,-3.90625,-47.36328125,-47.36328125,0.0
1734412547.1309998,-18.5546875,-8.30078125,-48.33984375,-44.921875,0.0
1734412547.1349034,-38.0859375,11.71875,-22.94921875,-46.875,0.0
1734412547.138807,-41.9921875,14.16015625,-19.04296875,-44.921875,0.0
1734412547.1427107,-32.71484375,0.9765625,-30.76171875,-40.52734375,0.0
1734412547.1466143,-21.97265625,1.46484375,-30.2734375,-50.29296875,0.0
1734412547.150518,-20.99609375,5.859375,-28.80859375,-65.4296875,0.0
1734412547.154491,0.0,1.953125,-38.0859375,-62.98828125,0.0
1734412547.1583946,0.0,-1.46484375,-41.015625,-44.43359375,0.0
1734412547.1622982,0.0,0.0,-32.2265625,-41.50390625,0.0
1734412547.1662018,0.0,7.32421875,-25.87890625,-45.8984375,0.0
1734412547.1701055,0.0,2.9296875,-31.73828125,-55.17578125,0.0
1734412547.174009,0.0,-4.8828125,-41.015625,-53.7109375,0.0
1734412547.1779127,0.0,-5.37109375,-42.48046875,-47.8515625,0.0
1734412547.1818163,0.0,0.0,-38.0859375,-62.5,0.0
1734412547.18572,0.0,5.37109375,-33.203125,-72.75390625,0.0
1734412547.1896236,0.0,-16.6015625,-53.22265625,-61.03515625,0.0
1734412547.1935272,0.0,-13.18359375,-54.19921875,-68.84765625,0.0
1734412547.1974308,0.0,13.671875,-29.78515625,-97.65625,0.0
1734412547.2013283,-29.296875,6.8359375,-33.69140625,-87.890625,0.0
1734412547.205232,-25.390625,-0.48828125,-41.50390625,-70.3125,0.0
1734412547.2091355,-25.87890625,6.8359375,-31.25,-72.265625,0.0
1734412547.2130392,-34.66796875,2.44140625,-31.73828125,-84.47265625,0.0
1734412547.2169428,-31.25,-9.27734375,-43.45703125,-92.28515625,0.0
1734412547.2208464,-14.16015625,-9.27734375,-43.45703125,-83.49609375,0.0
1734412547.22475,-9.27734375,5.37109375,-29.78515625,-85.44921875,0.0
1734412547.2286537,-35.15625,16.6015625,-18.5546875,-82.51953125,0.0
1734412547.2325573,-50.78125,1.46484375,-35.15625,-67.3828125,0.0
1734412547.236461,-33.203125,-7.32421875,-44.43359375,-65.4296875,0.0
1734412547.2403646,-36.62109375,14.6484375,-15.13671875,-62.01171875,0.0
1734412547.2442682,-44.43359375,15.625,-12.6953125,-48.828125,0.0
1734412547.2482297,-14.16015625,5.859375,-24.4140625,-51.26953125,0.0
1734412547.2521334,-1.46484375,8.7890625,-25.390625,-61.03515625,0.0
1734412547.256037,-3.41796875,7.8125,-27.34375,-54.19921875,0.0
1734412547.2599406,-18.06640625,-0.48828125,-41.9921875,-42.48046875,0.0
1734412547.2638443,-34.66796875,-3.41796875,-46.875,-48.33984375,0.0
1734412547.2677479,-23.4375,0.0,-42.48046875,-53.7109375,0.0
1734412547.2716515,-18.06640625,5.859375,-45.8984375,-72.265625,0.0
1734412547.2755551,-30.76171875,10.7421875,-45.41015625,-75.68359375,0.0
1734412547.2794588,-29.78515625,-3.90625,-58.10546875,-52.24609375,0.0
1734412547.2833624,-20.5078125,0.9765625,-51.7578125,-46.38671875,0.0
1734412547.287266,-20.99609375,12.20703125,-36.1328125,-52.24609375,0.0
1734412547.2911696,-36.1328125,3.90625,-49.8046875,-64.94140625,0.0
1734412547.2951298,-28.80859375,9.27734375,-54.6875,-73.73046875,0.0
1734412547.2990334,-31.73828125,14.16015625,-50.29296875,-70.3125,0.0
1734412547.302937,-58.10546875,11.71875,-51.26953125,-78.125,0.0
1734412547.3068407,-35.64453125,0.48828125,-53.7109375,-77.63671875,0.0
1734412547.3107443,-20.99609375,0.48828125,-47.36328125,-59.5703125,0.0
1734412547.314648,-30.2734375,3.90625,-44.43359375,-55.17578125,0.0
1734412547.3185515,-36.1328125,3.90625,-41.015625,-63.4765625,0.0
1734412547.3224552,-40.0390625,-3.41796875,-55.6640625,-67.3828125,0.0
1734412547.3263588,-37.59765625,-9.765625,-65.91796875,-67.3828125,0.0
1734412547.3302624,-44.43359375,12.20703125,-42.96875,-82.51953125,0.0
1734412547.334166,-42.96875,15.13671875,-45.8984375,-76.171875,0.0
1734412547.3380697,-33.203125,2.9296875,-53.22265625,-58.10546875,0.0
1734412547.342028,-30.76171875,1.46484375,-45.41015625,-55.17578125,0.0
1734412547.3459315,-31.73828125,5.859375,-31.73828125,-60.546875,0.0
1734412547.3498352,-21.484375,-2.9296875,-32.2265625,-61.5234375,0.0
1734412547.3537388,-22.4609375,-5.859375,-41.9921875,-55.6640625,0.0
1734412547.3576424,-42.48046875,-2.9296875,-37.59765625,-40.0390625,0.0
1734412547.361546,-40.0390625,-7.8125,-40.0390625,-41.015625,0.0
1734412547.3654497,-29.78515625,-5.37109375,-41.9921875,-49.8046875,0.0
1734412547.3693533,-19.04296875,-18.5546875,-46.38671875,-32.71484375,0.0
1734412547.373257,-16.11328125,-9.765625,-28.80859375,-39.55078125,0.0
1734412547.3771605,-30.76171875,3.90625,-15.625,-56.15234375,0.0
1734412547.3810642,-30.76171875,-14.6484375,-33.69140625,-55.6640625,0.0
1734412547.3849678,-15.13671875,-12.6953125,-28.3203125,-44.921875,0.0
1734412547.3889265,-2.44140625,-3.90625,-20.01953125,-44.921875,0.0
1734412547.3928301,-16.6015625,-3.90625,-29.78515625,-63.4765625,0.0
1734412547.3967338,-17.08984375,-12.6953125,-39.0625,-65.4296875,0.0
1734412547.4006374,-10.25390625,-13.671875,-35.64453125,-53.22265625,0.0
1734412547.404541,-22.94921875,0.0,-27.34375,-52.734375,0.0
1734412547.4084446,-20.5078125,-4.39453125,-24.4140625,-51.7578125,0.0
1734412547.4123483,-26.3671875,-28.80859375,-43.45703125,-41.50390625,0.0
1734412547.416252,-53.22265625,-34.66796875,-50.29296875,-36.1328125,0.0
1734412547.4201555,-73.2421875,-6.34765625,-20.01953125,-45.41015625,0.0
1734412547.4240592,-67.87109375,-4.8828125,-26.85546875,-63.96484375,0.0
1734412547.4279628,-55.6640625,-17.578125,-38.0859375,-71.2890625,0.0
1734412547.4318664,-57.6171875,-8.7890625,-30.76171875,-66.40625,0.0
1734412547.4358208,-65.91796875,-2.9296875,-28.80859375,-74.21875,0.0
1734412547.4397244,-67.3828125,-10.25390625,-27.34375,-66.40625,0.0
1734412547.443628,-59.5703125,-13.18359375,-32.2265625,-57.6171875,0.0
1734412547.4475317,-48.33984375,-7.32421875,-28.3203125,-68.84765625,0.0
1734412547.4514353,-38.57421875,-4.8828125,-24.4140625,-63.96484375,0.0
1734412547.455339,-36.62109375,-16.11328125,-33.203125,-71.2890625,0.0
1734412547.4592426,-45.8984375,-37.109375,-50.29296875,-68.84765625,0.0
1734412547.4631462,-53.7109375,-20.99609375,-35.64453125,-54.6875,0.0
1734412547.4670498,-40.0390625,5.37109375,-18.06640625,-54.6875,0.0
1734412547.4709535,-20.99609375,-7.32421875,-30.76171875,-51.26953125,0.0
1734412547.474857,-19.53125,-11.71875,-34.1796875,-44.43359375,0.0
1734412547.4787607,-26.3671875,-3.41796875,-28.80859375,-38.0859375,0.0
1734412547.4827096,-28.80859375,4.8828125,-21.484375,-52.734375,0.0
1734412547.4866133,-16.11328125,-1.953125,-27.34375,-50.78125,0.0
1734412547.490517,-23.92578125,-2.44140625,-30.2734375,-42.96875,0.0
1734412547.4944205,-42.96875,5.859375,-20.5078125,-56.15234375,0.0
1734412547.4983242,-44.921875,-0.9765625,-16.11328125,-45.41015625,0.0
1734412547.5022278,-27.83203125,-16.11328125,-30.76171875,-38.57421875,0.0
1734412547.5061314,-20.5078125,-14.6484375,-29.78515625,-55.17578125,0.0
1734412547.510035,-35.15625,11.71875,-5.37109375,-84.47265625,0.0
1734412547.5139387,-29.78515625,10.7421875,-7.8125,-74.70703125,0.0
1734412547.5178423,-35.15625,-9.27734375,-18.06640625,-58.59375,0.0
1734412547.521746,-50.78125,-3.90625,-10.7421875,-64.94140625,0.0
1734412547.5256495,-50.78125,1.953125,-9.765625,-63.96484375,0.0
1734412547.5296197,-51.26953125,-8.7890625,-24.4140625,-63.96484375,0.0
1734412547.5335233,-38.0859375,-6.34765625,-29.78515625,-65.91796875,0.0
1734412547.537427,-28.80859375,1.953125,-26.3671875,-57.12890625,0.0
1734412547.5413306,-17.578125,7.8125,-18.5546875,-51.7578125,0.0
1734412547.5452342,-15.625,6.8359375,-22.94921875,-57.12890625,0.0
1734412547.5491378,-20.01953125,-7.32421875,-35.64453125,-64.453125,0.0
1734412547.5530415,-28.3203125,-7.8125,-36.1328125,-71.77734375,0.0
1734412547.556945,-33.69140625,3.90625,-28.80859375,-65.91796875,0.0
1734412547.5608487,-33.69140625,0.0,-26.3671875,-49.8046875,0.0
1734412547.5647523,-27.83203125,-15.625,-34.1796875,-45.8984375,0.0
1734412547.568656,-19.04296875,-9.27734375,-21.97265625,-54.19921875,0.0
1734412547.5725596,-21.97265625,5.859375,-7.8125,-65.4296875,0.0
1734412547.5765276,-23.4375,0.0,0.0,-57.12890625,0.0
1734412547.5804312,-28.3203125,-7.32421875,0.0,-34.66796875,0.0
1734412547.5843349,-26.85546875,-0.9765625,0.0,-20.99609375,0.0
1734412547.5882385,-6.34765625,1.953125,0.0,-25.390625,0.0
1734412547.592142,10.25390625,1.46484375,0.0,-42.48046875,0.0
1734412547.5960457,7.8125,-1.953125,0.0,-37.59765625,0.0
1734412547.5999494,-16.11328125,2.9296875,0.0,-21.484375,0.0
1734412547.603853,-25.87890625,11.71875,0.0,-28.3203125,0.0
1734412547.6077566,-9.765625,1.46484375,0.0,-43.9453125,0.0
1734412547.6116602,-6.34765625,-5.37109375,0.0,-50.78125,0.0
1734412547.6155639,-20.5078125,14.16015625,0.0,-51.7578125,0.0
1734412547.6194675,-29.78515625,9.27734375,0.0,-39.55078125,0.0
1734412547.6233604,-20.01953125,-0.48828125,-16.11328125,0.0,0.0
1734412547.627264,-3.41796875,7.32421875,-11.23046875,0.0,0.0
1734412547.6311677,-15.13671875,9.27734375,-1.953125,0.0,0.0
1734412547.6350713,-25.87890625,-3.41796875,3.90625,0.0,0.0
1734412547.638975,-25.87890625,-8.30078125,4.8828125,0.0,0.0
1734412547.6428785,-23.92578125,-5.859375,-3.41796875,0.0,0.0
1734412547.6467822,-14.16015625,-3.41796875,0.48828125,0.0,0.0
1734412547.650686,-7.8125,-2.9296875,9.765625,0.0,0.0
1734412547.6545897,-4.8828125,-12.6953125,-3.90625,0.0,0.0
1734412547.6584933,-16.6015625,-1.953125,-12.20703125,0.0,0.0
1734412547.662397,-20.99609375,9.765625,12.20703125,0.0,0.0
1734412547.6663005,2.9296875,0.48828125,7.32421875,0.0,0.0
1734412547.670259,-5.37109375,2.44140625,-13.671875,-44.921875,0.0
1734412547.6741626,-20.01953125,8.30078125,-10.25390625,-50.29296875,0.0
1734412547.6780663,-28.3203125,5.859375,-17.08984375,-36.1328125,0.0
1734412547.68197,-28.80859375,-0.9765625,-26.85546875,-17.08984375,0.0
1734412547.6858735,-9.765625,-5.859375,-28.3203125,-24.90234375,0.0
1734412547.6897774,-6.8359375,-9.765625,-30.2734375,-34.66796875,0.0
1734412547.693681,-2.9296875,-3.90625,-33.69140625,-34.66796875,0.0
1734412547.6975846,-18.5546875,-11.71875,-42.48046875,-24.4140625,0.0
1734412547.7014883,-36.1328125,-21.484375,-41.9921875,-26.3671875,0.0
1734412547.705392,-30.76171875,-5.37109375,-25.87890625,-40.52734375,0.0
1734412547.7092955,-19.53125,0.0,-24.90234375,-36.62109375,0.0
1734412547.7131991,-14.6484375,-13.18359375,-25.87890625,-42.48046875,0.0
1734412547.717157,-27.83203125,-13.671875,-18.06640625,-47.8515625,0.0
1734412547.7210608,-38.0859375,-6.8359375,-12.20703125,-45.41015625,0.0
1734412547.7249644,-38.0859375,-12.6953125,-17.578125,-52.24609375,0.0
1734412547.728868,-36.62109375,-13.671875,-20.99609375,-59.5703125,0.0
1734412547.7327716,-39.0625,-14.16015625,-23.92578125,-55.17578125,0.0
1734412547.7366753,-41.9921875,-20.01953125,-26.85546875,-46.875,0.0
1734412547.740579,-45.41015625,-19.04296875,-20.01953125,-56.640625,0.0
1734412547.7444825,-38.57421875,-31.73828125,-33.69140625,-65.4296875,0.0
1734412547.7483861,-28.3203125,-23.92578125,-26.3671875,-74.70703125,0.0
1734412547.7522898,-20.01953125,-5.859375,-7.8125,-75.1953125,0.0
1734412547.7561934,-32.71484375,-20.5078125,-28.80859375,-63.96484375,0.0
1734412547.760097,-72.75390625,-19.04296875,-29.78515625,-78.125,0.0
1734412547.7640522,0.0,-6.8359375,-25.87890625,-87.890625,0.0
1734412547.7679558,0.0,-5.859375,-26.3671875,-77.1484375,0.0
1734412547.7718594,0.0,-13.18359375,-28.3203125,-59.5703125,0.0
1734412547.775763,0.0,-15.13671875,-34.66796875,-56.640625,0.0
1734412547.7796667,0.0,-12.20703125,-33.203125,-70.3125,0.0
1734412547.7835703,0.0,-14.6484375,-33.69140625,-63.4765625,0.0
1734412547.787474,0.0,-20.01953125,-41.9921875,-42.96875,0.0
1734412547.7913775,0.0,-19.04296875,-41.50390625,-31.73828125,0.0
1734412547.7952812,0.0,7.32421875,-15.13671875,-45.41015625,0.0
1734412547.799185,0.0,8.7890625,-16.6015625,-52.734375,0.0
1734412547.8030887,0.0,-5.37109375,-32.2265625,-57.12890625,0.0
1734412547.8069923,0.0,-0.48828125,-26.85546875,-57.6171875,0.0
1734412547.8109422,-42.48046875,4.8828125,-19.04296875,-52.24609375,0.0
1734412547.8148458,-37.59765625,1.46484375,-29.78515625,-59.5703125,0.0
1734412547.8187494,-44.921875,-6.8359375,-29.296875,-57.6171875,0.0
1734412547.822653,-41.015625,-4.8828125,-26.3671875,-54.19921875,0.0
1734412547.8265567,-38.0859375,3.90625,-24.4140625,-57.6171875,0.0
1734412547.8304603,-37.109375,-3.41796875,-24.90234375,-64.94140625,0.0
1734412547.834364,-41.9921875,-6.34765625,-31.73828125,-65.91796875,0.0
1734412547.8382676,-53.22265625,1.953125,-23.4375,-55.6640625,0.0
1734412547.8421712,-60.05859375,1.46484375,-19.53125,-46.38671875,0.0
1734412547.846075,-56.15234375,-4.8828125,-24.4140625,-67.87109375,0.0
1734412547.8499787,-31.73828125,-20.5078125,-39.55078125,-72.265625,0.0
1734412547.8538823,-34.1796875,-10.7421875,-31.73828125,-73.2421875,0.0
1734412547.8578303,0.0,-0.48828125,-16.11328125,-84.9609375,0.0
1734412547.861734,0.0,-12.6953125,-30.2734375,-89.35546875,0.0
1734412547.8656375,0.0,-8.7890625,-31.25,-87.40234375,0.0
1734412547.8695412,0.0,3.41796875,-16.11328125,-77.63671875,0.0
1734412547.873445,0.0,2.9296875,-20.99609375,-77.63671875,0.0
1734412547.8773487,0.0,-9.27734375,-38.57421875,-59.5703125,0.0
1734412547.8812523,0.0,-23.92578125,-43.9453125,-48.33984375,0.0
1734412547.885156,0.0,-5.859375,-14.6484375,-62.5,0.0
1734412547.8890595,0.0,5.859375,-6.34765625,-59.5703125,0.0
1734412547.8929632,0.0,-5.859375,-21.97265625,-54.19921875,0.0
1734412547.8968668,0.0,-4.8828125,-29.296875,-59.08203125,0.0
1734412547.9007704,0.0,6.8359375,-22.94921875,-53.22265625,0.0
1734412547.9047394,-28.80859375,10.25390625,-13.671875,-41.015625,0.0
1734412547.908643,-33.69140625,-6.34765625,-20.01953125,-43.9453125,0.0
1734412547.9125466,-45.41015625,-10.7421875,-21.484375,-58.10546875,0.0
1734412547.9164503,-57.6171875,-4.39453125,-11.71875,-62.98828125,0.0
1734412547.920354,-60.05859375,-1.46484375,-13.671875,-51.26953125,0.0
1734412547.9242575,-41.015625,-7.8125,-25.390625,-45.8984375,0.0
1734412547.9281614,-29.78515625,-4.39453125,-19.53125,-58.10546875,0.0
1734412547.932065,-19.04296875,11.71875,-17.08984375,-56.15234375,0.0
1734412547.9359686,-27.34375,-0.9765625,-24.4140625,-47.36328125,0.0
1734412547.9398723,-35.64453125,-22.94921875,-27.83203125,-45.8984375,0.0
1734412547.943776,-52.734375,-6.8359375,-25.87890625,-60.05859375,0.0
1734412547.9476795,-58.59375,13.671875,-20.01953125,-75.1953125,0.0
1734412547.9516475,-48.33984375,6.34765625,-23.4375,0.0,0.0
1734412547.9555511,-52.734375,1.953125,-31.25,0.0,0.0
1734412547.9594548,-51.7578125,11.23046875,-28.3203125,0.0,0.0
1734412547.9633584,-47.36328125,12.20703125,-24.4140625,0.0,0.0
1734412547.9672623,-38.57421875,-1.46484375,-27.34375,0.0,0.0
1734412547.971166,-25.390625,-11.71875,-32.2265625,0.0,0.0
1734412547.9750695,-26.85546875,-3.41796875,-22.4609375,0.0,0.0
1734412547.9789732,-16.6015625,4.39453125,-18.06640625,0.0,0.0
1734412547.9828768,-32.2265625,0.48828125,-35.15625,0.0,0.0
1734412547.9867804,-52.734375,4.8828125,-34.66796875,0.0,0.0
1734412547.990684,-39.55078125,16.6015625,-23.92578125,0.0,0.0
1734412547.9945877,-32.2265625,11.71875,-25.390625,0.0,0.0
1734412547.9985518,-16.6015625,-10.7421875,-41.50390625,-22.4609375,0.0
1734412548.0024555,-0.9765625,-3.90625,-37.59765625,-10.7421875,0.0
1734412548.006359,4.39453125,22.94921875,-3.41796875,-12.20703125,0.0
1734412548.0102627,8.30078125,24.4140625,-7.32421875,-6.34765625,0.0
1734412548.0141664,5.37109375,15.625,-25.390625,0.0,0.0
1734412548.0180702,4.39453125,7.8125,-24.90234375,-7.8125,0.0
1734412548.0219738,-4.8828125,16.6015625,-9.27734375,-20.01953125,0.0
1734412548.0258775,-26.85546875,12.20703125,-2.9296875,-25.87890625,0.0
1734412548.029781,-21.97265625,-8.30078125,-24.90234375,-22.94921875,0.0
1734412548.0336847,7.8125,-0.48828125,-21.484375,-36.1328125,0.0
1734412548.0375884,-2.44140625,13.671875,-7.8125,-36.62109375,0.0
1734412548.041492,7.32421875,7.32421875,-15.13671875,-3.90625,0.0
1734412548.0454543,14.6484375,6.34765625,0.0,0.0,0.0
1734412548.0493581,-20.5078125,11.71875,0.0,0.0,0.0
1734412548.0532618,-21.484375,6.34765625,0.0,0.0,0.0
1734412548.0571654,-7.32421875,-16.6015625,0.0,0.0,0.0
1734412548.061069,-16.11328125,-13.671875,0.0,0.0,0.0
1734412548.0649726,-41.015625,3.90625,0.0,0.0,0.0
1734412548.0688763,-29.78515625,5.859375,0.0,0.0,0.0
1734412548.07278,-7.8125,7.32421875,0.0,0.0,0.0
1734412548.0766835,-14.16015625,-4.39453125,0.0,0.0,0.0
1734412548.0805874,-40.0390625,-9.27734375,0.0,0.0,0.0
1734412548.084491,-32.71484375,-11.71875,0.0,0.0,0.0
1734412548.0883946,-7.32421875,-8.7890625,0.0,0.0,0.0
1734412548.092284,-13.18359375,-13.18359375,-7.32421875,-60.05859375,0.0
1734412548.0961876,-33.69140625,-13.18359375,-3.41796875,-64.94140625,0.0
1734412548.1000912,-10.7421875,2.44140625,-2.44140625,-32.2265625,0.0
1734412548.1039948,18.06640625,9.27734375,1.953125,-28.3203125,0.0
1734412548.1078985,12.6953125,4.39453125,7.8125,-71.77734375,0.0
1734412548.111802,-41.50390625,-4.8828125,15.625,-82.51953125,0.0
1734412548.1157057,-42.48046875,0.9765625,9.27734375,-89.84375,0.0
1734412548.1196094,-9.765625,-19.04296875,-12.20703125,-57.12890625,0.0
1734412548.1235132,3.41796875,-18.5546875,-16.6015625,-24.90234375,0.0
1734412548.1274168,-4.39453125,3.90625,5.859375,-41.015625,0.0
1734412548.1313205,-25.87890625,-14.16015625,8.7890625,-57.12890625,0.0
1734412548.135224,-21.97265625,-17.578125,19.53125,-58.10546875,0.0
1734412548.1391757,-31.73828125,-1.46484375,12.6953125,-45.8984375,0.0
1734412548.1430795,-59.08203125,-7.8125,13.671875,-41.9921875,0.0
1734412548.1469831,-49.31640625,-28.80859375,11.71875,-54.6875,0.0
1734412548.1508868,-15.13671875,-32.71484375,23.4375,-41.015625,0.0
1734412548.1547904,-9.765625,-17.578125,30.76171875,-36.1328125,0.0
1734412548.158694,-9.765625,-6.34765625,13.18359375,-56.15234375,0.0
1734412548.1625977,-35.15625,-19.53125,6.8359375,-47.8515625,0.0
1734412548.1665013,-72.75390625,-20.99609375,14.16015625,-48.33984375,0.0
1734412548.1704051,-66.89453125,12.20703125,26.3671875,-63.96484375,0.0
1734412548.1743088,-25.390625,12.20703125,16.6015625,-67.3828125,0.0
1734412548.1782124,5.37109375,-12.20703125,7.32421875,-32.71484375,0.0
1734412548.182116,-14.16015625,-12.6953125,16.6015625,-30.76171875,0.0
1734412548.1860964,0.0,7.32421875,28.3203125,0.0,0.0
1734412548.1900003,0.0,16.6015625,29.296875,0.0,0.0
1734412548.193904,0.0,11.71875,27.34375,0.0,0.0
1734412548.1978076,0.0,7.8125,37.109375,0.0,0.0
1734412548.2017112,0.0,-4.8828125,34.1796875,0.0,0.0
1734412548.2056148,0.0,-9.765625,31.25,0.0,0.0
1734412548.2095184,0.0,-22.4609375,19.04296875,0.0,0.0
1734412548.213422,0.0,-11.71875,12.6953125,0.0,0.0
1734412548.217326,0.0,20.5078125,25.390625,0.0,0.0
1734412548.2212296,0.0,10.25390625,8.30078125,0.0,0.0
1734412548.2251332,0.0,-7.32421875,-0.9765625,0.0,0.0
1734412548.2290368,0.0,-5.859375,16.11328125,0.0,0.0
1734412548.2329845,14.6484375,-9.27734375,20.5078125,-20.01953125,0.0
1734412548.2368882,-48.828125,-11.71875,2.44140625,-53.22265625,0.0
1734412548.2407918,-18.06640625,-9.765625,-2.9296875,-53.22265625,0.0
1734412548.2446954,-11.71875,-18.5546875,4.39453125,-28.3203125,0.0
1734412548.248599,8.7890625,-12.20703125,5.37109375,-17.08984375,0.0
1734412548.252503,23.92578125,-10.7421875,-23.92578125,-15.625,0.0
1734412548.2564065,-34.1796875,-5.37109375,-31.25,-37.109375,0.0
1734412548.2603102,-36.62109375,26.3671875,2.9296875,-53.7109375,0.0
1734412548.2642138,4.8828125,29.78515625,8.30078125,-38.0859375,0.0
1734412548.2681174,41.015625,-2.9296875,-9.27734375,0.48828125,0.0
1734412548.272021,29.78515625,-9.765625,-14.16015625,-16.11328125,0.0
1734412548.275925,-5.37109375,18.5546875,18.06640625,-49.8046875,0.0
1734412548.2798948,0.0,22.4609375,29.296875,-17.578125,0.0
1734412548.2837985,0.0,4.8828125,21.97265625,32.71484375,0.0
1734412548.287702,0.0,6.8359375,21.484375,-2.9296875,0.0
1734412548.2916057,0.0,2.9296875,13.671875,-46.38671875,0.0
1734412548.2955093,0.0,-10.25390625,-5.859375,-56.640625,0.0
1734412548.2994132,0.0,-4.8828125,-18.06640625,-65.91796875,0.0
1734412548.3033168,0.0,3.41796875,-15.625,-22.94921875,0.0
1734412548.3072205,0.0,14.6484375,-2.9296875,-9.27734375,0.0
1734412548.311124,0.0,10.25390625,1.953125,-26.3671875,0.0
1734412548.3150277,0.0,1.46484375,-7.8125,-25.390625,0.0
1734412548.3189316,0.0,5.37109375,-2.9296875,-46.875,0.0
1734412548.3228352,0.0,4.8828125,-2.9296875,-50.78125,0.0
1734412548.3268008,-6.34765625,4.8828125,-5.37109375,-60.05859375,0.0
1734412548.3307045,-7.8125,7.32421875,-6.34765625,-71.77734375,0.0
1734412548.334608,-9.765625,8.7890625,7.32421875,-85.44921875,0.0
1734412548.3385117,1.46484375,2.9296875,20.01953125,-61.03515625,0.0
1734412548.3424153,-14.6484375,0.48828125,5.37109375,-28.3203125,0.0
1734412548.3463192,-17.578125,0.48828125,2.44140625,-55.17578125,0.0
1734412548.3502228,-21.484375,12.20703125,19.04296875,-75.1953125,0.0
1734412548.3541265,-19.53125,23.92578125,13.671875,-69.82421875,0.0
1734412548.35803,-5.37109375,6.8359375,-7.8125,-72.265625,0.0
1734412548.3619337,-11.23046875,0.0,-4.39453125,-48.33984375,0.0
1734412548.3658376,-27.83203125,24.90234375,16.6015625,-74.21875,0.0
1734412548.3697412,-26.85546875,20.99609375,19.04296875,-91.796875,0.0
1734412548.3737261,-13.671875,5.859375,14.6484375,-80.078125,0.0
1734412548.3776298,-15.13671875,12.6953125,12.6953125,-93.26171875,0.0
1734412548.3815336,-27.34375,20.01953125,15.13671875,-89.84375,0.0
1734412548.3854373,-12.6953125,20.99609375,18.06640625,-75.68359375,0.0
1734412548.3893409,-3.90625,22.4609375,6.8359375,-80.56640625,0.0
1734412548.3932445,15.13671875,20.01953125,-7.32421875,-79.58984375,0.0
1734412548.3971481,13.671875,12.6953125,4.8828125,-73.73046875,0.0
1734412548.401052,0.0,8.30078125,12.20703125,-73.73046875,0.0
1734412548.4049556,11.23046875,-4.39453125,-5.37109375,-57.6171875,0.0
1734412548.4088593,2.9296875,9.765625,5.37109375,-55.17578125,0.0
1734412548.4127629,-5.37109375,10.25390625,15.13671875,-56.640625,0.0
1734412548.4166665,-4.39453125,-4.39453125,1.46484375,-46.875,0.0
1734412548.4206252,-11.71875,3.90625,3.90625,-54.19921875,0.0
1734412548.4245288,-3.41796875,4.39453125,6.34765625,-59.08203125,0.0
1734412548.4284325,8.7890625,4.8828125,0.0,-54.19921875,0.0
1734412548.4323363,-4.39453125,-0.9765625,-13.671875,-49.8046875,0.0
1734412548.43624,-21.97265625,-10.7421875,-22.4609375,-85.44921875,0.0
1734412548.4401436,-7.8125,-9.765625,-11.23046875,-65.91796875,0.0
1734412548.4440472,-26.85546875,-2.9296875,6.8359375,-34.66796875,0.0
1734412548.4479508,-50.29296875,-5.37109375,8.7890625,-57.12890625,0.0
1734412548.4518547,-31.25,-10.7421875,2.9296875,-64.94140625,0.0
1734412548.4557583,-35.15625,-1.953125,4.39453125,-83.0078125,0.0
1734412548.459662,-34.66796875,8.30078125,0.0,-79.58984375,0.0
1734412548.4635656,-28.80859375,-9.27734375,-21.484375,-61.5234375,0.0
1734412548.4675202,-39.55078125,-24.90234375,-14.6484375,-52.734375,0.0
1734412548.471424,-54.6875,-2.44140625,15.625,-73.73046875,0.0
1734412548.4753277,-38.57421875,-2.44140625,-0.9765625,-82.51953125,0.0
1734412548.4792314,-39.0625,-2.9296875,-11.23046875,-62.98828125,0.0
1734412548.483135,-27.83203125,5.37109375,-11.71875,-69.3359375,0.0
1734412548.4870389,-20.99609375,4.39453125,-21.484375,-68.359375,0.0
1734412548.4909425,-41.50390625,2.9296875,-22.94921875,-58.59375,0.0
1734412548.494846,-46.38671875,-19.04296875,-32.2265625,-59.5703125,0.0
1734412548.4987497,-65.4296875,-17.578125,-17.08984375,-50.78125,0.0
1734412548.5026534,-62.01171875,6.34765625,4.8828125,-46.38671875,0.0
1734412548.5065572,-29.296875,-6.34765625,-6.8359375,-49.8046875,0.0
1734412548.5104609,-33.203125,-9.765625,-10.25390625,-52.24609375,0.0
1734412548.5144114,-40.0390625,-0.48828125,-7.8125,-38.57421875,0.0
1734412548.5183153,-36.62109375,3.41796875,-10.7421875,-62.5,0.0
1734412548.522219,-43.9453125,-7.8125,-18.06640625,-68.84765625,0.0
1734412548.5261226,-22.4609375,-13.18359375,-24.90234375,-61.03515625,0.0
1734412548.5300262,-17.578125,-5.859375,-18.06640625,-79.58984375,0.0
1734412548.53393,-46.875,-10.7421875,-19.53125,-72.75390625,0.0
1734412548.5378337,-62.5,-27.83203125,-30.76171875,-58.59375,0.0
1734412548.5417373,-69.3359375,-34.66796875,-31.25,-74.70703125,0.0
1734412548.545641,-77.63671875,-12.6953125,-14.6484375,-88.8671875,0.0
1734412548.5495446,-67.3828125,-2.44140625,-19.04296875,-85.44921875,0.0
1734412548.5534484,-62.98828125,-8.30078125,-32.2265625,-86.9140625,0.0
1734412548.557352,-63.4765625,-5.859375,-30.2734375,-84.9609375,0.0
1734412548.5613017,-50.29296875,0.48828125,-23.92578125,-80.078125,0.0
1734412548.5652053,-41.9921875,-1.46484375,-23.92578125,-76.171875,0.0
1734412548.569109,-52.734375,-8.30078125,-29.78515625,-61.5234375,0.0
1734412548.5730126,-71.2890625,-14.6484375,-26.85546875,-62.5,0.0
1734412548.5769165,-69.3359375,-24.90234375,-23.4375,-67.3828125,0.0
1734412548.58082,-54.19921875,-29.296875,-25.87890625,-53.22265625,0.0
1734412548.5847237,-59.08203125,-41.50390625,-37.109375,-50.29296875,0.0
1734412548.5886273,-59.5703125,-37.59765625,-23.4375,-62.98828125,0.0
1734412548.5925312,-50.78125,-24.90234375,-8.30078125,-53.7109375,0.0
1734412548.5964348,-49.31640625,-27.34375,-20.99609375,-34.1796875,0.0
1734412548.6003385,-53.22265625,-31.25,-21.484375,-46.875,0.0
1734412548.604242,-46.875,-21.97265625,-14.6484375,-59.5703125,0.0
1734412548.6081882,-28.80859375,-7.32421875,-8.7890625,-55.17578125,0.0
1734412548.6120918,-37.109375,-21.484375,-14.16015625,-43.45703125,0.0
1734412548.6159956,-41.9921875,-23.92578125,-24.4140625,-46.38671875,0.0
1734412548.6198993,-41.015625,-12.20703125,-24.4140625,-50.29296875,0.0
1734412548.623803,-31.73828125,-13.671875,-25.390625,-40.0390625,0.0
1734412548.6277065,-6.8359375,-26.3671875,-36.62109375,-42.96875,0.0
1734412548.6316104,-18.06640625,-31.73828125,-41.015625,-63.4765625,0.0
1734412548.635514,-37.109375,-20.99609375,-14.6484375,-80.56640625,0.0
1734412548.6394176,-43.45703125,-23.4375,-8.30078125,-82.03125,0.0
1734412548.6433213,-40.52734375,-38.57421875,-21.484375,-57.6171875,0.0
1734412548.6472251,-49.31640625,-30.76171875,-16.6015625,-54.19921875,0.0
1734412548.6511288,-48.33984375,-14.16015625,-10.7421875,-60.546875,0.0
1734412548.655096,-26.85546875,-12.6953125,-16.11328125,-44.43359375,0.0
1734412548.659,-50.78125,-16.11328125,-18.06640625,-77.1484375,0.0
1734412548.6629035,-81.0546875,-16.11328125,-19.04296875,-103.515625,0.0
1734412548.6668072,-91.30859375,-11.71875,-13.18359375,-94.7265625,0.0
1734412548.6707108,-67.87109375,-17.08984375,-14.6484375,-83.984375,0.0
1734412548.6746147,-61.5234375,-29.296875,-31.73828125,-80.56640625,0.0
1734412548.6785183,-68.359375,-23.92578125,-26.3671875,-69.3359375,0.0
1734412548.682422,-51.26953125,-2.9296875,-10.25390625,-48.828125,0.0
1734412548.6863258,-54.19921875,-1.953125,-14.6484375,-58.59375,0.0
1734412548.6902294,-51.7578125,-12.6953125,-16.6015625,-78.61328125,0.0
1734412548.694133,-74.21875,-17.08984375,-10.7421875,-93.26171875,0.0
1734412548.6980367,-91.796875,-12.20703125,-7.32421875,-94.23828125,0.0
1734412548.7020016,-70.80078125,-5.859375,-10.7421875,-84.47265625,0.0
1734412548.7059052,-58.10546875,-4.39453125,-14.16015625,-69.82421875,0.0
1734412548.7098088,-42.48046875,-5.859375,-13.671875,-65.4296875,0.0
1734412548.7137125,-38.57421875,-4.39453125,-9.765625,-57.12890625,0.0
1734412548.7176163,-29.78515625,-6.8359375,-11.71875,-38.0859375,0.0
1734412548.72152,-7.32421875,-16.11328125,-25.390625,-25.390625,0.0
1734412548.7254236,-24.90234375,-6.34765625,-14.6484375,-51.7578125,0.0
1734412548.7293274,-31.25,4.8828125,2.44140625,-89.35546875,0.0
1734412548.733231,11.23046875,-7.32421875,-15.625,-73.2421875,0.0
1734412548.7371347,13.18359375,-13.18359375,-23.92578125,-36.62109375,0.0
1734412548.7410383,-11.71875,10.7421875,1.46484375,-24.90234375,0.0
1734412548.7449422,-1.953125,5.37109375,-1.953125,-19.53125,0.0
1734412548.7489038,-8.30078125,-7.8125,-9.765625,-18.5546875,0.0
1734412548.7528074,-31.25,-7.32421875,-5.859375,-40.0390625,0.0
1734412548.756711,-53.22265625,-4.8828125,-4.8828125,-43.45703125,0.0
1734412548.7606146,-53.22265625,-0.48828125,-10.25390625,-24.4140625,0.0
1734412548.7645185,-26.3671875,-0.9765625,-17.08984375,-23.92578125,0.0
1734412548.7684221,-16.6015625,-7.32421875,-16.11328125,-41.9921875,0.0
1734412548.7723258,-17.578125,-6.34765625,-14.16015625,-42.48046875,0.0
1734412548.7762296,-29.296875,-5.859375,-14.6484375,-41.9921875,0.0
1734412548.7801332,-50.78125,-8.30078125,-14.16015625,-70.3125,0.0
1734412548.7840369,-39.0625,-2.9296875,-8.7890625,-63.4765625,0.0
1734412548.7879405,-22.94921875,-4.39453125,-15.13671875,-62.01171875,0.0
1734412548.7918444,-22.4609375,-7.8125,-21.484375,-48.33984375,0.0
1734412548.7958043,-15.625,-9.27734375,-19.04296875,-33.69140625,0.0
1734412548.799708,-26.3671875,2.9296875,-11.71875,-63.96484375,0.0
1734412548.8036118,-36.62109375,9.27734375,-7.8125,-65.4296875,0.0
1734412548.8075154,-28.3203125,-0.9765625,-11.23046875,-46.38671875,0.0
1734412548.811419,-29.296875,-6.8359375,-17.578125,-35.64453125,0.0
1734412548.8153229,-25.87890625,-7.8125,-20.01953125,-44.921875,0.0
1734412548.8192265,-27.34375,2.9296875,-9.765625,-65.91796875,0.0
1734412548.8231301,-31.73828125,1.953125,-15.625,-52.24609375,0.0
1734412548.8270338,-21.484375,-13.18359375,-32.71484375,-47.36328125,0.0
1734412548.8309376,-20.99609375,0.9765625,-17.578125,-65.4296875,0.0
1734412548.8348413,-18.5546875,5.859375,-17.08984375,-63.4765625,0.0
1734412548.8387449,-20.99609375,-6.8359375,-27.83203125,-61.5234375,0.0
1734412548.8427012,-39.0625,-5.37109375,0.0,-60.546875,0.0
1734412548.8466048,-32.2265625,5.859375,0.0,-72.265625,0.0
1734412548.8505087,-27.34375,2.44140625,0.0,-63.96484375,0.0
1734412548.8544123,-27.83203125,-5.859375,0.0,-55.6640625,0.0
1734412548.858316,-19.04296875,-1.953125,0.0,-68.84765625,0.0
1734412548.8622196,-7.8125,-1.953125,0.0,-60.05859375,0.0
1734412548.8661234,8.7890625,5.859375,0.0,-37.109375,0.0
1734412548.870027,6.8359375,-8.7890625,0.0,-8.7890625,0.0
1734412548.8739307,-16.11328125,-10.7421875,0.0,-24.4140625,0.0
1734412548.8778346,-33.203125,2.9296875,0.0,-74.21875,0.0
1734412548.8817382,-29.78515625,-8.7890625,0.0,-66.89453125,0.0
1734412548.8856418,-7.8125,-6.34765625,0.0,-59.08203125,0.0
1734412548.8895953,-12.6953125,1.46484375,-69.82421875,-64.453125,0.0
1734412548.8934991,-26.3671875,9.765625,-67.3828125,-75.1953125,0.0
1734412548.8974028,-27.34375,3.41796875,-77.63671875,-73.73046875,0.0
1734412548.9013064,-29.78515625,-0.48828125,-70.3125,-43.45703125,0.0
1734412548.90521,2.9296875,9.765625,-57.6171875,-28.80859375,0.0
1734412548.909114,6.8359375,6.34765625,-63.96484375,-66.89453125,0.0
1734412548.9130175,-13.671875,-6.8359375,-72.75390625,-80.078125,0.0
1734412548.9169211,-22.4609375,-8.30078125,-71.2890625,-41.015625,0.0
1734412548.920825,-38.0859375,6.8359375,-45.41015625,-45.41015625,0.0
1734412548.9247286,-26.85546875,7.8125,-36.62109375,-65.4296875,0.0
1734412548.9286323,-10.7421875,4.8828125,-39.0625,-55.6640625,0.0
1734412548.9325361,-15.13671875,7.32421875,-37.109375,-41.015625,0.0
1734412548.9364834,-7.8125,8.30078125,-32.71484375,-37.59765625,0.0
1734412548.940387,-7.32421875,6.8359375,-29.296875,-45.41015625,0.0
1734412548.9442909,-16.6015625,0.0,-41.015625,-46.875,0.0
1734412548.9481945,-17.08984375,0.0,-37.59765625,-34.1796875,0.0
1734412548.9520981,-23.92578125,9.27734375,-28.3203125,-44.43359375,0.0
1734412548.956002,-24.4140625,10.7421875,-30.76171875,-54.19921875,0.0
1734412548.9599056,1.46484375,-5.37109375,-41.50390625,-27.83203125,0.0
1734412548.9638093,2.44140625,-2.9296875,-34.1796875,-14.16015625,0.0
1734412548.967713,-20.5078125,18.5546875,-16.6015625,-31.25,0.0
1734412548.9716167,-24.90234375,9.27734375,-24.90234375,-48.828125,0.0
1734412548.9755204,-27.83203125,0.48828125,-31.25,-67.3828125,0.0
1734412548.9794242,-31.25,7.8125,-26.85546875,-69.82421875,0.0
1734412548.9833694,-40.0390625,12.20703125,-20.99609375,-63.96484375,0.0
1734412548.987273,-54.6875,5.37109375,-27.34375,-48.33984375,0.0
1734412548.9911766,-51.26953125,2.9296875,-30.76171875,-41.015625,0.0
1734412548.9950805,-39.0625,5.859375,-35.15625,-59.5703125,0.0
1734412548.998984,-38.57421875,1.46484375,-40.0390625,-57.6171875,0.0
1734412549.0028877,-48.33984375,-17.578125,-47.8515625,-36.62109375,0.0
1734412549.0067916,-44.921875,-24.90234375,-51.7578125,-30.2734375,0.0
1734412549.0106952,-37.109375,-3.41796875,-30.2734375,-56.15234375,0.0
1734412549.0145988,-40.0390625,4.8828125,-22.4609375,-71.77734375,0.0
1734412549.0185027,-49.8046875,-3.90625,-34.1796875,-62.01171875,0.0
1734412549.0224063,-28.3203125,2.9296875,-23.92578125,-41.9921875,0.0
1734412549.02631,-10.25390625,13.18359375,-10.25390625,-34.1796875,0.0
1734412549.030282,-17.08984375,4.39453125,0.0,-45.41015625,0.0
1734412549.034186,-20.5078125,0.0,0.0,-40.52734375,0.0
1734412549.0380895,-29.78515625,6.8359375,0.0,-32.71484375,0.0
1734412549.0419931,-31.73828125,12.6953125,0.0,-45.8984375,0.0
1734412549.045897,-30.76171875,8.30078125,0.0,-37.59765625,0.0
1734412549.0498006,-22.94921875,-1.46484375,0.0,-31.73828125,0.0
1734412549.0537043,-25.390625,1.953125,0.0,-48.33984375,0.0
1734412549.0576081,-35.64453125,11.23046875,0.0,-62.01171875,0.0
1734412549.0615118,-21.97265625,4.39453125,0.0,-31.25,0.0
1734412549.0654154,0.0,-1.46484375,0.0,-13.671875,0.0
1734412549.0693192,-19.53125,-2.44140625,0.0,-42.96875,0.0
1734412549.0732229,-27.83203125,3.41796875,0.0,-64.94140625,0.0
1734412549.0771883,-23.4375,4.39453125,-124.0234375,-74.21875,0.0
1734412549.0810921,-39.0625,3.41796875,-128.41796875,-66.40625,0.0
1734412549.0849957,-38.57421875,9.27734375,-126.46484375,-47.36328125,0.0
1734412549.0888994,-31.73828125,5.37109375,-128.41796875,-44.921875,0.0
1734412549.0928032,-22.4609375,-3.90625,-137.6953125,-59.5703125,0.0
1734412549.0967069,-28.80859375,-12.20703125,-150.390625,-66.40625,0.0
1734412549.1006105,-51.26953125,-2.9296875,-145.5078125,-61.5234375,0.0
1734412549.1045144,-54.19921875,11.71875,-142.08984375,-48.828125,0.0
1734412549.108418,-29.78515625,-2.9296875,-158.203125,-41.015625,0.0
1734412549.1123216,-7.8125,-16.6015625,-164.0625,-45.8984375,0.0
1734412549.1162255,-19.04296875,2.9296875,-145.01953125,-63.96484375,0.0
1734412549.120129,-33.69140625,6.34765625,-135.7421875,-57.12890625,0.0
1734412549.1240907,-28.80859375,-2.9296875,-139.6484375,-36.1328125,0.0
1734412549.1279943,-20.5078125,1.46484375,-136.23046875,-31.25,0.0
1734412549.131898,-21.484375,9.27734375,-126.953125,-39.0625,0.0
1734412549.1358018,-14.6484375,2.44140625,-130.859375,-39.0625,0.0
1734412549.1397054,-17.08984375,-9.27734375,-137.6953125,-42.96875,0.0
1734412549.1436093,-32.2265625,-9.765625,-137.6953125,-46.38671875,0.0
1734412549.147513,-28.80859375,1.46484375,-124.51171875,-39.55078125,0.0
1734412549.1514165,-8.30078125,3.90625,-116.69921875,-45.8984375,0.0
1734412549.1553204,-8.30078125,-17.08984375,-135.25390625,-34.1796875,0.0
1734412549.159224,-27.83203125,-13.671875,-120.60546875,-21.484375,0.0
1734412549.1631277,-49.31640625,-0.48828125,-100.09765625,-47.8515625,0.0
1734412549.1670315,-40.0390625,-5.859375,-100.5859375,-64.453125,0.0
1734412549.1709907,0.0,-0.48828125,-88.8671875,-65.91796875,0.0
1734412549.1748943,0.0,5.859375,-81.0546875,-58.59375,0.0
1734412549.1787982,0.0,6.8359375,-78.61328125,-54.19921875,0.0
1734412549.1827018,0.0,-8.30078125,-90.33203125,-59.08203125,0.0
1734412549.1866057,0.0,-13.18359375,-94.23828125,-55.6640625,0.0
1734412549.1905093,0.0,-3.90625,-83.984375,-52.734375,0.0
1734412549.194413,0.0,-1.953125,-76.66015625,-48.33984375,0.0
1734412549.1983168,0.0,-9.27734375,-86.9140625,-53.7109375,0.0
1734412549.2022204,0.0,-7.32421875,-83.984375,-57.12890625,0.0
1734412549.206124,0.0,12.6953125,-53.7109375,-52.734375,0.0
1734412549.210028,0.0,6.34765625,-59.08203125,-62.01171875,0.0
1734412549.2139316,0.0,-2.9296875,-70.80078125,-61.03515625,0.0
1734412549.2178876,-33.69140625,2.44140625,-64.94140625,-57.12890625,0.0
1734412549.2217913,-30.76171875,4.39453125,-59.08203125,-51.7578125,0.0
1734412549.2256951,-20.99609375,3.90625,-62.5,-35.15625,0.0
1734412549.2295988,-14.6484375,-2.9296875,-58.10546875,-35.15625,0.0
1734412549.2335024,-20.5078125,0.0,-54.6875,-36.1328125,0.0
1734412549.2374063,-13.671875,-3.90625,-63.96484375,-35.15625,0.0
1734412549.24131,-15.625,-4.39453125,-56.640625,-38.0859375,0.0
1734412549.2452137,-18.5546875,-9.765625,-60.546875,-31.73828125,0.0
1734412549.2491174,-3.90625,-2.44140625,-50.29296875,-19.53125,0.0
1734412549.253021,-2.44140625,17.08984375,-32.71484375,-37.59765625,0.0
1734412549.2569249,-20.99609375,-0.48828125,-43.9453125,-49.31640625,0.0
1734412549.2608285,-16.6015625,-7.32421875,-42.48046875,-40.52734375,0.0
1734412549.264782,-12.20703125,9.765625,0.0,-46.38671875,0.0
1734412549.2686858,-23.4375,11.71875,0.0,-41.015625,0.0
1734412549.2725894,-26.85546875,-1.46484375,0.0,-35.15625,0.0
1734412549.276493,-38.57421875,-2.44140625,0.0,-56.15234375,0.0
1734412549.280397,-39.55078125,2.9296875,0.0,-61.03515625,0.0
1734412549.2843006,-38.0859375,0.0,0.0,-41.015625,0.0
1734412549.2882044,-34.66796875,-6.8359375,0.0,-40.0390625,0.0
1734412549.292108,-17.578125,-5.859375,0.0,-57.12890625,0.0
1734412549.2960117,-15.13671875,15.625,0.0,-68.359375,0.0
1734412549.2999156,-35.15625,18.5546875,0.0,-64.453125,0.0
1734412549.3038192,-61.5234375,9.765625,0.0,-62.01171875,0.0
1734412549.307723,-64.94140625,15.625,0.0,-66.89453125,0.0
1734412549.3116744,0.0,15.625,-20.99609375,0.0,0.0
1734412549.3155782,0.0,6.8359375,-29.296875,0.0,0.0
1734412549.3194818,0.0,1.46484375,-34.66796875,0.0,0.0
1734412549.3233857,0.0,5.859375,-31.73828125,0.0,0.0
1734412549.3272893,0.0,6.8359375,-35.64453125,0.0,0.0
1734412549.331193,0.0,-4.39453125,-43.45703125,0.0,0.0
1734412549.3350968,0.0,-19.53125,-61.5234375,0.0,0.0
1734412549.3390005,0.0,-4.8828125,-54.6875,0.0,0.0
1734412549.3429043,0.0,16.6015625,-32.2265625,0.0,0.0
1734412549.346808,0.0,6.34765625,-39.0625,0.0,0.0
1734412549.3507116,0.0,0.9765625,-41.9921875,0.0,0.0
1734412549.3546154,0.0,3.90625,-38.57421875,0.0,0.0
1734412549.358562,-27.34375,-2.9296875,-37.109375,-21.97265625,0.0
1734412549.3624659,-6.34765625,-7.8125,-37.59765625,-20.01953125,0.0
1734412549.3663695,-7.32421875,-0.9765625,-32.2265625,-31.73828125,0.0
1734412549.3702734,-19.53125,8.7890625,-27.34375,-34.1796875,0.0
1734412549.374177,-10.25390625,11.23046875,-29.296875,-38.57421875,0.0
1734412549.3780808,6.34765625,-3.41796875,-41.50390625,-42.48046875,0.0
1734412549.3819845,7.32421875,-10.7421875,-48.828125,-44.43359375,0.0
1734412549.385888,-15.625,11.71875,-27.83203125,-55.6640625,0.0
1734412549.389792,-25.390625,19.04296875,-19.53125,-53.7109375,0.0
1734412549.3936956,-24.4140625,1.953125,-31.73828125,-28.80859375,0.0
1734412549.3975995,-46.38671875,-1.46484375,-26.3671875,-26.85546875,0.0
1734412549.401503,-60.05859375,13.671875,-17.578125,-51.7578125,0.0
1734412549.405468,-50.78125,15.13671875,-19.53125,-53.7109375,0.0
1734412549.4093719,-56.15234375,6.34765625,-21.484375,-42.96875,0.0
1734412549.4132755,-45.8984375,6.34765625,-21.97265625,-42.48046875,0.0
1734412549.4171793,-33.69140625,6.34765625,-25.87890625,-54.19921875,0.0
1734412549.421083,-43.45703125,3.41796875,-30.76171875,-56.640625,0.0
1734412549.4249866,-45.41015625,0.48828125,-36.1328125,-50.78125,0.0
1734412549.4288905,-33.203125,6.34765625,-27.83203125,-60.05859375,0.0
1734412549.432794,-32.2265625,20.5078125,-20.99609375,-67.3828125,0.0
1734412549.436698,-35.64453125,18.06640625,-28.80859375,-57.6171875,0.0
1734412549.4406016,-36.1328125,0.9765625,-35.64453125,-45.41015625,0.0
1734412549.4445055,-32.71484375,4.8828125,-26.3671875,-55.6640625,0.0
1734412549.448409,-19.04296875,23.92578125,-12.20703125,-58.59375,0.0
1734412549.4523723,-7.32421875,17.08984375,-23.4375,-52.734375,0.0
1734412549.4562762,-31.25,8.30078125,-32.71484375,-51.7578125,0.0
1734412549.4601798,-44.921875,19.53125,-30.76171875,-44.921875,0.0
1734412549.4640834,-33.203125,23.4375,-33.203125,-24.4140625,0.0
1734412549.4679873,-8.7890625,11.71875,-38.0859375,-21.484375,0.0
1734412549.471891,12.6953125,4.8828125,-35.64453125,-44.921875,0.0
1734412549.4757948,-6.8359375,13.671875,-23.4375,-63.96484375,0.0
1734412549.4796984,-27.34375,13.18359375,-25.87890625,-40.52734375,0.0
1734412549.4836023,-17.578125,0.9765625,-37.109375,-22.94921875,0.0
1734412549.487506,-6.8359375,-3.41796875,-34.66796875,-41.015625,0.0
1734412549.4914098,-14.6484375,15.13671875,-15.13671875,-60.546875,0.0
1734412549.4953134,-19.04296875,18.5546875,-20.5078125,-66.40625,0.0
1734412549.4992743,-30.2734375,6.8359375,-27.83203125,-49.8046875,0.0
1734412549.503178,-38.57421875,6.8359375,-20.5078125,-37.59765625,0.0
1734412549.5070817,-22.94921875,15.13671875,-17.08984375,-49.8046875,0.0
1734412549.5109854,-15.625,11.23046875,-20.5078125,-64.94140625,0.0
1734412549.5148892,-27.83203125,-6.34765625,-26.85546875,-65.4296875,0.0
1734412549.5187929,-29.78515625,-12.20703125,-21.97265625,-36.62109375,0.0
1734412549.5226965,-30.76171875,4.8828125,-14.6484375,-27.83203125,0.0
1734412549.5266004,-27.83203125,20.99609375,-9.765625,-56.15234375,0.0
1734412549.530504,-14.16015625,0.0,-28.3203125,-51.26953125,0.0
1734412549.5344079,-19.04296875,0.48828125,-25.390625,-46.38671875,0.0
1734412549.5383115,-33.69140625,17.08984375,-10.7421875,-54.6875,0.0
1734412549.5422153,-33.203125,6.8359375,-20.5078125,-48.33984375,0.0
1734412549.546173,-36.1328125,10.25390625,-12.6953125,-51.7578125,0.0
1734412549.550077,-27.83203125,13.671875,-12.20703125,-60.05859375,0.0
1734412549.5539806,-12.6953125,10.7421875,-21.97265625,-53.7109375,0.0
1734412549.5578845,-33.69140625,5.859375,-23.92578125,-41.015625,0.0
1734412549.561788,-37.59765625,1.953125,-28.3203125,-56.640625,0.0
1734412549.565692,-25.390625,2.44140625,-28.80859375,-59.5703125,0.0
1734412549.5695956,-35.15625,7.8125,-18.5546875,-57.6171875,0.0
1734412549.5734994,-29.78515625,2.44140625,-22.94921875,-43.9453125,0.0
1734412549.577403,-28.80859375,-4.39453125,-34.1796875,-29.296875,0.0
1734412549.5813067,-39.0625,21.97265625,-13.671875,-47.8515625,0.0
1734412549.5852106,-35.15625,21.484375,-8.7890625,-45.41015625,0.0
1734412549.5891142,-21.97265625,7.32421875,-17.578125,-39.0625,0.0
1734412549.5930715,-9.765625,14.16015625,-12.20703125,-47.36328125,0.0
1734412549.596975,-25.87890625,15.625,-16.6015625,-41.50390625,0.0
1734412549.600879,-27.83203125,15.13671875,-20.5078125,-34.66796875,0.0
1734412549.6047826,-4.39453125,17.578125,-21.97265625,-23.4375,0.0
1734412549.6086862,-7.8125,19.04296875,-12.20703125,-21.484375,0.0
1734412549.61259,-23.92578125,14.6484375,-15.625,-44.43359375,0.0
1734412549.6164937,-41.015625,12.20703125,-21.97265625,-53.22265625,0.0
1734412549.6203976,-51.7578125,2.9296875,-31.73828125,-50.29296875,0.0
1734412549.6243012,-56.15234375,7.8125,-28.3203125,-54.19921875,0.0
1734412549.628205,-51.7578125,23.92578125,-4.8828125,-59.5703125,0.0
1734412549.6321087,-51.26953125,7.8125,-20.99609375,-61.03515625,0.0
1734412549.6360126,-56.640625,10.7421875,-24.4140625,-67.87109375,0.0
1734412549.639965,-62.5,18.5546875,-6.8359375,-72.265625,0.0
1734412549.6438687,-69.3359375,17.08984375,-6.34765625,-66.40625,0.0
1734412549.6477726,-67.87109375,14.6484375,-12.6953125,-63.4765625,0.0
1734412549.6516762,-71.77734375,11.23046875,-12.6953125,-77.1484375,0.0
1734412549.65558,-71.77734375,9.765625,-10.7421875,-78.125,0.0
1734412549.6594837,-60.05859375,9.765625,-11.23046875,-67.3828125,0.0
1734412549.6633875,-45.8984375,5.37109375,-22.4609375,-52.24609375,0.0
1734412549.6672912,-49.31640625,0.0,-27.83203125,-41.015625,0.0
1734412549.671195,-64.94140625,15.625,-11.23046875,-48.828125,0.0
1734412549.6750987,-49.8046875,15.13671875,-13.18359375,-50.78125,0.0
1734412549.6790023,-47.8515625,4.39453125,-28.80859375,-58.59375,0.0
1734412549.6829062,-61.03515625,10.25390625,-32.2265625,-75.68359375,0.0
1734412549.6868556,0.0,18.5546875,-25.87890625,-71.2890625,0.0
1734412549.6907594,0.0,13.671875,-27.83203125,-57.6171875,0.0
1734412549.694663,0.0,9.765625,-30.76171875,-49.8046875,0.0
1734412549.698567,0.0,14.16015625,-25.390625,-54.19921875,0.0
1734412549.7024705,0.0,9.765625,-23.4375,-56.640625,0.0
1734412549.7063744,0.0,5.37109375,-24.90234375,-50.78125,0.0
1734412549.710278,0.0,-8.30078125,-40.0390625,-40.0390625,0.0
1734412549.714182,0.0,-10.25390625,-40.0390625,-37.59765625,0.0
1734412549.7180855,0.0,15.625,-18.06640625,-50.78125,0.0
1734412549.7219894,0.0,23.4375,-17.578125,-45.8984375,0.0
1734412549.725893,0.0,15.13671875,-19.04296875,-44.43359375,0.0
1734412549.729797,0.0,17.08984375,-12.20703125,-57.12890625,0.0
1734412549.7337432,-29.78515625,20.99609375,-12.20703125,-64.94140625,0.0
1734412549.7376468,-27.83203125,14.16015625,-18.5546875,-53.22265625,0.0
1734412549.7415507,-40.0390625,12.6953125,-14.6484375,-41.9921875,0.0
1734412549.7454543,-41.015625,20.01953125,-7.32421875,-57.6171875,0.0
1734412549.7493582,-24.4140625,16.11328125,-9.27734375,-67.87109375,0.0
1734412549.7532618,-24.4140625,3.41796875,-22.4609375,-48.33984375,0.0
1734412549.7571657,-34.66796875,0.9765625,-28.3203125,-35.15625,0.0
1734412549.7610693,-41.015625,20.99609375,-10.7421875,-58.10546875,0.0
1734412549.7649732,-36.1328125,27.34375,-5.37109375,-72.75390625,0.0
1734412549.7688768,-40.52734375,16.11328125,-10.7421875,-62.01171875,0.0
1734412549.7727804,-39.0625,13.671875,-9.765625,-56.15234375,0.0
1734412549.7766843,-34.1796875,21.484375,-10.7421875,-60.546875,0.0
1734412549.7806525,-40.0390625,22.94921875,-14.6484375,-47.8515625,0.0
1734412549.7845564,-38.57421875,14.16015625,-19.53125,-25.87890625,0.0
1734412549.78846,-38.0859375,17.08984375,-13.671875,-41.50390625,0.0
1734412549.792364,-27.83203125,20.99609375,-16.11328125,-72.75390625,0.0
1734412549.7962675,-32.71484375,16.6015625,-25.390625,-59.08203125,0.0
1734412549.8001714,-44.921875,4.8828125,-26.85546875,-40.0390625,0.0
1734412549.804075,-40.0390625,3.41796875,-25.87890625,-56.15234375,0.0
1734412549.8079789,-15.13671875,17.08984375,-18.5546875,-65.4296875,0.0
1734412549.8118825,-10.7421875,17.578125,-15.13671875,-55.6640625,0.0
1734412549.8157864,-17.578125,4.39453125,-28.80859375,-41.9921875,0.0
1734412549.8196902,-32.2265625,0.48828125,-26.3671875,-38.57421875,0.0
1734412549.8235939,-45.41015625,14.6484375,-13.671875,-46.875,0.0
1734412549.8275604,-34.66796875,14.6484375,-20.99609375,-55.17578125,0.0
1734412549.8314643,-25.390625,5.859375,-22.94921875,-52.734375,0.0
1734412549.835368,-27.83203125,12.6953125,-12.6953125,-41.015625,0.0
1734412549.8392718,-38.57421875,19.53125,-4.8828125,-57.6171875,0.0
1734412549.8431754,-32.2265625,13.671875,-17.578125,-70.3125,0.0
1734412549.8470793,-12.20703125,-0.48828125,-26.3671875,-57.12890625,0.0
1734412549.850983,-9.27734375,9.765625,-13.18359375,-65.4296875,0.0
1734412549.8548868,-31.73828125,20.99609375,-9.765625,-78.61328125,0.0
1734412549.8587904,-47.8515625,3.90625,-22.4609375,-62.01171875,0.0
1734412549.8626943,-38.57421875,-1.953125,-24.90234375,-50.78125,0.0
1734412549.866598,-26.3671875,18.5546875,-9.765625,-61.03515625,0.0
1734412549.8705018,-16.6015625,18.06640625,-15.625,-65.91796875,0.0
1734412549.8744648,-11.23046875,5.37109375,-25.87890625,-54.6875,0.0
1734412549.8783686,-18.06640625,8.7890625,-30.76171875,-54.6875,0.0
1734412549.8822722,-36.62109375,11.71875,-20.5078125,-58.59375,0.0
1734412549.886176,-28.80859375,7.32421875,-15.13671875,-46.38671875,0.0
1734412549.8900797,-13.18359375,3.41796875,-18.06640625,-38.57421875,0.0
1734412549.8939836,-16.6015625,0.9765625,-20.5078125,-34.66796875,0.0
1734412549.8978872,-26.85546875,1.953125,-20.99609375,-46.38671875,0.0
1734412549.901791,-21.484375,9.27734375,-15.625,-52.24609375,0.0
1734412549.9056947,-18.5546875,-2.9296875,-31.73828125,-36.1328125,0.0
1734412549.9095986,-20.99609375,-1.953125,-28.80859375,-41.9921875,0.0
1734412549.9135022,-10.7421875,7.32421875,-17.08984375,-58.59375,0.0
1734412549.917406,-11.71875,1.953125,-21.484375,-41.50390625,0.0
1734412549.9213638,-22.94921875,8.30078125,0.0,0.0,0.0
1734412549.9252677,-21.97265625,13.18359375,0.0,0.0,0.0
1734412549.9291713,-11.23046875,13.18359375,0.0,0.0,0.0
1734412549.9330752,-8.7890625,4.39453125,0.0,0.0,0.0
1734412549.936979,-18.5546875,0.9765625,0.0,0.0,0.0
1734412549.9408827,-20.01953125,1.46484375,0.0,0.0,0.0
1734412549.9447865,-22.94921875,13.671875,0.0,0.0,0.0
1734412549.9486902,-16.6015625,13.18359375,0.0,0.0,0.0
1734412549.952594,-3.41796875,-3.41796875,0.0,0.0,0.0
1734412549.9564977,-16.11328125,6.8359375,0.0,0.0,0.0
1734412549.9604015,-33.69140625,10.25390625,0.0,0.0,0.0
1734412549.9643052,-49.31640625,4.39453125,0.0,0.0,0.0
1734412549.9681907,0.0,4.8828125,-24.90234375,-30.76171875,0.0
1734412549.9720945,0.0,15.13671875,-17.578125,-37.59765625,0.0
1734412549.9759982,0.0,21.484375,-19.04296875,-40.52734375,0.0
1734412549.979902,0.0,20.01953125,-18.06640625,-42.48046875,0.0
1734412549.9838057,0.0,15.625,-12.6953125,-37.109375,0.0
1734412549.9877095,0.0,9.765625,-15.13671875,-35.15625,0.0
1734412549.9916134,0.0,9.765625,-18.06640625,-52.734375,0.0
1734412549.995517,0.0,-0.9765625,-29.78515625,-50.78125,0.0
1734412549.999421,0.0,7.8125,-19.04296875,-51.26953125,0.0
1734412550.0033245,0.0,29.296875,-4.39453125,-73.2421875,0.0
1734412550.0072284,0.0,15.625,-11.23046875,-73.73046875,0.0
1734412550.011132,0.0,9.27734375,-8.30078125,-49.8046875,0.0
1734412550.0150852,-17.578125,18.06640625,-8.30078125,-46.875,0.0
1734412550.0189888,-28.80859375,22.4609375,-9.27734375,-62.01171875,0.0
1734412550.0228927,-30.76171875,16.6015625,-16.11328125,-47.8515625,0.0
1734412550.0267963,-37.109375,20.99609375,-17.578125,-40.0390625,0.0
1734412550.0307002,-33.203125,30.2734375,-9.27734375,-43.45703125,0.0
1734412550.0346038,-16.6015625,24.4140625,-10.7421875,-55.17578125,0.0
1734412550.0385077,-11.71875,14.6484375,-18.5546875,-78.61328125,0.0
1734412550.0424116,-18.5546875,8.30078125,-21.97265625,-83.49609375,0.0
1734412550.0463152,-29.296875,21.97265625,-8.7890625,-89.84375,0.0
1734412550.050219,-38.57421875,25.87890625,-2.9296875,-88.8671875,0.0
1734412550.0541227,-57.12890625,9.27734375,-17.578125,-75.1953125,0.0
1734412550.0580266,-64.453125,10.25390625,-13.18359375,-61.5234375,0.0
1734412550.0619743,-63.4765625,21.97265625,5.37109375,-54.19921875,0.0
1734412550.065878,-61.03515625,16.6015625,1.46484375,-55.17578125,0.0
1734412550.0697818,-47.36328125,3.41796875,-6.8359375,-48.33984375,0.0
1734412550.0736854,-34.66796875,6.8359375,-12.6953125,-57.12890625,0.0
1734412550.0775893,-28.3203125,10.7421875,-17.578125,-60.546875,0.0
1734412550.0814931,-40.0390625,-4.39453125,-17.578125,-51.7578125,0.0
1734412550.0853968,-41.015625,-12.6953125,-26.3671875,-48.828125,0.0
1734412550.0893006,-38.57421875,0.9765625,-18.5546875,-61.5234375,0.0
1734412550.0932043,-45.41015625,14.6484375,-5.37109375,-81.54296875,0.0
1734412550.0971081,-32.2265625,11.71875,-11.71875,-70.80078125,0.0
1734412550.1010118,-29.78515625,1.46484375,-14.16015625,-45.8984375,0.0
1734412550.1049156,-37.109375,10.25390625,-6.8359375,-47.8515625,0.0
1734412550.1088612,-30.2734375,21.97265625,-3.90625,-62.01171875,0.0
1734412550.112765,-19.53125,10.25390625,-15.13671875,-63.96484375,0.0
1734412550.1166687,-25.87890625,5.859375,-18.06640625,-66.89453125,0.0
1734412550.1205726,-50.29296875,14.6484375,-3.90625,-62.98828125,0.0
1734412550.1244762,-55.6640625,20.01953125,3.90625,-51.26953125,0.0
1734412550.12838,-30.76171875,11.23046875,-9.765625,-50.78125,0.0
1734412550.132284,-10.7421875,5.859375,-15.625,-62.5,0.0
1734412550.1361876,-25.390625,20.01953125,0.0,-75.68359375,0.0
1734412550.1400914,-60.546875,25.87890625,0.48828125,-78.61328125,0.0
1734412550.143995,-43.9453125,9.27734375,-15.13671875,-54.6875,0.0
1734412550.147899,-38.57421875,6.34765625,-12.20703125,-46.875,0.0
1734412550.1518025,-41.9921875,20.5078125,-2.44140625,-78.61328125,0.0
1734412550.1557436,-29.296875,7.8125,-6.34765625,-84.9609375,0.0
1734412550.1596472,-39.0625,-5.859375,-8.7890625,-61.03515625,0.0
1734412550.163551,-39.55078125,2.44140625,-6.34765625,-42.48046875,0.0
1734412550.1674547,-41.50390625,8.7890625,-3.90625,-45.8984375,0.0
1734412550.1713586,-20.5078125,3.41796875,-7.8125,-63.96484375,0.0
1734412550.1752625,17.578125,-7.32421875,-19.04296875,-57.12890625,0.0
1734412550.179166,-0.9765625,-1.46484375,-17.08984375,-35.15625,0.0
1734412550.18307,-41.015625,12.20703125,-11.71875,-44.43359375,0.0
1734412550.1869736,-43.45703125,8.30078125,-17.578125,-52.24609375,0.0
1734412550.1908774,-19.53125,1.46484375,-27.83203125,-46.38671875,0.0
1734412550.194781,-9.765625,6.8359375,-27.34375,-58.59375,0.0
1734412550.198685,-23.4375,20.99609375,-12.6953125,-62.5,0.0
1734412550.2026532,-27.83203125,20.99609375,-10.25390625,-41.9921875,0.0
1734412550.2065568,-15.625,14.16015625,-11.71875,-36.62109375,0.0
1734412550.2104607,-18.5546875,15.625,-6.34765625,-53.7109375,0.0
1734412550.2143643,-24.90234375,10.25390625,-10.7421875,-55.6640625,0.0
1734412550.2182682,-13.18359375,-0.48828125,-17.578125,-62.01171875,0.0
1734412550.222172,-18.06640625,-12.20703125,-24.4140625,-67.87109375,0.0
1734412550.2260756,-48.33984375,-4.39453125,-20.01953125,-74.70703125,0.0
1734412550.2299795,-55.6640625,14.16015625,-13.671875,-81.0546875,0.0
1734412550.2338831,-45.41015625,4.39453125,-29.78515625,-76.66015625,0.0
1734412550.237787,-44.43359375,-4.8828125,-36.1328125,-79.58984375,0.0
1734412550.2416906,-62.5,13.671875,-17.08984375,-87.890625,0.0
1734412550.2455945,-48.828125,7.32421875,-20.5078125,-84.9609375,0.0
1734412550.249557,0.0,-6.34765625,-24.90234375,0.0,0.0
1734412550.253461,0.0,-5.859375,-22.4609375,0.0,0.0
1734412550.2573647,0.0,-2.9296875,-22.4609375,0.0,0.0
1734412550.2612684,0.0,0.48828125,-20.5078125,0.0,0.0
1734412550.2651722,0.0,-3.41796875,-25.87890625,0.0,0.0
1734412550.2690759,0.0,-10.7421875,-27.83203125,0.0,0.0
1734412550.2729797,0.0,-0.48828125,-17.578125,0.0,0.0
1734412550.2768836,0.0,13.18359375,-10.7421875,0.0,0.0
1734412550.2807872,0.0,-9.27734375,-34.1796875,0.0,0.0
1734412550.284691,0.0,-9.765625,-33.69140625,0.0,0.0
1734412550.2885947,0.0,6.8359375,-17.578125,0.0,0.0
1734412550.2924986,0.0,-2.44140625,-30.2734375,0.0,0.0
1734412550.2963915,-39.55078125,4.39453125,-23.92578125,-99.609375,0.0
1734412550.3002954,-60.546875,13.18359375,-14.6484375,-110.3515625,0.0
1734412550.3041992,-80.078125,12.20703125,-22.4609375,-118.1640625,0.0
1734412550.3081028,-77.63671875,10.7421875,-27.34375,-123.046875,0.0
1734412550.3120067,-73.73046875,8.30078125,-25.87890625,-117.67578125,0.0
1734412550.3159103,-75.68359375,1.953125,-28.3203125,-127.44140625,0.0
1734412550.3198142,-73.2421875,9.765625,-15.13671875,-133.7890625,0.0
1734412550.323718,-78.61328125,8.7890625,-15.625,-120.1171875,0.0
1734412550.3276217,-73.73046875,0.0,-26.85546875,-96.6796875,0.0
1734412550.3315256,-74.70703125,20.01953125,-8.7890625,-94.23828125,0.0
1734412550.3354292,-66.89453125,19.04296875,-16.11328125,-111.81640625,0.0
1734412550.339333,-58.59375,2.9296875,-26.85546875,-117.67578125,0.0
1734412550.3432214,-57.12890625,4.8828125,-19.04296875,-97.16796875,0.0
1734412550.3471253,-59.5703125,12.20703125,-16.6015625,-79.1015625,0.0
1734412550.3510292,-67.87109375,6.8359375,-15.13671875,-102.5390625,0.0
1734412550.3549328,-61.03515625,1.953125,-20.99609375,-114.74609375,0.0
1734412550.3588367,-55.6640625,0.9765625,-21.484375,-108.88671875,0.0
1734412550.3627403,-55.6640625,-3.41796875,-18.06640625,-98.14453125,0.0
1734412550.3666441,-56.640625,-3.90625,-20.01953125,-103.02734375,0.0
1734412550.3705478,-41.9921875,-18.06640625,-32.71484375,-101.5625,0.0
1734412550.3744516,-26.85546875,-10.7421875,-29.78515625,-89.84375,0.0
1734412550.3783555,-38.57421875,6.34765625,-13.18359375,-102.5390625,0.0
1734412550.3822591,-54.19921875,-3.41796875,-20.01953125,-90.33203125,0.0
1734412550.386163,-59.5703125,-3.41796875,-18.06640625,-74.70703125,0.0
1734412550.390113,-15.13671875,4.8828125,-10.25390625,-73.2421875,0.0
1734412550.394017,-14.6484375,3.41796875,-16.11328125,-73.2421875,0.0
1734412550.3979206,-24.4140625,-10.25390625,-27.34375,-72.265625,0.0
1734412550.4018245,-20.01953125,-11.71875,-22.94921875,-66.40625,0.0
1734412550.405728,-16.6015625,-4.8828125,-23.4375,-72.75390625,0.0
1734412550.409632,-24.4140625,-9.27734375,-29.78515625,-83.0078125,0.0
1734412550.4135358,-24.90234375,-14.6484375,-31.25,-67.3828125,0.0
1734412550.4174395,-19.53125,-16.11328125,-30.76171875,-54.6875,0.0
1734412550.4213433,-19.04296875,-0.48828125,-9.27734375,-72.265625,0.0
1734412550.425247,-26.85546875,-0.48828125,-11.23046875,-64.94140625,0.0
1734412550.4291508,-23.92578125,-14.16015625,-25.390625,-66.89453125,0.0
1734412550.4330547,-27.34375,-8.7890625,-24.4140625,-84.47265625,0.0
1734412550.4370005,-38.57421875,1.46484375,-15.13671875,-90.8203125,0.0
1734412550.4409041,-26.85546875,1.46484375,-14.16015625,-83.984375,0.0
1734412550.444808,-14.6484375,2.9296875,-21.97265625,-65.4296875,0.0
1734412550.4487116,-22.4609375,8.30078125,-13.671875,-80.56640625,0.0
1734412550.4526155,-27.83203125,7.32421875,-12.20703125,-94.23828125,0.0
1734412550.4565194,-21.97265625,-3.41796875,-20.5078125,-84.47265625,0.0
1734412550.460423,-14.6484375,-22.94921875,-37.59765625,-75.1953125,0.0
1734412550.4643269,-30.76171875,-14.6484375,-32.71484375,-73.2421875,0.0
1734412550.4682305,-45.8984375,10.25390625,-9.27734375,-97.16796875,0.0
1734412550.4721344,-28.3203125,3.41796875,-20.5078125,-94.7265625,0.0
1734412550.4760382,-2.9296875,-1.953125,-24.4140625,-79.58984375,0.0
1734412550.4799418,-15.625,3.90625,-12.6953125,-70.3125,0.0
1734412550.48391,-8.7890625,3.41796875,-12.20703125,-63.4765625,0.0
1734412550.4878137,15.625,-0.9765625,-17.08984375,-62.98828125,0.0
1734412550.4917176,-0.48828125,6.8359375,-8.7890625,-72.265625,0.0
1734412550.4956214,-9.765625,9.765625,-6.34765625,-76.171875,0.0
1734412550.499525,-8.30078125,5.859375,-12.6953125,-50.29296875,0.0
1734412550.503429,6.8359375,-6.8359375,-23.4375,-19.53125,0.0
1734412550.5073326,6.8359375,-7.32421875,-20.99609375,-12.6953125,0.0
1734412550.5112364,-3.41796875,6.8359375,-5.37109375,-42.96875,0.0
1734412550.5151403,0.0,4.8828125,-4.8828125,-42.48046875,0.0
1734412550.519044,6.34765625,-7.32421875,-16.11328125,-14.16015625,0.0
1734412550.5229478,11.23046875,-2.9296875,-11.23046875,-16.11328125,0.0
1734412550.5268514,11.71875,13.18359375,2.9296875,-21.97265625,0.0
1734412550.530791,8.30078125,3.90625,0.48828125,-22.4609375,0.0
1734412550.5346947,6.8359375,-3.90625,-11.71875,-21.484375,0.0
1734412550.5385985,-3.41796875,4.39453125,-4.8828125,-21.97265625,0.0
1734412550.5425024,-7.32421875,5.37109375,1.46484375,-11.71875,0.0
1734412550.546406,1.953125,0.48828125,-9.765625,-18.5546875,0.0
1734412550.55031,6.8359375,0.48828125,-16.11328125,-33.69140625,0.0
1734412550.5542138,2.9296875,3.90625,-13.671875,-48.828125,0.0
1734412550.5581174,-9.27734375,11.23046875,-6.34765625,-46.875,0.0
1734412550.5620213,-6.34765625,10.25390625,-4.8828125,-28.3203125,0.0
1734412550.565925,21.484375,-5.859375,-23.4375,-16.11328125,0.0
1734412550.5698287,28.80859375,-7.32421875,-27.34375,-15.625,0.0
1734412550.5737326,10.7421875,12.6953125,-6.34765625,-25.390625,0.0
1734412550.577695,8.7890625,12.20703125,-11.23046875,-21.97265625,0.0
1734412550.5815988,3.41796875,2.9296875,-21.97265625,-23.92578125,0.0
1734412550.5855026,2.44140625,9.765625,-13.18359375,-15.13671875,0.0
1734412550.5894063,9.27734375,18.5546875,-3.41796875,-18.06640625,0.0
1734412550.59331,16.6015625,12.6953125,-8.7890625,-31.73828125,0.0
1734412550.5972137,4.8828125,4.39453125,-18.06640625,-29.78515625,0.0
1734412550.6011176,-11.23046875,7.32421875,-14.6484375,-26.85546875,0.0
1734412550.6050215,-13.671875,19.04296875,-7.32421875,-25.390625,0.0
1734412550.608925,-9.765625,13.18359375,-16.11328125,-12.6953125,0.0
1734412550.612829,2.44140625,8.30078125,-27.83203125,-14.16015625,0.0
1734412550.6167328,-7.8125,23.4375,-12.20703125,-32.71484375,0.0
1734412550.6206365,-7.32421875,20.01953125,-10.25390625,-48.828125,0.0
1734412550.624594,-6.8359375,20.99609375,-18.06640625,-46.38671875,0.0
1734412550.6284978,-18.5546875,21.97265625,-12.6953125,-41.9921875,0.0
1734412550.6324017,-23.92578125,21.484375,-9.27734375,-62.01171875,0.0
1734412550.6363053,-11.71875,19.04296875,-10.7421875,-66.40625,0.0
1734412550.6402092,6.34765625,18.5546875,-14.6484375,-52.24609375,0.0
1734412550.644113,-2.9296875,13.18359375,-23.4375,-57.6171875,0.0
1734412550.6480167,-7.32421875,14.6484375,-20.5078125,-89.84375,0.0
1734412550.6519206,-16.6015625,17.578125,-15.13671875,-101.07421875,0.0
1734412550.6558242,-26.3671875,-5.859375,-34.66796875,-76.171875,0.0
1734412550.659728,-32.2265625,-8.7890625,-33.69140625,-86.9140625,0.0
1734412550.663632,-37.59765625,8.7890625,-22.94921875,-114.2578125,0.0
1734412550.6675355,-36.1328125,10.7421875,-23.92578125,-105.95703125,0.0
1734412550.6714902,-36.62109375,6.8359375,-22.4609375,-107.91015625,0.0
1734412550.6753938,-34.1796875,10.25390625,-26.85546875,-114.74609375,0.0
1734412550.6792977,-33.203125,13.18359375,-24.4140625,-107.91015625,0.0
1734412550.6832016,-34.66796875,13.18359375,-23.92578125,-77.63671875,0.0
1734412550.6871052,-41.015625,8.30078125,-21.484375,-68.359375,0.0
1734412550.691009,-5.37109375,-0.9765625,-19.04296875,-88.8671875,0.0
1734412550.694913,15.13671875,8.30078125,-18.06640625,-89.35546875,0.0
1734412550.6988165,-5.859375,6.8359375,-20.5078125,-76.171875,0.0
1734412550.7027204,-1.953125,1.953125,-18.5546875,-62.01171875,0.0
1734412550.7066243,-13.18359375,20.99609375,-9.27734375,-65.4296875,0.0
1734412550.710528,-19.04296875,20.01953125,-5.859375,-58.10546875,0.0
1734412550.7144318,-20.01953125,6.34765625,-7.8125,-50.29296875,0.0
1734412550.7183828,-12.6953125,0.48828125,-10.7421875,-53.22265625,0.0
1734412550.7222865,-0.9765625,2.44140625,-10.25390625,-52.24609375,0.0
1734412550.7261903,-7.8125,6.8359375,-16.6015625,-51.26953125,0.0
1734412550.7300942,-6.34765625,8.30078125,-21.97265625,-58.10546875,0.0
1734412550.7339978,3.41796875,14.16015625,-19.04296875,-73.2421875,0.0
1734412550.7379017,10.7421875,10.25390625,-20.5078125,-78.125,0.0
1734412550.7418056,17.08984375,13.671875,-12.6953125,-58.59375,0.0
1734412550.7457092,20.99609375,10.25390625,-24.90234375,-36.62109375,0.0
1734412550.749613,7.32421875,13.671875,-18.5546875,-48.828125,0.0
1734412550.753517,-13.671875,29.78515625,4.8828125,-60.05859375,0.0
1734412550.7574205,-19.04296875,14.6484375,-9.27734375,-44.43359375,0.0
1734412550.7613244,-42.96875,9.765625,-10.25390625,-38.57421875,0.0
1734412550.765274,-53.22265625,15.13671875,-7.8125,-39.0625,0.0
1734412550.7691777,-21.97265625,19.53125,-8.30078125,-51.26953125,0.0
1734412550.7730815,-11.23046875,16.11328125,-11.23046875,-43.9453125,0.0
1734412550.7769854,-20.01953125,9.765625,-20.5078125,-44.43359375,0.0
1734412550.780889,-14.16015625,2.9296875,-21.97265625,-54.6875,0.0
1734412550.784793,-10.25390625,0.9765625,-23.4375,-52.24609375,0.0
1734412550.7886968,-1.46484375,3.41796875,-24.4140625,-47.36328125,0.0
1734412550.7926004,-15.625,0.48828125,-26.85546875,-51.7578125,0.0
1734412550.7965043,-26.85546875,8.30078125,-21.97265625,-73.73046875,0.0
1734412550.8004081,-33.69140625,10.25390625,-23.4375,-91.30859375,0.0
1734412550.8043118,-32.2265625,4.8828125,-25.87890625,-83.49609375,0.0
1734412550.8082156,-20.99609375,5.859375,-22.4609375,-77.1484375,0.0
1734412550.812164,-13.671875,13.18359375,-22.4609375,-105.95703125,0.0
1734412550.8160677,-23.92578125,8.7890625,-22.94921875,-105.46875,0.0
1734412550.8199716,-32.2265625,0.0,-27.34375,-87.890625,0.0
1734412550.8238754,-31.25,3.90625,-21.97265625,-95.21484375,0.0
1734412550.827779,-35.15625,3.90625,-17.08984375,-111.328125,0.0
1734412550.831683,-37.59765625,2.44140625,-19.53125,-124.51171875,0.0
1734412550.8355868,-22.94921875,-8.30078125,-37.59765625,-112.3046875,0.0
1734412550.8394907,-27.34375,-7.32421875,-38.0859375,-111.81640625,0.0
1734412550.8433943,-57.6171875,21.484375,-8.30078125,-119.62890625,0.0
1734412550.8472981,-56.640625,15.625,-4.8828125,-114.74609375,0.0
1734412550.851202,-37.109375,0.48828125,-16.6015625,-130.37109375,0.0
1734412550.8551056,-34.1796875,5.859375,-13.671875,-132.32421875,0.0
1734412550.859051,-39.0625,13.18359375,-5.859375,-119.62890625,0.0
1734412550.8629549,-41.50390625,3.90625,-13.671875,-107.91015625,0.0
1734412550.8668587,-44.921875,-1.953125,-19.53125,-104.98046875,0.0
1734412550.8707623,-35.64453125,6.8359375,-14.16015625,-113.28125,0.0
1734412550.8746662,-28.80859375,11.23046875,-12.6953125,-107.91015625,0.0
1734412550.87857,-36.1328125,-0.9765625,-20.01953125,-86.9140625,0.0
1734412550.8824737,-30.2734375,-3.90625,-15.13671875,-58.10546875,0.0
1734412550.8863776,-21.97265625,10.7421875,0.0,-46.38671875,0.0
1734412550.8902814,-22.4609375,17.578125,0.0,-52.734375,0.0
1734412550.894185,-18.06640625,7.8125,-15.13671875,-60.05859375,0.0
1734412550.898089,-18.06640625,4.8828125,-21.97265625,-61.5234375,0.0
1734412550.9019928,-14.6484375,22.94921875,-11.23046875,-47.36328125,0.0
1734412550.9059594,0.0,15.625,0.0,-27.34375,0.0
1734412550.9098632,0.0,5.859375,0.0,-28.3203125,0.0
1734412550.9137669,0.0,7.8125,0.0,-41.015625,0.0
1734412550.9176707,0.0,10.7421875,0.0,-43.45703125,0.0
1734412550.9215746,0.0,9.27734375,0.0,-17.08984375,0.0
1734412550.9254785,0.0,-0.48828125,0.0,-1.953125,0.0
1734412550.929382,0.0,14.6484375,0.0,-27.83203125,0.0
1734412550.933286,0.0,31.25,0.0,-48.33984375,0.0
1734412550.9371898,0.0,24.4140625,0.0,-41.9921875,0.0
1734412550.9410934,0.0,12.6953125,0.0,-33.69140625,0.0
1734412550.9449973,0.0,15.13671875,0.0,-20.5078125,0.0
1734412550.9489012,0.0,21.97265625,0.0,-14.6484375,0.0
1734412550.9527955,-18.5546875,20.01953125,-20.99609375,0.0,0.0
1734412550.9566994,-34.1796875,14.6484375,-24.4140625,0.0,0.0
1734412550.960603,-43.9453125,17.08984375,-21.484375,0.0,0.0
1734412550.9645069,-44.43359375,23.4375,-17.578125,0.0,0.0
1734412550.9684107,-25.87890625,20.5078125,-17.578125,0.0,0.0
1734412550.9723144,-11.71875,16.11328125,-22.4609375,0.0,0.0
1734412550.9762182,-20.5078125,15.13671875,-20.5078125,0.0,0.0
1734412550.980122,-32.71484375,9.27734375,-9.27734375,0.0,0.0
1734412550.9840257,-27.34375,-1.46484375,-21.484375,0.0,0.0
1734412550.9879296,-15.13671875,3.41796875,-31.25,0.0,0.0
1734412550.9918334,-24.4140625,13.18359375,-10.7421875,0.0,0.0
1734412550.9957373,-34.66796875,2.44140625,-12.20703125,0.0,0.0
1734412550.999631,-26.85546875,-6.34765625,0.0,-23.4375,0.0
1734412551.0035346,-17.578125,-2.44140625,0.0,-19.04296875,0.0
1734412551.0074384,-23.4375,6.8359375,0.0,-11.23046875,0.0
1734412551.0113423,-35.15625,1.46484375,0.0,-15.625,0.0
1734412551.0152462,-32.71484375,-10.25390625,0.0,-7.32421875,0.0
1734412551.0191498,-26.85546875,-6.8359375,0.0,-8.7890625,0.0
1734412551.0230536,-25.87890625,1.953125,0.0,-15.625,0.0
1734412551.0269575,-34.1796875,10.7421875,0.0,-13.18359375,0.0
1734412551.0308611,-32.2265625,-10.25390625,0.0,-2.44140625,0.0
1734412551.034765,-18.06640625,-16.11328125,0.0,9.765625,0.0
1734412551.0386689,-15.625,7.32421875,0.0,2.44140625,0.0
1734412551.0425725,-9.27734375,1.46484375,0.0,5.37109375,0.0
1734412551.046463,-29.296875,-6.8359375,-21.484375,7.32421875,0.0
1734412551.0503666,-24.4140625,2.44140625,-19.04296875,5.37109375,0.0
1734412551.0542705,-29.78515625,2.9296875,-13.18359375,8.7890625,0.0
1734412551.0581744,-23.92578125,-2.44140625,-11.71875,-2.44140625,0.0
1734412551.062078,-33.69140625,-3.90625,-21.484375,-1.953125,0.0
1734412551.0659819,-40.0390625,-3.41796875,-18.5546875,5.37109375,0.0
1734412551.0698857,-30.76171875,-1.953125,-14.16015625,-3.90625,0.0
1734412551.0737896,-24.90234375,-13.671875,-15.13671875,2.44140625,0.0
1734412551.0776932,-20.99609375,-16.11328125,-31.73828125,21.484375,0.0
1734412551.081597,-33.203125,5.37109375,-30.76171875,12.20703125,0.0
1734412551.085501,-47.36328125,9.27734375,-8.30078125,2.9296875,0.0
1734412551.0894046,-42.96875,-3.41796875,-13.18359375,13.671875,0.0
1734412551.0932925,0.0,-3.41796875,-4.39453125,20.99609375,0.0
1734412551.0971963,0.0,-1.46484375,1.953125,14.16015625,0.0
1734412551.1011,0.0,-8.30078125,8.7890625,0.48828125,0.0
1734412551.1050038,0.0,-11.71875,2.44140625,2.44140625,0.0
1734412551.1089077,0.0,-9.765625,-2.44140625,4.8828125,0.0
1734412551.1128113,0.0,-15.625,-4.39453125,1.953125,0.0
1734412551.1167152,0.0,-20.99609375,-6.34765625,0.0,0.0
1734412551.120619,0.0,-30.2734375,-20.5078125,4.39453125,0.0
1734412551.1245227,0.0,-20.01953125,-14.16015625,6.8359375,0.0
1734412551.1284266,0.0,5.859375,10.7421875,7.32421875,0.0
1734412551.1323304,0.0,-0.9765625,6.34765625,6.8359375,0.0
1734412551.1362343,0.0,-9.765625,-5.859375,13.671875,0.0
1734412551.1401165,-18.06640625,-3.41796875,0.0,10.25390625,0.0
1734412551.1440203,-26.3671875,3.41796875,0.0,5.37109375,0.0
1734412551.1479242,-36.1328125,0.48828125,0.0,21.97265625,0.0
1734412551.1518278,-14.6484375,3.41796875,0.0,15.13671875,0.0
1734412551.1557317,-9.27734375,7.32421875,0.0,-6.34765625,0.0
1734412551.1596355,-9.765625,2.44140625,0.0,-7.8125,0.0
1734412551.1635392,-11.23046875,-3.90625,0.0,-6.8359375,0.0
