timestamps,TP9,AF7,AF8,TP10,Right AUX
1734420829.533833,333.984375,-22.94921875,-360.3515625,-224.609375,0.0
1734420829.5377388,-0.48828125,-34.1796875,106.4453125,-14.16015625,0.0
1734420829.5416443,-471.19140625,-33.69140625,352.5390625,234.375,0.0
1734420829.54555,-256.8359375,-28.3203125,107.91015625,133.7890625,0.0
1734420829.5494556,250.48828125,-33.69140625,-281.73828125,-168.9453125,0.0
1734420829.5533612,331.54296875,-33.69140625,-364.2578125,-259.27734375,0.0
1734420829.557267,50.78125,-26.85546875,112.79296875,-70.80078125,0.0
1734420829.5611725,-430.6640625,-24.90234375,113.28125,173.33984375,0.0
1734420829.5650783,-331.54296875,-30.76171875,-31.25,159.1796875,0.0
1734420829.5689838,189.94140625,-27.83203125,5.859375,-106.4453125,0.0
1734420829.5728893,345.703125,-26.85546875,-267.578125,-257.8125,0.0
1734420829.5768037,0.0,-28.80859375,-153.3203125,-96.6796875,0.0
1734420829.5807095,0.0,-25.87890625,119.140625,162.109375,0.0
1734420829.584615,0.0,-26.85546875,244.140625,180.6640625,0.0
1734420829.5885208,0.0,-24.4140625,-22.4609375,-69.82421875,0.0
1734420829.5924263,0.0,-25.87890625,-348.6328125,-227.05078125,0.0
1734420829.5963318,0.0,-34.1796875,-239.74609375,-123.046875,0.0
1734420829.6002376,0.0,-36.62109375,167.96875,119.62890625,0.0
1734420829.6041431,0.0,-35.64453125,280.76171875,196.77734375,0.0
1734420829.608049,0.0,-41.9921875,-211.42578125,-33.203125,0.0
1734420829.6119545,0.0,-41.015625,-416.9921875,-236.328125,0.0
1734420829.61586,0.0,-26.3671875,-53.22265625,-169.43359375,0.0
1734420829.6197658,0.0,-28.3203125,214.84375,104.00390625,0.0
1734420829.6236794,-487.79296875,-37.109375,238.76953125,198.73046875,0.0
1734420829.6275852,-5.859375,-31.25,71.2890625,-29.296875,0.0
1734420829.6314907,313.4765625,-30.2734375,-183.59375,-236.81640625,0.0
1734420829.6353965,238.28125,-32.2265625,-315.4296875,-208.984375,0.0
1734420829.639302,-216.796875,-34.66796875,-4.39453125,56.640625,0.0
1734420829.6432076,-520.99609375,-33.203125,247.55859375,220.21484375,0.0
1734420829.6471133,-78.61328125,-26.3671875,26.85546875,29.78515625,0.0
1734420829.6510189,297.8515625,-27.34375,-412.109375,-209.47265625,0.0
1734420829.6549246,264.6484375,-28.80859375,-492.67578125,-206.0546875,0.0
1734420829.6588302,-153.3203125,-20.99609375,148.4375,30.2734375,0.0
1734420829.662736,-510.7421875,-23.4375,330.078125,195.80078125,0.0
1734420829.6666415,-140.625,-29.78515625,83.984375,51.7578125,0.0
1734420829.6705549,275.390625,-27.34375,-179.6875,-206.0546875,0.0
1734420829.6744604,298.33984375,-27.83203125,-364.74609375,-255.37109375,0.0
1734420829.6783662,-67.87109375,-27.34375,14.6484375,-18.5546875,0.0
1734420829.6822717,-498.046875,-29.296875,294.921875,189.453125,0.0
1734420829.6861773,-213.8671875,-33.203125,116.2109375,82.03125,0.0
1734420829.690083,253.90625,-35.15625,-219.7265625,-160.64453125,0.0
1734420829.6939886,310.05859375,-35.64453125,-386.23046875,-251.953125,0.0
1734420829.6978943,-35.64453125,-34.1796875,-253.41796875,-59.5703125,0.0
1734420829.7017999,-506.34765625,-35.64453125,74.70703125,170.41015625,0.0
1734420829.7057054,-295.41015625,-42.96875,241.69921875,102.05078125,0.0
1734420829.7096112,209.9609375,-46.38671875,-150.87890625,-147.4609375,0.0
1734420829.7135167,316.89453125,-50.29296875,-392.578125,-239.2578125,0.0
1734420829.7174296,49.8046875,-43.45703125,39.0625,-62.01171875,0.0
1734420829.7213354,-439.94140625,-35.15625,301.7578125,159.66796875,0.0
1734420829.725241,-352.5390625,-39.55078125,150.390625,134.765625,0.0
1734420829.7291467,177.734375,-47.8515625,-137.6953125,-105.95703125,0.0
1734420829.7330523,337.40234375,-34.1796875,-351.07421875,-250.9765625,0.0
1734420829.7369578,92.28515625,-24.4140625,-195.3125,-123.046875,0.0
1734420829.7408636,-419.43359375,-37.109375,-24.90234375,112.79296875,0.0
1734420829.744769,-430.6640625,-43.9453125,-29.78515625,145.5078125,0.0
1734420829.7486749,81.0546875,-36.1328125,-28.80859375,-113.28125,0.0
1734420829.7525804,277.34375,-33.69140625,-269.04296875,-304.19921875,0.0
1734420829.7564862,110.83984375,-37.109375,-236.328125,-195.3125,0.0
1734420829.7603917,-367.67578125,-35.15625,149.4140625,66.89453125,0.0
1734420829.7643044,0.0,-34.66796875,265.13671875,143.5546875,0.0
1734420829.76821,0.0,-45.8984375,-126.953125,-78.125,0.0
1734420829.7721157,0.0,-47.8515625,-436.5234375,-266.11328125,0.0
1734420829.7760212,0.0,-39.0625,-211.42578125,-197.265625,0.0
1734420829.7799268,0.0,-41.015625,155.76171875,39.55078125,0.0
1734420829.7838326,0.0,-41.9921875,216.796875,142.578125,0.0
1734420829.787738,0.0,-36.1328125,-219.23828125,-61.5234375,0.0
1734420829.7916439,0.0,-30.2734375,-453.61328125,-267.08984375,0.0
1734420829.7955494,0.0,-27.34375,-174.8046875,-236.328125,0.0
1734420829.799455,0.0,-43.45703125,125.9765625,15.625,0.0
1734420829.8033607,0.0,-46.38671875,224.12109375,175.78125,0.0
1734420829.8072662,0.0,-29.78515625,38.57421875,2.9296875,0.0
1734420829.8111782,288.57421875,-31.25,-180.17578125,-240.234375,0.0
1734420829.815084,259.765625,-44.43359375,-329.58984375,-263.18359375,0.0
1734420829.8189895,-147.4609375,-32.71484375,-46.38671875,-9.765625,0.0
1734420829.8228953,-537.109375,-21.484375,299.31640625,187.01171875,0.0
1734420829.8268008,-155.2734375,-24.4140625,65.4296875,52.24609375,0.0
1734420829.8307066,274.4140625,-30.2734375,-389.6484375,-204.1015625,0.0
1734420829.8346121,283.203125,-32.2265625,-500.48828125,-243.65234375,0.0
1734420829.8385177,-74.21875,-27.34375,22.4609375,-10.25390625,0.0
1734420829.8424234,-494.140625,-22.94921875,318.359375,197.75390625,0.0
1734420829.846329,-205.078125,-29.78515625,-75.68359375,103.515625,0.0
1734420829.8502347,249.51171875,-37.109375,-451.171875,-161.1328125,0.0
1734420829.8541403,299.8046875,-37.59765625,-314.94140625,-264.6484375,0.0
1734420829.8580554,-18.06640625,-36.62109375,35.15625,-66.89453125,0.0
1734420829.8619611,-488.28125,-33.69140625,197.265625,172.8515625,0.0
1734420829.8658667,-291.50390625,-30.76171875,139.16015625,130.37109375,0.0
1734420829.8697722,229.00390625,-29.296875,-61.03515625,-139.16015625,0.0
1734420829.873678,340.8203125,-30.76171875,-354.98046875,-256.8359375,0.0
1734420829.8775835,67.87109375,-30.76171875,-238.28125,-72.75390625,0.0
1734420829.8814893,-444.82421875,-37.59765625,98.6328125,158.203125,0.0
1734420829.8853948,-375.48828125,-36.62109375,213.8671875,152.34375,0.0
1734420829.8893006,159.1796875,-27.34375,-147.4609375,-91.30859375,0.0
1734420829.8932061,322.75390625,-25.87890625,-486.328125,-261.71875,0.0
1734420829.8971117,91.796875,-28.3203125,-86.42578125,-130.37109375,0.0
1734420829.9010174,-400.87890625,-26.3671875,258.30078125,122.0703125,0.0
1734420829.9049323,-418.9453125,-28.80859375,153.80859375,165.0390625,0.0
1734420829.9088378,120.1171875,-28.80859375,-121.58203125,-88.37890625,0.0
1734420829.9127436,338.8671875,-31.73828125,-338.37890625,-286.62109375,0.0
1734420829.916649,155.2734375,-36.62109375,-121.09375,-158.69140625,0.0
1734420829.9205546,-326.171875,-35.15625,110.3515625,120.1171875,0.0
1734420829.9244604,-454.58984375,-39.0625,89.35546875,202.1484375,0.0
1734420829.928366,50.78125,-37.109375,-98.6328125,-28.3203125,0.0
1734420829.9322717,324.21875,-31.73828125,-268.5546875,-236.328125,0.0
1734420829.9361773,210.9375,-38.0859375,-356.93359375,-177.24609375,0.0
1734420829.9400828,-261.23046875,-42.96875,-123.046875,55.6640625,0.0
1734420829.9439886,-486.81640625,-32.71484375,274.90234375,156.25,0.0
1734420829.947894,-19.04296875,-29.78515625,-41.9921875,-20.99609375,0.0
1734420829.9518085,0.0,-34.1796875,-418.9453125,-220.703125,0.0
1734420829.955714,0.0,-35.64453125,-353.02734375,-186.03515625,0.0
1734420829.9596198,0.0,-35.15625,97.16796875,55.17578125,0.0
1734420829.9635253,0.0,-40.52734375,261.71875,179.19921875,0.0
1734420829.9674308,0.0,-44.43359375,-13.18359375,-1.46484375,0.0
1734420829.9713366,0.0,-34.1796875,-345.21484375,-224.609375,0.0
1734420829.9752421,0.0,-33.203125,-356.93359375,-240.72265625,0.0
1734420829.979148,0.0,-34.66796875,94.23828125,3.41796875,0.0
1734420829.9830534,0.0,-35.15625,8.30078125,191.40625,0.0
1734420829.986959,0.0,-27.83203125,-116.69921875,52.734375,0.0
1734420829.9908648,0.0,-27.83203125,-91.796875,-190.91796875,0.0
1734420829.9947703,0.0,-33.203125,-363.28125,-241.69921875,0.0
1734420829.9986842,-63.4765625,-29.296875,-69.3359375,-24.4140625,0.0
1734420830.0025897,-500.9765625,-29.78515625,288.57421875,209.47265625,0.0
1734420830.0064955,-208.0078125,-28.80859375,102.05078125,112.3046875,0.0
1734420830.010401,270.99609375,-32.71484375,-285.15625,-162.59765625,0.0
1734420830.0143065,317.87109375,-42.48046875,-429.19921875,-264.16015625,0.0
1734420830.0182123,-26.85546875,-42.48046875,-62.5,-76.66015625,0.0
1734420830.0221179,-508.30078125,-36.1328125,233.88671875,165.0390625,0.0
1734420830.0260236,-317.3828125,-33.203125,-13.18359375,119.140625,0.0
1734420830.0299292,207.51953125,-36.62109375,-351.5625,-145.01953125,0.0
1734420830.0338347,333.0078125,-24.4140625,-310.546875,-248.53515625,0.0
1734420830.0377405,46.875,-20.01953125,16.6015625,-71.2890625,0.0
1734420830.041646,-455.56640625,-35.15625,187.01171875,148.92578125,0.0
1734420830.0455596,-378.90625,-39.0625,163.57421875,165.0390625,0.0
1734420830.0494652,159.1796875,-32.2265625,-78.61328125,-80.078125,0.0
1734420830.053371,349.609375,-34.1796875,-422.36328125,-257.32421875,0.0
1734420830.0572765,122.0703125,-40.0390625,-195.80078125,-111.328125,0.0
1734420830.0611823,-342.28515625,-27.34375,125.0,132.32421875,0.0
1734420830.0650878,-358.3984375,-19.04296875,158.203125,158.203125,0.0
1734420830.0689933,120.1171875,-26.85546875,-100.5859375,-45.8984375,0.0
1734420830.072899,341.796875,-37.59765625,-520.01953125,-228.515625,0.0
1734420830.0768046,170.8984375,-34.66796875,-255.859375,-139.6484375,0.0
1734420830.0807104,-302.734375,-32.71484375,233.88671875,124.0234375,0.0
1734420830.084616,-428.22265625,-37.59765625,185.05859375,213.8671875,0.0
1734420830.0885217,78.125,-38.0859375,-13.18359375,-13.18359375,0.0
1734420830.092435,365.234375,-37.109375,-240.72265625,-213.37890625,0.0
1734420830.0963404,255.859375,-41.015625,-168.45703125,-165.52734375,0.0
1734420830.100246,-234.375,-40.0390625,126.46484375,90.33203125,0.0
1734420830.1041517,-469.23828125,-34.66796875,226.07421875,228.02734375,0.0
1734420830.1080573,19.04296875,-29.78515625,45.8984375,17.578125,0.0
1734420830.111963,351.07421875,-26.3671875,-271.484375,-225.5859375,0.0
1734420830.1158686,287.59765625,-31.25,-439.453125,-190.4296875,0.0
1734420830.119774,-148.92578125,-30.76171875,-151.85546875,66.40625,0.0
1734420830.1236799,-476.07421875,-26.85546875,238.76953125,204.58984375,0.0
1734420830.1275854,-63.96484375,-30.76171875,1.953125,55.6640625,0.0
1734420830.1314912,319.82421875,-38.0859375,-290.0390625,-174.31640625,0.0
1734420830.1353967,307.6171875,-27.83203125,-263.18359375,-189.453125,0.0
1734420830.1393094,-82.03125,-15.625,116.69921875,48.33984375,0.0
1734420830.143215,-489.74609375,-29.296875,229.4921875,217.7734375,0.0
1734420830.1471205,-162.109375,-35.64453125,51.7578125,76.171875,0.0
1734420830.1510262,287.109375,-30.2734375,-136.23046875,-175.29296875,0.0
1734420830.1549318,333.984375,-27.83203125,-360.3515625,-212.40234375,0.0
1734420830.1588376,-38.0859375,-32.71484375,-41.50390625,7.32421875,0.0
1734420830.162743,-491.69921875,-36.62109375,-5.37109375,200.68359375,0.0
1734420830.1666486,-217.7734375,-32.71484375,-103.515625,120.1171875,0.0
1734420830.1705544,272.4609375,-35.15625,-50.78125,-140.13671875,0.0
1734420830.17446,346.19140625,-43.9453125,-351.07421875,-216.796875,0.0
1734420830.1783657,31.73828125,-36.1328125,-35.64453125,-25.87890625,0.0
1734420830.1822712,-457.51953125,-32.71484375,243.1640625,207.51953125,0.0
1734420830.1861837,0.0,-39.55078125,166.9921875,160.64453125,0.0
1734420830.1900892,0.0,-29.296875,-128.41796875,-129.8828125,0.0
1734420830.1939948,0.0,-17.578125,-438.4765625,-259.765625,0.0
1734420830.1979005,0.0,-18.06640625,-47.8515625,-75.1953125,0.0
1734420830.201806,0.0,-22.4609375,290.52734375,149.90234375,0.0
1734420830.2057118,0.0,-31.73828125,54.19921875,134.765625,0.0
1734420830.2096174,0.0,-38.0859375,-344.7265625,-89.35546875,0.0
1734420830.213523,0.0,-38.57421875,-398.4375,-251.953125,0.0
1734420830.2174287,0.0,-40.52734375,-38.0859375,-127.9296875,0.0
1734420830.2213342,0.0,-45.8984375,13.18359375,130.37109375,0.0
1734420830.22524,0.0,-39.55078125,-43.45703125,180.6640625,0.0
1734420830.2291455,0.0,-36.62109375,-33.69140625,-79.1015625,0.0
1734420830.2330606,351.07421875,-44.921875,-351.07421875,-275.390625,0.0
1734420830.2369664,184.5703125,-43.9453125,-310.05859375,-166.9921875,0.0
1734420830.240872,-317.87109375,-37.109375,45.8984375,89.84375,0.0
1734420830.2447777,-457.03125,-33.203125,189.94140625,173.33984375,0.0
1734420830.2486832,58.10546875,-33.203125,-67.87109375,-23.92578125,0.0
1734420830.2525887,342.7734375,-35.15625,-401.85546875,-229.00390625,0.0
1734420830.2564945,237.79296875,-34.66796875,-292.48046875,-209.9609375,0.0
1734420830.2604,-240.234375,-35.64453125,148.4375,55.17578125,0.0
1734420830.2643058,-473.6328125,-40.52734375,220.703125,183.59375,0.0
1734420830.2682114,-16.6015625,-43.9453125,-166.9921875,-19.04296875,0.0
1734420830.272117,305.17578125,-43.45703125,-360.83984375,-227.5390625,0.0
1734420830.2760227,242.67578125,-43.45703125,-259.765625,-210.44921875,0.0
1734420830.2799373,-197.75390625,-51.7578125,38.0859375,41.50390625,0.0
1734420830.283843,-524.4140625,-57.12890625,210.9375,204.58984375,0.0
1734420830.2877486,-104.98046875,-56.15234375,30.76171875,34.66796875,0.0
1734420830.2916543,295.41015625,-58.59375,-216.796875,-207.51953125,0.0
1734420830.29556,282.2265625,-62.01171875,-405.2734375,-225.5859375,0.0
1734420830.2994657,-140.625,-64.453125,-165.52734375,12.6953125,0.0
1734420830.3033712,-540.52734375,-63.96484375,113.28125,211.42578125,0.0
1734420830.3072767,-182.12890625,-59.5703125,54.6875,78.61328125,0.0
1734420830.3111825,251.953125,-64.453125,-317.87109375,-168.9453125,0.0
1734420830.315088,283.69140625,-66.40625,-576.66015625,-206.54296875,0.0
1734420830.3189938,-82.03125,-56.640625,-15.13671875,-0.48828125,0.0
1734420830.3228993,-534.66796875,-57.12890625,246.09375,203.125,0.0
1734420830.3268137,-269.04296875,-62.01171875,75.68359375,113.28125,0.0
1734420830.3307192,208.0078125,-63.96484375,-254.39453125,-144.53125,0.0
1734420830.3346248,303.22265625,-56.640625,-416.9921875,-221.6796875,0.0
1734420830.3385305,-2.9296875,-46.875,-29.78515625,-38.0859375,0.0
1734420830.342436,-501.953125,-49.31640625,180.17578125,164.0625,0.0
1734420830.3463418,-333.0078125,-50.29296875,42.96875,120.1171875,0.0
1734420830.3502474,204.1015625,-45.41015625,-169.43359375,-116.69921875,0.0
1734420830.354153,323.73046875,-43.45703125,-354.00390625,-254.39453125,0.0
1734420830.3580587,50.29296875,-46.38671875,-315.4296875,-89.35546875,0.0
1734420830.3619642,-434.5703125,-52.24609375,-37.59765625,167.96875,0.0
1734420830.36587,-354.4921875,-38.57421875,196.77734375,163.57421875,0.0
1734420830.3697755,166.9921875,-40.0390625,-115.234375,-86.42578125,0.0
1734420830.3736894,328.125,-48.33984375,-457.03125,-249.51171875,0.0
1734420830.377595,110.83984375,-40.52734375,-117.67578125,-122.0703125,0.0
1734420830.3815007,-393.06640625,-41.50390625,213.37890625,112.3046875,0.0
1734420830.3854063,-426.7578125,-40.52734375,157.2265625,136.71875,0.0
1734420830.3893118,101.07421875,-36.1328125,-160.15625,-92.28515625,0.0
1734420830.3932176,332.51953125,-41.9921875,-456.0546875,-256.34765625,0.0
1734420830.397123,181.15234375,-40.52734375,-235.83984375,-144.53125,0.0
1734420830.4010289,-306.640625,-35.15625,-23.4375,119.62890625,0.0
1734420830.4049344,-451.171875,-36.62109375,4.8828125,203.61328125,0.0
1734420830.4088402,61.5234375,-39.0625,32.2265625,-38.57421875,0.0
1734420830.4127457,341.796875,-34.1796875,-290.0390625,-240.72265625,0.0
1734420830.4166512,226.5625,-33.69140625,-316.40625,-166.015625,0.0
1734420830.4205647,-248.53515625,-36.62109375,50.29296875,73.73046875,0.0
1734420830.4244704,-510.25390625,-31.73828125,180.17578125,190.91796875,0.0
1734420830.428376,-40.0390625,-25.390625,-130.859375,7.32421875,0.0
1734420830.4322815,323.2421875,-28.80859375,-388.671875,-200.1953125,0.0
1734420830.4361873,272.94921875,-34.66796875,-326.171875,-175.29296875,0.0
1734420830.4400928,-173.828125,-36.1328125,-66.40625,50.78125,0.0
1734420830.4439986,-519.04296875,-33.69140625,183.59375,180.6640625,0.0
1734420830.447904,-120.1171875,-38.57421875,-207.51953125,22.4609375,0.0
1734420830.4518096,285.64453125,-39.55078125,-475.09765625,-198.73046875,0.0
1734420830.4557154,287.59765625,-33.69140625,-274.90234375,-234.86328125,0.0
1734420830.459621,-125.48828125,-38.57421875,-22.94921875,-4.8828125,0.0
1734420830.4635267,-522.94921875,-39.0625,177.24609375,185.546875,0.0
1734420830.4674394,-157.2265625,-31.73828125,71.2890625,62.98828125,0.0
1734420830.4713452,291.015625,-30.76171875,-200.68359375,-198.2421875,0.0
1734420830.4752507,339.35546875,-32.71484375,-454.58984375,-245.60546875,0.0
1734420830.4791565,-19.04296875,-30.76171875,-138.671875,-29.78515625,0.0
1734420830.483062,-504.39453125,-29.296875,175.78125,169.921875,0.0
1734420830.4869676,-239.2578125,-28.80859375,21.97265625,82.51953125,0.0
1734420830.4908733,254.39453125,-37.109375,-388.671875,-158.69140625,0.0
1734420830.4947789,317.87109375,-44.43359375,-609.375,-231.93359375,0.0
1734420830.4986846,-14.16015625,-38.57421875,-54.19921875,-49.31640625,0.0
1734420830.5025902,-495.1171875,-35.64453125,231.93359375,143.06640625,0.0
1734420830.5064957,-310.546875,-31.73828125,61.5234375,88.8671875,0.0
1734420830.5104015,231.93359375,-27.83203125,-185.05859375,-131.8359375,0.0
1734420830.514314,348.6328125,-26.85546875,-354.4921875,-242.1875,0.0
1734420830.5182197,25.87890625,-30.76171875,-243.65234375,-105.95703125,0.0
1734420830.5221252,-474.12109375,-34.1796875,61.03515625,109.375,0.0
1734420830.5260308,-399.90234375,-32.71484375,217.28515625,83.984375,0.0
1734420830.5299366,126.46484375,-36.62109375,-118.1640625,-167.48046875,0.0
1734420830.533842,315.4296875,-41.9921875,-473.14453125,-300.29296875,0.0
1734420830.5377479,102.5390625,-41.50390625,-438.96484375,-167.96875,0.0
1734420830.5416534,-424.8046875,-46.875,-115.234375,59.5703125,0.0
1734420830.545559,-471.19140625,-46.875,205.078125,105.95703125,0.0
1734420830.5494647,67.3828125,-41.50390625,-110.3515625,-112.79296875,0.0
1734420830.5533702,314.94140625,-37.109375,-440.4296875,-282.2265625,0.0
1734420830.557276,174.31640625,-27.34375,-271.97265625,-163.57421875,0.0
1734420830.5611882,-331.54296875,-28.80859375,100.5859375,78.125,0.0
1734420830.5650938,-487.3046875,-40.0390625,149.4140625,149.4140625,0.0
1734420830.5689995,36.62109375,-37.59765625,-213.37890625,-65.91796875,0.0
1734420830.572905,320.3125,-34.1796875,-376.46484375,-251.953125,0.0
1734420830.5768108,214.35546875,-41.015625,-305.6640625,-208.49609375,0.0
1734420830.5807164,-252.9296875,-48.33984375,-186.03515625,30.76171875,0.0
1734420830.584622,-515.625,-46.875,-25.87890625,162.59765625,0.0
1734420830.5885277,-37.59765625,-41.015625,-34.1796875,-58.59375,0.0
1734420830.5924332,326.66015625,-40.52734375,-318.359375,-297.36328125,0.0
1734420830.596339,270.01953125,-40.0390625,-408.203125,-243.1640625,0.0
1734420830.6002445,-177.24609375,-38.0859375,-111.328125,15.13671875,0.0
1734420830.60415,-523.4375,-37.109375,150.87890625,167.48046875,0.0
1734420830.6080654,-107.421875,-33.69140625,-23.92578125,7.8125,0.0
1734420830.611971,297.8515625,-40.0390625,-393.06640625,-243.65234375,0.0
1734420830.6158764,290.52734375,-37.59765625,-478.515625,-255.859375,0.0
1734420830.6197822,-105.95703125,-31.25,-56.640625,-17.578125,0.0
1734420830.6236877,-511.23046875,-31.25,201.66015625,147.94921875,0.0
1734420830.6275935,-180.17578125,-34.1796875,-149.4140625,20.01953125,0.0
1734420830.631499,271.97265625,-37.109375,-437.5,-210.44921875,0.0
1734420830.6354048,314.453125,-34.66796875,-381.34765625,-259.27734375,0.0
1734420830.6393104,-48.33984375,-32.2265625,-78.61328125,-45.8984375,0.0
1734420830.643216,-506.34765625,-29.78515625,-20.01953125,165.0390625,0.0
1734420830.6471217,-242.67578125,-23.4375,-38.0859375,61.5234375,0.0
1734420830.6510272,260.7421875,-22.94921875,-158.69140625,-199.21875,0.0
1734420830.654942,343.75,-28.3203125,-472.16796875,-269.53125,0.0
1734420830.6588478,39.55078125,-21.97265625,-200.1953125,-69.3359375,0.0
1734420830.6627533,-456.0546875,-23.92578125,129.39453125,139.6484375,0.0
1734420830.6666589,-293.45703125,-23.4375,128.41796875,76.171875,0.0
1734420830.6705647,216.30859375,-20.99609375,-244.140625,-161.1328125,0.0
1734420830.6744702,323.73046875,-27.83203125,-591.30859375,-264.6484375,0.0
1734420830.678376,73.73046875,-30.76171875,-249.51171875,-113.28125,0.0
1734420830.6822815,-425.78125,-26.85546875,170.41015625,120.1171875,0.0
1734420830.6861873,-379.8828125,-30.2734375,-57.6171875,122.55859375,0.0
1734420830.6900928,158.69140625,-33.203125,-479.98046875,-114.2578125,0.0
1734420830.6939983,347.16796875,-28.80859375,-407.71484375,-262.20703125,0.0
1734420830.697904,136.23046875,-36.1328125,-236.81640625,-134.765625,0.0
1734420830.7018182,-360.3515625,-35.64453125,30.76171875,110.83984375,0.0
1734420830.7057238,-411.62109375,-29.296875,74.70703125,162.109375,0.0
1734420830.7096295,100.09765625,-29.296875,-174.8046875,-62.01171875,0.0
1734420830.713535,371.58203125,-27.83203125,-425.29296875,-266.6015625,0.0
1734420830.7174408,182.12890625,-30.2734375,-337.40234375,-165.0390625,0.0
1734420830.7213464,-362.3046875,-35.15625,-9.765625,108.3984375,0.0
1734420830.725252,-452.1484375,-35.15625,60.05859375,145.99609375,0.0
1734420830.7291577,57.12890625,-35.15625,-201.171875,-72.75390625,0.0
1734420830.7330632,339.35546875,-42.96875,-567.3828125,-233.88671875,0.0
1734420830.736969,239.74609375,-41.9921875,-419.921875,-161.1328125,0.0
1734420830.7408745,-224.12109375,-29.78515625,88.8671875,56.15234375,0.0
1734420830.74478,-495.60546875,-29.78515625,166.015625,151.85546875,0.0
1734420830.748694,-36.1328125,-41.9921875,-89.84375,-19.04296875,0.0
1734420830.7525995,335.44921875,-41.015625,-310.05859375,-236.328125,0.0
1734420830.7565053,283.69140625,-37.59765625,-338.37890625,-216.30859375,0.0
1734420830.7604108,-180.6640625,-32.71484375,-55.17578125,27.83203125,0.0
1734420830.7643163,-531.25,-32.2265625,132.8125,173.33984375,0.0
1734420830.768222,-115.72265625,-34.1796875,-111.328125,23.4375,0.0
1734420830.7721276,300.78125,-33.69140625,-333.0078125,-213.37890625,0.0
1734420830.7760334,305.17578125,-36.1328125,-472.16796875,-223.14453125,0.0
1734420830.779939,-105.46875,-37.109375,-342.7734375,13.18359375,0.0
1734420830.7838447,-529.296875,-33.69140625,153.80859375,179.6875,0.0
1734420830.7877502,-195.80078125,-34.1796875,84.47265625,30.2734375,0.0
1734420830.7916558,264.6484375,-35.64453125,-257.32421875,-222.65625,0.0
1734420830.7955694,0.0,-34.66796875,-396.97265625,-268.5546875,0.0
1734420830.7994752,0.0,-30.76171875,-106.93359375,-42.96875,0.0
1734420830.8033807,0.0,-31.25,126.953125,173.33984375,0.0
1734420830.8072865,0.0,-32.2265625,-17.08984375,87.890625,0.0
1734420830.811192,0.0,-27.83203125,-221.6796875,-152.34375,0.0
1734420830.8150978,0.0,-28.3203125,-437.01171875,-230.95703125,0.0
1734420830.8190033,0.0,-40.0390625,-190.91796875,-64.94140625,0.0
1734420830.8229089,0.0,-56.15234375,-121.58203125,136.23046875,0.0
1734420830.8268147,0.0,-53.7109375,-119.140625,94.23828125,0.0
1734420830.8307202,0.0,-39.55078125,-69.3359375,-138.18359375,0.0
1734420830.834626,0.0,-41.50390625,-408.69140625,-252.9296875,0.0
1734420830.8385315,0.0,-41.50390625,-270.99609375,-95.21484375,0.0
1734420830.8424444,-427.24609375,-34.66796875,57.6171875,145.01953125,0.0
1734420830.8463502,-404.78515625,-41.015625,176.26953125,143.06640625,0.0
1734420830.8502557,135.25390625,-49.31640625,-175.29296875,-106.4453125,0.0
1734420830.8541613,338.37890625,-45.41015625,-499.51171875,-249.0234375,0.0
1734420830.858067,152.83203125,-33.203125,-234.86328125,-78.125,0.0
1734420830.8619726,-364.2578125,-23.4375,74.21875,161.62109375,0.0
1734420830.8658783,-461.42578125,-20.5078125,-29.78515625,164.55078125,0.0
1734420830.8697839,94.7265625,-14.16015625,-371.09375,-72.75390625,0.0
1734420830.8736897,359.86328125,-9.27734375,-380.37109375,-243.65234375,0.0
1734420830.8775952,204.1015625,-9.765625,-220.21484375,-177.24609375,0.0
1734420830.8815007,-291.015625,-3.90625,10.25390625,38.0859375,0.0
1734420830.8854065,-475.09765625,2.44140625,158.203125,122.55859375,0.0
1734420830.889319,39.55078125,1.953125,-9.765625,-82.51953125,0.0
1734420830.8932247,356.93359375,0.0,-387.20703125,-278.80859375,0.0
1734420830.8971303,251.953125,-0.9765625,-412.109375,-231.93359375,0.0
1734420830.901036,-230.95703125,-0.48828125,7.8125,4.8828125,0.0
1734420830.9049416,-491.2109375,-0.9765625,254.8828125,137.6953125,0.0
1734420830.9088473,-4.39453125,-0.48828125,-77.1484375,-43.9453125,0.0
1734420830.9127529,364.2578125,-6.34765625,-550.78125,-231.93359375,0.0
1734420830.9166584,312.01171875,-5.859375,-469.23828125,-209.47265625,0.0
1734420830.9205642,-143.5546875,0.9765625,104.4921875,1.46484375,0.0
1734420830.9244697,-496.09375,0.0,190.4296875,164.0625,0.0
1734420830.9283755,-91.30859375,1.46484375,-42.96875,18.5546875,0.0
1734420830.932281,328.125,-4.8828125,-241.69921875,-228.02734375,0.0
1734420830.9361932,339.35546875,-13.18359375,-318.359375,-250.9765625,0.0
1734420830.9400988,-60.546875,-9.27734375,-24.90234375,-0.9765625,0.0
1734420830.9440045,-486.81640625,-12.20703125,170.41015625,203.125,0.0
1734420830.94791,-157.71484375,-20.01953125,80.56640625,80.078125,0.0
1734420830.9518156,315.91796875,-20.01953125,-181.640625,-190.4296875,0.0
1734420830.9557214,363.28125,-21.484375,-510.25390625,-253.41796875,0.0
1734420830.959627,-1.46484375,-24.90234375,-264.16015625,-19.53125,0.0
1734420830.9635327,-468.75,-18.5546875,181.15234375,186.03515625,0.0
1734420830.9674382,-208.984375,-11.23046875,147.94921875,104.4921875,0.0
1734420830.9713438,292.96875,-12.6953125,-178.22265625,-124.51171875,0.0
1734420830.9752495,376.46484375,-20.01953125,-404.296875,-236.81640625,0.0
1734420830.979155,60.546875,-25.390625,-39.55078125,-80.078125,0.0
1734420830.9830701,-453.61328125,-21.97265625,222.16796875,163.57421875,0.0
1734420830.986976,-310.05859375,-27.83203125,15.625,153.3203125,0.0
1734420830.9908814,231.4453125,-32.2265625,-254.39453125,-94.23828125,0.0
1734420830.994787,380.37109375,-28.80859375,-351.07421875,-230.46875,0.0
1734420830.9986928,120.60546875,-28.3203125,-66.40625,-75.68359375,0.0
1734420831.0025983,-385.25390625,-30.76171875,126.953125,172.36328125,0.0
1734420831.006504,-360.83984375,-23.4375,105.46875,163.57421875,0.0
1734420831.0104096,177.734375,-19.53125,-55.17578125,-98.14453125,0.0
1734420831.0143154,382.8125,-22.4609375,-380.859375,-242.1875,0.0
1734420831.018221,182.12890625,-24.4140625,-299.8046875,-104.00390625,0.0
1734420831.0221264,-335.44921875,-23.92578125,90.33203125,149.90234375,0.0
1734420831.0260322,-416.9921875,-27.83203125,244.62890625,200.1953125,0.0
1734420831.0299468,119.62890625,-35.15625,-62.01171875,-45.8984375,0.0
1734420831.0338526,372.55859375,-33.69140625,-392.578125,-228.515625,0.0
1734420831.037758,225.09765625,-23.4375,-203.125,-123.046875,0.0
1734420831.041664,-266.11328125,-14.16015625,174.31640625,119.62890625,0.0
1734420831.0455694,-471.6796875,-29.78515625,147.94921875,202.63671875,0.0
1734420831.049475,24.4140625,-42.48046875,-250.0,4.8828125,0.0
1734420831.0533807,357.91015625,-38.0859375,-411.62109375,-203.61328125,0.0
1734420831.0572863,281.25,-29.78515625,-188.4765625,-157.2265625,0.0
1734420831.061192,-207.51953125,-24.90234375,-44.43359375,101.07421875,0.0
1734420831.0650976,-494.62890625,-20.01953125,1.953125,219.7265625,0.0
1734420831.069003,-8.30078125,-12.20703125,62.01171875,0.9765625,0.0
1734420831.0729089,355.95703125,-22.94921875,-210.9375,-215.8203125,0.0
1734420831.0768232,305.17578125,-30.2734375,-353.02734375,-171.38671875,0.0
1734420831.080729,-128.41796875,-22.4609375,-64.94140625,89.35546875,0.0
1734420831.0846345,-505.859375,-17.578125,229.98046875,223.6328125,0.0
1734420831.08854,-113.28125,-20.99609375,75.1953125,28.80859375,0.0
1734420831.0924459,311.03515625,-28.3203125,-285.64453125,-208.984375,0.0
1734420831.0963514,317.87109375,-39.0625,-393.5546875,-218.26171875,0.0
1734420831.1002572,-87.890625,-38.57421875,-16.6015625,3.90625,0.0
1734420831.1041627,-536.1328125,-38.57421875,256.8359375,187.5,0.0
1734420831.1080685,-207.51953125,-41.50390625,-126.953125,90.33203125,0.0
1734420831.111974,264.6484375,-30.2734375,-376.953125,-168.45703125,0.0
1734420831.1158795,322.75390625,-19.04296875,-242.1875,-233.3984375,0.0
1734420831.1197853,-30.2734375,-18.5546875,65.4296875,-12.20703125,0.0
1734420831.123699,-503.90625,-18.5546875,224.12109375,197.75390625,0.0
1734420831.1276047,-241.69921875,-9.765625,166.9921875,135.7421875,0.0
1734420831.1315103,285.64453125,-4.8828125,-25.87890625,-93.26171875,0.0
1734420831.135416,369.140625,-20.5078125,-358.88671875,-188.4765625,0.0
1734420831.1393216,54.19921875,-33.69140625,-116.69921875,-17.578125,0.0
1734420831.143227,-452.1484375,-29.296875,156.73828125,200.68359375,0.0
1734420831.1471329,-324.70703125,-28.80859375,198.73046875,185.546875,0.0
1734420831.1510384,201.66015625,-38.0859375,-139.6484375,-56.15234375,0.0
1734420831.1549442,356.4453125,-34.66796875,-539.0625,-218.75,0.0
1734420831.1588497,110.83984375,-29.296875,5.859375,-79.58984375,0.0
1734420831.1627555,-407.2265625,-31.73828125,276.3671875,166.9921875,0.0
1734420831.166661,-375.9765625,-22.94921875,181.640625,154.296875,0.0
1734420831.1705747,0.0,-25.390625,-21.97265625,-97.65625,0.0
1734420831.1744802,0.0,-42.96875,-299.8046875,-224.12109375,0.0
1734420831.178386,0.0,-47.36328125,-104.98046875,-87.890625,0.0
1734420831.1822915,0.0,-49.31640625,205.56640625,133.7890625,0.0
1734420831.1861973,0.0,-39.0625,262.6953125,187.01171875,0.0
1734420831.1901028,0.0,-34.66796875,-41.50390625,-17.08984375,0.0
1734420831.1940086,0.0,-41.015625,-343.26171875,-191.40625,0.0
1734420831.1979141,0.0,-39.0625,-331.54296875,-103.515625,0.0
1734420831.2018197,0.0,-36.62109375,49.8046875,143.06640625,0.0
1734420831.2057254,0.0,-32.2265625,332.03125,222.16796875,0.0
1734420831.209631,0.0,-31.73828125,39.55078125,12.6953125,0.0
1734420831.2135367,0.0,-37.109375,-263.18359375,-189.94140625,0.0
1734420831.2174497,263.18359375,-36.1328125,-88.37890625,-134.765625,0.0
1734420831.2213552,-194.3359375,-36.1328125,262.6953125,124.51171875,0.0
1734420831.225261,-495.1171875,-42.96875,221.6796875,228.515625,0.0
1734420831.2291665,-40.0390625,-38.57421875,46.875,29.296875,0.0
1734420831.233072,340.8203125,-27.83203125,-146.97265625,-170.41015625,0.0
1734420831.2369778,301.7578125,-29.296875,-288.57421875,-152.83203125,0.0
1734420831.2408834,-139.6484375,-31.25,-51.26953125,80.56640625,0.0
1734420831.2447891,-512.6953125,-31.25,150.390625,229.98046875,0.0
1734420831.2486947,-112.79296875,-32.2265625,168.9453125,69.82421875,0.0
1734420831.2526004,312.98828125,-35.15625,-85.44921875,-149.90234375,0.0
1734420831.256506,326.171875,-31.25,-281.25,-168.9453125,0.0
1734420831.2604115,-69.3359375,-27.83203125,115.234375,43.9453125,0.0
1734420831.2643242,-509.27734375,-36.62109375,288.57421875,224.12109375,0.0
1734420831.2682297,-205.078125,-44.921875,90.33203125,110.3515625,0.0
1734420831.2721353,278.80859375,-42.96875,-154.296875,-138.18359375,0.0
1734420831.276041,354.4921875,-38.57421875,-196.2890625,-210.44921875,0.0
1734420831.2799466,-10.7421875,-31.73828125,145.99609375,-19.04296875,0.0
1734420831.2838523,-497.55859375,-34.1796875,262.6953125,188.4765625,0.0
1734420831.2877579,-264.16015625,-40.0390625,-81.0546875,136.23046875,0.0
1734420831.2916636,241.2109375,-35.15625,-349.609375,-110.3515625,0.0
1734420831.2955692,353.515625,-27.34375,-117.1875,-236.328125,0.0
1734420831.2994747,68.359375,-23.92578125,145.01953125,-49.31640625,0.0
1734420831.3033805,-438.4765625,-24.4140625,199.21875,174.31640625,0.0
1734420831.307286,-324.21875,-27.83203125,230.46875,150.390625,0.0
1734420831.3112013,211.9140625,-34.66796875,88.37890625,-85.9375,0.0
1734420831.315107,379.39453125,-34.1796875,-273.92578125,-220.703125,0.0
1734420831.3190126,126.46484375,-34.66796875,-74.21875,-64.453125,0.0
1734420831.3229182,-397.94921875,-34.1796875,276.3671875,176.7578125,0.0
1734420831.326824,-377.44140625,-30.2734375,282.71484375,190.4296875,0.0
1734420831.3307295,160.15625,-36.1328125,-132.8125,-25.87890625,0.0
1734420831.3346353,355.95703125,-36.62109375,-482.421875,-185.05859375,0.0
1734420831.3385408,182.12890625,-24.4140625,20.99609375,-107.421875,0.0
1734420831.3424466,-308.59375,-27.34375,298.828125,147.4609375,0.0
1734420831.346352,-434.08203125,-27.34375,186.5234375,206.0546875,0.0
1734420831.3502576,91.30859375,-26.85546875,10.7421875,-31.73828125,0.0
1734420831.3541634,353.515625,-46.38671875,-174.8046875,-211.9140625,0.0
1734420831.3580782,198.73046875,-52.734375,-20.01953125,-137.6953125,0.0
1734420831.3619838,-295.41015625,-60.546875,187.01171875,111.81640625,0.0
1734420831.3658895,-518.5546875,-67.87109375,212.890625,198.2421875,0.0
1734420831.369795,-20.5078125,-59.5703125,109.86328125,-22.94921875,0.0
1734420831.3737009,303.22265625,-55.6640625,-198.2421875,-211.9140625,0.0
1734420831.3776064,224.609375,-58.10546875,-269.53125,-165.52734375,0.0
1734420831.3815122,-259.27734375,-63.96484375,69.3359375,77.1484375,0.0
1734420831.3854177,-569.3359375,-62.5,286.62109375,208.984375,0.0
1734420831.3893232,-104.00390625,-60.546875,75.68359375,38.0859375,0.0
1734420831.393229,261.71875,-69.82421875,-365.234375,-159.1796875,0.0
1734420831.3971345,255.859375,-62.5,-223.14453125,-160.15625,0.0
1734420831.4010403,-163.57421875,-47.8515625,267.08984375,69.82421875,0.0
1734420831.404955,-556.15234375,-55.6640625,267.578125,240.72265625,0.0
1734420831.4088604,-158.69140625,-68.359375,137.20703125,76.171875,0.0
1734420831.412766,288.57421875,-60.546875,-24.4140625,-172.8515625,0.0
1734420831.4166718,305.6640625,-56.15234375,-47.36328125,-200.1953125,0.0
1734420831.4205773,-104.4921875,-63.4765625,175.29296875,30.2734375,0.0
1734420831.424483,-547.8515625,-65.91796875,175.78125,225.5859375,0.0
1734420831.4283886,-229.4921875,-58.10546875,128.41796875,104.4921875,0.0
1734420831.4322941,247.0703125,-50.78125,-28.3203125,-133.30078125,0.0
1734420831.4362,312.98828125,-54.19921875,-409.66796875,-163.0859375,0.0
1734420831.4401054,-40.52734375,-49.31640625,-114.74609375,32.71484375,0.0
1734420831.4440112,-530.2734375,-38.0859375,332.03125,207.51953125,0.0
1734420831.4479167,-291.9921875,-35.15625,247.0703125,135.7421875,0.0
1734420831.4518309,239.2578125,-43.9453125,-38.57421875,-94.7265625,0.0
1734420831.4557366,347.65625,-43.9453125,-336.42578125,-198.2421875,0.0
1734420831.4596422,53.22265625,-25.87890625,29.296875,-38.0859375,0.0
1734420831.463548,-453.125,-31.25,311.5234375,199.21875,0.0
1734420831.4674535,-329.1015625,-40.0390625,204.58984375,173.828125,0.0
1734420831.471359,211.42578125,-34.66796875,-73.2421875,-75.68359375,0.0
1734420831.4752648,353.02734375,-35.15625,-304.19921875,-192.87109375,0.0
1734420831.4791703,107.91015625,-38.0859375,55.17578125,-50.29296875,0.0
1734420831.483076,-416.015625,-41.9921875,95.703125,175.78125,0.0
1734420831.4869816,-403.3203125,-37.109375,99.609375,201.171875,0.0
1734420831.4908874,150.390625,-31.25,118.65234375,-38.57421875,0.0
1734420831.494793,367.1875,-36.1328125,-272.4609375,-207.03125,0.0
1734420831.4987066,176.7578125,-39.0625,-79.1015625,-88.8671875,0.0
1734420831.502612,-349.609375,-42.96875,286.62109375,164.0625,0.0
1734420831.506518,-455.078125,-37.109375,302.734375,233.88671875,0.0
1734420831.5104234,87.40234375,-30.76171875,45.41015625,-4.8828125,0.0
1734420831.5143292,361.81640625,-36.1328125,-283.203125,-209.9609375,0.0
1734420831.5182347,213.8671875,-42.48046875,-223.14453125,-148.4375,0.0
1734420831.5221405,-305.6640625,-41.015625,175.29296875,90.8203125,0.0
1734420831.526046,-505.37109375,-37.109375,186.03515625,220.21484375,0.0
1734420831.5299516,15.13671875,-35.15625,-222.16796875,26.3671875,0.0
1734420831.5338573,348.6328125,-31.73828125,-214.84375,-199.21875,0.0
1734420831.5377629,263.671875,-29.296875,4.39453125,-171.875,0.0
1734420831.5416687,-225.5859375,-21.97265625,201.171875,82.03125,0.0
1734420831.5455818,-534.66796875,-28.80859375,276.85546875,206.54296875,0.0
1734420831.5494874,-79.1015625,-30.2734375,75.1953125,25.390625,0.0
1734420831.5533931,307.12890625,-29.296875,-254.39453125,-191.40625,0.0
1734420831.5572987,287.109375,-33.69140625,-246.09375,-179.6875,0.0
1734420831.5612044,-140.13671875,-27.83203125,148.4375,59.5703125,0.0
1734420831.56511,-522.4609375,-35.15625,265.13671875,212.40234375,0.0
1734420831.5690155,-133.7890625,-36.1328125,113.28125,74.70703125,0.0
1734420831.5729213,298.828125,-34.1796875,-271.484375,-156.25,0.0
1734420831.5768268,327.1484375,-31.73828125,-276.3671875,-200.1953125,0.0
1734420831.5807326,-57.6171875,-18.5546875,272.94921875,23.92578125,0.0
1734420831.584638,-511.23046875,-22.94921875,303.7109375,211.42578125,0.0
1734420831.588544,-196.77734375,-21.484375,154.296875,114.74609375,0.0
1734420831.5924568,291.9921875,-22.94921875,36.62109375,-120.60546875,0.0
1734420831.5963624,358.3984375,-28.80859375,-11.71875,-189.453125,0.0
1734420831.600268,2.44140625,-27.83203125,179.19921875,-13.18359375,0.0
1734420831.6041737,-506.34765625,-34.66796875,270.99609375,157.71484375,0.0
1734420831.6080792,-289.0625,-34.66796875,204.58984375,102.5390625,0.0
1734420831.611985,245.60546875,-27.34375,-31.25,-121.09375,0.0
1734420831.6158905,355.95703125,-27.34375,-399.4140625,-201.171875,0.0
1734420831.619796,49.31640625,-28.80859375,-183.59375,-28.3203125,0.0
1734420831.6237018,-469.23828125,-26.85546875,299.8046875,164.55078125,0.0
1734420831.6276073,-359.86328125,-28.3203125,277.83203125,133.7890625,0.0
1734420831.631513,198.2421875,-30.2734375,-38.57421875,-99.609375,0.0
1734420831.6354187,363.28125,-29.78515625,-158.203125,-234.375,0.0
1734420831.639331,111.81640625,-25.87890625,144.53125,-100.5859375,0.0
1734420831.6432369,-402.34375,-32.2265625,205.56640625,147.94921875,0.0
1734420831.6471424,-394.04296875,-30.2734375,192.87109375,172.8515625,0.0
1734420831.6510482,145.5078125,-30.76171875,94.23828125,-68.84765625,0.0
1734420831.6549537,347.16796875,-36.1328125,-102.5390625,-228.02734375,0.0
1734420831.6588595,166.50390625,-26.85546875,0.48828125,-104.4921875,0.0
1734420831.662765,-357.91015625,-35.64453125,39.0625,141.11328125,0.0
1734420831.6666706,-465.33203125,-42.96875,104.98046875,179.19921875,0.0
1734420831.6705763,79.58984375,-35.15625,61.03515625,-61.03515625,0.0
1734420831.6744819,323.2421875,-35.15625,-280.76171875,-244.62890625,0.0
1734420831.6783876,207.03125,-29.78515625,-77.1484375,-156.25,0.0
1734420831.6822932,-278.3203125,-30.76171875,272.94921875,92.7734375,0.0
1734420831.6862051,-503.90625,-29.296875,309.5703125,187.01171875,0.0
1734420831.690111,10.7421875,-21.97265625,86.42578125,-0.9765625,0.0
1734420831.6940165,352.5390625,-18.5546875,-234.86328125,-187.98828125,0.0
1734420831.6979222,273.92578125,-26.85546875,-90.33203125,-155.2734375,0.0
1734420831.7018278,-193.84765625,-34.1796875,270.01953125,58.59375,0.0
1734420831.7057333,-498.046875,-33.203125,161.62109375,192.87109375,0.0
1734420831.709639,-53.7109375,-34.1796875,-178.22265625,36.1328125,0.0
1734420831.7135446,321.77734375,-29.296875,-218.26171875,-181.15234375,0.0
1734420831.7174504,310.05859375,-22.94921875,-69.3359375,-176.26953125,0.0
1734420831.721356,-120.60546875,-25.390625,129.39453125,63.4765625,0.0
1734420831.7252617,-530.2734375,-30.2734375,233.3984375,210.9375,0.0
1734420831.7291672,-146.97265625,-35.15625,173.828125,76.171875,0.0
1734420831.733082,0.0,-36.1328125,-183.10546875,-137.6953125,0.0
1734420831.7369878,0.0,-34.66796875,-317.87109375,-197.75390625,0.0
1734420831.7408934,0.0,-39.0625,129.8828125,-9.765625,0.0
1734420831.7447991,0.0,-39.0625,321.2890625,182.6171875,0.0
1734420831.7487047,0.0,-38.0859375,168.9453125,111.81640625,0.0
1734420831.7526104,0.0,-37.59765625,-150.390625,-133.30078125,0.0
1734420831.756516,0.0,-28.3203125,-290.52734375,-235.3515625,0.0
1734420831.7604215,0.0,-22.94921875,138.18359375,-32.71484375,0.0
1734420831.7643273,0.0,-30.2734375,277.34375,193.359375,0.0
1734420831.7682328,0.0,-36.62109375,7.32421875,139.6484375,0.0
1734420831.7721386,0.0,-33.69140625,-79.1015625,-112.79296875,0.0
1734420831.7760441,0.0,-34.1796875,-47.36328125,-228.515625,0.0
1734420831.7799494,291.50390625,-30.2734375,128.41796875,-55.17578125,0.0
1734420831.783855,314.453125,-31.25,241.69921875,184.08203125,0.0
1734420831.7877607,-69.3359375,-28.3203125,237.79296875,165.52734375,0.0
1734420831.7916663,-516.6015625,-23.4375,-47.8515625,-89.84375,0.0
1734420831.7955718,-223.14453125,-27.83203125,-415.52734375,-221.6796875,0.0
1734420831.7994776,250.48828125,-22.94921875,-228.515625,-93.75,0.0
1734420831.803383,319.3359375,-23.4375,175.78125,129.39453125,0.0
1734420831.807289,-12.20703125,-25.390625,308.59375,152.83203125,0.0
1734420831.8111944,-504.39453125,-28.80859375,-145.5078125,-61.5234375,0.0
1734420831.8151,-302.24609375,-27.83203125,-507.32421875,-205.56640625,0.0
1734420831.8190057,229.98046875,-21.97265625,-11.23046875,-121.58203125,0.0
1734420831.8229113,345.21484375,-22.94921875,305.17578125,108.88671875,0.0
1734420831.8268256,-455.56640625,-23.92578125,207.51953125,184.08203125,0.0
1734420831.8307312,93.26171875,-20.01953125,-58.59375,-10.7421875,0.0
1734420831.834637,373.53515625,-14.6484375,-244.62890625,-182.6171875,0.0
1734420831.8385425,229.98046875,-26.85546875,-56.640625,-126.953125,0.0
1734420831.8424482,-270.5078125,-30.2734375,208.0078125,91.30859375,0.0
1734420831.8463538,-499.0234375,-33.69140625,219.7265625,185.05859375,0.0
1734420831.8502593,15.13671875,-32.71484375,-9.27734375,11.71875,0.0
1734420831.854165,353.515625,-30.2734375,-264.16015625,-203.125,0.0
1734420831.8580706,283.69140625,-42.48046875,-372.0703125,-147.4609375,0.0
1734420831.8619764,-177.24609375,-41.015625,41.50390625,89.35546875,0.0
1734420831.865882,-505.37109375,-26.3671875,339.84375,175.29296875,0.0
1734420831.8697877,-63.4765625,-21.97265625,44.43359375,15.13671875,0.0
1734420831.8737013,325.1953125,-27.83203125,-228.02734375,-204.1015625,0.0
1734420831.877607,296.875,-29.78515625,-139.16015625,-219.23828125,0.0
1734420831.8815126,-123.53515625,-32.71484375,218.75,11.71875,0.0
1734420831.8854184,-528.3203125,-37.59765625,220.703125,182.6171875,0.0
1734420831.889324,-165.52734375,-38.57421875,40.0390625,58.59375,0.0
1734420831.8932297,294.921875,-39.0625,-166.015625,-167.48046875,0.0
1734420831.8971353,327.1484375,-37.59765625,-325.68359375,-204.1015625,0.0
1734420831.9010408,-73.2421875,-34.1796875,-96.19140625,14.16015625,0.0
1734420831.9049466,-529.78515625,-37.109375,136.71875,192.87109375,0.0
1734420831.908852,-214.35546875,-35.15625,174.31640625,80.56640625,0.0
1734420831.9127579,273.4375,-29.78515625,-99.609375,-159.1796875,0.0
1734420831.9166634,344.23828125,-23.92578125,-289.0625,-214.35546875,0.0
1734420831.9205768,0.48828125,-22.4609375,67.3828125,-14.6484375,0.0
1734420831.9244826,-519.53125,-32.2265625,217.7734375,175.29296875,0.0
1734420831.928388,-320.3125,-38.57421875,145.5078125,116.69921875,0.0
1734420831.932294,211.9140625,-35.64453125,-39.55078125,-141.6015625,0.0
1734420831.9361994,342.7734375,-29.78515625,-282.71484375,-235.3515625,0.0
1734420831.940105,44.43359375,-35.64453125,-38.0859375,-46.38671875,0.0
1734420831.9440107,-476.5625,-42.96875,244.62890625,150.390625,0.0
1734420831.9479163,-380.37109375,-40.52734375,-8.7890625,130.37109375,0.0
1734420831.951822,165.52734375,-34.66796875,-276.85546875,-97.65625,0.0
1734420831.9557276,341.796875,-30.76171875,-198.2421875,-235.83984375,0.0
1734420831.9596334,110.3515625,-34.66796875,42.48046875,-106.4453125,0.0
1734420831.963539,-402.34375,-24.90234375,222.65625,127.9296875,0.0
1734420831.9674518,-420.41015625,-18.06640625,239.2578125,170.8984375,0.0
1734420831.9713576,135.7421875,-21.484375,10.7421875,-58.10546875,0.0
1734420831.975263,377.44140625,-26.3671875,-338.8671875,-226.07421875,0.0
1734420831.9791687,190.91796875,-46.38671875,-133.30078125,-110.83984375,0.0
1734420831.9830744,-326.66015625,-43.9453125,255.859375,118.65234375,0.0
1734420831.98698,-462.40234375,-26.85546875,250.48828125,157.71484375,0.0
1734420831.9908857,49.8046875,-30.76171875,-103.515625,-42.48046875,0.0
1734420831.9947913,332.03125,-33.203125,-454.58984375,-212.40234375,0.0
1734420831.998697,238.28125,-27.34375,-83.49609375,-164.0625,0.0
1734420832.0026026,-254.8828125,-26.3671875,288.0859375,77.1484375,0.0
1734420832.006508,-508.30078125,-35.64453125,187.98828125,185.546875,0.0
1734420832.010414,6.34765625,-40.52734375,39.0625,-4.8828125,0.0
1734420832.0143263,370.1171875,-41.015625,-116.69921875,-201.66015625,0.0
1734420832.018232,288.57421875,-47.8515625,-278.80859375,-183.59375,0.0
1734420832.0221376,-207.51953125,-48.33984375,75.1953125,65.4296875,0.0
1734420832.0260434,-543.9453125,-37.59765625,290.52734375,207.03125,0.0
1734420832.029949,-78.125,-27.34375,27.34375,39.0625,0.0
1734420832.0338547,323.73046875,-29.296875,-225.5859375,-181.15234375,0.0
1734420832.0377603,298.828125,-38.57421875,-447.265625,-186.5234375,0.0
1734420832.0416658,-125.48828125,-49.31640625,-99.609375,31.73828125,0.0
1734420832.0455716,-534.1796875,-52.24609375,323.73046875,181.640625,0.0
1734420832.049477,-164.55078125,-42.48046875,70.3125,64.453125,0.0
1734420832.0533829,286.62109375,-40.52734375,-207.51953125,-172.36328125,0.0
1734420832.0572884,325.1953125,-41.9921875,-154.296875,-237.79296875,0.0
1734420832.0612006,-56.15234375,-43.45703125,210.9375,-20.01953125,0.0
1734420832.0651062,-532.2265625,-47.36328125,232.91015625,192.87109375,0.0
1734420832.069012,-255.859375,-46.38671875,108.3984375,118.1640625,0.0
1734420832.0729175,251.46484375,-43.9453125,-44.43359375,-138.18359375,0.0
1734420832.0768232,347.65625,-41.9921875,-253.41796875,-237.3046875,0.0
1734420832.0807288,13.18359375,-45.41015625,-67.3828125,-39.0625,0.0
1734420832.0846343,-498.53515625,-45.8984375,117.67578125,179.6875,0.0
1734420832.08854,-309.5703125,-42.96875,163.57421875,130.859375,0.0
1734420832.0924456,222.65625,-45.8984375,-25.390625,-139.6484375,0.0
1734420832.0963514,351.07421875,-47.36328125,-322.265625,-262.6953125,0.0
1734420832.100257,75.1953125,-48.33984375,-43.9453125,-79.1015625,0.0
1734420832.1041627,-437.01171875,-42.48046875,296.875,156.25,0.0
1734420832.1080778,-354.4921875,-40.0390625,190.91796875,137.20703125,0.0
1734420832.1119833,195.80078125,-41.015625,-96.6796875,-92.28515625,0.0
1734420832.1158888,375.0,-41.50390625,-229.4921875,-226.07421875,0.0
1734420832.1197946,145.5078125,-37.109375,104.00390625,-111.81640625,0.0
1734420832.1237001,-396.484375,-33.69140625,251.46484375,107.91015625,0.0
1734420832.127606,-443.359375,-41.015625,190.91796875,145.99609375,0.0
1734420832.1315114,113.28125,-43.9453125,-2.9296875,-68.359375,0.0
1734420832.1354172,349.12109375,-38.0859375,-210.9375,-243.65234375,0.0
1734420832.1393228,180.17578125,-33.203125,0.48828125,-139.16015625,0.0
1734420832.1432283,-333.984375,-36.62109375,124.51171875,92.28515625,0.0
1734420832.147134,-484.375,-39.55078125,119.140625,164.0625,0.0
1734420832.1510396,53.22265625,-34.66796875,92.7734375,-26.85546875,0.0
1734420832.1549542,353.515625,-33.69140625,-190.4296875,-224.12109375,0.0
1734420832.15886,238.28125,-30.76171875,-152.34375,-158.203125,0.0
1734420832.1627655,-269.04296875,-20.5078125,235.3515625,104.00390625,0.0
1734420832.1666713,-516.6015625,-24.4140625,296.875,206.54296875,0.0
1734420832.1705768,-7.32421875,-35.15625,23.92578125,-11.71875,0.0
1734420832.1744826,339.35546875,-38.57421875,-351.5625,-229.4921875,0.0
1734420832.178388,280.2734375,-35.15625,-205.56640625,-199.70703125,0.0
1734420832.1822937,-184.5703125,-29.78515625,254.8828125,39.0625,0.0
1734420832.1861994,-548.33984375,-39.0625,120.1171875,202.63671875,0.0
1734420832.190105,-105.95703125,-42.48046875,-156.25,34.1796875,0.0
1734420832.1940107,314.94140625,-34.66796875,-124.51171875,-211.42578125,0.0
1734420832.1979163,309.08203125,-35.15625,-124.0234375,-203.125,0.0
1734420832.2018309,-111.328125,-33.69140625,118.1640625,28.80859375,0.0
1734420832.2057364,-534.1796875,-35.15625,156.25,193.84765625,0.0
1734420832.209642,-170.41015625,-37.109375,35.64453125,69.82421875,0.0
1734420832.2135477,294.43359375,-33.203125,-182.6171875,-186.03515625,0.0
1734420832.2174532,331.0546875,-31.73828125,-368.1640625,-254.8828125,0.0
1734420832.221359,-56.640625,-37.59765625,-76.66015625,-32.2265625,0.0
1734420832.2252645,-538.0859375,-36.1328125,231.93359375,173.828125,0.0
1734420832.2291703,-256.34765625,-32.71484375,151.3671875,90.33203125,0.0
1734420832.2330759,253.41796875,-41.50390625,-295.8984375,-143.06640625,0.0
1734420832.2369814,337.40234375,-28.80859375,-422.8515625,-240.234375,0.0
1734420832.2408872,-0.9765625,-14.16015625,104.00390625,-76.66015625,0.0
1734420832.2447927,-516.6015625,-23.92578125,219.7265625,147.94921875,0.0
1734420832.2487068,0.0,-29.296875,142.578125,119.62890625,0.0
1734420832.2526126,0.0,-27.34375,-33.203125,-132.32421875,0.0
1734420832.2565181,0.0,-30.76171875,-289.0625,-252.9296875,0.0
1734420832.2604237,0.0,-31.73828125,-52.24609375,-82.03125,0.0
1734420832.2643294,0.0,-28.80859375,168.9453125,129.39453125,0.0
1734420832.268235,0.0,-25.87890625,141.11328125,103.515625,0.0
1734420832.2721407,0.0,-28.80859375,-91.796875,-127.44140625,0.0
1734420832.2760463,0.0,-34.1796875,-472.16796875,-258.7890625,0.0
1734420832.279952,0.0,-34.1796875,-350.09765625,-101.07421875,0.0
1734420832.2838576,0.0,-31.25,161.62109375,125.0,0.0
1734420832.287763,0.0,-28.80859375,263.671875,141.11328125,0.0
1734420832.291669,0.0,-27.34375,-35.15625,-90.8203125,0.0
1734420832.2955825,366.69921875,-27.34375,-290.0390625,-253.41796875,0.0
1734420832.299488,196.2890625,-23.92578125,-194.3359375,-141.11328125,0.0
1734420832.3033938,-339.84375,-16.6015625,63.4765625,99.12109375,0.0
1734420832.3072994,-487.3046875,-16.11328125,231.4453125,162.59765625,0.0
1734420832.3112051,56.15234375,-18.06640625,24.90234375,-55.6640625,0.0
1734420832.3151107,360.83984375,-22.94921875,-333.49609375,-244.62890625,0.0
1734420832.3190165,251.953125,-25.87890625,-228.515625,-167.48046875,0.0
1734420832.322922,-266.11328125,-32.71484375,-29.296875,86.9140625,0.0
1734420832.3268275,-529.296875,-37.109375,48.33984375,203.61328125,0.0
1734420832.3307333,-27.83203125,-30.2734375,101.07421875,19.53125,0.0
1734420832.3346388,337.890625,-29.296875,-183.59375,-196.2890625,0.0
1734420832.3385446,299.8046875,-23.92578125,-187.01171875,-181.15234375,0.0
1734420832.3424575,-166.50390625,-22.4609375,0.0,57.12890625,0.0
1734420832.3463633,-523.4375,-25.87890625,0.0,190.91796875,0.0
1734420832.3502688,-84.47265625,-21.97265625,0.0,13.671875,0.0
1734420832.3541744,335.9375,-24.4140625,0.0,-208.49609375,0.0
1734420832.3580801,328.125,-30.76171875,0.0,-215.33203125,0.0
1734420832.3619857,-117.67578125,-35.64453125,0.0,3.41796875,0.0
1734420832.3658915,-543.9453125,-35.64453125,0.0,175.29296875,0.0
1734420832.369797,-172.8515625,-32.2265625,0.0,68.84765625,0.0
1734420832.3737025,300.78125,-31.25,0.0,-173.828125,0.0
1734420832.3776083,348.14453125,-29.78515625,0.0,-239.2578125,0.0
1734420832.3815138,-41.015625,-33.69140625,0.0,-43.45703125,0.0
1734420832.3854196,-530.2734375,-39.0625,0.0,159.66796875,0.0
1734420832.3893328,-255.859375,-36.62109375,202.1484375,92.7734375,0.0
1734420832.3932385,266.6015625,-32.2265625,-72.75390625,-151.85546875,0.0
1734420832.397144,365.234375,-32.71484375,-348.6328125,-227.5390625,0.0
1734420832.4010499,24.4140625,-31.73828125,85.44921875,-32.2265625,0.0
1734420832.4049554,-500.9765625,-29.78515625,304.19921875,178.22265625,0.0
1734420832.408861,-309.08203125,-26.3671875,156.25,138.671875,0.0
1734420832.4127667,238.76953125,-22.94921875,-136.71875,-109.375,0.0
1734420832.4166722,354.4921875,-29.78515625,-230.95703125,-225.5859375,0.0
1734420832.420578,60.05859375,-33.203125,132.32421875,-60.05859375,0.0
1734420832.4244835,-455.56640625,-27.34375,253.90625,159.1796875,0.0
1734420832.428389,-385.7421875,-30.76171875,54.6875,160.64453125,0.0
1734420832.4322948,159.1796875,-35.15625,-34.66796875,-84.47265625,0.0
1734420832.436207,361.81640625,-34.66796875,-141.6015625,-235.83984375,0.0
1734420832.4401126,153.3203125,-40.52734375,20.99609375,-104.98046875,0.0
1734420832.4440184,-390.13671875,-42.96875,206.54296875,123.53515625,0.0
1734420832.447924,-452.1484375,-39.0625,211.9140625,171.38671875,0.0
1734420832.4518294,105.95703125,-37.109375,106.4453125,-58.10546875,0.0
1734420832.4557352,349.12109375,-37.59765625,-344.7265625,-224.609375,0.0
1734420832.4596407,192.87109375,-36.1328125,-356.4453125,-110.83984375,0.0
1734420832.4635465,-316.89453125,-34.66796875,209.47265625,115.234375,0.0
1734420832.467452,-484.375,-29.78515625,357.421875,189.94140625,0.0
1734420832.4713578,39.55078125,-23.92578125,7.8125,-0.9765625,0.0
1734420832.4752634,338.37890625,-25.87890625,-239.74609375,-221.19140625,0.0
1734420832.479169,242.1875,-30.2734375,12.6953125,-169.921875,0.0
1734420832.483084,0.0,-31.73828125,279.296875,100.09765625,0.0
1734420832.4869897,0.0,-33.203125,227.5390625,227.05078125,0.0
1734420832.4908953,0.0,-29.78515625,76.171875,37.59765625,0.0
1734420832.4948008,0.0,-27.83203125,-65.4296875,-207.51953125,0.0
1734420832.4987066,0.0,-32.71484375,-54.19921875,-201.171875,0.0
1734420832.502612,0.0,-47.8515625,191.89453125,44.43359375,0.0
1734420832.506518,0.0,-50.29296875,229.4921875,199.70703125,0.0
1734420832.5104234,0.0,-31.73828125,119.62890625,38.0859375,0.0
1734420832.5143292,0.0,-32.2265625,-95.703125,-190.91796875,0.0
1734420832.5182347,0.0,-39.55078125,-309.5703125,-192.3828125,0.0
1734420832.5221403,0.0,-33.69140625,110.83984375,54.19921875,0.0
1734420832.526046,0.0,-31.73828125,378.90625,227.5390625,0.0
1734420832.5299604,-175.78125,-32.2265625,146.97265625,80.078125,0.0
1734420832.5338662,289.0625,-28.80859375,-188.96484375,-154.296875,0.0
1734420832.5377717,324.70703125,-28.3203125,-225.09765625,-214.35546875,0.0
1734420832.5416775,-52.734375,-27.34375,178.7109375,-6.34765625,0.0
1734420832.545583,-512.20703125,-28.3203125,288.57421875,204.58984375,0.0
1734420832.5494885,-248.53515625,-32.71484375,107.421875,128.41796875,0.0
1734420832.5533943,248.046875,-32.2265625,-119.62890625,-125.48828125,0.0
1734420832.5572999,351.5625,-32.71484375,-211.42578125,-246.09375,0.0
1734420832.5612056,38.57421875,-37.109375,-10.25390625,-41.50390625,0.0
1734420832.5651112,-490.72265625,-39.55078125,140.13671875,196.77734375,0.0
1734420832.5690167,-345.703125,-33.69140625,295.41015625,146.97265625,0.0
1734420832.5729225,190.91796875,-29.296875,72.75390625,-98.14453125,0.0
1734420832.5768366,323.73046875,-30.76171875,-287.59765625,-221.6796875,0.0
1734420832.5807424,55.17578125,-34.66796875,-66.40625,-51.7578125,0.0
1734420832.584648,-444.82421875,-35.64453125,269.04296875,172.8515625,0.0
1734420832.5885537,-376.46484375,-36.62109375,306.15234375,160.64453125,0.0
1734420832.5924592,159.66796875,-41.50390625,-33.69140625,-84.9609375,0.0
1734420832.596365,322.75390625,-42.96875,-398.92578125,-246.58203125,0.0
1734420832.6002705,90.33203125,-36.62109375,-70.3125,-145.99609375,0.0
1734420832.604176,-425.29296875,-33.69140625,324.21875,85.44921875,0.0
1734420832.6080818,-480.46875,-37.109375,62.5,153.3203125,0.0
1734420832.6119874,42.96875,-36.62109375,-119.140625,-100.09765625,0.0
1734420832.6158931,274.4140625,-30.76171875,-142.578125,-304.19921875,0.0
1734420832.6197987,122.0703125,-26.85546875,-95.21484375,-199.21875,0.0
1734420832.6237123,-395.99609375,-33.203125,173.33984375,30.76171875,0.0
1734420832.627618,-584.47265625,-37.59765625,289.55078125,105.95703125,0.0
1734420832.6315236,-62.5,-31.73828125,128.90625,-89.35546875,0.0
1734420832.6354294,215.8203125,-35.64453125,-293.9453125,-329.58984375,0.0
1734420832.639335,84.47265625,-36.1328125,-253.90625,-295.41015625,0.0
1734420832.6432407,-378.90625,-42.48046875,167.48046875,-23.4375,0.0
1734420832.6471462,-646.484375,-48.828125,295.41015625,110.3515625,0.0
1734420832.6510518,-173.828125,-42.96875,-60.05859375,-76.66015625,0.0
1734420832.6549575,188.4765625,-40.52734375,-440.91796875,-311.5234375,0.0
1734420832.658863,140.625,-39.0625,-135.25390625,-306.15234375,0.0
1734420832.6627688,-282.71484375,-44.43359375,261.71875,-39.55078125,0.0
1734420832.6666744,-620.1171875,-48.828125,270.99609375,135.25390625,0.0
1734420832.6705878,-190.91796875,-52.734375,118.1640625,-14.16015625,0.0
1734420832.6744936,217.28515625,-54.19921875,-109.375,-239.2578125,0.0
1734420832.678399,222.65625,-45.8984375,-308.10546875,-265.13671875,0.0
1734420832.6823049,-172.8515625,-51.7578125,37.59765625,-13.18359375,0.0
1734420832.6862104,-576.171875,-50.78125,343.75,197.265625,0.0
1734420832.6901162,-210.44921875,-44.43359375,141.6015625,85.9375,0.0
1734420832.6940217,242.1875,-45.8984375,-144.53125,-167.96875,0.0
1734420832.6979272,263.671875,-43.9453125,-432.12890625,-214.35546875,0.0
1734420832.701833,-89.84375,-38.0859375,-74.70703125,0.48828125,0.0
1734420832.7057385,-521.484375,-30.76171875,397.94921875,211.9140625,0.0
1734420832.7096443,-260.7421875,-37.109375,253.90625,152.83203125,0.0
1734420832.7135499,228.515625,-39.0625,-70.3125,-95.703125,0.0
1734420832.717463,335.44921875,-33.203125,-188.96484375,-191.40625,0.0
1734420832.7213686,36.62109375,-37.109375,185.546875,-26.85546875,0.0
1734420832.7252743,-464.84375,-41.9921875,298.33984375,206.54296875,0.0
1734420832.7291799,-306.640625,-40.52734375,255.859375,180.6640625,0.0
1734420832.7330854,216.796875,-40.0390625,65.4296875,-79.1015625,0.0
1734420832.7369912,343.26171875,-45.8984375,-294.921875,-210.44921875,0.0
1734420832.7408967,93.75,-45.41015625,-122.55859375,-40.0390625,0.0
1734420832.7448025,-397.4609375,-40.52734375,187.5,229.4921875,0.0
1734420832.748708,-361.81640625,-39.55078125,305.17578125,235.83984375,0.0
1734420832.7526138,178.22265625,-33.203125,108.3984375,-15.625,0.0
1734420832.7565193,376.46484375,-29.78515625,-229.00390625,-177.734375,0.0
1734420832.7604249,160.15625,-33.203125,8.7890625,-71.2890625,0.0
1734420832.7643375,0.0,-37.59765625,355.95703125,174.31640625,0.0
1734420832.768243,0.0,-42.96875,290.0390625,237.79296875,0.0
1734420832.7721488,0.0,-45.41015625,-22.4609375,4.39453125,0.0
1734420832.7760544,0.0,-40.52734375,-234.375,-170.8984375,0.0
1734420832.7799602,0.0,-43.9453125,4.39453125,-77.63671875,0.0
1734420832.7838657,0.0,-43.9453125,276.3671875,154.78515625,0.0
1734420832.7877715,0.0,-41.9921875,110.83984375,241.2109375,0.0
1734420832.791677,0.0,-43.9453125,-74.70703125,17.08984375,0.0
1734420832.7955825,0.0,-34.66796875,-144.04296875,-192.3828125,0.0
1734420832.7994883,0.0,-29.296875,-159.1796875,-139.6484375,0.0
1734420832.8033938,0.0,-31.73828125,174.31640625,113.76953125,0.0
1734420832.8072996,0.0,-38.0859375,351.5625,250.48828125,0.0
1734420832.8112118,-21.97265625,-41.50390625,165.52734375,55.17578125,0.0
1734420832.8151174,326.66015625,-37.109375,-175.78125,-173.828125,0.0
1734420832.819023,266.11328125,-32.71484375,-299.8046875,-174.8046875,0.0
1734420832.8229287,-168.9453125,-31.25,122.55859375,71.2890625,0.0
1734420832.8268342,-510.25390625,-29.78515625,378.90625,239.74609375,0.0
1734420832.83074,-97.65625,-33.203125,-10.25390625,84.9609375,0.0
1734420832.8346455,289.55078125,-37.59765625,-435.546875,-168.45703125,0.0
1734420832.8385513,255.859375,-32.2265625,-311.03515625,-212.890625,0.0
1734420832.8424568,-134.27734375,-25.390625,139.16015625,22.4609375,0.0
1734420832.8463624,-540.0390625,-31.73828125,241.69921875,188.96484375,0.0
1734420832.8502681,-234.375,-41.50390625,84.47265625,35.64453125,0.0
1734420832.8541737,197.75390625,-40.52734375,-93.75,-223.14453125,0.0
1734420832.8580887,230.95703125,-38.0859375,-368.1640625,-288.57421875,0.0
1734420832.8619945,-124.51171875,-33.203125,-76.66015625,-87.40234375,0.0
1734420832.8659,-591.796875,-32.71484375,203.61328125,113.76953125,0.0
1734420832.8698058,-353.515625,-33.203125,168.9453125,17.578125,0.0
1734420832.8737113,111.328125,-31.73828125,-127.9296875,-256.34765625,0.0
1734420832.877617,174.8046875,-35.64453125,-526.3671875,-364.74609375,0.0
1734420832.8815227,-139.6484375,-33.69140625,-135.7421875,-196.2890625,0.0
1734420832.8854282,-631.8359375,-34.66796875,295.41015625,17.578125,0.0
1734420832.889334,-490.234375,-38.57421875,195.80078125,-12.20703125,0.0
1734420832.8932395,7.32421875,-39.0625,-202.1484375,-252.44140625,0.0
1734420832.897145,129.39453125,-42.96875,-429.6875,-389.6484375,0.0
1734420832.9010508,-112.79296875,-41.015625,-33.203125,-237.3046875,0.0
1734420832.9049659,-601.5625,-46.38671875,223.14453125,11.23046875,0.0
1734420832.9088714,-544.921875,-54.19921875,196.77734375,38.0859375,0.0
1734420832.9127772,0.0,-56.15234375,-39.0625,-195.3125,0.0
1734420832.9166827,193.359375,-63.96484375,-373.53515625,-371.09375,0.0
1734420832.9205883,31.25,-62.5,-264.16015625,-229.4921875,0.0
1734420832.924494,-445.80078125,-56.640625,59.5703125,71.77734375,0.0
1734420832.9283996,-500.9765625,-66.89453125,188.96484375,136.23046875,0.0
1734420832.9323053,38.57421875,-70.80078125,-4.8828125,-86.42578125,0.0
1734420832.9362109,293.45703125,-62.5,-476.07421875,-257.8125,0.0
1734420832.9401166,157.2265625,-59.08203125,-497.55859375,-158.69140625,0.0
1734420832.9440222,-319.82421875,-51.26953125,162.59765625,102.5390625,0.0
1734420832.9479277,-471.19140625,-52.734375,346.19140625,211.9140625,0.0
1734420832.9518418,40.52734375,-55.17578125,-56.15234375,20.01953125,0.0
1734420832.9557476,328.125,-52.24609375,-472.65625,-187.5,0.0
1734420832.9596531,237.79296875,-52.734375,-363.76953125,-126.46484375,0.0
1734420832.963559,-197.265625,-53.22265625,139.16015625,133.30078125,0.0
1734420832.9674644,-452.63671875,-55.6640625,328.61328125,263.671875,0.0
1734420832.9713702,13.671875,-56.640625,-4.39453125,73.2421875,0.0
1734420832.9752758,340.33203125,-51.26953125,-346.19140625,-144.04296875,0.0
1734420832.9791813,296.875,-45.41015625,-337.40234375,-133.7890625,0.0
1734420832.983087,-94.23828125,-48.828125,-175.29296875,108.88671875,0.0
1734420832.9869926,-440.91796875,-43.9453125,157.71484375,283.203125,0.0
1734420832.9908984,-36.1328125,-32.2265625,199.70703125,112.3046875,0.0
1734420832.994804,364.2578125,-36.62109375,-217.28515625,-132.32421875,0.0
1734420832.9987178,349.12109375,-42.48046875,-397.94921875,-160.15625,0.0
1734420833.0026233,-45.41015625,-40.0390625,69.3359375,78.61328125,0.0
1734420833.0065289,-436.5234375,-44.921875,362.3046875,289.55078125,0.0
1734420833.0104346,-88.8671875,-50.78125,107.421875,161.1328125,0.0
1734420833.0143402,345.21484375,-50.78125,-299.8046875,-129.39453125,0.0
1734420833.018246,364.2578125,-47.36328125,-479.98046875,-208.49609375,0.0
1734420833.0221515,20.5078125,-44.43359375,17.578125,23.4375,0.0
1734420833.0260572,-423.33984375,-43.45703125,224.609375,267.08984375,0.0
1734420833.0299628,-187.5,-46.875,26.85546875,192.3828125,0.0
1734420833.0338683,284.66796875,-46.875,-78.125,-93.75,0.0
1734420833.037774,376.46484375,-42.48046875,-378.90625,-199.21875,0.0
1734420833.0416796,85.44921875,-38.57421875,-107.421875,-6.34765625,0.0
1734420833.0455973,0.0,-39.55078125,0.0,227.05078125,0.0
1734420833.0495028,0.0,-48.33984375,0.0,203.125,0.0
1734420833.0534086,0.0,-47.36328125,0.0,-63.96484375,0.0
1734420833.0573142,0.0,-43.9453125,0.0,-195.80078125,0.0
1734420833.0612197,0.0,-43.45703125,0.0,-25.87890625,0.0
1734420833.0651255,0.0,-42.48046875,0.0,219.7265625,0.0
1734420833.069031,0.0,-44.921875,0.0,207.51953125,0.0
1734420833.0729368,0.0,-47.8515625,0.0,-62.01171875,0.0
1734420833.0768423,0.0,-42.96875,0.0,-220.703125,0.0
1734420833.080748,0.0,-39.0625,0.0,-93.75,0.0
1734420833.0846536,0.0,-38.57421875,0.0,174.31640625,0.0
1734420833.0885592,0.0,-37.59765625,0.0,227.5390625,0.0
1734420833.0924675,128.90625,-36.62109375,280.76171875,-31.25,0.0
1734420833.096373,351.07421875,-39.55078125,238.28125,-237.79296875,0.0
1734420833.1002786,208.0078125,-47.8515625,-127.9296875,-153.3203125,0.0
1734420833.1041844,-271.97265625,-45.41015625,-460.44921875,112.79296875,0.0
1734420833.10809,-456.0546875,-38.57421875,-74.70703125,216.30859375,0.0
1734420833.1119957,43.9453125,-40.52734375,246.58203125,0.0,0.0
1734420833.1159012,337.890625,-41.50390625,228.515625,-210.9375,0.0
1734420833.119807,250.0,-41.015625,-228.02734375,-178.22265625,0.0
1734420833.1237125,-223.14453125,-35.15625,-569.82421875,62.01171875,0.0
1734420833.127618,-500.0,-29.78515625,-76.171875,207.51953125,0.0
1734420833.1315238,-24.90234375,-36.1328125,222.16796875,32.2265625,0.0
1734420833.1354294,325.68359375,-42.48046875,229.98046875,-206.54296875,0.0
1734420833.139333,273.4375,-44.43359375,23.4375,-211.42578125,0.0
1734420833.1432385,-145.01953125,-42.48046875,-318.359375,43.9453125,0.0
1734420833.147144,-481.93359375,-39.55078125,-321.77734375,224.12109375,0.0
1734420833.1510499,-66.40625,-35.64453125,65.4296875,62.5,0.0
1734420833.1549554,316.40625,-37.109375,307.6171875,-208.49609375,0.0
1734420833.1588612,287.59765625,-42.48046875,0.48828125,-248.53515625,0.0
1734420833.1627667,-90.8203125,-48.828125,-518.06640625,14.16015625,0.0
1734420833.1666725,-509.27734375,-51.7578125,-532.2265625,216.796875,0.0
1734420833.170578,-179.6875,-43.45703125,148.4375,98.14453125,0.0
1734420833.1744835,278.80859375,-40.52734375,388.18359375,-151.85546875,0.0
1734420833.1783893,311.03515625,-39.0625,-11.71875,-246.09375,0.0
1734420833.1822948,-27.34375,-34.66796875,-353.515625,-39.0625,0.0
1734420833.186207,-482.91015625,-36.1328125,362.3046875,188.96484375,0.0
1734420833.1901128,-250.0,-38.57421875,161.1328125,112.79296875,0.0
1734420833.1940184,229.98046875,-41.9921875,-244.62890625,-152.34375,0.0
1734420833.197924,306.15234375,-41.015625,-424.8046875,-278.3203125,0.0
1734420833.2018297,20.01953125,-35.15625,-32.2265625,-91.30859375,0.0
1734420833.2057352,-459.9609375,-36.62109375,162.109375,170.8984375,0.0
1734420833.209641,-328.61328125,-36.62109375,10.7421875,153.3203125,0.0
1734420833.2135465,202.1484375,-29.296875,-136.71875,-113.76953125,0.0
1734420833.2174523,337.40234375,-30.2734375,-440.91796875,-257.32421875,0.0
1734420833.2213578,77.63671875,-35.64453125,-279.78515625,-110.3515625,0.0
1734420833.2252634,-411.1328125,-34.66796875,156.73828125,137.6953125,0.0
1734420833.2291691,-364.2578125,-33.203125,298.828125,152.83203125,0.0
1734420833.2330844,153.80859375,-31.73828125,-79.58984375,-102.05078125,0.0
1734420833.23699,326.171875,-35.15625,-521.97265625,-272.4609375,0.0
1734420833.2408955,126.46484375,-34.66796875,-285.15625,-127.9296875,0.0
1734420833.2448013,-372.0703125,-36.62109375,179.6875,130.859375,0.0
1734420833.2487068,-445.3125,-44.921875,278.3203125,184.08203125,0.0
1734420833.2526126,79.58984375,-45.8984375,-165.52734375,-56.15234375,0.0
1734420833.2565181,328.61328125,-36.1328125,-521.97265625,-270.01953125,0.0
1734420833.260424,203.125,-25.87890625,-264.16015625,-196.77734375,0.0
1734420833.2643294,-282.2265625,-26.3671875,110.83984375,85.44921875,0.0
1734420833.268235,-477.5390625,-29.78515625,128.41796875,210.44921875,0.0
1734420833.2721407,20.99609375,-32.2265625,-63.4765625,-10.25390625,0.0
1734420833.2760463,315.91796875,-37.109375,-332.03125,-259.27734375,0.0
1734420833.2799609,216.30859375,-43.45703125,-424.8046875,-250.9765625,0.0
1734420833.2838666,-232.421875,-45.8984375,22.4609375,39.55078125,0.0
1734420833.2877722,-498.53515625,-45.8984375,339.35546875,210.9375,0.0
1734420833.291678,-33.203125,-45.41015625,91.796875,20.5078125,0.0
1734420833.2955835,337.890625,-48.828125,-369.140625,-193.84765625,0.0
1734420833.2994893,291.9921875,-55.6640625,-531.73828125,-186.03515625,0.0
1734420833.3033948,-151.85546875,-59.08203125,-29.296875,61.5234375,0.0
1734420833.3073006,-512.6953125,-57.6171875,375.48828125,254.8828125,0.0
1734420833.311206,-120.1171875,-61.03515625,-70.3125,104.4921875,0.0
1734420833.3151116,291.015625,-62.5,-560.546875,-166.015625,0.0
1734420833.3190174,299.8046875,-62.98828125,-384.27734375,-239.2578125,0.0
1734420833.322923,-81.54296875,-61.5234375,54.6875,-13.18359375,0.0
1734420833.3268373,-499.0234375,-59.5703125,251.46484375,218.75,0.0
1734420833.3307428,-188.4765625,-62.5,31.25,127.9296875,0.0
1734420833.3346486,274.90234375,-58.10546875,-261.23046875,-136.23046875,0.0
1734420833.3385541,319.3359375,-61.5234375,-443.359375,-235.3515625,0.0
1734420833.3424597,-24.90234375,-67.3828125,-122.0703125,-27.34375,0.0
1734420833.3463655,-473.6328125,-64.453125,169.43359375,199.21875,0.0
1734420833.350271,-243.1640625,-60.546875,175.29296875,136.71875,0.0
1734420833.3541768,242.1875,-55.17578125,-137.6953125,-122.55859375,0.0
1734420833.3580823,342.28515625,-56.15234375,-521.484375,-239.2578125,0.0
1734420833.361988,52.734375,-54.19921875,-61.5234375,-38.0859375,0.0
1734420833.3658936,-431.15234375,-48.828125,317.87109375,214.84375,0.0
1734420833.3697991,-316.40625,-52.734375,215.33203125,172.36328125,0.0
1734420833.373713,210.9375,-57.6171875,-171.38671875,-105.95703125,0.0
1734420833.3776188,366.2109375,-53.22265625,-456.54296875,-260.7421875,0.0
1734420833.3815243,115.72265625,-45.41015625,-100.5859375,-109.86328125,0.0
1734420833.3854299,-383.7890625,-46.875,197.265625,167.48046875,0.0
1734420833.3893356,-377.9296875,-50.29296875,157.71484375,222.16796875,0.0
1734420833.3932412,148.4375,-49.8046875,-183.10546875,-47.8515625,0.0
1734420833.397147,354.98046875,-47.36328125,-486.81640625,-249.51171875,0.0
1734420833.4010525,166.015625,-43.45703125,-398.4375,-132.32421875,0.0
1734420833.4049582,-340.8203125,-45.8984375,-65.91796875,131.8359375,0.0
1734420833.4088638,-416.9921875,-42.48046875,294.43359375,184.5703125,0.0
1734420833.4127693,117.1875,-43.9453125,-16.11328125,-55.17578125,0.0
1734420833.416675,364.74609375,-47.8515625,-414.0625,-257.8125,0.0
1734420833.4205885,231.93359375,-44.43359375,-273.92578125,-179.19921875,0.0
1734420833.424494,-275.390625,-42.96875,91.30859375,99.12109375,0.0
1734420833.4283998,-476.07421875,-41.9921875,267.08984375,208.0078125,0.0
1734420833.4323053,34.1796875,-38.0859375,-60.05859375,2.44140625,0.0
1734420833.436211,349.12109375,-34.66796875,-421.38671875,-205.078125,0.0
1734420833.4401166,256.8359375,-31.73828125,-415.52734375,-185.05859375,0.0
1734420833.4440222,-220.703125,-32.71484375,26.3671875,52.734375,0.0
1734420833.447928,-507.32421875,-41.9921875,55.17578125,201.171875,0.0
1734420833.4518335,-22.94921875,-41.9921875,-249.0234375,3.90625,0.0
1734420833.4557393,339.35546875,-36.1328125,-293.9453125,-227.05078125,0.0
1734420833.4596448,299.8046875,-39.55078125,-436.03515625,-213.8671875,0.0
1734420833.4635506,-120.1171875,-37.59765625,-20.5078125,42.96875,0.0
1734420833.4674635,-517.08984375,-34.66796875,309.08203125,225.09765625,0.0
1734420833.471369,-120.60546875,-40.52734375,111.81640625,54.19921875,0.0
1734420833.4752748,312.01171875,-45.8984375,-284.66796875,-216.30859375,0.0
1734420833.4791803,317.87109375,-46.38671875,-422.36328125,-252.9296875,0.0
1734420833.483086,-77.1484375,-46.875,-7.32421875,-1.46484375,0.0
1734420833.4869916,-549.31640625,-51.7578125,223.14453125,175.78125,0.0
1734420833.4908972,-241.69921875,-57.6171875,-77.63671875,56.15234375,0.0
1734420833.494803,255.859375,-59.08203125,-431.15234375,-168.9453125,0.0
1734420833.4987085,333.49609375,-48.828125,-356.93359375,-234.375,0.0
1734420833.5026143,-23.92578125,-47.36328125,29.296875,-33.69140625,0.0
1734420833.5065198,-530.76171875,-50.78125,158.69140625,176.26953125,0.0
1734420833.5104256,-296.875,-46.38671875,99.12109375,118.1640625,0.0
1734420833.514338,254.39453125,-45.41015625,-92.7734375,-152.83203125,0.0
1734420833.5182438,384.27734375,-50.78125,-438.96484375,-276.3671875,0.0
1734420833.5221493,75.68359375,-52.734375,-204.58984375,-78.61328125,0.0
1734420833.5260549,-469.23828125,-46.38671875,182.12890625,154.296875,0.0
1734420833.5299606,-371.09375,-45.41015625,201.171875,148.4375,0.0
1734420833.5338662,201.171875,-48.33984375,-151.3671875,-91.796875,0.0
1734420833.537772,384.765625,-54.19921875,-601.07421875,-242.67578125,0.0
1734420833.5416775,128.41796875,-47.8515625,-272.4609375,-100.09765625,0.0
1734420833.5455832,-418.45703125,-41.015625,268.5546875,145.5078125,0.0
1734420833.5494888,-426.7578125,-43.9453125,157.71484375,167.48046875,0.0
1734420833.5533943,139.16015625,-46.875,-165.0390625,-87.40234375,0.0
1734420833.5573,377.9296875,-49.31640625,-373.53515625,-259.27734375,0.0
1734420833.5612123,192.87109375,-47.8515625,-201.66015625,-161.62109375,0.0
1734420833.5651178,-340.33203125,-48.33984375,69.82421875,99.12109375,0.0
1734420833.5690236,-452.63671875,-51.26953125,178.22265625,169.921875,0.0
1734420833.5729291,82.03125,-52.24609375,-90.8203125,-71.77734375,0.0
1734420833.5768347,374.0234375,-50.29296875,-416.015625,-253.41796875,0.0
1734420833.5807405,259.27734375,-47.8515625,-405.76171875,-171.38671875,0.0
1734420833.584646,-259.27734375,-40.0390625,-165.52734375,78.125,0.0
1734420833.5885518,-508.7890625,-38.0859375,178.7109375,166.015625,0.0
1734420833.5924573,14.6484375,-42.48046875,31.73828125,-43.9453125,0.0
1734420833.596363,375.48828125,-44.921875,-347.16796875,-243.65234375,0.0
1734420833.6002686,291.50390625,-42.48046875,-323.73046875,-205.078125,0.0
1734420833.6041741,-199.70703125,-39.0625,107.91015625,54.19921875,0.0
1734420833.608086,-523.92578125,-38.57421875,269.04296875,201.171875,0.0
1734420833.6119916,-54.6875,-43.45703125,-101.5625,27.83203125,0.0
1734420833.6158972,341.30859375,-47.36328125,-380.37109375,-203.61328125,0.0
1734420833.619803,318.359375,-49.31640625,-309.5703125,-213.8671875,0.0
1734420833.6237085,-125.0,-44.921875,51.26953125,24.4140625,0.0
1734420833.6276143,-534.1796875,-41.50390625,188.4765625,200.68359375,0.0
1734420833.6315198,-141.11328125,-43.9453125,-46.38671875,52.734375,0.0
1734420833.6354256,330.078125,-42.48046875,-261.71875,-210.9375,0.0
1734420833.639331,358.88671875,-41.015625,-378.90625,-258.7890625,0.0
1734420833.6432366,-54.19921875,-41.9921875,-207.51953125,-29.78515625,0.0
1734420833.6471424,-526.85546875,-37.59765625,126.46484375,160.15625,0.0
1734420833.651048,-217.7734375,-35.15625,133.7890625,69.3359375,0.0
1734420833.6549625,293.9453125,-36.62109375,-243.65234375,-157.71484375,0.0
1734420833.6588683,369.62890625,-33.203125,-432.6171875,-261.71875,0.0
1734420833.6627738,-5.859375,-39.55078125,-39.55078125,-81.54296875,0.0
1734420833.6666796,-517.578125,-42.48046875,298.828125,136.71875,0.0
1734420833.6705852,-270.01953125,-39.55078125,64.94140625,83.0078125,0.0
1734420833.674491,277.83203125,-42.48046875,-382.8125,-168.45703125,0.0
1734420833.6783965,368.65234375,-43.45703125,-480.46875,-269.04296875,0.0
1734420833.682302,71.77734375,-40.52734375,-12.6953125,-87.40234375,0.0
1734420833.6862078,-440.91796875,-41.015625,102.05078125,152.83203125,0.0
1734420833.6901133,-354.98046875,-41.9921875,-31.25,135.25390625,0.0
1734420833.694019,202.63671875,-42.48046875,-148.4375,-119.62890625,0.0
1734420833.6979246,374.0234375,-44.921875,-468.75,-260.7421875,0.0
1734420833.7018392,132.8125,-46.38671875,0.0,-121.58203125,0.0
1734420833.705745,-400.390625,-46.38671875,0.0,119.140625,0.0
1734420833.7096505,-413.0859375,-41.9921875,0.0,147.4609375,0.0
1734420833.7135563,146.97265625,-41.015625,0.0,-103.02734375,0.0
1734420833.7174618,346.6796875,-40.52734375,0.0,-278.3203125,0.0
1734420833.7213676,166.50390625,-41.9921875,0.0,-164.55078125,0.0
1734420833.7252731,-342.28515625,-42.96875,0.0,94.23828125,0.0
1734420833.7291787,-472.65625,-44.921875,0.0,180.17578125,0.0
1734420833.7330844,57.12890625,-51.26953125,0.0,-47.36328125,0.0
1734420833.73699,336.9140625,-46.38671875,0.0,-263.671875,0.0
1734420833.7408957,220.21484375,-39.55078125,0.0,-197.75390625,0.0
1734420833.7448013,-281.25,-40.52734375,0.0,76.171875,0.0
1734420833.7487152,-465.33203125,-48.828125,190.4296875,172.36328125,0.0
1734420833.7526207,54.19921875,-47.8515625,-118.1640625,-31.73828125,0.0
1734420833.7565265,334.9609375,-38.0859375,-400.87890625,-247.55859375,0.0
1734420833.760432,256.8359375,-38.57421875,-373.53515625,-245.60546875,0.0
1734420833.7643378,-202.63671875,-40.0390625,-40.0390625,20.01953125,0.0
1734420833.7682433,-513.671875,-39.55078125,192.3828125,188.96484375,0.0
1734420833.772149,-59.5703125,-34.1796875,24.4140625,13.671875,0.0
1734420833.7760546,325.68359375,-31.73828125,-407.2265625,-236.328125,0.0
1734420833.7799602,296.875,-32.71484375,-593.26171875,-227.05078125,0.0
1734420833.783866,-128.41796875,-30.2734375,60.546875,12.20703125,0.0
1734420833.7877715,-516.11328125,-34.66796875,352.05078125,169.921875,0.0
1734420833.7916772,-146.97265625,-40.52734375,13.671875,46.38671875,0.0
1734420833.7955906,272.4609375,-41.015625,-380.37109375,-209.9609375,0.0
1734420833.7994962,295.8984375,-40.52734375,-456.0546875,-264.16015625,0.0
1734420833.803402,-75.68359375,-43.9453125,-8.30078125,-28.3203125,0.0
1734420833.8073075,-520.01953125,-42.48046875,317.3828125,178.7109375,0.0
1734420833.8112133,-219.23828125,-34.66796875,141.11328125,99.12109375,0.0
1734420833.8151188,274.4140625,-32.71484375,-255.37109375,-154.78515625,0.0
1734420833.8190246,347.16796875,-33.203125,-423.33984375,-276.3671875,0.0
1734420833.82293,10.7421875,-35.15625,-277.34375,-55.6640625,0.0
1734420833.8268356,-473.6328125,-41.50390625,68.359375,196.77734375,0.0
1734420833.8307414,-256.34765625,-39.0625,277.34375,135.7421875,0.0
1734420833.834647,249.51171875,-36.1328125,-133.7890625,-134.27734375,0.0
1734420833.8385527,342.7734375,-40.52734375,-453.61328125,-270.99609375,0.0
1734420833.8424654,68.359375,-41.50390625,-30.2734375,-90.8203125,0.0
1734420833.8463712,-424.31640625,-38.57421875,322.75390625,148.92578125,0.0
1734420833.8502767,-332.51953125,-39.0625,201.66015625,139.16015625,0.0
1734420833.8541825,197.265625,-39.0625,-127.44140625,-90.33203125,0.0
1734420833.858088,372.55859375,-38.0859375,-402.83203125,-242.67578125,0.0
1734420833.8619938,141.11328125,-41.9921875,-216.796875,-109.375,0.0
1734420833.8658993,-403.3203125,-41.9921875,57.6171875,164.55078125,0.0
1734420833.8698049,-432.12890625,-40.0390625,30.76171875,208.984375,0.0
1734420833.8737106,136.71875,-37.59765625,-152.83203125,-33.203125,0.0
1734420833.8776162,382.8125,-38.0859375,-367.67578125,-241.69921875,0.0
1734420833.881522,194.82421875,-37.59765625,-258.7890625,-128.90625,0.0
1734420833.8854275,-329.58984375,-43.45703125,148.92578125,131.34765625,0.0
1734420833.88934,-458.0078125,-45.41015625,306.640625,180.6640625,0.0
1734420833.8932455,83.984375,-45.8984375,-101.07421875,-53.22265625,0.0
1734420833.8971512,376.953125,-37.59765625,-450.1953125,-253.90625,0.0
1734420833.9010568,260.7421875,-31.25,-223.6328125,-178.7109375,0.0
1734420833.9049625,-241.69921875,-34.1796875,159.66796875,95.703125,0.0
1734420833.908868,-488.28125,-33.69140625,237.79296875,219.7265625,0.0
1734420833.9127738,17.578125,-36.62109375,-226.5625,5.859375,0.0
1734420833.9166794,365.234375,-33.69140625,-510.25390625,-224.609375,0.0
1734420833.920585,300.78125,-24.4140625,-144.04296875,-214.35546875,0.0
1734420833.9244907,-160.64453125,-27.34375,155.76171875,28.80859375,0.0
1734420833.9283962,-510.25390625,-33.69140625,257.32421875,189.453125,0.0
1734420833.932302,-56.15234375,-35.15625,41.015625,25.87890625,0.0
1734420833.936214,352.5390625,-35.15625,-245.60546875,-205.56640625,0.0
1734420833.9401195,339.35546875,-35.15625,-291.9921875,-199.21875,0.0
1734420833.9440253,-85.44921875,-32.71484375,9.27734375,40.0390625,0.0
1734420833.9479308,-518.06640625,-29.296875,302.734375,204.58984375,0.0
1734420833.9518366,-132.32421875,-34.1796875,170.41015625,67.3828125,0.0
1734420833.9557421,336.9140625,-38.57421875,-256.8359375,-167.48046875,0.0
1734420833.959648,359.86328125,-37.109375,-465.33203125,-208.984375,0.0
1734420833.9635534,-23.4375,-36.62109375,104.98046875,3.90625,0.0
1734420833.967459,-496.58203125,-38.57421875,360.3515625,183.59375,0.0
1734420833.9713647,-207.51953125,-45.8984375,58.10546875,102.05078125,0.0
1734420833.9752703,310.05859375,-43.45703125,-251.46484375,-146.484375,0.0
1734420833.979176,380.859375,-40.52734375,-280.76171875,-248.046875,0.0
1734420833.9830909,22.4609375,-43.9453125,90.8203125,-32.2265625,0.0
1734420833.9869964,-486.81640625,-42.48046875,238.76953125,199.70703125,0.0
1734420833.9909022,-285.64453125,-41.9921875,112.3046875,142.578125,0.0
1734420833.9948077,252.9296875,-41.9921875,-91.796875,-122.0703125,0.0
1734420833.9987135,384.765625,-40.0390625,-345.21484375,-269.53125,0.0
1734420834.002619,98.6328125,-42.96875,-205.078125,-110.83984375,0.0
1734420834.0065248,-451.171875,-42.48046875,115.72265625,139.16015625,0.0
1734420834.0104303,-361.81640625,-33.203125,294.43359375,125.9765625,0.0
1734420834.0143359,209.9609375,-30.2734375,-20.5078125,-107.421875,0.0
1734420834.0182416,379.39453125,-35.15625,-453.125,-239.2578125,0.0
1734420834.0221472,145.01953125,-36.1328125,-71.77734375,-122.0703125,0.0
1734420834.026053,-366.69921875,-24.90234375,324.70703125,133.30078125,0.0
1734420834.0299673,0.0,-23.92578125,262.6953125,179.6875,0.0
1734420834.033873,0.0,-25.87890625,-58.59375,-63.96484375,0.0
1734420834.0377786,0.0,-26.3671875,-342.7734375,-241.69921875,0.0
1734420834.0416844,0.0,-29.296875,-66.40625,-142.578125,0.0
1734420834.04559,0.0,-26.3671875,224.609375,105.46875,0.0
1734420834.0494955,0.0,-30.76171875,199.21875,154.296875,0.0
1734420834.0534012,0.0,-28.80859375,-82.51953125,-46.38671875,0.0
1734420834.0573068,0.0,-27.83203125,-317.87109375,-223.6328125,0.0
1734420834.0612125,0.0,-32.71484375,-322.265625,-152.83203125,0.0
1734420834.065118,0.0,-34.66796875,-56.640625,107.91015625,0.0
1734420834.0690238,0.0,-33.69140625,338.37890625,216.30859375,0.0
1734420834.0729294,0.0,-28.80859375,104.4921875,5.37109375,0.0
1734420834.0768435,361.81640625,-30.2734375,-298.828125,-232.421875,0.0
1734420834.080749,283.203125,-34.66796875,-345.703125,-212.890625,0.0
1734420834.0846548,-167.48046875,-30.76171875,144.53125,52.24609375,0.0
1734420834.0885603,-479.98046875,-27.83203125,363.76953125,225.5859375,0.0
1734420834.0924659,-40.52734375,-31.25,65.91796875,56.640625,0.0
1734420834.0963717,357.91015625,-33.203125,-315.91796875,-201.171875,0.0
1734420834.1002772,330.56640625,-32.2265625,-302.24609375,-230.95703125,0.0
1734420834.104183,-109.86328125,-32.2265625,201.66015625,13.18359375,0.0
1734420834.1080885,-491.2109375,-30.76171875,171.38671875,206.0546875,0.0
1734420834.1119943,-125.48828125,-32.71484375,-29.78515625,77.1484375,0.0
1734420834.1158998,306.640625,-34.1796875,-78.61328125,-173.33984375,0.0
1734420834.1198056,346.6796875,-31.73828125,-328.61328125,-239.74609375,0.0
1734420834.1237192,-23.92578125,-32.2265625,35.64453125,-25.390625,0.0
1734420834.1276248,-478.515625,-32.2265625,367.1875,176.7578125,0.0
1734420834.1315303,-205.56640625,-34.66796875,263.18359375,92.28515625,0.0
1734420834.135436,283.69140625,-31.25,-127.9296875,-156.73828125,0.0
1734420834.1393416,372.55859375,-24.4140625,-453.61328125,-255.859375,0.0
1734420834.1432474,20.5078125,-24.4140625,-34.66796875,-62.5,0.0
1734420834.147153,-495.1171875,-20.99609375,294.921875,159.1796875,0.0
1734420834.1510587,-287.109375,-21.484375,103.02734375,139.6484375,0.0
1734420834.1549642,252.9296875,-26.85546875,-291.50390625,-109.375,0.0
1734420834.1588697,380.37109375,-25.87890625,-370.1171875,-242.1875,0.0
1734420834.1627755,101.5625,-24.4140625,8.30078125,-94.23828125,0.0
1734420834.166681,-439.94140625,-24.4140625,211.9140625,107.91015625,0.0
1734420834.1705945,-366.69921875,-29.296875,174.31640625,116.69921875,0.0
1734420834.1745,201.171875,-32.71484375,-100.09765625,-114.74609375,0.0
1734420834.1784058,396.97265625,-33.69140625,-420.41015625,-266.11328125,0.0
1734420834.1823113,166.9921875,-28.80859375,-195.80078125,-146.484375,0.0
1734420834.1862168,-387.6953125,-31.25,169.43359375,104.00390625,0.0
1734420834.1901226,-419.43359375,-37.109375,241.69921875,173.33984375,0.0
1734420834.1940281,154.78515625,-34.66796875,-86.9140625,-72.265625,0.0
1734420834.197934,386.71875,-33.69140625,-590.33203125,-271.484375,0.0
1734420834.2018394,212.890625,-34.66796875,-362.3046875,-186.5234375,0.0
1734420834.2057452,-315.91796875,-35.15625,251.46484375,66.89453125,0.0
1734420834.2096508,-466.796875,-30.76171875,264.16015625,181.15234375,0.0
1734420834.2135563,83.49609375,-29.78515625,-84.47265625,-33.203125,0.0
1734420834.2174692,377.44140625,-37.59765625,-361.328125,-249.51171875,0.0
1734420834.221375,248.53515625,-40.0390625,-232.421875,-187.01171875,0.0
1734420834.2252805,-271.97265625,-42.48046875,146.484375,73.2421875,0.0
1734420834.229186,-527.83203125,-42.96875,251.953125,192.87109375,0.0
1734420834.2330918,-6.8359375,-40.0390625,-28.3203125,-6.34765625,0.0
1734420834.2369974,351.07421875,-38.0859375,-340.33203125,-258.7890625,0.0
1734420834.2409031,263.671875,-32.2265625,-466.30859375,-256.34765625,0.0
1734420834.2448087,-235.83984375,-27.83203125,-98.6328125,-0.48828125,0.0
1734420834.2487144,-602.5390625,-18.5546875,325.1953125,129.39453125,0.0
1734420834.25262,-153.80859375,-6.8359375,103.02734375,-60.05859375,0.0
1734420834.2565255,276.85546875,-2.44140625,-287.59765625,-315.91796875,0.0
1734420834.2604313,267.08984375,-4.39453125,-336.42578125,-357.421875,0.0
1734420834.2643437,-203.61328125,0.9765625,81.0546875,-139.16015625,0.0
1734420834.2682495,-660.15625,6.8359375,212.40234375,40.0390625,0.0
1734420834.272155,-311.03515625,11.23046875,27.34375,-101.5625,0.0
1734420834.2760608,156.73828125,15.13671875,-201.171875,-364.2578125,0.0
1734420834.2799664,198.2421875,20.5078125,-387.20703125,-430.6640625,0.0
1734420834.2838721,-221.19140625,17.578125,-31.73828125,-234.375,0.0
1734420834.2877777,-745.60546875,17.08984375,41.015625,-37.109375,0.0
1734420834.2916832,-478.515625,19.04296875,-127.44140625,-134.27734375,0.0
1734420834.295589,65.4296875,24.4140625,-94.23828125,-413.57421875,0.0
1734420834.2994945,168.9453125,28.80859375,-384.27734375,-511.23046875,0.0
1734420834.3034003,-204.1015625,16.6015625,-73.73046875,-309.08203125,0.0
1734420834.3073058,-760.7421875,13.671875,294.43359375,-104.00390625,0.0
1734420834.3112178,-578.61328125,11.71875,248.53515625,-152.34375,0.0
1734420834.3151236,-7.32421875,4.39453125,-128.41796875,-373.046875,0.0
1734420834.319029,145.5078125,6.8359375,-470.703125,-487.79296875,0.0
1734420834.3229346,-140.13671875,4.8828125,-50.78125,-332.03125,0.0
1734420834.3268404,-688.4765625,0.9765625,320.80078125,-89.84375,0.0
1734420834.330746,-608.3984375,-0.48828125,133.7890625,-71.77734375,0.0
1734420834.3346517,-10.7421875,-6.8359375,-304.19921875,-275.87890625,0.0
1734420834.3385572,203.61328125,-7.8125,-419.921875,-424.31640625,0.0
1734420834.342463,-15.625,-5.37109375,-76.171875,-287.59765625,0.0
1734420834.3463686,-540.0390625,-14.16015625,168.9453125,-10.7421875,0.0
1734420834.3502743,-570.80078125,-14.6484375,194.82421875,50.78125,0.0
1734420834.3541799,3.41796875,-6.34765625,-20.5078125,-170.8984375,0.0
1734420834.3580947,288.0859375,-6.8359375,-376.953125,-346.6796875,0.0
1734420834.3620002,148.92578125,-8.30078125,-302.734375,-227.5390625,0.0
1734420834.365906,-378.41796875,-13.671875,115.234375,57.6171875,0.0
1734420834.3698115,-534.66796875,-17.578125,353.515625,172.36328125,0.0
1734420834.3737173,14.6484375,-20.01953125,-7.32421875,-38.0859375,0.0
1734420834.3776228,341.30859375,-22.4609375,-476.07421875,-235.3515625,0.0
1734420834.3815284,243.1640625,-20.01953125,-358.3984375,-179.6875,0.0
1734420834.3854342,-264.6484375,-23.4375,149.90234375,67.3828125,0.0
1734420834.3893397,-532.2265625,-28.3203125,308.10546875,222.65625,0.0
1734420834.3932455,-17.578125,-32.2265625,-113.28125,55.6640625,0.0
1734420834.397151,360.3515625,-35.64453125,-401.85546875,-193.84765625,0.0
1734420834.4010568,314.453125,-38.0859375,-296.38671875,-193.84765625,0.0
1734420834.4049714,-153.3203125,-40.52734375,57.6171875,79.1015625,0.0
1734420834.408877,-505.859375,-47.8515625,255.37109375,240.234375,0.0
1734420834.4127827,-48.828125,-41.9921875,69.3359375,92.7734375,0.0
1734420834.4166882,375.9765625,-37.59765625,-238.76953125,-145.99609375,0.0
1734420834.420594,369.140625,-43.45703125,-431.640625,-174.31640625,0.0
1734420834.4244995,-55.6640625,-43.9453125,-115.72265625,78.125,0.0
1734420834.428405,-496.09375,-41.015625,222.65625,262.20703125,0.0
1734420834.4323108,-126.46484375,-36.1328125,173.828125,133.30078125,0.0
1734420834.4362164,357.91015625,-42.48046875,-300.78125,-119.140625,0.0
1734420834.4401221,402.83203125,-45.41015625,-634.27734375,-174.31640625,0.0
1734420834.4440277,24.90234375,-37.109375,9.765625,41.015625,0.0
1734420834.4479334,-456.54296875,-34.66796875,371.09375,253.90625,0.0
1734420834.4518473,-189.453125,-38.0859375,126.953125,182.6171875,0.0
1734420834.455753,319.3359375,-41.015625,-279.296875,-71.2890625,0.0
1734420834.4596586,402.83203125,-41.015625,-437.98828125,-171.875,0.0
1734420834.4635642,78.125,-41.015625,-14.16015625,9.27734375,0.0
1734420834.46747,-428.7109375,-46.875,277.34375,261.23046875,0.0
1734420834.4713755,-260.7421875,-47.8515625,169.43359375,236.328125,0.0
1734420834.4752812,273.4375,-41.50390625,-150.390625,-41.015625,0.0
1734420834.4791868,401.85546875,-35.64453125,-404.296875,-182.12890625,0.0
1734420834.4830925,124.51171875,-40.0390625,-325.1953125,9.765625,0.0
1734420834.486998,-397.94921875,-36.1328125,84.47265625,252.9296875,0.0
1734420834.4909036,-331.0546875,-31.73828125,366.2109375,210.44921875,0.0
1734420834.4948094,235.3515625,-38.0859375,-68.84765625,-41.50390625,0.0
1734420834.498723,438.96484375,-34.66796875,-455.56640625,-209.47265625,0.0
1734420834.5026288,223.14453125,-28.80859375,-116.2109375,-73.2421875,0.0
1734420834.5065343,-314.453125,-26.85546875,270.5078125,202.63671875,0.0
1734420834.51044,-370.1171875,-29.296875,284.1796875,239.2578125,0.0
1734420834.5143456,198.2421875,-34.1796875,-51.7578125,8.7890625,0.0
1734420834.5182514,433.59375,-34.1796875,-483.88671875,-176.7578125,0.0
1734420834.522157,253.41796875,-33.203125,-255.859375,-85.44921875,0.0
1734420834.5260625,-254.8828125,-37.109375,120.60546875,177.734375,0.0
1734420834.5299683,-426.7578125,-39.55078125,166.015625,263.671875,0.0
1734420834.5338738,90.33203125,-33.69140625,48.828125,32.71484375,0.0
1734420834.5377796,421.38671875,-28.3203125,-295.8984375,-175.78125,0.0
1734420834.541685,317.87109375,-31.25,-309.08203125,-119.62890625,0.0
1734420834.5455985,-206.54296875,-39.0625,146.484375,126.953125,0.0
1734420834.549504,-468.26171875,-41.50390625,322.265625,264.16015625,0.0
1734420834.5534098,11.71875,-42.48046875,-13.671875,79.58984375,0.0
1734420834.5573153,405.2734375,-39.55078125,-386.23046875,-197.265625,0.0
1734420834.5612211,274.90234375,-35.64453125,-301.26953125,-143.5546875,0.0
1734420834.5651267,-253.41796875,-35.15625,149.4140625,177.24609375,0.0
1734420834.5690324,-486.328125,-38.0859375,327.63671875,271.97265625,0.0
1734420834.572938,-62.98828125,-42.96875,-122.0703125,83.984375,0.0
1734420834.5768437,352.05078125,-39.55078125,-493.65234375,-149.90234375,0.0
1734420834.5807493,363.76953125,-34.1796875,-262.20703125,-188.4765625,0.0
1734420834.5846548,-72.265625,-39.0625,88.37890625,29.296875,0.0
1734420834.5885606,-508.7890625,-41.9921875,263.18359375,214.84375,0.0
1734420834.5924735,0.0,-38.0859375,171.875,108.3984375,0.0
1734420834.5963793,0.0,-35.15625,-123.046875,-165.52734375,0.0
1734420834.6002848,0.0,-35.15625,-400.390625,-235.83984375,0.0
1734420834.6041903,0.0,-36.1328125,-32.2265625,-5.37109375,0.0
1734420834.6080961,0.0,-37.109375,326.171875,217.7734375,0.0
1734420834.6120017,0.0,-39.55078125,165.52734375,152.34375,0.0
1734420834.6159074,0.0,-40.0390625,-279.296875,-93.75,0.0
1734420834.619813,0.0,-39.0625,-527.34375,-189.94140625,0.0
1734420834.6237187,0.0,-36.62109375,68.84765625,-23.4375,0.0
1734420834.6276243,0.0,-29.296875,380.37109375,187.5,0.0
1734420834.6315298,0.0,-24.90234375,170.41015625,165.52734375,0.0
1734420834.6354356,0.0,-30.2734375,-20.5078125,-76.171875,0.0
1734420834.6393483,419.43359375,-27.83203125,-220.703125,-207.51953125,0.0
1734420834.6432538,128.41796875,-26.85546875,-31.25,-35.15625,0.0
1734420834.6471596,-443.359375,-29.296875,230.95703125,212.40234375,0.0
1734420834.651065,-410.64453125,-28.3203125,267.578125,208.984375,0.0
1734420834.6549706,194.82421875,-30.76171875,55.17578125,-74.21875,0.0
1734420834.6588764,424.8046875,-31.25,-292.96875,-225.5859375,0.0
1734420834.662782,197.75390625,-28.80859375,-313.96484375,-82.51953125,0.0
1734420834.6666877,-365.72265625,-30.76171875,62.5,132.8125,0.0
1734420834.6705933,-455.078125,-30.76171875,374.51171875,190.4296875,0.0
1734420834.674499,129.39453125,-32.71484375,20.99609375,-34.1796875,0.0
1734420834.6784046,418.9453125,-34.66796875,-327.1484375,-229.4921875,0.0
1734420834.6823103,228.515625,-34.66796875,-78.125,-134.765625,0.0
1734420834.6862223,-318.84765625,-30.76171875,291.9921875,88.37890625,0.0
1734420834.6901278,-476.07421875,-26.3671875,285.15625,166.9921875,0.0
1734420834.6940336,31.73828125,-31.25,20.99609375,-38.57421875,0.0
1734420834.6979392,334.9609375,-31.73828125,-244.62890625,-240.234375,0.0
1734420834.7018447,243.1640625,-27.34375,-151.3671875,-163.0859375,0.0
1734420834.7057505,-279.296875,-30.76171875,157.71484375,98.6328125,0.0
1734420834.709656,-556.15234375,-25.87890625,196.77734375,232.421875,0.0
1734420834.7135618,-42.48046875,-15.13671875,55.6640625,25.390625,0.0
1734420834.7174673,336.9140625,-22.94921875,-163.0859375,-199.70703125,0.0
1734420834.721373,278.3203125,-40.0390625,-369.62890625,-174.8046875,0.0
1734420834.7252786,-197.75390625,-41.9921875,-2.44140625,61.03515625,0.0
1734420834.7291842,-593.75,-37.109375,399.90234375,214.84375,0.0
1734420834.7330992,-154.78515625,-35.64453125,173.33984375,65.91796875,0.0
1734420834.7370048,296.38671875,-35.15625,-248.53515625,-160.64453125,0.0
1734420834.7409105,278.80859375,-39.0625,-383.30078125,-211.42578125,0.0
1734420834.744816,-136.23046875,-40.0390625,121.58203125,-16.6015625,0.0
1734420834.7487216,-567.87109375,-34.1796875,403.80859375,173.828125,0.0
1734420834.7526274,-186.03515625,-28.80859375,46.875,61.5234375,0.0
1734420834.756533,288.0859375,-27.34375,-299.8046875,-182.12890625,0.0
1734420834.7604387,313.96484375,-25.87890625,-317.3828125,-242.67578125,0.0
1734420834.7643442,-79.1015625,-29.78515625,25.390625,-35.15625,0.0
1734420834.76825,-574.70703125,-33.203125,301.26953125,172.36328125,0.0
1734420834.7721555,-298.33984375,-34.1796875,246.09375,87.890625,0.0
1734420834.776061,203.61328125,-33.69140625,-29.296875,-186.5234375,0.0
1734420834.7799757,313.4765625,-30.2734375,-374.51171875,-306.15234375,0.0
1734420834.7838814,11.71875,-26.85546875,-34.66796875,-139.16015625,0.0
1734420834.787787,-501.46484375,-29.296875,387.6953125,122.55859375,0.0
1734420834.7916927,-362.3046875,-33.69140625,369.140625,139.16015625,0.0
1734420834.7955983,158.69140625,-36.62109375,-38.57421875,-139.6484375,0.0
1734420834.799504,288.0859375,-42.96875,-490.72265625,-320.3125,0.0
1734420834.8034096,-9.765625,-46.38671875,-38.57421875,-151.3671875,0.0
1734420834.807315,-540.0390625,-48.33984375,431.640625,110.83984375,0.0
1734420834.811221,-487.3046875,-50.78125,250.48828125,155.2734375,0.0
1734420834.8151264,64.453125,-52.734375,-191.89453125,-70.80078125,0.0
1734420834.8190322,246.09375,-49.31640625,-326.66015625,-306.15234375,0.0
1734420834.8229377,44.43359375,-47.8515625,34.1796875,-257.32421875,0.0
1734420834.8268518,-477.5390625,-48.828125,294.43359375,19.04296875,0.0
1734420834.8307576,-570.80078125,-56.640625,279.78515625,157.71484375,0.0
1734420834.8346632,7.8125,-61.5234375,87.890625,-81.54296875,0.0
1734420834.838569,266.11328125,-57.12890625,-275.390625,-310.546875,0.0
1734420834.8424745,99.12109375,-62.01171875,-260.25390625,-262.20703125,0.0
1734420834.8463802,-413.0859375,-65.4296875,206.0546875,-34.1796875,0.0
1734420834.8502858,-602.5390625,-66.89453125,361.328125,94.7265625,0.0
1734420834.8541913,-53.7109375,-72.265625,86.9140625,-117.1875,0.0
1734420834.858097,304.6875,-77.63671875,-456.54296875,-322.75390625,0.0
1734420834.8620026,184.08203125,-66.40625,-410.15625,-265.625,0.0
1734420834.8659084,-327.1484375,-60.546875,286.1328125,-26.85546875,0.0
1734420834.869814,-598.14453125,-69.82421875,394.53125,118.65234375,0.0
1734420834.8737278,-110.3515625,-74.70703125,75.1953125,-46.38671875,0.0
1734420834.8776333,313.96484375,-74.70703125,-209.9609375,-285.64453125,0.0
1734420834.881539,272.4609375,-70.3125,-261.71875,-280.2734375,0.0
1734420834.8854446,-237.79296875,-76.171875,158.69140625,-11.71875,0.0
1734420834.8893502,-595.21484375,-81.0546875,420.8984375,133.30078125,0.0
1734420834.893256,-129.8828125,-79.1015625,82.51953125,-36.62109375,0.0
1734420834.8971615,295.8984375,-68.359375,-236.81640625,-273.4375,0.0
1734420834.9010673,334.9609375,-69.3359375,-419.921875,-306.15234375,0.0
1734420834.9049728,-67.87109375,-67.3828125,-69.3359375,-59.08203125,0.0
1734420834.9088786,-559.5703125,-61.03515625,448.2421875,166.015625,0.0
1734420834.912784,-195.3125,-66.89453125,270.01953125,102.05078125,0.0
1734420834.9166896,386.71875,-68.359375,-138.18359375,-138.671875,0.0
1734420834.920603,477.05078125,-69.3359375,-369.140625,-253.41796875,0.0
1734420834.9245088,71.2890625,-61.03515625,30.76171875,-56.15234375,0.0
1734420834.9284143,-480.95703125,-58.10546875,354.98046875,137.6953125,0.0
1734420834.93232,-208.984375,-61.5234375,281.73828125,80.078125,0.0
1734420834.9362257,365.234375,-72.75390625,-95.703125,-128.41796875,0.0
1734420834.9401312,539.55078125,-75.1953125,-488.28125,-211.42578125,0.0
1734420834.944037,189.453125,-62.98828125,-9.27734375,-46.875,0.0
1734420834.9479425,-424.8046875,-67.87109375,253.90625,127.44140625,0.0
1734420834.9518483,-243.1640625,-65.4296875,208.49609375,96.19140625,0.0
1734420834.9557538,408.69140625,-58.10546875,34.1796875,-151.85546875,0.0
1734420834.9596596,629.8828125,-61.5234375,-408.203125,-282.2265625,0.0
1734420834.963565,303.7109375,-59.5703125,-34.1796875,-74.70703125,0.0
1734420834.967478,-345.21484375,-61.03515625,417.96875,179.19921875,0.0
1734420834.9713836,-320.3125,-67.87109375,412.59765625,167.96875,0.0
1734420834.9752893,324.21875,-63.4765625,-2.9296875,-94.7265625,0.0
1734420834.9791949,631.34765625,-64.453125,-440.91796875,-247.55859375,0.0
1734420834.9831004,439.453125,-62.5,-40.0390625,-71.77734375,0.0
1734420834.9870062,-237.3046875,-56.640625,387.20703125,165.52734375,0.0
1734420834.9909117,-382.32421875,-58.59375,306.640625,201.66015625,0.0
1734420834.9948175,301.26953125,-63.96484375,-120.1171875,42.48046875,0.0
1734420834.998723,700.1953125,-55.17578125,-326.66015625,-156.25,0.0
1734420835.0026288,550.78125,-51.7578125,-39.0625,-129.39453125,0.0
1734420835.0065343,-147.94921875,-59.5703125,270.01953125,147.4609375,0.0
1734420835.0104399,-439.453125,-62.5,383.7890625,252.9296875,0.0
1734420835.0143523,247.55859375,-58.59375,176.7578125,53.22265625,0.0
1734420835.018258,750.0,-57.12890625,-303.22265625,-165.0390625,0.0
1734420835.0221636,649.4140625,-60.05859375,-301.7578125,-166.015625,0.0
1734420835.0260694,-47.36328125,-55.6640625,273.92578125,60.546875,0.0
1734420835.029975,-457.51953125,-54.6875,471.6796875,201.66015625,0.0
1734420835.0338807,145.01953125,-54.6875,122.0703125,35.64453125,0.0
1734420835.0377862,705.56640625,-56.640625,-478.02734375,-170.41015625,0.0
1734420835.0416918,684.5703125,-48.828125,-395.5078125,-171.875,0.0
1734420835.0455976,49.31640625,-40.52734375,344.23828125,59.08203125,0.0
1734420835.049503,-500.0,-56.15234375,450.68359375,249.51171875,0.0
1734420835.0534089,-24.90234375,-54.19921875,150.87890625,118.65234375,0.0
1734420835.0573144,625.0,-43.9453125,-185.05859375,-133.7890625,0.0
1734420835.0612264,704.58984375,-48.33984375,-347.65625,-211.42578125,0.0
1734420835.0651321,102.5390625,-45.8984375,124.51171875,2.9296875,0.0
1734420835.0690377,-551.7578125,-44.43359375,448.2421875,189.94140625,0.0
1734420835.0729434,-162.59765625,-43.9453125,260.25390625,85.44921875,0.0
1734420835.076849,546.38671875,-38.57421875,-165.0390625,-113.28125,0.0
1734420835.0807548,697.75390625,-39.0625,-551.26953125,-144.53125,0.0
1734420835.0846603,172.36328125,-36.1328125,-97.16796875,-2.9296875,0.0
1734420835.0885658,-545.41015625,-28.3203125,438.96484375,159.66796875,0.0
1734420835.0924716,-283.69140625,-26.85546875,312.5,114.74609375,0.0
1734420835.0963771,477.05078125,-24.4140625,-237.79296875,-128.90625,0.0
1734420835.100283,698.73046875,-22.94921875,-569.3359375,-254.8828125,0.0
1734420835.1041884,234.375,-24.90234375,3.41796875,-105.46875,0.0
1734420835.1081002,-508.7890625,-24.4140625,453.61328125,123.046875,0.0
1734420835.1120057,-418.45703125,-32.71484375,190.91796875,122.0703125,0.0
1734420835.1159115,327.1484375,-40.0390625,-306.15234375,-78.61328125,0.0
1734420835.119817,649.90234375,-37.59765625,-571.77734375,-183.59375,0.0
1734420835.1237226,273.92578125,-39.55078125,-252.44140625,-63.96484375,0.0
1734420835.1276283,-473.14453125,-37.109375,165.52734375,133.30078125,0.0
1734420835.1315339,-520.5078125,-35.15625,233.88671875,136.71875,0.0
1734420835.1354396,231.4453125,-31.25,-133.30078125,-85.9375,0.0
1734420835.1393452,624.51171875,-23.4375,-617.1875,-249.51171875,0.0
1734420835.143251,314.453125,-21.484375,-396.97265625,-123.53515625,0.0
1734420835.1471565,-445.80078125,-17.08984375,240.72265625,129.39453125,0.0
1734420835.151062,-625.0,-14.6484375,407.2265625,178.22265625,0.0
1734420835.1549768,74.21875,-20.99609375,-170.41015625,-50.78125,0.0
1734420835.1588824,540.0390625,-24.4140625,-670.41015625,-248.046875,0.0
1734420835.1627882,352.05078125,-19.04296875,-410.15625,-184.5703125,0.0
1734420835.1666937,-386.71875,-19.53125,239.2578125,77.1484375,0.0
1734420835.1705995,-700.68359375,-22.4609375,336.9140625,176.7578125,0.0
1734420835.174505,-36.62109375,-25.87890625,-313.96484375,-27.83203125,0.0
1734420835.1784105,495.1171875,-32.71484375,-682.12890625,-231.4453125,0.0
1734420835.1823163,394.53125,-32.2265625,-517.08984375,-198.2421875,0.0
1734420835.1862218,-314.453125,-29.78515625,-31.73828125,86.42578125,0.0
1734420835.1901276,-750.48828125,-26.3671875,280.76171875,177.24609375,0.0
1734420835.1940331,-150.87890625,-16.11328125,-47.8515625,-42.48046875,0.0
1734420835.197939,468.26171875,-13.671875,-579.1015625,-242.67578125,0.0
1734420835.201853,462.40234375,-18.5546875,-608.88671875,-206.0546875,0.0
1734420835.2057588,-210.44921875,-26.3671875,-41.50390625,71.2890625,0.0
1734420835.2096643,-759.765625,-20.99609375,396.97265625,215.8203125,0.0
1734420835.2135699,-265.13671875,-18.06640625,-14.6484375,87.890625,0.0
1734420835.2174757,397.4609375,-20.99609375,-634.27734375,-128.41796875,0.0
1734420835.2213812,474.12109375,-20.99609375,-697.75390625,-194.82421875,0.0
1734420835.225287,-133.30078125,-18.5546875,-70.3125,7.8125,0.0
1734420835.2291925,-787.109375,-19.53125,436.5234375,186.03515625,0.0
1734420835.2330983,-412.59765625,-30.2734375,-158.69140625,119.62890625,0.0
1734420835.2370038,312.5,-31.73828125,-726.5625,-106.4453125,0.0
1734420835.2409096,480.95703125,-30.76171875,-669.43359375,-215.33203125,0.0
1734420835.244815,-66.40625,-39.0625,-154.296875,-30.76171875,0.0
1734420835.2487288,-783.69140625,-39.0625,376.46484375,170.41015625,0.0
1734420835.2526343,-510.7421875,-30.2734375,171.38671875,105.95703125,0.0
1734420835.25654,259.765625,-24.90234375,-383.7890625,-111.328125,0.0
1734420835.2604456,503.41796875,-31.73828125,-737.79296875,-209.9609375,0.0
1734420835.2643514,29.78515625,-35.64453125,-228.515625,-54.6875,0.0
1734420835.268257,-717.7734375,-34.66796875,320.80078125,184.5703125,0.0
1734420835.2721624,-598.6328125,-27.34375,162.109375,186.03515625,0.0
1734420835.2760682,155.2734375,-32.2265625,-480.46875,-41.50390625,0.0
1734420835.2799737,480.46875,-37.59765625,-881.34765625,-239.74609375,0.0
1734420835.2838795,120.60546875,-25.390625,-293.9453125,-161.1328125,0.0
1734420835.287785,-654.296875,-28.80859375,332.03125,101.5625,0.0
1734420835.2916908,-697.75390625,-37.109375,181.640625,142.08984375,0.0
1734420835.295604,83.984375,-27.34375,-449.70703125,-68.84765625,0.0
1734420835.2995095,484.86328125,-23.92578125,-786.62109375,-238.28125,0.0
1734420835.3034153,190.4296875,-26.85546875,-479.00390625,-155.2734375,0.0
1734420835.3073208,-573.2421875,-23.92578125,180.6640625,90.33203125,0.0
1734420835.3112266,-770.5078125,-21.97265625,303.7109375,193.359375,0.0
1734420835.3151321,-46.875,-28.3203125,-351.5625,-0.48828125,0.0
1734420835.3190377,459.9609375,-30.76171875,-787.59765625,-213.37890625,0.0
1734420835.3229434,273.92578125,-28.80859375,-662.109375,-141.11328125,0.0
1734420835.326849,-489.2578125,-32.2265625,-29.78515625,99.12109375,0.0
1734420835.3307548,-808.59375,-27.34375,403.80859375,173.33984375,0.0
1734420835.3346603,-160.64453125,-30.76171875,-188.96484375,-49.8046875,0.0
1734420835.338566,397.94921875,-34.1796875,-744.140625,-234.86328125,0.0
1734420835.3424788,302.24609375,-31.25,-533.203125,-181.15234375,0.0
1734420835.3463845,-418.45703125,-38.57421875,156.73828125,-3.90625,0.0
1734420835.35029,-845.703125,-36.62109375,368.65234375,117.1875,0.0
1734420835.3541958,-288.57421875,-31.25,-173.828125,-30.2734375,0.0
1734420835.3581014,315.91796875,-28.3203125,-648.4375,-276.3671875,0.0
1734420835.3620071,332.03125,-27.34375,-646.484375,-277.34375,0.0
1734420835.3659127,-344.7265625,-13.671875,-98.6328125,-68.84765625,0.0
1734420835.3698182,-951.66015625,1.46484375,321.77734375,33.203125,0.0
1734420835.373724,-498.53515625,0.0,-20.99609375,-79.58984375,0.0
1734420835.3776295,182.6171875,-3.41796875,-548.33984375,-300.29296875,0.0
1734420835.3815353,279.296875,-5.859375,-639.6484375,-392.08984375,0.0
1734420835.3854408,-352.05078125,-7.32421875,-48.33984375,-194.3359375,0.0
1734420835.3893533,-1000.0,-5.859375,448.73046875,-28.3203125,0.0
1734420835.393259,-688.4765625,-8.7890625,-4.39453125,-120.1171875,0.0
1734420835.3971646,49.31640625,-6.8359375,-586.42578125,-363.76953125,0.0
1734420835.4010704,261.23046875,-2.44140625,-617.1875,-483.3984375,0.0
1734420835.404976,-283.69140625,0.9765625,-72.265625,-328.125,0.0
1734420835.4088814,-984.375,-8.7890625,401.85546875,-110.3515625,0.0
1734420835.4127872,-753.41796875,-26.85546875,-76.66015625,-118.65234375,0.0
1734420835.4166927,-11.71875,-29.78515625,-669.921875,-358.3984375,0.0
1734420835.4205985,278.80859375,-24.90234375,-640.13671875,-474.12109375,0.0
1734420835.424504,-135.7421875,-22.94921875,-114.74609375,-293.45703125,0.0
1734420835.4284098,-869.140625,-20.5078125,379.39453125,-36.62109375,0.0
1734420835.4323153,-775.390625,-22.4609375,284.1796875,-26.3671875,0.0
1734420835.4362273,15.13671875,-19.04296875,-259.27734375,-268.5546875,0.0
1734420835.440133,366.2109375,-15.625,-717.7734375,-369.62890625,0.0
1734420835.4440386,15.13671875,-12.6953125,-263.18359375,-169.921875,0.0
1734420835.4479444,-711.9140625,-13.18359375,390.13671875,126.46484375,0.0
1734420835.45185,-741.2109375,-17.08984375,352.5390625,111.81640625,0.0
1734420835.4557557,12.20703125,-18.06640625,-356.4453125,-164.0625,0.0
1734420835.4596612,425.29296875,-20.5078125,-844.23828125,-280.76171875,0.0
1734420835.463567,170.41015625,-13.18359375,-340.8203125,-140.13671875,0.0
1734420835.4674726,-545.8984375,-10.25390625,321.77734375,106.4453125,0.0
1734420835.471378,-707.03125,-21.97265625,317.87109375,146.97265625,0.0
1734420835.4752839,-5.859375,-28.3203125,-257.8125,-76.66015625,0.0
1734420835.4791894,452.1484375,-30.2734375,-704.58984375,-248.046875,0.0
1734420835.4831011,296.875,-36.62109375,-513.18359375,-162.59765625,0.0
1734420835.4870067,-392.08984375,-31.25,135.7421875,116.2109375,0.0
1734420835.4909124,-703.125,-32.2265625,423.828125,231.93359375,0.0
1734420835.494818,-52.24609375,-32.2265625,-73.2421875,45.41015625,0.0
1734420835.4987237,481.93359375,-27.83203125,-701.66015625,-153.80859375,0.0
1734420835.5026293,388.671875,-26.85546875,-609.375,-105.95703125,0.0
1734420835.506535,-273.92578125,-19.04296875,132.32421875,146.484375,0.0
1734420835.5104406,-698.2421875,-16.11328125,532.2265625,264.16015625,0.0
1734420835.5143461,-126.953125,-20.5078125,-45.8984375,87.40234375,0.0
1734420835.518252,454.58984375,-25.390625,-714.35546875,-111.81640625,0.0
1734420835.5221574,457.03125,-17.578125,-568.359375,-106.4453125,0.0
1734420835.5260632,-146.97265625,-12.6953125,167.48046875,117.1875,0.0
1734420835.5299776,-669.921875,-15.625,516.6015625,322.265625,0.0
1734420835.5338833,-200.1953125,-11.71875,46.38671875,167.96875,0.0
1734420835.5377889,419.43359375,-10.25390625,-546.38671875,-85.44921875,0.0
1734420835.5416946,496.09375,-14.6484375,-602.5390625,-100.5859375,0.0
1734420835.5456002,-29.296875,-12.20703125,50.78125,106.93359375,0.0
1734420835.549506,-615.234375,-6.8359375,468.75,294.921875,0.0
1734420835.5534115,-260.25390625,-11.71875,174.8046875,173.828125,0.0
1734420835.557317,423.828125,-10.25390625,-314.453125,-63.96484375,0.0
1734420835.5612228,550.29296875,-13.671875,-696.77734375,-104.98046875,0.0
1734420835.5651283,61.5234375,-18.5546875,-164.0625,83.984375,0.0
1734420835.569034,-559.5703125,-4.39453125,557.6171875,286.1328125,0.0
1734420835.5729396,-329.1015625,-5.37109375,367.67578125,229.4921875,0.0
1734420835.5768538,378.41796875,-13.671875,-262.20703125,-7.32421875,0.0
1734420835.5807593,577.63671875,-16.11328125,-695.80078125,-115.234375,0.0
1734420835.584665,167.48046875,-17.578125,-62.5,38.57421875,0.0
1734420835.5885706,-503.41796875,-19.04296875,550.29296875,254.8828125,0.0
1734420835.5924764,-406.73828125,-19.53125,401.85546875,249.51171875,0.0
1734420835.596382,307.6171875,-17.578125,-215.33203125,33.203125,0.0
1734420835.6002874,551.7578125,-17.08984375,-685.05859375,-98.6328125,0.0
1734420835.6041932,221.19140625,-17.578125,-81.54296875,48.828125,0.0
1734420835.6080987,-455.56640625,-20.99609375,411.62109375,290.0390625,0.0
1734420835.6120045,-508.30078125,-18.06640625,377.44140625,281.25,0.0
1734420835.61591,180.17578125,-20.5078125,-9.765625,41.9921875,0.0
1734420835.6198158,533.203125,-20.5078125,-574.21875,-119.140625,0.0
1734420835.6237295,278.3203125,-15.625,-154.296875,-17.08984375,0.0
1734420835.627635,-409.66796875,-18.06640625,499.0234375,204.1015625,0.0
1734420835.6315408,-561.5234375,-17.08984375,549.8046875,218.75,0.0
1734420835.6354463,65.91796875,-24.90234375,-30.76171875,3.41796875,0.0
1734420835.6393518,500.0,-33.69140625,-631.8359375,-185.05859375,0.0
1734420835.6432576,364.2578125,-34.1796875,-380.37109375,-109.375,0.0
1734420835.6471632,-328.61328125,-32.2265625,330.078125,141.11328125,0.0
1734420835.651069,-637.6953125,-38.0859375,516.11328125,250.9765625,0.0
1734420835.6549745,-18.5546875,-44.921875,-119.62890625,84.47265625,0.0
1734420835.6588802,452.1484375,-44.921875,-557.12890625,-127.9296875,0.0
1734420835.6627858,373.046875,-46.875,-291.015625,-102.5390625,0.0
1734420835.6666913,-259.27734375,-48.828125,278.80859375,123.53515625,0.0
1734420835.670605,-687.01171875,-46.38671875,558.10546875,232.91015625,0.0
1734420835.6745105,-163.0859375,-49.31640625,97.65625,78.125,0.0
1734420835.678416,377.44140625,-40.0390625,-504.39453125,-130.859375,0.0
1734420835.6823218,371.58203125,-21.97265625,-434.08203125,-164.55078125,0.0
1734420835.6862273,-217.7734375,-19.53125,247.0703125,38.0859375,0.0
1734420835.690133,-757.32421875,-15.625,580.56640625,211.42578125,0.0
1734420835.6940386,-307.6171875,-10.25390625,140.13671875,82.51953125,0.0
1734420835.6979444,297.8515625,-3.90625,-590.33203125,-170.41015625,0.0
1734420835.70185,349.609375,6.8359375,-652.83203125,-236.81640625,0.0
1734420835.7057557,-157.71484375,22.4609375,193.84765625,-89.84375,0.0
1734420835.7096612,-769.53125,25.390625,534.1796875,37.109375,0.0
1734420835.7135668,-447.75390625,19.04296875,189.94140625,-44.43359375,0.0
1734420835.7174797,213.8671875,23.92578125,-350.09765625,-264.16015625,0.0
1734420835.7213852,349.609375,28.80859375,-536.62109375,-342.28515625,0.0
1734420835.725291,-115.234375,33.203125,74.21875,-178.7109375,0.0
1734420835.7291965,-757.32421875,37.59765625,516.6015625,-1.953125,0.0
1734420835.7331023,-536.1328125,39.55078125,322.75390625,-50.78125,0.0
1734420835.7370079,147.4609375,36.62109375,-234.86328125,-251.46484375,0.0
1734420835.7409136,370.60546875,36.1328125,-625.0,-345.703125,0.0
1734420835.7448192,-2.9296875,45.8984375,-164.55078125,-190.4296875,0.0
1734420835.7487247,-666.015625,45.8984375,487.79296875,36.62109375,0.0
1734420835.7526305,-578.61328125,33.69140625,436.5234375,39.0625,0.0
1734420835.756536,138.18359375,31.25,-158.203125,-193.84765625,0.0
1734420835.7604418,454.1015625,43.45703125,-516.11328125,-309.5703125,0.0
1734420835.7643542,144.53125,45.41015625,20.01953125,-157.71484375,0.0
1734420835.7682598,-555.6640625,40.52734375,457.03125,81.54296875,0.0
1734420835.7721655,-593.75,45.41015625,369.62890625,112.79296875,0.0
1734420835.776071,97.65625,32.2265625,-136.23046875,-100.09765625,0.0
1734420835.7799766,453.125,24.4140625,-570.3125,-251.953125,0.0
1734420835.7838824,250.0,34.66796875,-246.09375,-152.83203125,0.0
1734420835.787788,-410.64453125,31.73828125,213.37890625,108.3984375,0.0
1734420835.7916937,-583.49609375,23.4375,363.28125,177.734375,0.0
1734420835.7955992,106.93359375,24.90234375,-8.30078125,-12.20703125,0.0
1734420835.799505,515.625,23.4375,-543.45703125,-176.7578125,0.0
1734420835.8034105,370.60546875,20.99609375,-350.09765625,-100.09765625,0.0
1734420835.807316,-233.88671875,19.04296875,317.87109375,147.4609375,0.0
1734420835.8112283,-525.87890625,11.71875,540.52734375,242.1875,0.0
1734420835.815134,73.2421875,2.44140625,-3.41796875,94.7265625,0.0
1734420835.8190396,532.71484375,3.41796875,-561.03515625,-75.1953125,0.0
1734420835.822945,448.73046875,-4.39453125,-381.8359375,-52.24609375,0.0
1734420835.826851,-133.7890625,-10.7421875,263.671875,170.8984375,0.0
1734420835.8307564,-513.18359375,-7.32421875,437.98828125,308.59375,0.0
1734420835.8346622,10.7421875,-13.18359375,-185.05859375,167.48046875,0.0
1734420835.8385677,511.71875,-15.625,-593.26171875,-48.828125,0.0
1734420835.8424735,479.4921875,-16.11328125,-427.734375,-43.45703125,0.0
1734420835.846379,-63.4765625,-26.85546875,135.25390625,191.40625,0.0
1734420835.8502848,-538.57421875,-34.1796875,479.98046875,355.95703125,0.0
1734420835.8541903,-97.16796875,-31.25,157.71484375,254.39453125,0.0
1734420835.8581085,465.33203125,-31.73828125,-439.94140625,-19.04296875,0.0
1734420835.8620143,506.34765625,-34.66796875,-655.2734375,-101.07421875,0.0
1734420835.8659198,28.3203125,-28.80859375,10.25390625,109.86328125,0.0
1734420835.8698256,-509.765625,-26.85546875,520.5078125,248.046875,0.0
1734420835.8737311,-194.3359375,-31.73828125,171.38671875,151.3671875,0.0
1734420835.8776367,389.16015625,-32.2265625,-491.2109375,-53.7109375,0.0
1734420835.8815424,498.046875,-31.73828125,-697.265625,-128.41796875,0.0
1734420835.885448,78.61328125,-32.71484375,-22.94921875,52.24609375,0.0
1734420835.8893538,-501.953125,-32.71484375,518.5546875,256.8359375,0.0
1734420835.8932593,-281.73828125,-41.50390625,101.07421875,219.7265625,0.0
1734420835.897165,322.75390625,-49.31640625,-502.9296875,-21.484375,0.0
1734420835.9010706,489.74609375,-40.0390625,-574.21875,-139.16015625,0.0
1734420835.9049852,162.109375,-36.1328125,-59.08203125,18.5546875,0.0
1734420835.9088907,-451.171875,-38.0859375,425.78125,210.44921875,0.0
1734420835.9127965,-403.3203125,-40.0390625,361.81640625,206.54296875,0.0
1734420835.916702,212.40234375,-39.55078125,-125.0,-9.27734375,0.0
1734420835.9206078,457.03125,-42.96875,-629.8828125,-156.25,0.0
1734420835.9245133,171.875,-43.9453125,-314.453125,-26.85546875,0.0
1734420835.928419,-445.80078125,-42.48046875,362.3046875,204.1015625,0.0
1734420835.9323246,-459.9609375,-37.59765625,475.5859375,252.9296875,0.0
1734420835.9362302,176.7578125,-40.52734375,-220.703125,77.63671875,0.0
1734420835.940136,464.35546875,-43.9453125,-770.5078125,-117.67578125,0.0
1734420835.9440415,266.11328125,-35.64453125,-245.60546875,-98.6328125,0.0
1734420835.9479473,-349.12109375,-38.0859375,399.90234375,184.08203125,0.0
1734420835.9518614,-466.30859375,-42.96875,314.94140625,262.20703125,0.0
1734420835.955767,161.1328125,-40.52734375,-298.828125,-12.20703125,0.0
1734420835.9596727,444.3359375,-44.921875,-643.06640625,-189.94140625,0.0
1734420835.9635782,299.8046875,-42.96875,-359.375,-140.625,0.0
1734420835.967484,-279.78515625,-38.57421875,286.62109375,92.28515625,0.0
1734420835.9713895,-549.31640625,-43.9453125,435.05859375,237.3046875,0.0
1734420835.9752953,22.94921875,-44.43359375,-38.57421875,44.43359375,0.0
1734420835.9792008,436.5234375,-42.48046875,-493.65234375,-204.1015625,0.0
1734420835.9831064,351.07421875,-46.875,-618.65234375,-166.50390625,0.0
1734420835.9870121,-184.08203125,-44.921875,13.671875,83.984375,0.0
1734420835.9909177,-551.7578125,-40.0390625,550.78125,217.28515625,0.0
1734420835.9948235,-63.4765625,-44.921875,29.78515625,49.31640625,0.0
1734420835.998737,387.20703125,-46.875,-518.06640625,-172.8515625,0.0
1734420836.0026429,371.09375,-44.43359375,-455.078125,-197.75390625,0.0
1734420836.0065484,-128.41796875,-41.015625,159.1796875,20.99609375,0.0
1734420836.0104542,-590.8203125,-43.45703125,483.88671875,198.2421875,0.0
1734420836.0143597,-154.78515625,-49.31640625,50.29296875,65.4296875,0.0
1734420836.0182652,376.46484375,-48.33984375,-508.30078125,-162.109375,0.0
1734420836.022171,424.8046875,-41.50390625,-600.5859375,-184.08203125,0.0
1734420836.0260766,-7.8125,-38.57421875,-31.73828125,26.85546875,0.0
1734420836.0299823,-543.45703125,-43.45703125,386.71875,223.6328125,0.0
1734420836.0338879,-237.3046875,-40.52734375,188.96484375,143.5546875,0.0
1734420836.0377936,342.28515625,-39.0625,-307.6171875,-123.046875,0.0
1734420836.0416992,456.0546875,-41.9921875,-569.3359375,-226.5625,0.0
1734420836.0456126,43.9453125,-40.0390625,-31.25,-13.671875,0.0
1734420836.049518,-551.26953125,-41.015625,392.578125,159.1796875,0.0
1734420836.053424,-325.1953125,-43.9453125,225.5859375,61.5234375,0.0
1734420836.0573294,287.109375,-44.921875,-232.91015625,-132.32421875,0.0
1734420836.0612352,451.171875,-47.8515625,-550.29296875,-194.82421875,0.0
1734420836.0651407,137.6953125,-52.24609375,-87.890625,-36.1328125,0.0
1734420836.0690463,-475.09765625,-52.734375,417.48046875,129.8828125,0.0
1734420836.072952,-389.6484375,-53.7109375,117.1875,117.67578125,0.0
1734420836.0768576,253.90625,-51.7578125,-385.25390625,-85.9375,0.0
1734420836.0807633,485.3515625,-43.9453125,-444.3359375,-218.75,0.0
1734420836.0846689,206.0546875,-46.875,-57.12890625,-68.359375,0.0
1734420836.0885746,-416.50390625,-48.828125,373.53515625,153.80859375,0.0
1734420836.0924876,-480.46875,-46.875,396.484375,166.015625,0.0
1734420836.096393,165.52734375,-46.875,-44.921875,-45.8984375,0.0
1734420836.1002986,490.234375,-44.921875,-522.94921875,-191.40625,0.0
1734420836.1042044,268.06640625,-44.43359375,-207.51953125,-99.609375,0.0
1734420836.10811,-358.88671875,-44.43359375,369.62890625,116.2109375,0.0
1734420836.1120157,-511.23046875,-45.8984375,418.45703125,184.5703125,0.0
1734420836.1159213,104.4921875,-45.41015625,-171.38671875,-12.20703125,0.0
1734420836.119827,431.15234375,-46.38671875,-699.70703125,-199.21875,0.0
1734420836.1237326,285.15625,-40.0390625,-317.87109375,-151.85546875,0.0
1734420836.1276383,-272.4609375,-38.57421875,317.87109375,82.51953125,0.0
1734420836.1315439,-544.43359375,-45.41015625,400.390625,191.40625,0.0
1734420836.1354494,-20.01953125,-48.33984375,-37.59765625,22.4609375,0.0
1734420836.139362,381.8359375,-47.36328125,-445.3125,-176.7578125,0.0
1734420836.1432676,320.3125,-48.828125,-449.70703125,-164.0625,0.0
1734420836.1471734,-241.2109375,-56.15234375,156.73828125,79.58984375,0.0
1734420836.151079,-632.8125,-52.734375,502.44140625,214.84375,0.0
1734420836.1549845,-111.81640625,-45.8984375,54.6875,28.3203125,0.0
1734420836.1588902,360.83984375,-49.31640625,-493.65234375,-150.87890625,0.0
1734420836.1627958,342.7734375,-51.26953125,-663.57421875,-179.19921875,0.0
1734420836.1667016,-146.97265625,-45.41015625,-92.7734375,-70.3125,0.0
