timestamps,TP9,AF7,AF8,TP10,Right AUX
1733975862.830101,-8.30078125,349.609375,220.21484375,150.390625,0.0
1733975862.8340073,-19.53125,271.97265625,166.015625,2.44140625,0.0
1733975862.8379135,0.0,141.11328125,60.05859375,-58.10546875,0.0
1733975862.8418198,12.20703125,-3.90625,61.03515625,6.34765625,0.0
1733975862.845726,17.08984375,-233.3984375,-91.30859375,160.64453125,0.0
1733975862.8496323,19.04296875,-16.11328125,23.4375,187.5,0.0
1733975862.8535385,-7.32421875,544.43359375,193.359375,16.6015625,0.0
1733975862.8574448,-5.37109375,392.08984375,37.109375,-61.03515625,0.0
1733975862.861351,13.671875,-76.171875,-153.3203125,-7.32421875,0.0
1733975862.8652573,0.48828125,152.83203125,-1.953125,105.46875,0.0
1733975862.8691635,-11.23046875,703.61328125,212.40234375,149.4140625,0.0
1733975862.873093,-7.8125,401.3671875,34.1796875,26.3671875,0.0
1733975862.8769991,-13.671875,-123.53515625,-247.0703125,-77.63671875,0.0
1733975862.8809054,-23.4375,93.75,-155.76171875,-44.43359375,0.0
1733975862.8848116,-23.4375,529.296875,101.5625,78.61328125,0.0
1733975862.888718,-12.6953125,399.4140625,26.85546875,144.53125,0.0
1733975862.8926241,-18.5546875,-126.46484375,-252.44140625,38.0859375,0.0
1733975862.8965304,-18.06640625,-124.51171875,-316.89453125,-92.7734375,0.0
1733975862.9004366,-25.390625,345.703125,-156.25,-94.23828125,0.0
1733975862.904343,-11.23046875,-5.37109375,-331.0546875,42.48046875,0.0
1733975862.9082491,3.41796875,-523.4375,-442.87109375,158.203125,0.0
1733975862.9121554,-32.71484375,142.578125,-32.71484375,46.38671875,0.0
1733975862.9160616,-38.0859375,386.23046875,-146.97265625,-124.51171875,0.0
1733975862.9199307,-43.9453125,8.7890625,-346.19140625,-113.28125,0.0
1733975862.923837,-45.8984375,67.3828125,-262.20703125,13.18359375,0.0
1733975862.9277432,-32.71484375,478.515625,-164.0625,105.95703125,0.0
1733975862.9316494,-38.0859375,198.73046875,-243.65234375,20.5078125,0.0
1733975862.9355557,-58.59375,-324.70703125,-421.38671875,-135.25390625,0.0
1733975862.939462,-70.80078125,-405.76171875,-404.296875,-171.38671875,0.0
1733975862.9433682,-73.73046875,-255.37109375,-339.35546875,-78.125,0.0
1733975862.9472744,-59.5703125,233.88671875,-222.65625,66.89453125,0.0
1733975862.9511807,-38.57421875,-295.8984375,-393.06640625,49.8046875,0.0
1733975862.955087,-48.828125,-536.1328125,-453.125,-98.14453125,0.0
1733975862.9589932,-48.828125,272.94921875,-270.99609375,-121.09375,0.0
1733975862.9628994,-43.45703125,150.390625,-330.078125,-30.2734375,0.0
1733975862.9672136,-42.48046875,25.87890625,-333.0078125,80.56640625,0.0
1733975862.9711199,-1.953125,246.09375,-256.8359375,35.15625,0.0
1733975862.9750261,-20.01953125,288.0859375,-287.109375,-131.8359375,0.0
1733975862.9789324,-56.15234375,-16.11328125,-414.55078125,-151.3671875,0.0
1733975862.9828386,-52.734375,-244.140625,-465.33203125,-68.359375,0.0
1733975862.9867449,-42.48046875,-187.01171875,-379.39453125,52.24609375,0.0
1733975862.9906511,-43.45703125,35.64453125,-263.671875,59.5703125,0.0
1733975862.9945574,-56.640625,-260.25390625,-478.515625,-91.796875,0.0
1733975862.9984636,-48.33984375,-804.19921875,-629.8828125,-159.1796875,0.0
1733975863.0023699,-44.43359375,-122.0703125,-317.87109375,-96.19140625,0.0
1733975863.0062761,-13.18359375,268.5546875,-328.125,58.10546875,0.0
1733975863.0101821,-26.3671875,-81.54296875,-371.58203125,83.984375,0.0
1733975863.0144253,-65.4296875,-83.0078125,-322.265625,-82.03125,0.0
1733975863.0183315,-64.453125,146.97265625,-356.4453125,-167.96875,0.0
1733975863.0222375,-51.7578125,119.62890625,-370.60546875,-104.4921875,0.0
1733975863.0261438,-31.25,-173.33984375,-405.76171875,34.66796875,0.0
1733975863.03005,-32.71484375,-148.4375,-348.14453125,81.0546875,0.0
1733975863.0339563,-39.0625,-90.33203125,-354.98046875,-49.8046875,0.0
1733975863.0378625,-42.96875,-373.53515625,-440.4296875,-153.80859375,0.0
1733975863.0417688,-44.43359375,-473.6328125,-427.734375,-113.28125,0.0
1733975863.045675,-52.734375,-150.390625,-337.40234375,19.53125,0.0
1733975863.0495813,-54.19921875,284.1796875,-244.140625,89.35546875,0.0
1733975863.0534875,-39.0625,79.1015625,-335.9375,-20.99609375,0.0
1733975863.0573938,-48.828125,-643.5546875,-508.30078125,-147.4609375,0.0
1733975863.0610619,-79.1015625,-491.2109375,-387.6953125,-122.55859375,0.0
1733975863.064968,-84.47265625,243.1640625,-238.28125,10.7421875,0.0
1733975863.0688744,-63.4765625,90.33203125,-328.125,75.68359375,0.0
1733975863.0727806,-41.015625,-304.6875,-426.7578125,-22.94921875,0.0
1733975863.0766869,-47.36328125,-55.17578125,-375.48828125,-140.625,0.0
1733975863.080593,-54.6875,-178.7109375,-394.04296875,-125.9765625,0.0
1733975863.0844994,-46.38671875,-574.21875,-495.60546875,11.23046875,0.0
1733975863.0884056,-44.43359375,-368.1640625,-438.4765625,97.16796875,0.0
1733975863.0923119,-45.8984375,122.55859375,-244.62890625,-8.30078125,0.0
1733975863.096218,-63.4765625,239.74609375,-292.96875,-148.4375,0.0
1733975863.1001244,-81.0546875,-402.83203125,-500.9765625,-138.18359375,0.0
1733975863.1040306,-59.5703125,-721.6796875,-545.8984375,-17.08984375,0.0
1733975863.1076634,-49.8046875,80.078125,-229.00390625,78.125,0.0
1733975863.1115696,-46.875,163.57421875,-280.76171875,17.08984375,0.0
1733975863.115476,-43.45703125,-498.046875,-465.8203125,-98.14453125,0.0
1733975863.1193821,-43.45703125,-761.71875,-424.31640625,-120.1171875,0.0
1733975863.1232884,-34.66796875,-305.6640625,-366.69921875,-19.04296875,0.0
1733975863.1271946,-36.62109375,-104.00390625,-304.19921875,105.95703125,0.0
1733975863.131101,-33.203125,-642.578125,-406.25,60.546875,0.0
1733975863.1350071,-41.9921875,-641.6015625,-436.03515625,-94.7265625,0.0
1733975863.1389134,-50.78125,104.98046875,-175.78125,-136.23046875,0.0
1733975863.1428196,-43.9453125,92.7734375,-124.0234375,-44.43359375,0.0
1733975863.146726,-21.97265625,-53.22265625,-73.2421875,87.890625,0.0
1733975863.1506321,-20.01953125,155.76171875,101.5625,46.38671875,0.0
1733975863.1542063,-55.17578125,259.27734375,106.4453125,-113.76953125,0.0
1733975863.1581125,-70.80078125,-27.34375,1.953125,-146.97265625,0.0
1733975863.1620188,-65.91796875,-237.3046875,-12.20703125,-62.5,0.0
1733975863.165925,-55.17578125,135.7421875,137.6953125,62.5,0.0
1733975863.1698313,-37.109375,290.52734375,195.80078125,66.89453125,0.0
1733975863.1737375,-45.8984375,-265.13671875,-29.296875,-73.2421875,0.0
1733975863.1776438,-68.359375,-709.47265625,-255.37109375,-144.53125,0.0
1733975863.1815498,-64.94140625,-311.03515625,-15.625,-88.8671875,0.0
1733975863.185456,-52.734375,291.015625,263.671875,47.8515625,0.0
1733975863.1893623,-48.828125,-153.3203125,-25.87890625,69.3359375,0.0
1733975863.1932685,-62.01171875,-647.94921875,-198.2421875,-99.12109375,0.0
1733975863.1971748,-83.0078125,-22.94921875,130.859375,-207.51953125,0.0
1733975863.2012005,-86.9140625,154.78515625,137.20703125,-141.6015625,0.0
1733975863.2051065,-73.73046875,-71.77734375,37.109375,8.30078125,0.0
1733975863.2090127,-69.82421875,17.578125,94.23828125,59.08203125,0.0
1733975863.212919,-78.125,-81.54296875,55.6640625,-81.54296875,0.0
1733975863.2168252,-70.80078125,-342.7734375,-153.3203125,-190.91796875,0.0
1733975863.2207315,-78.61328125,-642.578125,-299.31640625,-146.484375,0.0
1733975863.2246377,-73.2421875,-544.43359375,-173.828125,-13.18359375,0.0
1733975863.228544,-62.01171875,76.171875,132.32421875,50.29296875,0.0
1733975863.2324502,-79.1015625,-122.55859375,0.0,-72.265625,0.0
1733975863.2363565,-86.9140625,-480.46875,-257.8125,-188.4765625,0.0
1733975863.2402627,-82.51953125,-202.1484375,-95.703125,-159.66796875,0.0
1733975863.244169,-73.2421875,218.75,115.234375,-42.96875,0.0
1733975863.2481341,0.0,123.046875,73.73046875,50.29296875,0.0
1733975863.2520404,0.0,-333.49609375,-126.46484375,-44.43359375,0.0
1733975863.2559466,0.0,-158.203125,-172.36328125,-177.734375,0.0
1733975863.259853,0.0,148.92578125,9.27734375,-176.7578125,0.0
1733975863.2637591,0.0,-65.4296875,-85.9375,-48.828125,0.0
1733975863.2676654,0.0,-409.1796875,-281.25,69.82421875,0.0
1733975863.2715716,0.0,-243.65234375,-186.03515625,-40.52734375,0.0
1733975863.275478,0.0,143.5546875,-118.1640625,-175.78125,0.0
1733975863.2793841,0.0,-319.82421875,-353.02734375,-175.29296875,0.0
1733975863.2832904,0.0,-774.4140625,-495.1171875,-64.453125,0.0
1733975863.2871966,0.0,-68.84765625,-25.390625,76.171875,0.0
1733975863.291103,0.0,-40.0390625,35.15625,11.23046875,0.0
1733975863.2950048,-70.80078125,-441.40625,-240.234375,-147.4609375,0.0
1733975863.298911,-83.49609375,-250.48828125,-95.703125,-181.15234375,0.0
1733975863.3028173,-81.54296875,101.07421875,91.796875,-78.125,0.0
1733975863.3067236,-61.03515625,-55.6640625,51.26953125,68.359375,0.0
1733975863.3106298,-66.89453125,-355.46875,6.8359375,17.08984375,0.0
1733975863.314536,-83.984375,-498.53515625,-99.12109375,-145.99609375,0.0
1733975863.3184423,-80.078125,-354.00390625,7.8125,-171.38671875,0.0
1733975863.3223486,-81.54296875,32.2265625,158.203125,-72.265625,0.0
1733975863.3262548,-71.2890625,-522.94921875,-144.53125,69.82421875,0.0
1733975863.330161,-67.3828125,-532.71484375,-48.828125,49.31640625,0.0
1733975863.3340673,-73.73046875,213.37890625,236.328125,-106.93359375,0.0
1733975863.3379736,-75.68359375,4.8828125,108.88671875,-164.55078125,0.0
1733975863.3418164,-90.8203125,-245.1171875,84.47265625,-93.26171875,0.0
1733975863.3457227,-79.58984375,69.3359375,200.68359375,51.7578125,0.0
1733975863.349629,-65.91796875,46.875,190.91796875,55.6640625,0.0
1733975863.3535352,-74.70703125,-326.66015625,47.8515625,-93.75,0.0
1733975863.3574414,-69.82421875,-339.84375,39.55078125,-135.7421875,0.0
1733975863.3613477,-62.01171875,-372.0703125,65.4296875,-81.0546875,0.0
1733975863.365254,-63.4765625,-156.25,188.96484375,24.4140625,0.0
1733975863.3691602,-46.875,-146.97265625,85.44921875,79.1015625,0.0
1733975863.3730664,-50.29296875,-667.48046875,-168.45703125,-61.5234375,0.0
1733975863.3769727,-86.42578125,-156.25,125.9765625,-176.26953125,0.0
1733975863.380879,-99.12109375,229.98046875,207.03125,-104.00390625,0.0
1733975863.3847852,-86.42578125,-93.75,122.55859375,27.34375,0.0
1733975863.3890684,-74.21875,-37.109375,188.96484375,63.96484375,0.0
1733975863.3929746,-67.3828125,289.0625,226.07421875,-75.1953125,0.0
1733975863.3968809,-70.80078125,187.01171875,151.3671875,-162.59765625,0.0
1733975863.400787,-79.58984375,-263.18359375,44.43359375,-99.609375,0.0
1733975863.4046934,-66.40625,-268.5546875,110.3515625,22.4609375,0.0
1733975863.4085996,-46.38671875,-28.80859375,187.98828125,95.703125,0.0
1733975863.4125059,-58.10546875,-184.08203125,144.53125,-37.109375,0.0
1733975863.416412,-71.77734375,-702.1484375,-178.7109375,-147.4609375,0.0
1733975863.4203184,-83.984375,-600.5859375,-142.08984375,-118.1640625,0.0
1733975863.4242246,-94.23828125,209.47265625,249.51171875,-6.8359375,0.0
1733975863.4281309,-60.05859375,234.86328125,182.12890625,101.07421875,0.0
1733975863.432037,-45.41015625,-120.60546875,111.328125,-3.90625,0.0
1733975863.4357467,-71.2890625,9.765625,131.8359375,-156.25,0.0
1733975863.439653,-70.80078125,266.6015625,169.43359375,-145.01953125,0.0
1733975863.4435592,-53.7109375,-41.9921875,46.38671875,-16.11328125,0.0
1733975863.4474654,-63.96484375,-290.0390625,-8.30078125,91.796875,0.0
1733975863.4513717,-76.66015625,103.515625,128.90625,-4.8828125,0.0
1733975863.455278,-67.87109375,-43.9453125,55.17578125,-136.23046875,0.0
1733975863.4591842,-64.453125,-555.17578125,-120.1171875,-144.53125,0.0
1733975863.4630904,-59.08203125,-409.66796875,-82.03125,-33.203125,0.0
1733975863.4669967,-40.52734375,60.05859375,175.29296875,106.93359375,0.0
1733975863.470903,-46.38671875,252.44140625,246.58203125,23.4375,0.0
1733975863.4748092,-58.10546875,-197.75390625,-61.03515625,-126.46484375,0.0
1733975863.4787154,-54.19921875,-671.875,-186.5234375,-124.51171875,0.0
1733975863.4823732,-60.05859375,127.44140625,241.2109375,-45.41015625,0.0
1733975863.4862795,-54.19921875,456.54296875,258.7890625,78.61328125,0.0
1733975863.4901857,-41.50390625,222.16796875,234.375,41.9921875,0.0
1733975863.4940917,-47.8515625,-92.28515625,140.625,-119.140625,0.0
1733975863.497998,-63.4765625,-93.75,97.65625,-172.8515625,0.0
1733975863.5019042,-72.265625,6.34765625,166.015625,-98.14453125,0.0
1733975863.5058105,-60.546875,-581.0546875,-113.76953125,57.6171875,0.0
1733975863.5097167,-67.3828125,-474.12109375,-88.37890625,40.52734375,0.0
1733975863.513623,-71.77734375,419.921875,253.90625,-126.953125,0.0
1733975863.5175292,-62.01171875,273.92578125,186.5234375,-174.8046875,0.0
1733975863.5214355,-58.59375,50.78125,220.21484375,-92.7734375,0.0
1733975863.5253417,-59.08203125,169.43359375,339.84375,52.24609375,0.0
1733975863.528945,-66.89453125,293.45703125,384.27734375,39.0625,0.0
1733975863.5328512,-72.265625,238.28125,375.48828125,-122.0703125,0.0
1733975863.5367575,-77.1484375,46.875,373.046875,-178.22265625,0.0
1733975863.5406637,-72.265625,247.0703125,418.45703125,-107.421875,0.0
1733975863.54457,-44.43359375,499.51171875,468.75,40.0390625,0.0
1733975863.5484762,-24.90234375,165.0390625,387.20703125,92.28515625,0.0
1733975863.5523822,-43.9453125,-372.0703125,317.3828125,-73.2421875,0.0
1733975863.5562885,-57.12890625,127.44140625,432.12890625,-190.4296875,0.0
1733975863.5601947,-43.45703125,515.625,460.44921875,-121.09375,0.0
1733975863.564101,-33.203125,171.38671875,324.21875,39.0625,0.0
1733975863.5680072,-27.83203125,193.359375,352.05078125,96.6796875,0.0
1733975863.5719135,-32.2265625,589.35546875,448.2421875,-52.24609375,0.0
1733975863.5759168,0.0,518.06640625,380.37109375,0.0,0.0
1733975863.579823,0.0,212.40234375,372.0703125,0.0,0.0
1733975863.5837293,0.0,200.68359375,354.98046875,0.0,0.0
1733975863.5876355,0.0,256.34765625,335.44921875,0.0,0.0
1733975863.5915415,0.0,146.484375,310.05859375,0.0,0.0
1733975863.5954478,0.0,-310.05859375,184.08203125,0.0,0.0
1733975863.599354,0.0,-231.4453125,243.65234375,0.0,0.0
1733975863.6032603,0.0,533.203125,379.8828125,0.0,0.0
1733975863.6071665,0.0,648.4375,320.3125,0.0,0.0
1733975863.6110728,0.0,180.6640625,261.71875,0.0,0.0
1733975863.614979,0.0,230.95703125,280.2734375,0.0,0.0
1733975863.6188853,0.0,666.9921875,296.38671875,0.0,0.0
1733975863.6214755,-34.66796875,454.58984375,245.60546875,-40.52734375,0.0
1733975863.6253817,-38.0859375,346.19140625,259.765625,73.73046875,0.0
1733975863.629288,-34.1796875,657.2265625,288.0859375,-7.8125,0.0
1733975863.6331942,-36.62109375,714.84375,256.8359375,-161.62109375,0.0
1733975863.6371005,-59.5703125,384.765625,171.38671875,-161.1328125,0.0
1733975863.6410067,-63.96484375,0.0,96.6796875,-44.43359375,0.0
1733975863.644913,-66.40625,63.96484375,136.71875,76.171875,0.0
1733975863.6488192,-64.94140625,214.35546875,198.2421875,14.16015625,0.0
1733975863.6527252,-58.59375,-108.88671875,-45.41015625,-140.625,0.0
1733975863.6566315,-66.89453125,-516.11328125,-226.5625,-162.59765625,0.0
1733975863.6605377,-73.2421875,167.48046875,136.23046875,-70.80078125,0.0
1733975863.664444,-66.40625,712.890625,227.5390625,61.03515625,0.0
1733975863.668355,-41.9921875,427.24609375,133.30078125,27.34375,0.0
1733975863.6722612,-48.828125,301.7578125,100.5859375,-123.53515625,0.0
1733975863.6761675,-40.52734375,531.25,148.92578125,-165.0390625,0.0
1733975863.6800737,-41.9921875,328.125,79.1015625,-73.2421875,0.0
1733975863.68398,-45.8984375,112.3046875,65.91796875,74.70703125,0.0
1733975863.6878862,-49.31640625,90.8203125,64.453125,35.15625,0.0
1733975863.6917925,-60.05859375,187.98828125,35.15625,-139.16015625,0.0
1733975863.6956987,-60.546875,493.65234375,103.515625,-189.94140625,0.0
1733975863.699605,-42.48046875,-308.59375,-249.0234375,-101.5625,0.0
1733975863.7035112,-41.9921875,-531.25,-282.2265625,42.48046875,0.0
1733975863.7074172,-56.15234375,546.38671875,145.01953125,34.66796875,0.0
1733975863.7113235,-45.8984375,467.28515625,17.08984375,-99.609375,0.0
1733975863.7152214,-51.7578125,140.13671875,-116.69921875,-158.203125,0.0
1733975863.7191277,-62.5,380.859375,49.8046875,-117.1875,0.0
1733975863.723034,-50.78125,593.75,110.3515625,16.11328125,0.0
1733975863.7269402,-46.38671875,443.359375,20.99609375,68.359375,0.0
1733975863.7308464,-58.10546875,224.12109375,-114.74609375,-81.54296875,0.0
1733975863.7347527,-62.01171875,73.73046875,-229.98046875,-163.57421875,0.0
1733975863.7386587,-53.7109375,135.7421875,-172.36328125,-123.046875,0.0
1733975863.742565,-40.52734375,106.93359375,-181.15234375,18.06640625,0.0
1733975863.7464712,-24.90234375,-354.98046875,-346.6796875,89.84375,0.0
1733975863.7503774,-47.36328125,196.77734375,-50.78125,-53.22265625,0.0
1733975863.7542837,-43.9453125,580.56640625,87.40234375,-152.83203125,0.0
1733975863.75819,-47.36328125,180.17578125,-90.8203125,-119.62890625,0.0
1733975863.7620316,-58.59375,-9.27734375,-203.125,-3.41796875,0.0
1733975863.7659378,-44.921875,388.671875,39.0625,74.70703125,0.0
1733975863.769844,-67.87109375,588.37890625,119.140625,-19.53125,0.0
1733975863.7737503,-57.6171875,59.5703125,-204.58984375,-143.06640625,0.0
1733975863.7776566,-22.94921875,-117.67578125,-234.86328125,-129.39453125,0.0
1733975863.7815628,-21.97265625,76.171875,-161.62109375,12.20703125,0.0
1733975863.785469,-12.6953125,202.1484375,-90.8203125,104.98046875,0.0
1733975863.7893753,-19.53125,-351.07421875,-233.88671875,-18.06640625,0.0
1733975863.7932816,-45.41015625,-485.83984375,-373.53515625,-150.87890625,0.0
1733975863.7971878,-54.19921875,343.26171875,-73.73046875,-140.625,0.0
1733975863.801094,-24.4140625,315.91796875,-34.66796875,-8.30078125,0.0
1733975863.8050003,6.8359375,116.2109375,-117.67578125,99.12109375,0.0
1733975863.8092306,-12.6953125,333.0078125,-0.48828125,2.44140625,0.0
1733975863.8131368,-40.52734375,552.734375,-19.04296875,-129.39453125,0.0
1733975863.817043,-46.875,184.08203125,-277.34375,-152.34375,0.0
1733975863.8209493,-22.94921875,-368.1640625,-400.87890625,-53.7109375,0.0
1733975863.8248556,-8.30078125,46.38671875,-111.328125,92.7734375,0.0
1733975863.8287618,-6.34765625,255.37109375,-34.1796875,33.203125,0.0
1733975863.832668,-11.23046875,-240.72265625,-394.04296875,-124.51171875,0.0
1733975863.836574,-29.296875,-649.90234375,-499.0234375,-142.08984375,0.0
1733975863.8404803,-34.1796875,-74.70703125,-131.34765625,-46.38671875,0.0
1733975863.8443866,-1.953125,571.77734375,80.56640625,91.30859375,0.0
1733975863.8482928,10.25390625,215.8203125,-54.6875,42.48046875,0.0
1733975863.852199,-5.37109375,-9.27734375,-275.87890625,-123.53515625,0.0
1733975863.855924,0.0,272.94921875,-192.3828125,-144.53125,0.0
1733975863.85983,0.0,286.62109375,-145.99609375,-51.26953125,0.0
1733975863.8637362,0.0,152.34375,-207.51953125,86.42578125,0.0
1733975863.8676424,0.0,-49.8046875,-221.6796875,74.70703125,0.0
1733975863.8715487,0.0,-8.7890625,-231.4453125,-84.9609375,0.0
1733975863.875455,0.0,-90.8203125,-279.296875,-129.8828125,0.0
1733975863.8793612,0.0,-518.5546875,-369.140625,-57.6171875,0.0
1733975863.8832674,0.0,-185.05859375,-127.44140625,62.01171875,0.0
1733975863.8871737,0.0,472.16796875,134.765625,89.35546875,0.0
1733975863.89108,0.0,423.33984375,14.16015625,-70.3125,0.0
1733975863.8949862,0.0,-463.37890625,-335.9375,-173.33984375,0.0
1733975863.8988924,0.0,-519.04296875,-345.703125,-95.703125,0.0
1733975863.9025295,-3.41796875,376.46484375,-18.06640625,57.6171875,0.0
1733975863.9064357,-8.7890625,322.265625,35.64453125,99.609375,0.0
1733975863.9103417,-30.76171875,2.9296875,-212.40234375,-61.5234375,0.0
1733975863.914248,-73.2421875,117.67578125,-273.4375,-194.82421875,0.0
1733975863.9181542,-58.10546875,168.9453125,-231.4453125,-146.97265625,0.0
1733975863.9220605,-33.203125,-268.5546875,-439.453125,27.34375,0.0
1733975863.9259667,-16.6015625,-678.7109375,-445.80078125,119.62890625,0.0
1733975863.929873,-14.16015625,-94.7265625,-117.1875,-32.71484375,0.0
1733975863.9337792,-37.59765625,293.45703125,-151.3671875,-159.66796875,0.0
1733975863.9376855,-40.0390625,-206.54296875,-321.77734375,-123.046875,0.0
1733975863.9415917,-33.69140625,-212.40234375,-263.671875,-5.859375,0.0
1733975863.945498,-26.85546875,365.234375,-22.94921875,97.65625,0.0
1733975863.9495237,-46.875,377.44140625,27.34375,-21.97265625,0.0
1733975863.95343,-60.546875,-107.421875,-227.05078125,-166.50390625,0.0
1733975863.957336,-45.8984375,-202.63671875,-286.1328125,-132.32421875,0.0
1733975863.9612422,-35.15625,-80.56640625,-254.8828125,4.8828125,0.0
1733975863.9651484,-11.71875,-89.35546875,-200.1953125,128.41796875,0.0
1733975863.9690547,-10.7421875,-438.96484375,-249.0234375,23.92578125,0.0
1733975863.972961,-33.203125,-490.234375,-260.7421875,-129.8828125,0.0
1733975863.9768672,-42.48046875,109.375,-20.99609375,-126.953125,0.0
1733975863.9807734,-11.23046875,171.38671875,22.94921875,-2.44140625,0.0
1733975863.9846797,11.23046875,-87.40234375,-86.9140625,128.90625,0.0
1733975863.988586,-8.7890625,52.24609375,0.0,49.31640625,0.0
1733975863.9924922,-36.1328125,287.59765625,82.03125,-131.8359375,0.0
1733975863.9965062,-24.90234375,-55.17578125,-64.453125,-146.97265625,0.0
1733975864.0004122,-15.13671875,-451.66015625,-200.68359375,-12.20703125,0.0
1733975864.0043185,-14.16015625,15.13671875,41.015625,114.2578125,0.0
1733975864.0082247,-13.18359375,425.78125,193.359375,41.015625,0.0
1733975864.012131,-38.57421875,47.36328125,-36.1328125,-119.62890625,0.0
1733975864.0160372,-31.25,-526.3671875,-311.5234375,-135.25390625,0.0
1733975864.0199435,-14.6484375,-398.92578125,-237.3046875,-29.78515625,0.0
1733975864.0238497,-7.8125,239.74609375,110.3515625,95.21484375,0.0
1733975864.027756,-14.16015625,-40.0390625,-51.7578125,57.6171875,0.0
1733975864.0316622,-20.99609375,-725.09765625,-416.50390625,-90.8203125,0.0
1733975864.0355685,-17.08984375,-239.2578125,-95.703125,-157.2265625,0.0
1733975864.0394747,-13.671875,152.83203125,85.9375,-66.40625,0.0
1733975864.0433934,9.27734375,-59.5703125,-29.296875,100.09765625,0.0
1733975864.0472996,20.5078125,41.9921875,40.0390625,96.19140625,0.0
1733975864.0512059,-9.765625,203.125,53.7109375,-88.37890625,0.0
1733975864.0551121,-30.2734375,-275.390625,-224.12109375,-152.34375,0.0
1733975864.0590184,-28.3203125,-546.875,-292.48046875,-58.10546875,0.0
1733975864.0629246,1.953125,-417.48046875,-232.91015625,90.33203125,0.0
1733975864.0668306,10.25390625,-224.12109375,-102.05078125,106.93359375,0.0
1733975864.070737,-15.13671875,18.5546875,14.6484375,-65.4296875,0.0
1733975864.0746431,-28.3203125,-535.64453125,-357.421875,-149.4140625,0.0
1733975864.0785494,-27.83203125,-661.62109375,-395.01953125,-88.37890625,0.0
1733975864.0824556,-9.27734375,188.96484375,24.90234375,74.21875,0.0
1733975864.086362,-2.9296875,196.2890625,68.359375,117.1875,0.0
1733975864.0916727,-7.8125,-252.44140625,-159.1796875,-54.19921875,0.0
1733975864.095579,-23.4375,-183.59375,-234.375,-168.45703125,0.0
1733975864.0994852,-39.55078125,83.984375,-154.296875,-105.95703125,0.0
1733975864.1033914,-18.5546875,-27.83203125,-232.91015625,64.453125,0.0
1733975864.1072977,-0.48828125,-144.04296875,-224.609375,142.08984375,0.0
1733975864.111204,-15.13671875,-264.6484375,-230.95703125,-8.30078125,0.0
1733975864.1151102,-36.1328125,-306.15234375,-308.10546875,-163.0859375,0.0
1733975864.1190164,-36.62109375,-491.2109375,-417.48046875,-123.046875,0.0
1733975864.1229227,-28.80859375,-765.625,-498.53515625,49.31640625,0.0
1733975864.126829,-26.3671875,-26.85546875,-69.3359375,131.8359375,0.0
1733975864.1307352,-19.53125,337.40234375,44.43359375,-4.39453125,0.0
1733975864.1346414,-41.50390625,-209.9609375,-250.9765625,-143.5546875,0.0
1733975864.1384647,-48.33984375,-271.97265625,-290.52734375,-145.5078125,0.0
1733975864.142371,-30.76171875,164.0625,-226.5625,0.48828125,0.0
1733975864.1462772,-31.73828125,277.34375,-146.97265625,122.0703125,0.0
1733975864.1501834,-38.0859375,-140.625,-251.953125,-2.9296875,0.0
1733975864.1540897,-59.5703125,-416.015625,-396.97265625,-166.9921875,0.0
1733975864.157996,-55.17578125,-369.140625,-333.984375,-148.4375,0.0
1733975864.1619022,-40.0390625,-452.1484375,-345.21484375,-18.5546875,0.0
1733975864.1658084,-43.45703125,-379.39453125,-297.36328125,88.37890625,0.0
1733975864.1697147,-51.26953125,-79.1015625,-88.8671875,8.30078125,0.0
1733975864.173621,-41.50390625,107.421875,-180.6640625,-155.2734375,0.0
1733975864.1775272,-40.0390625,-284.1796875,-352.05078125,-167.96875,0.0
1733975864.1814334,-65.91796875,-522.94921875,-347.65625,-49.8046875,0.0
1733975864.1851435,-43.45703125,-63.4765625,-130.37109375,92.28515625,0.0
1733975864.1890497,-33.69140625,335.44921875,70.80078125,38.0859375,0.0
1733975864.192956,-47.36328125,-113.28125,-245.60546875,-137.6953125,0.0
1733975864.1968622,-51.7578125,-556.15234375,-409.1796875,-169.43359375,0.0
1733975864.2007685,-45.41015625,-190.4296875,-250.48828125,-58.10546875,0.0
1733975864.2046747,-19.04296875,-158.203125,-234.375,73.73046875,0.0
1733975864.208581,-19.04296875,-422.36328125,-318.84765625,49.8046875,0.0
1733975864.212487,-56.15234375,-952.1484375,-658.203125,-116.69921875,0.0
1733975864.2163932,-85.9375,-757.8125,-470.703125,-194.3359375,0.0
1733975864.2202995,-79.58984375,41.50390625,-30.76171875,-99.12109375,0.0
1733975864.2242057,-35.64453125,-42.96875,-75.1953125,99.12109375,0.0
1733975864.228112,-11.23046875,-48.828125,-41.015625,104.00390625,0.0
1733975864.2317696,-18.5546875,210.44921875,74.70703125,-95.21484375,0.0
1733975864.2356758,-48.33984375,-139.6484375,-148.4375,-160.64453125,0.0
1733975864.239582,-76.171875,-449.21875,-314.94140625,-105.95703125,0.0
1733975864.2434883,-65.91796875,-327.1484375,-250.9765625,24.90234375,0.0
1733975864.2473946,-33.203125,-30.2734375,-60.05859375,98.6328125,0.0
1733975864.2513008,-39.0625,-104.4921875,-81.0546875,-62.98828125,0.0
1733975864.255207,-52.734375,-767.578125,-470.703125,-173.33984375,0.0
1733975864.2591133,-60.546875,-690.4296875,-375.48828125,-103.02734375,0.0
1733975864.2630196,-32.2265625,155.2734375,88.8671875,52.24609375,0.0
1733975864.2669258,-15.625,276.3671875,122.0703125,121.58203125,0.0
1733975864.270832,-25.390625,-138.18359375,-23.4375,-20.5078125,0.0
1733975864.2747383,-23.92578125,-194.82421875,-3.41796875,-135.25390625,0.0
1733975864.2783575,-43.45703125,101.07421875,102.5390625,-114.2578125,0.0
1733975864.2822638,-44.921875,27.34375,70.3125,21.97265625,0.0
1733975864.28617,-33.69140625,-64.94140625,77.1484375,106.93359375,0.0
1733975864.2900763,-34.1796875,144.53125,132.8125,-50.78125,0.0
1733975864.2939825,-41.50390625,-46.38671875,1.953125,-187.5,0.0
1733975864.2978888,-42.96875,-595.703125,-324.70703125,-144.04296875,0.0
1733975864.301795,-54.19921875,-675.29296875,-313.96484375,5.37109375,0.0
1733975864.3057013,-61.03515625,46.875,129.39453125,92.7734375,0.0
1733975864.3096075,-41.50390625,405.2734375,243.65234375,-39.55078125,0.0
1733975864.3135135,-31.73828125,-255.859375,-137.20703125,-164.55078125,0.0
1733975864.3174198,-46.38671875,-590.33203125,-238.28125,-134.27734375,0.0
1733975864.321326,-48.33984375,113.28125,149.90234375,-2.44140625,0.0
1733975864.3253543,-38.0859375,357.421875,184.08203125,126.46484375,0.0
1733975864.3292606,-30.76171875,-7.8125,53.22265625,10.7421875,0.0
1733975864.3331668,-36.62109375,-145.99609375,15.625,-167.96875,0.0
1733975864.337073,-61.03515625,-176.7578125,29.78515625,-174.8046875,0.0
1733975864.3409793,-45.41015625,-284.66796875,26.85546875,-32.2265625,0.0
1733975864.3448856,-14.16015625,-514.6484375,-57.12890625,114.74609375,0.0
1733975864.3487918,-38.57421875,-376.953125,24.4140625,11.23046875,0.0
1733975864.3526978,-64.453125,-22.4609375,97.65625,-165.0390625,0.0
1733975864.356604,-64.94140625,-288.57421875,-23.92578125,-169.921875,0.0
1733975864.3605103,-51.7578125,-490.72265625,-106.93359375,-39.0625,0.0
1733975864.3644166,-39.0625,-111.328125,37.59765625,102.5390625,0.0
1733975864.3683228,-52.24609375,344.23828125,215.33203125,41.50390625,0.0
1733975864.3722758,-59.5703125,27.34375,50.78125,-134.765625,0.0
1733975864.376182,-52.24609375,-250.48828125,-88.8671875,-170.8984375,0.0
1733975864.380088,-37.59765625,21.97265625,49.8046875,-69.82421875,0.0
1733975864.3839943,-29.78515625,351.5625,199.21875,95.21484375,0.0
1733975864.3879006,-34.1796875,132.32421875,83.0078125,70.3125,0.0
1733975864.3918068,-31.25,-489.2578125,-256.34765625,-123.53515625,0.0
1733975864.395713,-27.83203125,-450.1953125,-236.81640625,-164.0625,0.0
1733975864.3996193,-28.3203125,80.078125,84.9609375,-62.98828125,0.0
1733975864.4035256,-9.27734375,-132.32421875,-62.01171875,90.8203125,0.0
1733975864.4074318,10.7421875,-637.6953125,-237.79296875,91.30859375,0.0
1733975864.411338,-19.53125,-165.0390625,40.0390625,-83.0078125,0.0
1733975864.4152443,-38.0859375,-163.57421875,-88.8671875,-155.76171875,0.0
1733975864.4191456,-35.64453125,-433.59375,-229.4921875,-76.171875,0.0
1733975864.4230518,-32.2265625,-11.71875,48.33984375,61.5234375,0.0
1733975864.426958,-23.4375,328.61328125,173.33984375,76.66015625,0.0
1733975864.430864,-15.625,-66.89453125,-3.90625,-68.84765625,0.0
1733975864.4347703,-36.1328125,-360.83984375,-155.76171875,-137.20703125,0.0
1733975864.4386766,-56.15234375,-437.98828125,-255.859375,-85.44921875,0.0
1733975864.4425828,-26.3671875,-137.20703125,-42.48046875,70.80078125,0.0
1733975864.446489,0.48828125,344.23828125,193.84765625,131.34765625,0.0
1733975864.4503953,1.953125,-400.390625,-207.03125,-12.6953125,0.0
1733975864.4543016,-29.296875,-644.04296875,-329.58984375,-135.7421875,0.0
1733975864.4582078,-66.40625,154.296875,74.21875,-125.9765625,0.0
1733975864.462114,-55.17578125,169.921875,89.84375,13.671875,0.0
1733975864.4669106,-41.50390625,117.1875,115.234375,85.44921875,0.0
1733975864.4708169,-43.9453125,160.64453125,98.6328125,-57.6171875,0.0
1733975864.474723,-49.8046875,3.90625,-50.29296875,-179.19921875,0.0
1733975864.4786294,-40.52734375,-70.3125,-41.50390625,-138.671875,0.0
1733975864.4825356,-41.50390625,-66.40625,-26.85546875,17.578125,0.0
1733975864.4864419,-20.01953125,-29.296875,67.87109375,133.30078125,0.0
1733975864.490348,-14.16015625,-130.859375,25.87890625,11.23046875,0.0
1733975864.4942544,-37.109375,-389.6484375,-297.8515625,-126.953125,0.0
1733975864.4981606,-28.3203125,-679.19921875,-399.4140625,-103.02734375,0.0
1733975864.5020669,-9.765625,-23.92578125,35.15625,19.04296875,0.0
1733975864.505973,8.30078125,552.24609375,223.14453125,133.30078125,0.0
1733975864.5098794,1.953125,137.6953125,-18.5546875,42.48046875,0.0
1733975864.5136414,-8.30078125,-64.94140625,-102.5390625,-127.9296875,0.0
1733975864.5175476,-21.484375,223.6328125,75.68359375,-133.7890625,0.0
1733975864.5214539,-20.01953125,306.15234375,91.796875,6.8359375,0.0
1733975864.52536,-9.765625,38.0859375,-34.1796875,136.23046875,0.0
1733975864.5292664,-14.16015625,-109.375,-44.43359375,48.33984375,0.0
1733975864.5331726,-14.6484375,-96.19140625,-102.05078125,-131.8359375,0.0
1733975864.5370789,-21.484375,-320.80078125,-290.52734375,-148.92578125,0.0
1733975864.540985,-30.76171875,-402.83203125,-260.25390625,-23.4375,0.0
1733975864.5448914,-11.71875,39.0625,30.76171875,115.72265625,0.0
1733975864.5487976,-4.39453125,433.10546875,172.8515625,63.4765625,0.0
1733975864.5527039,-25.390625,168.9453125,6.8359375,-114.74609375,0.0
1733975864.55661,-36.1328125,-270.5078125,-198.2421875,-145.01953125,0.0
1733975864.5603075,-36.1328125,-103.02734375,-83.0078125,-38.0859375,0.0
1733975864.5642138,-22.94921875,373.53515625,156.73828125,115.234375,0.0
1733975864.56812,-11.71875,181.15234375,33.69140625,115.72265625,0.0
1733975864.5720263,-31.25,-597.65625,-300.78125,-57.12890625,0.0
1733975864.5759323,-38.57421875,-401.85546875,-168.9453125,-135.25390625,0.0
1733975864.5798385,-18.5546875,-82.51953125,-83.0078125,-37.59765625,0.0
1733975864.5837448,-9.765625,-271.484375,-162.109375,135.25390625,0.0
1733975864.587651,-14.16015625,-549.31640625,-204.1015625,122.0703125,0.0
1733975864.5915573,-28.80859375,-342.28515625,-133.30078125,-78.61328125,0.0
1733975864.5954635,-31.73828125,160.64453125,36.62109375,-161.1328125,0.0
1733975864.5993698,-32.71484375,29.296875,-6.8359375,-84.9609375,0.0
1733975864.603276,-21.97265625,86.9140625,38.57421875,100.5859375,0.0
1733975864.6069722,-6.8359375,477.05078125,204.1015625,138.671875,0.0
1733975864.6108785,-4.39453125,404.296875,124.51171875,-63.4765625,0.0
1733975864.6147845,-22.4609375,26.85546875,-83.0078125,-185.05859375,0.0
1733975864.6186907,-68.359375,-255.37109375,-165.52734375,-139.6484375,0.0
1733975864.622597,-69.3359375,12.6953125,40.52734375,12.20703125,0.0
1733975864.6265032,-49.8046875,199.21875,197.265625,81.54296875,0.0
1733975864.6304095,-57.6171875,-543.45703125,-218.26171875,-67.3828125,0.0
1733975864.6343157,-57.6171875,-625.9765625,-271.97265625,-168.45703125,0.0
1733975864.638222,-37.59765625,225.5859375,153.80859375,-109.86328125,0.0
1733975864.6421282,-20.5078125,314.453125,100.09765625,33.203125,0.0
1733975864.6460345,-7.32421875,188.4765625,128.90625,118.65234375,0.0
1733975864.6499407,-4.39453125,79.58984375,94.23828125,-15.625,0.0
1733975864.6535487,-21.97265625,138.18359375,47.8515625,-166.015625,0.0
1733975864.657455,-40.0390625,122.55859375,32.2265625,-146.484375,0.0
1733975864.6613612,-34.1796875,4.39453125,-11.23046875,4.39453125,0.0
1733975864.6652675,-19.53125,318.359375,152.83203125,111.328125,0.0
1733975864.6691737,-50.29296875,382.32421875,140.13671875,-13.671875,0.0
1733975864.67308,-68.84765625,-222.65625,-238.76953125,-152.34375,0.0
1733975864.6769862,-62.98828125,-790.52734375,-426.7578125,-130.859375,0.0
1733975864.6808922,-42.96875,-114.74609375,-23.92578125,-5.37109375,0.0
1733975864.6847985,-33.203125,465.8203125,202.63671875,117.67578125,0.0
1733975864.6887047,-49.8046875,121.09375,30.76171875,13.671875,0.0
1733975864.692611,-56.640625,-133.7890625,-93.26171875,-156.73828125,0.0
1733975864.6965172,-63.4765625,29.78515625,31.25,-168.9453125,0.0
1733975864.7005599,-60.546875,259.765625,103.515625,-41.9921875,0.0
1733975864.704466,-37.59765625,138.671875,86.42578125,97.65625,0.0
1733975864.7083724,-19.53125,-43.45703125,82.03125,22.4609375,0.0
1733975864.7122786,-27.83203125,-178.7109375,-58.59375,-139.6484375,0.0
1733975864.7161846,-43.9453125,-250.9765625,-143.06640625,-156.25,0.0
1733975864.7200909,-33.203125,-520.5078125,-194.82421875,-45.8984375,0.0
1733975864.723997,-14.6484375,-369.140625,-24.4140625,104.98046875,0.0
1733975864.7279034,-13.671875,295.41015625,226.07421875,61.5234375,0.0
1733975864.7318096,-25.87890625,219.23828125,80.56640625,-111.328125,0.0
1733975864.7357159,-25.390625,-373.046875,-139.6484375,-151.85546875,0.0
1733975864.739622,-22.4609375,-180.6640625,22.4609375,-50.78125,0.0
1733975864.7435284,-6.8359375,356.4453125,209.47265625,109.86328125,0.0
1733975864.7475157,-2.9296875,185.546875,115.234375,91.30859375,0.0
1733975864.751422,-14.16015625,-63.4765625,18.5546875,-82.51953125,0.0
1733975864.7553282,-11.23046875,39.0625,67.3828125,-149.4140625,0.0
1733975864.7592344,-12.6953125,188.96484375,121.58203125,-65.91796875,0.0
1733975864.7631407,-9.765625,70.3125,38.57421875,93.26171875,0.0
1733975864.767047,2.9296875,-210.9375,0.9765625,96.19140625,0.0
1733975864.7709532,-12.6953125,-341.30859375,-57.12890625,-78.61328125,0.0
1733975864.7748594,-43.45703125,-137.6953125,-12.6953125,-168.45703125,0.0
1733975864.7787657,-46.875,-246.58203125,-98.6328125,-98.6328125,0.0
1733975864.7826717,-30.76171875,-683.10546875,-301.7578125,56.640625,0.0
1733975864.786578,-29.296875,5.859375,101.5625,81.54296875,0.0
1733975864.7904842,-38.57421875,421.38671875,169.921875,-76.66015625,0.0
1733975864.794378,-43.9453125,-28.3203125,-96.6796875,-185.546875,0.0
1733975864.7982843,-52.734375,-70.3125,-68.84765625,-129.8828125,0.0
1733975864.8021905,-54.6875,286.62109375,109.86328125,20.5078125,0.0
1733975864.8060968,-51.26953125,83.0078125,73.73046875,83.49609375,0.0
1733975864.810003,-44.921875,-176.26953125,-66.40625,-57.12890625,0.0
1733975864.8139093,-41.50390625,-324.70703125,-254.39453125,-171.875,0.0
1733975864.8178155,-47.8515625,-169.921875,-144.04296875,-133.30078125,0.0
1733975864.8217218,-39.55078125,299.8046875,94.23828125,18.5546875,0.0
1733975864.825628,-29.296875,-360.83984375,-170.8984375,120.1171875,0.0
1733975864.8295343,-38.57421875,-594.23828125,-198.73046875,-41.9921875,0.0
1733975864.8334405,-50.29296875,274.4140625,135.25390625,-187.5,0.0
1733975864.8373468,-35.64453125,200.1953125,46.38671875,-132.8125,0.0
1733975864.8421526,-29.78515625,12.20703125,23.4375,7.32421875,0.0
1733975864.8460588,-31.25,327.1484375,153.80859375,122.0703125,0.0
1733975864.849965,-23.4375,515.13671875,179.6875,-0.48828125,0.0
1733975864.8538713,-37.59765625,141.6015625,1.953125,-160.15625,0.0
1733975864.8577776,-35.64453125,-143.5546875,-101.07421875,-135.7421875,0.0
1733975864.8616838,-19.04296875,-165.0390625,-26.3671875,9.765625,0.0
1733975864.86559,-7.8125,48.33984375,139.16015625,124.51171875,0.0
1733975864.8694963,-19.53125,40.0390625,44.43359375,34.66796875,0.0
1733975864.8734026,-38.57421875,-602.5390625,-307.12890625,-116.2109375,0.0
1733975864.8773088,-45.41015625,-154.78515625,21.97265625,-132.32421875,0.0
1733975864.881215,-42.96875,397.4609375,221.6796875,-10.7421875,0.0
1733975864.8851213,-29.296875,56.640625,75.68359375,115.72265625,0.0
1733975864.8888419,-21.97265625,-109.375,95.21484375,43.45703125,0.0
1733975864.892748,-23.4375,228.02734375,160.64453125,-130.859375,0.0
1733975864.8966544,-20.99609375,281.25,156.25,-154.296875,0.0
1733975864.9005606,-8.7890625,-274.4140625,-31.73828125,-25.390625,0.0
1733975864.9044669,7.8125,-311.03515625,20.99609375,121.09375,0.0
1733975864.908373,8.7890625,62.98828125,196.77734375,79.58984375,0.0
1733975864.9122794,-10.7421875,-128.41796875,95.703125,-98.6328125,0.0
1733975864.9161856,-3.90625,-285.15625,31.73828125,-145.99609375,0.0
1733975864.9200919,-3.90625,-5.37109375,121.58203125,-44.921875,0.0
1733975864.923998,-11.71875,467.7734375,244.62890625,103.02734375,0.0
1733975864.9279044,-4.39453125,417.96875,190.91796875,93.26171875,0.0
1733975864.9318106,-17.578125,-53.22265625,12.6953125,-83.49609375,0.0
1733975864.9355097,-16.6015625,25.87890625,85.9375,-144.04296875,0.0
1733975864.939416,-2.9296875,438.96484375,216.796875,-48.828125,0.0
1733975864.9433222,18.06640625,300.29296875,120.1171875,116.69921875,0.0
1733975864.9472284,20.99609375,-418.9453125,-104.00390625,152.34375,0.0
1733975864.9511347,-18.06640625,-217.28515625,-17.08984375,-35.64453125,0.0
1733975864.955041,-29.78515625,71.2890625,82.03125,-140.625,0.0
1733975864.9589472,-8.30078125,-303.22265625,-84.9609375,-64.94140625,0.0
1733975864.9628534,9.27734375,-536.1328125,-195.80078125,119.140625,0.0
1733975864.9667597,22.94921875,114.74609375,93.26171875,153.80859375,0.0
1733975864.970666,13.671875,600.5859375,190.91796875,-51.7578125,0.0
1733975864.974572,-22.94921875,108.88671875,-53.7109375,-166.50390625,0.0
1733975864.9784782,-22.4609375,-23.92578125,-95.703125,-114.74609375,0.0
1733975864.9821165,-11.23046875,312.98828125,89.84375,33.203125,0.0
1733975864.9860227,-19.04296875,461.9140625,145.5078125,104.4921875,0.0
1733975864.989929,-30.76171875,196.2890625,-54.19921875,-48.33984375,0.0
1733975864.9938352,-43.45703125,-209.47265625,-279.78515625,-179.19921875,0.0
1733975864.9977415,-45.41015625,-140.13671875,-224.12109375,-134.765625,0.0
1733975865.0016477,-25.390625,15.13671875,-157.2265625,13.671875,0.0
1733975865.005554,-6.34765625,-561.5234375,-358.88671875,110.3515625,0.0
1733975865.0094602,-12.6953125,-608.88671875,-278.80859375,-23.92578125,0.0
1733975865.0133665,-39.55078125,232.91015625,102.5390625,-171.875,0.0
1733975865.0172727,-57.12890625,213.37890625,23.4375,-139.6484375,0.0
1733975865.021179,-50.78125,-17.578125,-95.21484375,-4.39453125,0.0
1733975865.0250852,-30.2734375,286.62109375,79.1015625,97.65625,0.0
1733975865.028672,0.0,523.92578125,147.4609375,-18.5546875,0.0
1733975865.0325782,0.0,181.640625,-28.80859375,-170.41015625,0.0
1733975865.0364842,0.0,-116.69921875,-175.78125,-162.109375,0.0
1733975865.0403905,0.0,126.953125,-15.13671875,-28.3203125,0.0
1733975865.0442967,0.0,377.9296875,162.59765625,99.609375,0.0
1733975865.048203,0.0,-38.57421875,-102.5390625,13.671875,0.0
1733975865.0521092,0.0,-721.6796875,-416.9921875,-123.046875,0.0
1733975865.0560155,0.0,-246.09375,-196.77734375,-143.5546875,0.0
1733975865.0599217,0.0,318.84765625,40.52734375,-28.80859375,0.0
1733975865.063828,0.0,46.38671875,-78.61328125,111.81640625,0.0
1733975865.0677342,0.0,8.30078125,-151.85546875,50.29296875,0.0
1733975865.0716405,0.0,260.25390625,-102.5390625,-121.58203125,0.0
1733975865.075204,-49.8046875,224.12109375,-228.515625,-152.34375,0.0
1733975865.0791101,-40.52734375,-82.03125,-288.0859375,-38.57421875,0.0
1733975865.0830164,-35.64453125,29.296875,-110.3515625,88.8671875,0.0
1733975865.0869226,-33.203125,123.046875,-134.27734375,48.828125,0.0
1733975865.090829,-33.69140625,-185.546875,-370.1171875,-125.0,0.0
1733975865.0947351,-44.43359375,-566.89453125,-429.19921875,-172.36328125,0.0
1733975865.0986412,-39.55078125,-498.53515625,-342.7734375,-66.40625,0.0
1733975865.1025474,-22.94921875,236.328125,-184.5703125,83.49609375,0.0
1733975865.1064537,-18.5546875,320.80078125,-211.9140625,63.96484375,0.0
1733975865.11036,-41.015625,-159.1796875,-362.79296875,-110.3515625,0.0
1733975865.1142662,-65.4296875,-195.80078125,-382.8125,-184.5703125,0.0
1733975865.1181724,-69.3359375,8.30078125,-327.63671875,-104.98046875,0.0
1733975865.1221523,-48.33984375,-61.03515625,-307.12890625,48.828125,0.0
1733975865.1260586,-52.24609375,-208.49609375,-267.08984375,65.91796875,0.0
1733975865.1299648,-73.73046875,10.25390625,-241.69921875,-103.515625,0.0
1733975865.133871,-52.24609375,192.3828125,-278.3203125,-169.921875,0.0
1733975865.137777,-41.015625,-126.46484375,-373.53515625,-105.95703125,0.0
1733975865.1416833,-36.1328125,-711.9140625,-483.88671875,23.4375,0.0
1733975865.1455896,-41.015625,-379.39453125,-226.07421875,44.43359375,0.0
1733975865.1494958,-66.40625,247.55859375,-20.01953125,-107.421875,0.0
1733975865.153402,-53.7109375,-212.40234375,-333.984375,-186.03515625,0.0
1733975865.1573083,-39.0625,-676.7578125,-419.921875,-133.30078125,0.0
1733975865.1612146,-44.43359375,56.15234375,46.875,9.27734375,0.0
1733975865.1651208,-28.80859375,457.51953125,173.828125,75.1953125,0.0
1733975865.1690104,-27.83203125,7.8125,-58.59375,-60.546875,0.0
1733975865.1729167,-44.43359375,-123.53515625,-137.20703125,-177.24609375,0.0
1733975865.176823,-35.64453125,133.30078125,40.52734375,-135.7421875,0.0
1733975865.1807292,-21.97265625,-89.35546875,-10.7421875,24.4140625,0.0
1733975865.1846354,-31.25,-254.8828125,-32.71484375,97.65625,0.0
1733975865.1885417,-29.78515625,-329.58984375,-64.453125,-38.57421875,0.0
1733975865.192448,-37.59765625,-229.4921875,-95.21484375,-176.26953125,0.0
1733975865.1963542,-50.29296875,38.0859375,15.13671875,-150.390625,0.0
1733975865.2002604,-26.3671875,-530.2734375,-220.21484375,-2.9296875,0.0
1733975865.2041667,-6.8359375,-421.875,-88.37890625,84.9609375,0.0
1733975865.208073,-10.7421875,362.79296875,215.33203125,-21.484375,0.0
1733975865.2119792,-22.4609375,145.99609375,34.66796875,-146.484375,0.0
1733975865.2163007,-15.625,-454.1015625,-184.08203125,-118.1640625,0.0
1733975865.220207,1.46484375,-261.71875,-68.359375,3.41796875,0.0
1733975865.2241132,6.34765625,317.3828125,158.69140625,114.74609375,0.0
1733975865.2280195,2.44140625,107.91015625,44.921875,34.66796875,0.0
1733975865.2319257,-8.7890625,-237.3046875,-205.078125,-117.67578125,0.0
1733975865.235832,-12.20703125,-360.83984375,-291.50390625,-118.1640625,0.0
1733975865.239738,-0.48828125,-399.90234375,-245.1171875,-13.671875,0.0
1733975865.2436442,7.32421875,-427.734375,-216.30859375,107.421875,0.0
1733975865.2475505,3.90625,-674.8046875,-273.4375,46.38671875,0.0
1733975865.2514567,-16.11328125,-185.546875,-17.578125,-117.67578125,0.0
1733975865.255363,-12.20703125,155.76171875,125.0,-136.23046875,0.0
1733975865.2592692,2.9296875,-206.0546875,-17.08984375,-39.55078125,0.0
1733975865.2635128,15.625,-80.56640625,56.640625,103.02734375,0.0
1733975865.267419,-3.41796875,292.96875,180.17578125,63.4765625,0.0
1733975865.2713253,-38.57421875,225.5859375,108.88671875,-117.67578125,0.0
1733975865.2752316,-42.48046875,-435.05859375,-136.71875,-165.52734375,0.0
1733975865.2791378,-41.9921875,-632.8125,-133.7890625,-73.2421875,0.0
1733975865.283044,-15.13671875,-213.37890625,103.515625,67.3828125,0.0
1733975865.2869503,-6.8359375,-208.0078125,109.86328125,53.22265625,0.0
1733975865.2908566,-37.59765625,-393.06640625,-51.26953125,-113.76953125,0.0
1733975865.2947628,-62.5,-234.86328125,-2.44140625,-190.91796875,0.0
1733975865.298669,-79.1015625,34.66796875,143.06640625,-101.5625,0.0
1733975865.3025753,-57.12890625,-45.41015625,129.8828125,57.12890625,0.0
1733975865.3064816,-37.59765625,-527.83203125,-64.94140625,79.1015625,0.0
1733975865.3102014,-55.6640625,-460.9375,-28.3203125,-86.42578125,0.0
1733975865.3141077,-59.5703125,172.8515625,206.54296875,-170.8984375,0.0
1733975865.318014,-39.55078125,-50.29296875,119.140625,-87.890625,0.0
1733975865.3219202,-12.6953125,-122.55859375,144.53125,69.82421875,0.0
1733975865.3258264,-14.6484375,208.984375,206.54296875,101.5625,0.0
1733975865.3297327,-49.8046875,2.44140625,145.01953125,-70.3125,0.0
1733975865.333639,-55.6640625,-537.109375,-47.36328125,-144.53125,0.0
1733975865.3375452,-50.29296875,-567.87109375,-56.15234375,-81.0546875,0.0
1733975865.3414514,-54.6875,77.1484375,184.08203125,36.62109375,0.0
1733975865.3453577,-37.59765625,495.1171875,288.57421875,95.703125,0.0
1733975865.3492637,-21.484375,-107.421875,-43.9453125,-28.3203125,0.0
1733975865.35317,-40.52734375,-713.37890625,-262.20703125,-138.671875,0.0
1733975865.3568585,-32.71484375,-128.41796875,109.375,-107.91015625,0.0
1733975865.3607647,-20.01953125,-54.6875,127.44140625,28.80859375,0.0
1733975865.364671,-46.875,-105.46875,169.43359375,91.796875,0.0
1733975865.3685772,-69.82421875,-121.09375,124.0234375,-23.4375,0.0
1733975865.3724835,-58.10546875,-125.0,48.33984375,-148.92578125,0.0
1733975865.3763897,-27.34375,-63.4765625,141.6015625,-137.6953125,0.0
1733975865.380296,-17.08984375,-659.1796875,-146.97265625,8.30078125,0.0
1733975865.3842022,-10.7421875,-532.71484375,-114.74609375,124.0234375,0.0
1733975865.3881085,-25.87890625,413.57421875,242.1875,11.23046875,0.0
1733975865.3920147,-60.546875,283.69140625,35.15625,-147.94921875,0.0
1733975865.395921,-79.1015625,-119.62890625,-170.41015625,-157.2265625,0.0
1733975865.3998272,-78.125,84.9609375,-195.3125,-57.6171875,0.0
1733975865.4034045,-64.453125,463.8671875,-44.921875,55.17578125,0.0
1733975865.4073107,-52.24609375,280.2734375,-142.578125,9.27734375,0.0
1733975865.411217,-39.55078125,-85.9375,-403.80859375,-136.23046875,0.0
1733975865.4151232,-47.36328125,-21.97265625,-371.09375,-158.203125,0.0
1733975865.4190295,-60.546875,-125.48828125,-389.6484375,-41.9921875,0.0
1733975865.4229357,-35.64453125,-343.75,-494.62890625,84.47265625,0.0
1733975865.426842,-40.52734375,-658.203125,-538.0859375,20.01953125,0.0
1733975865.4307482,-70.3125,-229.98046875,-381.8359375,-144.53125,0.0
1733975865.4346545,-71.2890625,195.80078125,-385.7421875,-161.1328125,0.0
1733975865.4385607,-62.5,-132.32421875,-432.6171875,-46.38671875,0.0
1733975865.442467,-61.03515625,-67.3828125,-381.8359375,70.80078125,0.0
1733975865.4463732,-60.05859375,309.08203125,-305.17578125,21.484375,0.0
1733975865.4504032,-56.640625,232.91015625,-375.48828125,-125.9765625,0.0
1733975865.4543095,-65.91796875,-248.53515625,-439.94140625,-169.921875,0.0
1733975865.4582157,-67.3828125,-265.625,-378.90625,-90.8203125,0.0
1733975865.462122,-47.36328125,-93.26171875,-354.00390625,34.66796875,0.0
1733975865.4660282,-48.33984375,-209.47265625,-363.28125,39.0625,0.0
1733975865.4699345,-68.359375,-568.359375,-467.7734375,-114.74609375,0.0
1733975865.4738407,-77.1484375,-626.953125,-423.828125,-187.98828125,0.0
1733975865.477747,-66.89453125,-260.25390625,-336.42578125,-110.3515625,0.0
1733975865.4816532,-47.8515625,-62.5,-346.6796875,38.57421875,0.0
1733975865.4855592,-33.69140625,-245.60546875,-366.69921875,72.265625,0.0
1733975865.4894655,-42.48046875,-247.0703125,-373.53515625,-81.54296875,0.0
1733975865.4933717,-40.52734375,45.41015625,-374.0234375,-165.0390625,0.0
1733975865.4973373,-34.1796875,-164.55078125,-419.921875,-98.6328125,0.0
1733975865.5012436,-36.62109375,-270.5078125,-443.84765625,47.36328125,0.0
1733975865.5051498,-30.2734375,23.92578125,-340.33203125,85.9375,0.0
1733975865.509056,-30.76171875,160.64453125,-359.375,-76.171875,0.0
1733975865.5129623,-56.15234375,-242.1875,-524.90234375,-177.24609375,0.0
1733975865.5168686,-60.546875,-691.40625,-597.16796875,-122.55859375,0.0
1733975865.5207748,-52.24609375,-537.59765625,-514.16015625,18.5546875,0.0
1733975865.524681,-50.29296875,-17.578125,-421.875,72.265625,0.0
1733975865.528587,-30.2734375,-303.7109375,-636.23046875,-58.10546875,0.0
1733975865.5324934,-33.203125,-883.7890625,-821.77734375,-160.15625,0.0
1733975865.5363996,-54.6875,-645.99609375,-649.4140625,-137.6953125,0.0
1733975865.5403059,-55.17578125,-388.671875,-648.92578125,8.30078125,0.0
1733975865.5442123,-57.12890625,-334.9609375,-634.765625,100.5859375,0.0
1733975865.5481186,-49.8046875,-271.484375,-627.9296875,-13.671875,0.0
1733975865.5520248,-36.62109375,-166.50390625,-709.9609375,-132.8125,0.0
1733975865.555931,-48.33984375,-526.3671875,-784.66796875,-130.859375,0.0
1733975865.5598373,-70.80078125,-717.7734375,-781.73828125,-31.73828125,0.0
1733975865.5637436,-48.828125,-677.734375,-726.5625,77.63671875,0.0
1733975865.5676498,-37.59765625,-450.1953125,-673.33984375,-5.859375,0.0
1733975865.571556,-58.10546875,-274.90234375,-731.93359375,-160.64453125,0.0
1733975865.5754623,-56.15234375,-756.8359375,-826.171875,-155.76171875,0.0
1733975865.5793686,-49.31640625,-692.3828125,-744.62890625,-35.64453125,0.0
1733975865.5832748,-57.12890625,-87.40234375,-648.92578125,64.94140625,0.0
1733975865.587181,-67.3828125,-175.78125,-696.77734375,-4.39453125,0.0
1733975865.5915036,-65.4296875,-643.06640625,-769.04296875,-141.11328125,0.0
1733975865.5954099,-67.3828125,-811.5234375,-766.6015625,-157.71484375,0.0
1733975865.5993161,-55.17578125,-556.640625,-747.0703125,-65.4296875,0.0
1733975865.6032224,-40.0390625,-399.90234375,-749.0234375,62.01171875,0.0
1733975865.6071286,-61.5234375,-485.83984375,-797.36328125,-0.48828125,0.0
1733975865.6110349,-74.21875,-669.43359375,-831.54296875,-160.64453125,0.0
1733975865.6149411,-71.77734375,-699.21875,-787.59765625,-201.66015625,0.0
1733975865.6188474,-76.171875,-655.2734375,-840.33203125,-108.88671875,0.0
1733975865.6227536,-61.03515625,-881.8359375,-868.65234375,46.38671875,0.0
1733975865.6266599,-49.31640625,-424.31640625,-672.8515625,20.99609375,0.0
1733975865.6305661,-54.19921875,-205.078125,-721.19140625,-137.6953125,0.0
1733975865.6344724,-47.36328125,-690.4296875,-793.9453125,-166.9921875,0.0
1733975865.6382682,-39.0625,-761.71875,-762.20703125,-102.05078125,0.0
1733975865.6421745,-35.64453125,-315.4296875,-695.3125,20.5078125,0.0
1733975865.6460807,-26.85546875,-218.75,-686.5234375,40.52734375,0.0
1733975865.649987,-47.36328125,-668.9453125,-797.36328125,-114.2578125,0.0
1733975865.6538932,-51.7578125,-1000.0,-818.84765625,-177.24609375,0.0
1733975865.6577995,-41.50390625,-950.1953125,-771.97265625,-83.49609375,0.0
1733975865.6617057,-39.55078125,-897.4609375,-721.19140625,62.01171875,0.0
1733975865.665612,-38.57421875,-830.078125,-685.05859375,85.9375,0.0
1733975865.6695182,-62.5,-681.640625,-664.0625,-73.2421875,0.0
1733975865.6734245,-84.9609375,-523.4375,-645.5078125,-181.640625,0.0
1733975865.6773307,-60.546875,-585.44921875,-673.33984375,-126.953125,0.0
1733975865.681237,-29.78515625,-884.765625,-714.35546875,25.87890625,0.0
1733975865.6849406,-33.203125,-718.75,-601.5625,69.82421875,0.0
1733975865.6888468,-46.38671875,-354.4921875,-549.8046875,-85.44921875,0.0
1733975865.692753,-52.24609375,-701.171875,-678.22265625,-174.31640625,0.0
1733975865.6966593,-50.29296875,-884.27734375,-694.3359375,-126.953125,0.0
1733975865.7005656,-33.69140625,-595.21484375,-635.25390625,-1.46484375,0.0
1733975865.7044718,-15.13671875,-750.48828125,-627.9296875,85.44921875,0.0
1733975865.708378,-23.4375,-961.9140625,-747.0703125,-34.66796875,0.0
1733975865.712284,-35.64453125,-1000.0,-874.51171875,-166.9921875,0.0
1733975865.7161903,-34.1796875,-937.01171875,-695.80078125,-150.390625,0.0
1733975865.7200966,-31.25,-561.03515625,-618.1640625,-3.90625,0.0
1733975865.7240028,-22.4609375,-621.58203125,-620.1171875,103.02734375,0.0
1733975865.727909,-26.85546875,-753.41796875,-648.92578125,-21.97265625,0.0
1733975865.7315588,-44.921875,-632.32421875,-705.56640625,-167.48046875,0.0
1733975865.735465,-43.9453125,-672.8515625,-719.7265625,-135.7421875,0.0
1733975865.7393713,-20.5078125,-798.828125,-733.88671875,-1.46484375,0.0
1733975865.7432775,-17.578125,-924.31640625,-695.3125,92.28515625,0.0
1733975865.7471838,-28.3203125,-886.23046875,-729.00390625,-1.953125,0.0
1733975865.75109,-45.8984375,-927.24609375,-795.8984375,-148.92578125,0.0
1733975865.7549963,-61.5234375,-1000.0,-883.7890625,-147.4609375,0.0
1733975865.7589025,-62.01171875,-895.01953125,-810.05859375,-41.50390625,0.0
1733975865.7628086,-38.0859375,-504.8828125,-586.9140625,62.5,0.0
1733975865.7667148,-30.76171875,-499.51171875,-634.27734375,3.41796875,0.0
1733975865.770621,-60.546875,-899.90234375,-741.69921875,-154.296875,0.0
1733975865.7745273,-71.77734375,-991.2109375,-698.73046875,-183.59375,0.0
1733975865.7786052,-62.01171875,-700.68359375,-582.51953125,-61.03515625,0.0
1733975865.7825115,-39.55078125,-638.18359375,-563.96484375,101.07421875,0.0
1733975865.7864177,-33.69140625,-789.55078125,-570.3125,52.734375,0.0
1733975865.790324,-35.64453125,-705.078125,-546.38671875,-128.41796875,0.0
1733975865.79423,-49.31640625,-754.39453125,-523.4375,-169.43359375,0.0
1733975865.7981362,-59.08203125,-976.5625,-650.87890625,-70.80078125,0.0
1733975865.8020425,-45.41015625,-984.86328125,-668.45703125,65.91796875,0.0
1733975865.8059487,-51.7578125,-683.10546875,-395.5078125,44.921875,0.0
1733975865.809855,-55.6640625,-569.3359375,-413.0859375,-112.79296875,0.0
1733975865.8137612,-52.734375,-839.35546875,-522.94921875,-160.64453125,0.0
1733975865.8176675,-49.31640625,-853.515625,-478.02734375,-68.359375,0.0
1733975865.8215737,-41.50390625,-564.453125,-362.3046875,73.2421875,0.0
1733975865.8250995,-33.203125,-458.49609375,-350.5859375,64.94140625,0.0
1733975865.8290057,-43.9453125,-769.53125,-507.32421875,-121.09375,0.0
1733975865.832912,-62.5,-1000.0,-540.52734375,-213.8671875,0.0
1733975865.8368182,-52.24609375,-974.609375,-471.6796875,-142.578125,0.0
1733975865.8407245,-28.3203125,-836.9140625,-458.984375,25.87890625,0.0
1733975865.8446307,-32.2265625,-836.9140625,-492.1875,79.1015625,0.0
1733975865.848537,-47.36328125,-939.94140625,-475.09765625,-86.9140625,0.0
1733975865.8524432,-39.0625,-715.33203125,-423.33984375,-187.5,0.0
1733975865.8563495,-29.296875,-681.640625,-446.2890625,-119.140625,0.0
1733975865.8602557,-15.13671875,-948.73046875,-599.12109375,63.4765625,0.0
1733975865.8641617,-3.90625,-812.5,-485.3515625,117.67578125,0.0
1733975865.868068,-1.46484375,-483.3984375,-349.12109375,-56.640625,0.0
1733975865.872544,-15.625,-707.51953125,-491.2109375,-166.015625,0.0
1733975865.8764503,-45.41015625,-873.046875,-499.0234375,-125.0,0.0
1733975865.8803566,-34.1796875,-618.1640625,-400.87890625,31.73828125,0.0
1733975865.8842628,-19.53125,-416.015625,-331.54296875,126.953125,0.0
1733975865.888169,-23.4375,-674.31640625,-485.83984375,-18.5546875,0.0
1733975865.8920753,-28.3203125,-999.51171875,-601.07421875,-157.2265625,0.0
1733975865.8959816,-47.36328125,-1000.0,-497.55859375,-119.62890625,0.0
1733975865.8998878,-37.59765625,-787.109375,-359.375,40.0390625,0.0
1733975865.903794,-17.08984375,-695.3125,-408.69140625,137.6953125,0.0
1733975865.9077003,-29.78515625,-950.68359375,-527.34375,22.4609375,0.0
1733975865.9116066,-41.50390625,-733.88671875,-337.890625,-137.6953125,0.0
1733975865.9155128,-51.26953125,-577.63671875,-351.07421875,-148.92578125,0.0
1733975865.9194238,-57.6171875,-781.25,-357.421875,-33.69140625,0.0
1733975865.92333,-53.7109375,-644.53125,-248.53515625,73.73046875,0.0
1733975865.9272363,-46.875,-433.59375,-258.30078125,-25.87890625,0.0
1733975865.9311426,-51.7578125,-819.3359375,-400.390625,-185.05859375,0.0
1733975865.9350488,-84.9609375,-1000.0,-453.125,-201.66015625,0.0
1733975865.938955,-81.54296875,-1000.0,-403.80859375,-76.171875,0.0
1733975865.9428613,-54.19921875,-777.34375,-238.76953125,71.77734375,0.0
1733975865.9467676,-51.26953125,-543.9453125,-218.26171875,-0.9765625,0.0
1733975865.9506736,-71.77734375,-856.93359375,-402.34375,-168.45703125,0.0
1733975865.9545798,-85.9375,-794.921875,-296.38671875,-187.5,0.0
1733975865.958486,-48.33984375,-564.453125,-257.8125,-56.15234375,0.0
1733975865.9623923,-32.71484375,-666.9921875,-277.83203125,83.0078125,0.0
1733975865.9665635,-46.38671875,-879.8828125,-306.15234375,35.64453125,0.0
1733975865.9704697,-55.17578125,-784.66796875,-272.4609375,-132.32421875,0.0
1733975865.974376,-62.01171875,-463.8671875,-143.5546875,-181.640625,0.0
1733975865.9782822,-62.98828125,-619.62890625,-250.48828125,-83.49609375,0.0
1733975865.9821885,-56.640625,-683.10546875,-166.9921875,83.984375,0.0
1733975865.9860947,-36.1328125,-687.5,-17.578125,72.75390625,0.0
1733975865.990001,-49.8046875,-791.015625,-116.2109375,-113.76953125,0.0
1733975865.9939072,-59.5703125,-784.66796875,-255.37109375,-175.29296875,0.0
1733975865.9978135,-48.33984375,-953.61328125,-352.05078125,-85.9375,0.0
1733975866.0017197,-38.0859375,-536.1328125,65.4296875,56.640625,0.0
1733975866.005626,-37.59765625,-157.2265625,291.9921875,64.453125,0.0
1733975866.0095322,-39.55078125,-606.4453125,-27.34375,-91.30859375,0.0
1733975866.0139678,-49.8046875,-773.4375,-44.921875,-188.4765625,0.0
1733975866.017874,-59.08203125,-395.5078125,213.8671875,-134.765625,0.0
1733975866.0217803,-43.45703125,-201.66015625,219.23828125,31.25,0.0
1733975866.0256865,-38.0859375,-570.80078125,57.6171875,74.21875,0.0
1733975866.0295928,-52.734375,-851.07421875,9.765625,-82.03125,0.0
1733975866.033499,-46.875,-770.5078125,102.5390625,-167.96875,0.0
1733975866.0374053,-41.50390625,-782.71484375,145.5078125,-106.93359375,0.0
1733975866.0413113,-27.83203125,-863.76953125,-32.71484375,42.48046875,0.0
1733975866.0452175,-17.578125,-674.31640625,61.03515625,104.4921875,0.0
1733975866.0491238,-23.92578125,-171.875,312.5,-42.48046875,0.0
1733975866.05303,-43.9453125,-312.5,140.13671875,-166.50390625,0.0
1733975866.0569363,-64.94140625,-737.79296875,20.99609375,-142.08984375,0.0
1733975866.0606077,-53.7109375,-518.06640625,123.53515625,1.953125,0.0
1733975866.064514,-42.48046875,-54.6875,275.87890625,88.37890625,0.0
1733975866.06842,-38.57421875,-348.6328125,110.83984375,-40.52734375,0.0
1733975866.0723262,-44.921875,-662.109375,-52.734375,-171.875,0.0
1733975866.0762324,-53.7109375,-457.03125,44.921875,-147.94921875,0.0
1733975866.0801387,-54.19921875,-504.39453125,90.8203125,-21.97265625,0.0
1733975866.084045,-55.17578125,-660.64453125,25.390625,80.56640625,0.0
1733975866.0879512,-54.6875,-838.8671875,-199.70703125,-32.71484375,0.0
1733975866.0918574,-73.2421875,-449.70703125,-1.953125,-185.05859375,0.0
1733975866.0957637,-81.0546875,-84.9609375,149.4140625,-170.41015625,0.0
1733975866.09967,-62.98828125,-345.703125,-9.765625,-43.9453125,0.0
1733975866.1035762,-48.33984375,-314.453125,62.98828125,73.73046875,0.0
1733975866.1072018,-45.41015625,-20.01953125,146.97265625,-22.4609375,0.0
1733975866.111108,-34.1796875,-82.03125,20.01953125,-176.26953125,0.0
1733975866.1150143,-48.33984375,-437.5,-138.671875,-171.875,0.0
1733975866.1189206,-56.15234375,-649.90234375,-237.79296875,-43.45703125,0.0
1733975866.1228268,-20.99609375,-443.359375,-93.75,68.84765625,0.0
1733975866.126733,-35.64453125,-410.64453125,51.26953125,0.0,0.0
1733975866.1306393,-50.29296875,-820.3125,-329.58984375,-140.13671875,0.0
1733975866.1345456,-33.203125,-805.6640625,-337.890625,-173.33984375,0.0
1733975866.1384518,-16.11328125,-186.03515625,99.12109375,-54.19921875,0.0
1733975866.142358,11.71875,-14.16015625,113.28125,117.67578125,0.0
1733975866.146264,10.25390625,-469.7265625,-71.2890625,83.984375,0.0
1733975866.1501703,-40.52734375,-443.359375,-38.57421875,-120.60546875,0.0
1733975866.1542253,-91.30859375,-81.54296875,130.37109375,-197.75390625,0.0
1733975866.1581316,-92.7734375,-270.99609375,48.33984375,-107.421875,0.0
1733975866.1620378,-62.5,-409.66796875,46.875,35.15625,0.0
1733975866.165944,-66.40625,-126.46484375,208.0078125,14.6484375,0.0
1733975866.1698503,-136.71875,-85.44921875,169.43359375,-191.40625,0.0
1733975866.1737566,-177.24609375,-606.4453125,-84.9609375,-295.41015625,0.0
1733975866.1776628,-182.6171875,-964.35546875,-298.33984375,-211.9140625,0.0
1733975866.181569,-191.89453125,-372.55859375,63.96484375,-82.03125,0.0
1733975866.1854753,-181.15234375,33.69140625,306.640625,-85.9375,0.0
1733975866.1893816,-190.4296875,-431.15234375,188.96484375,-264.16015625,0.0
1733975866.1932878,-221.19140625,-492.67578125,299.31640625,-364.2578125,0.0
1733975866.197194,-208.49609375,-86.9140625,516.11328125,-283.203125,0.0
1733975866.201183,-166.50390625,101.5625,595.21484375,-127.44140625,0.0
1733975866.2050893,-161.1328125,-114.2578125,616.69921875,-75.1953125,0.0
1733975866.2089956,-163.57421875,-150.390625,669.43359375,-229.4921875,0.0
1733975866.2129018,-168.45703125,-168.9453125,704.58984375,-329.1015625,0.0
1733975866.216808,-132.8125,-314.453125,757.32421875,-254.8828125,0.0
1733975866.2207143,-92.28515625,-484.86328125,819.82421875,-80.56640625,0.0
1733975866.2246206,-79.1015625,-272.4609375,841.30859375,8.7890625,0.0
1733975866.2285268,-64.453125,345.703125,861.328125,-128.41796875,0.0
1733975866.232433,-78.61328125,438.96484375,851.07421875,-245.60546875,0.0
1733975866.2363393,-64.453125,-377.44140625,789.0625,-175.29296875,0.0
1733975866.2402456,-28.3203125,-383.7890625,833.49609375,-6.8359375,0.0
1733975866.2441518,-5.37109375,661.62109375,888.18359375,93.75,0.0
1733975866.2481136,20.5078125,459.47265625,853.515625,7.8125,0.0
1733975866.25202,47.36328125,259.27734375,842.28515625,-100.09765625,0.0
1733975866.2559261,56.15234375,610.3515625,862.79296875,-77.1484375,0.0
1733975866.2598321,51.7578125,889.16015625,870.1171875,62.5,0.0
1733975866.2637384,63.4765625,802.24609375,868.1640625,191.89453125,0.0
1733975866.2676446,89.84375,422.36328125,853.515625,96.19140625,0.0
1733975866.271551,103.02734375,479.00390625,841.30859375,-42.96875,0.0
1733975866.2754571,107.91015625,920.8984375,865.234375,-13.671875,0.0
1733975866.2793634,123.046875,710.44921875,834.47265625,137.20703125,0.0
1733975866.2832696,134.765625,156.25,795.8984375,259.27734375,0.0
1733975866.287176,113.76953125,706.54296875,849.609375,155.76171875,0.0
1733975866.2910821,95.703125,-953.125,849.609375,-11.23046875,0.0
1733975866.2964058,90.8203125,731.4453125,769.53125,-19.53125,0.0
1733975866.300312,87.890625,782.2265625,793.45703125,102.05078125,0.0
1733975866.3042183,98.14453125,993.1640625,823.2421875,248.53515625,0.0
1733975866.3081243,124.0234375,885.7421875,714.84375,211.9140625,0.0
1733975866.3120306,108.3984375,639.16015625,639.16015625,30.2734375,0.0
1733975866.3159368,79.1015625,544.43359375,614.2578125,-18.5546875,0.0
1733975866.319843,91.30859375,767.08984375,608.3984375,88.8671875,0.0
1733975866.3237493,106.93359375,-944.3359375,640.13671875,240.234375,0.0
1733975866.3276556,101.5625,476.07421875,480.46875,218.75,0.0
1733975866.3315618,73.2421875,339.35546875,458.49609375,28.3203125,0.0
1733975866.335468,52.24609375,-990.72265625,568.84765625,-45.41015625,0.0
1733975866.3393743,49.8046875,930.17578125,478.02734375,59.08203125,0.0
1733975866.3432257,47.36328125,876.953125,442.87109375,211.9140625,0.0
1733975866.347132,27.83203125,944.82421875,477.05078125,203.61328125,0.0
1733975866.3510382,12.20703125,983.3984375,381.8359375,32.71484375,0.0
1733975866.3549445,6.8359375,863.76953125,265.625,-43.9453125,0.0
1733975866.3588507,6.8359375,776.85546875,244.62890625,29.78515625,0.0
1733975866.362757,27.83203125,796.38671875,209.47265625,182.12890625,0.0
1733975866.3666632,28.80859375,819.82421875,225.09765625,210.9375,0.0
1733975866.3705695,19.04296875,581.0546875,14.16015625,53.22265625,0.0
1733975866.3744757,6.8359375,465.33203125,-99.12109375,-45.8984375,0.0
1733975866.378382,-12.6953125,919.921875,151.3671875,8.30078125,0.0
1733975866.3822882,-3.90625,-997.55859375,165.0390625,166.50390625,0.0
1733975866.3861945,11.23046875,634.765625,-63.96484375,213.37890625,0.0
1733975866.3898797,10.7421875,612.3046875,-121.09375,47.36328125,0.0
1733975866.393786,5.859375,960.9375,85.44921875,-62.98828125,0.0
1733975866.3976922,18.06640625,-986.328125,84.9609375,-2.9296875,0.0
1733975866.4015985,32.71484375,505.859375,-145.01953125,163.57421875,0.0
1733975866.4055047,40.0390625,424.8046875,-103.02734375,238.76953125,0.0
1733975866.409411,23.4375,706.54296875,-34.1796875,81.0546875,0.0
1733975866.4133172,-0.9765625,622.0703125,-206.0546875,-56.15234375,0.0
1733975866.4172235,9.27734375,119.140625,-421.38671875,0.0,0.0
1733975866.4211297,9.765625,-633.7890625,-514.16015625,154.78515625,0.0
1733975866.425036,-1.46484375,213.8671875,0.48828125,223.14453125,0.0
1733975866.4289422,-8.7890625,853.02734375,67.87109375,86.9140625,0.0
1733975866.4328485,-26.3671875,669.921875,-187.98828125,-48.33984375,0.0
1733975866.4365072,-39.0625,821.77734375,-149.4140625,-31.73828125,0.0
1733975866.4404135,-13.18359375,985.3515625,29.296875,94.7265625,0.0
1733975866.4443197,15.625,865.234375,32.2265625,213.37890625,0.0
1733975866.448226,-10.7421875,719.7265625,-150.87890625,113.76953125,0.0
1733975866.4521322,-33.203125,758.7890625,-278.80859375,-43.9453125,0.0
1733975866.4560385,-23.4375,550.29296875,-286.62109375,-41.015625,0.0
1733975866.4599447,-14.16015625,249.0234375,-384.765625,94.23828125,0.0
1733975866.463851,-8.30078125,-13.18359375,-419.43359375,227.5390625,0.0
1733975866.4677572,-19.53125,497.55859375,-61.03515625,116.2109375,0.0
1733975866.4716635,-41.50390625,961.9140625,-78.125,-77.63671875,0.0
1733975866.4755697,-32.71484375,559.08203125,-284.66796875,-83.0078125,0.0
1733975866.479476,-28.3203125,533.203125,-221.19140625,63.4765625,0.0
1733975866.483077,-23.92578125,774.4140625,-36.62109375,192.3828125,0.0
1733975866.4869833,-14.6484375,742.67578125,4.39453125,123.53515625,0.0
1733975866.4908895,-29.78515625,602.5390625,-183.59375,-35.64453125,0.0
1733975866.4947958,-33.69140625,280.2734375,-312.5,-66.40625,0.0
1733975866.498702,-26.85546875,368.1640625,-253.41796875,51.26953125,0.0
1733975866.5026083,11.71875,636.71875,-162.109375,203.61328125,0.0
1733975866.5065145,20.5078125,27.83203125,-335.44921875,166.015625,0.0
1733975866.5104208,-4.39453125,-211.9140625,-436.5234375,-12.6953125,0.0
1733975866.514327,-12.6953125,651.3671875,-161.1328125,-65.91796875,0.0
1733975866.5182333,3.90625,672.8515625,-132.32421875,34.66796875,0.0
1733975866.5221393,6.8359375,462.40234375,-148.4375,183.10546875,0.0
1733975866.5260456,-12.20703125,725.5859375,16.11328125,177.24609375,0.0
1733975866.5295956,-16.11328125,868.65234375,56.15234375,18.5546875,0.0
1733975866.5335019,-17.08984375,581.54296875,-107.421875,-27.34375,0.0
1733975866.537408,-0.48828125,387.6953125,-188.4765625,56.640625,0.0
1733975866.5413144,15.13671875,498.046875,-52.24609375,207.51953125,0.0
1733975866.5452206,6.34765625,561.03515625,49.31640625,226.5625,0.0
1733975866.5491269,-2.9296875,252.44140625,-237.3046875,66.89453125,0.0
1733975866.553033,-20.99609375,-450.68359375,-484.375,-30.2734375,0.0
1733975866.5569394,-20.01953125,11.71875,-109.375,19.53125,0.0
1733975866.5608456,5.859375,750.48828125,124.0234375,169.43359375,0.0
1733975866.5647519,6.34765625,564.453125,13.671875,204.58984375,0.0
1733975866.568658,-17.578125,415.0390625,-58.10546875,44.43359375,0.0
1733975866.5725644,-29.78515625,612.3046875,43.45703125,-67.3828125,0.0
1733975866.5760593,-13.18359375,579.1015625,41.015625,-15.13671875,0.0
1733975866.5799656,-14.16015625,287.59765625,-102.05078125,123.53515625,0.0
1733975866.5838718,-14.6484375,422.36328125,10.25390625,183.10546875,0.0
1733975866.587778,-0.48828125,403.80859375,-52.734375,58.10546875,0.0
1733975866.591684,-8.7890625,68.359375,-313.4765625,-51.26953125,0.0
1733975866.5955904,-9.765625,-328.125,-341.796875,-10.7421875,0.0
1733975866.5994966,5.37109375,-400.87890625,-274.90234375,136.23046875,0.0
1733975866.6034029,-5.859375,234.375,20.01953125,213.8671875,0.0
1733975866.607309,-14.16015625,487.79296875,95.703125,77.1484375,0.0
1733975866.6112154,-7.32421875,-1.953125,-230.95703125,-42.48046875,0.0
1733975866.6151216,-3.90625,-21.484375,-158.69140625,-1.953125,0.0
1733975866.6190279,-7.32421875,502.9296875,97.65625,117.67578125,0.0
1733975866.6229916,17.578125,506.34765625,83.49609375,199.21875,0.0
1733975866.6268978,18.5546875,293.45703125,43.9453125,98.6328125,0.0
1733975866.630804,-13.671875,317.3828125,21.484375,-45.41015625,0.0
1733975866.6347103,-19.04296875,454.1015625,50.78125,-47.8515625,0.0
1733975866.6386166,-25.87890625,254.39453125,-49.31640625,79.58984375,0.0
1733975866.6425228,-7.8125,-148.92578125,-225.5859375,208.0078125,0.0
1733975866.646429,-5.37109375,81.0546875,-28.80859375,127.44140625,0.0
1733975866.6503353,-23.92578125,503.41796875,121.58203125,-28.80859375,0.0
1733975866.6542416,-32.71484375,114.2578125,-116.2109375,-28.80859375,0.0
1733975866.6581478,-29.78515625,-479.4921875,-338.37890625,88.37890625,0.0
1733975866.662054,-7.32421875,-12.6953125,-4.8828125,191.89453125,0.0
1733975866.66596,-4.39453125,514.6484375,179.19921875,130.859375,0.0
1733975866.670806,-38.0859375,170.8984375,-81.54296875,-42.48046875,0.0
1733975866.6747122,-41.50390625,22.94921875,-101.5625,-82.51953125,0.0
1733975866.6786184,-19.53125,371.58203125,93.75,28.80859375,0.0
1733975866.6825247,-16.11328125,265.625,81.54296875,154.78515625,0.0
1733975866.686431,-22.94921875,-150.390625,-64.453125,125.0,0.0
1733975866.6903372,-19.04296875,-374.51171875,-272.4609375,-31.73828125,0.0
1733975866.6942434,-30.76171875,-88.37890625,-165.0390625,-89.35546875,0.0
1733975866.6981497,-34.66796875,324.21875,88.37890625,3.41796875,0.0
1733975866.702056,9.27734375,-314.94140625,-181.640625,184.5703125,0.0
1733975866.7059622,6.34765625,-420.41015625,-171.875,182.6171875,0.0
1733975866.7098684,-34.1796875,431.640625,141.11328125,-15.13671875,0.0
1733975866.7137747,-40.0390625,270.01953125,26.3671875,-95.703125,0.0
1733975866.7181375,-41.50390625,-41.015625,-26.85546875,-21.484375,0.0
1733975866.7220438,-25.390625,41.9921875,72.265625,138.671875,0.0
1733975866.72595,0.0,429.6875,185.546875,179.19921875,0.0
1733975866.7298563,-10.7421875,309.5703125,45.41015625,10.7421875,0.0
1733975866.7337625,-29.296875,-57.6171875,-160.64453125,-86.9140625,0.0
1733975866.7376688,-11.71875,-115.234375,-198.73046875,-2.44140625,0.0
1733975866.741575,23.92578125,-7.8125,-79.1015625,149.90234375,0.0
1733975866.7454813,31.25,-78.61328125,-62.98828125,205.56640625,0.0
1733975866.7493875,0.48828125,-192.87109375,-136.71875,44.921875,0.0
1733975866.7532938,-27.83203125,215.8203125,49.31640625,-86.42578125,0.0
1733975866.7572,-30.2734375,396.97265625,140.13671875,-22.4609375,0.0
1733975866.7611063,-14.16015625,-28.80859375,-99.609375,129.8828125,0.0
1733975866.7648323,-1.953125,-94.23828125,-119.140625,189.453125,0.0
1733975866.7687385,-20.01953125,386.71875,144.04296875,44.921875,0.0
1733975866.7726448,-49.31640625,401.85546875,85.9375,-90.33203125,0.0
1733975866.776551,-41.50390625,-323.73046875,-219.7265625,-43.45703125,0.0
1733975866.7804573,-28.3203125,-639.6484375,-308.59375,113.76953125,0.0
1733975866.7843635,-13.18359375,0.9765625,50.29296875,200.1953125,0.0
1733975866.7882698,-26.3671875,28.80859375,74.70703125,96.19140625,0.0
1733975866.792176,-53.22265625,-231.4453125,-158.69140625,-62.5,0.0
1733975866.7960823,-53.22265625,-64.94140625,-71.77734375,-64.94140625,0.0
1733975866.7999885,-38.0859375,354.98046875,128.90625,77.1484375,0.0
1733975866.8038948,-17.578125,601.5625,192.87109375,190.91796875,0.0
1733975866.807801,-27.34375,-291.015625,-221.19140625,101.07421875,0.0
1733975866.8114715,-50.78125,-811.5234375,-436.03515625,-50.78125,0.0
1733975866.8153777,-52.734375,136.23046875,95.21484375,-68.359375,0.0
1733975866.819284,-20.01953125,278.3203125,101.07421875,60.05859375,0.0
1733975866.8231902,-11.71875,229.98046875,42.48046875,188.4765625,0.0
1733975866.8270965,-11.71875,451.171875,124.51171875,100.09765625,0.0
1733975866.8310027,-20.5078125,129.8828125,-69.3359375,-76.171875,0.0
1733975866.834909,-42.96875,-285.15625,-288.0859375,-88.8671875,0.0
1733975866.8388152,-27.83203125,-666.015625,-350.09765625,48.828125,0.0
1733975866.8427215,-19.04296875,-36.1328125,48.33984375,175.29296875,0.0
1733975866.8466277,-39.55078125,667.96875,226.07421875,94.7265625,0.0
1733975866.850534,-71.77734375,207.03125,-58.10546875,-82.51953125,0.0
1733975866.8544402,-73.73046875,-45.8984375,-74.21875,-114.2578125,0.0
1733975866.858098,-65.91796875,323.73046875,126.953125,-3.90625,0.0
1733975866.8620043,-63.96484375,522.4609375,130.37109375,137.6953125,0.0
1733975866.8659105,-62.98828125,257.8125,86.42578125,85.9375,0.0
1733975866.8698168,-81.54296875,-102.05078125,-88.8671875,-99.609375,0.0
1733975866.873723,-94.7265625,-134.27734375,-173.828125,-143.5546875,0.0
1733975866.8776293,-68.359375,-23.4375,-125.48828125,-32.2265625,0.0
1733975866.8815355,-49.8046875,-538.57421875,-327.1484375,130.37109375,0.0
1733975866.8854418,-54.6875,-534.66796875,-183.59375,125.0,0.0
1733975866.889348,-78.125,350.5859375,157.71484375,-50.29296875,0.0
1733975866.8932543,-82.03125,286.62109375,33.69140625,-130.37109375,0.0
1733975866.8971605,-55.6640625,-271.484375,-150.390625,-46.875,0.0
1733975866.9010668,-68.359375,-16.11328125,-7.8125,95.21484375,0.0
1733975866.9046304,-73.73046875,558.10546875,217.28515625,106.93359375,0.0
1733975866.9085367,-55.17578125,310.546875,45.8984375,-47.36328125,0.0
1733975866.912443,-56.15234375,-86.42578125,-106.4453125,-125.48828125,0.0
1733975866.916349,-40.52734375,96.6796875,35.15625,-50.29296875,0.0
1733975866.9202552,-22.4609375,404.78515625,137.6953125,94.23828125,0.0
1733975866.9241614,-30.76171875,48.33984375,8.30078125,139.6484375,0.0
1733975866.9280677,-55.17578125,-651.85546875,-258.30078125,-22.4609375,0.0
1733975866.931974,-92.28515625,-311.03515625,-71.77734375,-140.625,0.0
1733975866.9358802,-76.66015625,258.7890625,154.296875,-90.33203125,0.0
1733975866.9397864,-47.36328125,70.80078125,32.71484375,75.1953125,0.0
1733975866.9436927,-57.12890625,92.7734375,67.87109375,154.296875,0.0
1733975866.947599,-78.125,398.92578125,145.5078125,-5.37109375,0.0
1733975866.9515975,-84.47265625,296.875,81.54296875,-144.04296875,0.0
1733975866.9555037,-73.73046875,-201.66015625,-96.6796875,-101.5625,0.0
1733975866.95941,-57.12890625,-153.80859375,-74.21875,71.77734375,0.0
1733975866.9633162,-43.9453125,139.16015625,130.859375,144.04296875,0.0
1733975866.9672225,-66.40625,-59.08203125,39.0625,-17.08984375,0.0
1733975866.9711287,-79.58984375,-545.8984375,-226.5625,-141.6015625,0.0
1733975866.975035,-66.89453125,-540.0390625,-146.484375,-113.76953125,0.0
1733975866.9789412,-65.4296875,243.65234375,150.87890625,31.25,0.0
1733975866.9828475,-53.22265625,473.14453125,180.17578125,143.06640625,0.0
1733975866.9867537,-28.80859375,-33.69140625,-28.3203125,23.92578125,0.0
1733975866.99066,-38.0859375,-145.01953125,-47.36328125,-133.30078125,0.0
1733975866.9945662,-63.4765625,234.375,135.7421875,-134.27734375,0.0
1733975866.9984996,-45.41015625,166.50390625,68.359375,21.97265625,0.0
1733975867.002406,-18.5546875,87.40234375,79.58984375,173.33984375,0.0
1733975867.0063121,-34.66796875,286.1328125,137.20703125,57.6171875,0.0
1733975867.0102184,-58.59375,315.91796875,89.35546875,-119.62890625,0.0
1733975867.0141246,-50.78125,-16.6015625,8.30078125,-116.2109375,0.0
1733975867.018031,-36.1328125,-338.8671875,-159.66796875,14.6484375,0.0
1733975867.0219371,-31.73828125,-257.32421875,-46.875,150.390625,0.0
1733975867.0258434,-52.24609375,108.88671875,190.4296875,75.68359375,0.0
1733975867.0297494,-60.05859375,-58.59375,-40.0390625,-93.75,0.0
1733975867.0336556,-58.59375,-694.3359375,-333.49609375,-122.0703125,0.0
1733975867.037562,-57.12890625,-99.609375,-15.13671875,-20.99609375,0.0
1733975867.0414681,-40.52734375,498.53515625,203.125,128.41796875,0.0
1733975867.0463142,-36.1328125,190.4296875,78.61328125,99.609375,0.0
1733975867.0502205,-41.015625,25.87890625,53.7109375,-68.84765625,0.0
1733975867.0541267,-43.45703125,166.50390625,47.36328125,-125.48828125,0.0
1733975867.058033,-48.33984375,-101.07421875,-129.39453125,-30.2734375,0.0
1733975867.0619392,-44.43359375,-215.33203125,29.296875,113.28125,0.0
1733975867.0658455,-35.15625,-147.4609375,139.16015625,109.375,0.0
1733975867.0697517,-61.5234375,-55.6640625,17.578125,-59.08203125,0.0
1733975867.073658,-72.265625,178.7109375,37.109375,-152.83203125,0.0
1733975867.0775642,-41.015625,-486.81640625,-184.08203125,-55.17578125,0.0
1733975867.0814705,-42.96875,-528.3203125,-175.78125,102.05078125,0.0
1733975867.0853767,-47.8515625,449.70703125,235.3515625,108.88671875,0.0
1733975867.089283,-36.62109375,288.0859375,-1.953125,-49.31640625,0.0
1733975867.0930538,-56.15234375,-150.390625,-153.80859375,-145.99609375,0.0
1733975867.09696,-60.05859375,15.625,28.80859375,-88.37890625,0.0
1733975867.1008663,-44.921875,359.86328125,154.78515625,69.3359375,0.0
1733975867.1047726,-37.109375,291.015625,66.89453125,131.34765625,0.0
1733975867.1086788,-53.7109375,-183.10546875,-165.0390625,-29.78515625,0.0
1733975867.112585,-66.40625,-335.44921875,-230.95703125,-146.484375,0.0
1733975867.1164913,-57.6171875,-223.14453125,-161.62109375,-99.12109375,0.0
1733975867.1203976,-42.48046875,-277.34375,-230.46875,51.7578125,0.0
1733975867.1243038,-45.41015625,-191.40625,-154.296875,129.39453125,0.0
1733975867.12821,-55.6640625,254.39453125,116.69921875,-25.87890625,0.0
1733975867.1321163,-59.5703125,305.6640625,106.93359375,-140.625,0.0
1733975867.1360226,-53.22265625,-316.89453125,-201.171875,-90.8203125,0.0
1733975867.1402307,-19.04296875,-364.2578125,-338.37890625,44.921875,0.0
1733975867.144137,-9.27734375,365.72265625,134.765625,139.6484375,0.0
1733975867.1480432,-18.5546875,524.90234375,227.5390625,15.625,0.0
1733975867.1519494,-19.04296875,-302.24609375,-219.7265625,-108.88671875,0.0
1733975867.1558557,-34.66796875,-738.76953125,-402.83203125,-68.359375,0.0
1733975867.159762,-33.69140625,-149.4140625,-15.13671875,69.82421875,0.0
1733975867.1636682,-30.2734375,150.390625,192.87109375,165.52734375,0.0
1733975867.1675744,-52.734375,-350.09765625,-100.5859375,50.78125,0.0
1733975867.1714807,-66.89453125,-636.23046875,-362.79296875,-98.14453125,0.0
1733975867.175387,-68.84765625,242.1875,63.4765625,-97.65625,0.0
1733975867.1792932,-46.38671875,363.76953125,144.53125,28.80859375,0.0
1733975867.1831994,-28.80859375,223.6328125,125.48828125,152.83203125,0.0
1733975867.1868367,-40.52734375,413.57421875,166.9921875,53.7109375,0.0
1733975867.190743,-45.41015625,396.484375,73.2421875,-112.3046875,0.0
1733975867.1946492,-52.734375,-61.03515625,4.8828125,-110.3515625,0.0
1733975867.1985555,-48.33984375,-111.328125,47.8515625,0.0,0.0
1733975867.2024617,-10.7421875,311.03515625,110.83984375,138.18359375,0.0
1733975867.206368,-1.953125,185.546875,-44.43359375,92.7734375,0.0
1733975867.2102742,-31.25,-334.47265625,-136.23046875,-89.35546875,0.0
1733975867.2141805,-46.875,-384.27734375,-73.2421875,-136.23046875,0.0
1733975867.2180867,-37.59765625,173.828125,146.97265625,-27.83203125,0.0
1733975867.221993,-14.6484375,574.21875,237.79296875,127.44140625,0.0
1733975867.2258992,-9.27734375,120.60546875,-24.90234375,109.375,0.0
1733975867.2298055,-14.16015625,-656.73828125,-303.22265625,-51.7578125,0.0
1733975867.2333903,-28.80859375,-72.265625,81.54296875,-117.1875,0.0
1733975867.2372963,-42.96875,375.0,150.87890625,-40.0390625,0.0
1733975867.2412026,-25.390625,150.87890625,79.1015625,121.09375,0.0
1733975867.2451088,-27.83203125,-11.23046875,133.30078125,127.44140625,0.0
1733975867.249015,-51.26953125,-17.08984375,65.91796875,-56.15234375,0.0
1733975867.2529213,-49.8046875,-25.390625,74.70703125,-126.46484375,0.0
1733975867.2568276,-43.45703125,-626.953125,-257.32421875,-50.78125,0.0
1733975867.2607338,-36.1328125,-613.28125,-208.0078125,90.33203125,0.0
1733975867.26464,-50.29296875,401.3671875,264.16015625,104.00390625,0.0
1733975867.2685463,-68.359375,351.07421875,106.4453125,-60.05859375,0.0
1733975867.2724526,-65.91796875,-58.10546875,5.37109375,-142.578125,0.0
1733975867.2763588,-56.640625,129.8828125,123.53515625,-71.2890625,0.0
1733975867.2804103,-41.9921875,418.9453125,176.26953125,85.9375,0.0
1733975867.2843165,-35.15625,339.84375,139.16015625,133.30078125,0.0
1733975867.2882228,-55.6640625,5.37109375,73.2421875,-25.87890625,0.0
1733975867.292129,-65.4296875,55.6640625,84.9609375,-135.25390625,0.0
1733975867.2960353,-56.640625,190.91796875,83.0078125,-90.8203125,0.0
1733975867.2999415,-30.76171875,-121.58203125,-25.87890625,66.40625,0.0
1733975867.3038478,-18.5546875,-645.01953125,-189.94140625,161.1328125,0.0
1733975867.307754,-36.62109375,-219.7265625,18.06640625,7.8125,0.0
1733975867.3116603,-50.29296875,78.61328125,80.56640625,-118.65234375,0.0
1733975867.3155665,-48.33984375,-326.66015625,-100.5859375,-76.171875,0.0
1733975867.3194728,-30.2734375,-99.609375,3.90625,47.8515625,0.0
1733975867.323379,-41.015625,418.45703125,196.2890625,137.6953125,0.0
1733975867.3268738,-53.22265625,413.0859375,161.62109375,19.53125,0.0
1733975867.33078,-47.8515625,-93.75,-83.0078125,-121.09375,0.0
1733975867.3346863,-45.41015625,-80.078125,-49.31640625,-104.00390625,0.0
1733975867.3385925,-35.15625,25.87890625,78.125,33.69140625,0.0
1733975867.3424988,-26.85546875,49.8046875,129.39453125,158.203125,0.0
1733975867.346405,-22.4609375,-118.1640625,-0.9765625,45.8984375,0.0
1733975867.3503113,-36.62109375,-312.01171875,-111.328125,-114.74609375,0.0
1733975867.3542175,-46.38671875,105.95703125,103.02734375,-105.95703125,0.0
1733975867.3581238,-33.203125,334.9609375,151.3671875,26.3671875,0.0
1733975867.36203,-9.765625,-368.65234375,-153.3203125,159.66796875,0.0
1733975867.3659363,-7.8125,-556.640625,-140.13671875,63.4765625,0.0
1733975867.3698425,-28.80859375,2.9296875,75.68359375,-114.2578125,0.0
1733975867.3737738,-40.52734375,-251.953125,-158.203125,-121.58203125,0.0
1733975867.37768,-46.38671875,-174.31640625,-33.69140625,9.27734375,0.0
1733975867.3815863,-33.69140625,288.0859375,184.5703125,158.203125,0.0
1733975867.3854926,-22.4609375,472.16796875,183.59375,86.42578125,0.0
1733975867.3893988,-39.0625,67.87109375,-8.7890625,-91.30859375,0.0
1733975867.393305,-36.62109375,-505.37109375,-275.87890625,-113.28125,0.0
1733975867.3972113,-17.578125,-294.921875,-127.9296875,-21.484375,0.0
1733975867.4011176,-19.04296875,382.8125,199.70703125,117.1875,0.0
1733975867.4050238,-21.97265625,105.46875,0.48828125,101.07421875,0.0
1733975867.40893,-37.59765625,-558.10546875,-328.61328125,-76.171875,0.0
1733975867.4128363,-60.546875,-74.70703125,-37.109375,-139.6484375,0.0
1733975867.4167426,-42.96875,301.26953125,113.76953125,-40.0390625,0.0
1733975867.4211063,-10.7421875,60.05859375,-2.44140625,127.44140625,0.0
1733975867.4250126,-4.8828125,104.00390625,83.0078125,131.34765625,0.0
1733975867.4289188,-2.9296875,140.625,44.921875,-26.3671875,0.0
1733975867.432825,3.90625,-239.2578125,-191.40625,-94.23828125,0.0
1733975867.4367313,-8.7890625,-392.578125,-283.203125,-37.59765625,0.0
1733975867.4406376,-33.69140625,-290.0390625,-226.07421875,103.02734375,0.0
1733975867.4445438,-51.7578125,-66.89453125,39.0625,111.81640625,0.0
1733975867.44845,-79.1015625,200.1953125,125.9765625,-97.16796875,0.0
1733975867.4523563,-101.07421875,-435.05859375,-339.35546875,-201.66015625,0.0
1733975867.4562626,-93.26171875,-633.7890625,-398.92578125,-139.6484375,0.0
1733975867.4601688,-94.7265625,370.1171875,149.4140625,5.37109375,0.0
1733975867.464075,-111.81640625,437.98828125,153.3203125,52.24609375,0.0
1733975867.4678452,-124.51171875,46.875,2.44140625,-114.2578125,0.0
1733975867.4717515,-125.48828125,124.51171875,43.45703125,-229.00390625,0.0
1733975867.4756577,-110.83984375,323.73046875,102.5390625,-170.41015625,0.0
1733975867.479564,-84.47265625,176.7578125,36.1328125,3.41796875,0.0
1733975867.4834702,-67.3828125,-108.88671875,5.859375,96.19140625,0.0
1733975867.4873765,-81.0546875,-111.81640625,35.15625,-38.0859375,0.0
1733975867.4912827,-83.984375,-157.71484375,-120.60546875,-162.109375,0.0
1733975867.495189,-79.1015625,-456.0546875,-321.2890625,-124.51171875,0.0
1733975867.4990952,-71.77734375,-322.265625,-180.6640625,22.94921875,0.0
1733975867.5030015,-53.7109375,315.91796875,174.31640625,118.1640625,0.0
1733975867.5069077,-56.640625,508.30078125,215.8203125,-4.8828125,0.0
1733975867.510814,-63.4765625,-110.3515625,-158.203125,-153.80859375,0.0
1733975867.514513,-75.68359375,-686.5234375,-382.8125,-121.58203125,0.0
1733975867.5184193,-56.640625,72.265625,78.125,15.625,0.0
1733975867.5223255,-28.80859375,541.50390625,238.76953125,128.41796875,0.0
1733975867.5262318,-54.19921875,123.53515625,13.18359375,30.2734375,0.0
1733975867.530138,-67.87109375,-121.58203125,-109.375,-142.578125,0.0
1733975867.5340443,-65.91796875,-184.5703125,-139.16015625,-146.97265625,0.0
1733975867.5379505,-62.98828125,-67.87109375,-9.765625,-19.04296875,0.0
1733975867.5418568,-31.25,-377.9296875,-119.140625,127.9296875,0.0
1733975867.545763,-18.5546875,-632.8125,-223.14453125,65.91796875,0.0
1733975867.5496693,-49.31640625,-7.8125,68.84765625,-125.48828125,0.0
1733975867.5535755,-62.98828125,117.1875,22.4609375,-153.3203125,0.0
1733975867.5574818,-53.7109375,115.234375,72.265625,-25.87890625,0.0
1733975867.561176,-39.0625,361.81640625,163.0859375,111.328125,0.0
1733975867.5650823,-45.41015625,487.3046875,174.8046875,58.59375,0.0
1733975867.5689886,-56.15234375,185.05859375,34.66796875,-99.12109375,0.0
1733975867.5728948,-64.94140625,-100.5859375,-141.6015625,-146.97265625,0.0
1733975867.576801,-57.6171875,82.51953125,-24.4140625,-50.29296875,0.0
1733975867.5807073,-30.2734375,88.8671875,65.91796875,126.953125,0.0
1733975867.5846136,-18.5546875,-184.5703125,-20.01953125,105.95703125,0.0
1733975867.5885198,-45.8984375,-652.34375,-304.19921875,-76.66015625,0.0
1733975867.592426,-69.3359375,-286.62109375,-127.9296875,-159.1796875,0.0
1733975867.596332,-76.66015625,320.3125,150.87890625,-88.37890625,0.0
1733975867.6002383,-62.98828125,136.23046875,82.03125,85.44921875,0.0
1733975867.6041446,-58.59375,54.6875,135.7421875,75.1953125,0.0
1733975867.607784,-101.5625,57.12890625,197.265625,-131.8359375,0.0
1733975867.6116903,-126.46484375,145.01953125,237.3046875,-229.00390625,0.0
1733975867.6155963,-143.06640625,-113.76953125,192.87109375,-178.22265625,0.0
1733975867.6195025,-148.4375,-326.171875,222.16796875,-27.34375,0.0
1733975867.6234088,-162.59765625,130.859375,381.34765625,-27.83203125,0.0
1733975867.627315,-211.9140625,206.0546875,365.72265625,-242.67578125,0.0
1733975867.6312213,-192.3828125,-533.69140625,91.30859375,-321.2890625,0.0
1733975867.6351275,-171.38671875,-618.1640625,95.21484375,-229.4921875,0.0
1733975867.6390338,-180.6640625,464.35546875,422.8515625,-84.47265625,0.0
1733975867.64294,-184.5703125,682.6171875,387.6953125,-39.55078125,0.0
1733975867.6468463,-199.21875,258.30078125,287.59765625,-211.9140625,0.0
1733975867.6507525,-191.40625,223.6328125,309.5703125,-320.80078125,0.0
1733975867.6543715,0.0,509.27734375,378.41796875,-250.48828125,0.0
1733975867.6582778,0.0,489.2578125,363.28125,-98.14453125,0.0
1733975867.662184,0.0,359.375,385.7421875,0.0,0.0
1733975867.6660903,0.0,309.5703125,377.9296875,-112.79296875,0.0
1733975867.6699965,0.0,360.83984375,339.84375,-214.84375,0.0
1733975867.6739028,0.0,115.234375,290.0390625,-158.69140625,0.0
1733975867.677809,0.0,-444.3359375,286.62109375,-3.90625,0.0
1733975867.6817153,0.0,120.60546875,437.5,107.421875,0.0
1733975867.6856215,0.0,776.3671875,459.47265625,0.48828125,0.0
1733975867.6895278,0.0,368.65234375,306.15234375,-132.32421875,0.0
1733975867.693434,0.0,199.70703125,315.4296875,-119.140625,0.0
1733975867.6973403,0.0,627.9296875,433.10546875,13.18359375,0.0
1733975867.7008712,-1.953125,807.6171875,457.51953125,156.73828125,0.0
1733975867.7047775,-5.37109375,484.86328125,374.0234375,63.96484375,0.0
1733975867.7086837,-16.11328125,370.60546875,343.26171875,-118.1640625,0.0
1733975867.71259,-0.48828125,346.6796875,377.44140625,-119.140625,0.0
1733975867.7164962,25.390625,358.88671875,385.7421875,47.8515625,0.0
1733975867.7204022,52.24609375,112.79296875,330.078125,204.58984375,0.0
1733975867.7243085,45.8984375,-167.48046875,305.6640625,109.86328125,0.0
1733975867.7282147,26.85546875,307.12890625,394.04296875,-68.359375,0.0
1733975867.732121,41.9921875,558.59375,382.8125,-70.3125,0.0
1733975867.7360272,56.15234375,184.5703125,353.02734375,60.546875,0.0
1733975867.7399335,57.12890625,297.8515625,397.94921875,195.80078125,0.0
1733975867.7438397,39.55078125,822.265625,409.66796875,143.5546875,0.0
1733975867.7502935,0.9765625,619.62890625,143.06640625,11.71875,0.0
1733975867.7541997,23.92578125,313.4765625,203.125,173.33984375,0.0
1733975867.758106,25.390625,517.08984375,341.796875,193.84765625,0.0
1733975867.7620122,6.8359375,808.59375,205.56640625,28.3203125,0.0
1733975867.7659185,4.39453125,627.9296875,141.6015625,-78.125,0.0
1733975867.7698247,5.37109375,44.921875,171.875,-11.23046875,0.0
1733975867.773731,17.578125,134.765625,234.375,163.57421875,0.0
1733975867.7776372,36.62109375,727.5390625,374.0234375,227.05078125,0.0
1733975867.7815435,29.78515625,554.6875,2.44140625,63.4765625,0.0
1733975867.7854497,21.97265625,-161.1328125,-83.984375,-73.2421875,0.0
1733975867.789356,12.6953125,219.23828125,337.40234375,-34.66796875,0.0
1733975867.7932622,26.3671875,708.984375,260.7421875,145.99609375,0.0
1733975867.7981963,0.0,335.9375,0.0,0.0,0.0
1733975867.8021026,0.0,336.42578125,0.0,0.0,0.0
1733975867.8060088,0.0,788.57421875,0.0,0.0,0.0
1733975867.809915,0.0,491.69921875,0.0,0.0,0.0
1733975867.8138213,0.0,50.29296875,0.0,0.0,0.0
1733975867.8177276,0.0,21.484375,0.0,0.0,0.0
1733975867.8216338,0.0,338.37890625,0.0,0.0,0.0
1733975867.82554,0.0,844.23828125,0.0,0.0,0.0
1733975867.8294463,0.0,48.828125,0.0,0.0,0.0
1733975867.8333526,0.0,-328.125,0.0,0.0,0.0
1733975867.8372588,0.0,636.71875,0.0,0.0,0.0
1733975867.841165,0.0,764.16015625,0.0,0.0,0.0
1733975867.8449063,0.0,291.50390625,187.98828125,235.83984375,0.0
1733975867.8488126,0.0,340.8203125,259.27734375,70.3125,0.0
1733975867.8527188,0.0,779.78515625,278.80859375,-84.47265625,0.0
1733975867.856625,0.0,561.5234375,213.37890625,-50.78125,0.0
1733975867.8605313,0.0,209.47265625,160.15625,112.79296875,0.0
1733975867.8644376,0.0,350.09765625,243.1640625,222.16796875,0.0
1733975867.8683438,0.0,436.03515625,254.8828125,92.28515625,0.0
1733975867.87225,0.0,83.0078125,51.26953125,-76.66015625,0.0
1733975867.8761563,0.0,14.6484375,22.4609375,-74.70703125,0.0
1733975867.8800626,0.0,575.1953125,244.62890625,65.4296875,0.0
1733975867.8839688,0.0,934.08203125,340.8203125,197.75390625,0.0
1733975867.887875,0.0,456.0546875,85.44921875,101.5625,0.0
1733975867.8901348,51.7578125,102.05078125,-9.765625,-76.171875,0.0
1733975867.894041,31.25,550.78125,229.98046875,-92.7734375,0.0
1733975867.8979473,5.37109375,816.40625,292.48046875,33.203125,0.0
1733975867.9018536,14.16015625,216.796875,46.875,188.96484375,0.0
1733975867.9057598,9.765625,-536.62109375,-101.07421875,123.046875,0.0
1733975867.909666,9.765625,-97.16796875,125.9765625,-70.80078125,0.0
1733975867.9135723,13.18359375,281.25,215.8203125,-104.4921875,0.0
1733975867.9174786,-14.6484375,-202.1484375,-65.4296875,32.2265625,0.0
1733975867.9213848,-14.6484375,-177.24609375,-50.29296875,198.73046875,0.0
1733975867.925291,-1.46484375,861.328125,370.60546875,128.90625,0.0
1733975867.9291973,6.8359375,778.80859375,210.9375,-63.4765625,0.0
1733975867.9331036,14.6484375,392.08984375,170.41015625,-104.00390625,0.0
1733975867.9368024,-34.1796875,561.03515625,0.0,8.30078125,0.0
1733975867.9407086,-23.92578125,864.74609375,0.0,159.1796875,0.0
1733975867.944615,-23.92578125,761.23046875,0.0,123.53515625,0.0
1733975867.9485211,-44.921875,478.02734375,0.0,-52.24609375,0.0
1733975867.9524274,-38.57421875,516.6015625,0.0,-115.234375,0.0
1733975867.9563336,-25.87890625,366.69921875,0.0,-28.3203125,0.0
1733975867.96024,-27.83203125,179.6875,0.0,142.08984375,0.0
1733975867.9641461,-26.3671875,-162.109375,0.0,156.25,0.0
1733975867.9680524,-34.66796875,239.2578125,0.0,-39.0625,0.0
1733975867.9719586,-37.109375,793.9453125,0.0,-127.44140625,0.0
1733975867.975865,-9.765625,429.19921875,0.0,-37.109375,0.0
1733975867.9797711,19.53125,407.2265625,0.0,139.6484375,0.0
1733975867.9833944,20.01953125,878.41796875,335.44921875,186.5234375,0.0
1733975867.9873006,-6.34765625,852.05078125,252.44140625,-0.9765625,0.0
1733975867.991207,-29.78515625,410.15625,164.55078125,-133.30078125,0.0
1733975867.9951131,-32.2265625,108.88671875,150.87890625,-62.98828125,0.0
1733975867.9990194,-28.80859375,314.94140625,176.7578125,99.609375,0.0
1733975868.0029256,-21.484375,579.1015625,291.015625,169.921875,0.0
1733975868.006832,-19.04296875,-157.71484375,-71.77734375,22.4609375,0.0
1733975868.0107381,-25.87890625,-439.453125,-175.29296875,-130.859375,0.0
1733975868.0146444,-24.4140625,546.38671875,277.83203125,-78.61328125,0.0
1733975868.0185506,-0.9765625,691.40625,211.42578125,94.7265625,0.0
1733975868.022457,17.578125,460.9375,219.7265625,164.0625,0.0
1733975868.0263631,-6.8359375,613.28125,249.51171875,9.27734375,0.0
1733975868.0305285,0.0,742.1875,0.0,-142.08984375,0.0
1733975868.0344348,0.0,510.7421875,0.0,-107.91015625,0.0
1733975868.038341,0.0,187.98828125,0.0,47.36328125,0.0
1733975868.0422473,0.0,552.734375,0.0,154.78515625,0.0
1733975868.0461535,0.0,795.41015625,0.0,31.25,0.0
1733975868.0500598,0.0,217.28515625,0.0,-120.1171875,0.0
1733975868.053966,0.0,-499.0234375,0.0,-107.91015625,0.0
1733975868.0578723,0.0,3.41796875,0.0,22.94921875,0.0
1733975868.0617785,0.0,840.33203125,0.0,149.4140625,0.0
1733975868.0656848,0.0,605.95703125,0.0,70.3125,0.0
1733975868.069591,0.0,242.1875,0.0,-94.23828125,0.0
1733975868.0734973,0.0,386.71875,0.0,-107.91015625,0.0
1733975868.076183,-36.62109375,587.40234375,188.96484375,28.80859375,0.0
1733975868.0800893,-47.36328125,404.296875,129.8828125,176.7578125,0.0
1733975868.0839953,-43.9453125,483.88671875,162.59765625,92.28515625,0.0
1733975868.0879016,-34.66796875,423.33984375,125.0,-97.65625,0.0
1733975868.0918078,-49.31640625,277.83203125,97.16796875,-124.51171875,0.0
1733975868.095714,-52.24609375,-73.2421875,-34.1796875,0.48828125,0.0
1733975868.0996203,-29.78515625,-70.3125,35.64453125,148.92578125,0.0
1733975868.1035266,-20.5078125,726.07421875,274.90234375,91.796875,0.0
1733975868.1074328,-21.97265625,713.37890625,131.34765625,-77.1484375,0.0
1733975868.111339,-19.53125,28.3203125,-102.05078125,-128.41796875,0.0
1733975868.1152453,-35.15625,20.99609375,11.23046875,-50.78125,0.0
1733975868.1191516,-38.0859375,663.0859375,229.4921875,115.234375,0.0
1733975868.1230764,-12.20703125,643.06640625,149.90234375,123.53515625,0.0
1733975868.1269827,-36.1328125,279.296875,28.80859375,-59.5703125,0.0
1733975868.130889,-41.50390625,352.05078125,68.359375,-143.06640625,0.0
1733975868.1347952,-19.04296875,548.33984375,153.3203125,-29.296875,0.0
1733975868.1387014,-8.30078125,339.35546875,70.80078125,142.08984375,0.0
1733975868.1426077,-11.23046875,-73.73046875,-17.578125,145.99609375,0.0
1733975868.146514,-31.73828125,-7.32421875,55.17578125,-43.9453125,0.0
1733975868.1504202,-45.41015625,425.78125,138.671875,-151.3671875,0.0
1733975868.1543264,-26.3671875,235.83984375,-19.53125,-49.31640625,0.0
1733975868.1582327,-13.18359375,-360.83984375,-215.33203125,127.44140625,0.0
1733975868.162139,-9.27734375,331.0546875,129.39453125,159.66796875,0.0
1733975868.1660452,-13.18359375,832.51953125,239.2578125,-12.20703125,0.0
1733975868.1699443,-40.52734375,305.6640625,0.48828125,-133.7890625,0.0
1733975868.1738505,-39.0625,173.828125,25.390625,-70.3125,0.0
1733975868.1777568,-9.765625,573.73046875,174.31640625,100.09765625,0.0
1733975868.181663,3.41796875,466.796875,144.04296875,182.12890625,0.0
1733975868.1855693,-16.11328125,82.51953125,-35.64453125,26.3671875,0.0
1733975868.1894755,-39.55078125,-101.07421875,-246.58203125,-125.48828125,0.0
1733975868.1933815,-47.8515625,78.61328125,-78.61328125,-81.54296875,0.0
1733975868.1972878,-36.62109375,399.90234375,151.85546875,85.44921875,0.0
1733975868.201194,-2.9296875,-192.87109375,-157.2265625,191.89453125,0.0
1733975868.2051003,-18.5546875,-344.7265625,-239.2578125,44.921875,0.0
1733975868.2090065,-42.48046875,503.90625,109.375,-125.48828125,0.0
1733975868.2129128,-14.6484375,434.08203125,32.2265625,-96.6796875,0.0
1733975868.217214,-6.34765625,81.54296875,-87.40234375,68.84765625,0.0
1733975868.2211204,-6.8359375,416.015625,84.47265625,186.03515625,0.0
1733975868.2250266,-29.296875,738.28125,188.96484375,35.15625,0.0
1733975868.2289329,-58.59375,388.671875,3.41796875,-139.16015625,0.0
1733975868.232839,-54.6875,-116.2109375,-138.671875,-106.4453125,0.0
1733975868.2367454,-34.66796875,-61.03515625,-80.078125,36.1328125,0.0
1733975868.2406514,-14.16015625,209.47265625,87.40234375,160.15625,0.0
1733975868.2445576,-16.6015625,110.83984375,7.32421875,68.84765625,0.0
1733975868.2484639,-38.0859375,-450.1953125,-315.4296875,-116.69921875,0.0
1733975868.25237,-53.7109375,-15.625,-21.97265625,-135.7421875,0.0
1733975868.2562764,-40.0390625,397.4609375,144.53125,6.8359375,0.0
1733975868.2601826,-16.6015625,125.48828125,34.66796875,167.96875,0.0
1733975868.26396,-19.04296875,339.35546875,134.27734375,96.19140625,0.0
1733975868.2678661,-31.73828125,582.03125,163.0859375,-106.93359375,0.0
1733975868.2717724,-31.25,460.9375,122.55859375,-143.5546875,0.0
1733975868.2756786,-9.27734375,42.96875,-13.18359375,-9.765625,0.0
1733975868.279585,-0.9765625,104.98046875,49.31640625,154.296875,0.0
1733975868.2834911,-9.27734375,312.98828125,174.8046875,119.62890625,0.0
1733975868.2873974,-22.4609375,103.02734375,72.75390625,-68.84765625,0.0
1733975868.2913036,-25.390625,-173.33984375,-51.26953125,-129.39453125,0.0
1733975868.29521,-30.76171875,38.57421875,51.7578125,-24.4140625,0.0
1733975868.2991161,-19.04296875,601.5625,221.6796875,132.8125,0.0
1733975868.3030221,-15.13671875,747.55859375,205.078125,111.328125,0.0
1733975868.3069284,-31.25,-216.30859375,-187.5,-75.1953125,0.0
1733975868.3106406,-31.73828125,-455.56640625,-171.38671875,-128.41796875,0.0
1733975868.3145468,-6.8359375,306.640625,125.48828125,-9.765625,0.0
1733975868.318453,4.8828125,157.71484375,68.84765625,144.53125,0.0
1733975868.3223593,-15.13671875,250.9765625,193.84765625,133.7890625,0.0
1733975868.3262653,-44.921875,454.58984375,153.80859375,-71.77734375,0.0
1733975868.3301716,-64.453125,159.66796875,55.17578125,-179.19921875,0.0
1733975868.3340778,-54.19921875,-171.875,-13.18359375,-88.37890625,0.0
1733975868.337984,-27.83203125,-479.98046875,-167.96875,81.0546875,0.0
1733975868.3418903,-19.53125,86.9140625,113.28125,122.55859375,0.0
1733975868.3457966,-36.62109375,659.1796875,250.48828125,-50.29296875,0.0
1733975868.3497028,-68.84765625,158.203125,34.66796875,-167.96875,0.0
1733975868.353609,-69.82421875,-20.5078125,87.890625,-114.2578125,0.0
1733975868.3572888,0.0,458.984375,0.0,49.8046875,0.0
1733975868.361195,0.0,662.109375,0.0,140.13671875,0.0
1733975868.3651013,0.0,295.8984375,0.0,-19.04296875,0.0
1733975868.3690076,0.0,-105.46875,0.0,-152.83203125,0.0
1733975868.3729138,0.0,-80.078125,0.0,-109.375,0.0
1733975868.37682,0.0,151.85546875,0.0,50.29296875,0.0
1733975868.3807263,0.0,-359.86328125,0.0,166.015625,0.0
1733975868.3846326,0.0,-511.71875,0.0,20.01953125,0.0
1733975868.3885388,0.0,392.578125,0.0,-138.671875,0.0
1733975868.392445,0.0,445.3125,0.0,-96.19140625,0.0
1733975868.3963513,0.0,261.71875,0.0,43.45703125,0.0
1733975868.4002576,0.0,599.12109375,0.0,147.4609375,0.0
1733975868.4038332,-27.83203125,856.93359375,525.390625,30.2734375,0.0
1733975868.4077394,-48.33984375,557.6171875,435.546875,-123.53515625,0.0
1733975868.4116457,-46.38671875,235.3515625,416.015625,-123.53515625,0.0
1733975868.415552,-34.66796875,503.41796875,495.60546875,8.30078125,0.0
1733975868.4194582,-19.53125,806.15234375,532.2265625,157.71484375,0.0
1733975868.4233644,-14.16015625,439.94140625,447.265625,73.2421875,0.0
1733975868.4272707,-30.2734375,-347.16796875,383.7890625,-94.23828125,0.0
1733975868.431177,-42.96875,-8.7890625,467.7734375,-111.328125,0.0
1733975868.4350832,-27.34375,476.07421875,488.76953125,15.13671875,0.0
1733975868.4389894,-7.32421875,340.33203125,450.68359375,159.66796875,0.0
1733975868.4428957,-10.7421875,557.12890625,482.421875,98.6328125,0.0
1733975868.446802,-20.99609375,833.0078125,499.51171875,-76.66015625,0.0
1733975868.4503415,-22.4609375,765.13671875,476.5625,-113.28125,0.0
1733975868.4542477,-13.18359375,464.35546875,411.62109375,-1.953125,0.0
1733975868.458154,-7.8125,605.46875,447.265625,137.20703125,0.0
1733975868.4620602,-8.30078125,693.359375,476.07421875,103.515625,0.0
1733975868.4659665,-18.5546875,589.35546875,428.22265625,-72.75390625,0.0
1733975868.4698727,-25.87890625,94.23828125,315.4296875,-115.72265625,0.0
1733975868.473779,-32.71484375,5.37109375,349.12109375,-8.30078125,0.0
1733975868.477685,-13.671875,848.14453125,511.23046875,135.7421875,0.0
1733975868.4815912,0.0,973.6328125,480.46875,126.953125,0.0
1733975868.4854975,-15.13671875,439.94140625,405.76171875,-54.6875,0.0
1733975868.4894037,-24.4140625,413.57421875,424.31640625,-137.20703125,0.0
1733975868.49331,-11.71875,590.8203125,402.34375,-39.55078125,0.0
1733975868.498783,9.27734375,489.74609375,388.671875,126.46484375,0.0
1733975868.5026894,-3.90625,695.80078125,424.8046875,140.625,0.0
1733975868.5065956,-24.90234375,872.0703125,414.0625,-21.97265625,0.0
1733975868.5105019,-30.2734375,869.140625,394.04296875,-117.67578125,0.0
1733975868.514408,-26.85546875,634.765625,340.8203125,-54.19921875,0.0
1733975868.5183144,0.0,274.90234375,302.734375,116.69921875,0.0
1733975868.5222206,1.46484375,522.94921875,374.0234375,166.015625,0.0
1733975868.5261269,-15.625,-979.4921875,413.0859375,10.25390625,0.0
1733975868.530033,-18.5546875,563.96484375,228.02734375,-92.7734375,0.0
1733975868.5339394,-17.08984375,-59.08203125,168.9453125,-48.33984375,0.0
1733975868.5378456,-6.34765625,614.2578125,370.1171875,101.07421875,0.0
1733975868.5417519,6.34765625,-932.6171875,425.29296875,184.5703125,0.0
1733975868.54615,0.0,579.1015625,211.9140625,37.59765625,0.0
1733975868.5500562,0.0,382.32421875,159.66796875,-101.5625,0.0
1733975868.5539625,0.0,550.78125,260.7421875,-62.01171875,0.0
1733975868.5578687,0.0,429.6875,200.68359375,86.42578125,0.0
1733975868.561775,0.0,428.22265625,252.44140625,190.4296875,0.0
1733975868.5656812,0.0,356.4453125,166.50390625,57.6171875,0.0
1733975868.5695875,0.0,460.44921875,135.7421875,-92.28515625,0.0
1733975868.5734937,0.0,706.0546875,178.22265625,-61.03515625,0.0
1733975868.5774,0.0,482.421875,23.4375,84.47265625,0.0
1733975868.5813062,0.0,635.25390625,115.234375,196.2890625,0.0
1733975868.5852125,0.0,996.58203125,219.23828125,80.56640625,0.0
1733975868.5891187,0.0,706.0546875,35.15625,-72.75390625,0.0
1733975868.5929315,-5.859375,258.30078125,-130.37109375,-62.98828125,0.0
1733975868.5968378,-14.16015625,521.484375,17.578125,59.5703125,0.0
1733975868.600744,-16.11328125,977.5390625,196.2890625,186.03515625,0.0
1733975868.6046503,-14.16015625,789.0625,83.984375,118.1640625,0.0
1733975868.6085565,-8.30078125,224.609375,-158.69140625,-35.15625,0.0
1733975868.6124628,0.9765625,132.8125,-210.44921875,-56.640625,0.0
1733975868.616369,25.390625,290.52734375,-169.921875,67.87109375,0.0
1733975868.620275,52.24609375,254.8828125,-129.39453125,236.81640625,0.0
1733975868.6241813,58.10546875,20.99609375,-186.5234375,196.77734375,0.0
1733975868.6280875,27.34375,316.89453125,-78.125,-14.16015625,0.0
1733975868.6319938,-28.80859375,768.5546875,124.51171875,-95.703125,0.0
1733975868.6359,-32.2265625,473.14453125,-124.0234375,10.7421875,0.0
1733975868.6396973,-7.32421875,-427.734375,-395.99609375,152.34375,0.0
1733975868.6436036,-32.71484375,150.390625,41.50390625,100.5859375,0.0
1733975868.6475098,-50.78125,877.9296875,173.828125,-86.9140625,0.0
1733975868.651416,-67.3828125,321.77734375,-101.07421875,-158.203125,0.0
1733975868.6553223,-70.3125,177.24609375,-88.8671875,-69.82421875,0.0
1733975868.6592286,-48.828125,383.7890625,90.8203125,85.9375,0.0
1733975868.6631348,-36.62109375,517.578125,182.12890625,98.14453125,0.0
1733975868.667041,-29.78515625,-96.6796875,-165.52734375,-50.78125,0.0
1733975868.6709473,-42.96875,-576.66015625,-327.1484375,-123.53515625,0.0
1733975868.6748536,-54.19921875,322.75390625,150.390625,-50.29296875,0.0
1733975868.6787598,-25.390625,741.69921875,191.40625,109.86328125,0.0
1733975868.682666,-4.39453125,604.4921875,150.390625,146.484375,0.0
1733975868.6864882,-18.5546875,623.046875,176.26953125,-4.8828125,0.0
1733975868.6903944,-40.52734375,697.265625,178.22265625,-99.609375,0.0
1733975868.6943007,-40.52734375,553.22265625,168.45703125,-54.6875,0.0
1733975868.698207,-21.97265625,445.80078125,174.31640625,106.4453125,0.0
1733975868.7021132,-13.18359375,681.640625,231.4453125,170.41015625,0.0
1733975868.7060194,-24.90234375,423.33984375,115.234375,-0.9765625,0.0
1733975868.7099257,-42.96875,-29.78515625,-55.17578125,-109.86328125,0.0
1733975868.713832,-56.15234375,-420.8984375,-220.21484375,-55.6640625,0.0
1733975868.7177382,-37.59765625,145.99609375,6.34765625,85.9375,0.0
1733975868.7216444,-6.8359375,891.6015625,246.09375,177.24609375,0.0
1733975868.7255507,-12.20703125,534.1796875,-72.265625,37.59765625,0.0
1733975868.729457,-33.69140625,89.84375,-362.79296875,-111.328125,0.0
1733975868.7330892,-36.62109375,296.875,-222.16796875,-91.796875,0.0
1733975868.7369955,-25.87890625,695.80078125,-73.73046875,51.26953125,0.0
1733975868.7409017,-5.859375,578.125,-111.328125,162.109375,0.0
1733975868.744808,-10.25390625,207.51953125,-266.11328125,33.203125,0.0
1733975868.7487142,-29.78515625,178.22265625,-336.42578125,-124.0234375,0.0
1733975868.7526205,-38.0859375,287.109375,-276.85546875,-105.95703125,0.0
1733975868.7565267,-31.25,-330.078125,-451.171875,43.9453125,0.0
1733975868.760433,-15.13671875,-330.078125,-273.92578125,149.4140625,0.0
1733975868.7643392,-33.69140625,619.140625,133.30078125,27.83203125,0.0
1733975868.7682455,-62.5,524.4140625,-104.00390625,-131.34765625,0.0
1733975868.7721517,-62.5,193.359375,-280.76171875,-142.578125,0.0
1733975868.776058,-41.50390625,411.1328125,-97.65625,-18.06640625,0.0
1733975868.7796168,-20.01953125,746.09375,110.3515625,119.140625,0.0
1733975868.783523,-16.11328125,615.72265625,36.62109375,39.55078125,0.0
1733975868.7874293,-30.2734375,50.29296875,-255.37109375,-114.74609375,0.0
1733975868.7913356,-44.921875,2.44140625,-283.69140625,-130.859375,0.0
1733975868.7952418,-29.78515625,382.32421875,-64.453125,-21.97265625,0.0
1733975868.799148,-7.8125,239.74609375,-104.98046875,137.20703125,0.0
1733975868.8030543,-5.859375,-385.7421875,-270.99609375,89.84375,0.0
1733975868.8069606,-26.3671875,-109.375,-39.55078125,-97.16796875,0.0
1733975868.8108668,-41.50390625,492.67578125,122.55859375,-129.39453125,0.0
1733975868.814773,-21.97265625,200.1953125,-56.640625,-24.90234375,0.0
1733975868.8186793,8.30078125,186.03515625,-24.90234375,112.79296875,0.0
1733975868.8225856,8.30078125,588.8671875,151.85546875,88.8671875,0.0
1733975868.8261824,-1.953125,490.72265625,72.75390625,-79.58984375,0.0
1733975868.8300886,-8.30078125,64.94140625,-121.09375,-132.8125,0.0
1733975868.8339949,-25.87890625,92.28515625,-74.21875,-31.25,0.0
1733975868.837901,-18.5546875,208.0078125,44.921875,123.53515625,0.0
1733975868.8418074,-21.97265625,217.7734375,72.265625,119.62890625,0.0
1733975868.8457136,-36.62109375,-193.359375,-112.79296875,-42.48046875,0.0
1733975868.8496199,-40.0390625,-585.44921875,-298.33984375,-119.140625,0.0
1733975868.853526,-33.69140625,20.01953125,-40.52734375,-38.57421875,0.0
1733975868.8574321,13.18359375,496.58203125,168.45703125,141.6015625,0.0
1733975868.8613384,27.34375,151.85546875,15.625,188.4765625,0.0
1733975868.8652446,-26.85546875,43.9453125,5.859375,-5.859375,0.0
1733975868.8691509,-51.7578125,438.4765625,130.859375,-133.30078125,0.0
1733975868.8740816,-50.78125,350.09765625,62.01171875,-60.05859375,0.0
1733975868.8779879,-35.64453125,85.44921875,-7.8125,107.91015625,0.0
1733975868.881894,-19.53125,346.19140625,130.859375,159.1796875,0.0
1733975868.8858001,-35.64453125,547.36328125,140.13671875,-9.27734375,0.0
1733975868.8897064,-49.31640625,206.0546875,-4.8828125,-132.32421875,0.0
1733975868.8936126,-40.52734375,-308.10546875,-203.125,-73.73046875,0.0
1733975868.8975189,-43.45703125,-93.26171875,-70.3125,75.1953125,0.0
1733975868.9014251,-47.8515625,626.46484375,259.27734375,151.3671875,0.0
1733975868.9053314,-34.66796875,268.5546875,-1.953125,26.3671875,0.0
1733975868.9092376,-47.8515625,-472.16796875,-310.05859375,-110.83984375,0.0
1733975868.9131439,-53.7109375,-73.2421875,-32.2265625,-87.40234375,0.0
1733975868.9170501,-33.203125,350.09765625,137.6953125,68.84765625,0.0
1733975868.9209244,-14.6484375,182.12890625,32.71484375,187.5,0.0
1733975868.9248307,-1.46484375,66.89453125,14.16015625,59.5703125,0.0
1733975868.928737,-17.578125,341.30859375,95.21484375,-105.46875,0.0
1733975868.932643,-39.0625,87.890625,4.8828125,-74.21875,0.0
1733975868.9365492,-20.99609375,-155.2734375,-64.94140625,67.3828125,0.0
1733975868.9404554,-3.90625,-74.70703125,4.8828125,185.546875,0.0
1733975868.9443617,-20.01953125,120.1171875,127.44140625,87.40234375,0.0
1733975868.948268,-39.0625,273.4375,84.47265625,-87.40234375,0.0
1733975868.9521742,-44.43359375,-103.515625,-118.1640625,-97.65625,0.0
1733975868.9560804,-25.87890625,-7.8125,-20.99609375,33.69140625,0.0
1733975868.9599867,-4.8828125,547.8515625,193.84765625,165.52734375,0.0
1733975868.963893,2.44140625,448.73046875,96.19140625,96.6796875,0.0
1733975868.9677713,0.0,-154.78515625,-176.7578125,-71.2890625,0.0
1733975868.9716775,0.0,-64.94140625,-86.9140625,-102.05078125,0.0
1733975868.9755838,0.0,414.0625,125.48828125,20.5078125,0.0
1733975868.97949,0.0,424.8046875,81.0546875,178.22265625,0.0
1733975868.9833963,0.0,-341.30859375,-154.296875,138.671875,0.0
1733975868.9873025,0.0,-612.79296875,-302.24609375,-48.33984375,0.0
1733975868.9912088,0.0,-59.08203125,-161.62109375,-112.3046875,0.0
1733975868.995115,0.0,17.578125,-66.40625,-3.90625,0.0
1733975868.9990213,0.0,-336.42578125,-187.01171875,165.52734375,0.0
1733975869.0029275,0.0,28.80859375,-6.34765625,137.20703125,0.0
1733975869.0068338,0.0,516.11328125,148.4375,-53.22265625,0.0
1733975869.01074,0.0,-48.828125,-214.35546875,-116.69921875,0.0
1733975869.0144958,-24.90234375,-372.55859375,-399.4140625,-27.34375,0.0
1733975869.018402,-13.18359375,350.5859375,25.87890625,118.65234375,0.0
1733975869.0223083,-5.37109375,541.015625,90.33203125,125.9765625,0.0
1733975869.0262146,-26.3671875,14.6484375,-268.06640625,-48.828125,0.0
1733975869.0301208,-49.31640625,-351.5625,-462.40234375,-139.6484375,0.0
1733975869.034027,-38.0859375,-284.66796875,-432.12890625,-65.91796875,0.0
1733975869.0379333,-10.7421875,-0.9765625,-376.953125,99.609375,0.0
1733975869.0418396,0.0,-396.97265625,-551.7578125,142.578125,0.0
1733975869.0457458,-12.6953125,-639.6484375,-642.08984375,-14.16015625,0.0
1733975869.049652,-20.99609375,194.82421875,-438.96484375,-127.9296875,0.0
1733975869.0535583,-22.4609375,265.13671875,-491.69921875,-70.3125,0.0
1733975869.0574646,-15.13671875,100.5859375,-503.90625,89.35546875,0.0
1733975869.0612202,0.0,291.50390625,-426.7578125,158.69140625,0.0
1733975869.0651264,0.0,399.4140625,-500.48828125,8.7890625,0.0
1733975869.0690327,0.0,93.75,-650.390625,-127.44140625,0.0
1733975869.072939,0.0,-164.55078125,-662.59765625,-79.1015625,0.0
1733975869.0768452,0.0,75.68359375,-616.69921875,84.9609375,0.0
1733975869.0807514,0.0,-8.30078125,-621.58203125,172.36328125,0.0
1733975869.0846577,0.0,-389.6484375,-746.58203125,28.80859375,0.0
1733975869.088564,0.0,-711.9140625,-823.2421875,-118.65234375,0.0
1733975869.0924702,0.0,-357.91015625,-670.8984375,-91.796875,0.0
1733975869.0963764,0.0,244.140625,-613.28125,60.546875,0.0
1733975869.1002827,0.0,-92.28515625,-728.02734375,171.875,0.0
1733975869.104189,0.0,-553.22265625,-851.5625,48.33984375,0.0
1733975869.1079376,-36.62109375,-126.953125,-785.64453125,-116.69921875,0.0
1733975869.1118438,-29.296875,-20.99609375,-831.54296875,-102.05078125,0.0
1733975869.11575,11.23046875,-293.9453125,-888.671875,66.89453125,0.0
1733975869.1196563,46.38671875,-511.71875,-917.48046875,208.0078125,0.0
1733975869.1235623,32.2265625,-409.1796875,-957.51953125,85.9375,0.0
1733975869.1274686,-21.484375,-513.671875,-988.76953125,-121.09375,0.0
1733975869.1313748,-35.15625,-939.453125,-993.65234375,-118.65234375,0.0
1733975869.135281,3.90625,-792.96875,-998.046875,44.921875,0.0
1733975869.1391873,33.203125,-154.78515625,-987.3046875,185.546875,0.0
1733975869.1430936,36.1328125,-281.25,-990.72265625,111.81640625,0.0
1733975869.1469998,5.37109375,-727.5390625,-1000.0,-74.70703125,0.0
1733975869.150906,15.13671875,-622.0703125,-1000.0,-93.75,0.0
1733975869.1544461,39.55078125,-384.27734375,-1000.0,41.015625,0.0
1733975869.1583524,37.59765625,-432.6171875,-1000.0,178.7109375,0.0
1733975869.1622586,19.53125,-713.8671875,-1000.0,128.90625,0.0
1733975869.1661649,-13.671875,-679.6875,-1000.0,-57.6171875,0.0
1733975869.1700711,-27.34375,-752.44140625,-1000.0,-110.83984375,0.0
1733975869.1739774,-11.23046875,-997.0703125,-1000.0,3.90625,0.0
1733975869.1778836,1.46484375,-990.72265625,-998.53515625,156.73828125,0.0
1733975869.1817899,-9.27734375,-804.6875,-996.58203125,131.34765625,0.0
1733975869.185696,-20.99609375,-742.1875,-1000.0,-45.8984375,0.0
1733975869.1896021,-25.87890625,-926.7578125,-1000.0,-125.48828125,0.0
1733975869.1935084,-24.4140625,-983.88671875,-1000.0,-47.36328125,0.0
1733975869.1974146,-13.671875,-847.16796875,-991.2109375,103.02734375,0.0
1733975869.2013955,-2.9296875,-903.3203125,-990.234375,115.234375,0.0
1733975869.2053018,-8.30078125,-1000.0,-999.51171875,-45.8984375,0.0
1733975869.209208,-15.13671875,-998.046875,-1000.0,-125.0,0.0
1733975869.2131143,-21.97265625,-998.53515625,-998.53515625,-40.52734375,0.0
1733975869.2170205,-18.5546875,-998.53515625,-994.62890625,113.28125,0.0
1733975869.2209268,-1.953125,-999.51171875,-985.83984375,147.94921875,0.0
1733975869.224833,-13.18359375,-1000.0,-985.3515625,-19.53125,0.0
1733975869.2287393,-35.15625,-1000.0,-979.00390625,-138.18359375,0.0
1733975869.2326453,-32.71484375,-1000.0,-977.5390625,-73.2421875,0.0
1733975869.2365515,-15.625,-999.51171875,-963.37890625,96.6796875,0.0
1733975869.2404578,-4.8828125,-997.0703125,-918.9453125,155.2734375,0.0
1733975869.244364,-13.671875,-999.0234375,-937.98828125,-10.7421875,0.0
1733975869.249275,-24.4140625,-1000.0,-964.84375,-140.13671875,0.0
1733975869.2531812,-24.90234375,-1000.0,-946.77734375,-91.30859375,0.0
1733975869.2570875,-20.01953125,-1000.0,-899.90234375,64.453125,0.0
1733975869.2609937,-4.39453125,-1000.0,-874.0234375,149.4140625,0.0
1733975869.2649,-11.23046875,-1000.0,-926.7578125,13.18359375,0.0
1733975869.2688062,-33.203125,-1000.0,-956.54296875,-129.39453125,0.0
1733975869.2727125,-40.0390625,-1000.0,-899.4140625,-107.91015625,0.0
1733975869.2766187,-27.83203125,-1000.0,-803.22265625,40.52734375,0.0
1733975869.280525,-6.34765625,-999.0234375,-853.02734375,157.2265625,0.0
1733975869.2844312,-20.01953125,-1000.0,-941.40625,48.828125,0.0
1733975869.2883375,-48.33984375,-1000.0,-839.35546875,-106.4453125,0.0
1733975869.2922437,-38.0859375,-1000.0,-798.33984375,-112.79296875,0.0
1733975869.2960668,-8.30078125,-1000.0,-799.8046875,23.92578125,0.0
1733975869.299973,-18.06640625,-999.0234375,-715.33203125,150.390625,0.0
1733975869.3038793,-31.73828125,-997.55859375,-705.078125,44.43359375,0.0
1733975869.3077855,-47.36328125,-1000.0,-828.61328125,-119.140625,0.0
1733975869.3116918,-55.17578125,-1000.0,-835.9375,-123.046875,0.0
1733975869.315598,-38.0859375,-1000.0,-786.1328125,9.27734375,0.0
1733975869.3195043,-31.73828125,-1000.0,-694.82421875,144.04296875,0.0
1733975869.3234105,-32.2265625,-1000.0,-691.40625,87.890625,0.0
1733975869.3273168,-35.64453125,-1000.0,-784.66796875,-88.8671875,0.0
1733975869.331223,-49.31640625,-1000.0,-691.40625,-136.23046875,0.0
1733975869.3351293,-46.38671875,-1000.0,-641.6015625,-14.16015625,0.0
1733975869.3390355,-14.6484375,-1000.0,-694.3359375,140.13671875,0.0
1733975869.3428235,-12.6953125,-1000.0,-641.6015625,95.21484375,0.0
1733975869.3467298,-41.9921875,-1000.0,-648.92578125,-88.37890625,0.0
1733975869.350636,-53.7109375,-1000.0,-621.58203125,-140.625,0.0
1733975869.3545423,-31.25,-1000.0,-631.8359375,-20.5078125,0.0
1733975869.3584485,1.953125,-1000.0,-690.4296875,153.3203125,0.0
1733975869.3623548,2.44140625,-1000.0,-609.86328125,127.9296875,0.0
1733975869.366261,-19.53125,-1000.0,-587.40234375,-63.96484375,0.0
1733975869.3701673,-33.69140625,-1000.0,-666.015625,-127.44140625,0.0
1733975869.3740735,-38.0859375,-999.0234375,-724.12109375,-31.25,0.0
1733975869.3779798,-30.76171875,-974.12109375,-480.46875,111.328125,0.0
1733975869.381886,-16.11328125,-979.98046875,-418.9453125,122.55859375,0.0
1733975869.3857923,-32.71484375,-1000.0,-644.53125,-48.33984375,0.0
1733975869.3895204,-47.8515625,-1000.0,-678.22265625,-154.78515625,0.0
1733975869.3934267,-20.01953125,-996.09375,-450.68359375,-64.94140625,0.0
1733975869.397333,12.6953125,-982.421875,-435.05859375,113.28125,0.0
1733975869.4012392,16.6015625,-990.72265625,-439.453125,147.4609375,0.0
1733975869.4051454,-24.4140625,-1000.0,-507.8125,-33.69140625,0.0
1733975869.4090517,-54.6875,-1000.0,-566.89453125,-161.1328125,0.0
1733975869.412958,-27.83203125,-995.1171875,-463.37890625,-84.9609375,0.0
1733975869.4168642,10.25390625,-1000.0,-603.515625,101.5625,0.0
1733975869.4207704,24.4140625,-938.4765625,-549.8046875,164.55078125,0.0
1733975869.4246764,19.53125,-879.39453125,-320.80078125,5.37109375,0.0
1733975869.4285827,9.765625,-980.95703125,-445.3125,-124.0234375,0.0
1733975869.432489,13.671875,-995.60546875,-434.08203125,-80.56640625,0.0
1733975869.4361582,37.109375,-935.05859375,-331.54296875,76.171875,0.0
1733975869.4400644,32.2265625,-957.03125,-312.01171875,156.25,0.0
1733975869.4439707,-10.25390625,-1000.0,-399.90234375,28.80859375,0.0
1733975869.447877,-38.0859375,-990.234375,-418.9453125,-106.4453125,0.0
1733975869.4517832,-30.2734375,-979.00390625,-377.9296875,-78.61328125,0.0
1733975869.4556894,-4.8828125,-996.58203125,-388.671875,72.75390625,0.0
1733975869.4595957,12.20703125,-1000.0,-374.51171875,182.12890625,0.0
1733975869.463502,-2.9296875,-988.76953125,-420.8984375,57.12890625,0.0
1733975869.4674082,-32.71484375,-942.87109375,-348.14453125,-101.07421875,0.0
1733975869.4713144,-29.296875,-901.85546875,-247.0703125,-88.8671875,0.0
1733975869.4752207,-10.7421875,-964.84375,-432.12890625,38.0859375,0.0
1733975869.479127,-0.48828125,-909.1796875,-421.875,156.25,0.0
1733975869.482735,-24.90234375,-728.515625,-24.90234375,48.828125,0.0
1733975869.4866412,-42.48046875,-807.6171875,-184.5703125,-121.09375,0.0
1733975869.4905474,-40.0390625,-944.3359375,-362.79296875,-119.62890625,0.0
1733975869.4944537,-28.3203125,-994.62890625,-328.61328125,0.9765625,0.0
1733975869.49836,-6.34765625,-992.67578125,-289.55078125,144.53125,0.0
1733975869.5022662,-15.13671875,-985.3515625,-237.3046875,74.70703125,0.0
1733975869.5061724,-43.45703125,-1000.0,-477.05078125,-104.4921875,0.0
1733975869.5100787,-50.78125,-955.56640625,-479.4921875,-130.859375,0.0
1733975869.5139847,-31.25,-771.97265625,-144.04296875,-16.6015625,0.0
1733975869.517891,-6.8359375,-674.31640625,-26.85546875,132.8125,0.0
1733975869.5217972,-18.5546875,-793.9453125,-62.98828125,93.75,0.0
1733975869.5257034,-32.2265625,-815.91796875,-211.42578125,-78.125,0.0
1733975869.5297794,-38.57421875,-702.1484375,-216.796875,-134.765625,0.0
