timestamps,TP9,AF7,AF8,TP10,Right AUX
1733975363.7987876,-25.87890625,2.9296875,-3.90625,4.8828125,0.0
1733975363.8026931,-42.48046875,-148.4375,-47.8515625,-126.953125,0.0
1733975363.806599,-46.38671875,193.84765625,60.05859375,-138.18359375,0.0
1733975363.8105044,-31.25,357.91015625,76.66015625,-16.11328125,0.0
1733975363.81441,-24.4140625,-214.35546875,-86.9140625,75.1953125,0.0
1733975363.8183157,-36.1328125,-503.90625,-40.52734375,14.16015625,0.0
1733975363.8222213,-43.9453125,93.75,107.421875,-112.79296875,0.0
1733975363.8261268,-39.55078125,337.40234375,87.890625,-146.484375,0.0
1733975363.8300326,-24.90234375,-351.5625,-150.87890625,-26.85546875,0.0
1733975363.8339381,-19.53125,-695.80078125,-103.515625,82.03125,0.0
1733975363.8378437,-22.94921875,191.40625,213.37890625,29.296875,0.0
1733975363.8417556,-30.76171875,324.70703125,20.01953125,-98.6328125,0.0
1733975363.8456612,-44.43359375,-195.3125,-108.88671875,-145.5078125,0.0
1733975363.849567,-40.0390625,-152.83203125,13.18359375,-43.45703125,0.0
1733975363.8534725,-14.16015625,351.07421875,100.09765625,84.9609375,0.0
1733975363.857378,-6.8359375,155.76171875,-16.6015625,63.96484375,0.0
1733975363.8612838,-17.578125,-372.0703125,-144.53125,-66.89453125,0.0
1733975363.8651893,-24.90234375,-280.2734375,-64.94140625,-125.48828125,0.0
1733975363.869095,-30.76171875,251.953125,53.22265625,-39.55078125,0.0
1733975363.8730006,-20.99609375,176.7578125,-11.23046875,84.47265625,0.0
1733975363.8769062,-10.7421875,-332.51953125,-27.34375,78.125,0.0
1733975363.880812,-22.94921875,-185.05859375,62.98828125,-53.22265625,0.0
1733975363.8847175,-37.59765625,165.0390625,92.7734375,-129.8828125,0.0
1733975363.888621,-38.57421875,-40.52734375,52.734375,-62.01171875,0.0
1733975363.8925269,-23.4375,-244.140625,155.76171875,73.73046875,0.0
1733975363.8964324,-3.90625,218.26171875,410.15625,91.796875,0.0
1733975363.900338,-3.41796875,457.51953125,448.2421875,-29.296875,0.0
1733975363.9042437,-18.5546875,-103.02734375,374.51171875,-111.328125,0.0
1733975363.9081492,-23.92578125,-623.046875,406.25,-58.10546875,0.0
1733975363.9120548,0.48828125,-129.39453125,541.015625,82.51953125,0.0
1733975363.9159606,29.296875,223.6328125,532.2265625,126.953125,0.0
1733975363.919866,24.4140625,-439.453125,383.7890625,19.53125,0.0
1733975363.9237716,-9.27734375,-704.1015625,393.06640625,-100.09765625,0.0
1733975363.9276774,-11.23046875,135.25390625,551.26953125,-70.3125,0.0
1733975363.931583,30.2734375,335.9375,520.99609375,83.984375,0.0
1733975363.9355288,56.15234375,-9.765625,564.453125,147.94921875,0.0
1733975363.9394345,61.5234375,-162.59765625,619.62890625,59.5703125,0.0
1733975363.94334,44.43359375,70.3125,648.92578125,-64.453125,0.0
1733975363.9472456,29.296875,261.23046875,628.41796875,-55.17578125,0.0
1733975363.9511514,55.17578125,83.49609375,606.4453125,87.890625,0.0
1733975363.955057,83.0078125,-38.0859375,770.01953125,174.31640625,0.0
1733975363.9589624,74.21875,207.51953125,884.27734375,86.42578125,0.0
1733975363.9628682,69.3359375,416.9921875,868.1640625,-30.2734375,0.0
1733975363.9667737,78.61328125,-281.73828125,831.0546875,-12.6953125,0.0
1733975363.9706795,83.0078125,-42.96875,879.8828125,100.5859375,0.0
1733975363.974585,94.23828125,650.87890625,901.85546875,184.5703125,0.0
1733975363.9784906,99.12109375,347.16796875,892.08984375,115.72265625,0.0
1733975363.9823818,73.2421875,388.671875,897.94921875,-29.78515625,0.0
1733975363.9862876,61.03515625,749.0234375,901.85546875,-42.48046875,0.0
1733975363.9901931,84.9609375,970.703125,902.34375,74.70703125,0.0
1733975363.9940987,96.19140625,614.2578125,887.6953125,169.921875,0.0
1733975363.9980044,74.21875,398.4375,881.8359375,108.88671875,0.0
1733975364.00191,56.15234375,553.7109375,888.671875,-30.2734375,0.0
1733975364.0058155,34.66796875,472.16796875,884.765625,-70.3125,0.0
1733975364.0097213,44.921875,303.7109375,796.875,42.48046875,0.0
1733975364.0136268,87.890625,519.04296875,833.984375,169.43359375,0.0
1733975364.0175323,104.98046875,967.28515625,887.20703125,147.4609375,0.0
1733975364.0214381,89.84375,-961.42578125,840.33203125,19.53125,0.0
1733975364.0253437,71.2890625,372.55859375,759.27734375,-40.0390625,0.0
1733975364.0292323,63.4765625,186.5234375,729.4921875,41.50390625,0.0
1733975364.0331378,66.89453125,894.53125,701.171875,151.3671875,0.0
1733975364.0370436,69.3359375,825.68359375,658.203125,135.25390625,0.0
1733975364.040949,56.640625,764.6484375,650.390625,-1.953125,0.0
1733975364.0448546,41.9921875,921.875,601.5625,-83.984375,0.0
1733975364.0487604,40.52734375,862.3046875,513.671875,-1.953125,0.0
1733975364.052666,67.87109375,813.4765625,466.30859375,137.20703125,0.0
1733975364.0565715,76.66015625,417.48046875,428.7109375,148.4375,0.0
1733975364.0604773,45.8984375,521.97265625,442.3828125,7.32421875,0.0
1733975364.0643828,37.59765625,-947.75390625,462.890625,-89.35546875,0.0
1733975364.0682886,48.33984375,864.2578125,471.6796875,-20.99609375,0.0
1733975364.072194,41.015625,809.5703125,485.83984375,109.375,0.0
1733975364.0760727,44.43359375,951.66015625,530.76171875,124.51171875,0.0
1733975364.0799782,37.109375,996.58203125,526.85546875,-5.37109375,0.0
1733975364.083884,5.37109375,778.80859375,428.22265625,-106.93359375,0.0
1733975364.0877895,-11.71875,745.60546875,419.921875,-64.453125,0.0
1733975364.091695,7.8125,908.203125,422.8515625,73.2421875,0.0
1733975364.0956008,28.3203125,850.5859375,413.57421875,120.1171875,0.0
1733975364.0995064,27.83203125,266.11328125,298.828125,20.5078125,0.0
1733975364.103412,20.5078125,122.55859375,265.13671875,-85.44921875,0.0
1733975364.1073177,22.94921875,879.39453125,372.55859375,-56.15234375,0.0
1733975364.1112232,36.1328125,-964.84375,206.54296875,84.9609375,0.0
1733975364.115129,53.22265625,571.2890625,-59.5703125,160.15625,0.0
1733975364.1190345,49.31640625,566.40625,18.5546875,54.6875,0.0
1733975364.1229079,26.85546875,-988.28125,164.55078125,-75.68359375,0.0
1733975364.1268134,17.08984375,669.43359375,87.890625,-60.05859375,0.0
1733975364.130719,28.80859375,491.69921875,100.5859375,62.01171875,0.0
1733975364.1346247,31.73828125,839.35546875,267.08984375,145.5078125,0.0
1733975364.1385303,31.25,991.2109375,261.71875,67.87109375,0.0
1733975364.1424358,17.578125,790.52734375,41.015625,-75.68359375,0.0
1733975364.1463416,7.8125,-9.27734375,-111.81640625,-84.9609375,0.0
1733975364.150247,17.578125,142.578125,81.0546875,30.76171875,0.0
1733975364.1541526,17.578125,884.765625,187.01171875,109.375,0.0
1733975364.1580584,21.97265625,809.08203125,33.203125,52.24609375,0.0
1733975364.161964,15.13671875,710.9375,-8.7890625,-71.77734375,0.0
1733975364.1658695,-10.7421875,887.6953125,62.98828125,-101.07421875,0.0
1733975364.169741,-0.9765625,-996.09375,75.68359375,12.6953125,0.0
1733975364.1736465,23.92578125,768.5546875,-8.30078125,124.0234375,0.0
1733975364.1775522,13.671875,671.38671875,-7.8125,69.82421875,0.0
1733975364.1814578,-4.8828125,902.83203125,85.9375,-73.73046875,0.0
1733975364.1853635,-5.859375,977.05078125,130.37109375,-111.81640625,0.0
1733975364.189269,-1.46484375,270.01953125,-66.40625,-6.8359375,0.0
1733975364.1931746,9.765625,-69.82421875,9.765625,111.81640625,0.0
1733975364.1970804,10.25390625,803.7109375,375.9765625,76.171875,0.0
1733975364.200986,-2.44140625,992.1875,279.78515625,-59.5703125,0.0
1733975364.2048914,-17.08984375,551.26953125,135.25390625,-111.81640625,0.0
1733975364.2087972,-27.34375,471.19140625,224.12109375,-37.109375,0.0
1733975364.2127028,-13.18359375,651.85546875,316.89453125,73.73046875,0.0
1733975364.2166154,0.0,792.96875,318.359375,64.453125,0.0
1733975364.2205212,-11.71875,472.65625,188.96484375,-64.453125,0.0
1733975364.2244267,-22.94921875,413.57421875,288.0859375,-143.06640625,0.0
1733975364.2283323,-10.7421875,839.84375,443.84765625,-65.91796875,0.0
1733975364.232238,8.30078125,842.7734375,387.20703125,75.68359375,0.0
1733975364.2361436,21.484375,447.265625,379.8828125,97.16796875,0.0
1733975364.2400494,15.13671875,401.3671875,414.55078125,-35.64453125,0.0
1733975364.243955,-7.8125,816.89453125,426.26953125,-137.6953125,0.0
1733975364.2478604,-12.20703125,681.15234375,390.625,-80.078125,0.0
1733975364.2517662,0.48828125,166.015625,420.41015625,55.17578125,0.0
1733975364.2556717,5.859375,528.80859375,485.83984375,84.9609375,0.0
1733975364.2595773,2.44140625,-974.12109375,446.2890625,-34.66796875,0.0
1733975364.2634857,0.0,686.5234375,385.7421875,-131.8359375,0.0
1733975364.2673914,0.0,484.86328125,390.13671875,-86.42578125,0.0
1733975364.271297,0.0,597.16796875,430.6640625,44.43359375,0.0
1733975364.2752025,0.0,813.96484375,436.03515625,110.83984375,0.0
1733975364.2791083,0.0,699.21875,354.4921875,39.55078125,0.0
1733975364.2830138,0.0,206.54296875,331.54296875,-79.1015625,0.0
1733975364.2869194,0.0,356.4453125,430.17578125,-115.234375,0.0
1733975364.2908251,0.0,886.23046875,468.26171875,-13.671875,0.0
1733975364.2947307,0.0,362.3046875,342.28515625,81.0546875,0.0
1733975364.2986362,0.0,-136.23046875,332.03125,-8.30078125,0.0
1733975364.302542,0.0,595.703125,457.51953125,-152.34375,0.0
1733975364.3064475,0.0,647.94921875,424.8046875,-152.83203125,0.0
1733975364.310396,-52.734375,398.92578125,413.0859375,-12.6953125,0.0
1733975364.3143015,-35.15625,354.00390625,430.6640625,85.9375,0.0
1733975364.3182073,-33.203125,617.67578125,456.54296875,17.578125,0.0
1733975364.3221128,-56.640625,766.11328125,428.22265625,-127.9296875,0.0
1733975364.3260183,-77.63671875,436.03515625,398.4375,-143.06640625,0.0
1733975364.329924,-64.453125,271.97265625,402.83203125,-10.7421875,0.0
1733975364.3338296,-45.41015625,371.09375,412.59765625,75.68359375,0.0
1733975364.3377352,-38.0859375,447.75390625,397.4609375,23.4375,0.0
1733975364.341641,-60.546875,-104.4921875,202.1484375,-108.3984375,0.0
1733975364.3455465,-78.125,-27.34375,292.48046875,-145.5078125,0.0
1733975364.349452,-58.10546875,802.734375,471.19140625,-33.203125,0.0
1733975364.3533578,-29.296875,638.671875,332.51953125,84.9609375,0.0
1733975364.3572536,-27.34375,306.640625,270.5078125,42.96875,0.0
1733975364.3611593,-37.109375,631.34765625,379.39453125,-90.8203125,0.0
1733975364.3650649,-43.9453125,802.24609375,387.20703125,-132.8125,0.0
1733975364.3689704,-34.66796875,324.70703125,233.88671875,-25.87890625,0.0
1733975364.3728762,-6.34765625,150.87890625,206.54296875,104.98046875,0.0
1733975364.3767817,13.671875,443.84765625,345.703125,86.9140625,0.0
1733975364.3806872,2.9296875,322.75390625,259.27734375,-44.921875,0.0
1733975364.384593,-20.01953125,0.9765625,101.5625,-125.48828125,0.0
1733975364.3884985,-16.6015625,-68.84765625,134.765625,-37.109375,0.0
1733975364.392404,0.48828125,465.8203125,268.5546875,104.98046875,0.0
1733975364.3963099,0.9765625,915.0390625,337.890625,87.890625,0.0
1733975364.4002154,-10.25390625,117.1875,71.77734375,-36.62109375,0.0
1733975364.4041073,-19.04296875,-347.65625,90.33203125,-104.4921875,0.0
1733975364.4080129,-24.4140625,342.7734375,369.140625,-56.640625,0.0
1733975364.4119186,-26.3671875,385.25390625,287.109375,65.4296875,0.0
1733975364.4158242,-22.4609375,316.89453125,230.95703125,96.6796875,0.0
1733975364.4197297,-32.2265625,483.88671875,152.34375,-29.78515625,0.0
1733975364.4236355,-45.41015625,358.3984375,15.13671875,-131.8359375,0.0
1733975364.427541,-44.43359375,222.65625,-45.8984375,-70.80078125,0.0
1733975364.4314466,-25.87890625,-151.3671875,-109.375,76.66015625,0.0
1733975364.4353523,-15.625,76.66015625,-33.69140625,106.4453125,0.0
1733975364.4392579,-21.97265625,868.1640625,-73.73046875,-20.5078125,0.0
1733975364.4431634,-34.66796875,599.12109375,-279.78515625,-125.0,0.0
1733975364.4470692,-39.0625,162.109375,-316.40625,-90.33203125,0.0
1733975364.4509997,-23.92578125,403.80859375,-237.79296875,32.2265625,0.0
1733975364.4549053,-16.11328125,850.09765625,-206.54296875,84.47265625,0.0
1733975364.4588108,-16.11328125,537.109375,-314.94140625,-9.27734375,0.0
1733975364.4627166,-20.99609375,282.2265625,-323.2421875,-126.46484375,0.0
1733975364.466622,-32.71484375,495.60546875,-262.6953125,-114.2578125,0.0
1733975364.4705276,-26.85546875,440.91796875,-264.6484375,16.6015625,0.0
1733975364.4744334,-8.7890625,-60.546875,-339.84375,100.09765625,0.0
1733975364.478339,-13.18359375,-343.26171875,-276.85546875,17.08984375,0.0
1733975364.4822447,-39.55078125,348.6328125,-140.625,-125.0,0.0
1733975364.4861503,-46.38671875,564.453125,-251.46484375,-131.8359375,0.0
1733975364.4900558,-45.41015625,340.33203125,-278.3203125,-6.8359375,0.0
1733975364.4939616,-33.69140625,487.79296875,-196.2890625,96.6796875,0.0
1733975364.4978406,-22.4609375,712.890625,-203.61328125,38.57421875,0.0
1733975364.5017462,-32.2265625,353.515625,-294.43359375,-98.14453125,0.0
1733975364.505652,-40.0390625,-117.67578125,-276.3671875,-119.62890625,0.0
1733975364.5095575,-34.66796875,111.328125,-172.36328125,-7.32421875,0.0
1733975364.513463,-17.08984375,560.05859375,-148.92578125,101.07421875,0.0
1733975364.5173688,-3.90625,289.55078125,-230.95703125,63.96484375,0.0
1733975364.5212743,-15.625,-170.8984375,-225.09765625,-76.66015625,0.0
1733975364.5251799,-26.85546875,89.35546875,-97.16796875,-122.0703125,0.0
1733975364.5290856,-0.9765625,579.1015625,-35.15625,-10.7421875,0.0
1733975364.5329912,15.625,531.73828125,-126.953125,103.02734375,0.0
1733975364.536897,14.16015625,-246.09375,-204.1015625,81.0546875,0.0
1733975364.5408025,7.8125,-79.58984375,-52.734375,-44.921875,0.0
1733975364.544674,0.0,563.4765625,-23.92578125,-100.09765625,0.0
1733975364.5485795,-13.671875,313.96484375,-114.2578125,-22.4609375,0.0
1733975364.5524852,-41.9921875,267.08984375,-43.9453125,65.4296875,0.0
1733975364.5563908,-59.5703125,629.39453125,38.0859375,35.64453125,0.0
1733975364.5602963,-49.31640625,560.546875,-61.03515625,-70.3125,0.0
1733975364.564202,-49.31640625,-208.0078125,-222.65625,-129.8828125,0.0
1733975364.5681076,-54.6875,-535.15625,-134.765625,-70.80078125,0.0
1733975364.5720131,-41.9921875,104.98046875,104.00390625,56.640625,0.0
1733975364.575919,-24.90234375,618.1640625,155.2734375,78.61328125,0.0
1733975364.5798244,-23.4375,43.9453125,-54.6875,-45.8984375,0.0
1733975364.58373,-40.52734375,-215.33203125,-38.57421875,-136.71875,0.0
1733975364.5876358,-43.9453125,453.61328125,108.88671875,-77.1484375,0.0
1733975364.591548,-31.73828125,566.89453125,49.31640625,45.8984375,0.0
1733975364.5954537,-22.4609375,208.49609375,25.390625,70.3125,0.0
1733975364.5993593,-35.15625,207.51953125,75.1953125,-39.0625,0.0
1733975364.603265,-46.875,452.1484375,88.8671875,-138.671875,0.0
1733975364.6071706,-38.0859375,352.5390625,47.36328125,-95.21484375,0.0
1733975364.611076,-25.390625,-66.89453125,23.4375,46.875,0.0
1733975364.614982,-11.71875,0.0,129.39453125,107.91015625,0.0
1733975364.6188874,-12.20703125,520.99609375,184.5703125,7.8125,0.0
1733975364.622793,-21.484375,259.27734375,16.11328125,-102.05078125,0.0
1733975364.6266987,-33.203125,-230.46875,-29.78515625,-84.47265625,0.0
1733975364.6306043,-26.3671875,156.73828125,117.67578125,36.62109375,0.0
1733975364.6345098,-5.37109375,626.46484375,171.38671875,106.4453125,0.0
1733975364.6384184,-0.9765625,274.4140625,6.34765625,11.23046875,0.0
1733975364.6423242,-15.625,-435.546875,-114.74609375,-115.72265625,0.0
1733975364.6462297,-34.66796875,-33.69140625,86.42578125,-119.62890625,0.0
1733975364.6501353,-22.94921875,532.71484375,136.23046875,3.41796875,0.0
1733975364.654041,-2.9296875,196.77734375,-0.9765625,98.6328125,0.0
1733975364.6579466,-6.8359375,-249.0234375,-62.98828125,15.13671875,0.0
1733975364.6618521,-30.2734375,-90.33203125,24.90234375,-135.7421875,0.0
1733975364.665758,-41.015625,374.51171875,91.796875,-149.90234375,0.0
1733975364.6696634,-23.92578125,-97.65625,-119.140625,-20.99609375,0.0
1733975364.673569,-2.44140625,-652.83203125,-94.7265625,93.75,0.0
1733975364.6774747,-8.7890625,232.91015625,183.59375,37.59765625,0.0
1733975364.6813803,-34.66796875,453.125,11.23046875,-104.00390625,0.0
1733975364.6852808,-48.33984375,-3.90625,-111.81640625,-145.99609375,0.0
1733975364.6891863,-47.36328125,-112.79296875,-72.75390625,-47.36328125,0.0
1733975364.693092,-38.0859375,240.234375,12.6953125,70.80078125,0.0
1733975364.6969976,-31.25,485.3515625,19.04296875,43.9453125,0.0
1733975364.7009032,-41.9921875,131.8359375,-75.1953125,-102.5390625,0.0
1733975364.704809,-58.10546875,-158.69140625,-90.33203125,-152.34375,0.0
1733975364.7087145,-58.59375,-51.7578125,11.23046875,-56.640625,0.0
1733975364.71262,-48.33984375,268.06640625,60.05859375,45.8984375,0.0
1733975364.7165258,-30.76171875,-300.78125,-73.2421875,30.2734375,0.0
1733975364.7204313,-28.3203125,-284.66796875,47.36328125,-97.16796875,0.0
1733975364.7243369,-31.73828125,432.12890625,148.4375,-158.203125,0.0
1733975364.7282426,-23.4375,90.33203125,-16.6015625,-65.4296875,0.0
1733975364.732138,-16.11328125,-116.2109375,-33.69140625,56.640625,0.0
1733975364.7360437,-3.90625,397.4609375,114.74609375,58.59375,0.0
1733975364.7399492,-10.7421875,612.3046875,114.2578125,-50.78125,0.0
1733975364.7438548,-29.296875,4.8828125,-61.5234375,-128.41796875,0.0
1733975364.7477605,-21.97265625,-264.16015625,-50.78125,-68.359375,0.0
1733975364.751666,-1.953125,44.921875,93.75,67.3828125,0.0
1733975364.7555716,0.9765625,318.359375,148.92578125,85.9375,0.0
1733975364.7594774,-22.94921875,-96.19140625,-51.7578125,-52.734375,0.0
1733975364.763383,-36.1328125,-618.1640625,-93.26171875,-151.3671875,0.0
1733975364.7672884,-34.1796875,268.06640625,187.5,-96.6796875,0.0
1733975364.7711942,-23.4375,584.47265625,110.83984375,40.52734375,0.0
1733975364.7750998,-7.8125,312.98828125,58.10546875,91.30859375,0.0
1733975364.77899,-15.625,348.6328125,125.9765625,-14.16015625,0.0
1733975364.7828958,-24.90234375,252.9296875,60.546875,-123.046875,0.0
1733975364.7868013,-12.6953125,-62.01171875,-0.9765625,-71.77734375,0.0
1733975364.7907069,8.7890625,94.23828125,94.23828125,76.66015625,0.0
1733975364.7946126,21.484375,388.18359375,143.5546875,130.37109375,0.0
1733975364.7985182,13.18359375,186.5234375,71.2890625,16.6015625,0.0
1733975364.802424,3.90625,-78.125,16.11328125,-104.00390625,0.0
1733975364.8063295,0.48828125,-516.11328125,-27.83203125,-84.47265625,0.0
1733975364.810235,5.859375,-229.00390625,126.46484375,44.43359375,0.0
1733975364.8141408,7.8125,626.46484375,205.56640625,112.3046875,0.0
1733975364.8180463,-16.11328125,370.1171875,25.390625,7.32421875,0.0
1733975364.8219519,-36.62109375,73.2421875,-8.30078125,-132.32421875,0.0
1733975364.8258429,-43.9453125,352.05078125,0.0,0.0,0.0
1733975364.8297486,-31.73828125,591.796875,0.0,0.0,0.0
1733975364.8336542,-11.23046875,250.9765625,0.0,0.0,0.0
1733975364.8375597,-13.671875,-74.21875,0.0,0.0,0.0
1733975364.8414655,-34.66796875,289.0625,0.0,0.0,0.0
1733975364.845371,-36.1328125,239.74609375,0.0,0.0,0.0
1733975364.8492768,-16.6015625,-343.75,0.0,0.0,0.0
1733975364.8531823,-9.765625,-529.296875,0.0,0.0,0.0
1733975364.8570879,-2.9296875,312.98828125,0.0,0.0,0.0
1733975364.8609936,-1.46484375,339.35546875,0.0,0.0,0.0
1733975364.8648992,-22.4609375,-55.6640625,0.0,0.0,0.0
1733975364.8688047,-13.18359375,233.3984375,0.0,0.0,0.0
1733975364.8727016,0.0,626.46484375,120.60546875,115.72265625,0.0
1733975364.8766072,0.0,360.83984375,2.9296875,84.9609375,0.0
1733975364.8805127,0.0,-29.78515625,-35.64453125,-55.6640625,0.0
1733975364.8844185,0.0,242.67578125,75.68359375,-123.53515625,0.0
1733975364.888324,0.0,424.31640625,60.05859375,-28.3203125,0.0
1733975364.8922296,0.0,257.8125,2.9296875,110.3515625,0.0
1733975364.8961353,0.0,-429.6875,-77.1484375,100.5859375,0.0
1733975364.9000409,0.0,-342.7734375,21.97265625,-43.9453125,0.0
1733975364.9039466,0.0,465.33203125,138.671875,-126.953125,0.0
1733975364.9078522,0.0,333.984375,48.828125,-45.8984375,0.0
1733975364.9117577,0.0,191.89453125,30.2734375,83.49609375,0.0
1733975364.9156635,0.0,511.23046875,101.5625,102.5390625,0.0
1733975364.919535,10.25390625,443.359375,25.390625,-23.4375,0.0
1733975364.9234405,-19.04296875,-130.859375,-114.2578125,-134.27734375,0.0
1733975364.9273462,-32.2265625,-183.59375,-4.39453125,-79.1015625,0.0
1733975364.9312518,-14.6484375,464.35546875,188.4765625,58.10546875,0.0
1733975364.9351573,9.27734375,719.23828125,154.296875,106.4453125,0.0
1733975364.939063,2.9296875,13.671875,-102.5390625,-7.8125,0.0
1733975364.9429686,-18.06640625,-529.296875,-129.8828125,-123.53515625,0.0
1733975364.9468741,-21.97265625,146.97265625,157.71484375,-81.54296875,0.0
1733975364.95078,-4.8828125,672.36328125,287.109375,54.19921875,0.0
1733975364.9546854,14.6484375,149.90234375,343.26171875,107.421875,0.0
1733975364.958591,3.41796875,-50.29296875,401.85546875,8.30078125,0.0
1733975364.9624968,-2.44140625,513.18359375,464.84375,-102.5390625,0.0
1733975364.966407,-4.39453125,565.4296875,493.1640625,-73.2421875,0.0
1733975364.9703126,0.9765625,226.07421875,582.51953125,64.94140625,0.0
1733975364.9742184,20.5078125,265.13671875,653.3203125,123.046875,0.0
1733975364.978124,13.18359375,526.3671875,648.92578125,19.53125,0.0
1733975364.9820294,-7.32421875,253.90625,641.6015625,-101.5625,0.0
1733975364.9859352,-21.97265625,-64.94140625,656.73828125,-98.6328125,0.0
1733975364.9898407,-14.6484375,152.34375,698.2421875,28.3203125,0.0
1733975364.9937463,1.46484375,725.5859375,746.09375,114.74609375,0.0
1733975364.997652,16.6015625,679.19921875,744.140625,46.875,0.0
1733975365.0015576,42.96875,77.1484375,749.0234375,-64.453125,0.0
1733975365.0054631,28.80859375,322.75390625,792.48046875,-69.3359375,0.0
1733975365.009369,-7.32421875,961.9140625,787.59765625,33.203125,0.0
1733975365.0134685,0.0,684.08203125,0.0,122.55859375,0.0
1733975365.017374,0.0,323.2421875,0.0,72.75390625,0.0
1733975365.0212798,0.0,702.63671875,0.0,-62.5,0.0
1733975365.0251853,0.0,972.65625,0.0,-100.5859375,0.0
1733975365.029091,0.0,519.53125,0.0,17.08984375,0.0
1733975365.0329967,0.0,94.23828125,0.0,117.67578125,0.0
1733975365.0369022,0.0,481.93359375,0.0,76.171875,0.0
1733975365.0408077,0.0,648.92578125,0.0,-43.9453125,0.0
1733975365.0447135,0.0,69.82421875,0.0,-84.9609375,0.0
1733975365.048619,0.0,-38.0859375,0.0,23.92578125,0.0
1733975365.0525248,0.0,854.4921875,0.0,151.3671875,0.0
1733975365.0564303,0.0,988.76953125,0.0,125.48828125,0.0
1733975365.0603874,2.9296875,629.8828125,535.15625,-22.94921875,0.0
1733975365.0642931,-20.99609375,358.3984375,520.01953125,-85.9375,0.0
1733975365.0681987,21.97265625,595.703125,505.859375,37.59765625,0.0
1733975365.0721042,65.91796875,859.375,140.625,201.66015625,0.0
1733975365.07601,32.2265625,667.48046875,-364.2578125,161.62109375,0.0
1733975365.0799155,-23.4375,430.17578125,-374.51171875,-22.94921875,0.0
1733975365.083821,-28.80859375,476.5625,127.9296875,-92.7734375,0.0
1733975365.0877268,-21.484375,610.83984375,455.56640625,-21.97265625,0.0
1733975365.0916324,-11.71875,442.87109375,398.4375,88.8671875,0.0
1733975365.095538,-4.39453125,651.85546875,379.39453125,103.515625,0.0
1733975365.0994437,-20.01953125,615.72265625,350.5859375,-27.34375,0.0
1733975365.1033492,-35.15625,221.19140625,441.40625,-134.27734375,0.0
1733975365.1072474,0.0,188.4765625,641.6015625,-88.37890625,0.0
1733975365.111153,0.0,720.703125,871.09375,45.8984375,0.0
1733975365.1150584,0.0,-966.796875,908.203125,79.58984375,0.0
1733975365.1189642,0.0,550.29296875,675.78125,-47.36328125,0.0
1733975365.1228697,0.0,210.44921875,593.26171875,-150.390625,0.0
1733975365.1267753,0.0,379.8828125,616.2109375,-92.7734375,0.0
1733975365.130681,0.0,595.21484375,543.9453125,65.91796875,0.0
1733975365.1345866,0.0,433.10546875,435.546875,128.41796875,0.0
1733975365.138492,0.0,353.515625,468.26171875,9.765625,0.0
1733975365.1423979,0.0,843.26171875,500.48828125,-113.28125,0.0
1733975365.1463034,0.0,887.6953125,212.40234375,-93.75,0.0
1733975365.1502092,0.0,196.77734375,-288.57421875,63.4765625,0.0
1733975365.1540985,33.203125,-771.484375,-445.3125,160.64453125,0.0
1733975365.1580043,15.13671875,-202.1484375,-183.59375,60.05859375,0.0
1733975365.1619098,-9.765625,345.21484375,67.87109375,-70.80078125,0.0
1733975365.1658156,-17.08984375,368.65234375,316.89453125,-57.12890625,0.0
1733975365.1697211,0.0,772.94921875,323.2421875,91.30859375,0.0
1733975365.1736267,29.296875,698.73046875,312.5,192.3828125,0.0
1733975365.1775324,26.85546875,513.18359375,419.921875,134.765625,0.0
1733975365.181438,14.6484375,-3.41796875,475.09765625,31.25,0.0
1733975365.1853435,4.39453125,153.80859375,630.859375,10.25390625,0.0
1733975365.1892493,11.23046875,-973.6328125,751.953125,122.55859375,0.0
1733975365.1931548,26.85546875,809.5703125,714.84375,237.3046875,0.0
1733975365.1970603,28.3203125,564.94140625,701.171875,205.56640625,0.0
1733975365.2009468,-12.20703125,894.04296875,0.0,60.546875,0.0
1733975365.2048526,-44.921875,-986.328125,0.0,2.9296875,0.0
1733975365.208758,-14.16015625,747.55859375,0.0,128.41796875,0.0
1733975365.2126637,16.11328125,729.4921875,0.0,260.7421875,0.0
1733975365.2165694,6.8359375,809.5703125,0.0,216.796875,0.0
1733975365.220475,-21.97265625,635.7421875,0.0,53.7109375,0.0
1733975365.2243807,-23.4375,158.69140625,0.0,1.953125,0.0
1733975365.2282863,-10.25390625,-47.36328125,0.0,120.60546875,0.0
1733975365.2321918,2.44140625,800.78125,0.0,251.953125,0.0
1733975365.2360976,10.7421875,-980.46875,0.0,238.28125,0.0
1733975365.240003,24.4140625,758.30078125,0.0,126.46484375,0.0
1733975365.2439086,30.2734375,819.82421875,0.0,54.6875,0.0
1733975365.2477858,-16.6015625,-988.76953125,659.1796875,97.16796875,0.0
1733975365.2516913,-37.59765625,807.6171875,637.20703125,210.44921875,0.0
1733975365.255597,-13.18359375,672.8515625,531.25,215.8203125,0.0
1733975365.2595026,-20.01953125,904.296875,457.03125,90.33203125,0.0
1733975365.2634082,-19.53125,943.359375,498.53515625,3.41796875,0.0
1733975365.267314,0.0,815.91796875,743.65234375,66.40625,0.0
1733975365.2712195,32.71484375,265.625,921.38671875,237.79296875,0.0
1733975365.275125,12.20703125,346.19140625,891.11328125,250.9765625,0.0
1733975365.2790308,19.04296875,951.66015625,901.3671875,114.2578125,0.0
1733975365.2829363,25.87890625,929.19921875,916.50390625,17.08984375,0.0
1733975365.2868419,-55.6640625,888.671875,914.55078125,-0.48828125,0.0
1733975365.2907476,-78.61328125,953.125,918.45703125,112.79296875,0.0
1733975365.2946222,-49.8046875,977.5390625,923.828125,181.15234375,0.0
1733975365.2985277,-31.73828125,920.41015625,934.08203125,92.7734375,0.0
1733975365.3024333,-14.16015625,916.015625,947.265625,2.44140625,0.0
1733975365.306339,8.30078125,954.1015625,951.171875,51.26953125,0.0
1733975365.3102446,13.671875,993.65234375,945.80078125,169.43359375,0.0
1733975365.31415,-5.859375,786.1328125,942.87109375,200.68359375,0.0
1733975365.3180559,-0.48828125,681.640625,946.77734375,96.6796875,0.0
1733975365.3219614,-13.671875,974.12109375,945.3125,-26.85546875,0.0
1733975365.325867,-30.76171875,978.515625,944.82421875,-22.94921875,0.0
1733975365.3297727,10.25390625,940.4296875,937.01171875,113.76953125,0.0
1733975365.3336782,28.3203125,958.984375,926.7578125,203.61328125,0.0
1733975365.3375838,129.8828125,968.75,922.36328125,213.37890625,0.0
1733975365.3414958,166.50390625,967.28515625,922.8515625,131.34765625,0.0
1733975365.3454013,21.484375,967.28515625,919.921875,12.6953125,0.0
1733975365.349307,-15.625,967.28515625,915.0390625,97.16796875,0.0
1733975365.3532126,16.6015625,971.6796875,926.7578125,210.44921875,0.0
1733975365.3571181,17.08984375,966.796875,941.89453125,148.92578125,0.0
1733975365.361024,17.08984375,948.2421875,921.38671875,33.203125,0.0
1733975365.3649294,24.4140625,962.890625,910.15625,20.01953125,0.0
1733975365.368835,24.4140625,973.6328125,916.9921875,115.72265625,0.0
1733975365.3727407,49.31640625,966.30859375,906.25,229.00390625,0.0
1733975365.3766463,86.9140625,955.078125,900.87890625,221.6796875,0.0
1733975365.380552,87.890625,966.30859375,908.69140625,104.00390625,0.0
1733975365.3844576,70.3125,971.19140625,923.828125,62.5,0.0
1733975365.3884585,99.609375,968.26171875,0.0,175.78125,0.0
1733975365.392364,110.3515625,969.23828125,0.0,287.59765625,0.0
1733975365.3962696,60.05859375,969.23828125,0.0,227.5390625,0.0
1733975365.4001753,50.29296875,970.703125,0.0,104.4921875,0.0
1733975365.4040809,45.41015625,956.54296875,0.0,53.22265625,0.0
1733975365.4079864,48.828125,961.9140625,0.0,146.484375,0.0
1733975365.4118922,110.3515625,971.19140625,0.0,301.7578125,0.0
1733975365.4157977,166.015625,970.21484375,0.0,324.70703125,0.0
1733975365.4197035,167.48046875,959.9609375,0.0,220.21484375,0.0
1733975365.423609,177.24609375,956.0546875,0.0,169.43359375,0.0
1733975365.4275146,165.0390625,969.7265625,0.0,236.328125,0.0
1733975365.4314203,126.953125,969.7265625,0.0,333.0078125,0.0
1733975365.435318,172.8515625,969.23828125,-1000.0,372.0703125,0.0
1733975365.4392235,178.22265625,965.33203125,-969.7265625,267.578125,0.0
1733975365.4431293,133.7890625,967.7734375,-992.1875,157.2265625,0.0
1733975365.4470348,149.4140625,962.890625,-1000.0,233.88671875,0.0
1733975365.4509404,199.21875,947.265625,-1000.0,394.53125,0.0
1733975365.4548461,238.76953125,941.40625,-1000.0,446.2890625,0.0
1733975365.4587517,235.3515625,956.54296875,-1000.0,336.9140625,0.0
1733975365.4626572,215.8203125,839.35546875,-1000.0,227.05078125,0.0
1733975365.466563,236.328125,570.80078125,-1000.0,275.87890625,0.0
1733975365.4704685,326.171875,711.9140625,-1000.0,456.54296875,0.0
1733975365.4743743,448.73046875,-994.62890625,-1000.0,614.2578125,0.0
1733975365.4782798,334.9609375,549.31640625,-1000.0,431.15234375,0.0
1733975365.482269,107.91015625,-150.390625,-1000.0,122.55859375,0.0
1733975365.4861748,97.65625,-15.625,-1000.0,113.28125,0.0
1733975365.4900804,153.3203125,196.77734375,-1000.0,274.90234375,0.0
1733975365.493986,193.84765625,-122.55859375,-1000.0,386.71875,0.0
1733975365.4978917,214.84375,-686.5234375,-960.9375,329.58984375,0.0
1733975365.5017972,204.58984375,-612.3046875,-1000.0,208.0078125,0.0
1733975365.505703,212.40234375,-182.12890625,-857.421875,214.35546875,0.0
1733975365.5096085,226.5625,-334.9609375,247.55859375,338.8671875,0.0
1733975365.513514,222.65625,-596.19140625,873.046875,422.36328125,0.0
1733975365.5174198,240.234375,321.2890625,940.4296875,354.4921875,0.0
1733975365.5213253,249.0234375,537.59765625,291.50390625,230.95703125,0.0
1733975365.525231,274.90234375,110.3515625,-687.01171875,244.62890625,0.0
1733975365.5291164,322.265625,154.78515625,-977.5390625,381.34765625,0.0
1733975365.5330222,234.86328125,204.1015625,-985.3515625,406.73828125,0.0
1733975365.5369277,152.83203125,83.49609375,-83.0078125,287.109375,0.0
1733975365.5408332,138.18359375,179.19921875,871.09375,154.296875,0.0
1733975365.544739,107.91015625,358.3984375,838.8671875,108.3984375,0.0
1733975365.5486445,111.81640625,217.28515625,749.51171875,194.82421875,0.0
1733975365.55255,102.5390625,169.921875,875.0,281.25,0.0
1733975365.5564559,86.42578125,314.94140625,936.03515625,213.37890625,0.0
1733975365.5603614,60.546875,648.92578125,952.63671875,36.62109375,0.0
1733975365.5642672,33.69140625,988.76953125,972.16796875,-41.50390625,0.0
1733975365.5681727,46.38671875,822.75390625,968.26171875,59.5703125,0.0
1733975365.5720782,82.51953125,570.80078125,969.7265625,201.171875,0.0
1733975365.575959,153.80859375,881.8359375,969.7265625,245.1171875,0.0
1733975365.5798645,165.52734375,-970.21484375,969.23828125,133.7890625,0.0
1733975365.5837703,46.875,870.60546875,969.23828125,-21.97265625,0.0
1733975365.5876758,-49.31640625,749.0234375,969.23828125,-15.625,0.0
1733975365.5915816,-7.8125,943.359375,969.7265625,126.953125,0.0
1733975365.595487,56.640625,997.55859375,969.23828125,174.31640625,0.0
1733975365.5993927,52.734375,912.59765625,969.23828125,70.3125,0.0
1733975365.6032984,12.20703125,903.80859375,969.7265625,-15.625,0.0
1733975365.607204,24.4140625,971.6796875,969.7265625,40.0390625,0.0
1733975365.6111095,37.59765625,971.19140625,969.7265625,160.64453125,0.0
1733975365.6150153,18.5546875,967.28515625,969.23828125,186.5234375,0.0
1733975365.6189208,6.8359375,969.7265625,969.23828125,66.40625,0.0
1733975365.6227965,-3.90625,969.7265625,969.23828125,-36.1328125,0.0
1733975365.6267023,0.48828125,969.23828125,969.23828125,14.16015625,0.0
1733975365.6306078,20.99609375,969.23828125,968.75,161.1328125,0.0
1733975365.6345136,59.5703125,969.23828125,969.23828125,233.3984375,0.0
1733975365.6384192,88.37890625,969.7265625,968.75,161.1328125,0.0
1733975365.6423247,59.5703125,969.7265625,960.9375,36.1328125,0.0
1733975365.6462305,-15.625,966.796875,958.49609375,-9.765625,0.0
1733975365.650136,-36.62109375,968.75,957.51953125,103.02734375,0.0
1733975365.6540415,-16.11328125,969.7265625,949.70703125,167.96875,0.0
1733975365.6579473,10.25390625,969.23828125,949.21875,96.6796875,0.0
1733975365.6618528,51.7578125,969.7265625,944.82421875,37.109375,0.0
1733975365.6657584,25.390625,969.23828125,938.4765625,32.71484375,0.0
1733975365.6696312,0.0,969.7265625,947.75390625,108.3984375,0.0
1733975365.6735368,0.0,969.7265625,955.078125,188.4765625,0.0
1733975365.6774423,0.0,969.23828125,950.68359375,115.72265625,0.0
1733975365.681348,0.0,969.23828125,955.078125,5.37109375,0.0
1733975365.6852536,0.0,969.23828125,958.0078125,9.765625,0.0
1733975365.6891592,0.0,968.75,950.68359375,135.7421875,0.0
1733975365.693065,0.0,969.23828125,952.1484375,254.8828125,0.0
1733975365.6969705,0.0,969.7265625,940.91796875,189.94140625,0.0
1733975365.700876,0.0,969.7265625,865.72265625,3.41796875,0.0
1733975365.7047818,0.0,966.796875,833.984375,-30.76171875,0.0
1733975365.7086873,0.0,968.26171875,896.484375,98.14453125,0.0
1733975365.712593,0.0,970.21484375,933.10546875,220.21484375,0.0
1733975365.716418,-12.6953125,969.23828125,935.05859375,196.77734375,0.0
1733975365.7203238,20.99609375,969.23828125,919.921875,61.5234375,0.0
1733975365.7242293,39.0625,969.23828125,891.11328125,22.4609375,0.0
1733975365.728135,20.5078125,969.7265625,767.578125,140.13671875,0.0
1733975365.7320406,20.99609375,968.75,423.33984375,263.18359375,0.0
1733975365.7359462,35.64453125,964.35546875,542.96875,271.97265625,0.0
1733975365.739852,68.84765625,967.28515625,814.94140625,162.109375,0.0
1733975365.7437575,86.9140625,971.19140625,769.53125,87.890625,0.0
1733975365.747663,5.37109375,967.28515625,722.16796875,175.29296875,0.0
1733975365.7515688,-27.83203125,958.0078125,713.8671875,342.7734375,0.0
1733975365.7554743,9.765625,966.30859375,753.90625,352.05078125,0.0
1733975365.7593799,50.29296875,972.16796875,725.5859375,181.640625,0.0
1733975365.763384,130.859375,966.796875,805.6640625,105.95703125,0.0
1733975365.7672899,166.50390625,953.61328125,868.1640625,175.78125,0.0
1733975365.7711954,164.55078125,966.30859375,837.890625,276.3671875,0.0
1733975365.775101,194.3359375,972.16796875,885.25390625,306.15234375,0.0
1733975365.7790067,208.0078125,958.49609375,925.78125,187.5,0.0
1733975365.7829123,160.15625,962.890625,944.3359375,62.5,0.0
1733975365.786818,146.97265625,970.21484375,968.75,118.1640625,0.0
1733975365.7907236,149.4140625,971.6796875,952.63671875,233.3984375,0.0
1733975365.794629,123.53515625,956.0546875,944.82421875,231.93359375,0.0
1733975365.7985349,61.5234375,947.75390625,933.10546875,65.4296875,0.0
1733975365.8024404,25.87890625,969.23828125,922.36328125,-49.31640625,0.0
1733975365.806346,29.296875,969.7265625,929.6875,4.39453125,0.0
1733975365.8102489,6.8359375,968.75,924.8046875,98.6328125,0.0
1733975365.8141546,-23.92578125,968.26171875,862.79296875,116.69921875,0.0
1733975365.8180602,-47.36328125,968.75,816.89453125,0.48828125,0.0
1733975365.8219657,-57.6171875,965.33203125,630.859375,-95.21484375,0.0
1733975365.8258715,-40.52734375,951.66015625,-150.87890625,-61.5234375,0.0
1733975365.829777,-9.27734375,960.9375,-774.90234375,76.171875,0.0
1733975365.8336825,58.59375,974.609375,-734.86328125,210.9375,0.0
1733975365.8375883,94.7265625,962.890625,283.69140625,152.34375,0.0
1733975365.8414938,51.26953125,924.31640625,973.14453125,9.765625,0.0
1733975365.8453996,8.30078125,958.0078125,899.4140625,-5.859375,0.0
1733975365.8493052,-7.8125,978.515625,936.5234375,85.9375,0.0
1733975365.8532107,-13.18359375,959.9609375,949.70703125,148.4375,0.0
1733975365.857106,-18.06640625,947.265625,951.66015625,79.1015625,0.0
1733975365.8610115,-18.5546875,961.9140625,950.1953125,-24.90234375,0.0
1733975365.8649173,53.7109375,982.421875,941.40625,10.7421875,0.0
1733975365.8688228,52.734375,931.15234375,940.4296875,105.95703125,0.0
1733975365.8727283,-38.57421875,881.8359375,940.4296875,109.86328125,0.0
1733975365.8766341,-68.359375,956.54296875,853.02734375,18.06640625,0.0
1733975365.8805397,-82.51953125,991.2109375,830.078125,-109.375,0.0
1733975365.8844452,-106.4453125,898.92578125,921.875,-151.85546875,0.0
1733975365.888351,-92.7734375,856.4453125,940.4296875,-53.7109375,0.0
1733975365.8922565,-69.82421875,970.703125,930.17578125,63.96484375,0.0
1733975365.8961623,-70.80078125,973.6328125,946.77734375,39.55078125,0.0
1733975365.9000678,-76.171875,965.33203125,950.68359375,-100.5859375,0.0
1733975365.9040089,-83.49609375,970.703125,0.0,-157.71484375,0.0
1733975365.9079144,-64.94140625,969.23828125,0.0,-61.03515625,0.0
1733975365.9118202,-40.0390625,969.23828125,0.0,59.08203125,0.0
1733975365.9157257,-48.33984375,969.7265625,0.0,35.15625,0.0
1733975365.9196312,-54.6875,965.8203125,0.0,-81.54296875,0.0
1733975365.923537,-66.89453125,969.23828125,0.0,-131.8359375,0.0
1733975365.9274426,-39.55078125,968.75,0.0,-34.66796875,0.0
1733975365.9313483,8.7890625,889.16015625,0.0,96.19140625,0.0
1733975365.9352539,-9.765625,929.19921875,0.0,79.1015625,0.0
1733975365.9391594,-37.59765625,984.375,0.0,-49.8046875,0.0
1733975365.9430652,-44.921875,961.9140625,0.0,-120.60546875,0.0
1733975365.9469707,-40.52734375,965.33203125,0.0,-55.17578125,0.0
1733975365.9508548,-10.7421875,968.26171875,861.328125,70.80078125,0.0
1733975365.9547606,25.87890625,972.16796875,873.53515625,109.375,0.0
1733975365.958666,20.99609375,959.47265625,867.1875,10.25390625,0.0
1733975365.9625716,10.25390625,958.0078125,857.91015625,-87.890625,0.0
1733975365.9664774,0.9765625,966.30859375,866.2109375,-62.01171875,0.0
1733975365.970383,-1.953125,979.00390625,877.44140625,55.6640625,0.0
1733975365.9742885,34.66796875,888.18359375,863.28125,103.02734375,0.0
1733975365.9781942,29.78515625,895.01953125,861.81640625,9.765625,0.0
1733975365.9820998,-15.13671875,962.890625,879.39453125,-106.4453125,0.0
1733975365.9860053,-38.0859375,-989.74609375,882.32421875,-112.79296875,0.0
1733975365.989911,-33.69140625,765.625,887.20703125,7.32421875,0.0
1733975365.9938166,-13.671875,652.83203125,915.0390625,80.56640625,0.0
1733975365.997746,-12.6953125,982.421875,0.0,-4.39453125,0.0
1733975366.0016518,-4.39453125,965.8203125,0.0,-105.95703125,0.0
1733975366.0055573,-10.7421875,953.125,0.0,-91.796875,0.0
1733975366.0094628,-32.71484375,965.8203125,0.0,8.7890625,0.0
1733975366.0133686,-33.203125,941.40625,0.0,50.29296875,0.0
1733975366.0172741,-37.109375,-953.61328125,0.0,-38.57421875,0.0
1733975366.0211797,-53.22265625,393.5546875,0.0,-145.01953125,0.0
1733975366.0250854,-71.2890625,284.1796875,0.0,-134.765625,0.0
1733975366.028991,-68.359375,-966.30859375,0.0,-15.625,0.0
1733975366.0328965,-74.21875,877.44140625,0.0,62.98828125,0.0
1733975366.0368023,-108.88671875,600.5859375,0.0,-25.87890625,0.0
1733975366.0407078,-147.94921875,834.9609375,0.0,-181.640625,0.0
1733975366.0445828,-151.85546875,760.25390625,828.125,-211.9140625,0.0
1733975366.0484884,-123.53515625,485.3515625,812.98828125,-96.19140625,0.0
1733975366.0523942,-116.69921875,701.171875,791.50390625,6.34765625,0.0
1733975366.0562997,-126.46484375,956.0546875,802.734375,-56.15234375,0.0
1733975366.0602055,-140.625,970.703125,792.48046875,-203.61328125,0.0
1733975366.064111,-150.390625,372.0703125,750.0,-242.1875,0.0
1733975366.0680165,-164.55078125,221.6796875,754.8828125,-148.4375,0.0
1733975366.0719223,-173.828125,869.62890625,771.97265625,-52.24609375,0.0
1733975366.0758278,-166.015625,-895.99609375,774.4140625,-71.77734375,0.0
1733975366.0797334,-151.85546875,397.94921875,652.34375,-171.38671875,0.0
1733975366.0836391,-174.31640625,-177.24609375,625.9765625,-237.79296875,0.0
1733975366.0875447,-173.828125,692.3828125,660.15625,-158.203125,0.0
1733975366.091504,-126.46484375,946.2890625,551.26953125,-9.27734375,0.0
1733975366.0954096,-142.578125,473.6328125,481.93359375,-20.01953125,0.0
1733975366.0993152,-163.0859375,429.6875,416.9921875,-158.203125,0.0
1733975366.103221,-177.734375,489.2578125,353.515625,-236.81640625,0.0
1733975366.1071265,-192.3828125,479.98046875,387.20703125,-175.78125,0.0
1733975366.1110322,-165.52734375,378.90625,624.51171875,-60.05859375,0.0
1733975366.1149378,-170.41015625,446.77734375,846.6796875,-48.33984375,0.0
1733975366.1188433,-213.37890625,848.6328125,871.09375,-192.87109375,0.0
1733975366.122749,-246.58203125,668.9453125,855.95703125,-307.6171875,0.0
1733975366.1266546,-252.44140625,417.96875,884.27734375,-256.34765625,0.0
1733975366.1305602,-241.69921875,751.953125,928.7109375,-137.20703125,0.0
1733975366.134466,-233.3984375,-935.546875,909.1796875,-106.93359375,0.0
1733975366.1384265,-225.5859375,714.35546875,0.0,-212.890625,0.0
1733975366.142332,-214.35546875,119.140625,0.0,-311.5234375,0.0
1733975366.1462376,-215.33203125,568.84765625,0.0,-260.7421875,0.0
1733975366.1501434,-197.265625,-974.609375,0.0,-106.4453125,0.0
1733975366.154049,-167.96875,749.0234375,0.0,-45.41015625,0.0
1733975366.1579547,-183.10546875,388.671875,0.0,-158.69140625,0.0
1733975366.1618602,-212.890625,314.453125,0.0,-274.4140625,0.0
1733975366.1657658,-204.58984375,560.05859375,0.0,-227.05078125,0.0
1733975366.1696715,-180.6640625,410.15625,0.0,-85.44921875,0.0
1733975366.173577,-167.96875,447.75390625,0.0,-17.578125,0.0
1733975366.1774826,-155.2734375,897.4609375,0.0,-111.328125,0.0
1733975366.1813884,-159.66796875,939.453125,0.0,-224.12109375,0.0
1733975366.185294,-156.73828125,176.26953125,-483.3984375,-191.40625,0.0
1733975366.1891994,-127.9296875,-373.53515625,-535.64453125,-55.6640625,0.0
1733975366.1931052,-118.1640625,595.21484375,-511.23046875,20.99609375,0.0
1733975366.1970108,-107.91015625,907.71484375,-564.453125,-45.8984375,0.0
1733975366.2009163,-104.00390625,336.42578125,-558.59375,-176.7578125,0.0
1733975366.204822,-111.328125,114.74609375,-518.5546875,-184.5703125,0.0
1733975366.2087276,-99.609375,252.9296875,-436.03515625,-43.45703125,0.0
1733975366.2126331,-63.4765625,415.52734375,-329.1015625,67.87109375,0.0
1733975366.216539,-52.734375,343.26171875,-333.0078125,-0.9765625,0.0
1733975366.2204444,-73.2421875,255.37109375,-368.65234375,-152.83203125,0.0
1733975366.2243502,-65.4296875,392.08984375,-315.91796875,-154.78515625,0.0
1733975366.2282557,-43.45703125,500.9765625,-319.82421875,-25.390625,0.0
1733975366.2321496,-3.41796875,-67.87109375,-279.296875,100.5859375,0.0
1733975366.2360554,14.6484375,266.6015625,36.62109375,77.1484375,0.0
1733975366.239961,-1.46484375,855.46875,195.80078125,-59.08203125,0.0
1733975366.2438667,-13.671875,507.32421875,222.65625,-96.19140625,0.0
1733975366.2477722,-0.9765625,429.6875,393.06640625,16.11328125,0.0
1733975366.2516778,28.80859375,521.484375,654.296875,152.34375,0.0
1733975366.2555835,20.01953125,713.8671875,744.140625,122.55859375,0.0
1733975366.259489,10.25390625,402.83203125,717.7734375,-21.97265625,0.0
1733975366.2633946,4.8828125,-109.375,820.3125,-76.171875,0.0
1733975366.2673004,-19.04296875,694.82421875,929.6875,-0.48828125,0.0
1733975366.271206,30.2734375,-955.56640625,927.24609375,174.8046875,0.0
1733975366.2751114,84.47265625,691.40625,925.29296875,218.75,0.0
1733975366.2790022,59.5703125,630.859375,937.98828125,60.05859375,0.0
1733975366.2829077,0.48828125,762.6953125,953.61328125,-87.890625,0.0
1733975366.2868133,-53.7109375,802.734375,959.9609375,-70.3125,0.0
1733975366.290719,-61.03515625,934.08203125,955.56640625,59.08203125,0.0
1733975366.2946246,-85.44921875,950.1953125,942.3828125,56.15234375,0.0
1733975366.2985303,-120.60546875,920.41015625,936.03515625,-93.26171875,0.0
1733975366.3024359,-139.6484375,895.01953125,926.26953125,-217.28515625,0.0
1733975366.3063414,-160.64453125,681.15234375,874.51171875,-198.73046875,0.0
1733975366.3102472,-163.57421875,807.12890625,793.45703125,-82.03125,0.0
1733975366.3141527,-155.2734375,-971.6796875,715.8203125,-41.50390625,0.0
1733975366.3180583,-157.71484375,903.3203125,229.98046875,-141.11328125,0.0
1733975366.321964,-172.8515625,510.7421875,-667.48046875,-224.12109375,0.0
1733975366.325851,-139.6484375,728.515625,-346.6796875,0.0,0.0
1733975366.3297567,-103.515625,-972.65625,685.546875,0.0,0.0
1733975366.3336623,-85.9375,884.765625,628.41796875,0.0,0.0
1733975366.337568,-67.87109375,862.79296875,308.10546875,0.0,0.0
1733975366.3414736,-90.8203125,869.140625,-249.51171875,0.0,0.0
1733975366.345379,-115.234375,877.44140625,-704.1015625,0.0,0.0
1733975366.349285,-104.4921875,469.7265625,-799.8046875,0.0,0.0
1733975366.3531904,-97.16796875,229.00390625,-949.21875,0.0,0.0
1733975366.357096,-105.46875,862.79296875,-936.03515625,0.0,0.0
1733975366.3610017,-121.58203125,-998.53515625,-996.58203125,0.0,0.0
1733975366.3649073,-124.0234375,758.30078125,-996.09375,0.0,0.0
1733975366.3688128,-148.4375,824.70703125,-916.9921875,0.0,0.0
1733975366.37269,-136.71875,-989.2578125,-809.5703125,49.8046875,0.0
1733975366.3765955,-229.98046875,796.38671875,-761.71875,-100.5859375,0.0
1733975366.380501,-458.0078125,603.02734375,-674.31640625,-432.6171875,0.0
1733975366.3844068,-527.34375,845.703125,-465.8203125,-519.53125,0.0
1733975366.3883123,-540.0390625,929.19921875,-457.51953125,-421.38671875,0.0
1733975366.392218,-546.38671875,851.07421875,-521.97265625,-337.890625,0.0
1733975366.3961236,-518.5546875,24.4140625,-593.26171875,-373.046875,0.0
1733975366.4000292,-498.046875,-238.28125,-736.328125,-468.26171875,0.0
1733975366.403935,-524.90234375,634.27734375,-654.78515625,-529.296875,0.0
1733975366.4078405,-573.2421875,630.859375,-653.3203125,-472.65625,0.0
1733975366.411746,-574.21875,352.5390625,-804.6875,-380.859375,0.0
1733975366.4156518,-573.73046875,419.921875,-786.1328125,-430.6640625,0.0
1733975366.4195228,-577.63671875,623.046875,-702.63671875,-507.32421875,0.0
1733975366.4234285,-564.94140625,351.5625,-803.22265625,-540.0390625,0.0
1733975366.427334,-586.42578125,155.76171875,-778.80859375,-503.90625,0.0
1733975366.4312396,-578.125,528.3203125,-635.25390625,-380.859375,0.0
1733975366.4351454,-529.78515625,679.6875,-666.015625,-363.28125,0.0
1733975366.439051,-525.390625,3.41796875,-835.44921875,-491.2109375,0.0
1733975366.4429564,-544.921875,-502.44140625,-818.359375,-557.12890625,0.0
1733975366.4468622,-505.37109375,149.4140625,-606.93359375,-447.265625,0.0
1733975366.4507678,-464.84375,555.17578125,-658.69140625,-278.80859375,0.0
1733975366.4546735,-450.1953125,-92.7734375,-764.16015625,-243.65234375,0.0
1733975366.458579,-440.4296875,-622.0703125,-864.2578125,-366.2109375,0.0
1733975366.4624846,-447.75390625,-103.02734375,-960.44921875,-459.9609375,0.0
1733975366.4663975,0.0,80.56640625,-1000.0,-371.58203125,0.0
1733975366.470303,0.0,-349.609375,-996.58203125,-199.70703125,0.0
1733975366.4742088,0.0,-455.078125,-999.51171875,-165.0390625,0.0
1733975366.4781144,0.0,-162.109375,-1000.0,-265.625,0.0
1733975366.48202,0.0,-332.51953125,-1000.0,-355.95703125,0.0
1733975366.4859257,0.0,-843.75,-1000.0,-332.03125,0.0
1733975366.4898312,0.0,-895.5078125,-1000.0,-232.91015625,0.0
1733975366.493737,0.0,-610.83984375,-1000.0,-175.78125,0.0
1733975366.4976425,0.0,-787.59765625,-1000.0,-261.23046875,0.0
1733975366.501548,0.0,-992.1875,-1000.0,-357.421875,0.0
1733975366.5054538,0.0,-907.71484375,-1000.0,-288.0859375,0.0
1733975366.5093594,0.0,-825.1953125,-1000.0,-125.48828125,0.0
1733975366.5133152,-277.83203125,-896.97265625,-1000.0,-38.0859375,0.0
1733975366.5172207,-333.0078125,-1000.0,-1000.0,-119.140625,0.0
1733975366.5211265,-350.09765625,-980.95703125,-1000.0,-231.4453125,0.0
1733975366.525032,-302.24609375,-990.234375,-1000.0,-241.2109375,0.0
1733975366.5289376,-309.5703125,-999.51171875,-1000.0,-140.625,0.0
1733975366.5328434,-303.22265625,-1000.0,-1000.0,-26.85546875,0.0
1733975366.536749,-319.82421875,-1000.0,-1000.0,-90.33203125,0.0
1733975366.5406544,-338.37890625,-1000.0,-1000.0,-215.33203125,0.0
1733975366.5445602,-334.47265625,-1000.0,-1000.0,-192.3828125,0.0
1733975366.5484657,-329.1015625,-1000.0,-1000.0,-38.0859375,0.0
1733975366.5523715,-276.3671875,-1000.0,-1000.0,95.703125,0.0
1733975366.556277,-273.4375,-1000.0,-1000.0,37.59765625,0.0
1733975366.5601757,-301.26953125,-1000.0,-1000.0,-113.28125,0.0
1733975366.5640812,-282.71484375,-1000.0,-1000.0,-119.140625,0.0
1733975366.567987,-243.1640625,-1000.0,-1000.0,20.01953125,0.0
1733975366.5718925,-232.91015625,-1000.0,-1000.0,154.296875,0.0
1733975366.5757983,-212.890625,-1000.0,-1000.0,113.28125,0.0
1733975366.5797038,-203.125,-1000.0,-1000.0,-17.578125,0.0
1733975366.5836093,-221.6796875,-1000.0,-1000.0,-8.7890625,0.0
1733975366.587515,-179.6875,-1000.0,-1000.0,99.609375,0.0
1733975366.5914207,-153.80859375,-1000.0,-1000.0,215.8203125,0.0
1733975366.5953262,-169.43359375,-1000.0,-1000.0,229.00390625,0.0
1733975366.599232,-99.609375,-1000.0,-1000.0,104.4921875,0.0
1733975366.6031375,-31.25,-1000.0,-1000.0,20.99609375,0.0
1733975366.607079,0.0,-1000.0,-1000.0,116.2109375,0.0
1733975366.6109846,0.0,-1000.0,-1000.0,257.32421875,0.0
1733975366.6148903,0.0,-1000.0,-1000.0,245.1171875,0.0
1733975366.6187959,0.0,-1000.0,-1000.0,128.90625,0.0
1733975366.6227014,0.0,-1000.0,-1000.0,75.1953125,0.0
1733975366.6266072,0.0,-1000.0,-1000.0,163.0859375,0.0
1733975366.6305127,0.0,-1000.0,-1000.0,285.15625,0.0
1733975366.6344182,0.0,-1000.0,-1000.0,367.67578125,0.0
1733975366.638324,0.0,-1000.0,-1000.0,293.45703125,0.0
1733975366.6422296,0.0,-1000.0,-1000.0,150.390625,0.0
1733975366.6461353,0.0,-1000.0,-1000.0,200.1953125,0.0
1733975366.6500409,0.0,-1000.0,-1000.0,339.35546875,0.0
1733975366.6538968,-72.265625,-1000.0,-1000.0,358.3984375,0.0
1733975366.6578023,-68.84765625,-1000.0,-1000.0,260.25390625,0.0
1733975366.661708,-57.12890625,-1000.0,-1000.0,177.734375,0.0
1733975366.6656137,-148.4375,-1000.0,-1000.0,231.93359375,0.0
1733975366.6695192,-183.10546875,-1000.0,-1000.0,334.9609375,0.0
1733975366.673425,-161.1328125,-1000.0,-1000.0,387.6953125,0.0
1733975366.6773305,-104.4921875,-1000.0,-1000.0,315.91796875,0.0
1733975366.681236,-49.31640625,-1000.0,-1000.0,184.08203125,0.0
1733975366.6851418,-94.7265625,-1000.0,-1000.0,167.96875,0.0
1733975366.6890473,-130.37109375,-1000.0,-1000.0,288.0859375,0.0
1733975366.692953,-146.97265625,-1000.0,-1000.0,366.69921875,0.0
1733975366.6968586,-168.9453125,-1000.0,-1000.0,281.25,0.0
1733975366.7007418,-44.921875,-1000.0,-1000.0,150.87890625,0.0
1733975366.7046473,-75.1953125,-1000.0,-1000.0,135.7421875,0.0
1733975366.708553,-60.546875,-1000.0,-1000.0,260.7421875,0.0
1733975366.7124586,-2.44140625,-1000.0,-1000.0,366.69921875,0.0
1733975366.7163641,-18.06640625,-1000.0,-1000.0,291.9921875,0.0
1733975366.72027,-68.359375,-1000.0,-1000.0,143.5546875,0.0
1733975366.7241755,-56.640625,-1000.0,-1000.0,158.203125,0.0
1733975366.728081,-24.4140625,-1000.0,-1000.0,253.90625,0.0
1733975366.7319868,-16.11328125,-1000.0,-1000.0,314.453125,0.0
1733975366.7358923,5.859375,-1000.0,-1000.0,270.01953125,0.0
1733975366.739798,38.57421875,-1000.0,-1000.0,129.8828125,0.0
1733975366.7437036,68.359375,-1000.0,-1000.0,110.83984375,0.0
1733975366.747579,38.0859375,-1000.0,-1000.0,222.16796875,0.0
1733975366.7514846,52.24609375,-1000.0,-1000.0,321.77734375,0.0
1733975366.7553902,86.9140625,-1000.0,-1000.0,268.06640625,0.0
1733975366.759296,65.91796875,-1000.0,-1000.0,144.53125,0.0
1733975366.7632015,41.9921875,-1000.0,-1000.0,109.86328125,0.0
1733975366.767107,74.21875,-1000.0,-1000.0,199.21875,0.0
1733975366.7710128,101.5625,-1000.0,-1000.0,308.59375,0.0
1733975366.7749183,68.84765625,-1000.0,-1000.0,296.875,0.0
1733975366.778824,71.2890625,-1000.0,-1000.0,163.0859375,0.0
1733975366.7827296,55.6640625,-1000.0,-1000.0,94.23828125,0.0
1733975366.7866352,51.26953125,-1000.0,-1000.0,145.99609375,0.0
1733975366.790541,94.7265625,-1000.0,-1000.0,248.53515625,0.0
1733975366.7944117,107.421875,-1000.0,-1000.0,257.32421875,0.0
1733975366.7983172,101.07421875,-1000.0,-1000.0,155.2734375,0.0
1733975366.802223,85.9375,-1000.0,-1000.0,123.046875,0.0
1733975366.8061285,98.6328125,-1000.0,-1000.0,180.17578125,0.0
1733975366.810034,175.29296875,-1000.0,-1000.0,282.71484375,0.0
1733975366.8139398,179.6875,-1000.0,-1000.0,265.625,0.0
1733975366.8178453,108.88671875,-1000.0,-1000.0,139.6484375,0.0
1733975366.8217509,108.3984375,-1000.0,-1000.0,69.82421875,0.0
1733975366.8256567,92.7734375,-1000.0,-1000.0,100.5859375,0.0
1733975366.8295622,81.54296875,-1000.0,-1000.0,210.44921875,0.0
1733975366.8334677,83.49609375,-1000.0,-1000.0,240.234375,0.0
1733975366.8373735,97.16796875,-1000.0,-1000.0,139.16015625,0.0
1733975366.8412836,122.0703125,-1000.0,-1000.0,65.91796875,0.0
1733975366.845189,130.859375,-1000.0,-1000.0,86.9140625,0.0
1733975366.8490946,149.4140625,-1000.0,-1000.0,175.78125,0.0
1733975366.8530004,150.390625,-1000.0,-1000.0,230.95703125,0.0
1733975366.856906,101.07421875,-1000.0,-1000.0,149.90234375,0.0
1733975366.8608115,65.91796875,-1000.0,-1000.0,33.203125,0.0
1733975366.8647172,63.4765625,-1000.0,-1000.0,29.78515625,0.0
1733975366.8686228,48.33984375,-1000.0,-1000.0,100.5859375,0.0
1733975366.8725283,30.2734375,-1000.0,-1000.0,124.51171875,0.0
1733975366.876434,21.484375,-1000.0,-1000.0,52.24609375,0.0
1733975366.8803396,23.92578125,-1000.0,-1000.0,4.8828125,0.0
1733975366.8842452,21.484375,-1000.0,-1000.0,26.3671875,0.0
1733975366.8881521,-62.98828125,-1000.0,-1000.0,46.875,0.0
1733975366.8920577,-60.546875,-1000.0,-1000.0,122.55859375,0.0
1733975366.8959634,-0.9765625,-1000.0,-1000.0,108.88671875,0.0
1733975366.899869,-50.29296875,-1000.0,-1000.0,14.16015625,0.0
1733975366.9037747,-57.6171875,-999.51171875,-1000.0,-4.39453125,0.0
1733975366.9076803,-32.2265625,-1000.0,-1000.0,59.08203125,0.0
1733975366.9115858,-29.296875,-993.1640625,-1000.0,125.0,0.0
1733975366.9154916,-32.2265625,-970.703125,-1000.0,101.07421875,0.0
1733975366.919397,-27.83203125,-1000.0,-1000.0,12.20703125,0.0
1733975366.9233027,-37.59765625,-826.66015625,-1000.0,-39.0625,0.0
1733975366.9272084,-28.3203125,-492.1875,-1000.0,14.16015625,0.0
1733975366.931114,22.4609375,-751.953125,-1000.0,125.9765625,0.0
1733975366.9350133,-10.25390625,-107.91015625,-1000.0,82.51953125,0.0
1733975366.938919,-78.61328125,987.3046875,-1000.0,-82.03125,0.0
1733975366.9428246,-101.07421875,971.6796875,-1000.0,-126.953125,0.0
1733975366.9467301,-79.1015625,937.5,-1000.0,-53.7109375,0.0
1733975366.950636,-54.6875,976.07421875,-1000.0,49.31640625,0.0
1733975366.9545414,-92.28515625,953.125,-1000.0,52.24609375,0.0
1733975366.958447,-168.45703125,-995.1171875,-1000.0,-73.73046875,0.0
1733975366.9623528,-197.75390625,772.4609375,-1000.0,-149.4140625,0.0
1733975366.9662583,-201.66015625,601.07421875,-1000.0,-64.453125,0.0
1733975366.9701638,-158.69140625,806.640625,-1000.0,55.6640625,0.0
1733975366.9740696,-117.67578125,17.578125,-1000.0,54.6875,0.0
1733975366.9779751,-144.04296875,-900.87890625,-1000.0,-29.296875,0.0
1733975366.9818702,-171.38671875,-998.53515625,-1000.0,-87.40234375,0.0
1733975366.9857757,-142.08984375,-980.46875,-999.0234375,-56.15234375,0.0
1733975366.9896815,-112.3046875,-1000.0,-1000.0,51.26953125,0.0
1733975366.993587,-129.39453125,-1000.0,-999.0234375,81.54296875,0.0
1733975366.9974926,-121.58203125,-1000.0,-1000.0,18.06640625,0.0
1733975367.0013983,-106.4453125,-1000.0,-979.98046875,-64.453125,0.0
1733975367.0053039,-130.859375,-1000.0,-947.75390625,-72.265625,0.0
1733975367.0092094,-142.578125,-1000.0,-954.58984375,22.4609375,0.0
1733975367.0131152,-114.74609375,-1000.0,-904.78515625,111.328125,0.0
1733975367.0170207,-102.05078125,-1000.0,-826.66015625,53.7109375,0.0
1733975367.0209262,-95.703125,-1000.0,-816.40625,-43.9453125,0.0
1733975367.024832,-109.86328125,-1000.0,-779.78515625,-15.13671875,0.0
1733975367.0287201,-106.93359375,-1000.0,-741.69921875,109.375,0.0
1733975367.032626,-108.88671875,-1000.0,-742.1875,167.48046875,0.0
1733975367.0365314,-106.4453125,-1000.0,-730.95703125,95.703125,0.0
1733975367.0404372,-104.00390625,-1000.0,-703.61328125,29.296875,0.0
1733975367.0443428,-122.0703125,-1000.0,-674.8046875,26.3671875,0.0
1733975367.0482483,-96.6796875,-1000.0,-649.4140625,144.04296875,0.0
1733975367.052154,-56.640625,-1000.0,-644.04296875,221.19140625,0.0
1733975367.0560596,-79.1015625,-1000.0,-637.20703125,137.20703125,0.0
1733975367.0599651,-76.66015625,-1000.0,-567.87109375,29.78515625,0.0
1733975367.063871,-86.9140625,-1000.0,-559.5703125,24.90234375,0.0
1733975367.0677764,-115.234375,-1000.0,-581.0546875,118.65234375,0.0
1733975367.071682,-75.1953125,-1000.0,-567.87109375,207.51953125,0.0
1733975367.075564,-26.85546875,-1000.0,-533.203125,166.50390625,0.0
1733975367.0794694,-34.1796875,-1000.0,-533.203125,61.03515625,0.0
1733975367.0833752,-105.95703125,-1000.0,-536.62109375,8.30078125,0.0
1733975367.0872808,-117.1875,-1000.0,-452.63671875,78.125,0.0
1733975367.0911863,-54.19921875,-1000.0,-406.25,203.61328125,0.0
1733975367.095092,-16.11328125,-1000.0,-419.921875,186.5234375,0.0
1733975367.0989976,-36.1328125,-1000.0,-417.48046875,81.54296875,0.0
1733975367.1029031,-82.51953125,-1000.0,-302.734375,18.06640625,0.0
1733975367.106809,-81.54296875,-1000.0,-170.41015625,60.546875,0.0
1733975367.1107144,-69.3359375,-1000.0,-222.16796875,190.4296875,0.0
1733975367.11462,-26.85546875,-1000.0,-181.640625,168.9453125,0.0
1733975367.1185257,-23.92578125,-1000.0,-11.71875,13.671875,0.0
1733975367.1223998,-86.42578125,-1000.0,157.2265625,-31.25,0.0
1733975367.1263056,-73.2421875,-1000.0,228.02734375,38.0859375,0.0
1733975367.130211,-21.97265625,-1000.0,261.23046875,133.30078125,0.0
1733975367.1341166,-22.94921875,-1000.0,268.5546875,118.65234375,0.0
1733975367.1380224,-52.734375,-1000.0,281.25,-6.34765625,0.0
1733975367.141928,-74.21875,-1000.0,197.265625,-94.7265625,0.0
1733975367.1458335,-38.0859375,-992.67578125,41.9921875,-20.01953125,0.0
1733975367.1497393,-13.671875,-982.421875,147.94921875,111.81640625,0.0
1733975367.1536448,-64.453125,-966.796875,290.52734375,131.8359375,0.0
1733975367.1575503,-101.5625,-382.8125,155.76171875,28.3203125,0.0
1733975367.161456,-74.21875,611.328125,228.02734375,-52.734375,0.0
1733975367.1653616,-74.21875,980.95703125,612.3046875,4.39453125,0.0
1733975367.1692789,-109.375,948.2421875,767.08984375,121.09375,0.0
1733975367.1731844,-65.4296875,965.8203125,717.28515625,147.94921875,0.0
1733975367.1770902,-65.91796875,973.6328125,691.89453125,68.359375,0.0
1733975367.1809957,-98.14453125,956.0546875,715.8203125,-1.46484375,0.0
1733975367.1849012,-112.79296875,983.3984375,755.37109375,28.80859375,0.0
1733975367.188807,-98.14453125,880.37109375,746.09375,150.87890625,0.0
1733975367.1927125,-62.01171875,520.01953125,753.90625,229.00390625,0.0
1733975367.196618,-50.29296875,139.16015625,780.2734375,151.3671875,0.0
1733975367.2005239,-75.1953125,-172.8515625,739.74609375,48.33984375,0.0
1733975367.2044294,-121.58203125,-367.1875,694.82421875,66.89453125,0.0
1733975367.208335,-115.72265625,-214.84375,682.12890625,189.453125,0.0
1733975367.2122407,-98.6328125,37.59765625,668.9453125,243.65234375,0.0
1733975367.2162938,0.0,297.36328125,701.66015625,156.73828125,0.0
1733975367.2201996,0.0,748.046875,744.62890625,58.59375,0.0
1733975367.2241051,0.0,974.609375,748.53515625,73.2421875,0.0
1733975367.2280107,0.0,962.40234375,737.3046875,208.0078125,0.0
1733975367.2319164,0.0,965.33203125,710.9375,264.6484375,0.0
1733975367.235822,0.0,970.703125,676.7578125,173.33984375,0.0
1733975367.2397275,0.0,969.7265625,673.33984375,81.0546875,0.0
1733975367.2436333,0.0,969.23828125,588.8671875,78.125,0.0
1733975367.2475388,0.0,969.23828125,470.703125,165.0390625,0.0
1733975367.2514443,0.0,969.23828125,326.171875,261.23046875,0.0
1733975367.25535,0.0,969.23828125,259.765625,218.75,0.0
1733975367.2592556,0.0,969.23828125,187.98828125,128.90625,0.0
1733975367.2631688,-72.265625,969.23828125,-32.71484375,138.671875,0.0
1733975367.2670746,-81.0546875,969.23828125,-183.59375,207.03125,0.0
1733975367.2709801,-65.4296875,969.23828125,-210.44921875,270.5078125,0.0
1733975367.2748857,-10.7421875,969.7265625,-190.91796875,283.69140625,0.0
1733975367.2787914,-38.57421875,969.23828125,-209.47265625,175.29296875,0.0
1733975367.282697,-88.37890625,969.23828125,-310.05859375,109.86328125,0.0
1733975367.2866025,-83.0078125,969.23828125,-386.23046875,169.921875,0.0
1733975367.2905083,-51.7578125,969.23828125,-432.6171875,254.8828125,0.0
1733975367.2944138,-41.50390625,969.23828125,-420.41015625,238.76953125,0.0
1733975367.2983193,-85.9375,969.7265625,-418.45703125,144.53125,0.0
1733975367.302225,-84.9609375,969.7265625,-424.31640625,76.171875,0.0
1733975367.3061306,-66.89453125,969.23828125,-484.86328125,137.6953125,0.0
1733975367.3100302,-74.70703125,969.23828125,-471.19140625,243.1640625,0.0
1733975367.3139358,-54.6875,969.23828125,-310.05859375,247.55859375,0.0
1733975367.3178413,-66.89453125,969.23828125,-254.39453125,161.62109375,0.0
1733975367.321747,-96.6796875,969.7265625,-329.58984375,70.80078125,0.0
1733975367.3256526,-75.1953125,972.16796875,-394.53125,129.8828125,0.0
1733975367.3295581,-79.58984375,952.63671875,-362.3046875,243.1640625,0.0
1733975367.333464,-81.0546875,958.0078125,-388.18359375,248.53515625,0.0
1733975367.3373694,-68.84765625,935.546875,-450.1953125,160.64453125,0.0
1733975367.341275,-98.6328125,17.578125,-506.8359375,72.265625,0.0
1733975367.3451807,-110.83984375,-793.9453125,-446.2890625,101.5625,0.0
1733975367.3490863,-81.0546875,-746.58203125,-380.37109375,220.703125,0.0
1733975367.352992,-60.05859375,-929.19921875,-454.58984375,268.5546875,0.0
1733975367.356892,-41.015625,-1000.0,0.0,0.0,0.0
1733975367.3607976,-39.0625,-992.67578125,0.0,0.0,0.0
1733975367.3647034,-88.8671875,-1000.0,0.0,0.0,0.0
1733975367.368609,-112.79296875,-1000.0,0.0,0.0,0.0
1733975367.3725145,-70.3125,-1000.0,0.0,0.0,0.0
1733975367.3764203,-49.8046875,-1000.0,0.0,0.0,0.0
1733975367.3803258,-78.125,-1000.0,0.0,0.0,0.0
1733975367.3842313,-56.640625,-1000.0,0.0,0.0,0.0
1733975367.388137,-27.34375,-1000.0,0.0,0.0,0.0
1733975367.3920426,-44.921875,-1000.0,0.0,0.0,0.0
1733975367.3959482,-71.2890625,-1000.0,0.0,0.0,0.0
1733975367.399854,-48.828125,-1000.0,0.0,0.0,0.0
1733975367.4037437,-66.40625,-1000.0,-570.80078125,25.87890625,0.0
1733975367.4076495,-84.47265625,-1000.0,-567.87109375,114.74609375,0.0
1733975367.411555,-49.31640625,-1000.0,-554.19921875,196.77734375,0.0
1733975367.4154606,-61.5234375,-1000.0,-544.43359375,128.41796875,0.0
1733975367.4193664,-68.84765625,-1000.0,-562.5,-0.9765625,0.0
1733975367.423272,-65.4296875,-1000.0,-532.71484375,-13.18359375,0.0
1733975367.4271774,-82.51953125,-1000.0,-463.37890625,88.8671875,0.0
1733975367.4310832,-68.84765625,-1000.0,-443.359375,159.1796875,0.0
1733975367.4349887,-43.45703125,-1000.0,-340.8203125,84.9609375,0.0
1733975367.4388945,-62.98828125,-1000.0,-313.96484375,-13.18359375,0.0
1733975367.4428,-102.5390625,-1000.0,-348.14453125,-59.08203125,0.0
1733975367.4467056,-96.19140625,-1000.0,-305.17578125,-16.6015625,0.0
1733975367.4506361,-87.890625,-1000.0,-269.04296875,56.640625,0.0
1733975367.454542,-107.91015625,-1000.0,-277.83203125,33.203125,0.0
1733975367.4584475,-121.58203125,-1000.0,-335.9375,-80.078125,0.0
1733975367.462353,-128.90625,-1000.0,-341.796875,-143.5546875,0.0
1733975367.4662588,-132.8125,-1000.0,-289.0625,-61.5234375,0.0
1733975367.4701643,-89.35546875,-1000.0,-309.08203125,49.8046875,0.0
1733975367.4740698,-60.546875,-1000.0,-355.95703125,54.6875,0.0
1733975367.4779756,-100.5859375,-1000.0,-259.27734375,-30.2734375,0.0
1733975367.4818811,-136.23046875,-1000.0,-82.51953125,-91.30859375,0.0
1733975367.485787,-122.55859375,-1000.0,-100.5859375,-30.2734375,0.0
1733975367.4896924,-97.16796875,-1000.0,-156.25,75.68359375,0.0
1733975367.493598,-86.42578125,-1000.0,-202.1484375,83.49609375,0.0
1733975367.4974763,-98.14453125,-1000.0,-258.7890625,-17.08984375,0.0
1733975367.5013819,-86.9140625,-1000.0,-288.57421875,-89.35546875,0.0
1733975367.5052876,-68.359375,-1000.0,-302.734375,-36.1328125,0.0
1733975367.5091932,-86.9140625,-1000.0,-265.13671875,59.5703125,0.0
1733975367.5130987,-71.77734375,-1000.0,-238.76953125,78.125,0.0
1733975367.5170045,-36.62109375,-1000.0,-249.0234375,-9.27734375,0.0
1733975367.52091,-76.66015625,-1000.0,-206.0546875,-85.44921875,0.0
1733975367.5248156,-92.28515625,-1000.0,-144.53125,-62.98828125,0.0
1733975367.5287213,-62.01171875,-1000.0,-162.59765625,45.8984375,0.0
1733975367.5326269,-63.96484375,-1000.0,-252.9296875,104.4921875,0.0
1733975367.5365324,-64.94140625,-1000.0,-356.93359375,28.80859375,0.0
1733975367.5404382,-55.17578125,-1000.0,-317.3828125,-58.59375,0.0
1733975367.5444038,-43.9453125,-1000.0,-236.328125,-52.734375,0.0
1733975367.5483096,-27.34375,-1000.0,-288.0859375,36.1328125,0.0
1733975367.552215,-31.73828125,-1000.0,-264.6484375,100.5859375,0.0
1733975367.5561206,-34.66796875,-1000.0,-97.65625,36.62109375,0.0
1733975367.5600264,-32.71484375,-1000.0,8.7890625,-74.21875,0.0
1733975367.563932,-48.828125,-1000.0,30.76171875,-79.1015625,0.0
1733975367.5678375,-41.50390625,-1000.0,172.8515625,18.5546875,0.0
1733975367.5717432,-41.015625,-1000.0,368.1640625,72.75390625,0.0
1733975367.5756488,-53.22265625,-1000.0,432.6171875,12.20703125,0.0
1733975367.5795543,-43.45703125,-1000.0,385.7421875,-76.66015625,0.0
1733975367.58346,-32.2265625,-1000.0,333.984375,-91.796875,0.0
1733975367.5873656,-55.17578125,-1000.0,268.06640625,-22.4609375,0.0
1733975367.5914183,-51.26953125,-1000.0,355.95703125,43.45703125,0.0
1733975367.595324,-50.78125,-1000.0,530.2734375,-2.9296875,0.0
1733975367.5992296,-48.828125,-1000.0,502.9296875,-108.3984375,0.0
1733975367.603135,-41.015625,-1000.0,476.5625,-127.44140625,0.0
1733975367.607041,-51.26953125,-1000.0,435.546875,-44.43359375,0.0
1733975367.6109464,-50.29296875,-1000.0,376.953125,34.1796875,0.0
1733975367.6148522,-56.640625,-1000.0,350.09765625,10.25390625,0.0
1733975367.6187577,-49.8046875,-1000.0,315.91796875,-93.75,0.0
1733975367.6226633,-53.22265625,-1000.0,248.53515625,-131.34765625,0.0
1733975367.626569,-47.8515625,-1000.0,198.2421875,-64.94140625,0.0
1733975367.6304746,-51.26953125,-1000.0,174.31640625,-14.16015625,0.0
1733975367.63438,-88.37890625,-1000.0,165.0390625,-42.96875,0.0
1733975367.6382952,-74.21875,-1000.0,115.72265625,-147.4609375,0.0
1733975367.6422007,-79.1015625,-1000.0,88.37890625,-189.94140625,0.0
1733975367.6461065,-117.67578125,-1000.0,153.80859375,-133.30078125,0.0
1733975367.650012,-108.3984375,-1000.0,143.5546875,-53.7109375,0.0
1733975367.6539176,-81.0546875,-1000.0,128.41796875,-54.6875,0.0
1733975367.6578233,-83.0078125,-1000.0,124.51171875,-141.11328125,0.0
1733975367.6617289,-88.8671875,-1000.0,141.6015625,-202.1484375,0.0
1733975367.6656346,-69.82421875,-1000.0,148.92578125,-159.1796875,0.0
1733975367.6695402,-58.59375,-1000.0,106.93359375,-47.8515625,0.0
1733975367.6734457,-47.36328125,-1000.0,168.45703125,-31.73828125,0.0
1733975367.6773515,-56.15234375,-1000.0,212.890625,-127.9296875,0.0
1733975367.681257,-76.66015625,-1000.0,100.09765625,-201.171875,0.0
1733975367.6851594,-57.12890625,-1000.0,113.28125,-177.734375,0.0
1733975367.689065,-45.41015625,-1000.0,-175.78125,-74.21875,0.0
1733975367.6929708,-15.13671875,-1000.0,-790.52734375,-32.2265625,0.0
1733975367.6968763,-30.2734375,-1000.0,-856.93359375,-120.1171875,0.0
1733975367.7007818,-83.0078125,-1000.0,-707.51953125,-196.77734375,0.0
1733975367.7046876,-64.94140625,-1000.0,-673.828125,-166.015625,0.0
1733975367.7085931,-41.9921875,-1000.0,-626.46484375,-58.59375,0.0
1733975367.7124987,-21.484375,-1000.0,-584.9609375,-10.25390625,0.0
1733975367.7164044,-31.73828125,-1000.0,-600.09765625,-83.984375,0.0
1733975367.72031,-46.38671875,-1000.0,-541.9921875,-158.69140625,0.0
1733975367.7242157,-44.921875,-1000.0,-443.359375,-141.6015625,0.0
1733975367.7281213,-29.296875,-1000.0,-440.4296875,-50.29296875,0.0
1733975367.7320144,-7.8125,-1000.0,-440.91796875,-2.9296875,0.0
1733975367.73592,-37.109375,-990.234375,-280.76171875,-84.9609375,0.0
1733975367.7398257,-65.4296875,-977.5390625,-38.0859375,-189.453125,0.0
1733975367.7437313,-96.6796875,-1000.0,319.82421875,-215.8203125,0.0
1733975367.747637,-112.79296875,-279.78515625,750.48828125,-142.578125,0.0
1733975367.7515426,-81.54296875,785.64453125,904.78515625,-73.2421875,0.0
1733975367.755448,-64.94140625,984.86328125,910.15625,-152.83203125,0.0
1733975367.7593539,-112.3046875,941.89453125,901.85546875,-241.69921875,0.0
1733975367.7632594,-126.46484375,972.16796875,880.37109375,-258.30078125,0.0
1733975367.767165,-158.69140625,969.7265625,841.796875,-207.03125,0.0
1733975367.7710707,-162.109375,969.7265625,528.80859375,-131.34765625,0.0
1733975367.7749763,-119.140625,969.7265625,239.74609375,-168.45703125,0.0
1733975367.7788644,-116.69921875,969.23828125,498.046875,-254.8828125,0.0
1733975367.78277,-121.09375,969.23828125,601.5625,-288.57421875,0.0
1733975367.7866757,-107.91015625,969.23828125,420.8984375,-214.35546875,0.0
1733975367.7905812,-101.07421875,969.23828125,437.98828125,-122.55859375,0.0
1733975367.7944868,-99.12109375,969.23828125,472.16796875,-135.7421875,0.0
1733975367.7983925,-92.28515625,969.23828125,411.1328125,-223.6328125,0.0
1733975367.802298,-79.1015625,971.6796875,330.56640625,-260.25390625,0.0
1733975367.8062038,-60.546875,948.2421875,180.6640625,-187.01171875,0.0
1733975367.8101094,-54.19921875,981.93359375,114.2578125,-98.6328125,0.0
1733975367.814015,-46.875,812.5,12.20703125,-98.6328125,0.0
1733975367.8179207,-53.22265625,-10.25390625,-248.53515625,-208.984375,0.0
1733975367.8218262,-46.875,-770.5078125,-437.01171875,-270.5078125,0.0
1733975367.825711,-27.83203125,-973.6328125,-416.50390625,-218.26171875,0.0
1733975367.8296165,-25.390625,-990.72265625,-391.11328125,-125.0,0.0
1733975367.833522,-10.25390625,-998.046875,-447.75390625,-74.21875,0.0
1733975367.8374279,-33.203125,-1000.0,-494.140625,-158.203125,0.0
1733975367.8413334,-59.5703125,-1000.0,-513.671875,-225.09765625,0.0
1733975367.8452392,-38.0859375,-1000.0,-512.20703125,-155.76171875,0.0
1733975367.8491447,-31.73828125,-1000.0,-526.85546875,-62.98828125,0.0
1733975367.8530502,15.13671875,-1000.0,-539.0625,-48.828125,0.0
1733975367.856956,38.0859375,-1000.0,-502.9296875,-126.953125,0.0
1733975367.8608615,-43.45703125,-1000.0,-507.8125,-183.10546875,0.0
1733975367.864767,-47.36328125,-1000.0,-528.3203125,-167.96875,0.0
1733975367.8686728,-24.4140625,-1000.0,-580.56640625,-95.703125,0.0
1733975367.8725524,-26.3671875,-1000.0,-633.30078125,-56.15234375,0.0
1733975367.876458,-21.97265625,-1000.0,-671.38671875,-118.65234375,0.0
1733975367.8803637,-27.34375,-1000.0,-686.03515625,-200.1953125,0.0
1733975367.8842692,-43.9453125,-1000.0,-662.109375,-195.80078125,0.0
1733975367.888175,-49.31640625,-1000.0,-660.15625,-104.00390625,0.0
1733975367.8920805,-27.34375,-1000.0,-666.9921875,-43.45703125,0.0
1733975367.895986,1.953125,-1000.0,-636.23046875,-82.03125,0.0
1733975367.8998919,-30.76171875,-1000.0,-614.2578125,-181.640625,0.0
1733975367.9037974,-49.31640625,-1000.0,-607.91015625,-193.359375,0.0
1733975367.907703,-34.1796875,-1000.0,-624.0234375,-87.40234375,0.0
1733975367.9116087,-36.1328125,-1000.0,-643.06640625,-12.6953125,0.0
1733975367.9155142,-33.203125,-1000.0,-618.1640625,-59.08203125,0.0
1733975367.9193878,-13.671875,-1000.0,-624.51171875,-177.734375,0.0
1733975367.9232934,-20.5078125,-1000.0,-662.109375,-203.125,0.0
1733975367.927199,-52.734375,-1000.0,-642.08984375,-110.83984375,0.0
1733975367.9311047,-46.875,-1000.0,-597.65625,-15.625,0.0
1733975367.9350102,-21.97265625,-1000.0,-565.91796875,-34.1796875,0.0
1733975367.9389157,-31.73828125,-993.65234375,-579.1015625,-157.2265625,0.0
1733975367.9428215,-41.9921875,-1000.0,-549.31640625,-205.56640625,0.0
1733975367.946727,-57.12890625,-917.48046875,-451.66015625,-119.140625,0.0
1733975367.9506328,-56.15234375,-652.34375,-410.15625,-25.87890625,0.0
1733975367.9545383,-36.1328125,-679.6875,-400.390625,-34.66796875,0.0
1733975367.9584439,-36.1328125,-553.7109375,-300.29296875,-147.94921875,0.0
1733975367.9623497,-52.734375,-91.796875,-193.359375,-217.7734375,0.0
1733975367.9664,-53.22265625,76.171875,-191.89453125,-146.97265625,0.0
1733975367.9703057,-35.15625,-243.1640625,-221.19140625,-41.9921875,0.0
1733975367.9742112,-27.34375,-503.90625,-201.66015625,-51.7578125,0.0
1733975367.9781168,-44.921875,-538.0859375,-207.03125,-167.96875,0.0
1733975367.9820225,-73.2421875,-678.7109375,-278.3203125,-234.86328125,0.0
1733975367.985928,-70.80078125,-775.390625,-346.19140625,-173.33984375,0.0
1733975367.9898338,-49.8046875,-750.9765625,-376.953125,-66.89453125,0.0
1733975367.9937394,-40.0390625,-904.78515625,-412.109375,-40.52734375,0.0
1733975367.997645,-59.5703125,-1000.0,-458.0078125,-134.27734375,0.0
1733975368.0015507,-64.453125,-990.234375,-456.54296875,-229.98046875,0.0
1733975368.0054562,-37.59765625,-992.1875,-438.96484375,-197.265625,0.0
1733975368.0093617,-30.76171875,-1000.0,-472.65625,-74.21875,0.0
1733975368.0132737,-16.6015625,-1000.0,-507.8125,-18.06640625,0.0
1733975368.0171793,2.44140625,-1000.0,-349.12109375,-98.14453125,0.0
1733975368.021085,-4.39453125,-1000.0,-145.01953125,-186.5234375,0.0
1733975368.0249906,-6.8359375,-1000.0,-111.81640625,-168.45703125,0.0
1733975368.028896,-13.671875,-1000.0,-143.5546875,-53.7109375,0.0
1733975368.0328019,-30.76171875,-1000.0,-125.0,21.97265625,0.0
1733975368.0367074,-22.94921875,-1000.0,-100.09765625,-56.640625,0.0
1733975368.0406132,-32.71484375,-1000.0,-164.55078125,-158.69140625,0.0
1733975368.0445187,-44.921875,-1000.0,-218.75,-142.578125,0.0
1733975368.0484242,-37.109375,-1000.0,-188.4765625,-10.25390625,0.0
1733975368.05233,-18.06640625,-995.1171875,-220.703125,88.8671875,0.0
1733975368.0562356,-3.90625,-1000.0,-244.62890625,26.3671875,0.0
1733975368.0602746,-17.578125,-939.453125,-171.38671875,-95.21484375,0.0
1733975368.0641804,-22.94921875,-922.8515625,-54.19921875,-70.80078125,0.0
1733975368.068086,-21.97265625,-819.82421875,78.61328125,72.75390625,0.0
1733975368.0719914,3.41796875,-455.56640625,154.296875,128.90625,0.0
1733975368.0758972,25.390625,-381.8359375,183.10546875,41.50390625,0.0
1733975368.0798028,-6.8359375,-260.25390625,214.84375,-91.796875,0.0
1733975368.0837085,-27.83203125,45.41015625,253.41796875,-129.8828125,0.0
1733975368.087614,-12.6953125,-137.6953125,236.81640625,-57.6171875,0.0
1733975368.0915196,8.7890625,-776.85546875,167.48046875,20.01953125,0.0
1733975368.0954254,30.2734375,-1000.0,227.5390625,-20.5078125,0.0
1733975368.099331,20.5078125,-968.26171875,281.25,-159.1796875,0.0
1733975368.1032367,-19.04296875,-1000.0,219.23828125,-225.09765625,0.0
1733975368.1071374,-2.9296875,-903.80859375,354.98046875,-140.625,0.0
1733975368.111043,27.83203125,-569.82421875,524.4140625,-17.08984375,0.0
1733975368.1149485,40.52734375,-450.68359375,553.7109375,-31.25,0.0
1733975368.1188543,-3.41796875,-491.69921875,553.7109375,-154.78515625,0.0
1733975368.1227598,-12.20703125,-190.91796875,495.1171875,-208.49609375,0.0
1733975368.1266656,2.9296875,567.87109375,417.96875,-95.703125,0.0
1733975368.1305711,2.44140625,976.07421875,410.64453125,17.08984375,0.0
1733975368.1344767,13.18359375,956.54296875,447.75390625,8.30078125,0.0
1733975368.1383824,-10.25390625,962.40234375,609.375,-78.125,0.0
1733975368.142288,13.18359375,972.16796875,848.14453125,-122.55859375,0.0
1733975368.1461935,11.23046875,969.23828125,879.39453125,-3.41796875,0.0
1733975368.1500993,-2.44140625,969.7265625,842.7734375,136.23046875,0.0
1733975368.1539886,-0.9765625,969.23828125,823.2421875,159.1796875,0.0
1733975368.1578941,11.71875,969.23828125,796.875,115.72265625,0.0
1733975368.1617997,6.34765625,969.7265625,813.4765625,70.3125,0.0
1733975368.1657054,-44.921875,969.7265625,841.30859375,145.5078125,0.0
1733975368.169611,-36.1328125,969.7265625,877.44140625,284.66796875,0.0
1733975368.1735168,24.4140625,969.7265625,892.08984375,298.828125,0.0
1733975368.1774223,37.109375,969.23828125,892.578125,207.03125,0.0
1733975368.1813278,60.546875,969.23828125,878.41796875,159.66796875,0.0
1733975368.1852336,98.14453125,969.23828125,886.71875,252.44140625,0.0
1733975368.1891391,73.73046875,969.23828125,880.37109375,398.92578125,0.0
1733975368.1930447,33.203125,969.23828125,859.375,464.84375,0.0
1733975368.1969504,-10.25390625,969.23828125,846.19140625,391.6015625,0.0
1733975368.2008336,-22.94921875,969.7265625,774.90234375,317.87109375,0.0
1733975368.204739,17.578125,969.23828125,630.37109375,351.07421875,0.0
1733975368.2086446,-77.1484375,969.23828125,200.1953125,356.93359375,0.0
1733975368.2125504,-249.0234375,969.23828125,-328.61328125,249.0234375,0.0
1733975368.216456,-275.87890625,969.23828125,-587.40234375,107.421875,0.0
1733975368.2203617,-283.203125,969.23828125,-651.85546875,-1.953125,0.0
1733975368.2242672,-278.3203125,969.23828125,-648.4375,0.48828125,0.0
1733975368.2281728,-251.46484375,969.7265625,-687.98828125,100.5859375,0.0
1733975368.2320786,-247.55859375,969.7265625,-645.01953125,172.36328125,0.0
1733975368.235984,-216.30859375,969.23828125,-567.87109375,126.953125,0.0
1733975368.2398896,-191.40625,969.23828125,-548.33984375,45.8984375,0.0
1733975368.2437954,-197.265625,969.23828125,-469.7265625,52.24609375,0.0
1733975368.247672,-168.45703125,969.23828125,-397.94921875,174.31640625,0.0
1733975368.2515776,-155.76171875,969.23828125,-427.734375,224.609375,0.0
1733975368.2554832,-175.78125,969.23828125,-494.62890625,111.81640625,0.0
1733975368.259389,-225.5859375,969.23828125,-543.9453125,-59.5703125,0.0
1733975368.2632945,-266.11328125,969.23828125,-524.90234375,-115.72265625,0.0
1733975368.2672,-259.765625,969.23828125,-503.90625,-14.16015625,0.0
1733975368.2711058,-271.484375,969.23828125,-514.6484375,53.7109375,0.0
1733975368.2750113,-292.48046875,969.23828125,-460.9375,-30.2734375,0.0
1733975368.278917,-334.47265625,969.23828125,-420.8984375,-149.4140625,0.0
1733975368.2828226,-343.75,969.23828125,-369.140625,-171.875,0.0
1733975368.2867281,-361.328125,969.7265625,-349.609375,-169.43359375,0.0
1733975368.290634,-398.92578125,969.7265625,-339.35546875,-100.09765625,0.0
1733975368.2945068,-395.01953125,969.23828125,-305.6640625,-95.21484375,0.0
1733975368.2984126,-439.453125,969.23828125,-315.4296875,-196.2890625,0.0
1733975368.302318,-442.87109375,969.23828125,-284.1796875,-244.62890625,0.0
1733975368.3062236,-429.6875,969.23828125,-258.30078125,-161.1328125,0.0
1733975368.3101294,-418.9453125,969.23828125,-242.67578125,-26.85546875,0.0
1733975368.314035,-407.2265625,969.7265625,-13.671875,-38.57421875,0.0
1733975368.3179405,-431.15234375,969.7265625,228.515625,-152.83203125,0.0
1733975368.3218462,-429.6875,969.23828125,322.265625,-185.05859375,0.0
1733975368.3257518,-422.8515625,969.23828125,335.9375,-135.25390625,0.0
1733975368.3296573,-390.13671875,969.7265625,350.5859375,-44.921875,0.0
1733975368.333563,-366.69921875,969.23828125,535.15625,19.04296875,0.0
1733975368.3374686,-346.6796875,969.23828125,680.17578125,-32.2265625,0.0
1733975368.341428,-318.359375,969.23828125,643.5546875,-111.328125,0.0
1733975368.3453338,-348.6328125,969.23828125,606.4453125,-86.9140625,0.0
1733975368.3492393,-303.7109375,969.23828125,584.9609375,43.45703125,0.0
1733975368.353145,-211.42578125,969.23828125,565.4296875,108.3984375,0.0
1733975368.3570507,-251.953125,969.23828125,486.81640625,5.859375,0.0
1733975368.3609562,-291.50390625,969.7265625,415.0390625,-92.28515625,0.0
1733975368.3648617,-262.6953125,969.23828125,358.88671875,-86.9140625,0.0
1733975368.3687675,-242.1875,969.23828125,244.62890625,19.04296875,0.0
1733975368.372673,-232.91015625,969.23828125,222.16796875,77.63671875,0.0
1733975368.3765788,-199.21875,969.23828125,178.7109375,5.37109375,0.0
1733975368.3804843,-215.33203125,969.7265625,101.07421875,-80.56640625,0.0
1733975368.3843899,-240.72265625,969.23828125,76.171875,-54.6875,0.0
1733975368.3882957,-186.03515625,969.23828125,119.62890625,52.24609375,0.0
1733975368.3922014,-134.27734375,969.23828125,163.0859375,116.2109375,0.0
1733975368.396107,-129.8828125,969.23828125,119.140625,54.6875,0.0
1733975368.4000125,-129.39453125,969.23828125,-69.3359375,-61.03515625,0.0
1733975368.4039183,-130.859375,969.23828125,-210.44921875,-47.8515625,0.0
1733975368.4078238,-144.04296875,969.23828125,-239.74609375,57.6171875,0.0
1733975368.4117296,-133.7890625,969.23828125,-300.78125,109.375,0.0
1733975368.415635,-131.34765625,969.23828125,-412.59765625,63.4765625,0.0
1733975368.4195406,-136.71875,969.7265625,-504.39453125,-25.87890625,0.0
1733975368.4234464,-133.30078125,969.7265625,-558.10546875,-44.43359375,0.0
1733975368.427352,-146.484375,969.23828125,-568.359375,36.62109375,0.0
1733975368.4312575,-142.08984375,969.23828125,-553.7109375,118.65234375,0.0
1733975368.4351575,-125.0,969.7265625,-604.4921875,82.51953125,0.0
1733975368.4390633,-123.046875,969.7265625,-612.3046875,-43.9453125,0.0
1733975368.4429688,-140.625,969.23828125,-667.96875,-120.1171875,0.0
1733975368.4468746,-156.73828125,969.23828125,-767.08984375,-70.80078125,0.0
1733975368.4507802,-140.625,969.23828125,-765.13671875,3.41796875,0.0
1733975368.4546857,-125.0,969.23828125,-747.55859375,-46.875,0.0
1733975368.4585915,-153.3203125,969.23828125,-706.0546875,-182.12890625,0.0
1733975368.462497,-169.43359375,969.7265625,-638.671875,-236.328125,0.0
1733975368.4664025,-147.4609375,969.23828125,-578.61328125,-207.03125,0.0
1733975368.4703083,-116.2109375,969.23828125,-485.83984375,-136.71875,0.0
1733975368.4742138,-78.125,969.23828125,-465.8203125,-138.671875,0.0
1733975368.4781196,-54.6875,969.23828125,-549.31640625,-251.46484375,0.0
1733975368.482061,-62.5,969.23828125,-560.546875,-320.3125,0.0
1733975368.4859664,-89.35546875,969.23828125,-485.83984375,-255.859375,0.0
1733975368.4898722,-83.49609375,969.23828125,-451.171875,-126.46484375,0.0
1733975368.4937778,-82.51953125,969.23828125,-419.921875,-106.4453125,0.0
1733975368.4976835,-98.6328125,969.23828125,-366.2109375,-200.1953125,0.0
1733975368.501589,-128.41796875,969.23828125,-333.49609375,-240.72265625,0.0
1733975368.5054946,-184.5703125,969.23828125,-261.23046875,-177.24609375,0.0
1733975368.5094004,-177.24609375,969.23828125,-176.26953125,-64.94140625,0.0
1733975368.513306,-137.6953125,969.23828125,-129.39453125,-6.34765625,0.0
1733975368.5172114,-139.6484375,969.23828125,-90.33203125,-71.77734375,0.0
1733975368.5211172,-156.25,969.23828125,-88.37890625,-134.27734375,0.0
1733975368.5250227,-146.484375,969.23828125,-60.546875,-109.375,0.0
1733975368.5289102,-138.671875,969.23828125,-13.18359375,-7.32421875,0.0
1733975368.5328157,-110.3515625,969.23828125,78.125,24.90234375,0.0
1733975368.5367215,-93.26171875,969.23828125,253.41796875,-86.9140625,0.0
1733975368.540627,-154.78515625,969.23828125,365.72265625,-152.34375,0.0
1733975368.5445328,-159.1796875,969.23828125,389.6484375,-129.8828125,0.0
1733975368.5484383,-101.07421875,969.23828125,370.1171875,-36.1328125,0.0
1733975368.5523438,-78.61328125,969.23828125,357.91015625,47.36328125,0.0
1733975368.5562496,-90.33203125,969.23828125,391.6015625,-21.484375,0.0
1733975368.5601552,-148.92578125,969.7265625,398.92578125,-168.45703125,0.0
1733975368.564061,-187.01171875,969.7265625,427.734375,-173.828125,0.0
1733975368.5679665,-171.875,969.23828125,492.67578125,-66.40625,0.0
1733975368.571872,-164.0625,969.23828125,537.109375,-17.08984375,0.0
1733975368.575755,-198.2421875,969.23828125,595.21484375,-79.1015625,0.0
1733975368.5796607,-246.58203125,969.7265625,595.703125,-176.26953125,0.0
1733975368.5835662,-258.7890625,968.26171875,524.90234375,-190.4296875,0.0
1733975368.587472,-233.88671875,966.30859375,499.51171875,-87.40234375,0.0
1733975368.5913775,-205.56640625,970.21484375,520.5078125,-7.32421875,0.0
1733975368.595283,-211.9140625,904.296875,501.953125,-47.8515625,0.0
1733975368.5991888,-228.515625,717.7734375,449.70703125,-126.46484375,0.0
1733975368.6030943,-235.83984375,645.5078125,461.9140625,-160.15625,0.0
1733975368.6069999,-219.23828125,685.05859375,485.83984375,-88.8671875,0.0
1733975368.6109056,-187.5,611.81640625,383.7890625,-2.44140625,0.0
1733975368.6148112,-175.29296875,528.80859375,317.87109375,-37.109375,0.0
1733975368.618717,-180.17578125,441.89453125,300.29296875,-140.625,0.0
1733975368.6225963,-195.3125,305.17578125,259.765625,-183.10546875,0.0
1733975368.6265018,-201.66015625,175.78125,224.12109375,-120.60546875,0.0
1733975368.6304076,-169.43359375,126.46484375,213.37890625,-34.66796875,0.0
1733975368.634313,-146.484375,78.125,223.6328125,-47.8515625,0.0
1733975368.6382186,-173.828125,-23.92578125,199.21875,-148.92578125,0.0
1733975368.6421244,-216.30859375,-95.21484375,142.578125,-208.984375,0.0
1733975368.64603,-244.62890625,-152.34375,76.171875,-162.59765625,0.0
1733975368.6499355,-236.81640625,-185.546875,14.6484375,-67.87109375,0.0
1733975368.6538413,-194.82421875,-229.98046875,-85.9375,-42.48046875,0.0
1733975368.6577468,-193.359375,-258.30078125,-176.7578125,-127.44140625,0.0
1733975368.6616526,-229.00390625,-220.21484375,-177.734375,-211.42578125,0.0
1733975368.665558,-229.4921875,-244.140625,-163.57421875,-191.40625,0.0
1733975368.6694303,-235.3515625,-360.83984375,-184.5703125,-129.8828125,0.0
1733975368.673336,-277.34375,-512.20703125,-225.5859375,-140.13671875,0.0
1733975368.6772416,-287.59765625,-614.2578125,-250.9765625,-223.6328125,0.0
1733975368.681147,-258.7890625,-646.484375,-235.3515625,-289.0625,0.0
1733975368.6850529,-253.41796875,-690.91796875,-223.6328125,-292.96875,0.0
1733975368.6889584,-282.71484375,-773.92578125,-282.2265625,-243.65234375,0.0
1733975368.6928642,-289.0625,-780.2734375,-318.359375,-225.5859375,0.0
1733975368.6967697,-312.98828125,-761.71875,-302.734375,-326.66015625,0.0
1733975368.7006752,-355.46875,-847.16796875,-305.6640625,-455.56640625,0.0
1733975368.704581,-366.2109375,-899.4140625,-272.94921875,-467.28515625,0.0
1733975368.7084866,-366.2109375,-914.0625,-221.19140625,-379.39453125,0.0
1733975368.712392,-403.80859375,-960.44921875,-171.38671875,-354.98046875,0.0
1733975368.7163954,-416.50390625,-997.0703125,0.0,-414.0625,0.0
1733975368.720301,-407.2265625,-999.51171875,0.0,-471.6796875,0.0
1733975368.7242064,-400.390625,-1000.0,0.0,-467.28515625,0.0
1733975368.7281122,-432.12890625,-1000.0,0.0,-402.83203125,0.0
1733975368.7320178,-466.796875,-1000.0,0.0,-380.37109375,0.0
1733975368.7359235,-434.08203125,-1000.0,0.0,-442.3828125,0.0
1733975368.739829,-403.3203125,-1000.0,0.0,-502.44140625,0.0
1733975368.7437346,-407.71484375,-1000.0,0.0,-507.8125,0.0
1733975368.7476404,-400.87890625,-1000.0,0.0,-435.05859375,0.0
1733975368.751546,-379.8828125,-1000.0,0.0,-335.44921875,0.0
1733975368.7554514,-356.93359375,-1000.0,0.0,-367.67578125,0.0
1733975368.7593572,-373.53515625,-1000.0,0.0,-446.77734375,0.0
1733975368.7632623,-379.8828125,-1000.0,-419.921875,-459.47265625,0.0
1733975368.7671678,-346.6796875,-1000.0,-426.7578125,-396.484375,0.0
1733975368.7710736,-305.17578125,-1000.0,-419.43359375,-308.10546875,0.0
1733975368.774979,-305.6640625,-1000.0,-432.12890625,-314.453125,0.0
1733975368.7788846,-303.7109375,-1000.0,-472.16796875,-389.6484375,0.0
1733975368.7827904,-280.76171875,-1000.0,-472.16796875,-412.59765625,0.0
1733975368.786696,-298.33984375,-1000.0,-445.3125,-356.93359375,0.0
1733975368.7906017,-302.734375,-1000.0,-464.35546875,-272.4609375,0.0
1733975368.7945073,-276.85546875,-1000.0,-502.44140625,-277.83203125,0.0
1733975368.7984128,-301.7578125,-1000.0,-514.16015625,-360.83984375,0.0
1733975368.8023186,-286.1328125,-1000.0,-517.578125,-398.92578125,0.0
1733975368.806224,-253.41796875,-1000.0,-527.83203125,-331.0546875,0.0
1733975368.8101254,-252.44140625,-1000.0,-524.90234375,-226.5625,0.0
1733975368.8140311,-242.1875,-1000.0,-524.90234375,-229.00390625,0.0
1733975368.8179367,-260.25390625,-1000.0,-531.25,-325.1953125,0.0
1733975368.8218424,-279.296875,-1000.0,-504.8828125,-379.8828125,0.0
1733975368.825748,-283.69140625,-1000.0,-489.2578125,-317.87109375,0.0
1733975368.8296535,-259.27734375,-1000.0,-470.703125,-230.46875,0.0
1733975368.8335593,-265.13671875,-1000.0,-446.2890625,-238.76953125,0.0
1733975368.8374648,-284.66796875,-1000.0,-468.75,-336.42578125,0.0
1733975368.8413703,-299.31640625,-1000.0,-492.1875,-411.1328125,0.0
1733975368.845276,-313.4765625,-1000.0,-470.21484375,-386.71875,0.0
1733975368.8491817,-305.17578125,-1000.0,-451.66015625,-299.8046875,0.0
1733975368.8530874,-277.34375,-1000.0,-454.1015625,-267.578125,0.0
1733975368.8570297,-276.85546875,-1000.0,-458.49609375,-337.890625,0.0
1733975368.8609352,-310.546875,-1000.0,-439.94140625,-409.1796875,0.0
1733975368.8648407,-311.03515625,-1000.0,-435.05859375,-384.27734375,0.0
1733975368.8687465,-257.8125,-1000.0,-454.1015625,-272.4609375,0.0
1733975368.872652,-220.703125,-997.0703125,-456.54296875,-237.3046875,0.0
1733975368.8765578,-250.48828125,-1000.0,-454.58984375,-325.68359375,0.0
1733975368.8804634,-304.6875,-935.546875,-416.015625,-414.0625,0.0
1733975368.884369,-321.2890625,-809.08203125,-390.13671875,-402.83203125,0.0
1733975368.8882747,-336.9140625,-697.265625,-386.23046875,-343.26171875,0.0
1733975368.8921802,-379.39453125,-581.54296875,-364.2578125,-338.37890625,0.0
1733975368.8960857,-405.76171875,-568.359375,-337.890625,-393.5546875,0.0
1733975368.8999915,-394.04296875,-586.42578125,-306.640625,-479.4921875,0.0
1733975368.9038806,-424.31640625,-535.64453125,-319.82421875,-498.53515625,0.0
1733975368.9077861,-474.12109375,-506.34765625,-327.63671875,-435.05859375,0.0
1733975368.911692,-440.91796875,-534.1796875,-278.80859375,-380.37109375,0.0
1733975368.9155974,-439.94140625,-592.28515625,-256.34765625,-416.50390625,0.0
1733975368.9195032,-453.61328125,-630.37109375,-276.3671875,-497.0703125,0.0
1733975368.9234087,-417.96875,-615.72265625,-289.0625,-495.60546875,0.0
1733975368.9273143,-388.18359375,-604.00390625,-287.59765625,-401.85546875,0.0
1733975368.93122,-389.6484375,-591.796875,-279.296875,-330.078125,0.0
1733975368.9351256,-393.06640625,-584.47265625,-280.76171875,-380.37109375,0.0
1733975368.9390311,-390.13671875,-634.765625,-293.45703125,-455.078125,0.0
1733975368.942937,-358.88671875,-686.03515625,-298.828125,-433.59375,0.0
1733975368.9468424,-323.73046875,-688.96484375,-310.546875,-340.33203125,0.0
1733975368.950771,-293.9453125,-629.39453125,-334.9609375,-240.72265625,0.0
1733975368.9546769,-259.27734375,-606.4453125,-374.51171875,-240.72265625,0.0
1733975368.9585824,-265.625,-602.5390625,-409.1796875,-325.1953125,0.0
1733975368.962488,-288.0859375,-577.1484375,-418.45703125,-360.3515625,0.0
1733975368.9663937,-269.53125,-578.125,-433.10546875,-302.24609375,0.0
1733975368.9702992,-254.39453125,-592.28515625,-471.19140625,-226.07421875,0.0
1733975368.974205,-240.72265625,-634.765625,-515.13671875,-220.703125,0.0
1733975368.9781106,-226.5625,-653.3203125,-533.203125,-289.0625,0.0
1733975368.982016,-249.51171875,-614.74609375,-504.8828125,-337.890625,0.0
1733975368.9859219,-245.1171875,-636.23046875,-513.18359375,-291.50390625,0.0
1733975368.9898274,-232.421875,-653.80859375,-537.59765625,-202.63671875,0.0
1733975368.9937332,-244.62890625,-638.671875,-536.1328125,-186.03515625,0.0
1733975368.997615,-251.953125,-654.296875,-545.8984375,-273.92578125,0.0
1733975369.0015206,-258.7890625,-677.734375,-560.546875,-334.47265625,0.0
1733975369.0054262,-264.16015625,-646.484375,-541.50390625,-279.78515625,0.0
1733975369.009332,-240.234375,-617.1875,-525.87890625,-194.3359375,0.0
1733975369.0132375,-190.91796875,-641.6015625,-542.48046875,-175.29296875,0.0
1733975369.0171432,-201.66015625,-661.1328125,-552.24609375,-229.00390625,0.0
1733975369.0210488,-235.83984375,-627.9296875,-538.57421875,-289.55078125,0.0
1733975369.0249543,-225.5859375,-604.98046875,-519.53125,-264.6484375,0.0
1733975369.02886,-209.47265625,-592.7734375,-506.8359375,-170.8984375,0.0
1733975369.0327656,-187.5,-605.95703125,-511.71875,-130.37109375,0.0
1733975369.0366712,-183.10546875,-610.83984375,-517.578125,-185.546875,0.0
1733975369.040577,-202.63671875,-553.22265625,-500.48828125,-274.4140625,0.0
1733975369.0444505,-211.42578125,-535.64453125,-489.74609375,-265.625,0.0
1733975369.048356,-191.89453125,-559.5703125,-511.23046875,-162.109375,0.0
1733975369.0522618,-173.828125,-563.96484375,-543.9453125,-119.62890625,0.0
1733975369.0561674,-175.78125,-557.12890625,-557.6171875,-186.03515625,0.0
1733975369.060073,-188.96484375,-557.12890625,-556.15234375,-254.39453125,0.0
1733975369.0639787,-193.84765625,-570.3125,-548.828125,-247.55859375,0.0
1733975369.0678842,-193.359375,-562.5,-533.69140625,-181.15234375,0.0
1733975369.07179,-179.19921875,-539.55078125,-506.34765625,-141.6015625,0.0
1733975369.0756955,-189.94140625,-568.359375,-518.5546875,-204.58984375,0.0
1733975369.079601,-216.796875,-594.23828125,-536.1328125,-297.36328125,0.0
1733975369.0835068,-222.65625,-574.21875,-528.80859375,-316.40625,0.0
1733975369.0874124,-212.40234375,-545.8984375,-521.97265625,-249.0234375,0.0
1733975369.0913277,-199.70703125,-555.6640625,-525.390625,-182.12890625,0.0
1733975369.0952332,-199.21875,-576.66015625,-527.34375,-220.21484375,0.0
1733975369.0991387,-201.171875,-571.77734375,-521.484375,-322.75390625,0.0
1733975369.1030445,-209.47265625,-562.98828125,-512.6953125,-351.07421875,0.0
1733975369.10695,-197.265625,-583.49609375,-505.859375,-272.94921875,0.0
1733975369.1108558,-164.55078125,-598.6328125,-495.60546875,-190.4296875,0.0
1733975369.1147614,-166.015625,-583.49609375,-491.2109375,-231.4453125,0.0
1733975369.118667,-185.05859375,-573.2421875,-492.1875,-334.9609375,0.0
1733975369.1225727,-204.58984375,-575.1953125,-475.5859375,-354.98046875,0.0
1733975369.1264782,-205.078125,-587.40234375,-461.42578125,-289.0625,0.0
1733975369.1303837,-200.1953125,-559.5703125,-450.1953125,-202.1484375,0.0
1733975369.1342895,-208.0078125,-532.71484375,-444.82421875,-192.87109375,0.0
1733975369.1381967,-213.8671875,-557.12890625,-443.359375,-258.30078125,0.0
1733975369.1421025,-226.5625,-569.3359375,-438.96484375,-302.734375,0.0
1733975369.146008,-230.46875,-535.64453125,-426.7578125,-255.37109375,0.0
1733975369.1499135,-210.9375,-532.71484375,-411.62109375,-160.64453125,0.0
1733975369.1538193,-207.51953125,-584.9609375,-409.1796875,-169.43359375,0.0
1733975369.1577249,-217.7734375,-613.28125,-412.109375,-262.6953125,0.0
1733975369.1616304,-223.14453125,-582.51953125,-391.6015625,-322.265625,0.0
1733975369.1655362,-223.6328125,-596.6796875,-393.06640625,-295.41015625,0.0
1733975369.1694417,-208.984375,-644.53125,-414.0625,-205.078125,0.0
1733975369.1733475,-180.6640625,-629.8828125,-399.90234375,-197.265625,0.0
1733975369.177253,-196.2890625,-622.0703125,-354.98046875,-310.546875,0.0
1733975369.1811585,-222.65625,-684.08203125,-331.0546875,-380.859375,0.0
1733975369.1850684,-212.40234375,-723.6328125,-367.67578125,-345.21484375,0.0
1733975369.188974,-192.87109375,-744.140625,-354.00390625,-257.8125,0.0
1733975369.1928794,-206.54296875,-755.37109375,-304.19921875,-243.1640625,0.0
1733975369.1967852,-263.18359375,-752.9296875,-280.2734375,-336.42578125,0.0
1733975369.2006907,-321.77734375,-705.078125,-239.2578125,-426.7578125,0.0
1733975369.2045963,-301.26953125,-651.3671875,-182.12890625,-418.45703125,0.0
1733975369.208502,-279.78515625,-655.2734375,-120.1171875,-347.65625,0.0
1733975369.2124076,-303.22265625,-862.3046875,-61.5234375,-337.890625,0.0
1733975369.2163134,-333.984375,-1000.0,-44.43359375,-405.76171875,0.0
1733975369.220219,-310.05859375,-993.1640625,-21.484375,-479.00390625,0.0
1733975369.2241244,-292.48046875,-999.0234375,-28.80859375,-464.84375,0.0
1733975369.2280302,-327.63671875,-1000.0,-100.5859375,-397.4609375,0.0
1733975369.2319252,-318.84765625,-1000.0,-132.32421875,-355.46875,0.0
1733975369.2358308,-301.26953125,-1000.0,-109.375,-401.85546875,0.0
1733975369.2397363,-282.71484375,-1000.0,-102.5390625,-468.75,0.0
1733975369.243642,-264.16015625,-1000.0,-113.28125,-453.61328125,0.0
1733975369.2475476,-240.72265625,-1000.0,-142.578125,-328.61328125,0.0
1733975369.2514534,-179.6875,-1000.0,-177.734375,-207.51953125,0.0
1733975369.255359,-165.52734375,-1000.0,-174.8046875,-249.51171875,0.0
1733975369.2592645,-208.49609375,-1000.0,-187.98828125,-347.65625,0.0
1733975369.2631702,-215.8203125,-1000.0,-234.375,-363.76953125,0.0
1733975369.2670758,-181.640625,-1000.0,-233.3984375,-281.73828125,0.0
1733975369.2709813,-139.16015625,-1000.0,-233.88671875,-180.6640625,0.0
1733975369.274887,-112.3046875,-1000.0,-241.69921875,-185.05859375,0.0
1733975369.2787797,-88.8671875,-1000.0,-251.46484375,-270.99609375,0.0
1733975369.2826855,-93.26171875,-1000.0,-269.04296875,-291.015625,0.0
1733975369.286591,-108.3984375,-1000.0,-279.78515625,-208.0078125,0.0
1733975369.2904966,-111.81640625,-1000.0,-287.109375,-139.16015625,0.0
1733975369.2944024,-79.1015625,-1000.0,-326.66015625,-148.92578125,0.0
1733975369.298308,-20.99609375,-1000.0,-420.41015625,-251.46484375,0.0
1733975369.3022134,-85.44921875,-1000.0,-502.9296875,-334.47265625,0.0
1733975369.3061192,-166.50390625,-1000.0,-513.671875,-241.2109375,0.0
1733975369.3100247,-165.0390625,-1000.0,-471.6796875,-145.99609375,0.0
1733975369.3139305,-178.7109375,-1000.0,-437.01171875,-165.52734375,0.0
1733975369.317836,-173.33984375,-1000.0,-446.77734375,-253.41796875,0.0
1733975369.3217416,-157.71484375,-1000.0,-453.61328125,-317.3828125,0.0
1733975369.3256247,0.0,-1000.0,-437.98828125,-258.30078125,0.0
1733975369.3295302,0.0,-1000.0,-409.1796875,-141.6015625,0.0
1733975369.3334358,0.0,-1000.0,-406.73828125,-128.41796875,0.0
1733975369.3373415,0.0,-1000.0,-411.62109375,-225.09765625,0.0
1733975369.341247,0.0,-1000.0,-402.83203125,-290.52734375,0.0
1733975369.3451526,0.0,-996.58203125,-428.22265625,-244.140625,0.0
1733975369.3490584,0.0,-991.69921875,-438.4765625,-139.16015625,0.0
1733975369.352964,0.0,-977.5390625,-402.34375,-116.2109375,0.0
1733975369.3568697,0.0,-895.5078125,-352.5390625,-194.82421875,0.0
1733975369.3607752,0.0,-822.265625,-334.47265625,-249.51171875,0.0
1733975369.3646808,0.0,-799.8046875,-342.28515625,-228.515625,0.0
1733975369.3685865,0.0,-706.54296875,-327.63671875,-163.0859375,0.0
1733975369.372467,-95.21484375,-594.23828125,-314.453125,-127.9296875,0.0
1733975369.3763726,-86.42578125,-542.96875,-324.21875,-182.6171875,0.0
1733975369.3802783,-90.33203125,-448.2421875,-303.7109375,-247.55859375,0.0
1733975369.384184,-81.54296875,-324.70703125,-291.50390625,-228.515625,0.0
1733975369.3880894,-55.6640625,-292.96875,-299.8046875,-139.6484375,0.0
1733975369.3919952,-68.359375,-272.4609375,-301.7578125,-97.16796875,0.0
1733975369.3959007,-79.58984375,-219.7265625,-298.33984375,-150.390625,0.0
1733975369.3998063,-75.68359375,-131.8359375,-275.87890625,-225.5859375,0.0
1733975369.403712,-79.58984375,-87.40234375,-282.2265625,-221.6796875,0.0
1733975369.4076176,-65.4296875,-149.4140625,-314.94140625,-124.0234375,0.0
1733975369.4115233,-76.171875,-192.87109375,-312.01171875,-73.73046875,0.0
1733975369.4154289,-113.76953125,-163.57421875,-293.45703125,-157.2265625,0.0
1733975369.4193025,0.0,-154.78515625,-275.390625,-270.5078125,0.0
1733975369.4232082,0.0,-182.12890625,-263.671875,-281.25,0.0
1733975369.4271138,0.0,-198.2421875,-243.1640625,-205.56640625,0.0
1733975369.4310193,0.0,-213.37890625,-212.890625,-143.5546875,0.0
1733975369.434925,0.0,-230.46875,-201.66015625,-213.37890625,0.0
1733975369.4388306,0.0,-274.90234375,-236.328125,-345.703125,0.0
1733975369.4427361,0.0,-264.16015625,-220.21484375,-369.62890625,0.0
1733975369.446642,0.0,-204.58984375,-176.26953125,-312.98828125,0.0
1733975369.4505475,0.0,-245.1171875,-161.1328125,-276.85546875,0.0
1733975369.4544532,0.0,-299.31640625,-138.18359375,-308.10546875,0.0
1733975369.4583588,0.0,-303.22265625,-159.1796875,-418.45703125,0.0
1733975369.4622643,0.0,-299.31640625,-146.97265625,-510.25390625,0.0
1733975369.466185,-302.734375,-315.4296875,-88.8671875,-446.77734375,0.0
1733975369.4700909,-354.98046875,-314.453125,-49.8046875,-337.40234375,0.0
1733975369.4739964,-308.10546875,-272.94921875,-33.69140625,-350.5859375,0.0
1733975369.477902,-311.5234375,-208.0078125,23.92578125,-430.6640625,0.0
1733975369.4818077,-302.24609375,-181.640625,199.21875,-458.984375,0.0
1733975369.4857132,-277.34375,-189.453125,340.33203125,-358.88671875,0.0
1733975369.4896188,-241.2109375,-151.85546875,422.36328125,-226.5625,0.0
1733975369.4935246,-216.796875,-92.28515625,538.57421875,-212.40234375,0.0
1733975369.49743,-231.93359375,-68.84765625,602.5390625,-307.6171875,0.0
1733975369.5013359,-213.8671875,-1.46484375,654.296875,-341.30859375,0.0
1733975369.5052414,-198.73046875,130.859375,770.01953125,-267.578125,0.0
1733975369.509147,-195.3125,204.1015625,883.30078125,-167.96875,0.0
1733975369.5130556,-153.3203125,192.87109375,950.68359375,-124.51171875,0.0
1733975369.5169613,-133.30078125,175.29296875,953.125,-164.0625,0.0
1733975369.5208669,-131.8359375,213.37890625,954.58984375,-216.30859375,0.0
1733975369.5247726,-136.23046875,262.6953125,958.0078125,-204.58984375,0.0
1733975369.5286782,-105.95703125,307.12890625,962.890625,-94.7265625,0.0
1733975369.5325837,-79.1015625,366.2109375,967.7734375,-41.9921875,0.0
1733975369.5364895,-101.5625,396.484375,968.26171875,-140.625,0.0
1733975369.540395,-106.4453125,375.48828125,968.75,-228.02734375,0.0
1733975369.5443006,-103.515625,353.02734375,969.23828125,-216.30859375,0.0
1733975369.5482063,-96.6796875,357.421875,969.23828125,-115.72265625,0.0
1733975369.5521119,-71.2890625,413.57421875,969.7265625,-56.15234375,0.0
1733975369.5560176,-47.8515625,336.42578125,969.23828125,-111.81640625,0.0
1733975369.5599208,-71.77734375,304.6875,969.23828125,-195.3125,0.0
1733975369.5638266,-82.03125,407.2265625,969.23828125,-189.94140625,0.0
1733975369.567732,-53.7109375,505.859375,969.23828125,-83.984375,0.0
1733975369.5716376,-33.69140625,429.6875,968.75,-22.94921875,0.0
1733975369.5755434,-30.2734375,436.03515625,969.23828125,-79.1015625,0.0
1733975369.579449,-43.9453125,457.51953125,967.7734375,-163.57421875,0.0
1733975369.5833545,-43.45703125,470.21484375,966.30859375,-172.8515625,0.0
1733975369.5872602,-22.94921875,678.7109375,968.26171875,-88.8671875,0.0
1733975369.5911658,4.8828125,883.7890625,963.8671875,-6.34765625,0.0
1733975369.5950716,18.06640625,975.09765625,957.51953125,-50.29296875,0.0
1733975369.598977,14.16015625,963.8671875,955.078125,-155.76171875,0.0
1733975369.6028826,2.44140625,969.23828125,957.03125,-185.05859375,0.0
1733975369.606783,-0.48828125,969.7265625,957.51953125,-102.5390625,0.0
1733975369.6106884,22.4609375,969.23828125,954.58984375,-17.578125,0.0
1733975369.6145942,29.78515625,969.7265625,954.58984375,-50.29296875,0.0
1733975369.6184998,17.08984375,969.7265625,948.2421875,-142.578125,0.0
1733975369.6224053,11.23046875,969.23828125,930.6640625,-163.0859375,0.0
1733975369.626311,17.578125,969.7265625,859.375,-87.890625,0.0
1733975369.6302166,12.6953125,969.7265625,818.84765625,-18.06640625,0.0
1733975369.6341221,19.53125,969.23828125,806.640625,-41.50390625,0.0
1733975369.638028,24.90234375,969.7265625,753.90625,-129.8828125,0.0
1733975369.6419334,15.625,969.7265625,732.91015625,-186.5234375,0.0
1733975369.645839,24.4140625,969.7265625,604.98046875,-153.80859375,0.0
1733975369.6497447,25.87890625,963.37890625,384.765625,-80.078125,0.0
1733975369.6536365,7.32421875,962.40234375,0.0,-87.890625,0.0
1733975369.657542,-8.30078125,895.01953125,0.0,-194.3359375,0.0
1733975369.6614478,-17.08984375,482.91015625,0.0,-279.78515625,0.0
1733975369.6653533,-2.44140625,-186.03515625,0.0,-266.11328125,0.0
1733975369.669259,22.94921875,-598.6328125,0.0,-194.82421875,0.0
1733975369.6731646,25.87890625,-775.87890625,0.0,-190.91796875,0.0
1733975369.6770701,5.859375,-826.171875,0.0,-279.78515625,0.0
1733975369.680976,11.71875,-932.6171875,0.0,-320.3125,0.0
1733975369.6848814,21.484375,-1000.0,0.0,-270.01953125,0.0
1733975369.688787,0.48828125,-995.60546875,0.0,-208.49609375,0.0
1733975369.6926928,-9.765625,-1000.0,0.0,-195.3125,0.0
1733975369.6965983,-10.7421875,-1000.0,0.0,-249.51171875,0.0
1733975369.7003584,-13.671875,-1000.0,277.83203125,-321.2890625,0.0
1733975369.704264,-27.83203125,-1000.0,229.00390625,-319.3359375,0.0
1733975369.7081695,-56.640625,-1000.0,206.54296875,-245.60546875,0.0
1733975369.7120752,-32.2265625,-1000.0,261.23046875,-194.3359375,0.0
1733975369.7159808,-6.34765625,-1000.0,316.89453125,-262.6953125,0.0
1733975369.7198865,-33.69140625,-1000.0,295.41015625,-354.98046875,0.0
1733975369.723792,-39.55078125,-1000.0,303.22265625,-320.80078125,0.0
1733975369.7276976,-6.8359375,-1000.0,355.95703125,-203.61328125,0.0
1733975369.7316034,-10.25390625,-1000.0,405.76171875,-151.85546875,0.0
1733975369.735509,-14.16015625,-1000.0,382.8125,-216.30859375,0.0
1733975369.7394145,-21.484375,-999.51171875,326.66015625,-289.0625,0.0
1733975369.7433202,-23.92578125,-1000.0,329.58984375,-273.4375,0.0
1733975369.7472577,0.0,-937.98828125,158.69140625,-181.640625,0.0
1733975369.7511635,0.0,-878.41796875,96.19140625,-122.55859375,0.0
1733975369.755069,0.0,-554.6875,0.0,-185.546875,0.0
1733975369.7589748,0.0,-116.2109375,-9.27734375,-277.83203125,0.0
1733975369.7628803,0.0,-4.8828125,-9.765625,-278.3203125,0.0
1733975369.7667859,0.0,-236.328125,-7.32421875,-176.7578125,0.0
1733975369.7706916,0.0,-800.29296875,-19.04296875,-93.75,0.0
1733975369.7745972,0.0,-1000.0,-41.9921875,-133.7890625,0.0
1733975369.7785027,0.0,-983.3984375,-46.875,-232.421875,0.0
1733975369.7824085,0.0,-1000.0,-57.12890625,-262.6953125,0.0
1733975369.786314,0.0,-942.87109375,-32.2265625,-214.35546875,0.0
1733975369.7902195,0.0,-1000.0,26.85546875,-147.94921875,0.0
1733975369.794229,-21.97265625,-304.19921875,53.7109375,-305.17578125,0.0
1733975369.7981346,-31.73828125,65.91796875,38.0859375,-266.11328125,0.0
1733975369.80204,-34.1796875,-890.13671875,20.5078125,-187.5,0.0
1733975369.8059459,-19.04296875,-387.6953125,28.80859375,-155.76171875,0.0
1733975369.8098514,-25.87890625,251.46484375,66.40625,-219.7265625,0.0
1733975369.8137572,-31.25,-71.2890625,83.984375,-272.94921875,0.0
1733975369.8176627,-33.203125,-241.69921875,115.234375,-227.5390625,0.0
1733975369.8215683,-56.15234375,477.05078125,156.73828125,-141.6015625,0.0
1733975369.825474,-41.015625,777.34375,135.7421875,-120.1171875,0.0
1733975369.8293796,-31.73828125,294.921875,86.42578125,-179.19921875,0.0
1733975369.833285,-55.17578125,-212.40234375,36.1328125,-239.2578125,0.0
1733975369.8371909,-62.98828125,575.1953125,-12.20703125,-210.44921875,0.0
1733975369.8411472,-76.171875,-953.125,-64.453125,0.0,0.0
1733975369.8450527,-79.1015625,705.078125,-90.33203125,0.0,0.0
1733975369.8489583,-65.91796875,747.0703125,-117.67578125,0.0,0.0
1733975369.852864,-57.6171875,986.328125,-131.34765625,0.0,0.0
1733975369.8567696,-53.7109375,978.02734375,-114.2578125,0.0,0.0
1733975369.860675,-58.10546875,767.08984375,-73.73046875,0.0,0.0
1733975369.8645809,-67.87109375,763.18359375,-11.71875,0.0,0.0
1733975369.8684864,-59.08203125,991.69921875,20.5078125,0.0,0.0
1733975369.8723922,-42.48046875,951.66015625,23.4375,0.0,0.0
1733975369.8762977,-41.50390625,882.32421875,46.38671875,0.0,0.0
1733975369.8802032,-44.43359375,937.5,112.79296875,0.0,0.0
1733975369.884109,-53.7109375,988.76953125,153.3203125,0.0,0.0
1733975369.8880148,-46.38671875,935.546875,147.94921875,-123.046875,0.0
1733975369.8919203,-37.59765625,862.3046875,166.50390625,-80.078125,0.0
1733975369.895826,-61.03515625,928.22265625,180.6640625,-147.94921875,0.0
1733975369.8997316,-87.890625,-986.81640625,181.15234375,-251.953125,0.0
1733975369.9036372,-98.6328125,885.7421875,193.359375,-242.67578125,0.0
1733975369.907543,-83.0078125,503.90625,213.8671875,-150.87890625,0.0
1733975369.9114485,-60.05859375,772.4609375,271.484375,-105.95703125,0.0
1733975369.9153543,-66.89453125,-950.1953125,287.59765625,-165.0390625,0.0
1733975369.9192598,-85.9375,792.48046875,277.83203125,-242.1875,0.0
1733975369.9231653,-95.21484375,796.875,277.34375,-246.09375,0.0
1733975369.927071,-79.58984375,967.7734375,256.8359375,-172.36328125,0.0
1733975369.9309766,-56.640625,-968.75,234.86328125,-114.2578125,0.0
1733975369.9351215,-158.69140625,688.4765625,961.9140625,-302.734375,0.0
1733975369.9390273,-185.05859375,501.953125,961.9140625,-252.9296875,0.0
1733975369.9429328,-208.0078125,947.265625,956.0546875,-189.94140625,0.0
1733975369.9468386,-226.07421875,961.42578125,896.484375,-208.0078125,0.0
1733975369.9507442,-266.11328125,931.15234375,909.1796875,-303.7109375,0.0
1733975369.9546497,-315.4296875,916.015625,835.44921875,-375.0,0.0
1733975369.9585555,-306.640625,914.55078125,357.421875,-340.8203125,0.0
1733975369.962461,-288.57421875,-979.00390625,469.7265625,-261.23046875,0.0
1733975369.9663665,-296.38671875,438.4765625,961.9140625,-268.06640625,0.0
1733975369.9702723,-277.34375,429.19921875,962.40234375,-317.3828125,0.0
1733975369.9741778,-255.859375,-945.3125,952.63671875,-324.21875,0.0
1733975369.9780836,-257.8125,895.01953125,971.6796875,-266.6015625,0.0
1733975369.9821255,0.0,775.87890625,0.0,0.0,0.0
1733975369.986031,0.0,913.0859375,0.0,0.0,0.0
1733975369.9899368,0.0,-986.81640625,0.0,0.0,0.0
1733975369.9938424,0.0,796.38671875,0.0,0.0,0.0
1733975369.997748,0.0,645.01953125,0.0,0.0,0.0
1733975370.0016537,0.0,572.265625,0.0,0.0,0.0
1733975370.0055592,0.0,479.00390625,0.0,0.0,0.0
1733975370.009465,0.0,252.9296875,0.0,0.0,0.0
1733975370.0133705,0.0,286.62109375,0.0,0.0,0.0
1733975370.017276,0.0,865.234375,0.0,0.0,0.0
1733975370.0211818,0.0,953.61328125,0.0,0.0,0.0
1733975370.0250874,0.0,449.21875,0.0,0.0,0.0
1733975370.0289888,0.0,474.12109375,0.0,0.0,0.0
1733975370.0328944,0.0,734.86328125,0.0,0.0,0.0
1733975370.0368,0.0,592.7734375,0.0,0.0,0.0
1733975370.0407057,0.0,86.42578125,0.0,0.0,0.0
1733975370.0446112,0.0,-41.9921875,0.0,0.0,0.0
1733975370.048517,0.0,507.32421875,0.0,0.0,0.0
1733975370.0524225,0.0,657.71484375,0.0,0.0,0.0
1733975370.056328,0.0,55.6640625,0.0,0.0,0.0
1733975370.0602338,0.0,-278.3203125,0.0,0.0,0.0
1733975370.0641394,0.0,592.7734375,0.0,0.0,0.0
1733975370.0680451,0.0,659.66796875,0.0,0.0,0.0
1733975370.0719507,0.0,712.890625,0.0,0.0,0.0
1733975370.0758364,-68.359375,947.265625,969.7265625,-104.98046875,0.0
1733975370.079742,-63.96484375,986.328125,969.23828125,-155.76171875,0.0
1733975370.0836477,-52.24609375,873.046875,969.23828125,-128.90625,0.0
1733975370.0875533,-34.66796875,820.80078125,969.23828125,-45.8984375,0.0
1733975370.091459,-14.6484375,939.94140625,968.75,6.8359375,0.0
1733975370.0953646,-0.9765625,970.21484375,968.26171875,-24.4140625,0.0
1733975370.09927,1.953125,610.3515625,964.84375,-67.87109375,0.0
1733975370.1031759,-4.8828125,293.45703125,961.42578125,-66.40625,0.0
1733975370.1070814,0.0,859.375,958.49609375,-30.76171875,0.0
1733975370.1109872,3.90625,-981.4453125,959.47265625,22.94921875,0.0
1733975370.1148927,-3.41796875,873.53515625,959.9609375,-2.9296875,0.0
1733975370.1187983,-12.20703125,931.640625,958.0078125,-85.9375,0.0
1733975370.1226814,-15.13671875,968.75,957.03125,-84.47265625,0.0
1733975370.126587,-2.44140625,948.73046875,953.61328125,-0.48828125,0.0
1733975370.1304924,-4.39453125,849.609375,953.125,53.22265625,0.0
1733975370.1343982,-5.37109375,903.80859375,951.66015625,16.6015625,0.0
1733975370.1383038,-7.32421875,958.984375,947.75390625,-65.91796875,0.0
1733975370.1422095,-24.90234375,-990.234375,947.75390625,-98.6328125,0.0
1733975370.146115,-22.4609375,612.3046875,947.265625,-39.0625,0.0
1733975370.1500206,-8.30078125,572.265625,947.265625,25.390625,0.0
1733975370.1539264,-6.8359375,-971.19140625,946.77734375,8.30078125,0.0
1733975370.157832,-7.32421875,948.2421875,941.89453125,-56.15234375,0.0
1733975370.1617377,25.87890625,895.99609375,941.89453125,-66.89453125,0.0
1733975370.1656432,48.828125,950.68359375,946.2890625,21.484375,0.0
1733975370.1696587,58.59375,978.515625,0.0,0.0,0.0
1733975370.1735642,72.75390625,948.2421875,0.0,0.0,0.0
1733975370.1774697,52.24609375,941.40625,0.0,0.0,0.0
1733975370.1813755,38.57421875,913.57421875,0.0,0.0,0.0
1733975370.185281,46.38671875,997.0703125,0.0,0.0,0.0
1733975370.1891868,65.91796875,760.25390625,0.0,0.0,0.0
1733975370.1930923,87.890625,303.7109375,0.0,0.0,0.0
1733975370.196998,82.51953125,782.71484375,0.0,0.0,0.0
1733975370.2009037,80.078125,-967.28515625,0.0,0.0,0.0
1733975370.2048092,95.21484375,814.453125,0.0,0.0,0.0
1733975370.208715,108.88671875,859.375,0.0,0.0,0.0
1733975370.2126205,112.3046875,955.078125,0.0,0.0,0.0
1733975370.2165017,105.46875,979.4921875,886.71875,99.609375,0.0
1733975370.2204072,108.88671875,688.4765625,880.37109375,52.734375,0.0
1733975370.224313,113.76953125,654.296875,874.51171875,93.26171875,0.0
1733975370.2282186,102.5390625,972.16796875,863.28125,151.3671875,0.0
1733975370.232124,100.5859375,963.37890625,844.7265625,166.50390625,0.0
1733975370.2360299,87.40234375,447.75390625,825.68359375,100.09765625,0.0
1733975370.2399354,67.87109375,183.59375,804.19921875,16.11328125,0.0
1733975370.2438412,62.01171875,581.0546875,795.8984375,14.16015625,0.0
1733975370.2477467,45.41015625,731.4453125,781.73828125,62.01171875,0.0
1733975370.2516522,38.57421875,409.1796875,779.78515625,72.75390625,0.0
1733975370.255558,-2.9296875,441.89453125,812.01171875,-41.50390625,0.0
1733975370.2594635,-37.109375,661.62109375,830.078125,-150.87890625,0.0
1733975370.2634156,-43.9453125,373.046875,830.078125,-170.41015625,0.0
1733975370.2673213,-47.36328125,-37.109375,839.84375,-107.421875,0.0
1733975370.271227,-47.36328125,164.0625,849.609375,-52.734375,0.0
1733975370.2751324,-97.65625,395.5078125,854.00390625,-155.2734375,0.0
1733975370.2790382,-167.48046875,72.265625,879.39453125,-291.015625,0.0
1733975370.2829437,-158.203125,-869.62890625,878.90625,-277.83203125,0.0
1733975370.2868495,-130.859375,-694.3359375,875.48828125,-182.6171875,0.0
1733975370.290755,-112.79296875,287.59765625,850.5859375,-111.81640625,0.0
1733975370.2946606,-93.75,15.625,791.015625,-127.9296875,0.0
1733975370.2985663,-107.421875,-290.52734375,760.7421875,-204.1015625,0.0
1733975370.3024719,-102.5390625,-78.125,751.953125,-203.125,0.0
1733975370.3063776,-65.91796875,109.86328125,585.44921875,-90.8203125,0.0
1733975370.3103209,-29.78515625,28.3203125,308.59375,14.6484375,0.0
1733975370.3142266,4.8828125,-241.2109375,108.3984375,7.32421875,0.0
1733975370.3181322,20.99609375,-45.8984375,-63.4765625,-66.40625,0.0
1733975370.322038,51.7578125,237.3046875,-261.71875,-59.5703125,0.0
1733975370.3259435,90.8203125,117.67578125,-423.828125,33.69140625,0.0
1733975370.329849,119.62890625,-123.046875,-479.98046875,120.1171875,0.0
1733975370.3337548,125.9765625,43.45703125,-500.0,111.328125,0.0
1733975370.3376603,121.58203125,261.23046875,-522.4609375,46.875,0.0
1733975370.341566,132.32421875,-15.13671875,-521.97265625,27.34375,0.0
1733975370.3454716,121.09375,209.47265625,-492.1875,67.87109375,0.0
1733975370.3493772,140.13671875,629.8828125,-469.23828125,129.8828125,0.0
1733975370.353283,151.85546875,589.84375,-474.609375,157.2265625,0.0
1733975370.357187,120.1171875,-198.2421875,-461.42578125,82.51953125,0.0
1733975370.3610926,100.5859375,-269.53125,-395.01953125,10.7421875,0.0
1733975370.3649983,112.3046875,625.0,-402.83203125,44.43359375,0.0
1733975370.3689039,130.859375,759.27734375,-434.5703125,104.4921875,0.0
1733975370.3728096,152.34375,687.01171875,-418.9453125,121.09375,0.0
1733975370.3767152,116.69921875,895.5078125,-410.64453125,52.734375,0.0
1733975370.3806207,38.0859375,-979.98046875,-393.5546875,-20.01953125,0.0
1733975370.3845265,56.15234375,792.48046875,-458.0078125,-1.46484375,0.0
1733975370.388432,67.3828125,653.3203125,-436.5234375,76.171875,0.0
1733975370.3923378,73.2421875,926.26953125,-306.15234375,103.02734375,0.0
1733975370.3962433,64.94140625,-931.640625,-290.0390625,37.59765625,0.0
1733975370.4001489,46.875,568.84765625,-378.41796875,-7.32421875,0.0
1733975370.4040384,53.22265625,132.32421875,-372.55859375,-16.6015625,0.0
1733975370.407944,53.7109375,502.9296875,-269.53125,35.64453125,0.0
1733975370.4118495,56.640625,338.37890625,-266.6015625,93.75,0.0
1733975370.4157553,57.12890625,153.80859375,-248.046875,42.48046875,0.0
1733975370.4196608,49.8046875,127.9296875,-235.83984375,-15.13671875,0.0
1733975370.4235666,58.10546875,98.6328125,-216.30859375,19.04296875,0.0
1733975370.427472,82.03125,190.4296875,-236.328125,105.46875,0.0
1733975370.4313776,73.73046875,-307.6171875,-300.78125,160.15625,0.0
1733975370.4352834,64.453125,-279.296875,-268.5546875,106.4453125,0.0
1733975370.439189,70.3125,659.66796875,-265.13671875,18.06640625,0.0
1733975370.4430947,49.31640625,634.27734375,-346.6796875,14.16015625,0.0
1733975370.4470003,42.48046875,381.8359375,-355.46875,81.54296875,0.0
1733975370.4508815,68.359375,518.06640625,-314.453125,138.671875,0.0
1733975370.4547873,74.21875,508.7890625,-291.015625,104.98046875,0.0
1733975370.4586928,56.15234375,9.27734375,-376.953125,28.3203125,0.0
1733975370.4625983,50.78125,-385.7421875,-360.83984375,13.18359375,0.0
1733975370.466504,57.12890625,-363.28125,-263.671875,61.03515625,0.0
1733975370.4704096,70.3125,-785.64453125,-267.578125,109.375,0.0
1733975370.4743154,55.6640625,-1000.0,-320.3125,70.3125,0.0
1733975370.478221,25.87890625,-982.421875,-312.01171875,-18.06640625,0.0
1733975370.4821265,9.765625,-1000.0,-179.6875,-54.19921875,0.0
1733975370.4860322,10.7421875,-1000.0,-135.25390625,1.46484375,0.0
1733975370.4899378,29.78515625,-1000.0,-128.41796875,72.265625,0.0
1733975370.4938436,31.73828125,-1000.0,-76.171875,65.91796875,0.0
1733975370.4977238,21.484375,-1000.0,-52.734375,-11.23046875,0.0
1733975370.5016294,7.8125,-1000.0,-102.05078125,-53.22265625,0.0
1733975370.5055351,10.7421875,-1000.0,-99.609375,-3.90625,0.0
1733975370.5094407,15.625,-1000.0,-52.734375,66.89453125,0.0
1733975370.5133464,-4.8828125,-1000.0,-74.21875,61.5234375,0.0
1733975370.517252,-20.5078125,-1000.0,-126.46484375,-22.94921875,0.0
1733975370.5211575,-40.52734375,-1000.0,-183.10546875,-72.265625,0.0
1733975370.5250633,-38.57421875,-1000.0,-148.4375,-32.71484375,0.0
1733975370.5289688,-32.2265625,-1000.0,-129.39453125,34.66796875,0.0
1733975370.5328746,-35.64453125,-1000.0,-218.75,44.43359375,0.0
1733975370.53678,-34.1796875,-1000.0,-267.578125,-23.92578125,0.0
1733975370.5406857,-53.7109375,-1000.0,-250.48828125,-83.984375,0.0
1733975370.5446486,-66.89453125,-1000.0,-164.0625,-64.453125,0.0
1733975370.5485542,-44.921875,-1000.0,-152.34375,20.5078125,0.0
1733975370.5524597,-20.99609375,-1000.0,-164.0625,46.875,0.0
1733975370.5563655,-20.99609375,-1000.0,-83.0078125,-22.4609375,0.0
1733975370.560271,-46.38671875,-976.07421875,-27.34375,-84.47265625,0.0
1733975370.5641768,-50.78125,-1000.0,-52.734375,-44.921875,0.0
1733975370.5680823,-40.52734375,-851.07421875,-29.296875,35.15625,0.0
1733975370.5719879,-39.0625,-319.3359375,114.74609375,55.6640625,0.0
1733975370.5758936,-40.0390625,67.87109375,151.85546875,-19.53125,0.0
1733975370.5797992,-61.03515625,-175.29296875,157.71484375,-100.5859375,0.0
1733975370.583705,-66.40625,-211.9140625,219.23828125,-83.984375,0.0
1733975370.5876105,-52.734375,281.73828125,277.34375,-12.6953125,0.0
1733975370.5915203,-38.0859375,329.58984375,291.9921875,29.296875,0.0
1733975370.595426,-43.9453125,-110.83984375,261.71875,-13.671875,0.0
1733975370.5993316,-61.5234375,-423.828125,257.8125,-85.9375,0.0
1733975370.6032372,-75.68359375,-143.06640625,274.90234375,-90.8203125,0.0
1733975370.607143,-64.453125,129.39453125,249.51171875,-16.11328125,0.0
1733975370.6110485,-47.36328125,-424.31640625,212.40234375,19.04296875,0.0
1733975370.6149542,-52.24609375,-514.6484375,251.46484375,-31.25,0.0
1733975370.6188598,-56.640625,173.828125,267.08984375,-96.19140625,0.0
1733975370.6227653,-57.12890625,204.58984375,196.77734375,-90.8203125,0.0
1733975370.626671,-48.828125,-49.8046875,165.0390625,-21.484375,0.0
1733975370.6305766,-36.1328125,98.6328125,176.7578125,23.92578125,0.0
1733975370.6344824,-42.48046875,392.08984375,196.2890625,-2.9296875,0.0
1733975370.6383882,-44.43359375,572.75390625,215.33203125,-67.87109375,0.0
1733975370.6422937,-50.78125,85.44921875,235.3515625,-74.21875,0.0
1733975370.6461995,-43.9453125,481.93359375,331.54296875,-9.765625,0.0
1733975370.650105,-29.296875,-938.96484375,349.12109375,61.03515625,0.0
