timestamps,TP9,AF7,AF8,TP10,Right AUX
1734420444.0967937,0.0,-34.66796875,125.9765625,125.0,0.0
1734420444.1006985,0.0,-35.15625,-15.625,102.5390625,0.0
1734420444.1046035,0.0,-37.109375,-79.58984375,-52.24609375,0.0
1734420444.1085083,0.0,-32.2265625,-210.44921875,-138.18359375,0.0
1734420444.1124134,0.0,-30.76171875,-237.3046875,-41.50390625,0.0
1734420444.1163182,0.0,-41.9921875,-313.96484375,120.1171875,0.0
1734420444.1202233,0.0,-43.45703125,-354.4921875,125.48828125,0.0
1734420444.1241283,0.0,-30.76171875,1.46484375,-34.66796875,0.0
1734420444.1280332,0.0,-34.1796875,-157.2265625,-143.5546875,0.0
1734420444.1319382,0.0,-35.64453125,-311.03515625,-68.359375,0.0
1734420444.135843,0.0,-34.1796875,-33.69140625,96.19140625,0.0
1734420444.1397364,-56.640625,-39.0625,41.9921875,122.0703125,0.0
1734420444.1436415,-397.94921875,-33.203125,-69.82421875,-37.109375,0.0
1734420444.1475463,-77.1484375,-26.3671875,-267.578125,-159.66796875,0.0
1734420444.1514513,224.609375,-33.69140625,-185.546875,-104.00390625,0.0
1734420444.1553562,142.08984375,-52.24609375,15.625,51.26953125,0.0
1734420444.1592612,-16.6015625,-50.78125,-101.5625,119.62890625,0.0
1734420444.163166,-380.859375,-35.15625,-263.18359375,16.6015625,0.0
1734420444.167071,-155.76171875,-36.62109375,-295.41015625,-138.18359375,0.0
1734420444.170976,209.47265625,-37.59765625,-177.734375,-131.34765625,0.0
1734420444.174881,142.578125,-37.109375,-77.63671875,51.7578125,0.0
1734420444.178786,11.23046875,-39.55078125,-41.015625,129.8828125,0.0
1734420444.1826909,-364.2578125,-35.64453125,72.265625,15.625,0.0
1734420444.1866055,188.4765625,-35.64453125,-96.19140625,-124.0234375,0.0
1734420444.1905105,108.3984375,-39.0625,-346.6796875,-102.05078125,0.0
1734420444.1944153,-206.54296875,-41.50390625,-162.59765625,57.12890625,0.0
1734420444.1983204,-356.4453125,-44.43359375,38.0859375,146.484375,0.0
1734420444.2022252,95.703125,-39.55078125,7.32421875,52.24609375,0.0
1734420444.2061303,201.171875,-40.52734375,-307.12890625,-99.12109375,0.0
1734420444.210035,118.1640625,-40.52734375,-485.83984375,-114.2578125,0.0
1734420444.2139401,-158.203125,-32.71484375,-235.3515625,16.6015625,0.0
1734420444.217845,-387.20703125,-30.2734375,-68.359375,119.62890625,0.0
1734420444.22175,34.66796875,-28.80859375,-82.03125,57.6171875,0.0
1734420444.2256548,203.61328125,-28.3203125,-263.671875,-104.00390625,0.0
1734420444.22956,130.859375,-26.85546875,-242.1875,-153.3203125,0.0
1734420444.2334821,-104.00390625,-26.85546875,-91.30859375,-17.578125,0.0
1734420444.237387,-415.0390625,-24.4140625,-11.23046875,93.75,0.0
1734420444.241292,-51.26953125,-21.484375,40.0390625,34.66796875,0.0
1734420444.2451968,192.3828125,-25.390625,-21.484375,-115.234375,0.0
1734420444.2491019,126.953125,-31.25,-260.7421875,-171.38671875,0.0
1734420444.253007,-91.796875,-28.3203125,-276.3671875,-48.828125,0.0
1734420444.2569118,-438.96484375,-25.390625,-172.8515625,90.33203125,0.0
1734420444.2608168,-102.5390625,-23.92578125,3.90625,55.6640625,0.0
1734420444.2647216,204.58984375,-20.5078125,-108.88671875,-86.42578125,0.0
1734420444.2686267,131.8359375,-17.578125,-444.3359375,-155.2734375,0.0
1734420444.2725315,-31.73828125,-15.13671875,-145.5078125,-59.08203125,0.0
1734420444.2764366,-397.94921875,-20.99609375,101.5625,96.19140625,0.0
1734420444.2803576,-146.97265625,-26.3671875,-39.0625,94.7265625,0.0
1734420444.2842627,213.37890625,-26.3671875,-151.3671875,-66.89453125,0.0
1734420444.2881675,140.625,-31.25,-231.4453125,-169.921875,0.0
1734420444.2920725,3.90625,-28.80859375,-167.96875,-93.75,0.0
1734420444.2959776,-368.65234375,-24.90234375,-79.1015625,72.75390625,0.0
1734420444.2998824,-209.47265625,-27.34375,-216.796875,101.5625,0.0
1734420444.3037875,201.171875,-27.34375,-253.90625,-46.38671875,0.0
1734420444.3076923,161.62109375,-26.3671875,-292.48046875,-153.3203125,0.0
1734420444.3115973,46.875,-29.296875,-425.29296875,-79.1015625,0.0
1734420444.3155022,-324.70703125,-30.2734375,-312.98828125,75.68359375,0.0
1734420444.3194072,-261.71875,-23.92578125,62.01171875,98.14453125,0.0
1734420444.323312,172.8515625,-25.390625,40.52734375,-32.71484375,0.0
1734420444.3272324,154.296875,-28.3203125,-250.48828125,-151.85546875,0.0
1734420444.3311372,55.6640625,-26.85546875,-169.43359375,-116.2109375,0.0
1734420444.3350422,-291.50390625,-27.34375,70.3125,32.71484375,0.0
1734420444.338947,-324.70703125,-31.73828125,29.296875,103.02734375,0.0
1734420444.342852,127.9296875,-38.0859375,-42.96875,2.44140625,0.0
1734420444.346757,165.0390625,-43.45703125,-269.53125,-139.16015625,0.0
1734420444.350662,90.8203125,-41.015625,-290.0390625,-129.39453125,0.0
1734420444.3545668,-220.21484375,-34.66796875,-79.1015625,19.04296875,0.0
1734420444.3584719,-358.3984375,-34.66796875,-216.796875,117.1875,0.0
1734420444.3623767,95.703125,-33.203125,-39.55078125,27.83203125,0.0
1734420444.3662817,192.87109375,-28.80859375,-32.71484375,-129.39453125,0.0
1734420444.3701868,118.65234375,-29.296875,-347.16796875,-140.625,0.0
1734420444.3741057,-160.64453125,-26.85546875,-164.55078125,-4.39453125,0.0
1734420444.3780105,-385.25390625,-25.87890625,23.92578125,105.46875,0.0
1734420444.3819156,41.9921875,-28.3203125,45.8984375,32.2265625,0.0
1734420444.3858206,202.63671875,-27.83203125,-115.72265625,-121.58203125,0.0
1734420444.3897254,123.53515625,-27.83203125,-335.9375,-149.90234375,0.0
1734420444.3936305,-121.58203125,-27.83203125,-257.8125,-23.4375,0.0
1734420444.3975353,-399.4140625,-28.3203125,-75.68359375,107.421875,0.0
1734420444.4014404,-8.7890625,-30.76171875,-202.63671875,77.63671875,0.0
1734420444.4053452,212.890625,-35.15625,-427.24609375,-81.54296875,0.0
1734420444.4092503,139.16015625,-29.78515625,-262.6953125,-159.1796875,0.0
1734420444.413155,-75.1953125,-31.73828125,-102.05078125,-45.8984375,0.0
1734420444.4170601,-413.57421875,-35.64453125,-25.87890625,99.12109375,0.0
1734420444.4209778,-72.75390625,-31.73828125,34.66796875,74.70703125,0.0
1734420444.4248827,222.16796875,-35.15625,30.2734375,-80.56640625,0.0
1734420444.4287877,146.484375,-38.57421875,-229.00390625,-152.83203125,0.0
1734420444.4326928,-38.0859375,-31.25,-230.95703125,-60.546875,0.0
1734420444.4365976,-386.71875,-39.55078125,-34.1796875,72.265625,0.0
1734420444.4405026,-117.1875,-63.4765625,-57.6171875,67.87109375,0.0
1734420444.4444075,208.984375,-46.875,-228.02734375,-74.70703125,0.0
1734420444.4483125,135.7421875,-28.3203125,-395.5078125,-164.55078125,0.0
1734420444.4522173,-13.18359375,-30.76171875,-230.95703125,-90.33203125,0.0
1734420444.4561224,-384.27734375,-26.85546875,43.45703125,54.6875,0.0
1734420444.4600272,-203.125,-26.85546875,1.953125,77.1484375,0.0
1734420444.4639323,202.1484375,-29.78515625,-109.86328125,-74.70703125,0.0
1734420444.4678495,148.92578125,-34.66796875,-182.12890625,-188.4765625,0.0
1734420444.4717543,36.1328125,-33.69140625,-159.1796875,-119.62890625,0.0
1734420444.4756594,-338.8671875,-32.2265625,-72.265625,36.62109375,0.0
1734420444.4795642,-263.671875,-30.2734375,-3.90625,78.125,0.0
1734420444.4834692,188.4765625,-28.3203125,35.15625,-48.828125,0.0
1734420444.4873743,174.8046875,-28.80859375,-230.46875,-168.45703125,0.0
1734420444.4912791,73.2421875,-31.25,-445.80078125,-108.88671875,0.0
1734420444.4951842,-287.109375,-36.62109375,-362.79296875,54.6875,0.0
1734420444.499089,-320.3125,-31.73828125,4.39453125,110.83984375,0.0
1734420444.502994,148.92578125,-28.80859375,71.77734375,0.0,0.0
1734420444.5068989,196.2890625,-31.73828125,-197.265625,-139.16015625,0.0
1734420444.510804,105.95703125,-28.80859375,-239.2578125,-117.1875,0.0
1734420444.5147195,-217.7734375,-26.3671875,28.80859375,27.83203125,0.0
1734420444.5186245,-329.58984375,-26.85546875,44.921875,115.234375,0.0
1734420444.5225294,115.72265625,-26.3671875,-8.30078125,32.2265625,0.0
1734420444.5264344,221.6796875,-26.3671875,-117.1875,-124.0234375,0.0
1734420444.5303392,124.51171875,-23.92578125,-282.71484375,-122.0703125,0.0
1734420444.5342443,-190.4296875,-27.34375,-262.6953125,37.59765625,0.0
1734420444.538149,-357.421875,-33.203125,-298.33984375,132.32421875,0.0
1734420444.5420542,67.3828125,-30.2734375,-89.35546875,40.52734375,0.0
1734420444.5459592,228.02734375,-27.83203125,-11.71875,-120.1171875,0.0
1734420444.549864,164.55078125,-34.1796875,-299.31640625,-135.7421875,0.0
1734420444.553769,-100.5859375,-31.25,-227.05078125,-10.7421875,0.0
1734420444.557674,-390.625,-20.01953125,-4.8828125,99.609375,0.0
1734420444.5615885,-0.9765625,-21.484375,65.91796875,49.31640625,0.0
1734420444.5654936,222.65625,-22.4609375,-167.48046875,-110.83984375,0.0
1734420444.5693984,148.4375,-22.94921875,-394.04296875,-165.0390625,0.0
1734420444.5733035,-69.82421875,-26.3671875,-67.3828125,-45.41015625,0.0
1734420444.5772083,-405.76171875,-28.3203125,71.2890625,85.9375,0.0
1734420444.5811133,-60.546875,-29.296875,-223.14453125,68.84765625,0.0
1734420444.5850184,225.5859375,-32.71484375,-434.08203125,-80.56640625,0.0
1734420444.5889232,148.92578125,-32.71484375,-363.76953125,-160.15625,0.0
1734420444.5928283,-28.3203125,-32.2265625,-187.5,-62.01171875,0.0
1734420444.596733,-397.94921875,-34.1796875,-114.2578125,85.44921875,0.0
1734420444.6006382,-130.859375,-31.73828125,-18.5546875,86.42578125,0.0
1734420444.604543,225.5859375,-33.69140625,62.01171875,-64.94140625,0.0
1734420444.608465,0.0,-33.69140625,-226.5625,-154.78515625,0.0
1734420444.61237,0.0,-34.66796875,-298.828125,-67.87109375,0.0
1734420444.6162748,0.0,-40.52734375,-144.04296875,79.58984375,0.0
1734420444.62018,0.0,-36.62109375,12.20703125,93.26171875,0.0
1734420444.6240847,0.0,-38.57421875,-33.69140625,-49.31640625,0.0
1734420444.6279898,0.0,-38.0859375,-332.51953125,-141.11328125,0.0
1734420444.6318946,0.0,-34.1796875,-300.29296875,-75.68359375,0.0
1734420444.6357996,0.0,-38.0859375,-11.71875,62.98828125,0.0
1734420444.6397047,0.0,-38.57421875,25.87890625,102.5390625,0.0
1734420444.6436095,0.0,-43.45703125,-202.63671875,-29.78515625,0.0
1734420444.6475146,0.0,-40.0390625,-273.92578125,-156.25,0.0
1734420444.6514194,0.0,-31.25,-199.21875,-105.95703125,0.0
1734420444.6553402,-280.76171875,-32.2265625,-92.7734375,53.22265625,0.0
1734420444.6592453,-291.50390625,-31.73828125,-18.06640625,116.69921875,0.0
1734420444.66315,171.875,-33.203125,51.26953125,1.953125,0.0
1734420444.6670551,209.47265625,-35.64453125,-136.23046875,-133.30078125,0.0
1734420444.67096,97.65625,-32.71484375,-312.98828125,-90.8203125,0.0
1734420444.674865,-257.8125,-32.71484375,-241.69921875,66.89453125,0.0
1734420444.6787698,-344.7265625,-34.66796875,-192.3828125,129.39453125,0.0
1734420444.682675,112.3046875,-36.62109375,-183.10546875,20.99609375,0.0
1734420444.6865797,198.73046875,-33.69140625,-427.734375,-125.9765625,0.0
1734420444.6904848,120.60546875,-28.3203125,-475.09765625,-117.1875,0.0
1734420444.6943898,-180.6640625,-29.78515625,-28.3203125,16.6015625,0.0
1734420444.6982946,-380.859375,-32.2265625,74.21875,103.515625,0.0
1734420444.702215,54.19921875,-31.25,-28.3203125,30.76171875,0.0
1734420444.7061198,209.9609375,-28.3203125,-122.0703125,-118.1640625,0.0
1734420444.7100248,148.4375,-26.85546875,-256.34765625,-142.578125,0.0
1734420444.7139297,-122.0703125,-31.73828125,-140.625,-2.9296875,0.0
1734420444.7178347,-399.90234375,-31.25,-24.4140625,107.91015625,0.0
1734420444.7217395,8.7890625,-29.296875,-80.56640625,48.33984375,0.0
1734420444.7256446,223.14453125,-29.78515625,-193.359375,-98.14453125,0.0
1734420444.7295494,152.83203125,-22.94921875,-311.5234375,-142.578125,0.0
1734420444.7334545,-70.3125,-25.87890625,-345.21484375,-7.32421875,0.0
1734420444.7373595,-406.25,-29.296875,-102.05078125,109.86328125,0.0
1734420444.7412643,-46.38671875,-25.390625,130.37109375,54.19921875,0.0
1734420444.7451694,238.76953125,-24.90234375,-126.953125,-84.9609375,0.0
1734420444.749088,161.1328125,-24.90234375,-393.5546875,-145.5078125,0.0
1734420444.7529929,-28.3203125,-20.01953125,-136.23046875,-49.31640625,0.0
1734420444.756898,-386.71875,-21.97265625,58.10546875,96.19140625,0.0
1734420444.7608027,-106.4453125,-26.85546875,-37.109375,82.03125,0.0
1734420444.7647078,227.5390625,-22.94921875,-124.51171875,-69.3359375,0.0
1734420444.7686129,155.2734375,-25.390625,-294.43359375,-148.92578125,0.0
1734420444.7725177,-6.8359375,-30.2734375,-274.4140625,-64.453125,0.0
1734420444.7764227,-386.71875,-30.2734375,-336.9140625,80.56640625,0.0
1734420444.7803276,-189.453125,-29.296875,-268.06640625,101.5625,0.0
1734420444.7842326,206.54296875,-27.83203125,74.70703125,-45.41015625,0.0
1734420444.7881374,162.109375,-27.83203125,-170.8984375,-162.109375,0.0
1734420444.7920425,34.66796875,-39.55078125,-334.47265625,-105.46875,0.0
1734420444.7959602,-345.703125,-43.9453125,-186.03515625,41.015625,0.0
1734420444.7998652,-248.53515625,-32.71484375,48.33984375,79.58984375,0.0
1734420444.80377,189.453125,-26.85546875,32.71484375,-32.71484375,0.0
1734420444.8076751,173.828125,-23.92578125,-240.72265625,-146.484375,0.0
1734420444.81158,67.87109375,-20.01953125,-211.42578125,-97.16796875,0.0
1734420444.815485,-293.9453125,-20.5078125,-52.24609375,52.734375,0.0
1734420444.8193898,-296.38671875,-23.4375,-91.796875,102.5390625,0.0
1734420444.8232949,152.83203125,-27.34375,-224.609375,-0.9765625,0.0
1734420444.8271997,171.38671875,-26.85546875,-257.32421875,-138.671875,0.0
1734420444.8311048,83.984375,-25.87890625,-194.82421875,-137.20703125,0.0
1734420444.8350098,-253.41796875,-31.73828125,-91.796875,12.20703125,0.0
1734420444.8389146,-352.05078125,-36.1328125,-47.36328125,95.703125,0.0
1734420444.8428314,106.4453125,-35.15625,14.16015625,-6.34765625,0.0
1734420444.8467364,188.96484375,-31.25,-91.796875,-145.5078125,0.0
1734420444.8506413,113.76953125,-31.73828125,-306.640625,-132.32421875,0.0
1734420444.8545463,-190.91796875,-28.80859375,-235.3515625,15.13671875,0.0
1734420444.8584511,-380.859375,-25.390625,-9.27734375,92.28515625,0.0
1734420444.8623562,59.5703125,-25.87890625,3.90625,10.7421875,0.0
1734420444.8662612,200.68359375,-28.3203125,-347.65625,-116.2109375,0.0
1734420444.870166,125.9765625,-30.76171875,-507.32421875,-137.20703125,0.0
1734420444.8740711,-143.5546875,-27.34375,-34.66796875,-19.53125,0.0
1734420444.877976,-412.109375,-24.90234375,90.8203125,93.75,0.0
1734420444.881881,-4.39453125,-32.2265625,-68.84765625,41.50390625,0.0
1734420444.8857858,204.1015625,-37.109375,-103.515625,-119.62890625,0.0
1734420444.8897014,128.41796875,-31.73828125,-191.40625,-163.0859375,0.0
1734420444.8936062,-95.21484375,-33.203125,-140.625,-38.0859375,0.0
1734420444.8975112,-416.50390625,-36.62109375,-2.9296875,95.703125,0.0
1734420444.901416,-51.26953125,-34.66796875,39.0625,63.4765625,0.0
1734420444.9053211,220.703125,-37.109375,-47.8515625,-93.75,0.0
1734420444.9092262,142.578125,-40.0390625,-309.08203125,-157.71484375,0.0
1734420444.913131,-45.8984375,-38.57421875,-371.58203125,-45.41015625,0.0
1734420444.917036,-400.390625,-31.25,-117.67578125,97.65625,0.0
1734420444.9209409,-93.75,-32.71484375,137.6953125,79.58984375,0.0
1734420444.924846,228.02734375,-35.15625,-97.65625,-86.42578125,0.0
1734420444.9287508,139.6484375,-34.1796875,-392.578125,-181.15234375,0.0
1734420444.9326558,-17.578125,-37.59765625,-149.4140625,-86.42578125,0.0
1734420444.9365706,-396.97265625,-39.55078125,91.796875,53.22265625,0.0
1734420444.9404757,-192.3828125,-46.875,-31.73828125,67.3828125,0.0
1734420444.9443805,195.80078125,-50.78125,-140.13671875,-71.77734375,0.0
1734420444.9482856,142.578125,-41.50390625,-226.07421875,-171.38671875,0.0
1734420444.9521906,14.16015625,-34.66796875,-237.79296875,-89.84375,0.0
1734420444.9560955,-366.69921875,-45.41015625,-250.0,53.7109375,0.0
1734420444.9600005,-252.44140625,-52.24609375,-273.4375,82.03125,0.0
1734420444.9639053,182.6171875,-46.38671875,-159.66796875,-55.6640625,0.0
1734420444.9678104,164.55078125,-39.0625,-233.3984375,-171.875,0.0
1734420444.9717152,57.12890625,-37.109375,-405.76171875,-112.79296875,0.0
1734420444.9756203,-313.96484375,-37.109375,-214.84375,42.96875,0.0
1734420444.979525,-300.29296875,-31.73828125,95.703125,88.8671875,0.0
1734420444.9834473,155.76171875,-32.2265625,29.78515625,-25.390625,0.0
1734420444.9873521,177.734375,-31.73828125,-262.20703125,-142.08984375,0.0
1734420444.9912572,86.42578125,-29.296875,-259.765625,-108.3984375,0.0
1734420444.995162,-257.32421875,-29.78515625,41.50390625,30.2734375,0.0
1734420444.999067,-343.26171875,-28.3203125,41.9921875,112.3046875,0.0
1734420445.002972,111.328125,-35.64453125,-144.53125,18.5546875,0.0
1734420445.006877,179.19921875,-39.55078125,-283.203125,-133.30078125,0.0
1734420445.010782,102.5390625,-34.66796875,-242.1875,-124.0234375,0.0
1734420445.0146868,-201.171875,-37.59765625,-72.265625,25.87890625,0.0
1734420445.018592,-379.39453125,-41.50390625,-188.4765625,117.1875,0.0
1734420445.0224967,71.2890625,-34.66796875,-58.10546875,32.71484375,0.0
1734420445.0264018,209.9609375,-34.66796875,-1.46484375,-116.69921875,0.0
1734420445.0303233,0.0,-42.48046875,-365.234375,-136.23046875,0.0
1734420445.034228,0.0,-41.50390625,-217.7734375,-1.46484375,0.0
1734420445.0381331,0.0,-38.57421875,70.80078125,109.375,0.0
1734420445.042038,0.0,-37.109375,56.15234375,47.36328125,0.0
1734420445.045943,0.0,-38.57421875,-165.52734375,-98.6328125,0.0
1734420445.0498478,0.0,-36.62109375,-388.18359375,-128.41796875,0.0
1734420445.053753,0.0,-34.1796875,-230.95703125,-8.7890625,0.0
1734420445.0576577,0.0,-39.0625,-168.9453125,112.3046875,0.0
1734420445.0615628,0.0,-41.9921875,-350.09765625,77.63671875,0.0
1734420445.0654678,0.0,-39.0625,-361.328125,-73.73046875,0.0
1734420445.0693727,0.0,-30.2734375,-199.21875,-139.16015625,0.0
1734420445.0732777,0.0,-30.76171875,-86.42578125,-29.296875,0.0
1734420445.0771976,-406.25,-32.2265625,-20.5078125,99.609375,0.0
1734420445.0811024,-108.88671875,-36.62109375,20.99609375,87.40234375,0.0
1734420445.0850074,223.6328125,-36.62109375,44.921875,-71.77734375,0.0
1734420445.0889125,160.15625,-33.203125,-232.91015625,-160.15625,0.0
1734420445.0928173,-1.953125,-33.203125,-248.046875,-64.94140625,0.0
1734420445.0967224,-382.32421875,-33.203125,-169.921875,79.1015625,0.0
1734420445.1006272,-154.78515625,-34.66796875,-78.61328125,87.40234375,0.0
1734420445.1045322,239.2578125,-33.69140625,-2.44140625,-48.828125,0.0
1734420445.108437,166.50390625,-31.25,-343.26171875,-141.11328125,0.0
1734420445.1123421,29.78515625,-24.4140625,-218.75,-72.265625,0.0
1734420445.1162472,-348.14453125,-24.90234375,78.125,72.265625,0.0
1734420445.120152,-227.05078125,-28.3203125,11.23046875,97.16796875,0.0
1734420445.1240711,205.56640625,-27.34375,-30.2734375,-34.66796875,0.0
1734420445.1279762,180.6640625,-25.87890625,-145.5078125,-152.34375,0.0
1734420445.131881,78.61328125,-28.3203125,-180.17578125,-90.8203125,0.0
1734420445.135786,-289.0625,-31.25,-85.44921875,67.3828125,0.0
1734420445.1396909,-273.92578125,-26.85546875,-67.87109375,103.515625,0.0
1734420445.143596,174.8046875,-25.87890625,-103.515625,-30.2734375,0.0
1734420445.147501,184.08203125,-27.83203125,-321.77734375,-172.36328125,0.0
1734420445.1514058,87.40234375,-32.71484375,-491.2109375,-135.25390625,0.0
1734420445.1553109,-259.27734375,-34.66796875,-280.2734375,32.71484375,0.0
1734420445.1592157,-330.078125,-29.296875,113.28125,107.421875,0.0
1734420445.1631207,132.8125,-26.3671875,52.734375,2.9296875,0.0
1734420445.1670256,190.4296875,-30.2734375,-244.140625,-143.5546875,0.0
1734420445.1709442,0.0,-33.203125,-276.85546875,-138.18359375,0.0
1734420445.174849,0.0,-30.2734375,25.390625,16.11328125,0.0
1734420445.178754,0.0,-30.2734375,44.921875,118.1640625,0.0
1734420445.182659,0.0,-35.15625,-18.5546875,25.390625,0.0
1734420445.186564,0.0,-34.66796875,-148.4375,-126.46484375,0.0
1734420445.190469,0.0,-34.66796875,-331.0546875,-137.20703125,0.0
1734420445.1943738,0.0,-34.1796875,-234.86328125,3.90625,0.0
1734420445.198279,0.0,-36.62109375,-238.76953125,135.25390625,0.0
1734420445.2021837,0.0,-32.71484375,-36.62109375,62.98828125,0.0
1734420445.2060888,0.0,-27.83203125,1.953125,-117.1875,0.0
1734420445.2099936,0.0,-29.296875,-336.42578125,-146.97265625,0.0
1734420445.2138987,0.0,-24.90234375,-213.8671875,-20.01953125,0.0
1734420445.2178154,-407.71484375,-22.4609375,82.03125,107.91015625,0.0
1734420445.2217205,-30.76171875,-25.87890625,96.6796875,62.5,0.0
1734420445.2256253,219.7265625,-36.1328125,-161.1328125,-100.09765625,0.0
1734420445.2295303,137.20703125,-35.64453125,-358.88671875,-160.15625,0.0
1734420445.2334352,-53.22265625,-33.203125,-81.54296875,-51.26953125,0.0
1734420445.2373402,-396.97265625,-36.62109375,-23.92578125,106.4453125,0.0
1734420445.2412453,-88.37890625,-36.62109375,-294.43359375,96.19140625,0.0
1734420445.24515,224.12109375,-33.203125,-416.50390625,-71.77734375,0.0
1734420445.2490551,148.4375,-29.78515625,-288.0859375,-158.203125,0.0
1734420445.25296,-12.6953125,-31.25,-114.74609375,-57.12890625,0.0
1734420445.256865,-379.8828125,-30.2734375,-37.109375,88.37890625,0.0
1734420445.2607698,-141.11328125,-33.203125,21.97265625,102.5390625,0.0
1734420445.2646937,0.0,-35.64453125,20.99609375,-43.9453125,0.0
1734420445.2685988,0.0,-36.62109375,-285.15625,-164.0625,0.0
1734420445.2725036,0.0,-39.0625,-286.1328125,-96.6796875,0.0
1734420445.2764087,0.0,-39.55078125,-5.859375,57.12890625,0.0
1734420445.2803137,0.0,-42.48046875,120.60546875,92.28515625,0.0
1734420445.2842185,0.0,-41.50390625,-100.09765625,-39.55078125,0.0
1734420445.2881236,0.0,-40.52734375,-465.33203125,-150.87890625,0.0
1734420445.2920284,0.0,-41.015625,-236.81640625,-95.21484375,0.0
1734420445.2959335,0.0,-39.0625,98.6328125,43.45703125,0.0
1734420445.2998383,0.0,-43.45703125,3.41796875,94.23828125,0.0
1734420445.3037434,0.0,-41.9921875,-42.48046875,-24.90234375,0.0
1734420445.3076482,0.0,-36.1328125,-132.32421875,-159.66796875,0.0
1734420445.3115633,69.82421875,-36.1328125,-195.80078125,-126.46484375,0.0
1734420445.3154683,-277.83203125,-40.52734375,-81.54296875,37.59765625,0.0
1734420445.3193731,-332.51953125,-37.59765625,-39.55078125,111.81640625,0.0
1734420445.3232782,135.25390625,-35.15625,81.54296875,2.9296875,0.0
1734420445.327183,176.7578125,-39.55078125,-143.06640625,-130.859375,0.0
1734420445.331088,81.54296875,-42.48046875,-358.3984375,-116.2109375,0.0
1734420445.3349931,-221.6796875,-41.9921875,-234.86328125,33.203125,0.0
1734420445.338898,-372.0703125,-45.8984375,-199.21875,126.46484375,0.0
1734420445.342803,75.1953125,-46.875,-198.73046875,37.59765625,0.0
1734420445.3467078,194.3359375,-54.19921875,-433.10546875,-96.6796875,0.0
1734420445.3506129,115.72265625,-52.734375,-477.5390625,-106.4453125,0.0
1734420445.3545177,-158.69140625,-47.8515625,4.8828125,23.92578125,0.0
1734420445.35844,0.0,-54.6875,61.5234375,138.671875,0.0
1734420445.3623447,0.0,-53.7109375,-35.15625,80.56640625,0.0
1734420445.3662498,0.0,-50.78125,-104.00390625,-77.1484375,0.0
1734420445.3701546,0.0,-45.41015625,-233.3984375,-105.46875,0.0
1734420445.3740597,0.0,-41.015625,-59.5703125,24.4140625,0.0
1734420445.3779647,0.0,-47.36328125,-148.92578125,140.13671875,0.0
1734420445.3818696,0.0,-50.29296875,-126.953125,91.796875,0.0
1734420445.3857746,0.0,-43.45703125,17.08984375,-73.73046875,0.0
1734420445.3896794,0.0,-41.015625,-289.0625,-125.0,0.0
1734420445.3935845,0.0,-44.43359375,-324.21875,9.765625,0.0
1734420445.3974893,0.0,-42.48046875,-11.71875,135.25390625,0.0
1734420445.4013944,0.0,-39.55078125,153.3203125,101.5625,0.0
1734420445.4053156,234.375,-43.45703125,-128.41796875,-44.921875,0.0
1734420445.4092205,164.0625,-40.0390625,-401.85546875,-124.51171875,0.0
1734420445.4131255,-4.8828125,-34.1796875,-114.2578125,-35.15625,0.0
1734420445.4170306,-390.625,-42.96875,87.890625,93.75,0.0
1734420445.4209354,-144.53125,-45.8984375,-36.1328125,96.6796875,0.0
1734420445.4248405,231.93359375,-46.875,-249.0234375,-40.0390625,0.0
1734420445.4287453,155.2734375,-45.8984375,-353.02734375,-141.11328125,0.0
1734420445.4326503,15.13671875,-39.0625,-203.125,-62.01171875,0.0
1734420445.4365551,-357.421875,-43.9453125,-254.39453125,95.703125,0.0
1734420445.4404602,-208.0078125,-41.015625,-225.5859375,122.55859375,0.0
1734420445.4443653,208.49609375,-30.76171875,83.984375,-19.04296875,0.0
1734420445.44827,165.0390625,-32.2265625,-220.703125,-135.25390625,0.0
1734420445.45219,50.78125,-37.109375,-318.84765625,-88.37890625,0.0
1734420445.456095,-327.1484375,-39.0625,-11.71875,55.17578125,0.0
1734420445.4599998,-276.3671875,-32.2265625,118.1640625,115.72265625,0.0
1734420445.4639049,186.03515625,-31.25,-22.94921875,1.46484375,0.0
1734420445.4678097,187.5,-37.109375,-294.43359375,-142.578125,0.0
1734420445.4717147,86.42578125,-33.69140625,-316.40625,-125.9765625,0.0
1734420445.4756198,-263.18359375,-29.296875,-194.3359375,35.15625,0.0
1734420445.4795246,-313.4765625,-29.78515625,-160.15625,113.76953125,0.0
1734420445.4834297,139.6484375,-33.203125,-226.07421875,6.8359375,0.0
1734420445.4873345,187.5,-28.3203125,-268.06640625,-141.11328125,0.0
1734420445.4912395,109.375,-23.4375,-184.5703125,-127.9296875,0.0
1734420445.4951444,-213.37890625,-30.2734375,-70.80078125,31.25,0.0
1734420445.4990635,-362.79296875,-31.73828125,-39.55078125,110.83984375,0.0
1734420445.5029683,97.16796875,-24.4140625,96.6796875,18.06640625,0.0
1734420445.5068734,208.0078125,-30.2734375,-134.27734375,-124.0234375,0.0
1734420445.5107782,125.48828125,-32.2265625,-373.046875,-125.9765625,0.0
1734420445.5146832,-156.73828125,-28.80859375,-139.6484375,19.53125,0.0
1734420445.518588,-390.625,-32.71484375,0.48828125,117.67578125,0.0
1734420445.5224931,33.69140625,-30.2734375,-31.73828125,43.9453125,0.0
1734420445.5263982,205.078125,-29.296875,-381.8359375,-96.6796875,0.0
1734420445.530303,125.9765625,-30.76171875,-495.1171875,-130.859375,0.0
1734420445.534208,-117.1875,-30.2734375,-3.41796875,-24.90234375,0.0
1734420445.5381129,-411.62109375,-30.76171875,115.234375,101.5625,0.0
1734420445.542018,-22.94921875,-27.83203125,-25.87890625,62.01171875,0.0
1734420445.5459356,218.26171875,-29.78515625,-79.1015625,-103.02734375,0.0
1734420445.5498407,141.11328125,-36.1328125,-162.109375,-174.8046875,0.0
1734420445.5537457,-73.73046875,-40.0390625,-91.796875,-63.4765625,0.0
1734420445.5576506,-422.36328125,-34.1796875,31.73828125,87.890625,0.0
1734420445.5615556,-82.51953125,-28.3203125,66.89453125,74.70703125,0.0
1734420445.5654604,226.5625,-30.76171875,-106.93359375,-81.54296875,0.0
1734420445.5693655,144.04296875,-32.2265625,-365.234375,-148.92578125,0.0
1734420445.5732703,-30.76171875,-31.25,-346.6796875,-36.62109375,0.0
1734420445.5771754,-392.08984375,-26.85546875,-41.50390625,89.84375,0.0
1734420445.5810804,-136.23046875,-26.3671875,150.390625,73.73046875,0.0
1734420445.5849853,222.16796875,-30.2734375,-50.78125,-68.84765625,0.0
1734420445.5888903,153.3203125,-31.25,-337.40234375,-170.41015625,0.0
1734420445.5928068,8.7890625,-32.71484375,-114.2578125,-88.37890625,0.0
1734420445.5967119,-369.140625,-35.15625,106.4453125,63.4765625,0.0
1734420445.600617,-207.03125,-31.73828125,-21.484375,96.6796875,0.0
1734420445.6045218,206.54296875,-32.2265625,-56.15234375,-33.203125,0.0
1734420445.6084268,157.2265625,-34.66796875,-175.78125,-164.0625,0.0
1734420445.6123316,40.52734375,-30.2734375,-269.53125,-94.7265625,0.0
1734420445.6162367,-327.1484375,-32.71484375,-339.84375,73.2421875,0.0
1734420445.6201415,-270.5078125,-37.59765625,-240.72265625,127.44140625,0.0
1734420445.6240466,187.01171875,-36.62109375,87.40234375,-6.8359375,0.0
1734420445.6279516,177.24609375,-35.15625,-208.49609375,-156.73828125,0.0
1734420445.6318564,66.40625,-32.71484375,-329.58984375,-121.58203125,0.0
1734420445.6357615,-287.109375,-33.69140625,-33.203125,39.55078125,0.0
1734420445.6396775,-318.359375,-32.2265625,102.5390625,106.4453125,0.0
1734420445.6435826,147.4609375,-32.71484375,29.296875,2.9296875,0.0
1734420445.6474874,190.4296875,-35.15625,-222.16796875,-142.578125,0.0
1734420445.6513925,93.75,-37.59765625,-258.7890625,-142.578125,0.0
1734420445.6552973,-235.3515625,-37.109375,5.859375,8.30078125,0.0
1734420445.6592023,-354.98046875,-35.64453125,-3.90625,112.3046875,0.0
1734420445.6631072,91.796875,-38.0859375,-227.5390625,30.2734375,0.0
1734420445.6670122,174.31640625,-36.1328125,-280.76171875,-135.7421875,0.0
1734420445.6709173,107.91015625,-32.2265625,-202.63671875,-170.41015625,0.0
1734420445.674822,-173.828125,-34.66796875,-93.75,-6.8359375,0.0
1734420445.6787271,-393.06640625,-35.64453125,-33.203125,123.53515625,0.0
1734420445.682632,42.96875,-31.25,57.12890625,30.2734375,0.0
1734420445.6865468,209.47265625,-28.80859375,-169.43359375,-124.0234375,0.0
1734420445.6904519,150.390625,-27.83203125,-442.3828125,-136.71875,0.0
1734420445.6943567,-103.02734375,-28.3203125,-172.8515625,-4.39453125,0.0
1734420445.6982617,-403.3203125,-29.78515625,105.46875,113.76953125,0.0
1734420445.7021666,-0.9765625,-31.25,48.33984375,67.87109375,0.0
1734420445.7060716,228.515625,-36.1328125,-284.66796875,-83.49609375,0.0
1734420445.7099767,147.4609375,-41.015625,-474.12109375,-139.16015625,0.0
1734420445.7138815,-63.4765625,-42.48046875,-177.24609375,-27.83203125,0.0
1734420445.7177866,-409.66796875,-35.15625,84.9609375,104.98046875,0.0
1734420445.7216914,-76.66015625,-33.203125,-63.4765625,87.890625,0.0
1734420445.7255964,226.07421875,-31.73828125,-173.33984375,-69.3359375,0.0
1734420445.7295015,165.0390625,-23.4375,-57.12890625,-150.390625,0.0
1734420445.7334237,-18.5546875,-25.390625,0.0,-43.9453125,0.0
1734420445.7373285,-413.0859375,-24.90234375,86.42578125,89.84375,0.0
1734420445.7412336,-142.08984375,-21.484375,122.55859375,80.56640625,0.0
1734420445.7451386,217.28515625,-28.3203125,-32.71484375,-57.6171875,0.0
1734420445.7490435,139.16015625,-27.34375,-304.6875,-156.73828125,0.0
1734420445.7529485,-8.30078125,-27.34375,-282.2265625,-81.0546875,0.0
1734420445.7568533,-387.6953125,-31.25,-53.22265625,66.40625,0.0
1734420445.7607584,-217.28515625,-28.3203125,116.69921875,90.33203125,0.0
1734420445.7646632,191.89453125,-31.73828125,-16.6015625,-48.828125,0.0
1734420445.7685683,141.6015625,-33.69140625,-318.84765625,-164.0625,0.0
1734420445.7724733,16.6015625,-29.78515625,-161.62109375,-100.09765625,0.0
1734420445.7763782,-352.5390625,-30.76171875,107.91015625,57.12890625,0.0
1734420445.7802992,-271.484375,-36.1328125,0.48828125,98.14453125,0.0
1734420445.7842042,172.8515625,-33.203125,-26.3671875,-37.109375,0.0
1734420445.788109,163.0859375,-31.25,-108.3984375,-165.0390625,0.0
1734420445.7920141,63.4765625,-33.203125,-125.9765625,-107.91015625,0.0
1734420445.795919,-277.34375,-27.83203125,-33.69140625,59.5703125,0.0
1734420445.799824,-306.640625,-31.25,-156.25,119.140625,0.0
1734420445.8037288,137.6953125,-36.62109375,-81.54296875,2.9296875,0.0
1734420445.8076339,177.24609375,-35.64453125,-192.87109375,-136.71875,0.0
1734420445.811539,89.84375,-40.0390625,-452.1484375,-110.3515625,0.0
1734420445.8154438,-247.55859375,-40.52734375,-244.62890625,45.8984375,0.0
1734420445.8193488,-367.67578125,-32.71484375,141.6015625,112.79296875,0.0
1734420445.8232536,86.9140625,-34.1796875,107.421875,20.01953125,0.0
1734420445.8271735,180.17578125,-37.59765625,-148.4375,-124.51171875,0.0
1734420445.8310785,109.86328125,-33.203125,-225.09765625,-123.53515625,0.0
1734420445.8349833,-184.08203125,-32.2265625,47.36328125,34.66796875,0.0
1734420445.8388884,-392.08984375,-33.203125,60.05859375,134.765625,0.0
1734420445.8427932,44.921875,-28.3203125,8.7890625,46.38671875,0.0
1734420445.8466983,202.1484375,-29.296875,-160.64453125,-106.93359375,0.0
1734420445.8506033,122.0703125,-31.73828125,-311.03515625,-130.859375,0.0
1734420445.8545082,-124.0234375,-28.3203125,-19.04296875,-7.32421875,0.0
1734420445.8584132,-413.57421875,-36.1328125,-102.5390625,120.1171875,0.0
1734420445.862318,-30.76171875,-38.0859375,-40.0390625,76.171875,0.0
1734420445.866223,208.49609375,-32.2265625,-54.19921875,-96.6796875,0.0
1734420445.8701282,126.46484375,-39.0625,-365.72265625,-157.71484375,0.0
1734420445.8740478,-103.02734375,-45.41015625,0.0,-38.57421875,0.0
1734420445.8779528,-443.359375,-41.9921875,0.0,112.3046875,0.0
1734420445.8818576,-89.84375,-37.59765625,0.0,93.26171875,0.0
1734420445.8857627,209.47265625,-40.52734375,0.0,-78.125,0.0
1734420445.8896675,125.48828125,-41.015625,0.0,-152.34375,0.0
1734420445.8935726,-52.24609375,-41.015625,0.0,-53.7109375,0.0
1734420445.8974776,-417.96875,-42.96875,0.0,81.54296875,0.0
1734420445.9013824,-148.92578125,-44.921875,0.0,75.1953125,0.0
1734420445.9052875,205.56640625,-41.015625,0.0,-69.82421875,0.0
1734420445.9091923,138.18359375,-34.1796875,0.0,-156.73828125,0.0
1734420445.9130974,-3.41796875,-33.69140625,0.0,-78.125,0.0
1734420445.9170022,-385.7421875,-40.52734375,0.0,89.84375,0.0
1734420445.92092,-202.63671875,-39.0625,-145.01953125,116.2109375,0.0
1734420445.924825,193.84765625,-37.109375,55.6640625,-44.921875,0.0
1734420445.92873,150.390625,-39.0625,-203.61328125,-155.2734375,0.0
1734420445.9326348,33.203125,-41.50390625,-211.42578125,-83.0078125,0.0
1734420445.93654,-366.2109375,-41.9921875,41.50390625,82.51953125,0.0
1734420445.9404447,-270.99609375,-42.48046875,58.10546875,123.53515625,0.0
1734420445.9443498,179.19921875,-41.50390625,-0.9765625,-18.5546875,0.0
1734420445.9482548,155.2734375,-40.0390625,-265.625,-145.5078125,0.0
1734420445.9521596,61.5234375,-31.73828125,-171.38671875,-91.796875,0.0
1734420445.9560647,-295.8984375,-23.4375,167.96875,65.91796875,0.0
1734420445.9599695,-326.66015625,-27.83203125,73.2421875,124.0234375,0.0
1734420445.9638746,133.30078125,-32.2265625,53.7109375,0.0,0.0
1734420445.9677913,167.48046875,-33.69140625,26.85546875,-132.8125,0.0
1734420445.9716964,77.1484375,-30.2734375,-11.71875,-91.30859375,0.0
1734420445.9756012,-255.37109375,-30.76171875,1.46484375,56.640625,0.0
1734420445.9795063,-358.88671875,-31.25,30.76171875,119.140625,0.0
1734420445.9834113,103.515625,-30.76171875,81.54296875,12.6953125,0.0
1734420445.9873161,180.6640625,-26.3671875,-147.94921875,-136.71875,0.0
1734420445.9912212,104.98046875,-27.83203125,-405.2734375,-130.37109375,0.0
1734420445.995126,-199.21875,-30.76171875,-267.08984375,26.85546875,0.0
1734420445.999031,-399.90234375,-20.99609375,106.4453125,125.48828125,0.0
1734420446.0029361,55.17578125,-23.92578125,136.23046875,53.7109375,0.0
1734420446.006841,210.9375,-23.4375,-94.7265625,-84.9609375,0.0
1734420446.010746,131.34765625,-20.01953125,-181.640625,-107.421875,0.0
1734420446.0146623,-140.625,-27.83203125,97.16796875,-11.23046875,0.0
1734420446.0185673,-423.828125,-30.2734375,119.140625,93.75,0.0
1734420446.0224721,-15.625,-31.25,53.7109375,56.15234375,0.0
1734420446.0263772,214.35546875,-31.73828125,55.6640625,-93.75,0.0
1734420446.030282,143.5546875,-24.90234375,-69.3359375,-147.94921875,0.0
1734420446.034187,-86.42578125,-17.578125,-63.4765625,-23.4375,0.0
1734420446.0380921,-394.53125,-18.5546875,-133.30078125,113.28125,0.0
1734420446.041997,-53.7109375,-21.97265625,-85.9375,62.5,0.0
1734420446.045902,186.5234375,-17.08984375,69.82421875,-117.67578125,0.0
1734420446.0498068,110.83984375,-11.71875,-149.90234375,-208.984375,0.0
1734420446.053712,-69.3359375,-8.7890625,-120.1171875,-97.65625,0.0
1734420446.057617,-430.6640625,-3.90625,130.859375,56.640625,0.0
1734420446.0615315,-142.08984375,-6.8359375,158.203125,41.50390625,0.0
1734420446.0654366,195.3125,-14.16015625,-6.34765625,-127.44140625,0.0
1734420446.0693417,127.44140625,-10.7421875,-283.69140625,-206.54296875,0.0
1734420446.0732465,-35.64453125,-7.32421875,-62.5,-121.58203125,0.0
1734420446.0771515,-362.79296875,-11.23046875,116.2109375,27.83203125,0.0
1734420446.0810564,-119.140625,-18.06640625,-136.71875,63.96484375,0.0
1734420446.0849614,207.51953125,-21.97265625,-318.84765625,-69.3359375,0.0
1734420446.0888662,146.484375,-15.13671875,-286.1328125,-187.01171875,0.0
1734420446.0927713,19.53125,-16.11328125,-70.80078125,-115.234375,0.0
1734420446.0966763,-373.046875,-23.92578125,-82.03125,46.38671875,0.0
1734420446.1005812,-255.37109375,-23.92578125,-98.6328125,83.49609375,0.0
1734420446.1044862,191.89453125,-27.83203125,56.640625,-50.29296875,0.0
1734420446.108408,148.4375,-32.2265625,-186.03515625,-184.5703125,0.0
1734420446.1123128,34.1796875,-30.2734375,-286.1328125,-135.25390625,0.0
1734420446.1162179,-330.078125,-31.25,8.30078125,20.01953125,0.0
1734420446.1201227,-322.75390625,-27.34375,137.20703125,87.890625,0.0
1734420446.1240277,156.25,-23.4375,54.6875,-20.99609375,0.0
1734420446.1279328,177.24609375,-27.83203125,-248.53515625,-145.5078125,0.0
1734420446.1318376,75.68359375,-26.3671875,-225.5859375,-125.0,0.0
1734420446.1357427,-253.41796875,-20.99609375,112.79296875,8.7890625,0.0
1734420446.1396475,-345.21484375,-22.4609375,101.5625,94.23828125,0.0
1734420446.1435525,116.69921875,-24.4140625,-100.09765625,17.08984375,0.0
1734420446.1474576,193.359375,-18.5546875,-164.55078125,-144.53125,0.0
1734420446.1513624,114.2578125,-14.16015625,-117.67578125,-142.08984375,0.0
1734420446.1552835,-194.3359375,-21.484375,-35.15625,15.13671875,0.0
1734420446.1591883,-387.6953125,-29.78515625,17.08984375,94.7265625,0.0
1734420446.1630933,74.70703125,-27.83203125,23.4375,25.390625,0.0
1734420446.1669984,210.9375,-24.90234375,-57.6171875,-111.328125,0.0
1734420446.1709032,136.71875,-29.296875,-250.48828125,-137.20703125,0.0
1734420446.1748083,-135.7421875,-31.25,-244.62890625,-21.97265625,0.0
1734420446.178713,-413.0859375,-26.85546875,-54.19921875,87.40234375,0.0
1734420446.1826181,11.23046875,-29.78515625,41.9921875,44.43359375,0.0
1734420446.1865232,217.28515625,-34.66796875,-266.6015625,-110.3515625,0.0
1734420446.190428,135.7421875,-30.2734375,-454.1015625,-163.57421875,0.0
1734420446.194333,-88.37890625,-19.53125,25.87890625,-45.8984375,0.0
1734420446.198238,-426.26953125,-24.90234375,113.28125,95.703125,0.0
1734420446.202158,-60.546875,-25.390625,70.80078125,75.1953125,0.0
1734420446.2060628,220.21484375,-26.3671875,56.640625,-94.23828125,0.0
1734420446.2099679,140.13671875,-31.25,-104.4921875,-168.45703125,0.0
1734420446.2138727,-62.98828125,-31.25,-3.90625,-44.43359375,0.0
1734420446.2177777,-379.39453125,-38.57421875,40.0390625,82.03125,0.0
1734420446.2216825,-41.50390625,-38.0859375,27.83203125,56.640625,0.0
1734420446.2255876,226.5625,-32.71484375,-66.89453125,-70.80078125,0.0
1734420446.2294927,147.4609375,-35.15625,-315.4296875,-154.296875,0.0
1734420446.2333975,-9.765625,-43.45703125,-288.0859375,-59.08203125,0.0
1734420446.2373025,-389.16015625,-38.0859375,28.3203125,98.6328125,0.0
1734420446.2412074,-166.9921875,-33.203125,196.77734375,89.35546875,0.0
1734420446.2451124,229.00390625,-40.0390625,54.6875,-79.1015625,0.0
1734420446.249032,157.71484375,-41.015625,-219.7265625,-176.7578125,0.0
1734420446.2529368,26.3671875,-40.52734375,-58.10546875,-104.00390625,0.0
1734420446.256842,-356.4453125,-44.921875,158.203125,55.17578125,0.0
1734420446.260747,-229.4921875,-41.9921875,29.78515625,103.02734375,0.0
1734420446.2646518,229.4921875,-30.76171875,-19.53125,-24.90234375,0.0
1734420446.2685568,199.70703125,-29.78515625,-211.9140625,-146.97265625,0.0
1734420446.2724617,74.21875,-30.2734375,-259.765625,-105.46875,0.0
1734420446.2763667,-296.875,-25.87890625,-221.19140625,61.03515625,0.0
1734420446.2802715,-282.71484375,-27.34375,-210.9375,128.41796875,0.0
1734420446.2841766,182.12890625,-23.92578125,103.02734375,-0.9765625,0.0
1734420446.2880816,196.2890625,-26.85546875,-33.69140625,-150.87890625,0.0
1734420446.2919865,108.88671875,-32.2265625,-231.4453125,-129.39453125,0.0
1734420446.2959046,-235.3515625,-33.69140625,26.3671875,30.76171875,0.0
1734420446.2998095,-329.58984375,-31.25,195.3125,113.28125,0.0
1734420446.3037145,148.4375,-28.80859375,93.75,4.39453125,0.0
1734420446.3076193,212.40234375,-32.2265625,-153.3203125,-140.13671875,0.0
1734420446.3115244,132.8125,-27.83203125,-251.46484375,-141.6015625,0.0
1734420446.3154294,-187.5,-29.296875,-45.8984375,-2.9296875,0.0
1734420446.3193343,-381.34765625,-34.66796875,47.8515625,110.3515625,0.0
1734420446.3232393,83.984375,-38.0859375,-142.08984375,40.52734375,0.0
1734420446.3271441,219.23828125,-33.69140625,-201.66015625,-115.72265625,0.0
1734420446.3310492,152.83203125,-27.34375,-134.27734375,-134.27734375,0.0
1734420446.334954,-123.046875,-27.83203125,-13.671875,2.9296875,0.0
1734420446.338859,-394.04296875,-28.3203125,48.33984375,114.2578125,0.0
1734420446.3427756,44.921875,-30.76171875,65.91796875,55.17578125,0.0
1734420446.3466806,252.9296875,-32.71484375,34.66796875,-100.09765625,0.0
1734420446.3505855,170.41015625,-33.203125,-246.58203125,-141.6015625,0.0
1734420446.3544905,-69.82421875,-32.71484375,-115.234375,-13.671875,0.0
1734420446.3583956,-395.5078125,-30.76171875,148.92578125,109.375,0.0
1734420446.3623004,-11.71875,-27.34375,86.9140625,74.21875,0.0
1734420446.3662055,254.39453125,-33.203125,-246.09375,-66.40625,0.0
1734420446.3701103,154.296875,-37.59765625,-492.1875,-137.6953125,0.0
1734420446.3740153,-32.2265625,-34.1796875,-22.4609375,-47.36328125,0.0
1734420446.3779202,-379.8828125,-33.69140625,161.1328125,83.49609375,0.0
1734420446.3818252,-82.51953125,-30.2734375,86.9140625,72.265625,0.0
1734420446.3857303,247.0703125,-28.80859375,66.40625,-58.59375,0.0
1734420446.3896465,179.6875,-28.3203125,-90.33203125,-138.671875,0.0
1734420446.3935516,21.484375,-26.85546875,-50.29296875,-37.109375,0.0
1734420446.3974564,-372.55859375,-32.2265625,88.37890625,121.58203125,0.0
1734420446.4013615,-143.06640625,-37.59765625,129.39453125,111.81640625,0.0
1734420446.4052665,271.97265625,-38.0859375,40.52734375,-29.296875,0.0
1734420446.4091713,215.33203125,-38.57421875,-262.20703125,-130.859375,0.0
1734420446.4130764,62.98828125,-39.55078125,-352.5390625,-50.78125,0.0
1734420446.4169812,-324.21875,-32.2265625,-29.296875,122.55859375,0.0
1734420446.4208863,-183.10546875,-24.90234375,200.1953125,129.39453125,0.0
1734420446.4247913,253.41796875,-32.71484375,40.52734375,-23.92578125,0.0
1734420446.4286962,214.84375,-38.57421875,-242.67578125,-115.234375,0.0
1734420446.4326012,110.83984375,-33.69140625,-99.609375,-53.22265625,0.0
1734420446.436516,-265.625,-34.1796875,176.7578125,75.68359375,0.0
1734420446.4404209,-241.2109375,-34.1796875,67.3828125,136.71875,0.0
1734420446.444326,222.16796875,-30.2734375,18.5546875,28.3203125,0.0
1734420446.448231,225.09765625,-26.3671875,-24.90234375,-112.79296875,0.0
1734420446.4521358,132.8125,-28.3203125,-13.18359375,-61.03515625,0.0
1734420446.4560409,-216.796875,-37.109375,-80.078125,92.7734375,0.0
1734420446.4599457,-308.59375,-35.64453125,-166.015625,152.34375,0.0
1734420446.4638507,152.83203125,-37.109375,80.56640625,58.10546875,0.0
1734420446.4677558,223.14453125,-42.96875,-115.72265625,-74.21875,0.0
1734420446.4716606,157.2265625,-41.015625,-253.90625,-60.546875,0.0
1734420446.4755657,-173.828125,-36.62109375,66.40625,80.078125,0.0
1734420446.4794705,-354.00390625,-28.3203125,220.703125,180.6640625,0.0
1734420446.4833925,132.32421875,-24.4140625,167.48046875,106.4453125,0.0
1734420446.4872975,237.79296875,-33.69140625,-44.43359375,-44.43359375,0.0
1734420446.4912024,133.7890625,-37.109375,-49.8046875,-74.70703125,0.0
1734420446.4951074,-145.99609375,-33.69140625,183.59375,46.38671875,0.0
1734420446.4990125,-402.83203125,-30.76171875,168.9453125,160.64453125,0.0
1734420446.5029173,36.1328125,-35.64453125,47.8515625,103.02734375,0.0
1734420446.5068223,233.3984375,-37.59765625,-12.6953125,-41.9921875,0.0
1734420446.5107272,154.78515625,-32.2265625,59.08203125,-85.9375,0.0
1734420446.5146322,-91.30859375,-28.3203125,147.4609375,19.53125,0.0
1734420446.5185373,-413.57421875,-29.296875,19.04296875,167.48046875,0.0
1734420446.522442,-11.71875,-29.78515625,83.984375,136.71875,0.0
1734420446.5263472,248.046875,-26.85546875,155.76171875,-27.83203125,0.0
1734420446.530268,165.52734375,-27.83203125,-59.5703125,-78.61328125,0.0
1734420446.534173,-47.36328125,-30.76171875,17.08984375,20.5078125,0.0
1734420446.5380778,-414.0625,-37.59765625,238.76953125,139.6484375,0.0
1734420446.541983,-74.21875,-39.55078125,236.328125,123.53515625,0.0
1734420446.5458877,247.55859375,-36.62109375,1.46484375,-30.76171875,0.0
1734420446.5497928,163.57421875,-36.1328125,-266.11328125,-119.140625,0.0
1734420446.5536976,1.953125,-31.25,-71.77734375,-37.109375,0.0
1734420446.5576026,-398.4375,-31.73828125,190.4296875,96.19140625,0.0
1734420446.5615077,-162.109375,-41.50390625,-7.32421875,112.3046875,0.0
1734420446.5654125,241.69921875,-41.50390625,-142.08984375,-34.66796875,0.0
1734420446.5693176,177.734375,-26.85546875,59.5703125,-150.87890625,0.0
1734420446.5732224,35.15625,-23.92578125,94.23828125,-77.1484375,0.0
1734420446.5771427,-359.86328125,-32.71484375,99.609375,75.68359375,0.0
1734420446.5810475,-202.63671875,-31.25,132.8125,119.62890625,0.0
1734420446.5849526,253.41796875,-24.90234375,174.8046875,-0.9765625,0.0
1734420446.5888577,213.8671875,-26.85546875,-15.625,-118.65234375,0.0
1734420446.5927625,66.40625,-31.73828125,-90.8203125,-66.89453125,0.0
1734420446.5966675,-329.1015625,-35.15625,36.62109375,69.82421875,0.0
1734420446.6005723,-252.9296875,-25.87890625,115.72265625,109.86328125,0.0
1734420446.6044774,232.91015625,-24.90234375,97.65625,17.08984375,0.0
1734420446.6083825,204.58984375,-45.8984375,-251.953125,-109.375,0.0
1734420446.6122873,96.19140625,-42.48046875,-151.3671875,-112.79296875,0.0
1734420446.6161923,-249.0234375,-32.2265625,184.08203125,25.390625,0.0
1734420446.6200972,-320.80078125,-29.78515625,110.3515625,112.3046875,0.0
1734420446.624016,180.17578125,-27.34375,56.15234375,14.6484375,0.0
1734420446.6279209,243.1640625,-22.94921875,-4.39453125,-121.58203125,0.0
1734420446.631826,148.4375,-22.4609375,-25.390625,-121.58203125,0.0
1734420446.6357307,-184.08203125,-32.2265625,-5.859375,4.8828125,0.0
1734420446.6396358,-352.05078125,-30.76171875,-14.6484375,81.0546875,0.0
1734420446.6435409,140.625,-18.5546875,49.31640625,9.765625,0.0
1734420446.6474457,249.0234375,-14.16015625,-139.6484375,-124.51171875,0.0
1734420446.6513507,152.83203125,-22.4609375,-422.36328125,-142.08984375,0.0
1734420446.6552556,-132.8125,-25.87890625,-239.2578125,-2.44140625,0.0
1734420446.6591606,-390.13671875,-20.99609375,160.64453125,89.84375,0.0
1734420446.6630657,72.265625,-29.296875,131.34765625,28.80859375,0.0
1734420446.6669705,253.90625,-31.73828125,-107.421875,-111.81640625,0.0
1734420446.6708884,150.390625,-30.76171875,-225.09765625,-150.390625,0.0
1734420446.6747932,-95.21484375,-28.80859375,48.33984375,-31.25,0.0
1734420446.6786983,-417.96875,-29.78515625,106.4453125,68.84765625,0.0
1734420446.6826034,-15.13671875,-35.15625,47.8515625,37.109375,0.0
1734420446.6865082,250.9765625,-37.109375,0.0,-91.796875,0.0
1734420446.6904132,157.2265625,-37.109375,-257.32421875,-149.90234375,0.0
1734420446.694318,-58.59375,-36.62109375,-243.65234375,-60.546875,0.0
1734420446.698223,-424.8046875,-43.9453125,-227.5390625,72.75390625,0.0
1734420446.7021282,-78.125,-39.0625,-18.5546875,59.08203125,0.0
1734420446.706033,266.6015625,-28.3203125,123.046875,-90.8203125,0.0
1734420446.709938,173.33984375,-29.78515625,-221.6796875,-162.59765625,0.0
1734420446.7138429,-14.6484375,-31.73828125,-231.93359375,-79.58984375,0.0
1734420446.7177598,-421.875,-37.59765625,41.9921875,37.59765625,0.0
1734420446.7216647,-155.2734375,-40.0390625,122.0703125,61.5234375,0.0
1734420446.7255697,260.7421875,-36.1328125,-113.28125,-66.89453125,0.0
1734420446.7294748,180.17578125,-39.55078125,-346.6796875,-167.96875,0.0
1734420446.7333796,28.3203125,-40.0390625,-212.40234375,-79.58984375,0.0
1734420446.7372847,-369.62890625,-39.55078125,-105.95703125,50.78125,0.0
1734420446.7411895,-199.70703125,-40.0390625,-245.1171875,77.63671875,0.0
1734420446.7450945,243.65234375,-39.55078125,-406.25,-41.50390625,0.0
1734420446.7489996,166.50390625,-32.2265625,-277.34375,-168.45703125,0.0
1734420446.7529044,43.9453125,-34.1796875,-214.84375,-122.0703125,0.0
1734420446.7568095,-363.28125,-42.48046875,-254.8828125,9.765625,0.0
1734420446.7607143,-335.9375,-38.57421875,-133.30078125,64.453125,0.0
1734420446.7646303,157.71484375,-36.62109375,62.98828125,-34.66796875,0.0
1734420446.7685354,153.80859375,-37.59765625,-206.0546875,-157.2265625,0.0
1734420446.7724402,35.15625,-35.15625,-399.90234375,-133.7890625,0.0
1734420446.7763453,-331.0546875,-37.59765625,-140.625,-2.9296875,0.0
1734420446.7802503,-383.30078125,-37.109375,-14.16015625,54.6875,0.0
1734420446.7841551,97.65625,-34.1796875,-205.56640625,-43.9453125,0.0
1734420446.7880602,131.34765625,-36.62109375,-465.8203125,-172.36328125,0.0
1734420446.791965,22.94921875,-34.66796875,-444.3359375,-173.828125,0.0
1734420446.79587,-312.01171875,-27.34375,-211.9140625,-53.7109375,0.0
1734420446.7997751,-460.44921875,-32.71484375,-231.4453125,29.78515625,0.0
1734420446.80368,38.57421875,-32.71484375,-302.734375,-27.34375,0.0
1734420446.807585,152.83203125,-25.87890625,-307.12890625,-161.1328125,0.0
1734420446.8115084,37.59765625,-32.71484375,-345.703125,-202.1484375,0.0
1734420446.8154135,-284.1796875,-42.48046875,-394.04296875,-97.65625,0.0
1734420446.8193185,-533.203125,-45.41015625,-375.0,2.9296875,0.0
1734420446.8232234,-75.1953125,-42.48046875,-251.953125,-68.84765625,0.0
1734420446.8271284,107.421875,-41.50390625,-347.65625,-218.75,0.0
1734420446.8310332,11.71875,-46.875,-582.51953125,-232.421875,0.0
1734420446.8349383,-244.140625,-43.45703125,-558.10546875,-109.86328125,0.0
1734420446.8388433,-562.98828125,-38.57421875,-314.453125,-12.20703125,0.0
1734420446.8427482,-165.0390625,-41.9921875,-270.01953125,-41.9921875,0.0
1734420446.8466532,71.77734375,-51.7578125,-418.9453125,-185.05859375,0.0
1734420446.850558,-42.48046875,-48.828125,-470.21484375,-257.8125,0.0
1734420446.854463,-268.06640625,-37.59765625,-331.54296875,-159.1796875,0.0
1734420446.8583856,-630.859375,-42.48046875,-323.73046875,-33.69140625,0.0
1734420446.8622904,-257.8125,-44.921875,-376.46484375,-55.6640625,0.0
1734420446.8661954,81.54296875,-41.9921875,-354.98046875,-192.87109375,0.0
1734420446.8701003,-10.7421875,-38.57421875,-429.19921875,-251.46484375,0.0
1734420446.8740053,-196.2890625,-40.52734375,-437.98828125,-181.15234375,0.0
1734420446.8779104,-601.07421875,-42.48046875,-431.640625,-67.87109375,0.0
1734420446.8818152,-333.49609375,-41.015625,-405.2734375,-62.01171875,0.0
1734420446.8857203,65.4296875,-39.55078125,-369.62890625,-188.4765625,0.0
1734420446.889625,-6.34765625,-31.73828125,-493.65234375,-267.08984375,0.0
1734420446.8935301,-170.8984375,-33.69140625,-569.82421875,-187.98828125,0.0
1734420446.897435,-594.7265625,-33.69140625,-390.13671875,-74.21875,0.0
1734420446.90134,-406.73828125,-30.2734375,-291.015625,-67.3828125,0.0
1734420446.9052615,65.4296875,-34.66796875,-384.765625,-175.78125,0.0
1734420446.9091666,26.85546875,-40.52734375,-527.83203125,-279.296875,0.0
1734420446.9130716,-107.91015625,-39.0625,-441.89453125,-241.2109375,0.0
1734420446.9169765,-525.390625,-39.55078125,-355.46875,-110.3515625,0.0
1734420446.9208815,-442.3828125,-44.43359375,-413.57421875,-58.10546875,0.0
1734420446.9247863,64.453125,-42.48046875,-483.3984375,-143.5546875,0.0
1734420446.9286914,52.24609375,-39.55078125,-520.5078125,-255.37109375,0.0
1734420446.9325964,-49.8046875,-36.1328125,-488.76953125,-228.515625,0.0
1734420446.9365013,-428.22265625,-43.45703125,-559.5703125,-84.9609375,0.0
1734420446.9404063,-480.95703125,-47.8515625,-550.29296875,-31.25,0.0
1734420446.9443111,38.57421875,-42.96875,-285.15625,-124.51171875,0.0
1734420446.9482162,114.2578125,-48.33984375,-392.578125,-239.74609375,0.0
1734420446.9521363,13.671875,-47.36328125,-501.46484375,-233.3984375,0.0
1734420446.9560413,-334.47265625,-44.43359375,-352.5390625,-116.69921875,0.0
1734420446.9599462,-482.421875,-41.015625,-303.7109375,-44.921875,0.0
1734420446.9638512,14.6484375,-39.0625,-326.171875,-111.328125,0.0
1734420446.967756,148.4375,-41.9921875,-444.3359375,-227.5390625,0.0
1734420446.971661,52.24609375,-49.31640625,-529.296875,-237.79296875,0.0
1734420446.9755661,-284.1796875,-44.921875,-388.671875,-122.0703125,0.0
1734420446.979471,-529.296875,-38.0859375,-354.98046875,-33.69140625,0.0
1734420446.983376,-54.6875,-39.55078125,-438.96484375,-74.70703125,0.0
1734420446.9872808,148.92578125,-30.76171875,-388.18359375,-196.2890625,0.0
1734420446.991186,83.49609375,-30.2734375,-367.1875,-244.62890625,0.0
1734420446.995091,-186.03515625,-35.64453125,-412.59765625,-139.16015625,0.0
1734420446.99901,-503.41796875,-34.66796875,-399.90234375,-31.73828125,0.0
1734420447.002915,-60.546875,-33.69140625,-258.30078125,-49.31640625,0.0
1734420447.00682,223.14453125,-35.15625,-290.52734375,-169.921875,0.0
1734420447.0107248,139.6484375,-36.1328125,-436.03515625,-230.46875,0.0
1734420447.0146298,-98.14453125,-39.0625,-395.99609375,-133.7890625,0.0
1734420447.018535,-471.19140625,-49.8046875,-328.125,-14.6484375,0.0
1734420447.0224397,-102.5390625,-44.43359375,-303.22265625,-20.99609375,0.0
1734420447.0263448,249.0234375,-33.69140625,-435.546875,-126.953125,0.0
1734420447.0302496,170.41015625,-33.203125,-542.48046875,-187.98828125,0.0
1734420447.0341547,-34.1796875,-29.296875,-264.16015625,-138.18359375,0.0
1734420447.0380597,-434.08203125,-31.73828125,-231.4453125,-20.99609375,0.0
1734420447.0419645,-141.11328125,-35.64453125,-296.38671875,-15.625,0.0
1734420447.0458827,270.5078125,-33.69140625,-225.09765625,-126.953125,0.0
1734420447.0497878,205.56640625,-30.76171875,-284.66796875,-185.05859375,0.0
1734420447.0536926,37.109375,-34.1796875,-349.12109375,-125.9765625,0.0
1734420447.0575976,-395.99609375,-33.203125,-284.66796875,-17.08984375,0.0
1734420447.0615025,-210.44921875,-32.2265625,-211.9140625,9.27734375,0.0
1734420447.0654075,263.18359375,-34.1796875,-266.11328125,-83.984375,0.0
1734420447.0693126,225.09765625,-33.69140625,-370.1171875,-177.734375,0.0
1734420447.0732174,76.66015625,-37.109375,-421.38671875,-124.51171875,0.0
1734420447.0771224,-346.19140625,-31.73828125,-314.453125,-8.7890625,0.0
1734420447.0810273,-248.046875,-22.94921875,-135.7421875,29.296875,0.0
1734420447.0849323,259.765625,-32.71484375,-149.4140625,-60.546875,0.0
1734420447.0888374,254.39453125,-43.9453125,-356.93359375,-161.1328125,0.0
1734420447.0927541,116.2109375,-41.50390625,-311.03515625,-110.83984375,0.0
1734420447.096659,-285.64453125,-39.0625,-104.98046875,-0.48828125,0.0
1734420447.100564,-307.6171875,-33.69140625,-199.21875,50.29296875,0.0
1734420447.104469,211.9140625,-29.78515625,-255.859375,-15.625,0.0
1734420447.1083739,275.390625,-30.2734375,-183.10546875,-108.3984375,0.0
1734420447.112279,177.24609375,-25.87890625,-314.94140625,-87.890625,0.0
1734420447.1161838,-188.96484375,-30.76171875,-392.08984375,38.57421875,0.0
1734420447.1200888,-335.44921875,-36.62109375,-446.2890625,126.46484375,0.0
1734420447.1239939,164.55078125,-31.73828125,-166.50390625,33.69140625,0.0
1734420447.1278987,288.0859375,-46.875,-72.75390625,-96.19140625,0.0
1734420447.1318038,185.546875,-50.29296875,-273.92578125,-83.49609375,0.0
1734420447.1357086,-149.4140625,-30.2734375,-141.11328125,18.5546875,0.0
1734420447.1396246,-380.859375,-27.83203125,24.4140625,82.51953125,0.0
1734420447.1435294,95.21484375,-37.109375,11.23046875,29.296875,0.0
1734420447.1474345,295.8984375,-35.15625,-132.8125,-80.078125,0.0
1734420447.1513393,210.9375,-30.76171875,-236.81640625,-103.515625,0.0
1734420447.1552444,-87.40234375,-30.76171875,-103.515625,-11.71875,0.0
1734420447.1591494,-380.37109375,-28.3203125,-156.73828125,89.35546875,0.0
1734420447.1630542,47.36328125,-34.66796875,-345.21484375,71.77734375,0.0
1734420447.1669593,302.734375,-39.55078125,-193.84765625,-43.45703125,0.0
1734420447.170864,239.2578125,-34.1796875,-106.93359375,-93.75,0.0
1734420447.1747692,-15.13671875,-38.0859375,-271.97265625,-7.8125,0.0
1734420447.1786742,-393.06640625,-39.55078125,-214.35546875,93.26171875,0.0
1734420447.182579,-22.4609375,-30.2734375,0.9765625,77.1484375,0.0
1734420447.1864939,331.54296875,-27.83203125,88.37890625,-33.203125,0.0
1734420447.190399,253.90625,-38.0859375,-205.56640625,-94.7265625,0.0
1734420447.194304,26.3671875,-34.1796875,-242.1875,-0.9765625,0.0
1734420447.1982088,-379.39453125,-32.2265625,0.48828125,107.421875,0.0
1734420447.2021139,-85.44921875,-36.62109375,62.98828125,87.40234375,0.0
1734420447.2060187,322.75390625,-36.1328125,-155.76171875,-22.94921875,0.0
1734420447.2099237,244.62890625,-39.55078125,-446.77734375,-90.8203125,0.0
1734420447.2138288,66.89453125,-31.25,-232.91015625,-23.4375,0.0
1734420447.2177336,-351.5625,-27.34375,17.08984375,83.0078125,0.0
1734420447.2216387,-174.8046875,-36.62109375,-135.7421875,97.65625,0.0
1734420447.2255435,297.8515625,-29.296875,-143.5546875,11.71875,0.0
1734420447.2294486,263.671875,-20.01953125,-3.90625,-68.84765625,0.0
1734420447.2333708,0.0,-31.25,0.0,-21.97265625,0.0
1734420447.2372758,0.0,-41.50390625,0.0,80.56640625,0.0
1734420447.2411807,0.0,-34.66796875,0.0,90.8203125,0.0
1734420447.2450857,0.0,-27.83203125,0.0,-11.23046875,0.0
1734420447.2489905,0.0,-27.83203125,0.0,-106.93359375,0.0
1734420447.2528956,0.0,-25.87890625,0.0,-84.9609375,0.0
1734420447.2568007,0.0,-24.90234375,0.0,15.625,0.0
1734420447.2607055,0.0,-22.94921875,0.0,45.41015625,0.0
1734420447.2646105,0.0,-23.4375,0.0,-62.98828125,0.0
1734420447.2685153,0.0,-27.83203125,0.0,-183.10546875,0.0
1734420447.2724204,0.0,-23.92578125,0.0,-170.41015625,0.0
1734420447.2763255,0.0,-26.85546875,0.0,-65.91796875,0.0
1734420447.2802463,-439.453125,-39.55078125,-18.06640625,3.41796875,0.0
1734420447.284151,58.10546875,-37.109375,-25.87890625,-45.8984375,0.0
1734420447.2880561,198.73046875,-38.57421875,48.828125,-145.99609375,0.0
1734420447.2919612,102.05078125,-44.921875,-166.9921875,-153.3203125,0.0
1734420447.295866,-236.328125,-31.73828125,-256.34765625,-37.59765625,0.0
1734420447.299771,-447.265625,-28.3203125,-251.953125,68.359375,0.0
1734420447.303676,42.48046875,-34.66796875,-109.86328125,7.8125,0.0
1734420447.307581,243.65234375,-30.76171875,-61.5234375,-116.69921875,0.0
1734420447.311486,172.36328125,-35.64453125,-388.671875,-87.40234375,0.0
1734420447.3153908,-120.60546875,-41.50390625,-245.1171875,27.34375,0.0
1734420447.319296,-436.03515625,-30.76171875,140.13671875,83.984375,0.0
1734420447.3232007,5.859375,-22.4609375,137.20703125,58.10546875,0.0
1734420447.3271205,287.109375,-21.484375,-8.30078125,-48.33984375,0.0
1734420447.3310256,209.9609375,-23.92578125,-45.41015625,-88.8671875,0.0
1734420447.3349304,-46.38671875,-25.87890625,124.0234375,-8.30078125,0.0
1734420447.3388355,-404.296875,-28.3203125,81.0546875,104.4921875,0.0
1734420447.3427403,-24.90234375,-26.85546875,51.7578125,108.3984375,0.0
1734420447.3466454,310.546875,-23.4375,20.01953125,-6.8359375,0.0
1734420447.3505504,229.4921875,-30.76171875,-170.8984375,-64.453125,0.0
1734420447.3544552,8.7890625,-32.71484375,-82.51953125,13.671875,0.0
1734420447.3583603,-393.06640625,-35.15625,-92.28515625,122.55859375,0.0
1734420447.362265,-97.16796875,-30.2734375,20.99609375,111.328125,0.0
1734420447.3661702,312.01171875,-18.5546875,214.84375,-0.9765625,0.0
1734420447.3700752,260.25390625,-24.90234375,-6.34765625,-57.6171875,0.0
1734420447.3739944,90.33203125,-32.71484375,-61.03515625,20.99609375,0.0
1734420447.3778994,-315.91796875,-39.55078125,130.37109375,139.6484375,0.0
1734420447.3818045,-106.93359375,-41.50390625,198.73046875,144.04296875,0.0
1734420447.3857093,346.6796875,-28.80859375,83.984375,44.43359375,0.0
1734420447.3896143,304.19921875,-17.08984375,-36.1328125,-30.2734375,0.0
1734420447.3935192,151.85546875,-14.6484375,13.671875,26.85546875,0.0
1734420447.3974242,-273.4375,-37.59765625,84.47265625,147.94921875,0.0
1734420447.4013293,-173.33984375,-48.33984375,-73.2421875,195.80078125,0.0
1734420447.405234,327.63671875,-25.87890625,-86.9140625,114.74609375,0.0
1734420447.4091392,318.359375,-20.99609375,155.76171875,-20.01953125,0.0
1734420447.413044,186.03515625,-27.83203125,86.9140625,15.625,0.0
1734420447.416949,-198.2421875,-29.296875,121.58203125,152.34375,0.0
1734420447.4208667,-209.47265625,-29.296875,181.640625,198.2421875,0.0
1734420447.4247718,285.64453125,-31.73828125,221.6796875,123.046875,0.0
1734420447.4286768,346.19140625,-40.0390625,109.86328125,29.78515625,0.0
1734420447.4325817,253.90625,-41.50390625,66.89453125,54.19921875,0.0
1734420447.4364867,-137.6953125,-65.4296875,159.1796875,150.390625,0.0
1734420447.4403915,-269.04296875,-83.984375,117.67578125,196.2890625,0.0
1734420447.4442966,243.65234375,-44.43359375,158.69140625,134.27734375,0.0
1734420447.4482017,357.91015625,-25.390625,-76.171875,32.71484375,0.0
1734420447.4521065,260.25390625,-28.3203125,-20.01953125,21.484375,0.0
1734420447.4560115,-88.37890625,-25.87890625,248.046875,120.1171875,0.0
1734420447.4599164,-307.6171875,-35.64453125,141.6015625,208.0078125,0.0
1734420447.4638214,180.6640625,-35.15625,174.8046875,160.64453125,0.0
1734420447.4677382,375.0,-28.80859375,197.75390625,43.9453125,0.0
1734420447.471643,300.78125,-28.80859375,120.60546875,36.62109375,0.0
1734420447.475548,-7.8125,-41.015625,87.890625,124.0234375,0.0
1734420447.479453,-322.265625,-45.41015625,148.4375,189.94140625,0.0
1734420447.483358,116.2109375,-40.0390625,232.91015625,138.18359375,0.0
1734420447.487263,384.27734375,-44.921875,170.8984375,28.80859375,0.0
1734420447.4911678,307.12890625,-44.43359375,-87.890625,15.13671875,0.0
1734420447.4950728,32.2265625,-43.9453125,-50.78125,102.05078125,0.0
1734420447.498978,-321.77734375,-28.80859375,274.4140625,192.87109375,0.0
1734420447.5028827,66.40625,-16.11328125,258.30078125,176.26953125,0.0
1734420447.5067878,382.8125,-21.484375,204.1015625,59.08203125,0.0
1734420447.5106926,298.828125,-22.4609375,173.828125,1.46484375,0.0
1734420447.5146089,88.37890625,-13.671875,247.55859375,95.21484375,0.0
1734420447.5185137,-307.12890625,-11.71875,231.93359375,215.8203125,0.0
1734420447.5224187,-20.01953125,-30.76171875,217.7734375,187.5,0.0
1734420447.5263236,368.65234375,-37.59765625,273.92578125,52.734375,0.0
1734420447.5302286,308.10546875,-19.53125,175.78125,-24.90234375,0.0
1734420447.5341337,106.4453125,-18.5546875,148.4375,47.8515625,0.0
1734420447.5380385,-346.19140625,-33.69140625,-19.53125,180.6640625,0.0
1734420447.5419436,-137.20703125,-37.59765625,82.51953125,185.546875,0.0
1734420447.5458484,362.3046875,-18.06640625,315.91796875,90.8203125,0.0
1734420447.5497534,329.58984375,-16.6015625,168.45703125,2.44140625,0.0
1734420447.5536585,140.625,-28.3203125,171.38671875,13.671875,0.0
1734420447.5575633,-289.0625,-12.6953125,246.58203125,146.484375,0.0
1734420447.5614781,0.0,-23.4375,0.0,178.7109375,0.0
1734420447.5653832,0.0,-42.96875,0.0,58.10546875,0.0
1734420447.5692883,0.0,-27.34375,0.0,-16.11328125,0.0
1734420447.573193,0.0,-27.83203125,0.0,20.01953125,0.0
1734420447.5770981,0.0,-35.64453125,0.0,113.28125,0.0
1734420447.5810032,0.0,-21.484375,0.0,183.10546875,0.0
1734420447.584908,0.0,-13.671875,0.0,123.046875,0.0
1734420447.588813,0.0,-25.87890625,0.0,-8.7890625,0.0
1734420447.592718,0.0,-37.59765625,0.0,-16.6015625,0.0
1734420447.596623,0.0,-45.8984375,0.0,91.30859375,0.0
1734420447.600528,0.0,-43.45703125,0.0,153.80859375,0.0
1734420447.6044328,0.0,-30.76171875,0.0,87.890625,0.0
1734420447.6083546,336.9140625,-24.90234375,229.4921875,-20.99609375,0.0
1734420447.6122596,238.76953125,-25.390625,187.5,-22.94921875,0.0
1734420447.6161644,-141.11328125,-24.90234375,265.625,78.61328125,0.0
1734420447.6200695,-365.234375,-25.390625,280.76171875,140.13671875,0.0
1734420447.6239746,136.23046875,-32.2265625,229.4921875,91.796875,0.0
1734420447.6278794,327.1484375,-48.33984375,92.7734375,-12.6953125,0.0
1734420447.6317844,245.1171875,-41.50390625,132.32421875,-27.34375,0.0
1734420447.6356893,-72.75390625,-21.484375,238.28125,65.4296875,0.0
1734420447.6395943,-390.625,-19.53125,175.78125,132.32421875,0.0
1734420447.6434994,55.6640625,-24.4140625,105.95703125,90.33203125,0.0
1734420447.6474042,317.87109375,-31.25,153.80859375,-28.3203125,0.0
1734420447.6513093,250.0,-29.296875,179.19921875,-73.2421875,0.0
1734420447.6552305,0.0,-25.87890625,136.71875,35.15625,0.0
1734420447.6591353,0.0,-30.2734375,130.37109375,123.53515625,0.0
1734420447.6630404,0.0,-34.66796875,211.9140625,95.703125,0.0
1734420447.6669455,0.0,-40.0390625,224.12109375,-13.18359375,0.0
1734420447.6708503,0.0,-33.69140625,80.078125,-57.6171875,0.0
1734420447.6747553,0.0,-26.85546875,38.0859375,30.2734375,0.0
1734420447.6786602,0.0,-22.94921875,69.82421875,132.8125,0.0
1734420447.6825652,0.0,-19.04296875,161.1328125,111.81640625,0.0
1734420447.6864703,0.0,-27.34375,-4.8828125,15.13671875,0.0
1734420447.690375,0.0,-30.76171875,-124.0234375,-28.80859375,0.0
1734420447.6942801,0.0,-30.2734375,211.9140625,-6.8359375,0.0
1734420447.6981852,0.0,-34.66796875,170.8984375,85.44921875,0.0
1734420447.7020822,-30.76171875,-24.90234375,175.29296875,119.140625,0.0
1734420447.705987,-418.9453125,-20.01953125,217.7734375,23.92578125,0.0
1734420447.709892,-26.85546875,-21.484375,130.859375,-40.0390625,0.0
1734420447.7137969,317.3828125,-25.87890625,132.32421875,21.97265625,0.0
1734420447.717702,263.18359375,-29.78515625,114.74609375,108.88671875,0.0
1734420447.721607,37.59765625,-25.87890625,92.28515625,134.27734375,0.0
1734420447.7255118,-377.9296875,-23.4375,180.17578125,50.78125,0.0
1734420447.7294168,-74.70703125,-23.92578125,163.0859375,-42.48046875,0.0
1734420447.733322,336.9140625,-33.69140625,-73.73046875,5.859375,0.0
1734420447.7372267,286.62109375,-38.0859375,19.04296875,93.75,0.0
1734420447.7411318,73.2421875,-25.390625,217.7734375,119.140625,0.0
1734420447.7450366,-364.2578125,-21.97265625,160.64453125,61.5234375,0.0
1734420447.7489562,333.0078125,-23.92578125,110.83984375,-25.390625,0.0
1734420447.752861,215.33203125,-17.08984375,171.875,-10.7421875,0.0
1734420447.756766,-198.73046875,-23.4375,179.6875,92.7734375,0.0
1734420447.760671,-321.2890625,-29.78515625,59.5703125,148.92578125,0.0
1734420447.764576,208.984375,-26.3671875,96.19140625,87.40234375,0.0
1734420447.768481,341.30859375,-32.2265625,80.56640625,-13.671875,0.0
1734420447.7723858,241.69921875,-38.57421875,71.77734375,-25.87890625,0.0
1734420447.776291,-147.4609375,-51.7578125,-104.98046875,77.1484375,0.0
1734420447.780196,-391.11328125,-43.9453125,-201.171875,134.27734375,0.0
1734420447.7841008,122.55859375,-16.6015625,194.3359375,74.21875,0.0
1734420447.7880058,338.37890625,-20.99609375,164.55078125,-20.5078125,0.0
1734420447.7919106,260.25390625,-22.4609375,58.10546875,-30.76171875,0.0
1734420447.7958286,-81.54296875,-14.6484375,115.234375,57.12890625,0.0
1734420447.7997336,-414.0625,-19.04296875,159.1796875,115.72265625,0.0
1734420447.8036385,42.96875,-27.34375,160.15625,73.73046875,0.0
1734420447.8075435,322.265625,-31.73828125,136.71875,-27.83203125,0.0
1734420447.8114486,248.53515625,-32.2265625,135.7421875,-57.12890625,0.0
1734420447.8153534,-50.78125,-28.3203125,96.19140625,28.80859375,0.0
1734420447.8192585,-434.5703125,-27.34375,62.98828125,119.62890625,0.0
1734420447.8231633,-26.85546875,-33.69140625,-79.1015625,114.74609375,0.0
1734420447.8270683,316.40625,-35.15625,-57.12890625,1.46484375,0.0
1734420447.8309734,244.62890625,-29.296875,122.55859375,-57.6171875,0.0
1734420447.8348782,-8.7890625,-27.83203125,103.02734375,20.99609375,0.0
1734420447.8387833,-444.82421875,-34.1796875,62.01171875,109.375,0.0
1734420447.8427002,-135.25390625,-31.73828125,140.625,101.5625,0.0
1734420447.846605,272.4609375,-25.87890625,209.47265625,-8.7890625,0.0
1734420447.8505101,215.8203125,-28.80859375,39.0625,-82.51953125,0.0
1734420447.854415,-9.27734375,-33.69140625,21.484375,-25.87890625,0.0
1734420447.85832,-453.61328125,-33.203125,64.453125,80.56640625,0.0
1734420447.862225,-224.609375,-38.57421875,29.296875,80.078125,0.0
1734420447.8661299,226.07421875,-39.55078125,-96.19140625,-20.99609375,0.0
1734420447.870035,191.89453125,-29.78515625,-319.82421875,-78.125,0.0
1734420447.8739398,11.71875,-30.2734375,-3.41796875,-53.22265625,0.0
1734420447.8778448,-460.9375,-41.50390625,90.8203125,37.109375,0.0
1734420447.8817499,-333.49609375,-39.0625,-24.90234375,57.12890625,0.0
1734420447.8856547,196.2890625,-26.3671875,19.04296875,-41.015625,0.0
1734420447.8895707,192.3828125,-31.73828125,40.52734375,-122.55859375,0.0
1734420447.8934758,29.296875,-33.203125,27.34375,-87.890625,0.0
1734420447.8973808,-438.4765625,-30.76171875,-105.46875,24.4140625,0.0
1734420447.9012856,-448.2421875,-39.0625,-37.109375,57.12890625,0.0
1734420447.9051907,99.12109375,-22.4609375,126.953125,-31.25,0.0
1734420447.9090955,166.9921875,-21.97265625,-66.89453125,-137.6953125,0.0
1734420447.9130006,33.203125,-39.55078125,-364.2578125,-110.83984375,0.0
1734420447.9169056,-387.20703125,-38.57421875,-211.9140625,2.44140625,0.0
1734420447.9208105,-507.8125,-28.3203125,47.8515625,40.0390625,0.0
1734420447.9247155,14.6484375,-28.3203125,21.484375,-34.1796875,0.0
1734420447.9286203,155.2734375,-34.1796875,-88.37890625,-126.953125,0.0
1734420447.9325254,69.3359375,-28.3203125,-21.97265625,-124.0234375,0.0
1734420447.93644,-321.77734375,-24.90234375,61.03515625,-40.0390625,0.0
1734420447.940345,-531.25,-23.4375,-157.71484375,22.94921875,0.0
1734420447.94425,-19.53125,-26.3671875,-158.203125,-22.94921875,0.0
1734420447.948155,151.3671875,-36.1328125,-87.40234375,-129.39453125,0.0
1734420447.95206,69.82421875,-37.59765625,-201.171875,-150.390625,0.0
1734420447.9559648,-269.53125,-41.9921875,-349.609375,-46.38671875,0.0
1734420447.9598699,-580.56640625,-42.48046875,-489.74609375,36.62109375,0.0
1734420447.963775,-104.00390625,-33.203125,-236.328125,-12.20703125,0.0
1734420447.9676797,171.38671875,-28.3203125,-42.96875,-127.9296875,0.0
1734420447.9715848,98.14453125,-29.78515625,-179.6875,-161.1328125,0.0
1734420447.9754896,-211.42578125,-30.2734375,-144.04296875,-72.265625,0.0
1734420447.9793947,-590.33203125,-30.76171875,-31.25,2.9296875,0.0
1734420447.983317,-175.29296875,-34.66796875,-55.17578125,-18.06640625,0.0
1734420447.9872217,174.8046875,-24.90234375,-131.34765625,-114.2578125,0.0
1734420447.9911268,107.91015625,-12.6953125,-235.3515625,-169.43359375,0.0
1734420447.9950316,-153.3203125,-18.06640625,-125.48828125,-96.6796875,0.0
1734420447.9989367,-583.49609375,-24.90234375,-189.453125,-8.30078125,0.0
1734420448.0028417,-248.53515625,-24.4140625,-322.265625,-19.53125,0.0
1734420448.0067465,170.41015625,-14.6484375,-255.859375,-111.81640625,0.0
1734420448.0106516,121.58203125,-9.27734375,-254.39453125,-168.9453125,0.0
1734420448.0145564,-90.33203125,-15.625,-246.58203125,-103.02734375,0.0
1734420448.0184615,-544.921875,-20.5078125,-364.2578125,5.37109375,0.0
1734420448.0223665,-324.21875,-28.80859375,-261.23046875,-11.23046875,0.0
1734420448.0262713,132.32421875,-31.25,13.18359375,-123.53515625,0.0
1734420448.030193,97.65625,-37.109375,-165.52734375,-177.734375,0.0
1734420448.034098,-73.73046875,-39.55078125,-337.890625,-115.72265625,0.0
1734420448.038003,-506.8359375,-24.4140625,-233.88671875,-10.7421875,0.0
1734420448.041908,-388.18359375,-16.11328125,-213.37890625,11.71875,0.0
1734420448.0458128,117.1875,-27.34375,-215.8203125,-64.94140625,0.0
1734420448.049718,134.765625,-36.62109375,-350.09765625,-143.06640625,0.0
1734420448.0536227,-24.4140625,-32.71484375,-318.359375,-124.0234375,0.0
1734420448.0575278,-474.609375,-34.66796875,-263.671875,-20.99609375,0.0
1734420448.0614328,-455.56640625,-41.015625,-412.109375,21.97265625,0.0
1734420448.0653377,83.49609375,-34.66796875,-432.12890625,-56.640625,0.0
1734420448.0692427,155.2734375,-25.390625,-160.64453125,-151.85546875,0.0
1734420448.0731475,50.78125,-26.85546875,-119.140625,-124.0234375,0.0
1734420448.0770676,-367.67578125,-20.99609375,-234.86328125,-14.6484375,0.0
1734420448.0809727,-478.515625,-25.390625,-268.5546875,28.3203125,0.0
1734420448.0848777,56.640625,-40.0390625,-64.453125,-51.7578125,0.0
1734420448.0887825,185.05859375,-40.52734375,-25.390625,-149.90234375,0.0
1734420448.0926876,86.9140625,-33.69140625,-260.7421875,-131.8359375,0.0
1734420448.0965924,-312.5,-32.71484375,-325.1953125,-34.66796875,0.0
1734420448.1004975,-531.25,-31.25,-271.97265625,18.5546875,0.0
1734420448.1044025,-4.8828125,-23.4375,-126.953125,-28.3203125,0.0
1734420448.1083074,191.89453125,-26.85546875,-236.81640625,-116.69921875,0.0
1734420448.1122124,104.98046875,-29.78515625,-287.59765625,-138.18359375,0.0
1734420448.1161175,-245.1171875,-33.69140625,-164.0625,-63.4765625,0.0
1734420448.1200223,-551.7578125,-46.38671875,-295.41015625,8.30078125,0.0
1734420448.1239412,-69.82421875,-33.203125,-319.82421875,-26.85546875,0.0
1734420448.1278462,202.63671875,-10.25390625,-171.38671875,-120.1171875,0.0
1734420448.131751,133.30078125,-26.3671875,-103.02734375,-152.83203125,0.0
1734420448.135656,-187.01171875,-48.828125,-201.66015625,-81.0546875,0.0
1734420448.1395612,-499.51171875,-36.1328125,-360.3515625,-3.41796875,0.0
1734420448.143466,-56.640625,-26.85546875,-279.78515625,-23.92578125,0.0
1734420448.147371,191.40625,-21.484375,-245.1171875,-110.83984375,0.0
1734420448.1512759,131.34765625,-20.01953125,-358.88671875,-142.578125,0.0
1734420448.155181,-121.09375,-25.87890625,-281.25,-74.70703125,0.0
1734420448.159086,-544.43359375,-27.83203125,-213.8671875,-5.37109375,0.0
1734420448.1629908,-210.9375,-38.0859375,-142.08984375,-20.01953125,0.0
1734420448.1668959,195.3125,-47.36328125,-248.046875,-113.28125,0.0
1734420448.170814,143.06640625,-51.7578125,-398.92578125,-167.96875,0.0
1734420448.174719,-74.70703125,-47.36328125,-169.921875,-112.3046875,0.0
1734420448.178624,-520.99609375,-41.015625,-258.30078125,-11.71875,0.0
1734420448.182529,-281.25,-35.15625,-327.63671875,-3.41796875,0.0
1734420448.186434,187.01171875,-29.296875,-249.0234375,-91.796875,0.0
1734420448.1903389,174.8046875,-34.1796875,-305.6640625,-142.08984375,0.0
1734420448.194244,-15.625,-37.59765625,-303.22265625,-101.07421875,0.0
1734420448.1981487,-490.234375,-43.9453125,-402.34375,-17.578125,0.0
1734420448.2020538,-343.26171875,-39.0625,-328.125,6.8359375,0.0
1734420448.2059588,178.7109375,-23.92578125,26.3671875,-77.63671875,0.0
1734420448.2098637,194.3359375,-36.1328125,-97.16796875,-162.59765625,0.0
1734420448.2137687,41.50390625,-44.921875,-239.74609375,-134.765625,0.0
1734420448.2176862,-427.24609375,-41.50390625,-160.64453125,-31.73828125,0.0
1734420448.2215912,-405.2734375,-38.57421875,-195.80078125,17.578125,0.0
1734420448.2254963,144.04296875,-37.109375,-131.8359375,-55.6640625,0.0
1734420448.229401,206.54296875,-40.0390625,-204.1015625,-140.625,0.0
1734420448.2333062,85.44921875,-44.43359375,-198.2421875,-126.46484375,0.0
1734420448.237211,-349.609375,-33.203125,-236.328125,-17.08984375,0.0
1734420448.241116,-457.51953125,-30.2734375,-413.0859375,48.33984375,0.0
1734420448.245021,71.77734375,-34.66796875,-417.48046875,-4.8828125,0.0
1734420448.248926,198.2421875,-24.4140625,-201.171875,-118.1640625,0.0
1734420448.252831,111.81640625,-26.85546875,-118.1640625,-143.5546875,0.0
1734420448.256736,-279.78515625,-36.1328125,-197.265625,-55.17578125,0.0
1734420448.2606409,-493.65234375,-31.25,-255.859375,14.16015625,0.0
1734420448.2645574,26.85546875,-24.4140625,-18.06640625,-20.5078125,0.0
1734420448.2684624,226.07421875,-29.78515625,3.90625,-129.39453125,0.0
1734420448.2723672,140.13671875,-27.83203125,-234.375,-142.08984375,0.0
1734420448.2762723,-203.61328125,-23.4375,-108.3984375,-42.48046875,0.0
1734420448.2801774,-495.1171875,-28.80859375,-75.68359375,23.4375,0.0
1734420448.2840822,-32.2265625,-47.8515625,-227.5390625,-24.90234375,0.0
1734420448.2879872,215.33203125,-52.24609375,-362.3046875,-103.515625,0.0
1734420448.2918923,157.71484375,-32.71484375,-321.2890625,-125.48828125,0.0
1734420448.295797,-138.18359375,-18.06640625,-5.37109375,-61.5234375,0.0
1734420448.2997022,-514.16015625,-21.97265625,-46.38671875,22.4609375,0.0
1734420448.303607,-95.703125,-32.71484375,-243.65234375,-7.32421875,0.0
1734420448.307512,229.00390625,-31.25,-85.44921875,-103.02734375,0.0
1734420448.3114269,171.875,-26.85546875,57.6171875,-144.04296875,0.0
1734420448.315332,-82.03125,-27.83203125,-81.0546875,-66.89453125,0.0
1734420448.3192368,-500.48828125,-27.83203125,-205.56640625,38.57421875,0.0
1734420448.3231418,-152.83203125,-27.83203125,-10.7421875,22.94921875,0.0
1734420448.3270469,235.3515625,-28.3203125,82.03125,-95.21484375,0.0
1734420448.3309517,178.7109375,-32.71484375,-268.5546875,-143.5546875,0.0
1734420448.3348567,-40.52734375,-31.73828125,-428.22265625,-64.94140625,0.0
1734420448.3387618,-476.07421875,-21.484375,-204.58984375,33.203125,0.0
1734420448.3426666,-213.37890625,-20.99609375,27.34375,46.38671875,0.0
1734420448.3465717,224.609375,-24.4140625,-0.9765625,-55.17578125,0.0
1734420448.3504765,191.40625,-20.99609375,-127.44140625,-127.9296875,0.0
1734420448.3543816,29.296875,-20.99609375,29.78515625,-67.87109375,0.0
1734420448.3583043,0.0,-26.3671875,45.41015625,36.62109375,0.0
1734420448.3622093,0.0,-31.25,-139.6484375,54.19921875,0.0
1734420448.3661141,0.0,-29.78515625,-97.65625,-41.015625,0.0
1734420448.3700192,0.0,-25.390625,38.57421875,-126.46484375,0.0
1734420448.3739243,0.0,-26.3671875,-20.5078125,-85.9375,0.0
1734420448.377829,0.0,-30.2734375,-211.9140625,30.76171875,0.0
1734420448.3817341,0.0,-30.2734375,-131.34765625,58.10546875,0.0
1734420448.3856392,0.0,-24.4140625,164.0625,-26.85546875,0.0
1734420448.389544,0.0,-25.87890625,-35.64453125,-140.13671875,0.0
1734420448.393449,0.0,-27.83203125,-275.87890625,-124.51171875,0.0
1734420448.397354,0.0,-29.78515625,-40.0390625,-0.9765625,0.0
1734420448.401259,0.0,-30.76171875,125.48828125,45.41015625,0.0
1734420448.4051805,113.28125,-28.3203125,22.4609375,-30.76171875,0.0
1734420448.4090855,220.703125,-28.3203125,-103.515625,-144.04296875,0.0
1734420448.4129906,133.30078125,-25.87890625,4.39453125,-132.8125,0.0
1734420448.4168954,-245.1171875,-24.90234375,113.76953125,-17.578125,0.0
1734420448.4208004,-438.4765625,-29.78515625,-32.2265625,49.31640625,0.0
1734420448.4247053,50.78125,-34.66796875,-97.65625,-12.20703125,0.0
1734420448.4286103,217.28515625,-35.15625,-122.55859375,-126.46484375,0.0
1734420448.4325154,140.13671875,-32.71484375,-225.5859375,-133.7890625,0.0
1734420448.4364202,-189.94140625,-34.1796875,-297.36328125,-13.671875,0.0
1734420448.4403253,-468.26171875,-31.25,-244.62890625,78.61328125,0.0
1734420448.4442303,0.9765625,-17.578125,113.76953125,3.41796875,0.0
1734420448.4481351,254.39453125,-13.18359375,23.92578125,-119.62890625,0.0
1734420448.452055,0.0,-24.4140625,-208.49609375,-140.625,0.0
1734420448.45596,0.0,-41.9921875,-44.921875,-47.36328125,0.0
1734420448.4598649,0.0,-41.015625,114.2578125,54.19921875,0.0
1734420448.46377,0.0,-38.0859375,57.6171875,19.04296875,0.0
1734420448.467675,0.0,-42.96875,-141.11328125,-111.328125,0.0
1734420448.4715798,0.0,-43.9453125,-355.46875,-159.1796875,0.0
1734420448.4754848,0.0,-28.80859375,-161.62109375,-65.91796875,0.0
1734420448.47939,0.0,-20.01953125,16.11328125,48.33984375,0.0
1734420448.4832947,0.0,-38.57421875,-199.70703125,36.62109375,0.0
1734420448.4871998,0.0,-31.73828125,-116.69921875,-90.8203125,0.0
1734420448.4911046,0.0,-23.4375,-113.76953125,-176.26953125,0.0
1734420448.4950097,0.0,-30.76171875,-170.8984375,-99.12109375,0.0
1734420448.4989288,-436.5234375,-34.1796875,-41.9921875,30.76171875,0.0
1734420448.5028338,-177.24609375,-40.0390625,92.28515625,39.0625,0.0
1734420448.506739,258.7890625,-37.59765625,96.19140625,-80.56640625,0.0
1734420448.5106437,209.9609375,-37.59765625,-244.62890625,-177.734375,0.0
1734420448.5145488,47.36328125,-45.41015625,-238.76953125,-120.60546875,0.0
1734420448.5184536,-360.3515625,-38.57421875,21.97265625,22.94921875,0.0
1734420448.5223587,-191.89453125,-25.390625,71.2890625,54.6875,0.0
1734420448.5262637,289.0625,-34.1796875,-145.5078125,-53.7109375,0.0
1734420448.5301685,274.90234375,-39.0625,-413.57421875,-141.11328125,0.0
1734420448.5340736,168.45703125,-29.78515625,-7.8125,-84.9609375,0.0
1734420448.5379786,-199.21875,-34.66796875,227.5390625,58.10546875,0.0
1734420448.5418835,-126.46484375,-32.2265625,212.40234375,125.48828125,0.0
1734420448.5458016,389.16015625,-26.3671875,236.328125,29.78515625,0.0
1734420448.5497067,461.9140625,-30.76171875,210.44921875,-67.87109375,0.0
1734420448.5536115,429.19921875,-33.69140625,271.97265625,-4.39453125,0.0
1734420448.5575166,122.55859375,-34.1796875,421.875,184.5703125,0.0
1734420448.5614216,119.62890625,-33.69140625,487.3046875,291.9921875,0.0
1734420448.5653265,627.9296875,-36.1328125,431.15234375,210.44921875,0.0
1734420448.5692315,704.58984375,-28.3203125,342.28515625,87.40234375,0.0
1734420448.5731366,647.4609375,-29.78515625,253.90625,108.3984375,0.0
1734420448.5770414,329.1015625,-36.62109375,432.12890625,265.13671875,0.0
1734420448.5809464,168.9453125,-23.92578125,590.8203125,359.86328125,0.0
1734420448.5848513,631.34765625,-20.99609375,494.62890625,289.55078125,0.0
1734420448.5887563,746.58203125,-29.78515625,395.99609375,147.94921875,0.0
1734420448.592673,648.92578125,-28.80859375,400.87890625,129.8828125,0.0
1734420448.596578,350.09765625,-28.3203125,511.71875,274.90234375,0.0
1734420448.600483,109.375,-28.80859375,487.3046875,399.4140625,0.0
1734420448.6043878,523.4375,-23.4375,452.63671875,311.5234375,0.0
1734420448.6082928,675.78125,-26.85546875,363.28125,144.04296875,0.0
1734420448.6121979,572.265625,-38.57421875,297.36328125,112.79296875,0.0
1734420448.6161027,314.453125,-42.96875,308.59375,237.79296875,0.0
1734420448.6200078,16.6015625,-35.64453125,374.0234375,368.65234375,0.0
1734420448.6239128,380.37109375,-27.34375,503.90625,297.8515625,0.0
1734420448.6278176,572.75390625,-29.78515625,356.4453125,125.9765625,0.0
1734420448.6317227,448.73046875,-38.57421875,206.0546875,76.171875,0.0
1734420448.6356275,204.58984375,-28.80859375,338.37890625,175.29296875,0.0
1734420448.6395438,-178.22265625,-23.4375,422.8515625,290.52734375,0.0
1734420448.6434488,99.609375,-27.83203125,323.2421875,237.79296875,0.0
1734420448.6473536,358.88671875,-26.3671875,191.89453125,51.7578125,0.0
1734420448.6512587,226.07421875,-22.94921875,86.9140625,-42.96875,0.0
1734420448.6551635,14.6484375,-24.90234375,161.1328125,50.29296875,0.0
1734420448.6590686,-386.71875,-32.2265625,251.953125,182.12890625,0.0
1734420448.6629736,-174.31640625,-32.71484375,-43.45703125,164.55078125,0.0
1734420448.6668785,143.06640625,-30.76171875,-222.65625,-20.99609375,0.0
1734420448.6707835,51.26953125,-28.3203125,-210.9375,-163.0859375,0.0
1734420448.6746886,-107.91015625,-25.390625,-144.53125,-73.2421875,0.0
1734420448.6785934,-512.20703125,-21.484375,131.8359375,83.49609375,0.0
1734420448.6824985,-356.4453125,-26.85546875,157.2265625,77.1484375,0.0
1734420448.686413,24.90234375,-26.85546875,-30.76171875,-65.4296875,0.0
1734420448.6903179,-54.19921875,-20.5078125,-414.0625,-193.359375,0.0
1734420448.694223,-182.12890625,-23.4375,-394.04296875,-158.203125,0.0
1734420448.698128,-548.33984375,-20.01953125,67.87109375,-9.27734375,0.0
1734420448.7020328,-479.00390625,-13.18359375,136.71875,38.0859375,0.0
1734420448.7059379,-52.24609375,-37.59765625,-312.98828125,-100.5859375,0.0
1734420448.709843,-85.9375,-46.875,-659.1796875,-254.39453125,0.0
1734420448.7137477,-184.5703125,-16.11328125,-387.20703125,-229.00390625,0.0
1734420448.7176528,-522.94921875,-8.30078125,35.64453125,-54.6875,0.0
1734420448.7215576,-557.12890625,-18.06640625,26.85546875,25.390625,0.0
1734420448.7254627,-95.21484375,-18.5546875,-175.78125,-94.7265625,0.0
1734420448.7293677,-65.91796875,-31.73828125,-359.375,-242.67578125,0.0
1734420448.7332895,-180.6640625,-36.1328125,-407.2265625,-226.07421875,0.0
1734420448.7371945,-490.72265625,-27.83203125,-231.4453125,-74.70703125,0.0
1734420448.7410996,-610.3515625,-19.53125,17.578125,-6.8359375,0.0
1734420448.7450044,-160.64453125,-14.16015625,-78.61328125,-106.4453125,0.0
1734420448.7489095,-68.359375,-14.6484375,-467.28515625,-268.5546875,0.0
1734420448.7528145,-162.109375,-27.34375,-578.61328125,-291.9921875,0.0
1734420448.7567194,-438.4765625,-41.50390625,-287.59765625,-154.296875,0.0
1734420448.7606244,-644.04296875,-34.1796875,16.11328125,-56.15234375,0.0
1734420448.7645292,-212.890625,-34.66796875,-173.33984375,-125.9765625,0.0
1734420448.7684343,-67.3828125,-40.0390625,-584.47265625,-278.80859375,0.0
1734420448.7723393,-160.64453125,-41.50390625,-537.59765625,-332.03125,0.0
1734420448.7762442,-396.484375,-53.7109375,-256.8359375,-210.9375,0.0
1734420448.780166,-651.85546875,-49.31640625,-252.9296875,-71.2890625,0.0
1734420448.7840707,-261.23046875,-37.109375,-364.74609375,-128.41796875,0.0
1734420448.7879758,-46.38671875,-32.71484375,-444.3359375,-295.8984375,0.0
1734420448.7918808,-108.3984375,-32.71484375,-530.76171875,-359.375,0.0
1734420448.7957857,-298.828125,-43.45703125,-410.15625,-234.375,0.0
1734420448.7996907,-634.765625,-48.828125,-285.64453125,-66.40625,0.0
1734420448.8035955,-299.8046875,-49.8046875,-317.87109375,-101.5625,0.0
1734420448.8075006,-21.484375,-53.7109375,-483.3984375,-284.1796875,0.0
1734420448.8114057,-109.86328125,-67.87109375,-687.01171875,-349.12109375,0.0
1734420448.8153105,-275.87890625,-75.1953125,-573.73046875,-242.67578125,0.0
1734420448.8192155,-624.51171875,-55.6640625,-60.05859375,-106.4453125,0.0
1734420448.8231206,-345.21484375,-51.26953125,-21.97265625,-95.21484375,0.0
1734420448.827041,0.0,-60.546875,-387.6953125,0.0,0.0
1734420448.830946,0.0,-54.6875,-517.08984375,0.0,0.0
1734420448.834851,0.0,-43.9453125,-345.703125,0.0,0.0
1734420448.8387558,0.0,-46.875,-62.01171875,0.0,0.0
1734420448.842661,0.0,-52.734375,-87.40234375,0.0,0.0
1734420448.8465657,0.0,-60.546875,-380.37109375,0.0,0.0
1734420448.8504708,0.0,-56.15234375,-528.80859375,0.0,0.0
1734420448.8543758,0.0,-48.828125,-378.41796875,0.0,0.0
1734420448.8582807,0.0,-56.640625,-262.20703125,0.0,0.0
1734420448.8621857,0.0,-55.17578125,-46.38671875,0.0,0.0
1734420448.8660908,0.0,-49.31640625,-50.78125,0.0,0.0
1734420448.8699956,0.0,-42.48046875,-443.84765625,0.0,0.0
1734420448.8739173,-44.43359375,-33.203125,-430.6640625,-199.70703125,0.0
1734420448.8778224,-363.28125,-35.64453125,5.37109375,-13.671875,0.0
1734420448.8817272,-374.0234375,-45.8984375,187.01171875,83.49609375,0.0
1734420448.8856323,83.49609375,-41.015625,-131.34765625,-41.015625,0.0
1734420448.8895373,96.19140625,-20.5078125,-504.39453125,-183.59375,0.0
1734420448.8934422,16.11328125,-11.23046875,-483.3984375,-160.64453125,0.0
1734420448.8973472,-282.2265625,-20.01953125,-84.9609375,4.39453125,0.0
1734420448.9012523,-412.59765625,-28.80859375,-75.1953125,117.1875,0.0
1734420448.905157,24.90234375,-34.66796875,-372.55859375,29.296875,0.0
1734420448.9090621,116.69921875,-29.296875,-303.22265625,-147.94921875,0.0
1734420448.912967,39.0625,-19.04296875,-331.0546875,-153.80859375,0.0
1734420448.916872,-215.8203125,-27.34375,-184.08203125,29.296875,0.0
1734420448.92079,-405.76171875,-28.80859375,84.9609375,143.5546875,0.0
1734420448.9246948,13.18359375,-23.92578125,102.05078125,35.15625,0.0
1734420448.9285998,156.25,-20.01953125,-260.25390625,-124.0234375,0.0
1734420448.932505,75.1953125,-14.16015625,-459.9609375,-145.5078125,0.0
1734420448.9364097,-166.015625,-20.99609375,-82.03125,-18.5546875,0.0
1734420448.9403148,-442.3828125,-28.80859375,116.69921875,115.72265625,0.0
1734420448.9442198,-33.69140625,-25.390625,-42.48046875,83.49609375,0.0
1734420448.9481246,163.0859375,-34.1796875,-407.71484375,-98.6328125,0.0
1734420448.9520297,71.2890625,-39.0625,-487.79296875,-166.50390625,0.0
1734420448.9559348,-108.88671875,-25.390625,-104.00390625,-46.38671875,0.0
1734420448.9598396,-425.29296875,-28.3203125,47.8515625,102.5390625,0.0
1734420448.9637446,-77.1484375,-37.109375,22.94921875,82.51953125,0.0
1734420448.9676616,0.0,-29.296875,-138.671875,-93.75,0.0
1734420448.9715667,0.0,-18.06640625,-334.47265625,-174.31640625,0.0
1734420448.9754715,0.0,-18.5546875,-282.71484375,-54.6875,0.0
1734420448.9793766,0.0,-23.4375,-6.8359375,112.3046875,0.0
1734420448.9832814,0.0,-18.06640625,79.58984375,103.02734375,0.0
1734420448.9871864,0.0,-20.01953125,-235.83984375,-66.40625,0.0
1734420448.9910915,0.0,-30.2734375,-541.015625,-163.0859375,0.0
1734420448.9949963,0.0,-32.2265625,-466.30859375,-68.84765625,0.0
1734420448.9989014,0.0,-28.80859375,47.36328125,93.26171875,0.0
1734420449.0028064,0.0,-27.34375,173.33984375,104.00390625,0.0
1734420449.0067112,0.0,-24.90234375,-97.16796875,-43.45703125,0.0
1734420449.0106163,0.0,-18.06640625,-340.8203125,-151.85546875,0.0
1734420449.0145326,-1.953125,-15.13671875,-246.09375,-83.984375,0.0
1734420449.0184376,-329.1015625,-22.94921875,-2.44140625,91.796875,0.0
1734420449.0223424,-226.07421875,-20.99609375,104.00390625,144.04296875,0.0
1734420449.0262475,180.17578125,-14.6484375,20.01953125,-5.37109375,0.0
1734420449.0301526,128.90625,-19.04296875,-259.27734375,-140.13671875,0.0
1734420449.0340574,52.734375,-28.80859375,-343.26171875,-84.9609375,0.0
1734420449.0379624,-283.203125,-41.9921875,-321.2890625,86.9140625,0.0
1734420449.0418675,-293.9453125,-44.921875,-109.86328125,148.4375,0.0
1734420449.0457723,167.96875,-34.1796875,99.12109375,9.27734375,0.0
1734420449.0496774,166.9921875,-28.80859375,-274.90234375,-125.48828125,0.0
1734420449.0535822,88.8671875,-22.4609375,-413.57421875,-106.4453125,0.0
1734420449.0574872,-203.125,-21.484375,-54.19921875,48.33984375,0.0
1734420449.061402,-304.19921875,-31.25,144.53125,137.20703125,0.0
1734420449.0653071,142.08984375,-39.55078125,-77.63671875,28.80859375,0.0
1734420449.069212,189.94140625,-38.0859375,-373.046875,-125.9765625,0.0
1734420449.073117,113.76953125,-30.76171875,-332.51953125,-136.71875,0.0
1734420449.077022,-141.11328125,-25.87890625,-183.59375,9.765625,0.0
1734420449.080927,-327.63671875,-27.83203125,-198.73046875,132.32421875,0.0
1734420449.084832,86.9140625,-30.76171875,-313.4765625,51.7578125,0.0
1734420449.088737,204.1015625,-24.4140625,-339.35546875,-109.375,0.0
1734420449.0926418,120.60546875,-15.625,-311.03515625,-134.765625,0.0
1734420449.096547,-110.3515625,-23.4375,-304.19921875,3.90625,0.0
1734420449.100452,-345.703125,-30.2734375,-142.578125,142.08984375,0.0
1734420449.1043568,64.453125,-19.04296875,87.40234375,74.70703125,0.0
1734420449.1082785,236.81640625,-20.01953125,-158.203125,-100.5859375,0.0
1734420449.1121836,130.859375,-31.25,-425.78125,-145.01953125,0.0
1734420449.1160884,-52.24609375,-29.78515625,-141.6015625,-17.578125,0.0
1734420449.1199934,-368.1640625,-22.94921875,130.859375,116.2109375,0.0
1734420449.1238985,-27.83203125,-25.390625,17.578125,88.8671875,0.0
1734420449.1278033,233.88671875,-28.80859375,-274.4140625,-73.2421875,0.0
1734420449.1317084,125.48828125,-29.78515625,-383.30078125,-162.109375,0.0
1734420449.1356134,-20.5078125,-28.80859375,-212.890625,-55.17578125,0.0
1734420449.1395183,-345.21484375,-35.64453125,-86.9140625,103.02734375,0.0
1734420449.1434233,-74.21875,-35.15625,-172.8515625,99.12109375,0.0
1734420449.1473281,233.88671875,-24.4140625,-249.51171875,-58.10546875,0.0
1734420449.1512332,127.44140625,-19.04296875,-274.4140625,-167.48046875,0.0
1734420449.1551545,-12.6953125,-30.76171875,-309.5703125,-82.03125,0.0
1734420449.1590595,-370.60546875,-31.73828125,-124.51171875,82.51953125,0.0
1734420449.1629643,-165.52734375,-21.484375,101.07421875,104.4921875,0.0
1734420449.1668694,213.8671875,-22.4609375,41.9921875,-62.98828125,0.0
1734420449.1707745,117.1875,-23.92578125,-305.6640625,-171.38671875,0.0
1734420449.1746793,-2.9296875,-29.296875,-409.1796875,-94.7265625,0.0
1734420449.1785843,-339.35546875,-36.1328125,-128.90625,62.98828125,0.0
1734420449.1824892,-232.421875,-35.15625,57.12890625,125.48828125,0.0
1734420449.1863942,171.38671875,-35.15625,-207.51953125,-17.08984375,0.0
1734420449.1902993,80.56640625,-34.66796875,-485.3515625,-155.76171875,0.0
1734420449.194204,-27.83203125,-30.76171875,-280.2734375,-129.8828125,0.0
1734420449.1981091,-334.47265625,-34.66796875,-105.95703125,13.18359375,0.0
1734420449.2020295,-299.31640625,-36.1328125,52.734375,91.796875,0.0
1734420449.2059345,149.90234375,-36.62109375,62.5,-16.11328125,0.0
1734420449.2098393,117.1875,-37.109375,-133.7890625,-155.2734375,0.0
1734420449.2137444,32.71484375,-34.66796875,-304.19921875,-126.953125,0.0
1734420449.2176495,-248.53515625,-35.15625,-111.328125,32.71484375,0.0
1734420449.2215543,-334.9609375,-35.64453125,32.2265625,126.953125,0.0
1734420449.2254593,112.79296875,-39.55078125,14.6484375,22.4609375,0.0
1734420449.2293644,166.9921875,-41.015625,-161.1328125,-136.23046875,0.0
1734420449.2332692,85.44921875,-31.73828125,-431.640625,-129.8828125,0.0
1734420449.2371743,-175.78125,-29.78515625,-126.46484375,18.5546875,0.0
1734420449.2410793,-335.9375,-33.69140625,176.26953125,136.23046875,0.0
1734420449.2449841,98.6328125,-32.2265625,49.31640625,53.7109375,0.0
1734420449.2489038,0.0,-20.99609375,-197.75390625,0.0,0.0
1734420449.2528088,0.0,-25.390625,-291.015625,0.0,0.0
1734420449.2567136,0.0,-42.48046875,-141.11328125,0.0,0.0
1734420449.2606187,0.0,-38.57421875,-1.953125,0.0,0.0
1734420449.2645237,0.0,-28.80859375,2.44140625,0.0,0.0
1734420449.2684286,0.0,-31.73828125,-209.9609375,0.0,0.0
1734420449.2723336,0.0,-36.1328125,-320.80078125,0.0,0.0
1734420449.2762387,0.0,-31.25,-317.87109375,0.0,0.0
1734420449.2801435,0.0,-31.73828125,-225.09765625,0.0,0.0
1734420449.2840486,0.0,-31.25,111.328125,0.0,0.0
1734420449.2879534,0.0,-32.71484375,-3.41796875,0.0,0.0
1734420449.2918584,0.0,-26.3671875,-299.31640625,0.0,0.0
1734420449.295754,194.3359375,-15.625,0.0,-28.3203125,0.0
1734420449.2996588,108.3984375,-29.296875,0.0,111.328125,0.0
1734420449.3035638,-105.46875,-32.71484375,0.0,83.0078125,0.0
1734420449.307469,-349.609375,-18.06640625,0.0,-58.10546875,0.0
1734420449.3113737,56.15234375,-21.97265625,0.0,-156.25,0.0
1734420449.3152788,228.02734375,-35.15625,0.0,-68.359375,0.0
1734420449.3191838,107.421875,-28.80859375,0.0,93.26171875,0.0
1734420449.3230886,-84.9609375,-22.4609375,0.0,108.88671875,0.0
1734420449.3269937,-355.95703125,-26.3671875,0.0,-39.0625,0.0
1734420449.3308985,11.71875,-32.2265625,0.0,-167.96875,0.0
1734420449.3348036,281.25,-23.92578125,0.0,-91.796875,0.0
1734420449.3387086,175.78125,-24.4140625,0.0,71.2890625,0.0
1734420449.342603,0.0,-28.80859375,-124.51171875,95.21484375,0.0
1734420449.346508,-344.7265625,-29.78515625,132.32421875,-41.50390625,0.0
1734420449.350413,-56.640625,-35.15625,64.453125,-156.73828125,0.0
1734420449.354318,271.97265625,-28.80859375,-119.140625,-113.76953125,0.0
1734420449.358223,171.875,-14.6484375,-309.08203125,31.25,0.0
1734420449.362128,21.484375,-23.4375,-288.57421875,86.42578125,0.0
1734420449.3660328,-338.37890625,-32.2265625,-85.44921875,-24.4140625,0.0
1734420449.369938,-105.46875,-31.25,-198.2421875,-157.71484375,0.0
1734420449.373843,271.484375,-27.34375,-290.0390625,-161.62109375,0.0
1734420449.3777478,152.34375,-27.34375,-241.2109375,-18.5546875,0.0
1734420449.3816528,48.33984375,-39.0625,-292.96875,79.58984375,0.0
1734420449.3855577,-274.4140625,-32.71484375,-93.26171875,-13.671875,0.0
1734420449.3894737,151.3671875,-23.92578125,-233.88671875,-182.12890625,0.0
1734420449.3933787,35.64453125,-25.390625,-406.73828125,-203.61328125,0.0
1734420449.3972836,-242.1875,-19.04296875,-302.734375,-54.19921875,0.0
1734420449.4011886,-417.48046875,-22.94921875,-79.1015625,57.6171875,0.0
1734420449.4050934,21.97265625,-32.2265625,-46.38671875,-18.06640625,0.0
1734420449.4089985,115.72265625,-41.015625,-388.18359375,-191.89453125,0.0
1734420449.4129035,-17.578125,-40.0390625,-640.625,-226.5625,0.0
1734420449.4168084,-254.8828125,-22.4609375,-407.71484375,-93.26171875,0.0
1734420449.4207134,-477.5390625,-29.296875,-185.05859375,8.7890625,0.0
1734420449.4246185,-74.70703125,-63.96484375,-299.8046875,-37.59765625,0.0
1734420449.4285233,54.6875,-68.359375,-441.89453125,-223.6328125,0.0
1734420449.4324284,-55.6640625,-22.94921875,-509.765625,-300.78125,0.0
1734420449.436343,-263.18359375,-0.48828125,-362.79296875,-149.4140625,0.0
1734420449.440248,-566.89453125,-7.32421875,-317.3828125,15.13671875,0.0
1734420449.444153,-172.36328125,-14.16015625,-393.06640625,-36.62109375,0.0
1734420449.448058,49.8046875,-29.78515625,-387.6953125,-208.0078125,0.0
1734420449.451963,-82.51953125,-39.0625,-482.421875,-273.92578125,0.0
1734420449.455868,-235.83984375,-50.29296875,-549.8046875,-170.41015625,0.0
1734420449.4597728,-562.01171875,-67.3828125,-519.04296875,-11.71875,0.0
1734420449.463678,-245.1171875,-42.96875,-325.1953125,-19.53125,0.0
1734420449.467583,61.03515625,-35.15625,-345.21484375,-169.921875,0.0
1734420449.4714878,-76.171875,-33.203125,-505.37109375,-251.953125,0.0
1734420449.4753928,-214.35546875,-17.578125,-396.97265625,-185.546875,0.0
1734420449.4792979,-564.94140625,-62.01171875,-240.234375,-82.51953125,0.0
1734420449.4832203,-346.19140625,-104.98046875,-300.29296875,-71.77734375,0.0
1734420449.4871254,51.7578125,-27.83203125,-381.34765625,-180.6640625,0.0
1734420449.4910302,-51.7578125,43.9453125,-452.63671875,-249.51171875,0.0
1734420449.4949353,-223.14453125,13.18359375,-390.625,-208.49609375,0.0
1734420449.4988403,-604.4921875,-27.34375,-181.640625,-97.65625,0.0
1734420449.5027452,-475.09765625,-45.8984375,-230.46875,-43.45703125,0.0
1734420449.5066502,-52.24609375,-45.41015625,-277.34375,-180.17578125,0.0
1734420449.5105553,-97.16796875,-34.1796875,-288.57421875,-295.41015625,0.0
1734420449.51446,-175.29296875,-17.08984375,-295.8984375,-243.1640625,0.0
1734420449.5183651,-525.87890625,-18.06640625,-233.88671875,-86.9140625,0.0
1734420449.5222702,-531.73828125,-45.41015625,3.41796875,-20.5078125,0.0
1734420449.526175,-85.9375,-43.45703125,142.08984375,-159.1796875,0.0
1734420449.5300958,-107.91015625,1.46484375,-196.77734375,-305.17578125,0.0
1734420449.5340009,-188.4765625,33.203125,-233.3984375,-275.390625,0.0
1734420449.537906,-464.84375,30.2734375,142.08984375,-116.69921875,0.0
1734420449.5418108,-538.57421875,25.390625,222.16796875,-38.57421875,0.0
1734420449.5457158,-114.74609375,7.8125,55.6640625,-131.34765625,0.0
1734420449.5496209,-93.75,-42.96875,-255.859375,-289.55078125,0.0
1734420449.5535257,-171.875,-11.71875,-266.6015625,-293.45703125,0.0
1734420449.5574307,-419.43359375,80.56640625,59.5703125,-122.0703125,0.0
1734420449.5613358,-561.5234375,70.80078125,0.9765625,-20.99609375,0.0
1734420449.5652406,-108.3984375,45.41015625,-80.078125,-107.421875,0.0
1734420449.5691457,-46.38671875,30.2734375,91.796875,-284.1796875,0.0
1734420449.5730505,-126.46484375,82.51953125,31.73828125,-291.50390625,0.0
1734420449.5769713,-330.078125,130.37109375,163.57421875,-147.94921875,0.0
1734420449.5808764,-588.8671875,88.8671875,263.18359375,-49.8046875,0.0
1734420449.5847812,-182.12890625,64.94140625,274.90234375,-112.79296875,0.0
1734420449.5886862,-28.80859375,58.10546875,95.21484375,-291.9921875,0.0
1734420449.592591,-128.90625,52.24609375,-91.30859375,-345.21484375,0.0
1734420449.596496,-306.15234375,39.0625,65.4296875,-201.171875,0.0
1734420449.6004012,-565.4296875,82.51953125,241.2109375,-54.6875,0.0
1734420449.604306,-191.40625,83.984375,242.1875,-105.46875,0.0
1734420449.608211,38.57421875,66.40625,-129.39453125,-247.0703125,0.0
1734420449.612116,-72.75390625,113.28125,-334.47265625,-320.3125,0.0
1734420449.616021,-225.5859375,122.0703125,51.26953125,-223.14453125,0.0
1734420449.619926,-502.9296875,120.60546875,179.19921875,-68.84765625,0.0
1734420449.623845,0.0,126.46484375,131.8359375,-77.63671875,0.0
1734420449.6277502,0.0,92.7734375,50.78125,-239.2578125,0.0
1734420449.6316552,0.0,72.75390625,-208.49609375,-350.5859375,0.0
1734420449.63556,0.0,66.40625,-294.921875,-257.8125,0.0
1734420449.639465,0.0,83.984375,-143.06640625,-38.57421875,0.0
1734420449.6433702,0.0,101.07421875,-81.0546875,-3.90625,0.0
1734420449.647275,0.0,55.17578125,-292.96875,-212.40234375,0.0
1734420449.65118,0.0,65.4296875,-573.2421875,-310.05859375,0.0
1734420449.6550848,0.0,87.40234375,-544.43359375,-224.12109375,0.0
1734420449.65899,0.0,53.22265625,-91.30859375,-87.40234375,0.0
1734420449.662895,0.0,53.22265625,41.9921875,-17.08984375,0.0
1734420449.6667998,0.0,56.15234375,-208.0078125,-140.625,0.0
1734420449.670718,61.5234375,52.24609375,-460.9375,-273.4375,0.0
1734420449.6746228,-51.7578125,77.63671875,-389.16015625,-238.28125,0.0
1734420449.6785278,-368.1640625,66.40625,-132.8125,-58.59375,0.0
1734420449.6824327,-312.01171875,65.91796875,-114.74609375,28.3203125,0.0
1734420449.6863377,137.6953125,66.89453125,-248.046875,-88.8671875,0.0
1734420449.6902428,95.21484375,47.36328125,-436.5234375,-219.7265625,0.0
1734420449.6941476,6.8359375,39.55078125,-431.15234375,-217.7734375,0.0
1734420449.6980526,-290.52734375,41.015625,-386.71875,-48.33984375,0.0
1734420449.7019577,-324.70703125,82.51953125,-160.64453125,61.5234375,0.0
1734420449.7058625,151.3671875,88.37890625,35.15625,-44.921875,0.0
1734420449.7097676,148.4375,56.640625,-329.1015625,-209.9609375,0.0
1734420449.7136726,54.6875,72.265625,-441.89453125,-211.42578125,0.0
1734420449.7175894,0.0,62.98828125,-90.33203125,-51.26953125,0.0
1734420449.7214944,0.0,48.33984375,132.32421875,60.05859375,0.0
1734420449.7253995,0.0,67.3828125,-64.453125,-38.57421875,0.0
1734420449.7293043,0.0,57.12890625,-419.921875,-192.87109375,0.0
1734420449.7332094,0.0,55.17578125,-463.8671875,-219.7265625,0.0
1734420449.7371144,0.0,64.94140625,-247.55859375,-96.6796875,0.0
1734420449.7410192,0.0,61.03515625,-269.04296875,53.22265625,0.0
1734420449.7449243,0.0,71.2890625,-383.30078125,3.41796875,0.0
1734420449.7488291,0.0,66.40625,-308.59375,-183.59375,0.0
1734420449.7527342,0.0,45.41015625,-371.58203125,-243.1640625,0.0
1734420449.7566392,0.0,29.78515625,-277.34375,-116.2109375,0.0
1734420449.760544,0.0,30.2734375,-27.83203125,41.50390625,0.0
1734420449.76446,-27.83203125,31.73828125,62.5,33.69140625,0.0
1734420449.768365,223.14453125,28.80859375,-248.046875,-113.76953125,0.0
1734420449.77227,82.03125,-9.27734375,-499.51171875,-228.02734375,0.0
1734420449.776175,-83.0078125,-4.8828125,-272.4609375,-115.234375,0.0
1734420449.7800798,-415.0390625,58.59375,-3.90625,39.0625,0.0
1734420449.783985,-92.28515625,67.87109375,-85.44921875,12.6953125,0.0
1734420449.78789,213.8671875,21.97265625,-486.328125,-126.46484375,0.0
1734420449.7917948,88.8671875,10.7421875,-549.31640625,-221.6796875,0.0
1734420449.7956998,-33.203125,20.99609375,-212.40234375,-146.484375,0.0
1734420449.799605,-359.86328125,10.7421875,7.32421875,40.52734375,0.0
1734420449.8035097,-86.9140625,-1.46484375,70.80078125,114.2578125,0.0
1734420449.8074148,271.97265625,21.484375,-25.390625,-48.33984375,0.0
1734420449.8113298,146.484375,26.85546875,-249.51171875,-193.359375,0.0
1734420449.8152347,34.66796875,10.7421875,-258.30078125,-111.328125,0.0
1734420449.8191397,-330.078125,70.80078125,-8.7890625,47.36328125,0.0
1734420449.8230448,-131.8359375,101.5625,214.35546875,88.8671875,0.0
1734420449.8269496,329.1015625,71.2890625,133.30078125,-38.57421875,0.0
1734420449.8308547,193.359375,39.55078125,-311.5234375,-149.90234375,0.0
1734420449.8347597,53.22265625,26.85546875,-301.26953125,-91.796875,0.0
1734420449.8386645,-273.4375,16.11328125,177.24609375,69.3359375,0.0
1734420449.8425696,-234.375,14.16015625,289.0625,140.625,0.0
1734420449.8464746,235.83984375,25.87890625,53.22265625,20.01953125,0.0
1734420449.8503795,205.078125,22.4609375,-281.73828125,-124.0234375,0.0
1734420449.8542845,100.5859375,10.7421875,-60.546875,-110.83984375,0.0
1734420449.858207,-214.35546875,-10.7421875,228.02734375,49.31640625,0.0
1734420449.862112,-280.76171875,-1.953125,234.375,138.671875,0.0
1734420449.866017,217.7734375,23.4375,171.875,30.2734375,0.0
1734420449.869922,244.62890625,-0.9765625,11.71875,-137.20703125,0.0
1734420449.873827,135.7421875,-24.4140625,-44.921875,-148.92578125,0.0
1734420449.877732,-154.78515625,-17.08984375,51.7578125,14.6484375,0.0
1734420449.8816369,-323.73046875,19.04296875,156.73828125,138.671875,0.0
1734420449.885542,178.22265625,49.8046875,178.22265625,76.171875,0.0
1734420449.889447,283.69140625,9.27734375,-95.703125,-74.70703125,0.0
1734420449.8933518,193.359375,-12.6953125,-337.890625,-112.79296875,0.0
1734420449.8972569,-68.84765625,23.92578125,31.25,9.765625,0.0
1734420449.9011617,-332.51953125,43.45703125,281.25,139.6484375,0.0
1734420449.9050827,104.4921875,23.92578125,109.86328125,98.6328125,0.0
1734420449.9089878,276.3671875,-11.71875,-227.5390625,-59.08203125,0.0
1734420449.9128926,176.26953125,8.7890625,-271.484375,-113.28125,0.0
1734420449.9167976,-42.48046875,46.875,117.67578125,19.04296875,0.0
1734420449.9207027,-343.26171875,28.3203125,177.734375,159.66796875,0.0
1734420449.9246075,45.41015625,19.04296875,38.0859375,126.953125,0.0
1734420449.9285126,296.875,16.6015625,-43.9453125,-15.625,0.0
1734420449.9324176,196.2890625,-3.41796875,-190.91796875,-61.5234375,0.0
1734420449.9363225,-4.8828125,20.5078125,-225.09765625,57.12890625,0.0
1734420449.9402275,-383.30078125,63.96484375,-35.15625,192.3828125,0.0
1734420449.9441326,-33.69140625,80.078125,256.8359375,180.6640625,0.0
1734420449.9480374,261.71875,45.41015625,131.34765625,1.953125,0.0
1734420449.951958,91.30859375,31.25,-120.60546875,-121.58203125,0.0
1734420449.9558628,-56.15234375,52.24609375,49.8046875,-43.45703125,0.0
1734420449.9597678,-414.55078125,53.7109375,285.64453125,113.76953125,0.0
1734420449.9636726,-145.99609375,41.015625,244.140625,142.578125,0.0
1734420449.9675777,246.09375,34.1796875,95.21484375,29.296875,0.0
1734420449.9714828,112.3046875,35.64453125,-181.15234375,-80.56640625,0.0
1734420449.9753876,0.0,38.57421875,-101.5625,-28.80859375,0.0
1734420449.9792926,-363.76953125,47.36328125,202.1484375,136.23046875,0.0
1734420449.9831977,-218.26171875,48.33984375,21.484375,177.24609375,0.0
1734420449.9871025,224.12109375,33.203125,-2.9296875,48.33984375,0.0
1734420449.9910076,142.578125,23.92578125,90.8203125,-100.5859375,0.0
1734420449.9949126,52.24609375,27.83203125,34.1796875,-54.19921875,0.0
1734420449.9988315,-344.7265625,50.29296875,209.9609375,111.81640625,0.0
1734420450.0027363,-308.59375,55.6640625,280.2734375,175.29296875,0.0
1734420450.0066414,240.234375,50.78125,244.140625,64.94140625,0.0
1734420450.0105464,198.2421875,42.48046875,-18.5546875,-78.61328125,0.0
1734420450.0144513,81.0546875,41.50390625,-84.9609375,-52.24609375,0.0
1734420450.0183563,-242.1875,45.41015625,177.734375,113.76953125,0.0
1734420450.0222614,-333.984375,37.109375,250.9765625,201.66015625,0.0
1734420450.0261662,171.875,24.4140625,17.578125,93.26171875,0.0
1734420450.0300713,236.328125,44.43359375,-281.25,-60.546875,0.0
1734420450.0339763,135.7421875,66.89453125,24.4140625,-77.63671875,0.0
1734420450.0378811,-181.15234375,66.89453125,268.06640625,60.05859375,0.0
1734420450.0417862,-373.046875,55.17578125,265.625,167.96875,0.0
1734420450.0457041,116.69921875,41.9921875,242.67578125,86.9140625,0.0
1734420450.0496092,244.62890625,46.38671875,112.79296875,-67.3828125,0.0
1734420450.0535142,167.96875,60.05859375,46.875,-72.265625,0.0
1734420450.057419,-127.9296875,90.33203125,201.66015625,55.17578125,0.0
1734420450.0613241,-408.69140625,85.9375,258.7890625,148.4375,0.0
1734420450.0652292,42.96875,61.03515625,163.0859375,86.42578125,0.0
1734420450.069134,229.4921875,62.98828125,36.62109375,-57.12890625,0.0
1734420450.073039,135.25390625,66.89453125,-244.140625,-95.21484375,0.0
1734420450.076944,-138.671875,65.4296875,-14.6484375,2.9296875,0.0
1734420450.080849,-481.4453125,60.546875,312.01171875,149.90234375,0.0
1734420450.084754,-52.734375,55.6640625,192.3828125,124.0234375,0.0
1734420450.0886588,214.84375,59.5703125,16.11328125,-68.359375,0.0
1734420450.0925765,99.609375,62.01171875,-26.85546875,-146.97265625,0.0
1734420450.0964816,-98.6328125,73.2421875,154.78515625,-34.1796875,0.0
1734420450.1003864,-503.90625,70.80078125,144.53125,144.04296875,0.0
1734420450.1042914,-167.48046875,66.89453125,132.8125,141.6015625,0.0
1734420450.1081965,191.40625,58.59375,48.828125,-77.1484375,0.0
1734420450.1121013,73.2421875,68.359375,-251.46484375,-173.828125,0.0
1734420450.1160064,-85.9375,47.36328125,-357.421875,-50.29296875,0.0
1734420450.1199114,-509.765625,8.7890625,-254.39453125,99.12109375,0.0
1734420450.1238163,-255.37109375,37.109375,96.19140625,84.47265625,0.0
1734420450.1277213,170.41015625,74.70703125,32.2265625,-75.68359375,0.0
1734420450.1316264,41.9921875,83.984375,-306.640625,-194.3359375,0.0
1734420450.1355312,-100.09765625,69.82421875,-176.7578125,-128.41796875,0.0
1734420450.1394472,-477.5390625,65.4296875,107.421875,55.6640625,0.0
1734420450.1433523,-328.61328125,63.4765625,102.05078125,96.19140625,0.0
1734420450.1472573,135.25390625,63.4765625,-188.4765625,-56.15234375,0.0
1734420450.1511621,70.80078125,58.10546875,-386.71875,-196.2890625,0.0
1734420450.1550672,-51.26953125,52.24609375,-313.4765625,-146.97265625,0.0
1734420450.1589723,-419.921875,58.59375,-247.0703125,-2.9296875,0.0
1734420450.162877,-385.25390625,47.8515625,-352.5390625,67.87109375,0.0
1734420450.1667821,96.6796875,59.5703125,-396.484375,-54.19921875,0.0
1734420450.170687,67.87109375,76.171875,-359.86328125,-207.03125,0.0
1734420450.174592,-62.98828125,54.6875,-438.4765625,-181.15234375,0.0
1734420450.178497,-432.6171875,48.828125,-287.109375,-46.875,0.0
1734420450.182402,-496.58203125,61.03515625,-180.17578125,32.71484375,0.0
1734420450.186317,0.0,47.8515625,-263.18359375,-85.44921875,0.0
1734420450.190222,0.0,38.0859375,-524.90234375,-232.421875,0.0
1734420450.194127,0.0,52.24609375,-602.5390625,-221.6796875,0.0
1734420450.198032,0.0,69.3359375,-314.94140625,-85.9375,0.0
1734420450.201937,0.0,54.19921875,-301.26953125,-8.30078125,0.0
1734420450.205842,0.0,13.671875,-562.01171875,-85.44921875,0.0
1734420450.2097468,0.0,23.4375,-742.1875,-248.53515625,0.0
1734420450.213652,0.0,49.31640625,-636.23046875,-294.921875,0.0
1734420450.2175567,0.0,51.26953125,-480.46875,-165.52734375,0.0
1734420450.2214618,0.0,62.98828125,-406.73828125,-41.50390625,0.0
1734420450.2253668,0.0,77.63671875,-398.92578125,-81.0546875,0.0
1734420450.2292717,0.0,71.77734375,-507.32421875,-261.23046875,0.0
1734420450.2331944,-97.65625,59.5703125,0.0,-333.49609375,0.0
1734420450.2370994,-321.77734375,52.24609375,0.0,-189.453125,0.0
1734420450.2410042,-646.97265625,46.875,0.0,-45.8984375,0.0
1734420450.2449093,-227.05078125,40.0390625,0.0,-99.609375,0.0
1734420450.2488143,16.11328125,38.0859375,0.0,-276.85546875,0.0
1734420450.2527192,-86.42578125,45.8984375,0.0,-344.23828125,0.0
1734420450.2566242,-292.48046875,51.26953125,0.0,-210.9375,0.0
1734420450.2605293,-624.0234375,53.22265625,0.0,-61.5234375,0.0
1734420450.264434,-229.4921875,41.50390625,0.0,-99.609375,0.0
1734420450.2683392,23.4375,17.578125,0.0,-266.6015625,0.0
1734420450.2722442,-98.6328125,17.578125,0.0,-354.00390625,0.0
1734420450.276149,-218.75,52.24609375,0.0,-233.88671875,0.0
1734420450.2800708,-617.1875,59.08203125,-476.07421875,-84.9609375,0.0
1734420450.2839756,-387.20703125,47.8515625,-496.58203125,-88.37890625,0.0
1734420450.2878807,17.08984375,46.38671875,-497.55859375,-249.51171875,0.0
1734420450.2917857,-59.5703125,35.15625,-609.86328125,-370.1171875,0.0
1734420450.2956905,-176.7578125,30.76171875,-625.0,-271.484375,0.0
1734420450.2995956,-568.84765625,25.390625,-571.77734375,-94.7265625,0.0
1734420450.3035004,-406.25,21.484375,-465.8203125,-68.84765625,0.0
1734420450.3074055,56.15234375,32.71484375,-506.8359375,-219.7265625,0.0
1734420450.3113105,-9.27734375,37.109375,-747.55859375,-326.66015625,0.0
1734420450.3152153,-111.328125,33.203125,-711.9140625,-245.1171875,0.0
1734420450.3191204,-474.12109375,34.1796875,-363.76953125,-86.9140625,0.0
1734420450.3230255,-409.1796875,43.9453125,-330.078125,-41.50390625,0.0
1734420450.3269458,75.68359375,43.9453125,0.0,-173.33984375,0.0
1734420450.3308508,38.0859375,32.71484375,0.0,-326.66015625,0.0
1734420450.3347557,-44.921875,31.73828125,0.0,-307.12890625,0.0
1734420450.3386607,-389.16015625,38.0859375,0.0,-128.90625,0.0
1734420450.3425658,-425.78125,26.85546875,0.0,-65.4296875,0.0
1734420450.3464706,86.9140625,9.765625,0.0,-194.3359375,0.0
1734420450.3503757,83.984375,-2.9296875,0.0,-306.15234375,0.0
1734420450.3542807,6.8359375,-19.04296875,0.0,-296.875,0.0
1734420450.3581855,-312.98828125,1.953125,0.0,-151.3671875,0.0
1734420450.3620906,-483.88671875,59.5703125,0.0,-55.6640625,0.0
1734420450.3659954,17.08984375,74.70703125,0.0,-157.2265625,0.0
1734420450.3699005,85.9375,46.875,0.0,-331.0546875,0.0
1734420450.37382,0.0,46.38671875,-646.484375,0.0,0.0
1734420450.3777251,0.0,40.0390625,-375.48828125,0.0,0.0
1734420450.38163,0.0,11.23046875,-299.8046875,0.0,0.0
1734420450.385535,0.0,0.48828125,-456.54296875,0.0,0.0
1734420450.38944,0.0,-0.48828125,-635.25390625,0.0,0.0
1734420450.3933449,0.0,0.9765625,-638.18359375,0.0,0.0
1734420450.39725,0.0,7.32421875,-435.546875,0.0,0.0
1734420450.401155,0.0,-1.46484375,-459.47265625,0.0,0.0
1734420450.4050598,0.0,-12.6953125,-544.921875,0.0,0.0
1734420450.4089649,0.0,2.44140625,-423.33984375,0.0,0.0
1734420450.41287,0.0,13.671875,-503.90625,0.0,0.0
1734420450.4167747,0.0,2.9296875,-396.484375,0.0,0.0
1734420450.420693,-464.84375,3.41796875,-229.4921875,-125.9765625,0.0
1734420450.4245977,-77.1484375,14.6484375,-209.47265625,-130.859375,0.0
1734420450.4285028,299.31640625,23.92578125,-344.23828125,-251.953125,0.0
1734420450.4324079,204.1015625,14.6484375,-472.65625,-315.4296875,0.0
1734420450.4363127,52.24609375,10.25390625,-285.64453125,-189.94140625,0.0
1734420450.4402177,-302.734375,30.2734375,-182.12890625,16.6015625,0.0
1734420450.4441228,1.46484375,20.99609375,-167.48046875,59.08203125,0.0
1734420450.4480276,412.109375,16.11328125,-356.93359375,-82.03125,0.0
1734420450.4519327,332.03125,23.4375,-458.984375,-195.80078125,0.0
1734420450.4558377,221.19140625,16.11328125,-68.359375,-87.890625,0.0
1734420450.4597425,-157.71484375,7.8125,115.234375,119.62890625,0.0
1734420450.4636476,49.8046875,15.625,101.07421875,174.8046875,0.0
1734420450.4675646,523.92578125,27.83203125,95.21484375,49.31640625,0.0
1734420450.4714694,442.3828125,3.90625,-121.09375,-83.49609375,0.0
1734420450.4753745,365.234375,-10.25390625,-157.2265625,-24.90234375,0.0
1734420450.4792795,24.4140625,9.765625,95.703125,190.4296875,0.0
1734420450.4831843,82.03125,18.5546875,228.515625,265.13671875,0.0
1734420450.4870894,574.21875,8.7890625,123.53515625,115.72265625,0.0
1734420450.4909945,545.41015625,6.34765625,-287.59765625,-14.16015625,0.0
1734420450.4948993,454.1015625,13.18359375,-208.984375,44.921875,0.0
1734420450.4988043,186.03515625,12.20703125,254.8828125,226.5625,0.0
1734420450.5027094,171.38671875,-5.859375,255.37109375,337.890625,0.0
1734420450.5066142,617.1875,-7.8125,-1.46484375,235.83984375,0.0
1734420450.5105193,647.94921875,1.46484375,-141.11328125,77.1484375,0.0
1734420450.514435,608.88671875,-10.7421875,165.0390625,98.6328125,0.0
1734420450.51834,334.47265625,-8.7890625,320.80078125,285.15625,0.0
1734420450.5222452,160.64453125,2.44140625,351.07421875,391.11328125,0.0
1734420450.52615,631.8359375,6.8359375,363.76953125,278.3203125,0.0
1734420450.530055,728.02734375,2.9296875,225.09765625,116.2109375,0.0
1734420450.53396,665.0390625,5.859375,186.03515625,118.1640625,0.0
1734420450.537865,419.921875,2.9296875,206.0546875,295.41015625,0.0
1734420450.54177,176.7578125,-0.48828125,306.640625,427.734375,0.0
1734420450.545675,650.87890625,-0.48828125,459.47265625,357.91015625,0.0
1734420450.5495799,828.125,-6.34765625,277.83203125,193.359375,0.0
1734420450.553485,732.421875,6.8359375,222.16796875,158.203125,0.0
1734420450.55739,503.41796875,12.20703125,431.640625,295.41015625,0.0
1734420450.5613048,192.87109375,5.859375,480.46875,435.05859375,0.0
1734420450.5652099,599.12109375,13.18359375,404.78515625,394.04296875,0.0
1734420450.5691147,833.0078125,-0.48828125,342.7734375,225.09765625,0.0
1734420450.5730197,728.515625,-9.27734375,316.40625,176.26953125,0.0
1734420450.5769248,540.52734375,2.9296875,422.36328125,289.0625,0.0
1734420450.5808296,165.0390625,-2.9296875,377.9296875,429.19921875,0.0
1734420450.5847347,484.86328125,9.27734375,323.2421875,406.25,0.0
1734420450.5886395,791.9921875,26.3671875,359.375,227.5390625,0.0
1734420450.5925446,674.8046875,13.671875,347.65625,144.53125,0.0
1734420450.5964496,507.8125,9.765625,341.30859375,249.51171875,0.0
1734420450.6003544,147.4609375,44.43359375,420.41015625,430.17578125,0.0
1734420450.6042595,400.87890625,49.31640625,515.13671875,437.98828125,0.0
1734420450.6081822,737.3046875,21.484375,429.19921875,245.1171875,0.0
1734420450.612087,604.00390625,14.16015625,320.3125,119.140625,0.0
1734420450.615992,483.88671875,20.5078125,410.64453125,206.54296875,0.0
1734420450.6198971,119.62890625,22.4609375,505.859375,379.39453125,0.0
1734420450.623802,261.71875,19.53125,458.0078125,403.80859375,0.0
1734420450.627707,667.96875,21.97265625,345.703125,246.09375,0.0
1734420450.631612,569.82421875,25.87890625,280.76171875,111.81640625,0.0
1734420450.635517,465.33203125,17.578125,390.13671875,161.62109375,0.0
1734420450.639422,98.6328125,15.625,428.22265625,337.890625,0.0
1734420450.643327,132.8125,22.94921875,378.41796875,392.578125,0.0
1734420450.6472318,581.0546875,23.92578125,409.66796875,231.93359375,0.0
1734420450.6511369,534.1796875,31.73828125,335.44921875,73.73046875,0.0
1734420450.655058,0.0,18.06640625,310.546875,92.7734375,0.0
1734420450.658963,0.0,8.30078125,414.55078125,279.296875,0.0
1734420450.6628678,0.0,23.92578125,449.21875,386.71875,0.0
1734420450.6667728,0.0,22.94921875,435.05859375,229.4921875,0.0
1734420450.670678,0.0,24.4140625,226.07421875,63.96484375,0.0
1734420450.6745827,0.0,27.34375,146.484375,95.21484375,0.0
1734420450.6784878,0.0,16.6015625,314.453125,239.74609375,0.0
1734420450.6823928,0.0,0.9765625,384.27734375,346.6796875,0.0
1734420450.6862977,0.0,15.625,194.3359375,274.90234375,0.0
1734420450.6902027,0.0,33.203125,27.34375,85.9375,0.0
1734420450.6941078,0.0,14.6484375,252.44140625,49.31640625,0.0
1734420450.6980126,0.0,4.8828125,372.0703125,197.265625,0.0
1734420450.7019327,-178.7109375,16.11328125,364.2578125,331.0546875,0.0
1734420450.7058377,243.65234375,6.8359375,370.1171875,259.765625,0.0
1734420450.7097425,367.67578125,-0.9765625,249.0234375,62.5,0.0
1734420450.7136476,277.34375,23.92578125,169.43359375,3.41796875,0.0
1734420450.7175527,56.15234375,26.3671875,280.76171875,168.45703125,0.0
1734420450.7214575,-269.53125,4.39453125,301.7578125,304.19921875,0.0
1734420450.7253625,96.19140625,-1.46484375,330.56640625,211.9140625,0.0
1734420450.7292676,312.01171875,5.37109375,265.625,39.55078125,0.0
1734420450.7331724,193.84765625,0.48828125,-86.42578125,-33.69140625,0.0
1734420450.7370775,8.7890625,6.8359375,131.8359375,74.21875,0.0
1734420450.7409825,-329.58984375,2.9296875,404.296875,253.41796875,0.0
1734420450.7448874,7.32421875,-5.37109375,290.52734375,224.12109375,0.0
1734420450.7488062,0.0,10.7421875,253.90625,36.1328125,0.0
1734420450.7527113,0.0,13.671875,209.9609375,-53.22265625,0.0
1734420450.756616,0.0,16.6015625,313.96484375,49.8046875,0.0
1734420450.7605212,0.0,12.20703125,338.37890625,220.703125,0.0
1734420450.7644262,0.0,-2.44140625,322.265625,229.00390625,0.0
1734420450.768331,0.0,-7.8125,270.01953125,59.08203125,0.0
1734420450.772236,0.0,20.01953125,140.13671875,-57.6171875,0.0
1734420450.7761412,0.0,20.01953125,85.9375,50.78125,0.0
1734420450.780046,0.0,-14.6484375,191.89453125,186.03515625,0.0
1734420450.783951,0.0,-15.625,396.97265625,151.85546875,0.0
1734420450.787856,0.0,-27.83203125,325.68359375,2.9296875,0.0
1734420450.791761,0.0,-18.5546875,149.90234375,-113.76953125,0.0
1734420450.795679,-10.25390625,32.2265625,227.5390625,-19.04296875,0.0
1734420450.7995842,-327.1484375,50.78125,384.27734375,178.7109375,0.0
1734420450.8034892,-277.34375,23.92578125,329.58984375,212.890625,0.0
1734420450.807394,148.92578125,1.953125,283.69140625,26.85546875,0.0
1734420450.811299,86.9140625,13.18359375,153.3203125,-119.62890625,0.0
1734420450.8152041,-29.296875,11.71875,130.859375,-94.7265625,0.0
1734420450.819109,-339.84375,-1.46484375,312.5,76.66015625,0.0
1734420450.823014,-377.44140625,-4.39453125,222.65625,187.01171875,0.0
1734420450.826919,78.61328125,15.625,218.26171875,50.29296875,0.0
1734420450.830824,87.890625,27.34375,262.6953125,-136.23046875,0.0
1734420450.834729,6.8359375,6.8359375,196.77734375,-109.86328125,0.0
1734420450.838634,-262.20703125,0.9765625,332.03125,90.8203125,0.0
1734420450.842551,-389.6484375,-1.46484375,424.8046875,215.8203125,0.0
