timestamps,TP9,AF7,AF8,TP10,Right AUX
1734421037.19123,35.64453125,-41.015625,-395.01953125,-146.97265625,0.0
1734421037.1951358,-413.0859375,-41.015625,-1000.0,-555.6640625,0.0
1734421037.1990416,-276.85546875,-34.1796875,-333.0078125,-262.20703125,0.0
1734421037.2029474,71.77734375,-28.3203125,825.1953125,336.42578125,0.0
1734421037.2068532,380.859375,-29.78515625,762.6953125,460.44921875,0.0
1734421037.210759,115.72265625,-30.76171875,-214.84375,-65.4296875,0.0
1734421037.2146647,-376.953125,-26.3671875,-1000.0,-544.921875,0.0
1734421037.2185705,-335.44921875,-28.80859375,-577.1484375,-317.3828125,0.0
1734421037.2224762,-1.953125,-29.296875,596.6796875,275.390625,0.0
1734421037.2263823,374.51171875,-30.76171875,921.875,473.6328125,0.0
1734421037.230288,191.89453125,-44.921875,-110.3515625,2.9296875,0.0
1734421037.2342,-344.23828125,-56.640625,-1000.0,-520.5078125,0.0
1734421037.2381058,-371.58203125,-51.7578125,-629.8828125,-399.90234375,0.0
1734421037.2420115,-56.15234375,-40.0390625,590.33203125,179.19921875,0.0
1734421037.2459173,313.96484375,-38.0859375,986.81640625,479.4921875,0.0
1734421037.249823,180.6640625,-47.36328125,-44.43359375,73.2421875,0.0
1734421037.2537289,-342.7734375,-52.24609375,-1000.0,-471.19140625,0.0
1734421037.2576346,-404.78515625,-37.59765625,-777.34375,-419.43359375,0.0
1734421037.2615404,-128.90625,-14.6484375,404.296875,123.046875,0.0
1734421037.2654462,247.0703125,-14.16015625,917.48046875,460.44921875,0.0
1734421037.2693522,235.3515625,-13.18359375,53.22265625,105.46875,0.0
1734421037.273258,-297.8515625,-5.859375,-1000.0,-481.4453125,0.0
1734421037.2771637,-456.0546875,-7.8125,-900.87890625,-567.87109375,0.0
1734421037.281075,-200.68359375,-7.32421875,239.2578125,-37.109375,0.0
1734421037.2849808,188.96484375,-1.46484375,-978.02734375,418.9453125,0.0
1734421037.2888865,259.765625,-5.859375,178.7109375,114.2578125,0.0
1734421037.2927926,-283.69140625,-18.5546875,-1000.0,-513.18359375,0.0
1734421037.2966983,-507.32421875,-9.765625,-938.4765625,-629.8828125,0.0
1734421037.300604,-253.41796875,7.8125,73.73046875,-135.7421875,0.0
1734421037.3045099,140.13671875,19.53125,999.0234375,334.9609375,0.0
1734421037.3084157,296.875,5.37109375,199.21875,149.90234375,0.0
1734421037.3123214,-167.96875,-2.9296875,-980.46875,-437.01171875,0.0
1734421037.3162272,-459.9609375,7.8125,-1000.0,-681.15234375,0.0
1734421037.320133,-259.765625,6.8359375,-115.72265625,-262.20703125,0.0
1734421037.3240387,112.79296875,4.39453125,936.5234375,326.171875,0.0
1734421037.3279498,340.33203125,8.7890625,467.7734375,246.09375,0.0
1734421037.3318555,-78.125,8.7890625,-597.65625,-334.9609375,0.0
1734421037.3357615,-457.51953125,2.44140625,-1000.0,-655.2734375,0.0
1734421037.3396673,-292.48046875,4.39453125,-248.53515625,-266.11328125,0.0
1734421037.343573,76.171875,6.34765625,906.25,348.14453125,0.0
1734421037.3474789,359.86328125,-7.32421875,594.23828125,352.05078125,0.0
1734421037.3513846,11.23046875,-16.6015625,-426.7578125,-204.58984375,0.0
1734421037.3552904,-436.03515625,-20.01953125,-1000.0,-585.9375,0.0
1734421037.3591962,-293.45703125,-18.06640625,-339.84375,-269.04296875,0.0
1734421037.363102,75.68359375,-4.8828125,859.375,331.0546875,0.0
1734421037.3670077,398.4375,-5.37109375,790.0390625,429.6875,0.0
1734421037.3709135,127.44140625,-15.13671875,-203.125,-106.4453125,0.0
1734421037.3748243,0.0,-18.5546875,-1000.0,-558.10546875,0.0
1734421037.37873,0.0,-11.23046875,-511.71875,-327.1484375,0.0
1734421037.3826358,0.0,-13.18359375,677.734375,266.11328125,0.0
1734421037.3865416,0.0,-19.04296875,924.31640625,471.19140625,0.0
1734421037.3904474,0.0,-20.5078125,-94.23828125,-3.41796875,0.0
1734421037.3943532,0.0,-23.92578125,-1000.0,-531.73828125,0.0
1734421037.398259,0.0,-21.484375,-660.15625,-370.1171875,0.0
1734421037.4021647,0.0,-19.53125,495.60546875,252.9296875,0.0
1734421037.4060707,0.0,-13.671875,982.421875,535.64453125,0.0
1734421037.4099765,0.0,-17.08984375,13.671875,79.58984375,0.0
1734421037.4138823,0.0,-22.94921875,-1000.0,-461.42578125,0.0
1734421037.417788,0.0,-23.92578125,-725.09765625,-396.484375,0.0
1734421037.4216983,-62.98828125,-18.06640625,427.24609375,158.69140625,0.0
1734421037.425604,343.75,-13.18359375,-976.07421875,535.64453125,0.0
1734421037.4295099,315.4296875,-21.484375,40.0390625,159.1796875,0.0
1734421037.433416,-215.33203125,-29.78515625,-1000.0,-385.7421875,0.0
1734421037.4373217,-388.671875,-32.2265625,-787.109375,-435.546875,0.0
1734421037.4412274,-124.51171875,-20.99609375,274.4140625,51.26953125,0.0
1734421037.4451332,279.78515625,-15.625,957.51953125,521.484375,0.0
1734421037.449039,333.0078125,-29.296875,141.11328125,247.0703125,0.0
1734421037.4529448,-168.45703125,-26.85546875,-963.37890625,-371.09375,0.0
1734421037.4568505,-406.73828125,-17.578125,-987.79296875,-502.44140625,0.0
1734421037.4607563,-169.43359375,-12.20703125,49.8046875,24.4140625,0.0
1734421037.464662,214.84375,-17.08984375,-998.046875,500.48828125,0.0
1734421037.4685721,352.5390625,-19.53125,289.55078125,289.0625,0.0
1734421037.472478,-115.72265625,-26.85546875,-850.5859375,-304.6875,0.0
1734421037.4763837,-427.734375,-36.62109375,-1000.0,-546.38671875,0.0
1734421037.4802895,-205.078125,-22.4609375,-64.94140625,-94.23828125,0.0
1734421037.4841952,182.6171875,-15.13671875,984.86328125,455.56640625,0.0
1734421037.488101,383.7890625,-26.3671875,367.67578125,349.609375,0.0
1734421037.492007,-41.50390625,-28.3203125,-744.140625,-224.609375,0.0
1734421037.4959128,-415.52734375,-21.97265625,-1000.0,-535.64453125,0.0
1734421037.4998186,-229.98046875,-23.4375,-207.03125,-160.64453125,0.0
1734421037.5037243,137.6953125,-31.73828125,893.5546875,415.52734375,0.0
1734421037.50763,403.80859375,-27.83203125,591.30859375,423.828125,0.0
1734421037.511536,49.31640625,-28.80859375,-389.6484375,-145.5078125,0.0
1734421037.5154457,-386.23046875,-36.1328125,-1000.0,-557.6171875,0.0
1734421037.5193515,-266.11328125,-30.76171875,-333.0078125,-257.8125,0.0
1734421037.5232573,71.2890625,-20.99609375,819.3359375,354.4921875,0.0
1734421037.527163,401.85546875,-18.06640625,823.2421875,465.33203125,0.0
1734421037.5310688,132.8125,-28.3203125,-174.31640625,-97.65625,0.0
1734421037.5349748,-372.55859375,-38.0859375,-1000.0,-566.89453125,0.0
1734421037.5388806,-320.3125,-34.1796875,-495.1171875,-305.6640625,0.0
1734421037.5427864,13.671875,-20.5078125,724.609375,290.0390625,0.0
1734421037.5466921,369.140625,-18.5546875,904.78515625,475.5859375,0.0
1734421037.550598,158.203125,-36.1328125,-131.8359375,-5.37109375,0.0
1734421037.5545037,-373.53515625,-34.66796875,-1000.0,-523.92578125,0.0
1734421037.5584095,-371.58203125,-19.53125,-622.55859375,-376.46484375,0.0
1734421037.5623214,-50.78125,-16.11328125,596.19140625,228.515625,0.0
1734421037.5662272,350.09765625,-20.5078125,968.26171875,494.140625,0.0
1734421037.570133,239.2578125,-31.73828125,-13.671875,45.41015625,0.0
1734421037.5740387,-317.87109375,-30.76171875,-1000.0,-521.484375,0.0
1734421037.5779445,-393.06640625,-20.99609375,-767.578125,-475.09765625,0.0
1734421037.5818503,-95.703125,-20.01953125,395.01953125,131.8359375,0.0
1734421037.585756,297.8515625,-17.578125,995.60546875,479.00390625,0.0
1734421037.5896618,266.6015625,-16.6015625,94.7265625,116.2109375,0.0
1734421037.5935678,-267.578125,-25.390625,-1000.0,-455.078125,0.0
1734421037.5974736,-413.0859375,-26.85546875,-848.14453125,-513.18359375,0.0
1734421037.6013794,-132.32421875,-18.06640625,326.66015625,62.5,0.0
1734421037.6052852,289.0625,-18.5546875,-989.74609375,482.421875,0.0
1734421037.609197,348.14453125,-29.296875,149.90234375,175.78125,0.0
1734421037.6131027,-168.45703125,-30.76171875,-1000.0,-405.2734375,0.0
1734421037.6170084,-395.5078125,-29.296875,-949.70703125,-539.55078125,0.0
1734421037.6209142,-149.4140625,-34.66796875,128.90625,-16.6015625,0.0
1734421037.62482,252.9296875,-27.34375,-992.1875,488.28125,0.0
1734421037.6287258,364.2578125,-22.94921875,225.5859375,286.62109375,0.0
1734421037.6326315,-137.6953125,-33.203125,-907.2265625,-312.5,0.0
1734421037.6365373,-428.7109375,-34.66796875,-1000.0,-553.22265625,0.0
1734421037.640443,-201.66015625,-31.25,-136.71875,-87.40234375,0.0
1734421037.6443489,181.15234375,-29.78515625,931.15234375,459.47265625,0.0
1734421037.6482546,386.71875,-23.4375,480.95703125,340.33203125,0.0
1734421037.6521604,-27.83203125,-21.484375,-626.953125,-250.9765625,0.0
1734421037.656072,-412.59765625,-26.85546875,-1000.0,-589.84375,0.0
1734421037.6599777,-236.81640625,-22.94921875,-183.10546875,-195.3125,0.0
1734421037.6638834,149.90234375,-11.71875,933.10546875,416.9921875,0.0
1734421037.6677892,408.203125,-18.06640625,605.46875,396.484375,0.0
1734421037.671695,20.5078125,-30.2734375,-443.359375,-184.08203125,0.0
1734421037.6756008,-406.25,-32.2265625,-1000.0,-566.89453125,0.0
1734421037.6795065,-268.5546875,-27.83203125,-306.15234375,-229.4921875,0.0
1734421037.6834123,84.9609375,-13.18359375,828.125,381.34765625,0.0
1734421037.6873183,393.5546875,-13.18359375,738.76953125,469.23828125,0.0
1734421037.691224,99.609375,-27.34375,-200.68359375,-81.54296875,0.0
1734421037.6951299,-377.44140625,-33.69140625,-1000.0,-555.17578125,0.0
1734421037.6990356,-306.640625,-29.78515625,-546.875,-301.7578125,0.0
1734421037.7029467,29.78515625,-22.94921875,672.8515625,310.05859375,0.0
1734421037.7068524,381.8359375,-26.85546875,913.57421875,484.86328125,0.0
1734421037.7107582,172.36328125,-29.78515625,-122.55859375,-1.46484375,0.0
1734421037.714664,-350.09765625,-30.2734375,-1000.0,-532.2265625,0.0
1734421037.7185698,-337.890625,-28.80859375,-604.00390625,-394.53125,0.0
1734421037.7224758,-8.30078125,-20.01953125,588.8671875,227.05078125,0.0
1734421037.7263815,379.8828125,-12.6953125,928.7109375,501.953125,0.0
1734421037.7302873,236.81640625,-26.3671875,-80.56640625,62.98828125,0.0
1734421037.734193,-315.91796875,-39.55078125,-1000.0,-492.67578125,0.0
1734421037.7380989,-391.6015625,-31.25,-713.8671875,-430.17578125,0.0
1734421037.7420046,-92.28515625,-23.92578125,480.46875,169.43359375,0.0
1734421037.7459104,323.73046875,-16.6015625,987.79296875,512.20703125,0.0
1734421037.7498212,284.66796875,-24.4140625,82.03125,130.37109375,0.0
1734421037.753727,-267.578125,-36.62109375,-1000.0,-445.80078125,0.0
1734421037.7576327,-413.0859375,-42.48046875,-852.05078125,-491.2109375,0.0
1734421037.7615385,-117.67578125,-29.78515625,305.17578125,73.73046875,0.0
1734421037.7654443,294.43359375,-16.11328125,-981.4453125,502.44140625,0.0
1734421037.76935,333.0078125,-25.87890625,143.06640625,190.91796875,0.0
1734421037.7732558,-181.640625,-36.62109375,-1000.0,-375.9765625,0.0
1734421037.7771616,-407.2265625,-44.921875,-936.03515625,-489.2578125,0.0
1734421037.7810674,-190.4296875,-40.0390625,147.4609375,-9.765625,0.0
1734421037.7849734,208.984375,-36.62109375,-969.7265625,476.5625,0.0
1734421037.7888792,333.984375,-42.96875,193.84765625,261.23046875,0.0
1734421037.792785,-164.0625,-55.6640625,-978.515625,-337.40234375,0.0
1734421037.7966952,0.0,-59.08203125,-1000.0,-557.12890625,0.0
1734421037.800601,0.0,-51.7578125,-32.71484375,-117.1875,0.0
1734421037.8045068,0.0,-59.08203125,960.44921875,420.8984375,0.0
1734421037.8084126,0.0,-62.98828125,417.48046875,292.96875,0.0
1734421037.8123183,0.0,-60.546875,-666.9921875,-289.0625,0.0
1734421037.816224,0.0,-76.66015625,-1000.0,-596.6796875,0.0
1734421037.8201299,0.0,-72.75390625,-254.39453125,-188.96484375,0.0
1734421037.824036,0.0,-55.6640625,873.046875,404.296875,0.0
1734421037.8279417,0.0,-47.36328125,655.2734375,383.30078125,0.0
1734421037.8318474,0.0,-43.45703125,-386.23046875,-181.15234375,0.0
1734421037.8357532,0.0,-48.33984375,-1000.0,-552.24609375,0.0
1734421037.839659,0.0,-49.8046875,-268.06640625,-239.74609375,0.0
1734421037.843569,39.0625,-44.43359375,872.0703125,352.05078125,0.0
1734421037.8474748,354.98046875,-46.38671875,753.90625,451.171875,0.0
1734421037.8513806,67.87109375,-46.875,-237.3046875,-105.46875,0.0
1734421037.8552864,-404.78515625,-41.9921875,-1000.0,-551.7578125,0.0
1734421037.8591921,-311.5234375,-31.73828125,-417.48046875,-272.4609375,0.0
1734421037.863098,38.57421875,-36.1328125,752.44140625,317.3828125,0.0
1734421037.8670037,376.953125,-50.29296875,815.91796875,482.91015625,0.0
1734421037.8709095,148.4375,-43.9453125,-148.92578125,-17.08984375,0.0
1734421037.8748152,-367.1875,-39.55078125,-1000.0,-526.85546875,0.0
1734421037.8787212,-353.515625,-41.015625,-632.8125,-356.93359375,0.0
1734421037.882627,-33.203125,-29.78515625,581.54296875,248.046875,0.0
1734421037.8865328,356.93359375,-27.34375,934.08203125,507.32421875,0.0
1734421037.8904424,219.23828125,-38.0859375,-65.4296875,58.59375,0.0
1734421037.8943481,-317.87109375,-38.0859375,-1000.0,-487.79296875,0.0
1734421037.898254,-347.65625,-26.3671875,-702.1484375,-426.26953125,0.0
1734421037.9021597,-48.33984375,-21.97265625,535.15625,169.43359375,0.0
1734421037.9060655,313.4765625,-27.83203125,940.91796875,502.9296875,0.0
1734421037.9099715,255.859375,-38.0859375,-84.9609375,98.14453125,0.0
1734421037.9138772,-266.11328125,-36.1328125,-1000.0,-444.3359375,0.0
1734421037.917783,-397.4609375,-28.3203125,-791.9921875,-455.56640625,0.0
1734421037.9216888,-106.93359375,-23.92578125,381.8359375,118.1640625,0.0
1734421037.9255946,291.9921875,-25.87890625,986.328125,530.2734375,0.0
1734421037.9295003,311.03515625,-26.3671875,137.20703125,202.1484375,0.0
1734421037.933406,-200.68359375,-30.76171875,-1000.0,-389.6484375,0.0
1734421037.937318,-402.83203125,-30.2734375,-946.2890625,-497.0703125,0.0
1734421037.9412239,-146.97265625,-19.53125,113.76953125,33.203125,0.0
1734421037.9451296,248.53515625,-20.5078125,-993.1640625,493.65234375,0.0
1734421037.9490354,352.5390625,-24.4140625,230.95703125,270.5078125,0.0
1734421037.9529412,-110.3515625,-28.80859375,-924.31640625,-320.80078125,0.0
1734421037.956847,-406.25,-36.62109375,-1000.0,-552.24609375,0.0
1734421037.9607527,-226.07421875,-31.25,-55.17578125,-78.61328125,0.0
1734421037.9646585,154.78515625,-23.4375,-982.91015625,449.21875,0.0
1734421037.9685643,364.74609375,-28.80859375,302.24609375,295.8984375,0.0
1734421037.97247,-63.4765625,-37.109375,-871.09375,-272.4609375,0.0
1734421037.9763758,-419.43359375,-37.109375,-1000.0,-564.94140625,0.0
1734421037.9802816,-246.58203125,-32.71484375,-191.40625,-145.5078125,0.0
1734421037.9841933,125.9765625,-34.1796875,895.01953125,427.734375,0.0
1734421037.988099,391.6015625,-26.85546875,590.33203125,378.41796875,0.0
1734421037.9920049,21.484375,-24.4140625,-443.84765625,-181.640625,0.0
1734421037.9959106,-422.8515625,-40.0390625,-1000.0,-565.4296875,0.0
1734421037.9998164,-281.25,-36.1328125,-274.4140625,-242.1875,0.0
1734421038.0037222,97.65625,-25.87890625,856.4453125,381.8359375,0.0
1734421038.007628,386.71875,-35.64453125,752.44140625,443.84765625,0.0
1734421038.0115337,70.80078125,-37.109375,-213.37890625,-112.3046875,0.0
1734421038.0154395,-404.296875,-35.15625,-1000.0,-544.43359375,0.0
1734421038.0193453,-306.15234375,-29.296875,-370.1171875,-288.57421875,0.0
1734421038.0232513,39.0625,-12.20703125,830.078125,297.36328125,0.0
1734421038.027157,386.23046875,-16.6015625,832.03125,457.51953125,0.0
1734421038.0310683,152.83203125,-31.73828125,-162.59765625,-39.0625,0.0
1734421038.034974,-358.3984375,-33.203125,-1000.0,-543.9453125,0.0
1734421038.0388799,-335.9375,-30.2734375,-571.77734375,-376.46484375,0.0
1734421038.0427856,3.41796875,-32.71484375,683.59375,239.74609375,0.0
1734421038.0466914,355.46875,-33.203125,839.35546875,445.3125,0.0
1734421038.0505972,178.22265625,-37.109375,-261.71875,-10.25390625,0.0
1734421038.054503,-328.125,-37.59765625,-1000.0,-463.8671875,0.0
1734421038.0584087,-367.67578125,-28.3203125,-731.93359375,-379.39453125,0.0
1734421038.0623145,-65.91796875,-17.578125,405.2734375,183.59375,0.0
1734421038.0662205,332.03125,-9.27734375,993.65234375,500.0,0.0
1734421038.0701263,276.85546875,-16.6015625,53.7109375,129.39453125,0.0
1734421038.074032,-272.94921875,-32.71484375,-1000.0,-428.7109375,0.0
1734421038.077943,-389.16015625,-34.1796875,-794.921875,-456.0546875,0.0
1734421038.0818489,-102.05078125,-14.16015625,387.20703125,80.56640625,0.0
1734421038.0857546,284.66796875,-5.859375,-981.93359375,474.609375,0.0
1734421038.0896604,307.6171875,-9.27734375,121.09375,150.390625,0.0
1734421038.0935662,-205.078125,-13.671875,-1000.0,-423.828125,0.0
1734421038.097472,-420.41015625,-16.6015625,-933.59375,-520.5078125,0.0
1734421038.1013777,-168.45703125,-10.25390625,156.25,-10.7421875,0.0
1734421038.1052835,246.09375,-11.23046875,946.2890625,484.86328125,0.0
1734421038.1091893,336.9140625,-14.16015625,184.08203125,233.88671875,0.0
1734421038.113095,-138.671875,-9.765625,-902.34375,-375.48828125,0.0
1734421038.1170008,-408.69140625,-12.6953125,-1000.0,-563.4765625,0.0
1734421038.1209066,-186.5234375,-5.859375,-31.25,-99.12109375,0.0
1734421038.1248176,206.54296875,-0.9765625,980.46875,416.50390625,0.0
1734421038.1287234,385.7421875,-7.32421875,408.69140625,268.06640625,0.0
1734421038.1326292,-48.33984375,-17.578125,-692.87109375,-295.41015625,0.0
1734421038.136535,-399.90234375,-18.06640625,-1000.0,-569.82421875,0.0
1734421038.1404407,-210.44921875,-7.8125,-134.765625,-159.1796875,0.0
1734421038.1443465,181.640625,-5.37109375,948.2421875,413.0859375,0.0
1734421038.1482522,407.71484375,-10.25390625,477.05078125,369.62890625,0.0
1734421038.152158,9.27734375,-15.625,-602.05078125,-203.125,0.0
1734421038.1560638,-386.71875,-15.13671875,-1000.0,-567.87109375,0.0
1734421038.1599696,-262.6953125,-20.01953125,-226.5625,-223.6328125,0.0
1734421038.1638753,95.703125,-19.53125,875.9765625,364.2578125,0.0
1734421038.167781,398.92578125,-17.578125,693.359375,425.29296875,0.0
1734421038.1716917,79.1015625,-22.94921875,-274.90234375,-121.58203125,0.0
1734421038.1755974,-395.01953125,-29.296875,-1000.0,-570.3125,0.0
1734421038.1795032,-323.73046875,-33.69140625,-430.17578125,-296.38671875,0.0
1734421038.183409,20.01953125,-20.5078125,764.16015625,311.5234375,0.0
1734421038.1873147,384.27734375,-20.5078125,859.86328125,443.84765625,0.0
1734421038.1912205,149.90234375,-34.1796875,-159.1796875,-62.98828125,0.0
1734421038.1951263,-362.79296875,-33.203125,-1000.0,-534.1796875,0.0
1734421038.199032,-325.68359375,-20.01953125,-576.171875,-346.19140625,0.0
1734421038.2029378,-6.8359375,-12.6953125,675.78125,253.41796875,0.0
1734421038.2068436,356.4453125,-18.5546875,894.53125,453.125,0.0
1734421038.2107496,211.42578125,-22.4609375,-172.8515625,7.8125,0.0
1734421038.2146554,-296.875,-30.2734375,-1000.0,-481.93359375,0.0
1734421038.2185655,-345.21484375,-23.4375,-657.71484375,-386.71875,0.0
1734421038.2224712,-63.96484375,-8.30078125,522.4609375,196.2890625,0.0
1734421038.226377,338.8671875,-11.71875,967.7734375,502.9296875,0.0
1734421038.2302828,282.2265625,-22.4609375,51.26953125,121.58203125,0.0
1734421038.2341886,-265.625,-28.3203125,-1000.0,-439.94140625,0.0
1734421038.2380943,-380.37109375,-28.80859375,-839.84375,-444.82421875,0.0
1734421038.242,-98.14453125,-30.2734375,306.15234375,123.53515625,0.0
1734421038.2459059,308.59375,-19.04296875,-987.3046875,521.97265625,0.0
1734421038.2498116,318.359375,-15.13671875,157.2265625,194.82421875,0.0
1734421038.2537177,-208.0078125,-31.25,-1000.0,-395.5078125,0.0
1734421038.2576234,-399.90234375,-36.62109375,-911.62109375,-485.3515625,0.0
1734421038.2615292,-128.90625,-31.73828125,191.40625,30.76171875,0.0
1734421038.2654414,268.5546875,-25.390625,-992.1875,479.4921875,0.0
1734421038.2693472,318.84765625,-28.80859375,168.9453125,235.83984375,0.0
1734421038.273253,-174.31640625,-39.55078125,-985.83984375,-338.37890625,0.0
1734421038.2771587,-426.7578125,-35.64453125,-995.1171875,-535.64453125,0.0
1734421038.2810645,-200.68359375,-9.765625,26.3671875,-82.03125,0.0
1734421038.2849703,194.82421875,-5.859375,944.82421875,460.9375,0.0
1734421038.288876,383.30078125,-9.27734375,316.89453125,333.984375,0.0
1734421038.2927818,-55.17578125,-8.30078125,-735.3515625,-257.32421875,0.0
1734421038.2966878,-393.06640625,-14.16015625,-1000.0,-532.2265625,0.0
1734421038.3005936,-212.890625,-6.34765625,-200.1953125,-110.83984375,0.0
1734421038.3044994,163.57421875,-2.9296875,917.96875,423.828125,0.0
1734421038.3084052,408.69140625,-6.34765625,564.453125,360.3515625,0.0
1734421038.3123174,1.953125,-18.5546875,-495.60546875,-200.68359375,0.0
1734421038.3162231,-416.50390625,-31.25,-1000.0,-566.40625,0.0
1734421038.320129,-265.13671875,-21.97265625,-239.2578125,-206.54296875,0.0
1734421038.3240347,105.46875,-6.34765625,892.578125,389.6484375,0.0
1734421038.3279405,384.27734375,-12.20703125,703.61328125,424.31640625,0.0
1734421038.3318462,55.6640625,-35.64453125,-311.03515625,-118.65234375,0.0
1734421038.335752,-399.4140625,-40.52734375,-1000.0,-545.41015625,0.0
1734421038.3396578,-306.640625,-28.3203125,-337.40234375,-276.85546875,0.0
1734421038.3435636,37.59765625,-24.90234375,819.82421875,318.359375,0.0
1734421038.3474693,370.60546875,-25.87890625,774.4140625,458.49609375,0.0
1734421038.351375,135.7421875,-24.4140625,-164.55078125,-45.41015625,0.0
1734421038.3552809,-355.95703125,-30.2734375,-1000.0,-531.73828125,0.0
1734421038.3591928,0.0,-26.85546875,-600.09765625,-333.984375,0.0
1734421038.3630986,0.0,-14.16015625,624.0234375,256.8359375,0.0
1734421038.3670044,0.0,-21.484375,937.01171875,458.984375,0.0
1734421038.3709102,0.0,-32.71484375,-74.70703125,3.41796875,0.0
1734421038.374816,0.0,-34.1796875,-1000.0,-507.8125,0.0
1734421038.3787217,0.0,-37.59765625,-713.37890625,-400.87890625,0.0
1734421038.3826275,0.0,-29.296875,491.2109375,177.24609375,0.0
1734421038.3865333,0.0,-25.390625,984.375,480.46875,0.0
1734421038.390439,0.0,-40.52734375,-31.25,108.3984375,0.0
1734421038.3943448,0.0,-35.15625,-1000.0,-452.1484375,0.0
1734421038.3982506,0.0,-17.08984375,-761.23046875,-471.19140625,0.0
1734421038.4021566,0.0,-15.13671875,399.4140625,116.2109375,0.0
1734421038.4060657,-332.51953125,-21.484375,993.1640625,506.34765625,0.0
1734421038.4099715,-15.13671875,-32.71484375,138.671875,166.9921875,0.0
1734421038.4138772,358.3984375,-38.57421875,-1000.0,-407.2265625,0.0
1734421038.417783,194.82421875,-42.96875,-910.15625,-495.1171875,0.0
1734421038.4216888,-333.984375,-45.8984375,187.5,28.3203125,0.0
1734421038.4255946,-367.1875,-34.1796875,992.1875,458.49609375,0.0
1734421038.4295003,-59.5703125,-28.3203125,194.3359375,217.28515625,0.0
1734421038.4334064,343.75,-36.62109375,-951.66015625,-346.19140625,0.0
1734421038.4373121,262.6953125,-34.1796875,-993.65234375,-524.4140625,0.0
1734421038.441218,-295.41015625,-27.34375,17.08984375,-30.76171875,0.0
1734421038.4451237,-398.4375,-36.1328125,-979.00390625,481.93359375,0.0
1734421038.4490294,-117.1875,-45.8984375,211.42578125,299.31640625,0.0
1734421038.4529405,-80.56640625,-50.78125,-958.0078125,-289.55078125,0.0
1734421038.4568462,-432.6171875,-46.875,-1000.0,-559.08203125,0.0
1734421038.460752,-237.79296875,-35.64453125,-106.93359375,-125.48828125,0.0
1734421038.4646578,151.85546875,-35.15625,928.7109375,459.47265625,0.0
1734421038.4685636,367.1875,-45.8984375,494.140625,377.9296875,0.0
1734421038.4724696,-32.2265625,-45.8984375,-549.8046875,-219.7265625,0.0
1734421038.4763753,-419.43359375,-36.62109375,-1000.0,-561.03515625,0.0
1734421038.480281,-265.13671875,-36.62109375,-318.84765625,-191.89453125,0.0
1734421038.484187,77.1484375,-32.71484375,826.66015625,399.90234375,0.0
1734421038.4880927,371.09375,-27.34375,756.34765625,411.62109375,0.0
1734421038.4919984,41.50390625,-41.50390625,-251.953125,-135.25390625,0.0
1734421038.4959042,-411.1328125,-45.8984375,-1000.0,-569.82421875,0.0
1734421038.499815,0.0,-30.2734375,0.0,-286.1328125,0.0
1734421038.5037208,0.0,-18.5546875,0.0,336.42578125,0.0
1734421038.5076268,0.0,-26.85546875,0.0,461.9140625,0.0
1734421038.5115325,0.0,-41.50390625,0.0,-57.12890625,0.0
1734421038.5154383,0.0,-30.2734375,0.0,-533.203125,0.0
1734421038.519344,0.0,-23.92578125,0.0,-338.8671875,0.0
1734421038.5232499,0.0,-25.87890625,0.0,269.53125,0.0
1734421038.5271556,0.0,-25.87890625,0.0,501.46484375,0.0
1734421038.5310614,0.0,-23.92578125,0.0,34.1796875,0.0
1734421038.5349672,0.0,-18.06640625,0.0,-501.46484375,0.0
1734421038.538873,0.0,-28.3203125,0.0,-412.59765625,0.0
1734421038.5427787,0.0,-50.78125,0.0,187.5,0.0
1734421038.5466893,316.40625,-46.38671875,990.72265625,505.37109375,0.0
1734421038.550595,234.86328125,-32.2265625,32.2265625,80.078125,0.0
1734421038.5545008,-295.8984375,-40.0390625,-1000.0,-459.9609375,0.0
1734421038.5584066,-399.4140625,-40.52734375,-765.625,-425.78125,0.0
1734421038.5623124,-90.8203125,-35.64453125,425.29296875,113.28125,0.0
1734421038.5662181,340.33203125,-28.3203125,-999.0234375,493.65234375,0.0
1734421038.5701241,308.59375,-27.34375,60.546875,189.94140625,0.0
1734421038.57403,-236.328125,-28.3203125,-1000.0,-390.625,0.0
1734421038.5779357,-402.83203125,-20.01953125,-861.81640625,-503.41796875,0.0
1734421038.5818415,-134.27734375,-23.92578125,282.71484375,16.11328125,0.0
1734421038.5857472,249.51171875,-21.97265625,-987.3046875,466.30859375,0.0
1734421038.589653,306.15234375,-22.94921875,186.5234375,208.0078125,0.0
1734421038.5935633,-207.51953125,-29.296875,-955.078125,-371.58203125,0.0
1734421038.597469,-448.2421875,-27.83203125,-1000.0,-537.59765625,0.0
1734421038.6013749,-173.828125,-21.484375,-12.6953125,-53.22265625,0.0
1734421038.6052806,215.33203125,-22.4609375,995.1171875,477.05078125,0.0
1734421038.6091864,352.05078125,-30.2734375,296.875,304.6875,0.0
1734421038.6130922,-107.421875,-44.43359375,-851.5625,-304.19921875,0.0
1734421038.616998,-425.29296875,-45.41015625,-1000.0,-556.15234375,0.0
1734421038.6209037,-208.984375,-20.01953125,-101.07421875,-111.81640625,0.0
1734421038.6248095,165.0390625,-24.90234375,967.7734375,449.21875,0.0
1734421038.6287153,381.34765625,-36.1328125,417.48046875,364.74609375,0.0
1734421038.632621,-44.43359375,-32.2265625,-653.3203125,-229.00390625,0.0
1734421038.6365268,-450.1953125,-26.85546875,-1000.0,-586.42578125,0.0
1734421038.6404393,-264.6484375,-15.13671875,-245.1171875,-211.9140625,0.0
1734421038.644345,116.69921875,-12.6953125,872.0703125,391.11328125,0.0
1734421038.6482508,395.5078125,-22.4609375,704.1015625,410.15625,0.0
1734421038.6521566,40.52734375,-37.109375,-264.6484375,-161.62109375,0.0
1734421038.6560624,-396.484375,-39.0625,-1000.0,-567.87109375,0.0
1734421038.6599681,-267.578125,-28.3203125,-520.99609375,-271.484375,0.0
1734421038.663874,78.125,-17.08984375,686.5234375,319.3359375,0.0
1734421038.6677797,379.39453125,-25.87890625,866.2109375,447.75390625,0.0
1734421038.6716855,94.23828125,-41.50390625,-166.015625,-78.125,0.0
1734421038.6755912,-397.4609375,-41.9921875,-1000.0,-563.4765625,0.0
1734421038.679497,-342.28515625,-41.9921875,-523.4375,-343.75,0.0
1734421038.6834028,8.30078125,-38.0859375,685.05859375,264.16015625,0.0
1734421038.687315,378.90625,-41.50390625,885.7421875,477.5390625,0.0
1734421038.6912208,176.26953125,-43.9453125,-129.39453125,3.90625,0.0
1734421038.6951265,-365.72265625,-41.015625,-1000.0,-527.83203125,0.0
1734421038.6990323,-375.0,-41.50390625,-646.97265625,-415.52734375,0.0
1734421038.7029383,-48.33984375,-37.109375,566.40625,184.08203125,0.0
1734421038.706844,353.02734375,-28.3203125,945.3125,499.0234375,0.0
1734421038.7107499,252.9296875,-28.3203125,-57.12890625,82.51953125,0.0
1734421038.7146556,-308.59375,-36.1328125,-1000.0,-496.09375,0.0
1734421038.7185614,-389.6484375,-42.96875,-836.42578125,-481.93359375,0.0
1734421038.7224672,-71.2890625,-36.1328125,284.1796875,102.5390625,0.0
1734421038.726373,323.73046875,-16.6015625,-990.234375,500.48828125,0.0
1734421038.7302787,297.36328125,-31.25,72.75390625,149.4140625,0.0
1734421038.7341905,-255.859375,-47.8515625,-1000.0,-429.19921875,0.0
1734421038.7380962,-424.31640625,-34.1796875,-867.1875,-489.74609375,0.0
1734421038.742002,-131.34765625,-25.87890625,284.1796875,36.1328125,0.0
1734421038.7459078,277.34375,-20.01953125,-980.95703125,504.8828125,0.0
1734421038.7498136,342.7734375,-23.92578125,152.83203125,251.46484375,0.0
1734421038.7537193,-174.31640625,-37.109375,-1000.0,-362.3046875,0.0
1734421038.757625,-424.31640625,-25.87890625,-972.16796875,-530.2734375,0.0
1734421038.7615309,-158.203125,-15.625,71.2890625,-29.78515625,0.0
1734421038.765437,242.1875,-31.25,940.4296875,472.65625,0.0
1734421038.7693427,376.953125,-37.109375,271.97265625,290.52734375,0.0
1734421038.7732484,-86.9140625,-34.66796875,-800.29296875,-304.19921875,0.0
1734421038.7771542,-408.203125,-35.15625,-1000.0,-581.54296875,0.0
1734421038.7810657,-216.796875,-40.0390625,-125.9765625,-124.51171875,0.0
1734421038.7849715,160.64453125,-38.57421875,952.1484375,442.87109375,0.0
1734421038.7888772,390.625,-30.2734375,484.86328125,339.84375,0.0
1734421038.792783,-24.4140625,-31.25,-580.078125,-237.3046875,0.0
1734421038.7966888,-426.26953125,-39.55078125,-1000.0,-581.54296875,0.0
1734421038.8005946,-214.35546875,-39.55078125,-266.11328125,-160.64453125,0.0
1734421038.8045003,179.19921875,-28.3203125,896.97265625,446.77734375,0.0
1734421038.808406,408.203125,-35.15625,612.3046875,398.92578125,0.0
1734421038.812312,54.19921875,-38.0859375,-449.70703125,-156.73828125,0.0
1734421038.8162177,-407.71484375,-29.78515625,-1000.0,-557.12890625,0.0
1734421038.8201234,-301.26953125,-31.25,-291.9921875,-269.04296875,0.0
1734421038.8240292,56.15234375,-28.3203125,817.3828125,340.8203125,0.0
1734421038.8279405,381.8359375,-21.97265625,810.05859375,446.77734375,0.0
1734421038.8318462,104.98046875,-31.25,-160.15625,-96.19140625,0.0
1734421038.835752,-389.6484375,-38.57421875,-1000.0,-534.1796875,0.0
1734421038.8396578,-332.51953125,-37.59765625,-547.36328125,-293.45703125,0.0
1734421038.8435636,15.13671875,-24.4140625,653.80859375,289.55078125,0.0
1734421038.8474693,375.48828125,-27.83203125,875.0,475.09765625,0.0
1734421038.851375,168.45703125,-48.33984375,-129.8828125,5.37109375,0.0
1734421038.8552809,-353.515625,-50.29296875,-1000.0,-513.18359375,0.0
1734421038.8591866,-346.19140625,-41.015625,-634.765625,-388.671875,0.0
1734421038.8630924,-16.11328125,-24.4140625,595.703125,212.890625,0.0
1734421038.8669982,346.19140625,-29.296875,943.84765625,510.7421875,0.0
1734421038.8709042,220.703125,-35.64453125,-50.29296875,83.49609375,0.0
1734421038.874815,-309.5703125,-37.109375,-1000.0,-483.88671875,0.0
1734421038.8787208,-388.18359375,-37.109375,-739.2578125,-434.08203125,0.0
1734421038.8826265,-76.171875,-19.53125,433.10546875,135.7421875,0.0
1734421038.8865323,327.1484375,-16.6015625,989.2578125,490.234375,0.0
1734421038.890438,282.71484375,-23.4375,104.98046875,154.296875,0.0
1734421038.8943439,-271.97265625,-33.203125,-1000.0,-423.33984375,0.0
1734421038.8982496,-431.15234375,-42.48046875,-928.22265625,-490.72265625,0.0
1734421038.9021554,-148.4375,-36.1328125,122.0703125,52.24609375,0.0
1734421038.9060612,259.765625,-32.2265625,-998.046875,489.74609375,0.0
1734421038.909967,337.890625,-37.109375,191.40625,212.890625,0.0
1734421038.9138727,-168.9453125,-46.38671875,-989.2578125,-363.28125,0.0
1734421038.9177785,-414.55078125,-56.15234375,-981.93359375,-513.18359375,0.0
1734421038.921689,-166.9921875,-40.0390625,56.640625,-17.08984375,0.0
1734421038.9255948,225.5859375,-17.578125,988.76953125,486.81640625,0.0
1734421038.9295006,351.5625,-26.85546875,228.02734375,266.6015625,0.0
1734421038.9334064,-120.60546875,-38.0859375,-874.51171875,-327.1484375,0.0
1734421038.9373121,-418.9453125,-31.25,-1000.0,-539.55078125,0.0
1734421038.9412181,-195.80078125,-33.69140625,-133.7890625,-104.98046875,0.0
1734421038.945124,184.08203125,-43.45703125,905.2734375,451.171875,0.0
1734421038.9490297,362.3046875,-45.8984375,430.6640625,353.515625,0.0
1734421038.9529355,-56.15234375,-45.8984375,-587.890625,-248.53515625,0.0
1734421038.9568412,-413.0859375,-49.31640625,-1000.0,-572.265625,0.0
1734421038.960747,-248.53515625,-45.8984375,-240.72265625,-192.3828125,0.0
1734421038.9646528,99.609375,-45.8984375,898.92578125,393.06640625,0.0
1734421038.9685628,351.5625,-54.19921875,669.43359375,409.66796875,0.0
1734421038.9724686,-4.39453125,-63.96484375,-328.61328125,-143.5546875,0.0
1734421038.9763744,-444.3359375,-72.265625,-1000.0,-553.7109375,0.0
1734421038.9802802,-317.3828125,-62.98828125,-302.24609375,-252.9296875,0.0
1734421038.984186,41.015625,-52.24609375,845.703125,361.328125,0.0
1734421038.9880917,347.65625,-54.6875,743.1640625,461.9140625,0.0
1734421038.9919975,73.2421875,-56.640625,-239.2578125,-58.10546875,0.0
1734421038.9959033,-408.203125,-52.24609375,-1000.0,-511.23046875,0.0
1734421038.9998093,-351.07421875,-50.78125,-491.2109375,-298.828125,0.0
1734421039.003715,-9.27734375,-53.22265625,700.1953125,306.15234375,0.0
1734421039.0076208,354.4921875,-52.24609375,898.92578125,503.90625,0.0
1734421039.0115266,155.76171875,-47.36328125,-124.0234375,20.5078125,0.0
1734421039.0154364,-362.3046875,-48.828125,-1000.0,-479.4921875,0.0
1734421039.0193422,-361.328125,-46.38671875,-645.99609375,-334.47265625,0.0
1734421039.0232482,-50.78125,-40.0390625,557.6171875,260.25390625,0.0
1734421039.027154,335.9375,-40.52734375,975.5859375,534.66796875,0.0
1734421039.0310597,228.02734375,-45.41015625,-10.7421875,92.28515625,0.0
1734421039.0349655,-312.5,-48.828125,-1000.0,-457.03125,0.0
1734421039.0388713,-392.578125,-45.8984375,-764.6484375,-414.55078125,0.0
1734421039.042777,-91.796875,-38.0859375,439.94140625,150.390625,0.0
1734421039.0466828,308.59375,-35.15625,982.421875,519.53125,0.0
1734421039.0505886,290.52734375,-46.38671875,26.85546875,166.015625,0.0
1734421039.0544944,-256.8359375,-50.29296875,-1000.0,-416.50390625,0.0
1734421039.0584002,-423.33984375,-40.52734375,-828.125,-467.28515625,0.0
1734421039.0623121,-125.0,-27.34375,317.3828125,98.14453125,0.0
1734421039.066218,275.390625,-33.203125,997.0703125,523.4375,0.0
1734421039.0701237,308.59375,-50.78125,178.7109375,222.16796875,0.0
1734421039.0740294,-223.14453125,-60.546875,-1000.0,-379.8828125,0.0
1734421039.0779352,-412.59765625,-57.12890625,-901.85546875,-469.23828125,0.0
1734421039.081841,-123.53515625,-49.31640625,155.2734375,65.91796875,0.0
1734421039.0857468,230.95703125,-42.48046875,972.16796875,484.86328125,0.0
1734421039.0896525,355.46875,-41.015625,274.90234375,275.390625,0.0
1734421039.0935583,-111.328125,-55.6640625,-867.67578125,-312.98828125,0.0
1734421039.097464,-427.734375,-61.5234375,-1000.0,-536.62109375,0.0
1734421039.1013699,-220.21484375,-45.41015625,-72.265625,-92.28515625,0.0
1734421039.1052756,182.12890625,-41.015625,969.7265625,453.61328125,0.0
1734421039.1091874,0.0,-45.8984375,331.0546875,365.234375,0.0
1734421039.1130931,0.0,-50.29296875,-748.046875,-221.19140625,0.0
1734421039.116999,0.0,-54.19921875,-1000.0,-570.3125,0.0
1734421039.1209047,0.0,-52.734375,-211.42578125,-187.01171875,0.0
1734421039.1248107,0.0,-47.8515625,909.1796875,414.55078125,0.0
1734421039.1287165,0.0,-48.828125,564.94140625,416.9921875,0.0
1734421039.1326222,0.0,-57.6171875,-456.54296875,-145.01953125,0.0
1734421039.136528,0.0,-60.546875,-1000.0,-552.24609375,0.0
1734421039.1404338,0.0,-62.01171875,-484.86328125,-217.28515625,0.0
1734421039.1443396,0.0,-55.6640625,721.6796875,366.69921875,0.0
1734421039.1482453,0.0,-46.875,832.03125,391.11328125,0.0
1734421039.152151,0.0,-56.640625,-202.1484375,-109.86328125,0.0
1734421039.1560626,-447.75390625,-62.98828125,-1000.0,-531.25,0.0
1734421039.1599684,-381.34765625,-54.19921875,-466.30859375,-285.64453125,0.0
1734421039.1638741,-39.0625,-48.33984375,720.703125,327.63671875,0.0
1734421039.16778,334.9609375,-46.38671875,867.1875,494.62890625,0.0
1734421039.1716857,139.16015625,-54.6875,-140.625,5.859375,0.0
1734421039.1755915,-372.55859375,-65.4296875,-1000.0,-505.37109375,0.0
1734421039.1794972,-366.2109375,-55.17578125,-627.44140625,-360.3515625,0.0
1734421039.183403,-43.9453125,-39.55078125,587.40234375,238.28125,0.0
1734421039.1873088,335.9375,-37.59765625,916.9921875,514.16015625,0.0
1734421039.1912146,208.0078125,-35.64453125,-46.38671875,72.75390625,0.0
1734421039.1951203,-337.890625,-49.8046875,-1000.0,-494.62890625,0.0
1734421039.1990263,-411.1328125,-55.6640625,-805.17578125,-441.89453125,0.0
1734421039.2029374,-106.93359375,-47.36328125,395.5078125,144.53125,0.0
1734421039.2068431,303.22265625,-38.0859375,-990.72265625,513.18359375,0.0
1734421039.210749,271.484375,-35.15625,70.80078125,133.7890625,0.0
1734421039.2146547,-263.18359375,-45.8984375,-1000.0,-454.1015625,0.0
1734421039.2185605,-402.83203125,-49.31640625,-880.37109375,-486.81640625,0.0
1734421039.2224665,-123.53515625,-37.59765625,261.71875,67.87109375,0.0
1734421039.2263722,274.90234375,-35.64453125,-987.79296875,495.1171875,0.0
1734421039.230278,305.17578125,-50.29296875,116.2109375,197.265625,0.0
1734421039.2341838,-197.265625,-51.26953125,-1000.0,-394.53125,0.0
1734421039.2380896,-406.25,-37.109375,-949.70703125,-539.55078125,0.0
1734421039.2419953,-159.1796875,-26.3671875,109.375,-11.71875,0.0
1734421039.245901,242.1875,-23.92578125,995.1171875,496.09375,0.0
1734421039.249812,347.65625,-38.57421875,226.07421875,271.484375,0.0
1734421039.2537177,-155.2734375,-41.50390625,-896.484375,-337.890625,0.0
1734421039.2576234,-441.89453125,-39.0625,-1000.0,-554.19921875,0.0
1734421039.2615292,-218.75,-41.9921875,-108.3984375,-86.42578125,0.0
1734421039.265435,155.76171875,-35.64453125,979.98046875,448.73046875,0.0
1734421039.269341,350.09765625,-37.109375,336.9140625,324.70703125,0.0
1734421039.2732468,-84.47265625,-45.41015625,-765.625,-265.13671875,0.0
1734421039.2771525,-444.82421875,-43.45703125,-1000.0,-566.40625,0.0
1734421039.2810583,-253.90625,-29.296875,-222.65625,-163.0859375,0.0
1734421039.284964,116.69921875,-19.53125,945.3125,411.1328125,0.0
1734421039.2888699,365.234375,-25.87890625,500.9765625,348.6328125,0.0
1734421039.2927756,-1.953125,-36.62109375,-598.6328125,-231.93359375,0.0
1734421039.2966862,-429.19921875,-35.15625,-1000.0,-595.21484375,0.0
1734421039.300592,-295.8984375,-30.2734375,-289.55078125,-277.34375,0.0
1734421039.3044977,60.546875,-33.69140625,832.51953125,333.0078125,0.0
1734421039.3084035,370.1171875,-28.3203125,751.46484375,419.43359375,0.0
1734421039.3123093,76.66015625,-27.34375,-216.30859375,-115.72265625,0.0
1734421039.316215,-407.71484375,-41.9921875,-1000.0,-567.87109375,0.0
1734421039.3201208,-330.078125,-41.015625,-615.234375,-318.84765625,0.0
1734421039.3240266,9.765625,-25.87890625,591.30859375,293.45703125,0.0
1734421039.3279326,374.0234375,-22.94921875,911.1328125,460.9375,0.0
1734421039.3318384,161.62109375,-36.62109375,-137.20703125,-38.0859375,0.0
1734421039.3357441,-346.6796875,-37.109375,-1000.0,-523.4375,0.0
1734421039.33965,-340.33203125,-38.0859375,-605.46875,-362.3046875,0.0
1734421039.34356,-41.50390625,-40.0390625,575.1953125,213.37890625,0.0
1734421039.3474658,348.14453125,-40.0390625,918.45703125,481.4453125,0.0
1734421039.3513715,208.49609375,-45.41015625,-114.74609375,43.9453125,0.0
1734421039.3552773,-342.28515625,-41.50390625,-1000.0,-509.27734375,0.0
1734421039.359183,-386.23046875,-38.57421875,-740.72265625,-458.984375,0.0
1734421039.3630888,-88.8671875,-39.55078125,421.38671875,125.0,0.0
1734421039.3669946,300.78125,-34.66796875,895.5078125,480.95703125,0.0
1734421039.3709004,270.5078125,-36.62109375,13.671875,100.5859375,0.0
1734421039.3748062,-272.4609375,-52.24609375,-1000.0,-473.14453125,0.0
1734421039.378712,-411.62109375,-51.26953125,-912.59765625,-489.74609375,0.0
1734421039.3826177,-122.55859375,-40.0390625,237.79296875,69.3359375,0.0
1734421039.3865235,286.1328125,-41.9921875,-989.74609375,479.4921875,0.0
1734421039.3904333,322.75390625,-44.921875,128.41796875,175.29296875,0.0
1734421039.394339,-220.703125,-46.38671875,-1000.0,-427.734375,0.0
1734421039.3982449,-442.3828125,-39.0625,-973.6328125,-567.3828125,0.0
1734421039.4021506,-176.26953125,-24.4140625,44.921875,-36.1328125,0.0
1734421039.4060564,231.93359375,-13.18359375,-984.375,449.70703125,0.0
1734421039.4099622,343.75,-20.01953125,145.01953125,215.8203125,0.0
1734421039.413868,-139.6484375,-20.99609375,-1000.0,-361.328125,0.0
1734421039.417774,-424.8046875,-6.8359375,-1000.0,-582.03125,0.0
1734421039.4216797,-199.21875,-4.8828125,-58.59375,-126.953125,0.0
1734421039.4255855,197.75390625,0.0,965.33203125,405.2734375,0.0
1734421039.4294913,365.72265625,-10.7421875,382.32421875,266.6015625,0.0
1734421039.433397,-79.1015625,-24.90234375,-709.9609375,-304.6875,0.0
1734421039.437309,-417.48046875,-30.2734375,-1000.0,-606.4453125,0.0
1734421039.4412148,-237.79296875,-24.4140625,-228.02734375,-192.87109375,0.0
1734421039.4451206,131.34765625,-10.7421875,914.55078125,389.16015625,0.0
1734421039.4490263,392.578125,-7.32421875,582.51953125,348.6328125,0.0
1734421039.4529321,21.97265625,-26.3671875,-457.03125,-205.56640625,0.0
1734421039.456838,-398.4375,-39.0625,-1000.0,-574.70703125,0.0
1734421039.4607437,-265.625,-26.3671875,-331.0546875,-238.28125,0.0
1734421039.4646494,90.33203125,-20.5078125,846.6796875,357.91015625,0.0
1734421039.4685552,404.78515625,-27.34375,663.0859375,410.64453125,0.0
1734421039.4724612,97.16796875,-35.15625,-371.58203125,-136.23046875,0.0
1734421039.476367,-370.60546875,-33.203125,-1000.0,-580.078125,0.0
1734421039.4802728,-298.828125,-28.80859375,-460.44921875,-317.3828125,0.0
1734421039.4841843,37.59765625,-21.97265625,715.8203125,289.0625,0.0
1734421039.48809,410.64453125,-15.13671875,867.67578125,433.10546875,0.0
1734421039.4919958,170.8984375,-18.5546875,-134.27734375,-57.12890625,0.0
1734421039.4959016,-365.72265625,-27.83203125,-1000.0,-540.52734375,0.0
1734421039.4998074,-353.515625,-32.2265625,-652.83203125,-373.53515625,0.0
1734421039.5037131,-34.1796875,-31.73828125,547.8515625,235.3515625,0.0
1734421039.5076191,350.09765625,-30.2734375,935.05859375,483.3984375,0.0
1734421039.511525,225.5859375,-30.2734375,-60.05859375,26.85546875,0.0
1734421039.5154307,-300.78125,-37.109375,-1000.0,-495.60546875,0.0
1734421039.5193365,-363.28125,-38.0859375,-752.9296875,-428.7109375,0.0
1734421039.5232422,-67.3828125,-27.83203125,467.28515625,140.13671875,0.0
1734421039.527148,319.3359375,-21.484375,997.55859375,488.28125,0.0
1734421039.5310595,271.97265625,-30.2734375,-6.34765625,94.7265625,0.0
1734421039.5349653,-262.20703125,-36.1328125,-1000.0,-502.9296875,0.0
1734421039.538871,-402.34375,-31.25,-813.4765625,-520.01953125,0.0
1734421039.5427768,-118.65234375,-29.296875,339.35546875,53.7109375,0.0
1734421039.5466826,285.15625,-32.2265625,995.60546875,466.30859375,0.0
1734421039.5505884,307.6171875,-40.52734375,105.46875,151.85546875,0.0
1734421039.5544941,-206.54296875,-41.9921875,-1000.0,-445.3125,0.0
1734421039.5584,-417.96875,-43.45703125,-999.51171875,-558.59375,0.0
1734421039.5623057,-179.6875,-37.59765625,-34.66796875,-23.92578125,0.0
1734421039.5662115,236.81640625,-16.6015625,-997.0703125,470.703125,0.0
1734421039.5701172,326.171875,-22.94921875,194.82421875,200.1953125,0.0
1734421039.5740232,-189.94140625,-47.8515625,-978.515625,-429.6875,0.0
1734421039.5779343,-437.5,-57.6171875,-1000.0,-614.74609375,0.0
1734421039.58184,-203.61328125,-44.921875,-72.75390625,-130.37109375,0.0
1734421039.5857458,184.08203125,-32.2265625,992.1875,417.48046875,0.0
1734421039.5896516,349.609375,-38.57421875,266.11328125,259.765625,0.0
1734421039.5935574,-86.42578125,-43.9453125,-825.68359375,-329.1015625,0.0
1734421039.5974631,-439.453125,-47.36328125,-1000.0,-609.86328125,0.0
1734421039.601369,-249.0234375,-45.41015625,-234.375,-204.1015625,0.0
1734421039.6052747,143.5546875,-43.45703125,891.6015625,390.625,0.0
1734421039.6091805,363.28125,-44.921875,506.34765625,355.95703125,0.0
1734421039.6130862,-31.73828125,-45.8984375,-503.90625,-242.67578125,0.0
1734421039.616992,-430.6640625,-50.29296875,-1000.0,-606.4453125,0.0
1734421039.6208978,-281.73828125,-42.48046875,-304.19921875,-241.2109375,0.0
1734421039.6248085,55.6640625,-37.59765625,860.83984375,352.05078125,0.0
1734421039.6287146,348.6328125,-52.24609375,723.6328125,396.484375,0.0
1734421039.6326203,42.96875,-57.6171875,-255.37109375,-154.296875,0.0
1734421039.636526,-416.9921875,-50.29296875,-1000.0,-596.6796875,0.0
1734421039.640432,-317.3828125,-44.921875,-466.30859375,-320.3125,0.0
1734421039.6443377,32.2265625,-43.45703125,735.3515625,309.08203125,0.0
1734421039.6482434,379.39453125,-47.36328125,820.3125,451.66015625,0.0
1734421039.6521492,129.8828125,-46.38671875,-181.640625,-63.4765625,0.0
1734421039.656055,-392.578125,-43.9453125,-1000.0,-563.4765625,0.0
1734421039.6599607,-358.88671875,-39.0625,-583.49609375,-385.25390625,0.0
1734421039.6638665,-29.296875,-33.69140625,625.9765625,233.88671875,0.0
1734421039.6677723,348.14453125,-31.25,895.01953125,482.421875,0.0
1734421039.6716828,203.61328125,-33.69140625,-114.2578125,19.53125,0.0
1734421039.6755886,-336.9140625,-45.8984375,-1000.0,-519.04296875,0.0
1734421039.6794944,-386.23046875,-48.33984375,-717.28515625,-431.15234375,0.0
1734421039.6834002,-65.91796875,-38.0859375,495.60546875,162.59765625,0.0
1734421039.687306,343.26171875,-42.96875,990.234375,500.48828125,0.0
1734421039.6912117,270.01953125,-56.640625,-3.90625,92.7734375,0.0
1734421039.6951175,-278.80859375,-62.01171875,-1000.0,-483.3984375,0.0
1734421039.6990232,-404.296875,-55.17578125,-807.6171875,-486.81640625,0.0
1734421039.702929,-122.0703125,-40.0390625,375.48828125,71.77734375,0.0
1734421039.706835,285.64453125,-40.52734375,-989.74609375,487.79296875,0.0
1734421039.7107408,302.734375,-50.29296875,126.953125,166.9921875,0.0
1734421039.7146466,-226.07421875,-48.33984375,-1000.0,-427.734375,0.0
1734421039.7185566,-407.71484375,-45.41015625,-907.71484375,-528.3203125,0.0
1734421039.7224624,-140.625,-48.828125,215.8203125,12.20703125,0.0
1734421039.7263682,244.140625,-51.26953125,-1000.0,493.1640625,0.0
1734421039.7302742,341.796875,-55.6640625,180.17578125,256.8359375,0.0
1734421039.73418,-153.3203125,-68.84765625,-932.6171875,-344.7265625,0.0
1734421039.7380857,-425.78125,-66.89453125,-1000.0,-556.640625,0.0
1734421039.7419915,-192.87109375,-44.921875,-162.59765625,-68.359375,0.0
1734421039.7458973,184.5703125,-36.62109375,955.078125,461.42578125,0.0
1734421039.749803,351.5625,-39.0625,344.23828125,308.10546875,0.0
1734421039.7537088,-89.35546875,-43.45703125,-776.3671875,-287.59765625,0.0
1734421039.7576146,-421.38671875,-42.48046875,-1000.0,-572.75390625,0.0
1734421039.7615204,-228.515625,-33.203125,-203.61328125,-146.484375,0.0
1734421039.7654302,157.2265625,-26.3671875,943.84765625,435.546875,0.0
1734421039.769336,407.2265625,-26.85546875,439.94140625,391.11328125,0.0
1734421039.7732418,0.48828125,-39.0625,-625.48828125,-185.05859375,0.0
1734421039.7771475,-415.0390625,-46.38671875,-1000.0,-565.4296875,0.0
1734421039.7810533,-257.8125,-38.57421875,-265.13671875,-215.33203125,0.0
1734421039.784959,91.30859375,-43.45703125,820.3125,391.6015625,0.0
1734421039.7888649,378.90625,-49.31640625,684.5703125,427.734375,0.0
1734421039.7927706,67.3828125,-39.0625,-252.9296875,-140.625,0.0
1734421039.7966764,-382.32421875,-36.1328125,-1000.0,-562.98828125,0.0
1734421039.8005824,-296.38671875,-41.50390625,-470.703125,-277.83203125,0.0
1734421039.8044882,32.71484375,-36.1328125,749.0234375,321.2890625,0.0
1734421039.808394,361.328125,-33.203125,857.421875,458.984375,0.0
1734421039.812306,109.375,-41.50390625,-155.76171875,-48.828125,0.0
1734421039.8162117,-371.09375,-51.7578125,-1000.0,-519.04296875,0.0
1734421039.8201175,-331.0546875,-44.43359375,-572.75390625,-324.70703125,0.0
1734421039.8240232,-31.25,-23.92578125,657.71484375,248.046875,0.0
1734421039.827929,355.95703125,-25.87890625,905.76171875,480.46875,0.0
1734421039.8318348,191.40625,-42.48046875,-132.8125,24.4140625,0.0
1734421039.8357406,-367.67578125,-46.38671875,-1000.0,-518.06640625,0.0
1734421039.8396463,-389.6484375,-33.203125,-663.0859375,-409.66796875,0.0
1734421039.843552,-69.3359375,-29.78515625,522.4609375,185.546875,0.0
1734421039.847458,321.77734375,-36.1328125,946.77734375,500.9765625,0.0
1734421039.8513637,231.93359375,-36.62109375,15.625,105.95703125,0.0
1734421039.8552697,-301.26953125,-43.45703125,-1000.0,-463.37890625,0.0
1734421039.8591812,-407.71484375,-49.8046875,-835.44921875,-461.9140625,0.0
1734421039.863087,-127.44140625,-46.38671875,347.65625,116.69921875,0.0
1734421039.8669927,273.4375,-33.203125,-977.5390625,510.7421875,0.0
1734421039.8708985,284.1796875,-34.1796875,125.9765625,165.52734375,0.0
1734421039.8748043,-236.81640625,-50.29296875,-1000.0,-417.48046875,0.0
1734421039.8787103,-416.50390625,-49.31640625,-929.19921875,-489.74609375,0.0
1734421039.882616,-145.01953125,-27.83203125,154.296875,60.05859375,0.0
1734421039.8865218,254.8828125,-20.5078125,-984.86328125,513.18359375,0.0
1734421039.8904276,334.9609375,-36.62109375,147.4609375,250.48828125,0.0
1734421039.8943334,-172.8515625,-44.43359375,-1000.0,-349.12109375,0.0
1734421039.8982391,-439.453125,-40.52734375,-985.83984375,-545.8984375,0.0
1734421039.902145,-208.49609375,-33.69140625,13.18359375,-35.64453125,0.0
1734421039.9060564,186.5234375,-34.66796875,973.6328125,485.3515625,0.0
1734421039.9099622,339.84375,-42.96875,350.09765625,292.48046875,0.0
1734421039.913868,-115.72265625,-41.015625,-762.20703125,-289.55078125,0.0
1734421039.9177737,-431.15234375,-41.50390625,-1000.0,-537.109375,0.0
1734421039.9216795,-226.07421875,-41.50390625,-163.0859375,-119.62890625,0.0
1734421039.9255853,153.3203125,-34.1796875,929.19921875,442.87109375,0.0
1734421039.929491,374.51171875,-32.71484375,492.67578125,375.48828125,0.0
1734421039.9333968,-19.04296875,-42.96875,-534.66796875,-198.73046875,0.0
1734421039.9373026,-416.9921875,-47.36328125,-1000.0,-550.29296875,0.0
1734421039.9412084,-263.18359375,-32.2265625,-256.34765625,-201.66015625,0.0
1734421039.9451141,86.9140625,-26.3671875,912.59765625,403.3203125,0.0
1734421039.94902,362.79296875,-40.0390625,624.51171875,429.19921875,0.0
1734421039.9529312,38.0859375,-51.7578125,-395.99609375,-151.85546875,0.0
1734421039.956837,-423.828125,-47.8515625,-1000.0,-582.51953125,0.0
1734421039.9607427,-310.546875,-36.62109375,-327.63671875,-291.9921875,0.0
1734421039.9646485,48.828125,-25.87890625,818.359375,339.84375,0.0
1734421039.9685543,401.85546875,-20.5078125,815.91796875,478.02734375,0.0
1734421039.97246,119.62890625,-36.62109375,-166.50390625,-60.546875,0.0
1734421039.9763658,-407.71484375,-41.9921875,-1000.0,-547.36328125,0.0
1734421039.9802716,-349.609375,-34.66796875,-666.50390625,-337.890625,0.0
1734421039.9841774,-30.76171875,-33.69140625,546.38671875,278.80859375,0.0
1734421039.9880831,344.7265625,-32.2265625,968.75,491.69921875,0.0
1734421039.991989,174.8046875,-38.0859375,-72.75390625,16.11328125,0.0
1734421039.9958947,-364.74609375,-47.8515625,-1000.0,-517.578125,0.0
1734421039.9998055,-387.6953125,-43.9453125,-657.2265625,-412.59765625,0.0
1734421040.0037112,-70.3125,-26.85546875,564.94140625,187.01171875,0.0
1734421040.007617,332.51953125,-29.78515625,949.21875,508.7890625,0.0
1734421040.011523,251.46484375,-44.43359375,-49.8046875,98.6328125,0.0
1734421040.0154288,-289.0625,-46.875,-1000.0,-469.7265625,0.0
1734421040.0193346,-394.04296875,-45.41015625,-794.921875,-448.2421875,0.0
1734421040.0232403,-92.28515625,-38.57421875,376.46484375,140.13671875,0.0
1734421040.027146,312.5,-28.3203125,961.9140625,556.15234375,0.0
1734421040.0310519,299.8046875,-30.2734375,102.5390625,194.82421875,0.0
1734421040.0349576,-225.09765625,-37.59765625,-1000.0,-421.875,0.0
1734421040.0388634,-400.390625,-39.0625,-963.37890625,-500.0,0.0
1734421040.0427692,-139.16015625,-41.9921875,106.4453125,49.31640625,0.0
1734421040.0466797,274.90234375,-30.76171875,-980.46875,508.30078125,0.0
1734421040.0505855,357.421875,-27.83203125,190.4296875,235.3515625,0.0
1734421040.0544913,-157.2265625,-43.45703125,-987.3046875,-358.3984375,0.0
1734421040.058397,-411.62109375,-42.48046875,-985.3515625,-540.52734375,0.0
1734421040.0623028,-177.734375,-29.78515625,23.4375,-45.8984375,0.0
1734421040.0662086,212.890625,-26.3671875,-983.88671875,495.1171875,0.0
1734421040.0701144,352.5390625,-40.52734375,180.6640625,323.73046875,0.0
1734421040.0740201,-106.93359375,-51.7578125,-988.76953125,-295.41015625,0.0
1734421040.077926,-417.48046875,-44.921875,-1000.0,-579.1015625,0.0
1734421040.0818317,-215.33203125,-36.62109375,-112.79296875,-119.140625,0.0
1734421040.0857377,173.33984375,-29.296875,950.68359375,467.7734375,0.0
1734421040.0896435,386.23046875,-32.71484375,502.44140625,372.0703125,0.0
1734421040.0935535,0.0,-44.43359375,-571.2890625,-225.09765625,0.0
1734421040.0974593,0.0,-49.8046875,-1000.0,-571.77734375,0.0
1734421040.101365,0.0,-43.9453125,-261.71875,-211.9140625,0.0
1734421040.1052709,0.0,-34.1796875,918.45703125,397.94921875,0.0
1734421040.1091766,0.0,-43.45703125,610.83984375,392.08984375,0.0
1734421040.1130824,0.0,-58.10546875,-433.59375,-191.89453125,0.0
1734421040.1169882,0.0,-62.5,-1000.0,-565.4296875,0.0
1734421040.120894,0.0,-56.640625,-330.078125,-264.16015625,0.0
1734421040.1247997,0.0,-45.41015625,850.09765625,340.8203125,0.0
1734421040.1287057,0.0,-48.828125,767.08984375,445.80078125,0.0
1734421040.1326115,0.0,-50.78125,-225.09765625,-83.0078125,0.0
1734421040.1365173,0.0,-51.26953125,-1000.0,-543.9453125,0.0
1734421040.140427,-336.42578125,-52.734375,-528.3203125,-341.30859375,0.0
1734421040.144333,-21.484375,-44.43359375,660.64453125,258.30078125,0.0
1734421040.1482387,348.6328125,-43.9453125,902.83203125,468.75,0.0
1734421040.1521444,177.24609375,-51.26953125,-105.46875,-4.8828125,0.0
1734421040.1560502,-353.02734375,-51.7578125,-1000.0,-521.484375,0.0
1734421040.159956,-381.34765625,-52.734375,-760.25390625,-395.5078125,0.0
1734421040.1638618,-70.80078125,-47.8515625,437.5,199.21875,0.0
1734421040.1677675,334.9609375,-45.41015625,993.1640625,477.5390625,0.0
1734421040.1716733,239.74609375,-54.19921875,-11.71875,55.17578125,0.0
1734421040.175579,-294.43359375,-55.17578125,-1000.0,-484.375,0.0
1734421040.1794848,-381.34765625,-43.9453125,-772.94921875,-461.9140625,0.0
1734421040.1833906,-100.09765625,-36.62109375,419.43359375,106.93359375,0.0
1734421040.187303,0.0,-37.109375,-999.0234375,503.90625,0.0
1734421040.1912088,0.0,-37.59765625,53.22265625,149.4140625,0.0
1734421040.1951146,0.0,-43.9453125,-1000.0,-447.75390625,0.0
1734421040.1990204,0.0,-38.57421875,-874.0234375,-514.6484375,0.0
1734421040.2029262,0.0,-31.25,265.13671875,23.92578125,0.0
1734421040.206832,0.0,-32.2265625,980.46875,480.46875,0.0
1734421040.2107377,0.0,-33.69140625,128.41796875,217.7734375,0.0
1734421040.2146435,0.0,-33.203125,-958.49609375,-384.765625,0.0
1734421040.2185493,0.0,-37.59765625,-1000.0,-550.29296875,0.0
1734421040.222455,0.0,-42.96875,-121.58203125,-30.76171875,0.0
1734421040.2263608,0.0,-29.78515625,-992.67578125,479.4921875,0.0
1734421040.2302666,0.0,-24.4140625,220.21484375,283.203125,0.0
1734421040.2341785,-130.37109375,-40.52734375,-936.5234375,-316.89453125,0.0
1734421040.2380843,-445.3125,-51.7578125,-1000.0,-589.35546875,0.0
1734421040.24199,-239.2578125,-46.38671875,-127.44140625,-134.765625,0.0
1734421040.2458959,141.6015625,-39.55078125,979.98046875,452.63671875,0.0
1734421040.2498016,363.76953125,-42.48046875,365.72265625,347.65625,0.0
1734421040.2537076,-38.0859375,-46.38671875,-739.2578125,-254.39453125,0.0
1734421040.2576134,-411.62109375,-45.41015625,-1000.0,-605.95703125,0.0
1734421040.2615192,-246.58203125,-35.64453125,-232.421875,-223.6328125,0.0
1734421040.265425,104.00390625,-36.1328125,876.953125,388.18359375,0.0
1734421040.2693307,366.2109375,-41.015625,632.32421875,396.484375,0.0
1734421040.2732365,24.4140625,-41.015625,-362.3046875,-174.31640625,0.0
1734421040.2771423,-405.2734375,-46.875,-1000.0,-587.40234375,0.0
1734421040.2810538,0.0,-41.50390625,-320.3125,-274.4140625,0.0
1734421040.2849596,0.0,-36.1328125,844.7265625,346.6796875,0.0
1734421040.2888653,0.0,-37.59765625,810.546875,452.1484375,0.0
1734421040.292771,0.0,-43.9453125,-173.828125,-79.58984375,0.0
1734421040.2966769,0.0,-49.31640625,-1000.0,-560.05859375,0.0
1734421040.3005826,0.0,-46.875,-573.73046875,-337.40234375,0.0
1734421040.3044884,0.0,-34.66796875,643.06640625,292.48046875,0.0
1734421040.3083942,0.0,-35.15625,885.25390625,495.1171875,0.0
1734421040.3123,0.0,-48.828125,-153.80859375,8.30078125,0.0
1734421040.3162057,0.0,-41.9921875,-1000.0,-532.2265625,0.0
1734421040.3201118,0.0,-32.71484375,-645.99609375,-405.2734375,0.0
1734421040.3240175,0.0,-31.25,528.80859375,214.84375,0.0
1734421040.3279283,367.67578125,-29.78515625,971.19140625,508.7890625,0.0
1734421040.331834,247.0703125,-34.66796875,-4.39453125,69.82421875,0.0
1734421040.33574,-287.109375,-42.96875,-1000.0,-509.27734375,0.0
1734421040.3396459,-375.0,-42.48046875,-778.3203125,-467.7734375,0.0
1734421040.3435516,-95.21484375,-31.73828125,447.75390625,147.4609375,0.0
1734421040.3474574,299.8046875,-30.2734375,940.4296875,485.83984375,0.0
1734421040.3513632,269.04296875,-40.0390625,-35.15625,104.00390625,0.0
1734421040.355269,-253.90625,-50.29296875,-1000.0,-431.640625,0.0
1734421040.3591747,-411.1328125,-51.26953125,-859.86328125,-508.7890625,0.0
1734421040.3630805,-143.06640625,-36.62109375,301.26953125,52.24609375,0.0
1734421040.3669863,242.1875,-34.66796875,-976.07421875,507.8125,0.0
1734421040.370892,299.31640625,-44.43359375,153.3203125,208.49609375,0.0
1734421040.374803,-210.9375,-54.19921875,-997.55859375,-398.92578125,0.0
1734421040.3787088,-447.75390625,-49.8046875,-969.23828125,-553.22265625,0.0
1734421040.3826146,-190.4296875,-39.0625,54.19921875,-28.80859375,0.0
1734421040.3865204,223.6328125,-36.1328125,992.67578125,489.74609375,0.0
1734421040.3904262,361.81640625,-44.43359375,223.6328125,276.85546875,0.0
1734421040.394332,-135.25390625,-51.26953125,-901.3671875,-342.28515625,0.0
1734421040.3982377,-445.80078125,-44.921875,-1000.0,-587.890625,0.0
1734421040.4021435,-221.19140625,-35.64453125,-224.609375,-109.375,0.0
1734421040.4060493,166.50390625,-27.83203125,949.70703125,460.44921875,0.0
1734421040.409955,371.58203125,-33.203125,440.91796875,345.21484375,0.0
1734421040.413861,-57.12890625,-43.9453125,-688.4765625,-243.1640625,0.0
1734421040.4177668,-436.5234375,-51.7578125,-1000.0,-589.35546875,0.0
1734421040.4216774,0.0,-45.8984375,-223.6328125,-200.68359375,0.0
1734421040.4255831,0.0,-37.59765625,925.29296875,419.921875,0.0
1734421040.429489,0.0,-41.50390625,530.76171875,413.57421875,0.0
1734421040.4333947,0.0,-52.734375,-486.81640625,-172.36328125,0.0
1734421040.4373004,0.0,-55.6640625,-1000.0,-574.70703125,0.0
1734421040.4412062,0.0,-43.9453125,-340.8203125,-256.34765625,0.0
1734421040.445112,0.0,-40.52734375,791.015625,362.3046875,0.0
1734421040.4490178,0.0,-43.9453125,740.72265625,455.56640625,0.0
1734421040.4529238,0.0,-44.921875,-189.94140625,-95.703125,0.0
1734421040.4568295,0.0,-53.22265625,-1000.0,-565.91796875,0.0
1734421040.4607353,0.0,-50.78125,-541.015625,-329.1015625,0.0
1734421040.464641,0.0,-41.015625,687.98828125,298.33984375,0.0
1734421040.4685512,362.79296875,-43.9453125,902.83203125,497.0703125,0.0
1734421040.472457,160.64453125,-58.10546875,-131.8359375,-6.8359375,0.0
1734421040.4763627,-362.3046875,-65.4296875,-1000.0,-540.52734375,0.0
1734421040.4802685,-349.609375,-58.10546875,-629.39453125,-392.08984375,0.0
1734421040.4841743,-31.25,-41.015625,598.6328125,224.12109375,0.0
1734421040.48808,351.5625,-35.64453125,920.41015625,506.8359375,0.0
1734421040.4919858,235.83984375,-48.828125,-138.671875,64.94140625,0.0
1734421040.4958918,-303.22265625,-49.8046875,-1000.0,-492.67578125,0.0
1734421040.4997976,-378.90625,-39.55078125,-737.79296875,-446.77734375,0.0
1734421040.5037034,-85.9375,-37.109375,446.2890625,145.99609375,0.0
1734421040.5076091,320.80078125,-29.296875,-995.1171875,544.43359375,0.0
1734421040.511515,304.19921875,-33.69140625,49.31640625,186.03515625,0.0
1734421040.5154247,-232.421875,-45.8984375,-1000.0,-416.50390625,0.0
1734421040.5193305,-398.92578125,-41.9921875,-880.859375,-481.4453125,0.0
1734421040.5232363,-119.140625,-33.203125,272.4609375,91.796875,0.0
1734421040.527142,291.9921875,-27.83203125,-977.05078125,544.921875,0.0
1734421040.5310478,331.0546875,-34.66796875,139.6484375,244.62890625,0.0
1734421040.5349536,-180.6640625,-46.875,-1000.0,-356.93359375,0.0
1734421040.5388594,-396.484375,-42.48046875,-961.42578125,-509.27734375,0.0
1734421040.5427651,-157.2265625,-31.25,94.23828125,-10.25390625,0.0
1734421040.546671,241.69921875,-32.71484375,-988.28125,501.46484375,0.0
1734421040.550577,368.1640625,-47.8515625,225.5859375,302.24609375,0.0
1734421040.5544827,-120.1171875,-54.19921875,-911.1328125,-321.2890625,0.0
1734421040.5583885,-420.8984375,-44.921875,-1000.0,-558.10546875,0.0
1734421040.5623002,-208.49609375,-40.0390625,-76.66015625,-83.49609375,0.0
1734421040.566206,183.59375,-35.64453125,949.70703125,484.375,0.0
1734421040.5701118,390.625,-34.1796875,444.82421875,368.1640625,0.0
1734421040.5740175,-41.50390625,-40.52734375,-623.046875,-236.81640625,0.0
1734421040.5779233,-408.203125,-48.33984375,-1000.0,-564.453125,0.0
1734421040.581829,-242.67578125,-43.45703125,-272.94921875,-166.015625,0.0
1734421040.585735,118.65234375,-28.3203125,913.0859375,425.29296875,0.0
1734421040.5896409,396.484375,-28.80859375,587.890625,410.64453125,0.0
1734421040.5935466,42.96875,-48.828125,-463.8671875,-166.9921875,0.0
1734421040.5974524,-412.109375,-48.33984375,-1000.0,-565.4296875,0.0
1734421040.6013582,-288.57421875,-29.296875,-287.109375,-243.65234375,0.0
1734421040.605264,86.9140625,-29.78515625,857.91015625,362.3046875,0.0
1734421040.6091754,395.01953125,-38.0859375,714.84375,449.21875,0.0
1734421040.6130812,98.14453125,-44.921875,-262.20703125,-80.56640625,0.0
1734421040.616987,-385.7421875,-45.8984375,-1000.0,-556.640625,0.0
1734421040.6208928,-319.3359375,-41.9921875,-436.5234375,-312.5,0.0
1734421040.6247985,43.45703125,-39.55078125,730.46875,293.45703125,0.0
1734421040.6287043,431.15234375,-36.1328125,842.28515625,457.03125,0.0
1734421040.63261,178.7109375,-42.48046875,-135.7421875,-5.859375,0.0
1734421040.636516,-357.91015625,-48.828125,-1000.0,-527.34375,0.0
1734421040.6404219,-361.328125,-48.828125,-727.5390625,-383.7890625,0.0
1734421040.6443276,-21.97265625,-38.0859375,502.44140625,234.375,0.0
1734421040.6482334,393.5546875,-31.25,939.94140625,511.23046875,0.0
1734421040.6521392,250.0,-33.69140625,-86.9140625,65.4296875,0.0
1734421040.6560528,-282.71484375,-28.80859375,-1000.0,-503.90625,0.0
1734421040.6599588,-345.703125,-24.4140625,-725.5859375,-444.82421875,0.0
1734421040.6638646,-53.22265625,-21.484375,473.6328125,169.921875,0.0
1734421040.6677704,373.046875,-21.97265625,997.55859375,551.7578125,0.0
1734421040.6716762,349.12109375,-23.4375,43.9453125,169.43359375,0.0
1734421040.675582,-200.1953125,-27.34375,-1000.0,-418.45703125,0.0
1734421040.6794877,-361.81640625,-23.4375,-819.3359375,-466.796875,0.0
1734421040.6833935,-91.796875,-11.23046875,348.14453125,93.26171875,0.0
1734421040.6872993,327.63671875,-9.765625,994.62890625,533.69140625,0.0
1734421040.691205,372.55859375,-20.01953125,166.9921875,216.30859375,0.0
1734421040.6951108,-155.2734375,-26.85546875,-978.02734375,-377.9296875,0.0
1734421040.6990166,-364.2578125,-26.3671875,-991.69921875,-510.7421875,0.0
1734421040.7029276,-99.12109375,-17.578125,58.59375,12.20703125,0.0
1734421040.7068334,289.0625,-12.20703125,-979.00390625,520.5078125,0.0
1734421040.7107391,411.1328125,-19.53125,220.703125,308.59375,0.0
1734421040.714645,-84.9609375,-30.2734375,-916.015625,-293.45703125,0.0
1734421040.718551,-388.18359375,-30.76171875,-1000.0,-551.7578125,0.0
1734421040.7224567,-141.6015625,-16.11328125,-88.8671875,-56.640625,0.0
1734421040.7263625,242.1875,-16.11328125,967.28515625,513.18359375,0.0
1734421040.7302682,407.71484375,-24.4140625,377.9296875,352.05078125,0.0
1734421040.734174,-20.99609375,-21.484375,-701.171875,-248.046875,0.0
1734421040.7380798,-371.09375,-23.4375,-1000.0,-548.828125,0.0
1734421040.7419856,-205.078125,-25.390625,-168.45703125,-142.578125,0.0
1734421040.7458913,178.7109375,-17.08984375,895.99609375,456.0546875,0.0
1734421040.749802,433.10546875,-21.484375,623.53515625,421.38671875,0.0
1734421040.753708,51.7578125,-32.2265625,-368.65234375,-170.41015625,0.0
1734421040.7576137,-365.234375,-28.3203125,-1000.0,-552.24609375,0.0
1734421040.7615194,-239.2578125,-21.97265625,-294.43359375,-229.4921875,0.0
1734421040.7654252,90.33203125,-18.06640625,868.1640625,384.27734375,0.0
1734421040.769331,383.7890625,-23.92578125,749.51171875,477.05078125,0.0
1734421040.7732368,89.35546875,-32.2265625,-233.88671875,-66.89453125,0.0
1734421040.7771425,-366.69921875,-33.203125,-1000.0,-521.97265625,0.0
1734421040.7810483,-291.015625,-22.94921875,-423.828125,-273.92578125,0.0
1734421040.784954,29.78515625,-15.13671875,778.3203125,345.21484375,0.0
1734421040.7888598,378.41796875,-18.5546875,853.02734375,525.87890625,0.0
1734421040.7927659,164.0625,-20.01953125,-165.0390625,22.4609375,0.0
1734421040.7966762,-344.7265625,-16.6015625,-1000.0,-501.953125,0.0
1734421040.800582,-330.56640625,-16.11328125,-581.54296875,-351.07421875,0.0
1734421040.8044877,-21.97265625,-11.23046875,598.6328125,268.06640625,0.0
1734421040.8083935,361.81640625,-8.30078125,964.35546875,524.90234375,0.0
1734421040.8122993,219.7265625,-13.18359375,-27.34375,80.56640625,0.0
1734421040.816205,-332.51953125,-21.97265625,-1000.0,-472.16796875,0.0
1734421040.8201108,-387.6953125,-29.296875,-825.68359375,-409.66796875,0.0
1734421040.8240166,-84.9609375,-23.4375,340.33203125,203.125,0.0
1734421040.8279226,318.84765625,-21.97265625,-995.1171875,546.38671875,0.0
1734421040.8318284,269.04296875,-38.0859375,49.31640625,141.11328125,0.0
1734421040.8357341,-279.296875,-43.45703125,-1000.0,-457.51953125,0.0
1734421040.83964,-401.3671875,-36.1328125,-808.59375,-485.3515625,0.0
1734421040.84355,-114.74609375,-25.87890625,377.9296875,102.5390625,0.0
1734421040.8474557,293.9453125,-18.06640625,-985.3515625,527.34375,0.0
1734421040.8513615,330.56640625,-27.83203125,138.671875,197.265625,0.0
1734421040.8552673,-238.28125,-42.96875,-1000.0,-386.23046875,0.0
1734421040.859173,-460.44921875,-41.015625,-944.82421875,-516.6015625,0.0
1734421040.8630788,-193.84765625,-30.76171875,109.86328125,3.41796875,0.0
1734421040.8669846,187.98828125,-31.73828125,942.87109375,512.6953125,0.0
1734421040.8708904,300.29296875,-34.66796875,258.7890625,282.2265625,0.0
1734421040.8747962,-176.7578125,-37.59765625,-840.8203125,-320.80078125,0.0
1734421040.878702,-459.9609375,-39.0625,-1000.0,-534.66796875,0.0
1734421040.882608,-227.05078125,-34.66796875,-89.84375,-57.6171875,0.0
1734421040.8865137,169.43359375,-33.203125,981.93359375,485.3515625,0.0
1734421040.8904233,344.7265625,-38.0859375,370.1171875,343.75,0.0
1734421040.894329,-92.28515625,-40.0390625,-730.95703125,-251.953125,0.0
1734421040.898235,-433.59375,-31.25,-1000.0,-558.59375,0.0
1734421040.9021409,-257.8125,-29.78515625,-160.15625,-146.484375,0.0
1734421040.9060466,134.765625,-25.390625,969.23828125,426.7578125,0.0
1734421040.9099524,397.4609375,-33.69140625,430.6640625,384.765625,0.0
1734421040.9138582,-8.30078125,-52.24609375,-653.3203125,-207.51953125,0.0
1734421040.917764,-439.94140625,-46.38671875,-1000.0,-584.47265625,0.0
1734421040.9216697,-285.64453125,-33.203125,-255.37109375,-240.234375,0.0
1734421040.9255755,69.3359375,-34.66796875,843.26171875,369.140625,0.0
1734421040.9294813,355.46875,-40.52734375,778.3203125,447.265625,0.0
1734421040.933387,49.31640625,-45.8984375,-187.5,-106.4453125,0.0
1734421040.937299,-424.8046875,-43.9453125,-1000.0,-559.08203125,0.0
1734421040.9412048,-329.58984375,-32.2265625,-402.83203125,-292.96875,0.0
1734421040.9451106,11.71875,-22.94921875,785.15625,330.56640625,0.0
1734421040.9490163,365.72265625,-27.34375,852.5390625,485.83984375,0.0
1734421040.952922,141.6015625,-38.57421875,-138.671875,-27.34375,0.0
1734421040.9568279,-387.6953125,-41.9921875,-1000.0,-531.25,0.0
1734421040.960734,-369.140625,-35.64453125,-595.21484375,-362.3046875,0.0
1734421040.9646397,-31.73828125,-25.390625,629.39453125,240.72265625,0.0
1734421040.9685454,356.4453125,-28.3203125,926.26953125,498.046875,0.0
1734421040.9724512,202.63671875,-41.50390625,-119.140625,52.734375,0.0
1734421040.976357,-339.84375,-41.015625,-1000.0,-506.34765625,0.0
1734421040.9802628,-373.046875,-38.0859375,-730.46875,-432.12890625,0.0
1734421040.9841743,-51.26953125,-35.15625,434.5703125,166.015625,0.0
1734421040.98808,359.86328125,-34.66796875,989.2578125,488.76953125,0.0
1734421040.9919858,294.921875,-31.25,58.59375,95.703125,0.0
1734421040.9958916,-270.5078125,-33.69140625,-1000.0,-467.28515625,0.0
1734421040.9997973,-395.5078125,-40.0390625,-849.12109375,-489.2578125,0.0
1734421041.0037034,-87.40234375,-31.73828125,306.640625,72.75390625,0.0
1734421041.0076091,331.54296875,-26.85546875,984.375,491.69921875,0.0
1734421041.011515,324.70703125,-40.52734375,112.3046875,171.875,0.0
1734421041.0154207,-232.91015625,-51.7578125,-1000.0,-416.015625,0.0
1734421041.0193264,-435.05859375,-41.015625,-928.7109375,-525.87890625,0.0
1734421041.0232322,-170.41015625,-30.76171875,181.15234375,-5.859375,0.0
1734421041.027138,267.578125,-34.66796875,-986.328125,467.7734375,0.0
1734421041.0310495,385.7421875,-43.45703125,206.0546875,235.3515625,0.0
1734421041.0349553,-138.671875,-50.78125,-932.12890625,-360.83984375,0.0
1734421041.038861,-436.03515625,-59.08203125,-1000.0,-566.89453125,0.0
1734421041.0427668,-195.80078125,-55.17578125,-38.0859375,-79.58984375,0.0
1734421041.0466726,218.75,-36.62109375,963.8671875,459.9609375,0.0
1734421041.0505784,400.390625,-33.203125,280.2734375,312.98828125,0.0
1734421041.0544841,-60.05859375,-34.1796875,-800.78125,-282.71484375,0.0
1734421041.05839,-412.109375,-31.73828125,-1000.0,-585.44921875,0.0
1734421041.0622957,-221.19140625,-34.66796875,-265.625,-155.76171875,0.0
1734421041.0662014,153.80859375,-25.390625,914.0625,425.29296875,0.0
1734421041.0701075,405.76171875,-18.5546875,578.61328125,358.3984375,0.0
1734421041.0740132,7.32421875,-27.34375,-483.88671875,-208.49609375,0.0
1734421041.077924,-405.76171875,-30.2734375,-1000.0,-576.171875,0.0
1734421041.08183,-233.88671875,-25.390625,-266.11328125,-236.328125,0.0
1734421041.0857358,138.18359375,-22.94921875,888.18359375,378.90625,0.0
1734421041.0896416,439.94140625,-24.90234375,663.0859375,437.98828125,0.0
1734421041.0935473,120.60546875,-32.2265625,-308.59375,-139.16015625,0.0
1734421041.097453,-372.0703125,-41.9921875,-1000.0,-597.65625,0.0
1734421041.101359,-284.66796875,-41.015625,-445.80078125,-318.359375,0.0
1734421041.1052647,79.58984375,-40.52734375,725.5859375,303.22265625,0.0
1734421041.1091704,442.3828125,-39.55078125,835.44921875,463.8671875,0.0
1734421041.1130762,184.5703125,-44.43359375,-137.6953125,-44.921875,0.0
1734421041.116982,-353.515625,-52.24609375,-1000.0,-553.7109375,0.0
1734421041.1208878,-319.82421875,-41.015625,-596.19140625,-374.0234375,0.0
1734421041.1247985,16.11328125,-36.62109375,618.65234375,249.0234375,0.0
1734421041.1287043,419.921875,-36.1328125,940.91796875,489.74609375,0.0
1734421041.13261,276.85546875,-39.55078125,-69.82421875,49.31640625,0.0
1734421041.1365159,-294.43359375,-45.8984375,-1000.0,-489.74609375,0.0
1734421041.1404219,-372.55859375,-34.1796875,-720.21484375,-439.94140625,0.0
1734421041.1443276,-53.22265625,-23.92578125,461.9140625,156.25,0.0
1734421041.1482334,356.4453125,-25.390625,972.16796875,489.2578125,0.0
1734421041.1521392,250.9765625,-31.73828125,-70.3125,68.359375,0.0
1734421041.156045,-306.640625,-35.64453125,-1000.0,-540.0390625,0.0
1734421041.1599507,-404.78515625,-30.2734375,-791.9921875,-550.78125,0.0
1734421041.1638565,-115.234375,-23.4375,359.86328125,42.96875,0.0
1734421041.1677623,286.62109375,-22.4609375,-996.58203125,457.03125,0.0
1734421041.1716728,289.0625,-21.97265625,132.8125,129.39453125,0.0
1734421041.1755786,-252.9296875,-29.78515625,-1000.0,-460.9375,0.0
1734421041.1794844,-440.91796875,-38.57421875,-935.546875,-560.546875,0.0
1734421041.1833901,-144.53125,-37.59765625,160.15625,-6.8359375,0.0
1734421041.187296,288.0859375,-35.64453125,-983.3984375,492.1875,0.0
1734421041.1912017,377.44140625,-39.55078125,160.64453125,221.19140625,0.0
1734421041.1951075,-154.78515625,-46.875,-993.65234375,-379.39453125,0.0
1734421041.1990135,-427.734375,-44.43359375,-1000.0,-572.75390625,0.0
1734421041.2029192,-170.41015625,-27.83203125,-12.6953125,-93.75,0.0
1734421041.206825,237.3046875,-23.4375,976.07421875,449.21875,0.0
1734421041.2107308,408.69140625,-31.73828125,347.65625,288.0859375,0.0
1734421041.2146366,-53.7109375,-33.203125,-749.51171875,-296.38671875,0.0
1734421041.2185466,-418.9453125,-33.69140625,-1000.0,-569.3359375,0.0
1734421041.2224524,-226.07421875,-31.73828125,-176.26953125,-147.4609375,0.0
1734421041.2263582,183.59375,-27.83203125,913.0859375,440.4296875,0.0
1734421041.230264,419.921875,-30.76171875,548.33984375,385.25390625,0.0
1734421041.2341697,-1.46484375,-36.62109375,-492.1875,-205.078125,0.0
1734421041.2380755,-405.76171875,-41.015625,-1000.0,-571.2890625,0.0
1734421041.2419813,-260.7421875,-38.0859375,-391.6015625,-203.125,0.0
1734421041.245887,118.1640625,-22.4609375,802.734375,395.99609375,0.0
1734421041.2497928,439.94140625,-18.06640625,759.27734375,431.640625,0.0
1734421041.2536986,88.8671875,-34.66796875,-248.53515625,-114.74609375,0.0
1734421041.2576044,-392.578125,-40.52734375,-1000.0,-550.78125,0.0
1734421041.2615104,-283.69140625,-27.83203125,-427.734375,-272.4609375,0.0
1734421041.26542,86.42578125,-18.5546875,785.15625,340.33203125,0.0
1734421041.2693257,432.12890625,-27.34375,793.9453125,473.6328125,0.0
1734421041.2732315,152.34375,-40.52734375,-211.42578125,-53.7109375,0.0
1734421041.2771373,-376.46484375,-37.59765625,-1000.0,-546.875,0.0
1734421041.281043,-333.49609375,-36.1328125,-586.42578125,-350.5859375,0.0
1734421041.2849488,14.6484375,-29.78515625,595.21484375,267.578125,0.0
1734421041.2888546,408.69140625,-21.484375,939.94140625,489.74609375,0.0
1734421041.2927606,230.95703125,-33.69140625,-46.38671875,15.13671875,0.0
1734421041.2966664,-315.91796875,-41.015625,-1000.0,-511.23046875,0.0
1734421041.3005722,-347.16796875,-36.1328125,-734.375,-411.62109375,0.0
1734421041.304478,-35.15625,-30.2734375,494.140625,195.3125,0.0
1734421041.3083837,362.3046875,-26.85546875,993.1640625,506.34765625,0.0
1734421041.3122957,0.0,-33.203125,28.80859375,96.19140625,0.0
1734421041.3162014,0.0,-35.64453125,-1000.0,-467.7734375,0.0
1734421041.3201072,0.0,-32.71484375,-800.78125,-471.6796875,0.0
1734421041.324013,0.0,-37.109375,393.06640625,105.46875,0.0
1734421041.327919,0.0,-36.1328125,-993.1640625,511.23046875,0.0
1734421041.3318248,0.0,-40.52734375,54.6875,180.6640625,0.0
1734421041.3357306,0.0,-51.7578125,-1000.0,-402.83203125,0.0
1734421041.3396363,0.0,-49.8046875,-901.85546875,-510.7421875,0.0
1734421041.343542,0.0,-44.43359375,197.265625,26.85546875,0.0
1734421041.3474479,0.0,-43.45703125,-999.51171875,510.25390625,0.0
1734421041.3513536,0.0,-39.0625,184.5703125,240.234375,0.0
1734421041.3552594,0.0,-45.8984375,-959.9609375,-371.58203125,0.0
1734421041.3591712,-441.40625,-52.734375,-1000.0,-549.8046875,0.0
1734421041.363077,-190.4296875,-48.828125,-36.62109375,-53.22265625,0.0
1734421041.3669827,199.70703125,-44.921875,987.3046875,477.5390625,0.0
1734421041.3708885,365.234375,-47.8515625,352.05078125,328.61328125,0.0
1734421041.3747942,-88.8671875,-56.15234375,-756.8359375,-263.671875,0.0
1734421041.3787,-418.45703125,-54.6875,-1000.0,-543.45703125,0.0
1734421041.3826058,-222.65625,-41.015625,-206.54296875,-112.79296875,0.0
1734421041.3865116,157.71484375,-37.109375,985.3515625,450.68359375,0.0
1734421041.3904173,391.6015625,-47.36328125,343.75,384.27734375,0.0
1734421041.3943233,-33.69140625,-45.41015625,-799.31640625,-189.453125,0.0
1734421041.3982291,-429.19921875,-38.0859375,-1000.0,-544.921875,0.0
1734421041.402135,-261.23046875,-40.52734375,-244.140625,-200.1953125,0.0
1734421041.4060462,110.83984375,-34.1796875,862.3046875,400.87890625,0.0
1734421041.409952,419.43359375,-34.66796875,737.3046875,441.40625,0.0
1734421041.413858,58.59375,-40.52734375,-257.32421875,-121.58203125,0.0
1734421041.4177637,-398.4375,-41.015625,-1000.0,-534.66796875,0.0
1734421041.4216695,-298.828125,-44.43359375,-327.1484375,-255.859375,0.0
1734421041.4255753,33.69140625,-37.109375,780.76171875,332.03125,0.0
1734421041.429481,399.4140625,-25.390625,817.3828125,471.6796875,0.0
1734421041.4333868,131.8359375,-35.64453125,-170.41015625,-32.2265625,0.0
1734421041.4372926,-391.11328125,-41.9921875,-1000.0,-513.671875,0.0
1734421041.4411983,-337.40234375,-34.66796875,-539.0625,-321.2890625,0.0
1734421041.4451041,14.6484375,-29.296875,673.33984375,268.06640625,0.0
1734421041.44901,387.6953125,-30.76171875,888.18359375,479.98046875,0.0
1734421041.452921,193.84765625,-45.8984375,-108.3984375,13.671875,0.0
1734421041.4568267,-365.234375,-51.7578125,-1000.0,-515.625,0.0
1734421041.4607327,-402.34375,-38.57421875,-670.41015625,-399.90234375,0.0
1734421041.4646385,-68.359375,-25.87890625,505.859375,189.94140625,0.0
1734421041.4685442,343.26171875,-26.3671875,972.16796875,499.51171875,0.0
1734421041.47245,236.81640625,-35.15625,-6.8359375,104.00390625,0.0
1734421041.4763558,-325.1953125,-39.0625,-1000.0,-458.49609375,0.0
1734421041.4802616,-443.359375,-44.43359375,-883.30078125,-442.3828125,0.0
1734421041.4841673,-139.6484375,-38.57421875,241.2109375,132.32421875,0.0
1734421041.488073,310.05859375,-21.484375,-974.12109375,495.60546875,0.0
1734421041.491979,317.87109375,-28.80859375,140.13671875,160.64453125,0.0
1734421041.4958847,-226.07421875,-39.55078125,-1000.0,-401.85546875,0.0
1734421041.4997954,-412.109375,-38.0859375,-882.8125,-505.859375,0.0
1734421041.5037012,-144.53125,-23.4375,280.2734375,27.83203125,0.0
1734421041.507607,281.73828125,-17.578125,-990.234375,512.20703125,0.0
1734421041.511513,364.2578125,-28.3203125,156.25,270.01953125,0.0
1734421041.5154188,-156.25,-33.203125,-960.44921875,-315.4296875,0.0
1734421041.5193245,-415.0390625,-28.80859375,-1000.0,-503.41796875,0.0
1734421041.5232303,-177.734375,-22.94921875,-29.78515625,-12.6953125,0.0
1734421041.527136,229.98046875,-20.99609375,920.8984375,497.0703125,0.0
1734421041.5310419,393.5546875,-25.390625,314.453125,326.171875,0.0
1734421041.5349476,-76.66015625,-35.15625,-760.7421875,-259.765625,0.0
1734421041.5388534,-397.94921875,-39.0625,-1000.0,-527.34375,0.0
1734421041.5427592,-184.5703125,-33.203125,-197.265625,-84.47265625,0.0
1734421041.5466697,203.61328125,-28.80859375,929.19921875,466.796875,0.0
1734421041.5505755,427.24609375,-31.25,536.62109375,394.53125,0.0
1734421041.5544813,11.71875,-42.48046875,-524.90234375,-179.19921875,0.0
1734421041.558387,-378.90625,-47.36328125,-1000.0,-530.76171875,0.0
1734421041.5622928,-216.30859375,-40.52734375,-255.37109375,-177.24609375,0.0
1734421041.5661986,143.06640625,-35.64453125,923.33984375,400.390625,0.0
1734421041.5701044,435.05859375,-41.015625,493.65234375,421.38671875,0.0
1734421041.5740101,55.6640625,-48.828125,-581.54296875,-123.53515625,0.0
1734421041.5779161,-425.78125,-48.33984375,-1000.0,-534.1796875,0.0
1734421041.581822,-292.96875,-45.8984375,-325.1953125,-251.953125,0.0
1734421041.5857277,52.734375,-39.55078125,814.453125,342.7734375,0.0
1734421041.5896335,404.78515625,-36.62109375,834.47265625,449.70703125,0.0
1734421041.5935435,132.8125,-42.48046875,-153.80859375,-67.87109375,0.0
1734421041.5974493,-411.1328125,-50.29296875,-1000.0,-529.296875,0.0
1734421041.601355,-345.703125,-48.33984375,-576.171875,-322.265625,0.0
1734421041.6052608,18.5546875,-35.15625,643.5546875,278.3203125,0.0
1734421041.6091666,374.51171875,-33.203125,941.89453125,494.140625,0.0
1734421041.6130724,164.0625,-46.38671875,-102.5390625,32.71484375,0.0
1734421041.6169782,-381.34765625,-53.22265625,-1000.0,-482.91015625,0.0
1734421041.620884,-386.23046875,-45.41015625,-625.0,-375.0,0.0
1734421041.62479,-35.64453125,-33.203125,577.1484375,207.03125,0.0
1734421041.6286957,360.3515625,-39.0625,973.14453125,510.25390625,0.0
1734421041.6326015,250.0,-46.38671875,13.671875,104.4921875,0.0
1734421041.6365073,-288.0859375,-49.8046875,-1000.0,-458.49609375,0.0
1734421041.640417,-399.90234375,-48.828125,-768.5546875,-442.87109375,0.0
1734421041.6443229,-109.375,-38.0859375,407.71484375,133.7890625,0.0
1734421041.6482286,313.4765625,-35.15625,999.51171875,520.5078125,0.0
1734421041.6521344,287.59765625,-37.109375,130.859375,159.1796875,0.0
1734421041.6560402,-250.0,-42.96875,-1000.0,-416.015625,0.0
1734421041.659946,-424.8046875,-52.24609375,-952.1484375,-465.8203125,0.0
1734421041.6638517,-136.71875,-42.48046875,121.58203125,72.265625,0.0
1734421041.6677575,301.7578125,-26.85546875,-980.95703125,513.18359375,0.0
1734421041.6716633,350.09765625,-33.69140625,185.05859375,234.375,0.0
1734421041.675569,-195.3125,-53.22265625,-999.0234375,-344.23828125,0.0
1734421041.6794748,-446.77734375,-52.24609375,-976.07421875,-517.08984375,0.0
1734421041.6833806,-174.31640625,-33.203125,72.265625,-29.78515625,0.0
1734421041.6872928,263.18359375,-35.15625,985.3515625,490.234375,0.0
1734421041.6911986,402.34375,-42.48046875,300.29296875,310.05859375,0.0
1734421041.6951044,-118.1640625,-40.52734375,-799.8046875,-276.3671875,0.0
1734421041.6990101,-463.37890625,-36.62109375,-1000.0,-538.57421875,0.0
1734421041.702916,-248.53515625,-33.203125,-115.234375,-114.2578125,0.0
1734421041.7068217,145.5078125,-30.76171875,899.90234375,440.91796875,0.0
1734421041.7107275,376.953125,-29.296875,474.609375,351.5625,0.0
1734421041.7146332,-53.7109375,-36.62109375,-535.15625,-240.234375,0.0
1734421041.718539,-470.21484375,-47.36328125,-1000.0,-576.171875,0.0
1734421041.7224448,-285.64453125,-46.38671875,-293.9453125,-195.3125,0.0
1734421041.7263508,119.140625,-31.73828125,907.71484375,387.6953125,0.0
1734421041.7302566,410.64453125,-23.4375,646.484375,396.484375,0.0
1734421041.734168,36.1328125,-31.25,-369.62890625,-147.4609375,0.0
1734421041.7380738,-429.19921875,-40.0390625,-1000.0,-552.734375,0.0
1734421041.7419796,-308.10546875,-34.66796875,-288.0859375,-264.6484375,0.0
1734421041.7458854,59.5703125,-33.203125,858.3984375,341.30859375,0.0
1734421041.7497911,402.83203125,-38.0859375,739.74609375,446.77734375,0.0
1734421041.753697,120.60546875,-45.41015625,-237.3046875,-74.70703125,0.0
1734421041.7576027,-405.2734375,-43.9453125,-1000.0,-529.78515625,0.0
1734421041.7615085,-351.07421875,-32.2265625,-456.54296875,-321.77734375,0.0
1734421041.7654145,7.32421875,-26.85546875,700.1953125,286.1328125,0.0
1734421041.7693202,376.46484375,-29.78515625,902.34375,496.09375,0.0
1734421041.773226,162.109375,-31.25,-73.2421875,3.41796875,0.0
1734421041.7771318,-382.8125,-30.76171875,-1000.0,-518.5546875,0.0
1734421041.7810433,-383.30078125,-32.2265625,-648.92578125,-381.34765625,0.0
1734421041.784949,-43.45703125,-19.53125,577.1484375,218.75,0.0
1734421041.7888548,364.74609375,-15.625,993.65234375,497.0703125,0.0
1734421041.7927606,245.1171875,-26.3671875,11.23046875,68.359375,0.0
1734421041.7966664,-327.63671875,-32.2265625,-1000.0,-479.98046875,0.0
1734421041.8005722,-406.73828125,-29.78515625,-781.25,-439.94140625,0.0
1734421041.804478,-85.9375,-19.04296875,437.01171875,139.6484375,0.0
1734421041.8083837,325.68359375,-18.5546875,-996.09375,513.671875,0.0
1734421041.8122895,286.1328125,-28.3203125,-7.8125,163.57421875,0.0
1734421041.8161952,-282.71484375,-28.80859375,-1000.0,-427.24609375,0.0
1734421041.8201013,-443.359375,-32.2265625,-848.14453125,-501.46484375,0.0
1734421041.824007,-147.4609375,-33.203125,276.3671875,52.24609375,0.0
1734421041.827918,282.2265625,-26.3671875,-971.6796875,496.58203125,0.0
1734421041.8318238,328.61328125,-27.83203125,193.84765625,209.47265625,0.0
1734421041.8357296,-217.28515625,-39.0625,-984.375,-389.6484375,0.0
1734421041.8396354,-465.33203125,-47.8515625,-965.33203125,-536.1328125,0.0
1734421041.8435411,-184.5703125,-37.59765625,99.609375,-12.20703125,0.0
1734421041.847447,239.74609375,-30.2734375,-995.1171875,496.09375,0.0
1734421041.8513527,360.83984375,-33.203125,236.81640625,282.71484375,0.0
1734421041.8552585,-120.1171875,-40.52734375,-902.34375,-312.98828125,0.0
1734421041.8591642,-442.3828125,-41.9921875,-1000.0,-545.8984375,0.0
1734421041.86307,-244.140625,-27.34375,-49.8046875,-101.5625,0.0
1734421041.866976,166.9921875,-25.390625,957.03125,447.265625,0.0
1734421041.8708818,371.09375,-31.73828125,465.33203125,343.26171875,0.0
1734421041.8747923,-71.77734375,-32.2265625,-584.9609375,-229.00390625,0.0
1734421041.878698,-450.68359375,-32.71484375,-1000.0,-561.5234375,0.0
1734421041.882604,-273.4375,-33.69140625,-206.54296875,-174.31640625,0.0
1734421041.8865097,122.55859375,-26.3671875,901.3671875,421.38671875,0.0
1734421041.8904157,405.2734375,-27.83203125,621.58203125,395.99609375,0.0
1734421041.8943214,15.625,-37.109375,-406.25,-170.41015625,0.0
1734421041.8982272,-434.08203125,-31.25,-1000.0,-557.12890625,0.0
1734421041.902133,-301.7578125,-34.66796875,-455.078125,-229.00390625,0.0
1734421041.9060388,70.3125,-35.64453125,767.08984375,373.53515625,0.0
1734421041.9099445,409.1796875,-30.2734375,841.796875,458.984375,0.0
1734421041.9138503,90.8203125,-41.9921875,-184.08203125,-80.56640625,0.0
1734421041.917756,-427.734375,-49.31640625,-1000.0,-555.6640625,0.0
1734421041.9216669,0.0,-39.55078125,-459.47265625,-324.21875,0.0
1734421041.9255726,0.0,-26.85546875,742.1875,294.43359375,0.0
1734421041.9294784,0.0,-31.73828125,849.12109375,488.28125,0.0
1734421041.9333842,0.0,-47.36328125,-145.01953125,-14.6484375,0.0
1734421041.93729,0.0,-47.36328125,-1000.0,-532.2265625,0.0
1734421041.9411957,0.0,-42.96875,-642.578125,-386.23046875,0.0
1734421041.9451015,0.0,-43.9453125,548.33984375,227.5390625,0.0
1734421041.9490073,0.0,-41.9921875,943.84765625,500.48828125,0.0
1734421041.952913,0.0,-41.50390625,-0.9765625,50.78125,0.0
1734421041.9568188,0.0,-47.8515625,-1000.0,-492.1875,0.0
1734421041.9607246,0.0,-42.96875,-756.8359375,-447.265625,0.0
1734421041.9646304,0.0,-31.25,458.49609375,128.41796875,0.0
1734421041.9685404,335.44921875,-33.69140625,-990.72265625,484.86328125,0.0
1734421041.9724462,292.96875,-37.59765625,86.42578125,128.41796875,0.0
1734421041.976352,-278.3203125,-41.015625,-1000.0,-447.265625,0.0
1734421041.9802577,-457.03125,-46.875,-846.19140625,-495.1171875,0.0
1734421041.9841635,-153.80859375,-32.71484375,338.8671875,61.5234375,0.0
1734421041.9880695,290.52734375,-24.4140625,-995.60546875,497.55859375,0.0
1734421041.9919753,326.66015625,-41.9921875,64.94140625,218.26171875,0.0
1734421041.995881,-224.609375,-45.41015625,-1000.0,-377.44140625,0.0
1734421041.9997869,-444.3359375,-37.59765625,-959.47265625,-523.92578125,0.0
1734421042.0036926,-166.9921875,-40.0390625,54.6875,-5.859375,0.0
1734421042.0075984,249.0234375,-37.59765625,-991.2109375,484.86328125,0.0
1734421042.0115042,356.4453125,-38.0859375,221.19140625,267.578125,0.0
1734421042.0154164,-155.2734375,-41.9921875,-922.36328125,-326.171875,0.0
1734421042.0193222,-455.078125,-42.96875,-1000.0,-550.29296875,0.0
1734421042.023228,-198.2421875,-37.59765625,-63.4765625,-94.7265625,0.0
1734421042.0271337,215.8203125,-30.76171875,978.02734375,444.3359375,0.0
1734421042.0310395,374.0234375,-39.55078125,419.43359375,338.37890625,0.0
1734421042.0349452,-99.609375,-62.01171875,-683.59375,-237.79296875,0.0
1734421042.038851,-468.26171875,-62.5,-1000.0,-566.89453125,0.0
1734421042.0427568,-246.09375,-41.9921875,-209.47265625,-183.10546875,0.0
1734421042.0466626,166.015625,-36.1328125,931.15234375,402.34375,0.0
1734421042.0505686,407.71484375,-46.875,519.04296875,384.765625,0.0
1734421042.0544744,-2.44140625,-48.828125,-515.625,-179.19921875,0.0
1734421042.0583801,-447.75390625,-44.921875,-1000.0,-578.61328125,0.0
1734421042.0622919,-291.9921875,-46.38671875,-303.7109375,-260.25390625,0.0
1734421042.0661976,89.84375,-46.38671875,829.1015625,359.375,0.0
1734421042.0701034,424.8046875,-40.52734375,787.109375,442.87109375,0.0
1734421042.0740092,120.1171875,-43.45703125,-190.91796875,-112.79296875,0.0
1734421042.0779152,-397.4609375,-57.6171875,-1000.0,-565.91796875,0.0
1734421042.081821,-337.40234375,-56.15234375,-518.5546875,-309.5703125,0.0
1734421042.0857267,11.71875,-43.9453125,687.98828125,297.36328125,0.0
1734421042.0896325,391.6015625,-41.015625,901.3671875,468.75,0.0
1734421042.0935383,164.0625,-50.29296875,-136.71875,-35.15625,0.0
1734421042.097444,-387.6953125,-58.59375,-1000.0,-539.0625,0.0
1734421042.1013498,-374.0234375,-56.640625,-614.2578125,-383.30078125,0.0
1734421042.1052556,-23.4375,-48.33984375,569.3359375,211.9140625,0.0
1734421042.109167,375.0,-46.875,903.3203125,490.234375,0.0
1734421042.1130729,218.75,-54.19921875,-71.77734375,50.29296875,0.0
1734421042.1169786,-355.95703125,-60.05859375,-1000.0,-502.9296875,0.0
1734421042.1208847,-418.9453125,-57.6171875,-725.5859375,-438.4765625,0.0
1734421042.1247904,-82.51953125,-49.8046875,442.87109375,144.53125,0.0
1734421042.1286962,354.4921875,-35.15625,974.12109375,501.46484375,0.0
1734421042.132602,297.8515625,-34.66796875,30.2734375,142.08984375,0.0
1734421042.1365077,-266.11328125,-44.43359375,-1000.0,-448.2421875,0.0
1734421042.1404135,-413.57421875,-41.50390625,-931.640625,-498.046875,0.0
1734421042.1443193,-123.046875,-32.2265625,133.30078125,66.89453125,0.0
1734421042.148225,310.546875,-24.90234375,-977.5390625,493.1640625,0.0
1734421042.1521308,343.26171875,-34.1796875,157.71484375,186.5234375,0.0
1734421042.156042,-212.40234375,-44.921875,-1000.0,-399.90234375,0.0
1734421042.159948,-413.57421875,-38.57421875,-940.4296875,-515.625,0.0
1734421042.163854,-131.34765625,-33.203125,143.5546875,-8.30078125,0.0
1734421042.1677597,269.53125,-33.69140625,-990.234375,475.5859375,0.0
1734421042.1716654,354.00390625,-38.0859375,171.875,232.91015625,0.0
1734421042.1755712,-166.50390625,-44.43359375,-967.28515625,-369.140625,0.0
1734421042.179477,-447.265625,-42.96875,-1000.0,-566.89453125,0.0
1734421042.1833827,-218.75,-41.9921875,-46.38671875,-106.4453125,0.0
1734421042.1872885,208.0078125,-38.57421875,932.12890625,443.84765625,0.0
1734421042.1911943,373.53515625,-36.1328125,392.08984375,293.9453125,0.0
1734421042.1951,-98.14453125,-41.50390625,-677.24609375,-302.734375,0.0
1734421042.1990058,-446.77734375,-46.38671875,-1000.0,-575.68359375,0.0
1734421042.2029169,-251.46484375,-45.41015625,-255.859375,-168.9453125,0.0
1734421042.2068226,166.9921875,-36.62109375,913.0859375,407.2265625,0.0
1734421042.2107286,428.22265625,-31.25,621.58203125,369.62890625,0.0
1734421042.2146344,17.08984375,-36.1328125,-415.52734375,-193.359375,0.0
1734421042.2185402,-436.5234375,-43.45703125,-1000.0,-578.61328125,0.0
1734421042.222446,-298.33984375,-40.0390625,-330.078125,-242.67578125,0.0
1734421042.2263517,94.23828125,-28.80859375,889.6484375,358.88671875,0.0
1734421042.2302575,422.8515625,-37.109375,583.49609375,424.8046875,0.0
1734421042.2341633,90.33203125,-50.29296875,-473.6328125,-115.234375,0.0
1734421042.238069,-400.87890625,-41.9921875,-1000.0,-581.54296875,0.0
1734421042.2419748,-308.59375,-36.1328125,-408.69140625,-316.89453125,0.0
1734421042.2458806,47.36328125,-35.64453125,758.7890625,320.3125,0.0
1734421042.2497914,407.71484375,-30.76171875,876.953125,472.65625,0.0
1734421042.2536972,155.2734375,-32.71484375,-124.0234375,-39.0625,0.0
1734421042.257603,-405.76171875,-45.41015625,-1000.0,-544.921875,0.0
1734421042.2615087,-383.7890625,-41.9921875,-584.47265625,-388.671875,0.0
1734421042.2654145,-16.11328125,-35.15625,633.7890625,227.5390625,0.0
1734421042.2693202,393.5546875,-41.015625,937.98828125,492.67578125,0.0
1734421042.273226,208.0078125,-54.6875,-84.9609375,31.25,0.0
1734421042.277132,-363.76953125,-66.40625,-1000.0,-513.18359375,0.0
1734421042.2810378,-395.01953125,-53.22265625,-692.3828125,-439.453125,0.0
1734421042.2849436,-58.59375,-43.9453125,518.5546875,149.90234375,0.0
1734421042.2888494,365.234375,-50.78125,997.0703125,517.08984375,0.0
1734421042.2927551,279.78515625,-56.15234375,22.94921875,123.53515625,0.0
1734421042.296668,-293.9453125,-60.546875,-1000.0,-478.515625,0.0
1734421042.3005738,-421.875,-58.59375,-813.96484375,-510.7421875,0.0
1734421042.3044796,-129.39453125,-54.6875,329.58984375,56.640625,0.0
1734421042.3083854,310.546875,-47.36328125,-982.421875,497.0703125,0.0
1734421042.3122911,342.7734375,-48.828125,137.20703125,201.66015625,0.0
1734421042.316197,-233.3984375,-59.5703125,-1000.0,-394.04296875,0.0
1734421042.3201027,-459.47265625,-61.03515625,-1000.0,-525.87890625,0.0
1734421042.3240085,-165.52734375,-50.78125,-37.109375,-0.9765625,0.0
1734421042.3279142,272.94921875,-43.9453125,-980.46875,484.375,0.0
1734421042.33182,377.44140625,-52.734375,215.8203125,252.9296875,0.0
1734421042.3357258,-148.92578125,-51.7578125,-971.19140625,-353.515625,0.0
1734421042.3396318,-448.73046875,-43.9453125,-1000.0,-573.2421875,0.0
1734421042.3435419,-193.84765625,-42.48046875,-23.92578125,-87.40234375,0.0
1734421042.3474476,234.86328125,-42.96875,971.6796875,459.9609375,0.0
1734421042.3513534,394.53125,-42.96875,358.3984375,319.3359375,0.0
1734421042.3552592,-96.6796875,-45.41015625,-718.26171875,-271.484375,0.0
1734421042.359165,-458.984375,-48.33984375,-1000.0,-559.5703125,0.0
1734421042.3630707,-254.39453125,-46.38671875,-217.28515625,-145.5078125,0.0
1734421042.3669765,153.80859375,-35.15625,910.15625,425.78125,0.0
1734421042.3708823,413.0859375,-28.3203125,586.42578125,384.27734375,0.0
1734421042.374788,0.9765625,-37.109375,-443.359375,-176.26953125,0.0
1734421042.3786938,-440.4296875,-46.38671875,-1000.0,-551.7578125,0.0
1734421042.3825996,-275.87890625,-45.41015625,-376.953125,-209.47265625,0.0
1734421042.3865056,130.859375,-32.71484375,827.63671875,395.99609375,0.0
1734421042.3904152,437.98828125,-30.76171875,765.625,440.4296875,0.0
1734421042.394321,81.0546875,-39.55078125,-227.05078125,-111.328125,0.0
1734421042.398227,-419.921875,-41.015625,-1000.0,-550.78125,0.0
1734421042.4021327,-292.48046875,-34.1796875,-341.796875,-294.43359375,0.0
1734421042.4060385,86.9140625,-29.296875,816.89453125,315.4296875,0.0
1734421042.4099443,421.875,-40.52734375,694.3359375,487.3046875,0.0
1734421042.41385,159.1796875,-50.29296875,-258.7890625,-22.94921875,0.0
1734421042.4177558,-393.5546875,-41.50390625,-1000.0,-536.1328125,0.0
1734421042.4216616,-357.91015625,-32.2265625,-572.75390625,-350.09765625,0.0
1734421042.4255674,0.0,-31.73828125,608.3984375,256.8359375,0.0
1734421042.4294732,378.41796875,-30.76171875,956.0546875,478.02734375,0.0
1734421042.433379,202.1484375,-39.0625,-48.33984375,12.6953125,0.0
1734421042.437291,-373.53515625,-47.36328125,-1000.0,-520.5078125,0.0
1734421042.4411967,-411.62109375,-41.50390625,-690.91796875,-431.640625,0.0
1734421042.4451025,-65.4296875,-39.55078125,514.6484375,167.96875,0.0
1734421042.4490082,365.234375,-38.57421875,-998.046875,497.55859375,0.0
1734421042.452914,285.64453125,-42.48046875,47.36328125,105.95703125,0.0
1734421042.45682,-303.7109375,-48.33984375,-1000.0,-470.703125,0.0
1734421042.4607258,-428.7109375,-46.38671875,-809.08203125,-485.3515625,0.0
1734421042.4646316,-105.46875,-37.59765625,386.71875,87.40234375,0.0
1734421042.4685373,328.125,-36.1328125,-990.72265625,516.11328125,0.0
1734421042.472443,334.9609375,-44.43359375,73.73046875,195.3125,0.0
1734421042.4763489,-242.1875,-45.41015625,-1000.0,-411.62109375,0.0
1734421042.4802547,-444.82421875,-47.8515625,-921.38671875,-529.78515625,0.0
1734421042.4841664,-143.06640625,-38.0859375,141.6015625,16.6015625,0.0
1734421042.4880722,282.2265625,-26.85546875,-982.421875,493.1640625,0.0
1734421042.491978,374.0234375,-31.25,212.890625,252.44140625,0.0
1734421042.4958837,-155.2734375,-41.50390625,-947.265625,-338.8671875,0.0
1734421042.4997895,-445.80078125,-50.29296875,-1000.0,-555.17578125,0.0
1734421042.5036952,-181.15234375,-37.59765625,-53.7109375,-64.453125,0.0
1734421042.507601,236.328125,-26.85546875,976.5625,478.02734375,0.0
1734421042.5115068,395.5078125,-41.015625,391.6015625,321.2890625,0.0
1734421042.5154126,-80.078125,-54.6875,-737.3046875,-272.94921875,0.0
1734421042.5193183,-446.2890625,-49.8046875,-1000.0,-572.265625,0.0
1734421042.523224,-229.98046875,-37.59765625,-140.13671875,-153.80859375,0.0
1734421042.52713,189.453125,-35.64453125,931.15234375,442.3828125,0.0
1734421042.5310414,430.17578125,-40.0390625,563.96484375,387.6953125,0.0
1734421042.5349472,-4.8828125,-47.8515625,-470.703125,-191.40625,0.0
1734421042.538853,-432.6171875,-43.9453125,-1000.0,-559.5703125,0.0
1734421042.5427587,-252.9296875,-27.34375,-280.2734375,-228.515625,0.0
1734421042.5466645,143.5546875,-25.87890625,847.16796875,377.44140625,0.0
1734421042.5505702,440.4296875,-35.15625,683.10546875,420.8984375,0.0
1734421042.554476,75.68359375,-45.41015625,-283.203125,-143.5546875,0.0
1734421042.5583818,-423.33984375,-42.96875,-1000.0,-570.3125,0.0
1734421042.5622876,-319.82421875,-37.109375,-536.62109375,-282.71484375,0.0
1734421042.5661933,63.96484375,-27.34375,708.984375,328.61328125,0.0
1734421042.5700994,429.19921875,-21.97265625,894.53125,465.8203125,0.0
1734421042.5740051,142.578125,-40.0390625,-148.92578125,-53.22265625,0.0
1734421042.5779161,-391.6015625,-46.38671875,-1000.0,-542.48046875,0.0
1734421042.581822,-346.6796875,-35.64453125,-533.69140625,-356.4453125,0.0
1734421042.5857277,16.6015625,-29.78515625,670.41015625,264.16015625,0.0
1734421042.5896335,431.640625,-32.71484375,882.8125,493.65234375,0.0
1734421042.5935392,232.91015625,-38.0859375,-101.5625,17.08984375,0.0
1734421042.597445,-361.81640625,-44.43359375,-1000.0,-519.04296875,0.0
1734421042.6013508,-405.76171875,-45.41015625,-711.42578125,-425.78125,0.0
1734421042.6052566,-66.40625,-41.50390625,462.40234375,175.29296875,0.0
1734421042.6091623,359.86328125,-41.015625,961.9140625,497.0703125,0.0
1734421042.613068,269.53125,-44.43359375,36.1328125,92.28515625,0.0
1734421042.6169739,-315.91796875,-50.29296875,-1000.0,-478.515625,0.0
1734421042.6208797,-436.03515625,-46.38671875,-796.38671875,-487.3046875,0.0
1734421042.6247904,-126.46484375,-43.9453125,395.01953125,85.9375,0.0
1734421042.6286962,306.15234375,-39.55078125,-980.46875,500.0,0.0
1734421042.632602,303.22265625,-42.96875,134.765625,175.78125,0.0
1734421042.6365077,-253.41796875,-50.29296875,-1000.0,-419.43359375,0.0
1734421042.6404135,-447.265625,-49.8046875,-931.15234375,-527.83203125,0.0
1734421042.6443195,-154.296875,-42.48046875,164.0625,20.01953125,0.0
1734421042.6482253,288.0859375,-36.1328125,992.67578125,499.51171875,0.0
1734421042.652131,367.1875,-44.43359375,156.73828125,241.69921875,0.0
1734421042.6560369,-166.015625,-49.8046875,-956.0546875,-377.44140625,0.0
1734421042.6599426,-443.359375,-45.41015625,-991.2109375,-563.96484375,0.0
1734421042.6638484,-196.2890625,-39.55078125,10.25390625,-63.96484375,0.0
1734421042.6677542,230.95703125,-36.62109375,983.88671875,466.30859375,0.0
1734421042.6716647,401.3671875,-42.48046875,316.89453125,298.33984375,0.0
1734421042.6755705,-91.30859375,-46.38671875,-798.33984375,-300.29296875,0.0
1734421042.6794763,-450.1953125,-47.36328125,-1000.0,-567.3828125,0.0
1734421042.683382,-248.53515625,-48.33984375,-115.72265625,-150.390625,0.0
1734421042.6872878,153.80859375,-41.9921875,958.49609375,420.8984375,0.0
1734421042.6911936,402.83203125,-45.8984375,471.6796875,368.1640625,0.0
1734421042.6950994,-23.4375,-58.59375,-587.40234375,-201.66015625,0.0
1734421042.6990051,-460.9375,-54.19921875,-1000.0,-563.4765625,0.0
1734421042.702911,-291.015625,-38.0859375,-226.5625,-226.07421875,0.0
1734421042.7068167,110.3515625,-33.69140625,883.7890625,376.953125,0.0
1734421042.7107224,408.69140625,-43.9453125,733.88671875,405.2734375,0.0
1734421042.7146282,62.98828125,-56.640625,-242.1875,-150.390625,0.0
1734421042.7185385,-410.64453125,-56.640625,-1000.0,-566.89453125,0.0
1734421042.7224443,-296.875,-53.7109375,-335.44921875,-292.48046875,0.0
1734421042.72635,51.26953125,-48.828125,809.08203125,315.91796875,0.0
1734421042.7302558,387.6953125,-42.48046875,828.61328125,451.66015625,0.0
1734421042.7341616,128.90625,-52.734375,-156.73828125,-58.59375,0.0
1734421042.7380674,-398.4375,-57.12890625,-1000.0,-532.2265625,0.0
1734421042.7419732,-358.88671875,-50.29296875,-625.0,-333.49609375,0.0
1734421042.745879,-3.90625,-37.109375,616.69921875,263.18359375,0.0
1734421042.7497847,407.2265625,-25.87890625,968.26171875,471.6796875,0.0
1734421042.7536905,228.02734375,-33.203125,-69.82421875,13.671875,0.0
1734421042.7575965,-361.81640625,-43.9453125,-1000.0,-520.99609375,0.0
1734421042.7615023,-403.80859375,-37.109375,-679.6875,-420.41015625,0.0
1734421042.7654119,-51.7578125,-26.85546875,512.6953125,186.03515625,0.0
1734421042.7693176,372.55859375,-27.34375,947.265625,503.90625,0.0
1734421042.7732234,280.76171875,-30.76171875,19.53125,83.0078125,0.0
1734421042.7771292,-280.76171875,-31.73828125,-1000.0,-488.28125,0.0
1734421042.781035,-390.13671875,-32.71484375,-796.38671875,-464.35546875,0.0
1734421042.7849407,-87.890625,-35.15625,353.515625,125.0,0.0
1734421042.7888465,330.56640625,-30.2734375,984.375,515.13671875,0.0
1734421042.7927523,318.359375,-29.296875,125.48828125,154.296875,0.0
1734421042.796658,-236.81640625,-42.96875,-1000.0,-417.48046875,0.0
1734421042.800564,-436.03515625,-47.36328125,-882.32421875,-498.046875,0.0
1734421042.8044698,-165.52734375,-38.57421875,272.4609375,21.97265625,0.0
1734421042.8083756,266.11328125,-34.1796875,-973.6328125,485.3515625,0.0
1734421042.8122876,339.84375,-38.0859375,187.01171875,227.5390625,0.0
1734421042.8161933,-196.2890625,-50.29296875,-984.86328125,-372.0703125,0.0
1734421042.820099,-461.42578125,-55.6640625,-986.328125,-548.828125,0.0
1734421042.824005,-199.21875,-46.38671875,53.7109375,-57.12890625,0.0
1734421042.8279107,218.75,-47.36328125,988.76953125,468.26171875,0.0
1734421042.8318164,355.46875,-57.6171875,246.09375,289.55078125,0.0
1734421042.8357222,-148.4375,-63.96484375,-843.75,-311.03515625,0.0
1734421042.839628,-489.74609375,-61.03515625,-1000.0,-595.21484375,0.0
1734421042.8435338,-271.484375,-49.8046875,-128.90625,-162.109375,0.0
1734421042.8474395,143.06640625,-41.50390625,924.31640625,423.33984375,0.0
1734421042.8513455,381.8359375,-38.57421875,487.3046875,344.7265625,0.0
1734421042.8552513,-48.828125,-44.921875,-570.80078125,-229.00390625,0.0
1734421042.8591628,-462.40234375,-46.38671875,-1000.0,-574.70703125,0.0
1734421042.8630686,-301.7578125,-43.45703125,-249.51171875,-199.70703125,0.0
1734421042.8669746,92.28515625,-40.52734375,889.16015625,396.97265625,0.0
1734421042.8708804,395.5078125,-45.41015625,740.234375,407.2265625,0.0
1734421042.8747861,30.76171875,-53.22265625,-247.0703125,-140.625,0.0
1734421042.878692,-446.2890625,-57.6171875,-1000.0,-550.29296875,0.0
1734421042.8825977,-326.171875,-54.19921875,-328.125,-258.30078125,0.0
1734421042.8865035,55.6640625,-45.41015625,868.1640625,349.12109375,0.0
1734421042.8904092,410.15625,-53.22265625,709.9609375,478.02734375,0.0
1734421042.894315,125.48828125,-56.640625,-284.66796875,-53.7109375,0.0
1734421042.8982208,-411.62109375,-52.734375,-1000.0,-546.875,0.0
1734421042.9021266,-363.28125,-52.24609375,-512.6953125,-336.9140625,0.0
1734421042.906038,4.39453125,-44.43359375,675.78125,274.4140625,0.0
1734421042.9099438,392.08984375,-40.52734375,911.62109375,507.32421875,0.0
1734421042.9138496,191.40625,-46.875,-82.03125,35.15625,0.0
1734421042.9177554,-360.83984375,-57.12890625,-1000.0,-523.4375,0.0
1734421042.9216611,-380.37109375,-56.640625,-664.55078125,-417.48046875,0.0
1734421042.925567,-34.66796875,-43.9453125,525.87890625,195.3125,0.0
1734421042.9294727,378.41796875,-40.52734375,987.3046875,503.41796875,0.0
1734421042.9333785,246.58203125,-46.38671875,28.3203125,86.9140625,0.0
1734421042.9372842,-336.42578125,-52.24609375,-1000.0,-475.5859375,0.0
1734421042.94119,-423.33984375,-47.8515625,-749.0234375,-466.796875,0.0
1734421042.9450958,-109.86328125,-42.96875,448.2421875,114.2578125,0.0
1734421042.9490018,326.171875,-41.50390625,994.140625,508.7890625,0.0
1734421042.9529128,309.08203125,-40.52734375,128.90625,161.62109375,0.0
1734421042.9568186,-268.06640625,-48.828125,-1000.0,-432.12890625,0.0
1734421042.9607244,-437.01171875,-54.6875,-862.79296875,-516.11328125,0.0
1734421042.9646301,-126.953125,-45.8984375,286.62109375,36.1328125,0.0
1734421042.968536,293.9453125,-42.48046875,-991.2109375,505.859375,0.0
1734421042.9724417,333.49609375,-51.26953125,163.57421875,224.609375,0.0
1734421042.9763474,-209.47265625,-55.6640625,-960.44921875,-386.71875,0.0
1734421042.9802532,-458.49609375,-56.15234375,-1000.0,-538.0859375,0.0
1734421042.984159,-190.91796875,-49.31640625,-75.1953125,-29.78515625,0.0
1734421042.9880648,239.2578125,-40.0390625,-1000.0,481.4453125,0.0
1734421042.9919705,384.765625,-44.43359375,348.6328125,290.52734375,0.0
1734421042.9958766,-125.9765625,-50.78125,-812.5,-315.4296875,0.0
1734421042.999787,-459.9609375,-50.78125,-1000.0,-559.5703125,0.0
1734421043.0036929,-212.40234375,-43.9453125,-52.734375,-83.984375,0.0
1734421043.0075986,219.23828125,-34.66796875,942.87109375,460.9375,0.0
1734421043.0115044,416.50390625,-34.1796875,484.86328125,323.73046875,0.0
1734421043.0154102,-39.0625,-43.45703125,-531.73828125,-245.60546875,0.0
1734421043.019316,-459.47265625,-45.8984375,-1000.0,-584.9609375,0.0
1734421043.0232217,-282.2265625,-34.1796875,-231.93359375,-226.5625,0.0
1734421043.0271275,132.32421875,-21.97265625,843.75,380.859375,0.0
1734421043.0310333,387.20703125,-18.06640625,691.40625,358.88671875,0.0
1734421043.034939,-4.39453125,-25.390625,-255.859375,-226.07421875,0.0
1734421043.038845,-466.796875,-35.15625,-1000.0,-625.9765625,0.0
1734421043.0427508,-339.84375,-29.296875,-338.8671875,-324.70703125,0.0
1734421043.0466614,39.55078125,-18.06640625,840.8203125,288.57421875,0.0
1734421043.0505672,391.11328125,-18.5546875,842.28515625,405.76171875,0.0
1734421043.054473,107.91015625,-30.76171875,-157.71484375,-116.2109375,0.0
1734421043.0583787,-416.50390625,-41.015625,-1000.0,-590.33203125,0.0
1734421043.0622845,-352.5390625,-37.109375,-450.1953125,-352.5390625,0.0
1734421043.0661902,19.53125,-28.80859375,732.421875,269.04296875,0.0
1734421043.070096,423.33984375,-28.80859375,821.2890625,468.26171875,0.0
1734421043.0740018,206.0546875,-37.59765625,-169.43359375,2.9296875,0.0
1734421043.0779078,-354.00390625,-34.1796875,-1000.0,-535.15625,0.0
1734421043.0818136,-354.4921875,-27.34375,-603.02734375,-406.25,0.0
1734421043.0857193,-8.30078125,-21.97265625,588.8671875,216.796875,0.0
1734421043.0896251,400.87890625,-19.53125,958.49609375,510.25390625,0.0
1734421043.093535,268.06640625,-27.34375,24.90234375,78.125,0.0
1734421043.0974407,-317.3828125,-46.38671875,-1000.0,-490.234375,0.0
1734421043.1013465,-409.66796875,-48.828125,-734.375,-468.26171875,0.0
1734421043.1052525,-77.63671875,-27.83203125,474.609375,118.1640625,0.0
1734421043.1091583,356.4453125,-18.5546875,-990.234375,526.3671875,0.0
1734421043.113064,330.56640625,-31.25,87.890625,164.0625,0.0
1734421043.1169698,-235.3515625,-39.55078125,-1000.0,-436.03515625,0.0
1734421043.1208756,-416.015625,-33.203125,-831.54296875,-487.3046875,0.0
1734421043.1247814,-109.86328125,-23.4375,338.8671875,59.08203125,0.0
1734421043.1286871,331.54296875,-21.484375,-980.46875,513.18359375,0.0
1734421043.132593,359.375,-32.71484375,200.68359375,245.1171875,0.0
1734421043.1364987,-187.5,-41.015625,-980.46875,-357.91015625,0.0
1734421043.1404085,-426.26953125,-41.50390625,-939.94140625,-519.04296875,0.0
1734421043.1443143,-174.31640625,-38.0859375,151.3671875,1.953125,0.0
1734421043.14822,248.53515625,-32.71484375,989.74609375,508.30078125,0.0
1734421043.1521258,376.953125,-32.71484375,349.609375,290.0390625,0.0
1734421043.1560316,-128.90625,-39.0625,-764.16015625,-303.22265625,0.0
1734421043.1599376,-435.05859375,-43.45703125,-1000.0,-519.53125,0.0
1734421043.1638434,-207.03125,-29.78515625,-76.171875,-81.54296875,0.0
1734421043.1677492,190.4296875,-15.625,969.7265625,452.63671875,0.0
1734421043.171655,406.73828125,-17.578125,520.01953125,346.19140625,0.0
1734421043.1755607,-28.80859375,-31.25,-569.3359375,-247.0703125,0.0
1734421043.1794665,-444.3359375,-38.57421875,-1000.0,-569.82421875,0.0
1734421043.1833723,-290.0390625,-24.4140625,-150.87890625,-187.5,0.0
1734421043.1872842,107.421875,-15.13671875,900.87890625,400.390625,0.0
1734421043.1911902,416.015625,-19.53125,711.42578125,405.76171875,0.0
1734421043.195096,41.015625,-25.87890625,-265.625,-136.71875,0.0
1734421043.1990018,-451.66015625,-32.2265625,-1000.0,-560.05859375,0.0
1734421043.2029076,-292.48046875,-35.15625,-273.92578125,-238.76953125,0.0
1734421043.2068133,94.7265625,-31.25,837.40234375,391.6015625,0.0
1734421043.210719,387.6953125,-30.76171875,790.0390625,451.66015625,0.0
1734421043.214625,105.95703125,-32.2265625,-178.7109375,-80.078125,0.0
1734421043.2185307,-372.0703125,-31.25,-1000.0,-535.15625,0.0
1734421043.2224364,-314.94140625,-33.203125,-492.67578125,-284.66796875,0.0
1734421043.2263422,17.08984375,-27.83203125,735.83984375,316.40625,0.0
1734421043.230248,410.64453125,-22.4609375,913.0859375,482.91015625,0.0
1734421043.2341597,201.171875,-32.71484375,-107.421875,-6.8359375,0.0
1734421043.2380655,-353.515625,-43.45703125,-1000.0,-522.4609375,0.0
1734421043.2419713,-360.3515625,-38.0859375,-562.98828125,-373.046875,0.0
1734421043.245877,-41.015625,-25.87890625,635.25390625,235.3515625,0.0
1734421043.2497828,359.375,-26.85546875,932.6171875,526.85546875,0.0
1734421043.2536886,221.19140625,-37.109375,-34.1796875,91.796875,0.0
1734421043.2575943,-338.8671875,-40.0390625,-1000.0,-477.5390625,0.0
1734421043.2615001,-392.08984375,-38.0859375,-682.6171875,-419.921875,0.0
1734421043.265406,-69.82421875,-33.69140625,476.07421875,165.52734375,0.0
1734421043.2693117,343.75,-22.4609375,987.3046875,523.92578125,0.0
1734421043.2732177,298.33984375,-18.5546875,167.48046875,152.83203125,0.0
1734421043.2771235,-274.4140625,-27.34375,-1000.0,-429.6875,0.0
1734421043.2810347,-434.08203125,-25.87890625,-825.1953125,-468.26171875,0.0
1734421043.2849407,-121.09375,-20.01953125,380.859375,92.28515625,0.0
1734421043.2888465,330.56640625,-12.20703125,-971.19140625,541.015625,0.0
1734421043.2927523,370.1171875,-15.13671875,192.87109375,247.55859375,0.0
1734421043.296658,-187.5,-24.4140625,-986.81640625,-362.79296875,0.0
1734421043.3005638,-423.828125,-28.3203125,-955.078125,-521.97265625,0.0
1734421043.3044696,-151.3671875,-21.97265625,140.13671875,-8.30078125,0.0
1734421043.3083754,287.109375,-15.13671875,-994.62890625,525.87890625,0.0
1734421043.3122811,405.76171875,-26.3671875,252.44140625,310.05859375,0.0
1734421043.316187,-112.79296875,-28.3203125,-846.19140625,-319.3359375,0.0
1734421043.3200927,-445.3125,-23.92578125,-1000.0,-563.96484375,0.0
1734421043.3239985,-192.87109375,-21.484375,-18.5546875,-74.70703125,0.0
1734421043.3279095,233.3984375,-19.53125,950.68359375,497.55859375,0.0
1734421043.3318152,413.0859375,-19.53125,555.17578125,352.5390625,0.0
1734421043.335721,-36.62109375,-22.94921875,-511.23046875,-247.55859375,0.0
1734421043.3396268,-418.9453125,-28.80859375,-1000.0,-558.59375,0.0
1734421043.3435326,-213.37890625,-29.296875,-121.58203125,-143.5546875,0.0
1734421043.3474386,183.59375,-27.34375,929.6875,462.890625,0.0
1734421043.3513443,436.03515625,-29.78515625,674.8046875,422.8515625,0.0
1734421043.3552501,27.34375,-40.52734375,-323.73046875,-149.4140625,0.0
1734421043.359156,-416.015625,-42.96875,-1000.0,-522.94921875,0.0
1734421043.3630617,-260.25390625,-39.55078125,-225.5859375,-206.54296875,0.0
1734421043.3669674,110.83984375,-36.62109375,880.37109375,397.94921875,0.0
1734421043.3708732,446.77734375,-38.57421875,837.890625,479.4921875,0.0
1734421043.374784,128.90625,-48.33984375,-149.90234375,-75.68359375,0.0
1734421043.3786898,-380.37109375,-43.45703125,-1000.0,-532.2265625,0.0
1734421043.3825955,-295.41015625,-33.203125,-339.35546875,-278.80859375,0.0
1734421043.3865013,65.91796875,-30.2734375,778.3203125,332.03125,0.0
1734421043.3904073,425.29296875,-29.78515625,927.734375,514.6484375,0.0
1734421043.394313,176.7578125,-35.64453125,-61.03515625,24.90234375,0.0
1734421043.3982189,-357.91015625,-40.52734375,-1000.0,-473.14453125,0.0
1734421043.4021246,-347.65625,-37.59765625,-623.046875,-320.3125,0.0
1734421043.4060304,0.48828125,-27.34375,614.74609375,265.625,0.0
1734421043.4099362,421.38671875,-27.83203125,-994.140625,546.38671875,0.0
1734421043.413842,273.92578125,-34.1796875,10.7421875,113.76953125,0.0
1734421043.4177477,-301.26953125,-37.109375,-1000.0,-454.1015625,0.0
1734421043.421658,-363.28125,-35.64453125,-678.7109375,-397.94921875,0.0
1734421043.4255638,-22.4609375,-20.5078125,528.3203125,202.63671875,0.0
1734421043.4294698,408.203125,-15.13671875,992.67578125,552.734375,0.0
1734421043.4333756,344.7265625,-22.94921875,123.046875,173.33984375,0.0
1734421043.4372814,-227.5390625,-28.80859375,-1000.0,-397.94921875,0.0
1734421043.4411871,-382.32421875,-28.80859375,-851.5625,-449.70703125,0.0
1734421043.445093,-93.75,-25.390625,311.03515625,119.140625,0.0
1734421043.4489987,364.74609375,-23.92578125,997.55859375,553.22265625,0.0
1734421043.4529045,377.44140625,-24.4140625,193.359375,245.1171875,0.0
1734421043.4568102,-238.76953125,-33.203125,-992.1875,-360.83984375,0.0
1734421043.460716,-462.890625,-37.109375,-936.5234375,-509.765625,0.0
1734421043.4646218,-150.390625,-29.296875,177.24609375,26.3671875,0.0
1734421043.4685318,298.828125,-22.4609375,-973.6328125,538.57421875,0.0
1734421043.4724376,406.73828125,-32.2265625,250.9765625,302.734375,0.0
1734421043.4763434,-124.0234375,-39.0625,-916.50390625,-318.359375,0.0
1734421043.4802492,-399.90234375,-34.1796875,-1000.0,-532.71484375,0.0
1734421043.484155,-158.69140625,-27.34375,-18.06640625,-59.08203125,0.0
1734421043.4880607,220.21484375,-22.94921875,981.93359375,473.14453125,0.0
1734421043.4919667,405.2734375,-33.69140625,284.66796875,350.5859375,0.0
1734421043.4958725,-67.3828125,-42.96875,-779.296875,-231.93359375,0.0
1734421043.4997783,-427.24609375,-40.0390625,-1000.0,-542.48046875,0.0
1734421043.503684,-206.0546875,-32.71484375,-188.4765625,-159.66796875,0.0
1734421043.5075898,179.6875,-21.484375,919.921875,413.57421875,0.0
1734421043.5114956,417.48046875,-20.99609375,593.26171875,398.4375,0.0
1734421043.5154054,39.0625,-26.3671875,-442.87109375,-183.59375,0.0
1734421043.5193112,-398.92578125,-31.25,-1000.0,-556.15234375,0.0
1734421043.523217,-281.73828125,-33.203125,-271.484375,-213.37890625,0.0
1734421043.5271227,101.07421875,-22.4609375,876.46484375,381.8359375,0.0
1734421043.5310285,415.52734375,-23.4375,771.97265625,460.9375,0.0
1734421043.5349345,82.03125,-37.59765625,-222.16796875,-100.09765625,0.0
1734421043.5388403,-426.26953125,-42.48046875,-1000.0,-567.3828125,0.0
1734421043.542746,-318.84765625,-28.3203125,-377.44140625,-276.3671875,0.0
1734421043.5466518,65.91796875,-19.53125,793.45703125,373.046875,0.0
1734421043.5505576,426.26953125,-26.3671875,879.8828125,533.203125,0.0
1734421043.5544634,185.05859375,-33.69140625,-110.83984375,-6.34765625,0.0
1734421043.5583692,-356.4453125,-38.0859375,-1000.0,-558.59375,0.0
1734421043.5622814,-336.9140625,-35.15625,-579.58984375,-395.99609375,0.0
1734421043.5661871,26.85546875,-23.92578125,614.74609375,241.2109375,0.0
1734421043.570093,420.41015625,-20.99609375,981.4453125,497.55859375,0.0
1734421043.5739987,245.1171875,-27.83203125,-0.48828125,56.640625,0.0
1734421043.5779045,-318.84765625,-34.1796875,-1000.0,-493.65234375,0.0
1734421043.5818102,-377.44140625,-34.66796875,-719.23828125,-426.7578125,0.0
1734421043.585716,-37.59765625,-23.4375,489.74609375,187.98828125,0.0
1734421043.589622,383.7890625,-20.01953125,-991.2109375,540.0390625,0.0
1734421043.5935278,296.38671875,-30.76171875,78.61328125,155.76171875,0.0
1734421043.5974336,-261.71875,-38.0859375,-1000.0,-427.24609375,0.0
1734421043.6013393,-395.5078125,-32.2265625,-799.31640625,-454.58984375,0.0
1734421043.605245,-84.47265625,-25.87890625,376.953125,144.04296875,0.0
1734421043.6091568,343.75,-28.80859375,-991.2109375,570.80078125,0.0
1734421043.6130626,347.65625,-33.69140625,176.7578125,231.4453125,0.0
1734421043.6169684,-201.66015625,-39.0625,-1000.0,-385.25390625,0.0
1734421043.6208742,-409.66796875,-32.2265625,-909.1796875,-520.99609375,0.0
1734421043.62478,-133.7890625,-23.92578125,220.703125,10.25390625,0.0
1734421043.6286857,291.50390625,-27.83203125,-997.0703125,475.09765625,0.0
1734421043.6325915,367.67578125,-30.2734375,254.8828125,246.58203125,0.0
1734421043.6364973,-168.9453125,-28.80859375,-844.23828125,-359.375,0.0
1734421043.640403,-439.94140625,-33.69140625,-1000.0,-600.09765625,0.0
1734421043.6443088,-148.92578125,-27.34375,-122.0703125,-104.98046875,0.0
1734421043.6482146,280.76171875,-12.20703125,-999.51171875,429.6875,0.0
1734421043.6521206,382.32421875,-24.4140625,448.73046875,279.296875,0.0
1734421043.6560318,-104.98046875,-38.57421875,-689.94140625,-274.90234375,0.0
1734421043.6599376,-436.5234375,-29.78515625,-1000.0,-568.359375,0.0
1734421043.6638434,-241.2109375,-19.04296875,-109.86328125,-150.390625,0.0
1734421043.6677492,150.87890625,-15.625,941.40625,458.49609375,0.0
1734421043.671655,417.96875,-14.6484375,592.7734375,387.20703125,0.0
1734421043.6755607,-13.671875,-25.390625,-426.7578125,-211.9140625,0.0
1734421043.6794665,-459.47265625,-29.78515625,-1000.0,-558.10546875,0.0
1734421043.6833723,-258.30078125,-16.6015625,-253.90625,-180.17578125,0.0
1734421043.687278,132.8125,-16.11328125,852.05078125,423.33984375,0.0
1734421043.6911838,434.5703125,-18.06640625,810.546875,466.796875,0.0
1734421043.6950896,82.03125,-17.578125,-165.52734375,-85.9375,0.0
1734421043.6989956,-433.59375,-24.90234375,-1000.0,-521.484375,0.0
1734421043.7029066,-319.3359375,-20.99609375,-324.21875,-252.44140625,0.0
1734421043.7068124,94.23828125,-4.39453125,846.6796875,327.1484375,0.0
1734421043.7107182,453.61328125,-6.34765625,929.19921875,475.09765625,0.0
1734421043.714624,140.625,-19.04296875,-122.55859375,-43.45703125,0.0
1734421043.7185297,-374.51171875,-20.01953125,-1000.0,-478.02734375,0.0
1734421043.7224355,-309.5703125,-12.6953125,-332.03125,-270.01953125,0.0
1734421043.7263412,5.859375,-6.34765625,665.52734375,252.9296875,0.0
1734421043.730247,395.99609375,-11.71875,899.90234375,520.5078125,0.0
1734421043.7341528,214.35546875,-17.08984375,-94.23828125,60.546875,0.0
1734421043.7380586,-355.95703125,-18.5546875,-1000.0,-492.1875,0.0
1734421043.7419643,-385.7421875,-21.484375,-634.765625,-401.3671875,0.0
1734421043.7458704,-58.59375,-20.99609375,545.8984375,177.24609375,0.0
1734421043.749781,329.58984375,-17.08984375,-986.328125,505.859375,0.0
1734421043.7536867,215.33203125,-25.390625,99.12109375,108.88671875,0.0
1734421043.7575924,-364.2578125,-35.64453125,-1000.0,-465.33203125,0.0
1734421043.7614982,-464.84375,-27.34375,-791.9921875,-473.14453125,0.0
1734421043.7654042,-137.20703125,-17.08984375,417.48046875,83.49609375,0.0
1734421043.76931,287.109375,-13.18359375,-984.375,491.69921875,0.0
1734421043.7732158,279.78515625,-17.08984375,123.046875,167.96875,0.0
1734421043.7771215,-288.0859375,-27.83203125,-1000.0,-430.17578125,0.0
1734421043.7810273,-514.16015625,-25.87890625,-912.109375,-533.69140625,0.0
1734421043.784933,-244.140625,-18.5546875,221.6796875,1.46484375,0.0
1734421043.7888389,209.47265625,-12.6953125,-976.5625,479.4921875,0.0
1734421043.7927446,305.6640625,-18.5546875,166.015625,213.37890625,0.0
1734421043.796655,0.0,-30.76171875,-966.30859375,-381.8359375,0.0
1734421043.8005607,0.0,-30.2734375,-1000.0,-556.640625,0.0
1734421043.8044667,0.0,-22.94921875,-78.61328125,-61.03515625,0.0
1734421043.8083725,0.0,-17.08984375,991.2109375,474.609375,0.0
1734421043.8122783,0.0,-21.97265625,262.6953125,313.4765625,0.0
1734421043.816184,0.0,-32.2265625,-850.09765625,-257.8125,0.0
1734421043.8200898,0.0,-41.9921875,-1000.0,-514.16015625,0.0
1734421043.8239956,0.0,-38.0859375,-287.59765625,-135.7421875,0.0
1734421043.8279014,0.0,-18.5546875,944.82421875,411.62109375,0.0
1734421043.8318071,0.0,-22.94921875,493.1640625,361.328125,0.0
1734421043.835713,0.0,-34.66796875,-605.95703125,-223.6328125,0.0
1734421043.8396187,0.0,-36.62109375,-1000.0,-578.61328125,0.0
1734421043.843529,-289.0625,-32.2265625,-267.578125,-225.5859375,0.0
1734421043.8474348,109.86328125,-29.296875,866.69921875,357.421875,0.0
1734421043.8513405,409.66796875,-34.66796875,695.3125,413.57421875,0.0
1734421043.8552463,12.20703125,-39.55078125,-277.34375,-134.27734375,0.0
