timestamps,TP9,AF7,AF8,TP10,Right AUX
1734413415.8161926,-47.8515625,-308.10546875,-436.03515625,-48.828125,0.0
1734413415.8200881,-34.1796875,406.73828125,333.984375,-2.9296875,0.0
1734413415.8239834,-26.3671875,807.6171875,538.0859375,9.765625,0.0
1734413415.827879,-13.18359375,89.84375,28.80859375,-10.25390625,0.0
1734413415.8317742,-28.80859375,-411.1328125,-510.7421875,-50.78125,0.0
1734413415.8356698,-52.734375,-364.2578125,-494.62890625,-53.7109375,0.0
1734413415.8395653,-29.296875,-94.23828125,49.8046875,-3.41796875,0.0
1734413415.8434606,-7.8125,198.73046875,420.41015625,36.1328125,0.0
1734413415.847356,-9.27734375,539.55078125,375.0,-13.671875,0.0
1734413415.8512516,-26.3671875,415.0390625,-176.7578125,-78.61328125,0.0
1734413415.855147,-42.96875,-195.3125,-579.58984375,-65.4296875,0.0
1734413415.8591633,-36.62109375,-613.76953125,-250.0,-7.32421875,0.0
1734413415.8630586,-12.6953125,427.24609375,468.75,-5.37109375,0.0
1734413415.866954,-6.8359375,933.10546875,481.93359375,-23.92578125,0.0
1734413415.8708496,-17.08984375,134.27734375,-238.76953125,-64.453125,0.0
1734413415.874745,-42.48046875,-378.90625,-600.5859375,-87.890625,0.0
1734413415.8786404,-47.36328125,-208.49609375,-178.7109375,-20.5078125,0.0
1734413415.882536,-16.6015625,365.234375,422.8515625,7.32421875,0.0
1734413415.8864312,0.0,222.16796875,331.0546875,-22.4609375,0.0
1734413415.8903267,-16.11328125,-409.1796875,-341.30859375,-48.33984375,0.0
1734413415.8942223,-57.12890625,-86.42578125,-513.18359375,-68.84765625,0.0
1734413415.8981175,-56.640625,271.484375,-86.9140625,-32.2265625,0.0
1734413415.902013,-31.25,407.2265625,371.09375,-7.32421875,0.0
1734413415.9060175,-23.92578125,709.9609375,474.12109375,-27.34375,0.0
1734413415.9099128,-30.2734375,570.80078125,-5.37109375,-59.5703125,0.0
1734413415.9138083,-52.24609375,-11.23046875,-554.6875,-74.21875,0.0
1734413415.9177039,-55.6640625,-120.1171875,-234.375,-52.24609375,0.0
1734413415.9215994,-23.4375,445.3125,394.04296875,-6.34765625,0.0
1734413415.925495,2.44140625,541.50390625,445.3125,7.32421875,0.0
1734413415.9293902,-4.39453125,-21.484375,-127.9296875,-45.8984375,0.0
1734413415.9332857,-44.43359375,-826.171875,-794.43359375,-77.63671875,0.0
1734413415.9371812,-78.125,-359.86328125,-354.00390625,-44.921875,0.0
1734413415.9410768,-42.96875,638.671875,376.46484375,-5.859375,0.0
1734413415.944972,-9.765625,757.32421875,466.30859375,-0.9765625,0.0
1734413415.9488676,-17.578125,368.65234375,74.70703125,-41.015625,0.0
1734413415.9528618,-39.55078125,85.44921875,-495.1171875,-67.3828125,0.0
1734413415.9567573,-52.24609375,118.65234375,-357.91015625,-36.1328125,0.0
1734413415.9606528,-32.2265625,289.0625,208.0078125,0.48828125,0.0
1734413415.9645483,3.41796875,646.484375,483.3984375,3.41796875,0.0
1734413415.9684436,6.8359375,581.0546875,190.91796875,-8.7890625,0.0
1734413415.9723392,-34.1796875,-150.87890625,-521.484375,-67.87109375,0.0
1734413415.9762347,-60.546875,-675.78125,-635.7421875,-64.453125,0.0
1734413415.9801302,-44.43359375,-401.85546875,-43.45703125,-12.6953125,0.0
1734413415.9840257,-22.94921875,668.9453125,503.41796875,-18.5546875,0.0
1734413415.9879212,-14.6484375,734.86328125,283.203125,-38.57421875,0.0
1734413415.9918165,-39.55078125,-377.44140625,-630.37109375,-86.42578125,0.0
1734413415.995712,-64.453125,-533.203125,-577.63671875,-102.5390625,0.0
1734413415.9997845,-49.8046875,406.73828125,224.12109375,-41.50390625,0.0
1734413416.00368,-2.44140625,798.828125,458.984375,0.0,0.0
1734413416.0075755,15.625,422.8515625,197.75390625,-12.20703125,0.0
1734413416.011471,-15.13671875,123.046875,-382.8125,-62.01171875,0.0
1734413416.0153666,-30.76171875,16.11328125,-530.76171875,-62.98828125,0.0
1734413416.019262,-22.4609375,-39.55078125,-74.70703125,-2.44140625,0.0
1734413416.0231576,-4.8828125,71.77734375,324.70703125,4.39453125,0.0
1734413416.027053,-12.6953125,215.8203125,263.671875,-27.34375,0.0
1734413416.0309486,-45.41015625,256.34765625,-271.97265625,-65.91796875,0.0
1734413416.0348442,-78.125,-135.25390625,-631.8359375,-66.40625,0.0
1734413416.0387397,-70.80078125,-515.13671875,-307.6171875,-14.16015625,0.0
1734413416.0426352,-35.15625,428.7109375,407.71484375,20.01953125,0.0
1734413416.0466952,0.0,918.45703125,455.078125,7.32421875,0.0
1734413416.0505908,0.0,135.25390625,-286.1328125,-21.484375,0.0
1734413416.0544863,0.0,-444.3359375,-667.48046875,-30.76171875,0.0
1734413416.0583818,0.0,98.6328125,-157.71484375,-10.25390625,0.0
1734413416.0622773,0.0,732.421875,430.17578125,21.484375,0.0
1734413416.0661728,0.0,419.43359375,362.3046875,22.94921875,0.0
1734413416.0700684,0.0,-75.68359375,-223.14453125,-17.08984375,0.0
1734413416.0739639,0.0,-32.2265625,-560.546875,-39.0625,0.0
1734413416.0778594,0.0,240.72265625,-198.2421875,-51.26953125,0.0
1734413416.081755,0.0,125.0,289.55078125,-21.484375,0.0
1734413416.0856504,0.0,109.375,424.31640625,14.16015625,0.0
1734413416.089546,0.0,416.015625,5.859375,-33.69140625,0.0
1734413416.0935926,-46.38671875,43.9453125,-550.29296875,-75.68359375,0.0
1734413416.0974882,-62.5,-195.3125,-362.3046875,-58.10546875,0.0
1734413416.101384,-31.25,467.7734375,333.0078125,-27.34375,0.0
1734413416.1052794,-3.90625,963.37890625,534.1796875,-26.85546875,0.0
1734413416.109175,-9.765625,513.18359375,32.2265625,-67.87109375,0.0
1734413416.1130705,-39.0625,-362.3046875,-607.421875,-113.28125,0.0
1734413416.116966,-51.7578125,-427.734375,-447.265625,-93.75,0.0
1734413416.1208618,-41.9921875,158.203125,242.1875,-32.2265625,0.0
1734413416.1247573,-27.83203125,393.06640625,451.171875,-45.41015625,0.0
1734413416.1286528,-24.4140625,-323.73046875,-169.43359375,-84.47265625,0.0
1734413416.1325483,-58.10546875,-279.296875,-585.9375,-128.90625,0.0
1734413416.1364439,-89.84375,215.33203125,-330.56640625,-140.13671875,0.0
1734413416.14048,-74.70703125,353.515625,205.56640625,-95.21484375,0.0
1734413416.1443756,-43.9453125,666.015625,494.140625,-68.359375,0.0
1734413416.148271,-42.96875,684.5703125,266.11328125,-97.16796875,0.0
1734413416.1521666,-72.265625,247.55859375,-401.3671875,-138.18359375,0.0
1734413416.1560624,-82.03125,-165.0390625,-551.7578125,-140.625,0.0
1734413416.159958,-64.94140625,-114.2578125,-5.37109375,-97.65625,0.0
1734413416.1638534,-33.69140625,490.72265625,462.40234375,-73.2421875,0.0
1734413416.167749,-28.3203125,779.296875,325.1953125,-110.3515625,0.0
1734413416.1716447,-49.31640625,-179.19921875,-539.0625,-136.23046875,0.0
1734413416.1755402,-83.49609375,-630.37109375,-607.421875,-144.04296875,0.0
1734413416.1794357,-82.51953125,373.046875,199.70703125,-96.6796875,0.0
1734413416.1833315,-45.8984375,864.2578125,501.46484375,-46.875,0.0
1734413416.1873567,-30.2734375,365.234375,226.5625,-69.3359375,0.0
1734413416.1912522,-47.36328125,91.796875,-320.3125,-114.2578125,0.0
1734413416.1951478,-68.84765625,114.2578125,-500.48828125,-106.93359375,0.0
1734413416.1990435,-57.6171875,254.39453125,5.859375,-56.15234375,0.0
1734413416.202939,-2.9296875,453.125,421.38671875,5.859375,0.0
1734413416.2068346,7.32421875,376.46484375,336.9140625,-16.6015625,0.0
1734413416.2107303,-32.71484375,-66.89453125,-339.35546875,-77.63671875,0.0
1734413416.2146258,-66.89453125,-432.6171875,-684.08203125,-68.359375,0.0
1734413416.2185214,-59.5703125,-664.0625,-395.99609375,-11.71875,0.0
1734413416.222417,-28.80859375,323.73046875,332.03125,2.9296875,0.0
1734413416.2263126,-21.97265625,-997.55859375,518.06640625,-6.8359375,0.0
1734413416.2302082,-38.0859375,174.8046875,-182.12890625,-9.27734375,0.0
1734413416.2342167,-64.94140625,-308.10546875,-600.5859375,-22.4609375,0.0
1734413416.2381122,-76.171875,191.40625,-145.99609375,-16.6015625,0.0
1734413416.2420077,-38.57421875,793.45703125,438.4765625,31.73828125,0.0
1734413416.2459035,-3.90625,733.88671875,437.01171875,51.7578125,0.0
1734413416.249799,-30.76171875,308.10546875,-48.33984375,5.859375,0.0
1734413416.2536948,-64.453125,-189.94140625,-587.890625,-35.64453125,0.0
1734413416.2575903,-66.40625,-166.9921875,-348.6328125,-13.18359375,0.0
1734413416.261486,-39.0625,96.6796875,270.99609375,49.31640625,0.0
1734413416.2653816,-16.11328125,117.67578125,425.78125,57.6171875,0.0
1734413416.269277,-21.484375,456.0546875,84.47265625,8.7890625,0.0
1734413416.2731729,-56.15234375,222.65625,-499.51171875,-25.87890625,0.0
1734413416.2770684,-79.58984375,-132.32421875,-439.453125,-4.8828125,0.0
1734413416.2810664,-47.8515625,482.91015625,300.29296875,37.109375,0.0
1734413416.2849622,-25.390625,-980.95703125,547.8515625,46.38671875,0.0
1734413416.2888577,-23.92578125,553.22265625,123.046875,10.7421875,0.0
1734413416.2927535,-45.8984375,-219.7265625,-510.7421875,-39.0625,0.0
1734413416.296649,-67.87109375,-164.0625,-456.54296875,-23.4375,0.0
1734413416.3005447,-58.10546875,259.27734375,217.7734375,21.484375,0.0
1734413416.3044405,-25.87890625,391.6015625,447.75390625,34.1796875,0.0
1734413416.308336,-11.23046875,-345.703125,-159.66796875,35.64453125,0.0
1734413416.3122318,-53.7109375,-325.68359375,-585.9375,-38.0859375,0.0
1734413416.3161273,-82.03125,185.05859375,-371.09375,-81.0546875,0.0
1734413416.320023,-53.7109375,372.0703125,199.21875,-11.71875,0.0
1734413416.3239186,-22.94921875,682.12890625,508.7890625,41.015625,0.0
1734413416.3279097,-21.97265625,710.9375,287.109375,-4.8828125,0.0
1734413416.3318052,-35.64453125,301.7578125,-375.48828125,-49.31640625,0.0
1734413416.335701,-55.6640625,-106.4453125,-545.41015625,-59.5703125,0.0
1734413416.3395965,-48.828125,203.61328125,95.21484375,-33.203125,0.0
1734413416.3434923,-16.6015625,814.453125,507.32421875,5.37109375,0.0
1734413416.347388,-21.97265625,501.46484375,186.5234375,-8.30078125,0.0
1734413416.3512836,-46.875,-351.5625,-550.29296875,-35.64453125,0.0
1734413416.3551793,-65.4296875,-653.3203125,-611.328125,-34.1796875,0.0
1734413416.3590748,-62.98828125,259.765625,106.93359375,-9.765625,0.0
1734413416.3629706,-21.484375,866.2109375,478.02734375,16.11328125,0.0
1734413416.366866,-3.90625,511.23046875,326.171875,3.41796875,0.0
1734413416.3707619,-18.5546875,234.375,-153.3203125,-42.48046875,0.0
1734413416.374744,-40.0390625,165.52734375,-504.8828125,-73.2421875,0.0
1734413416.3786395,-55.6640625,216.30859375,-122.0703125,-34.1796875,0.0
1734413416.3825352,-39.55078125,403.3203125,371.58203125,3.90625,0.0
1734413416.3864307,-17.578125,695.3125,447.265625,-0.9765625,0.0
1734413416.3903265,-35.15625,420.41015625,-94.23828125,-45.41015625,0.0
1734413416.3942223,-67.87109375,-305.6640625,-643.06640625,-77.63671875,0.0
1734413416.3981178,-76.66015625,-481.93359375,-319.3359375,-57.6171875,0.0
1734413416.4020135,-53.7109375,297.36328125,374.0234375,-33.203125,0.0
1734413416.4059093,-27.83203125,936.5234375,514.6484375,-34.1796875,0.0
1734413416.4098048,-41.015625,307.6171875,-110.3515625,-64.453125,0.0
1734413416.4137006,-62.98828125,-682.12890625,-705.078125,-77.63671875,0.0
1734413416.4175963,-70.80078125,-100.5859375,-237.3046875,-48.828125,0.0
1734413416.421649,-44.921875,764.6484375,438.4765625,-14.6484375,0.0
1734413416.4255447,-31.25,729.4921875,460.44921875,-6.34765625,0.0
1734413416.4294403,-55.6640625,358.88671875,87.890625,-59.5703125,0.0
1734413416.433336,-70.80078125,136.23046875,-449.70703125,-93.26171875,0.0
1734413416.4372318,-82.51953125,210.9375,-297.8515625,-72.265625,0.0
1734413416.4411275,-61.03515625,239.74609375,282.2265625,-23.92578125,0.0
1734413416.445023,-22.4609375,203.125,415.52734375,-10.25390625,0.0
1734413416.4489188,-29.78515625,411.62109375,191.40625,-57.6171875,0.0
1734413416.4528146,-62.5,237.79296875,-424.8046875,-95.703125,0.0
1734413416.4567103,-74.21875,-297.8515625,-534.66796875,-79.58984375,0.0
1734413416.4606059,-52.734375,144.04296875,235.3515625,-26.85546875,0.0
1734413416.4645016,-40.52734375,948.2421875,571.77734375,-16.6015625,0.0
1734413416.4685452,-49.31640625,590.33203125,203.125,-58.59375,0.0
1734413416.472441,-68.359375,-189.453125,-492.67578125,-98.14453125,0.0
1734413416.4763367,-88.37890625,-120.60546875,-457.51953125,-96.19140625,0.0
1734413416.4802322,-76.66015625,544.43359375,285.15625,-43.9453125,0.0
1734413416.484128,-34.1796875,770.99609375,499.0234375,-3.41796875,0.0
1734413416.4880238,-20.01953125,151.85546875,50.29296875,-30.2734375,0.0
1734413416.4919195,-51.26953125,-335.9375,-542.96875,-69.82421875,0.0
1734413416.4958153,-84.9609375,-275.87890625,-514.16015625,-80.56640625,0.0
1734413416.499711,-71.2890625,183.10546875,99.12109375,-24.4140625,0.0
1734413416.5036066,-41.50390625,-145.99609375,275.390625,20.99609375,0.0
1734413416.5075023,-41.50390625,84.9609375,286.62109375,-18.5546875,0.0
1734413416.511398,-60.05859375,400.390625,-195.3125,-61.03515625,0.0
1734413416.5154269,-73.73046875,-50.78125,-552.24609375,-67.87109375,0.0
1734413416.5193226,-55.6640625,189.94140625,22.4609375,-6.34765625,0.0
1734413416.5232184,-23.92578125,848.14453125,524.90234375,21.484375,0.0
1734413416.5271142,-30.76171875,840.8203125,389.6484375,-10.25390625,0.0
1734413416.53101,-48.828125,104.4921875,-313.4765625,-50.78125,0.0
1734413416.5349057,-61.5234375,-453.61328125,-661.62109375,-55.17578125,0.0
1734413416.5388014,-65.4296875,-97.16796875,-127.9296875,-15.625,0.0
1734413416.5426972,-46.875,772.94921875,492.67578125,13.671875,0.0
1734413416.546593,-24.90234375,397.4609375,324.70703125,3.41796875,0.0
1734413416.5504887,-45.8984375,-332.03125,-312.98828125,-44.43359375,0.0
1734413416.5543845,-73.2421875,30.76171875,-512.6953125,-62.01171875,0.0
1734413416.55828,-70.80078125,341.796875,-93.26171875,-28.3203125,0.0
1734413416.5623033,-37.59765625,303.22265625,332.03125,21.97265625,0.0
1734413416.566199,-24.90234375,578.61328125,448.2421875,9.765625,0.0
1734413416.5700948,-54.19921875,619.62890625,45.8984375,-51.7578125,0.0
1734413416.5739906,-79.1015625,130.859375,-514.16015625,-81.0546875,0.0
1734413416.5778863,-75.1953125,-179.6875,-299.31640625,-43.9453125,0.0
1734413416.581782,-36.1328125,161.62109375,322.265625,6.8359375,0.0
1734413416.5856779,-10.25390625,492.1875,465.33203125,6.8359375,0.0
1734413416.5895736,-25.87890625,108.88671875,-53.22265625,-23.4375,0.0
1734413416.5934694,-49.31640625,-769.53125,-745.1171875,-62.5,0.0
1734413416.5973651,-80.078125,-272.4609375,-335.9375,-80.078125,0.0
1734413416.601261,-51.7578125,775.87890625,413.57421875,-31.25,0.0
1734413416.6051567,-11.71875,772.4609375,467.28515625,-5.859375,0.0
1734413416.609165,-29.78515625,437.01171875,182.6171875,-42.48046875,0.0
1734413416.6130607,-56.15234375,229.98046875,-409.1796875,-84.47265625,0.0
1734413416.6169565,-59.5703125,177.734375,-367.1875,-72.265625,0.0
1734413416.6208522,-33.203125,392.578125,260.7421875,-13.671875,0.0
1734413416.624748,0.0,691.40625,498.53515625,8.30078125,0.0
1734413416.628644,-0.48828125,434.5703125,207.51953125,-29.296875,0.0
1734413416.6325397,-44.921875,-87.890625,-459.9609375,-83.0078125,0.0
1734413416.6364355,-77.1484375,-493.1640625,-623.53515625,-70.80078125,0.0
1734413416.6403313,-66.89453125,-314.453125,-38.0859375,-14.6484375,0.0
1734413416.644227,-39.55078125,700.1953125,464.35546875,-3.41796875,0.0
1734413416.6481228,-31.25,563.96484375,220.21484375,-29.78515625,0.0
1734413416.6520185,-55.17578125,-200.68359375,-517.08984375,-60.05859375,0.0
1734413416.6560154,-83.0078125,-91.30859375,-514.16015625,-61.03515625,0.0
1734413416.6599112,-64.94140625,527.83203125,221.19140625,-33.203125,0.0
1734413416.663807,-28.3203125,824.70703125,485.3515625,0.0,0.0
1734413416.667703,-26.3671875,504.8828125,271.484375,-5.859375,0.0
1734413416.6715987,-51.7578125,127.44140625,-276.3671875,-42.96875,0.0
1734413416.6754944,-63.96484375,-203.61328125,-567.3828125,-61.03515625,0.0
1734413416.6793902,-60.05859375,-92.28515625,-103.515625,-36.1328125,0.0
1734413416.683286,-41.50390625,-150.390625,268.5546875,10.7421875,0.0
1734413416.6871817,-37.109375,299.31640625,395.99609375,-9.765625,0.0
1734413416.6910777,-56.640625,535.64453125,-66.40625,-61.03515625,0.0
1734413416.6949735,-70.80078125,39.0625,-571.2890625,-67.87109375,0.0
1734413416.6988692,-64.94140625,169.921875,-103.02734375,-34.1796875,0.0
1734413416.7029436,-30.76171875,834.9609375,503.41796875,2.44140625,0.0
1734413416.7068393,-13.18359375,833.984375,446.77734375,16.6015625,0.0
1734413416.710735,-37.109375,133.7890625,-134.27734375,-26.85546875,0.0
1734413416.714631,-71.2890625,-83.984375,-543.45703125,-80.078125,0.0
1734413416.7185268,-73.2421875,264.6484375,-107.421875,-56.15234375,0.0
1734413416.7224226,-40.0390625,538.57421875,429.19921875,-7.32421875,0.0
1734413416.7263184,-23.92578125,240.234375,319.3359375,-13.18359375,0.0
1734413416.7302144,-43.45703125,-309.5703125,-254.39453125,-58.59375,0.0
1734413416.73411,-72.75390625,-25.390625,-538.57421875,-67.87109375,0.0
1734413416.7380059,-70.80078125,297.8515625,-188.4765625,-24.4140625,0.0
1734413416.7419019,-40.0390625,424.8046875,341.30859375,1.46484375,0.0
1734413416.7457976,-25.390625,739.74609375,484.375,-8.30078125,0.0
1734413416.7497764,-35.64453125,726.5625,135.7421875,-45.8984375,0.0
1734413416.7536721,-47.8515625,152.34375,-489.2578125,-59.5703125,0.0
1734413416.757568,-49.31640625,-205.078125,-376.46484375,-49.8046875,0.0
1734413416.7614639,-25.87890625,472.16796875,340.8203125,-11.23046875,0.0
1734413416.7653596,0.0,851.07421875,499.0234375,14.16015625,0.0
1734413416.7692554,-10.25390625,211.42578125,20.99609375,-15.625,0.0
1734413416.7731514,-38.57421875,-431.640625,-601.07421875,-39.55078125,0.0
1734413416.7770472,-54.19921875,-449.70703125,-479.4921875,-41.9921875,0.0
1734413416.780943,-28.3203125,329.58984375,287.109375,-11.23046875,0.0
1734413416.784839,1.953125,681.15234375,490.72265625,30.76171875,0.0
1734413416.7887347,2.9296875,-255.859375,-145.5078125,12.6953125,0.0
1734413416.7926304,-32.71484375,-207.03125,-543.9453125,-51.26953125,0.0
1734413416.7966816,-55.17578125,243.65234375,-348.14453125,-56.15234375,0.0
1734413416.8005774,-32.2265625,358.3984375,192.87109375,-14.6484375,0.0
1734413416.8044734,-13.671875,682.6171875,507.8125,-8.7890625,0.0
1734413416.8083692,-19.04296875,743.65234375,298.33984375,-25.390625,0.0
1734413416.8122652,-37.109375,354.4921875,-363.76953125,-71.77734375,0.0
1734413416.816161,-56.15234375,-397.94921875,-645.99609375,-74.70703125,0.0
1734413416.820057,-48.828125,-321.2890625,-65.91796875,-17.08984375,0.0
1734413416.8239527,-13.18359375,681.640625,509.765625,2.44140625,0.0
1734413416.8278484,-8.7890625,545.41015625,300.78125,-21.484375,0.0
1734413416.8317444,-39.0625,-236.328125,-511.71875,-60.05859375,0.0
1734413416.8356402,-75.1953125,-232.421875,-594.23828125,-97.65625,0.0
1734413416.8395362,-60.05859375,425.29296875,116.2109375,-62.5,0.0
1734413416.8435738,-22.4609375,801.26953125,458.49609375,-2.9296875,0.0
1734413416.8474696,-25.390625,447.265625,285.64453125,-10.25390625,0.0
1734413416.8513656,-49.8046875,179.6875,-182.6171875,-56.15234375,0.0
1734413416.8552613,-62.98828125,134.765625,-500.0,-70.3125,0.0
1734413416.8591573,-56.640625,201.171875,-87.40234375,-23.4375,0.0
1734413416.863053,-28.80859375,280.76171875,367.1875,22.94921875,0.0
1734413416.866949,-10.25390625,313.96484375,357.421875,-8.30078125,0.0
1734413416.8708448,-27.83203125,87.40234375,-167.96875,-50.29296875,0.0
1734413416.8747408,-49.31640625,-350.09765625,-631.34765625,-60.546875,0.0
1734413416.8786366,-42.96875,-704.1015625,-431.640625,-27.83203125,0.0
1734413416.8825326,-26.85546875,291.50390625,322.265625,11.71875,0.0
1734413416.8864284,-5.859375,832.51953125,495.1171875,10.7421875,0.0
1734413416.8904626,-16.6015625,173.33984375,-107.421875,-31.73828125,0.0
1734413416.8943584,-63.96484375,-106.93359375,-554.19921875,-79.1015625,0.0
1734413416.8982544,-67.87109375,191.40625,-204.58984375,-47.8515625,0.0
1734413416.9021504,-23.92578125,687.5,403.80859375,4.8828125,0.0
1734413416.9060462,1.953125,662.59765625,435.546875,14.16015625,0.0
1734413416.9099422,-9.27734375,80.56640625,-57.12890625,-16.11328125,0.0
1734413416.913838,-42.48046875,-189.94140625,-534.1796875,-58.59375,0.0
1734413416.917734,-69.3359375,184.08203125,-276.85546875,-64.453125,0.0
1734413416.92163,-44.43359375,188.96484375,284.66796875,3.41796875,0.0
1734413416.9255257,-10.25390625,93.75,445.80078125,25.390625,0.0
1734413416.9294217,-34.1796875,525.390625,205.078125,-51.7578125,0.0
1734413416.9333177,-65.4296875,240.234375,-449.21875,-82.51953125,0.0
1734413416.9373353,-71.77734375,-173.828125,-490.234375,-59.5703125,0.0
1734413416.941231,-55.17578125,457.03125,287.109375,-7.32421875,0.0
1734413416.945127,-24.4140625,839.35546875,521.484375,14.6484375,0.0
1734413416.949023,-19.53125,379.8828125,177.734375,-23.92578125,0.0
1734413416.952919,-46.875,-179.19921875,-436.5234375,-58.10546875,0.0
1734413416.9568148,-55.6640625,-363.76953125,-535.64453125,-58.10546875,0.0
1734413416.9607108,-37.59765625,73.2421875,101.07421875,-16.6015625,0.0
1734413416.9646068,-18.06640625,415.52734375,452.1484375,18.5546875,0.0
1734413416.9685025,-8.30078125,-172.36328125,-37.59765625,-2.9296875,0.0
1734413416.9723985,-37.59765625,-209.9609375,-531.25,-54.6875,0.0
1734413416.9762945,-55.6640625,169.43359375,-415.52734375,-52.734375,0.0
1734413416.9801903,-35.64453125,317.87109375,144.04296875,-3.90625,0.0
1734413416.984199,-21.484375,625.48828125,497.0703125,11.23046875,0.0
1734413416.988095,-18.5546875,750.48828125,361.81640625,-12.6953125,0.0
1734413416.991991,-33.69140625,391.11328125,-260.7421875,-59.08203125,0.0
1734413416.9958868,-58.10546875,-93.75,-554.19921875,-75.1953125,0.0
1734413416.9997828,-52.24609375,126.953125,9.765625,-36.62109375,0.0
1734413417.0036788,-5.859375,484.375,443.359375,6.8359375,0.0
1734413417.0075748,12.6953125,449.21875,324.70703125,-12.20703125,0.0
1734413417.0114706,-24.4140625,-210.9375,-423.828125,-65.91796875,0.0
1734413417.0153666,-62.5,-668.45703125,-667.48046875,-62.5,0.0
1734413417.0192626,-57.12890625,189.453125,9.765625,-19.04296875,0.0
1734413417.0231586,-9.27734375,777.34375,439.94140625,16.6015625,0.0
1734413417.0270543,1.953125,500.9765625,348.14453125,-7.8125,0.0
1734413417.0310502,-23.4375,250.48828125,-102.05078125,-45.8984375,0.0
1734413417.0349462,-55.17578125,120.1171875,-522.94921875,-67.3828125,0.0
1734413417.038842,-52.24609375,131.34765625,-206.54296875,-37.59765625,0.0
1734413417.042738,-12.20703125,328.125,325.1953125,16.11328125,0.0
1734413417.046634,-14.16015625,559.5703125,436.03515625,3.90625,0.0
1734413417.05053,-39.0625,149.90234375,-112.79296875,-29.78515625,0.0
1734413417.054426,-65.91796875,-477.5390625,-681.640625,-60.546875,0.0
1734413417.058322,-67.3828125,-831.0546875,-532.71484375,-43.45703125,0.0
1734413417.0622177,-38.0859375,30.2734375,261.23046875,-1.46484375,0.0
1734413417.0661137,-21.484375,649.90234375,518.06640625,-5.859375,0.0
1734413417.0700097,-26.3671875,261.71875,-27.83203125,-55.6640625,0.0
1734413417.0739057,-43.45703125,-131.34765625,-557.12890625,-80.56640625,0.0
1734413417.0778966,-68.84765625,99.12109375,-273.92578125,-58.59375,0.0
1734413417.0817926,-54.6875,604.98046875,340.8203125,-17.08984375,0.0
1734413417.0856886,-21.97265625,644.04296875,429.19921875,0.0,0.0
1734413417.0895846,-31.25,408.203125,123.046875,-39.55078125,0.0
1734413417.0934806,-58.10546875,112.79296875,-442.87109375,-83.984375,0.0
1734413417.0973766,-72.265625,-135.7421875,-473.6328125,-64.94140625,0.0
1734413417.1012726,-47.36328125,-205.078125,67.87109375,-10.7421875,0.0
1734413417.1051686,-11.23046875,-72.75390625,377.9296875,8.30078125,0.0
1734413417.1090646,-11.71875,457.03125,245.1171875,-31.25,0.0
1734413417.1129606,-35.15625,180.17578125,-445.3125,-72.265625,0.0
1734413417.1168563,-61.5234375,-281.25,-541.9921875,-55.17578125,0.0
1734413417.1207523,-47.8515625,250.9765625,209.9609375,-6.8359375,0.0
1734413417.1247323,-9.765625,647.94921875,481.4453125,6.34765625,0.0
1734413417.1286283,-13.18359375,462.40234375,235.3515625,-23.4375,0.0
1734413417.1325243,-41.50390625,-103.515625,-437.98828125,-63.96484375,0.0
1734413417.1364202,-65.91796875,-83.0078125,-477.5390625,-67.3828125,0.0
1734413417.1403162,-49.8046875,375.9765625,184.5703125,-25.390625,0.0
1734413417.1442122,-8.7890625,419.43359375,433.59375,13.671875,0.0
1734413417.1481082,1.46484375,67.87109375,182.6171875,0.0,0.0
1734413417.1520042,-31.73828125,-170.8984375,-389.16015625,-59.5703125,0.0
1734413417.1559002,-64.94140625,56.15234375,-482.421875,-79.1015625,0.0
1734413417.1597962,-52.734375,126.46484375,-35.64453125,-32.2265625,0.0
1734413417.1636922,-11.23046875,-69.3359375,283.203125,7.32421875,0.0
1734413417.1675882,-0.9765625,478.515625,401.85546875,-10.7421875,0.0
1734413417.1716402,-27.34375,451.171875,-131.34765625,-66.89453125,0.0
1734413417.1755362,-55.6640625,-165.0390625,-592.7734375,-74.70703125,0.0
1734413417.1794322,-63.96484375,15.625,-123.046875,-32.71484375,0.0
1734413417.1833282,-36.62109375,527.34375,452.63671875,-4.8828125,0.0
1734413417.1872241,-11.71875,639.16015625,437.98828125,-11.71875,0.0
1734413417.1911201,-32.2265625,-34.1796875,-243.1640625,-51.7578125,0.0
1734413417.1950161,-60.05859375,-629.8828125,-661.62109375,-80.078125,0.0
1734413417.1989121,-65.4296875,46.38671875,-117.67578125,-51.7578125,0.0
1734413417.2028081,-37.59765625,713.37890625,452.63671875,-8.7890625,0.0
1734413417.2067041,-12.20703125,415.52734375,412.109375,-11.71875,0.0
1734413417.2106001,-26.3671875,47.8515625,-66.89453125,-57.12890625,0.0
1734413417.2144961,-49.31640625,90.8203125,-509.765625,-82.03125,0.0
1734413417.2185378,-58.10546875,105.95703125,-244.62890625,-49.31640625,0.0
1734413417.2224338,-34.1796875,245.60546875,301.7578125,-3.41796875,0.0
1734413417.2263298,-7.8125,673.33984375,479.98046875,-1.46484375,0.0
1734413417.230226,-19.53125,587.40234375,68.359375,-42.48046875,0.0
1734413417.234122,-55.6640625,-46.38671875,-575.68359375,-77.1484375,0.0
1734413417.238018,-65.4296875,-455.56640625,-429.19921875,-55.6640625,0.0
1734413417.241914,-49.31640625,-12.6953125,250.48828125,-11.23046875,0.0
1734413417.24581,-18.06640625,485.3515625,479.4921875,-4.8828125,0.0
1734413417.249706,-14.6484375,144.53125,39.55078125,-41.9921875,0.0
1734413417.2536023,-56.15234375,-755.37109375,-720.21484375,-73.73046875,0.0
1734413417.2574983,-74.70703125,-363.76953125,-414.0625,-67.3828125,0.0
1734413417.2613943,-48.33984375,583.49609375,345.21484375,-28.3203125,0.0
1734413417.265422,-9.765625,711.42578125,468.26171875,-11.23046875,0.0
1734413417.269318,-25.390625,484.375,261.23046875,-38.0859375,0.0
1734413417.273214,-63.96484375,225.5859375,-368.65234375,-67.87109375,0.0
1734413417.2771103,-66.40625,124.0234375,-402.34375,-76.171875,0.0
1734413417.2810063,-41.9921875,203.61328125,202.63671875,-20.99609375,0.0
1734413417.2849023,-14.6484375,292.48046875,422.36328125,20.5078125,0.0
1734413417.2887983,-17.578125,236.81640625,207.03125,-24.4140625,0.0
1734413417.2926946,-30.76171875,153.80859375,-350.09765625,-69.82421875,0.0
1734413417.2965906,-60.05859375,-351.5625,-631.34765625,-57.6171875,0.0
1734413417.3004866,-63.96484375,-491.2109375,-114.2578125,-9.27734375,0.0
1734413417.3043826,-23.4375,472.16796875,503.41796875,17.578125,0.0
1734413417.3082788,-4.8828125,721.19140625,358.88671875,-15.13671875,0.0
1734413417.3122966,-33.69140625,-0.48828125,-438.4765625,-47.36328125,0.0
1734413417.3161926,-77.63671875,-141.6015625,-563.4765625,-70.3125,0.0
1734413417.3200886,-71.2890625,355.95703125,89.35546875,-35.15625,0.0
1734413417.3239849,-32.2265625,718.26171875,472.16796875,16.11328125,0.0
1734413417.3278809,-15.13671875,392.08984375,274.90234375,-7.8125,0.0
1734413417.3317769,-35.64453125,-149.90234375,-339.35546875,-54.19921875,0.0
1734413417.3356729,-59.5703125,-361.81640625,-599.12109375,-66.40625,0.0
1734413417.339569,-62.01171875,-250.48828125,-166.015625,-40.52734375,0.0
1734413417.343465,-23.4375,-211.9140625,265.13671875,3.90625,0.0
1734413417.347361,-19.53125,393.06640625,434.08203125,-25.87890625,0.0
1734413417.3512573,-46.38671875,583.49609375,0.48828125,-72.75390625,0.0
1734413417.3551533,-54.19921875,35.64453125,-549.31640625,-63.96484375,0.0
1734413417.3591592,-48.33984375,3.90625,-184.08203125,-51.26953125,0.0
1734413417.3630552,-29.78515625,446.77734375,444.82421875,-18.06640625,0.0
1734413417.3669512,-11.71875,757.8125,470.21484375,-17.578125,0.0
1734413417.3708475,-26.85546875,312.5,-91.796875,-55.6640625,0.0
1734413417.3747435,-51.7578125,-133.30078125,-541.015625,-67.3828125,0.0
1734413417.3786397,-45.41015625,-165.0390625,-264.16015625,-38.0859375,0.0
1734413417.3825357,-19.04296875,315.91796875,358.88671875,1.953125,0.0
1734413417.3864317,-7.32421875,394.04296875,407.71484375,16.6015625,0.0
1734413417.390328,-20.01953125,-233.3984375,-169.43359375,-2.44140625,0.0
1734413417.394224,-44.921875,-45.8984375,-520.99609375,-60.05859375,0.0
1734413417.3981202,-62.98828125,143.5546875,-265.13671875,-64.453125,0.0
1734413417.4020162,-34.1796875,249.51171875,291.50390625,-11.23046875,0.0
1734413417.4060102,-3.41796875,674.31640625,510.25390625,-1.46484375,0.0
1734413417.4099064,-14.6484375,629.8828125,187.5,-31.73828125,0.0
1734413417.4138024,-40.0390625,77.63671875,-447.75390625,-62.98828125,0.0
1734413417.4176986,-52.24609375,-209.47265625,-339.84375,-49.31640625,0.0
1734413417.4215946,-50.29296875,116.69921875,256.34765625,-16.11328125,0.0
1734413417.4254909,-28.3203125,462.40234375,461.9140625,-6.34765625,0.0
1734413417.4293869,-20.01953125,147.94921875,130.859375,-28.80859375,0.0
1734413417.433283,-56.640625,-588.8671875,-540.0390625,-61.03515625,0.0
1734413417.437179,-80.56640625,-320.3125,-429.19921875,-80.078125,0.0
1734413417.441075,-56.15234375,531.25,312.98828125,-34.1796875,0.0
1734413417.4449713,-29.78515625,687.98828125,499.51171875,5.37109375,0.0
1734413417.4488673,-30.76171875,-48.828125,73.2421875,-25.390625,0.0
1734413417.4529371,-49.8046875,-39.55078125,-390.625,-70.3125,0.0
1734413417.4568334,-64.453125,125.9765625,-423.828125,-65.91796875,0.0
1734413417.4607296,-43.9453125,111.81640625,74.70703125,-17.08984375,0.0
1734413417.4646256,2.44140625,567.87109375,500.9765625,8.7890625,0.0
1734413417.4685218,9.27734375,689.94140625,362.3046875,-9.765625,0.0
1734413417.4724178,-33.69140625,33.69140625,-373.046875,-60.05859375,0.0
1734413417.476314,-61.5234375,-592.28515625,-670.41015625,-83.49609375,0.0
1734413417.48021,-54.6875,-624.0234375,-155.76171875,-36.1328125,0.0
1734413417.4841063,-35.15625,349.609375,493.65234375,-8.7890625,0.0
1734413417.4880023,-29.78515625,805.17578125,442.87109375,-25.390625,0.0
1734413417.4918985,-44.921875,29.296875,-382.32421875,-62.01171875,0.0
1734413417.4957948,-64.453125,-328.61328125,-612.79296875,-78.125,0.0
1734413417.4997709,-57.6171875,209.47265625,15.625,-38.0859375,0.0
1734413417.503667,-16.6015625,643.06640625,451.66015625,12.6953125,0.0
1734413417.5075634,-0.9765625,438.4765625,360.83984375,-1.46484375,0.0
1734413417.5114594,-28.3203125,244.140625,-84.47265625,-54.6875,0.0
1734413417.5153556,-60.546875,-32.71484375,-527.34375,-77.63671875,0.0
1734413417.5192518,-57.6171875,-277.83203125,-263.18359375,-54.6875,0.0
1734413417.5231478,-26.3671875,18.5546875,325.68359375,-13.18359375,0.0
1734413417.527044,-5.859375,292.48046875,429.6875,-12.6953125,0.0
1734413417.53094,-25.87890625,324.70703125,11.23046875,-61.03515625,0.0
1734413417.5348363,-56.15234375,-103.515625,-569.3359375,-78.61328125,0.0
1734413417.5387325,-52.24609375,-841.796875,-533.69140625,-37.109375,0.0
1734413417.5426285,-31.25,-104.00390625,274.4140625,4.8828125,0.0
1734413417.5466766,-10.25390625,815.91796875,537.59765625,-8.30078125,0.0
1734413417.5505726,-9.27734375,323.73046875,-36.62109375,-47.8515625,0.0
1734413417.5544689,-46.38671875,-194.82421875,-541.9921875,-82.51953125,0.0
1734413417.558365,-70.3125,-30.2734375,-299.31640625,-66.89453125,0.0
1734413417.5622613,-50.78125,528.80859375,365.234375,-8.7890625,0.0
1734413417.5661573,-20.01953125,342.28515625,411.1328125,-0.9765625,0.0
1734413417.5700536,-35.64453125,-238.28125,-40.0390625,-40.0390625,0.0
1734413417.5739498,-77.1484375,-85.44921875,-477.05078125,-67.87109375,0.0
1734413417.5778458,-83.984375,-14.16015625,-376.953125,-65.4296875,0.0
1734413417.581742,-48.828125,41.9921875,247.55859375,-19.53125,0.0
1734413417.5856383,-14.16015625,484.86328125,506.8359375,3.90625,0.0
1734413417.5895345,-21.97265625,556.640625,216.796875,-19.53125,0.0
1734413417.5935676,-43.9453125,23.92578125,-424.31640625,-63.96484375,0.0
1734413417.5974638,-62.5,-489.74609375,-564.94140625,-63.96484375,0.0
1734413417.6013598,-55.17578125,-163.57421875,87.40234375,-8.7890625,0.0
1734413417.605256,-20.99609375,608.3984375,525.390625,7.8125,0.0
1734413417.6091523,-17.08984375,510.25390625,277.83203125,-16.11328125,0.0
1734413417.6130486,-42.96875,-368.1640625,-446.2890625,-45.8984375,0.0
1734413417.6169448,-60.546875,-700.1953125,-604.4921875,-69.3359375,0.0
1734413417.620841,-44.43359375,-119.62890625,68.359375,-29.78515625,0.0
1734413417.624737,-4.8828125,437.01171875,486.328125,6.34765625,0.0
1734413417.6286333,-2.44140625,-273.4375,35.15625,2.44140625,0.0
1734413417.6325295,-41.015625,-343.75,-448.2421875,-52.24609375,0.0
1734413417.6364257,-48.33984375,-29.78515625,-466.30859375,-70.3125,0.0
1734413417.6404538,-44.921875,-0.9765625,18.5546875,-21.97265625,0.0
1734413417.6443498,-23.92578125,441.89453125,488.76953125,1.46484375,0.0
1734413417.648246,-7.8125,679.6875,435.546875,-18.5546875,0.0
1734413417.6521423,-14.6484375,270.5078125,-155.76171875,-58.59375,0.0
1734413417.6560385,-31.73828125,-405.2734375,-555.17578125,-53.7109375,0.0
1734413417.6599348,-33.69140625,-401.85546875,-138.18359375,-4.8828125,0.0
1734413417.663831,-8.30078125,109.86328125,393.5546875,19.53125,0.0
1734413417.6677272,1.953125,293.45703125,393.5546875,-0.48828125,0.0
1734413417.6716235,-15.13671875,-255.859375,-254.39453125,-37.109375,0.0
1734413417.6755197,-51.26953125,-763.671875,-653.80859375,-58.59375,0.0
1734413417.679416,-66.40625,-39.0625,-86.9140625,-28.3203125,0.0
1734413417.683312,-24.90234375,593.75,444.82421875,15.625,0.0
1734413417.6873302,2.9296875,392.578125,402.83203125,0.48828125,0.0
1734413417.6912265,-19.04296875,178.22265625,-26.85546875,-45.8984375,0.0
1734413417.6951227,-55.6640625,-17.08984375,-508.7890625,-77.63671875,0.0
1734413417.699019,-56.640625,-58.10546875,-252.9296875,-41.9921875,0.0
1734413417.7029152,-20.99609375,114.2578125,301.7578125,8.30078125,0.0
1734413417.7068114,-1.953125,178.22265625,402.83203125,-3.90625,0.0
1734413417.7107077,-11.71875,-68.84765625,-36.62109375,-37.59765625,0.0
1734413417.714604,-51.26953125,-553.22265625,-618.65234375,-65.4296875,0.0
1734413417.7185001,-65.4296875,-928.22265625,-570.80078125,-38.57421875,0.0
1734413417.7223961,-45.41015625,-104.4921875,243.65234375,1.46484375,0.0
1734413417.7262924,-18.5546875,730.46875,554.19921875,2.44140625,0.0
1734413417.7301886,-8.7890625,305.17578125,54.6875,-26.3671875,0.0
1734413417.7341945,-43.45703125,-262.20703125,-531.25,-52.24609375,0.0
1734413417.7380908,-62.98828125,-159.1796875,-348.6328125,-47.8515625,0.0
1734413417.741987,-40.52734375,365.234375,315.91796875,-1.953125,0.0
1734413417.7458832,-6.34765625,502.9296875,454.1015625,16.11328125,0.0
1734413417.7497795,0.9765625,236.81640625,170.8984375,-28.80859375,0.0
1734413417.7536757,-31.73828125,-391.6015625,-507.8125,-56.640625,0.0
1734413417.757572,-65.4296875,-590.8203125,-510.7421875,-54.19921875,0.0
1734413417.7614682,-46.875,-303.22265625,126.953125,-5.37109375,0.0
1734413417.7653644,-20.01953125,-173.33984375,397.4609375,24.90234375,0.0
1734413417.7692606,-22.94921875,329.1015625,297.8515625,-23.92578125,0.0
1734413417.773157,-41.015625,118.1640625,-367.67578125,-56.640625,0.0
1734413417.777053,-52.24609375,-563.4765625,-634.765625,-43.9453125,0.0
1734413417.7810514,-31.73828125,-180.6640625,57.6171875,-5.859375,0.0
1734413417.7849476,-9.765625,692.3828125,557.6171875,30.2734375,0.0
1734413417.7888439,-9.27734375,547.36328125,322.265625,-6.8359375,0.0
1734413417.79274,-37.59765625,-193.84765625,-368.65234375,-58.59375,0.0
1734413417.7966363,-73.73046875,-394.04296875,-572.75390625,-58.59375,0.0
1734413417.8005328,-64.94140625,-154.78515625,-33.69140625,-23.4375,0.0
1734413417.804429,-21.484375,106.93359375,409.1796875,23.92578125,0.0
1734413417.8083253,-0.48828125,-390.13671875,67.87109375,15.13671875,0.0
1734413417.8122215,-22.4609375,-379.39453125,-392.08984375,-28.80859375,0.0
1734413417.8161178,-53.22265625,-107.421875,-501.953125,-47.8515625,0.0
1734413417.820014,-44.43359375,-58.10546875,-66.89453125,-18.06640625,0.0
1734413417.8239102,-20.5078125,359.375,461.9140625,24.4140625,0.0
1734413417.8278925,-16.11328125,606.93359375,461.9140625,6.8359375,0.0
1734413417.8317888,-28.3203125,296.38671875,-84.9609375,-31.25,0.0
1734413417.835685,-41.9921875,-409.1796875,-612.79296875,-36.62109375,0.0
1734413417.8395815,-44.921875,-490.72265625,-232.421875,-7.32421875,0.0
1734413417.8434777,-22.4609375,325.1953125,433.59375,27.34375,0.0
1734413417.847374,0.0,389.16015625,431.640625,17.578125,0.0
1734413417.8512702,-11.23046875,-380.37109375,-206.54296875,-32.2265625,0.0
1734413417.8551664,-42.96875,-820.80078125,-655.76171875,-61.5234375,0.0
1734413417.8590627,-62.01171875,-190.91796875,-173.33984375,-27.34375,0.0
1734413417.8629591,-33.203125,460.9375,409.1796875,6.8359375,0.0
1734413417.8668554,6.34765625,329.58984375,434.08203125,-3.41796875,0.0
1734413417.8707516,-6.34765625,117.67578125,45.8984375,-45.41015625,0.0
1734413417.8747299,-37.109375,-104.98046875,-497.0703125,-73.2421875,0.0
1734413417.878626,-50.29296875,-200.68359375,-316.89453125,-52.734375,0.0
1734413417.8825223,-38.57421875,5.859375,271.484375,0.0,0.0
1734413417.8864186,-5.37109375,486.328125,506.8359375,13.18359375,0.0
1734413417.890315,1.953125,349.609375,121.09375,-27.34375,0.0
1734413417.8942113,-26.3671875,-533.203125,-586.9140625,-65.4296875,0.0
1734413417.8981075,-48.33984375,-803.22265625,-478.515625,-48.828125,0.0
1734413417.9020038,-29.296875,-254.8828125,219.23828125,-5.859375,0.0
1734413417.9059002,1.46484375,385.25390625,514.16015625,1.953125,0.0
1734413417.9097965,-3.41796875,240.72265625,150.390625,-26.3671875,0.0
1734413417.9136927,-23.4375,-771.484375,-637.6953125,-65.91796875,0.0
1734413417.917589,-50.29296875,-618.1640625,-460.9375,-64.453125,0.0
1734413417.9216342,-45.8984375,253.90625,291.9921875,-19.53125,0.0
1734413417.9255307,-6.34765625,455.56640625,481.93359375,1.953125,0.0
1734413417.929427,-13.18359375,243.1640625,259.765625,-27.83203125,0.0
1734413417.9333231,-42.96875,-83.984375,-393.06640625,-69.82421875,0.0
1734413417.9372196,-57.12890625,-208.49609375,-493.65234375,-63.96484375,0.0
1734413417.9411159,-34.66796875,-267.578125,7.32421875,-6.8359375,0.0
1734413417.945012,-5.37109375,-110.83984375,407.71484375,17.578125,0.0
1734413417.9489086,-2.44140625,385.25390625,367.1875,-38.57421875,0.0
1734413417.9528048,-19.53125,70.80078125,-339.84375,-72.265625,0.0
1734413417.956701,-37.109375,-633.30078125,-660.64453125,-66.89453125,0.0
1734413417.9605973,-44.43359375,-283.203125,6.34765625,-32.71484375,0.0
1734413417.9644938,-14.6484375,591.796875,543.9453125,-0.48828125,0.0
1734413417.9685311,-9.765625,554.6875,380.37109375,-23.4375,0.0
1734413417.9724274,-36.62109375,-220.21484375,-388.671875,-62.01171875,0.0
1734413417.9763238,-59.08203125,-427.734375,-604.00390625,-68.84765625,0.0
1734413417.98022,-57.6171875,69.3359375,9.27734375,-37.109375,0.0
1734413417.9841163,-37.59765625,369.140625,436.03515625,-6.34765625,0.0
1734413417.9880128,-19.53125,19.53125,300.29296875,-19.04296875,0.0
1734413417.991909,-26.3671875,-466.796875,-278.80859375,-63.96484375,0.0
1734413417.9958055,-62.5,-519.53125,-577.63671875,-86.9140625,0.0
1734413417.9997017,-63.4765625,-233.3984375,-217.28515625,-60.05859375,0.0
1734413418.003598,-40.52734375,-459.9609375,195.3125,-10.7421875,0.0
1734413418.0074944,-26.85546875,52.734375,428.7109375,-14.16015625,0.0
1734413418.0113907,-34.66796875,294.43359375,-17.578125,-64.94140625,0.0
1734413418.0154152,-51.26953125,-432.6171875,-633.30078125,-97.16796875,0.0
1734413418.0193117,-62.5,-448.2421875,-288.57421875,-63.96484375,0.0
1734413418.023208,-48.828125,312.98828125,412.59765625,-22.94921875,0.0
1734413418.0271044,-18.5546875,642.578125,487.3046875,-19.04296875,0.0
1734413418.0310006,-19.04296875,73.73046875,-58.59375,-37.59765625,0.0
1734413418.034897,-50.78125,-711.42578125,-629.8828125,-72.265625,0.0
1734413418.0387933,-61.5234375,-581.0546875,-362.79296875,-56.15234375,0.0
1734413418.0426898,-27.34375,307.6171875,354.4921875,-10.7421875,0.0
1734413418.046586,1.46484375,160.64453125,387.20703125,2.44140625,0.0
1734413418.0504825,-16.11328125,-526.85546875,-137.20703125,-28.3203125,0.0
1734413418.0543787,-53.7109375,-337.890625,-539.0625,-63.96484375,0.0
1734413418.058275,-65.91796875,-210.9375,-383.30078125,-53.22265625,0.0
1734413418.0623658,-37.59765625,-84.9609375,180.17578125,-6.8359375,0.0
1734413418.0662622,0.9765625,433.59375,489.2578125,11.23046875,0.0
1734413418.0701585,-14.16015625,457.03125,213.8671875,-18.06640625,0.0
1734413418.074055,-38.57421875,-211.9140625,-484.375,-52.24609375,0.0
1734413418.0779512,-42.96875,-716.796875,-539.55078125,-41.9921875,0.0
1734413418.0818477,-40.52734375,-340.33203125,91.796875,5.859375,0.0
1734413418.0857441,-19.53125,188.96484375,472.65625,14.16015625,0.0
1734413418.0896404,-19.04296875,-10.25390625,182.6171875,-25.390625,0.0
1734413418.0935369,-36.62109375,-790.52734375,-655.2734375,-55.6640625,0.0
1734413418.0974333,-58.10546875,-588.8671875,-558.59375,-68.359375,0.0
1734413418.1013296,-55.6640625,200.68359375,186.5234375,-23.92578125,0.0
1734413418.105226,-26.85546875,437.5,469.7265625,16.11328125,0.0
1734413418.109229,-14.16015625,283.203125,317.87109375,-7.8125,0.0
1734413418.1131253,-39.55078125,-14.6484375,-358.3984375,-62.5,0.0
1734413418.1170218,-58.10546875,-207.51953125,-544.921875,-69.82421875,0.0
1734413418.1209183,-39.55078125,-109.86328125,-21.484375,-16.11328125,0.0
1734413418.1248147,-16.11328125,298.33984375,452.1484375,15.13671875,0.0
1734413418.128711,-7.32421875,225.5859375,343.26171875,-9.27734375,0.0
1734413418.1326075,-13.671875,-425.29296875,-416.015625,-44.43359375,0.0
1734413418.136504,-39.55078125,-797.8515625,-701.171875,-60.05859375,0.0
1734413418.1404002,-64.453125,-307.6171875,-93.75,-32.71484375,0.0
1734413418.1442966,-33.69140625,502.44140625,480.46875,0.48828125,0.0
1734413418.1481931,-2.9296875,622.0703125,449.70703125,-25.87890625,0.0
1734413418.1520894,-27.34375,-362.79296875,-359.375,-66.89453125,0.0
1734413418.1560807,-57.6171875,-870.1171875,-713.8671875,-82.51953125,0.0
1734413418.1599772,-63.4765625,-83.984375,-93.75,-56.640625,0.0
1734413418.1638737,-25.390625,405.2734375,386.71875,-7.32421875,0.0
1734413418.16777,0.0,261.71875,345.21484375,-6.34765625,0.0
1734413418.1716664,-28.80859375,-88.37890625,-137.20703125,-45.41015625,0.0
1734413418.1755629,-56.640625,-542.48046875,-621.09375,-67.87109375,0.0
1734413418.1794593,-53.7109375,-647.94921875,-389.16015625,-40.0390625,0.0
1734413418.1833556,-25.87890625,-272.4609375,200.68359375,1.46484375,0.0
1734413418.187252,-8.7890625,401.3671875,468.26171875,-8.30078125,0.0
1734413418.1911485,-18.06640625,313.96484375,37.109375,-43.9453125,0.0
1734413418.1950448,-41.9921875,-441.40625,-644.53125,-77.1484375,0.0
1734413418.1989412,-55.17578125,-808.59375,-534.66796875,-55.6640625,0.0
1734413418.2029285,-40.0390625,115.234375,317.3828125,-10.25390625,0.0
1734413418.206825,-20.01953125,700.68359375,532.2265625,-10.25390625,0.0
1734413418.2107215,-29.296875,119.62890625,-9.765625,-45.41015625,0.0
1734413418.2146177,-57.12890625,-349.609375,-541.015625,-74.21875,0.0
1734413418.2185142,-77.1484375,-239.2578125,-378.41796875,-69.3359375,0.0
1734413418.2224107,-58.10546875,42.48046875,245.60546875,-13.671875,0.0
1734413418.2263072,-26.85546875,11.23046875,392.08984375,5.859375,0.0
1734413418.2302036,-24.4140625,-496.58203125,-65.91796875,-43.9453125,0.0
1734413418.2340999,-57.6171875,-345.703125,-500.0,-82.51953125,0.0
1734413418.2379963,-89.84375,-171.38671875,-434.5703125,-62.5,0.0
1734413418.2418928,-61.03515625,-97.65625,75.1953125,-22.4609375,0.0
1734413418.2457893,-25.390625,427.734375,483.88671875,-9.765625,0.0
1734413418.2497628,0.0,537.59765625,284.1796875,-36.62109375,0.0
1734413418.2536592,0.0,-195.3125,-492.67578125,-76.66015625,0.0
1734413418.2575557,0.0,-680.17578125,-608.88671875,-56.640625,0.0
1734413418.2614522,0.0,-16.11328125,115.72265625,-18.06640625,0.0
1734413418.2653484,0.0,555.6640625,487.3046875,-13.671875,0.0
1734413418.269245,0.0,48.828125,174.8046875,-34.1796875,0.0
1734413418.2731414,0.0,-735.3515625,-507.32421875,-65.91796875,0.0
1734413418.2770379,0.0,-789.0625,-630.859375,-83.0078125,0.0
1734413418.2809343,0.0,16.11328125,47.36328125,-35.15625,0.0
1734413418.2848308,0.0,416.50390625,443.359375,17.578125,0.0
1734413418.288727,0.0,-264.6484375,150.87890625,-2.44140625,0.0
1734413418.2926235,0.0,-292.96875,-297.8515625,-66.89453125,0.0
1734413418.296666,-45.41015625,-149.90234375,-541.50390625,-92.28515625,0.0
1734413418.3005624,-29.78515625,-199.70703125,-141.11328125,-53.22265625,0.0
1734413418.3044589,6.8359375,119.140625,431.15234375,-7.32421875,0.0
1734413418.3083553,2.44140625,508.7890625,454.58984375,-22.4609375,0.0
1734413418.3122518,-29.296875,110.83984375,-166.9921875,-76.66015625,0.0
1734413418.3161483,-50.78125,-683.59375,-682.6171875,-90.8203125,0.0
1734413418.3200448,-55.17578125,-667.96875,-304.6875,-52.734375,0.0
1734413418.3239412,-38.57421875,238.76953125,390.625,-11.71875,0.0
1734413418.3278377,-8.30078125,612.79296875,456.54296875,-12.6953125,0.0
1734413418.331734,-17.578125,-241.69921875,-258.7890625,-52.24609375,0.0
1734413418.3356304,-46.875,-757.32421875,-677.734375,-74.70703125,0.0
1734413418.339527,-55.17578125,-242.67578125,-223.6328125,-51.7578125,0.0
1734413418.343562,-28.80859375,333.984375,346.6796875,-11.23046875,0.0
1734413418.3474584,-0.48828125,258.30078125,368.1640625,-10.25390625,0.0
1734413418.3513548,-27.83203125,40.0390625,-50.78125,-43.45703125,0.0
1734413418.3552513,-56.15234375,-128.41796875,-531.73828125,-74.70703125,0.0
1734413418.3591478,-51.7578125,-226.07421875,-354.98046875,-49.8046875,0.0
1734413418.3630443,-33.69140625,-114.2578125,188.4765625,3.90625,0.0
1734413418.3669407,-10.25390625,88.37890625,412.109375,12.20703125,0.0
1734413418.3708372,-20.01953125,-95.703125,16.11328125,-23.92578125,0.0
1734413418.3747337,-49.8046875,-551.26953125,-626.953125,-54.19921875,0.0
1734413418.3786302,-56.640625,-910.15625,-629.39453125,-48.828125,0.0
1734413418.3825266,-43.45703125,-75.1953125,224.609375,-20.5078125,0.0
1734413418.386423,-25.87890625,751.953125,567.3828125,-11.23046875,0.0
1734413418.3904433,-18.06640625,254.39453125,62.01171875,-29.296875,0.0
1734413418.3943398,-54.6875,-289.0625,-511.23046875,-79.1015625,0.0
1734413418.3982363,-78.61328125,-147.4609375,-374.51171875,-87.890625,0.0
1734413418.4021327,-51.7578125,339.84375,276.85546875,-30.76171875,0.0
1734413418.4060292,-11.71875,417.48046875,446.77734375,-9.27734375,0.0
1734413418.4099257,-4.8828125,-165.52734375,120.1171875,-43.45703125,0.0
1734413418.4138222,-33.69140625,-408.69140625,-413.57421875,-72.75390625,0.0
1734413418.4177186,-57.12890625,-127.44140625,-451.66015625,-80.078125,0.0
1734413418.4216154,-55.17578125,-205.078125,20.99609375,-24.4140625,0.0
1734413418.4255118,-19.53125,-194.82421875,414.0625,19.53125,0.0
1734413418.4294083,-18.5546875,390.13671875,368.1640625,-22.4609375,0.0
1734413418.4333048,-47.8515625,-122.55859375,-406.73828125,-65.4296875,0.0
1734413418.4373205,-62.5,-669.921875,-660.64453125,-62.98828125,0.0
1734413418.441217,-62.01171875,-24.90234375,65.4296875,-20.01953125,0.0
1734413418.4451134,-29.296875,665.52734375,537.109375,1.46484375,0.0
1734413418.44901,-3.41796875,532.71484375,375.0,-23.4375,0.0
1734413418.4529064,-23.4375,-225.09765625,-290.52734375,-60.546875,0.0
1734413418.456803,-60.05859375,-606.4453125,-610.3515625,-83.0078125,0.0
1734413418.4606996,-66.89453125,-340.33203125,-147.4609375,-57.12890625,0.0
1734413418.464596,-28.3203125,84.47265625,366.69921875,-15.625,0.0
1734413418.4684925,0.48828125,-333.0078125,224.12109375,2.9296875,0.0
1734413418.472389,-30.76171875,-333.984375,-150.87890625,-48.828125,0.0
1734413418.4762855,-62.98828125,-66.89453125,-484.375,-78.61328125,0.0
1734413418.4801822,-62.98828125,-133.7890625,-198.73046875,-47.36328125,0.0
1734413418.484188,-29.78515625,275.390625,428.7109375,-4.8828125,0.0
1734413418.4880846,-4.8828125,646.484375,510.7421875,-2.9296875,0.0
1734413418.491981,-17.578125,168.9453125,-73.2421875,-49.31640625,0.0
1734413418.4958777,-44.43359375,-497.0703125,-614.2578125,-76.66015625,0.0
1734413418.4997742,-55.17578125,-301.7578125,-213.37890625,-52.24609375,0.0
1734413418.5036707,-34.66796875,98.6328125,362.3046875,0.0,0.0
1734413418.5075672,-14.6484375,248.046875,429.6875,4.39453125,0.0
1734413418.5114639,-15.13671875,-188.4765625,-48.33984375,-43.45703125,0.0
1734413418.5153604,-52.734375,-731.4453125,-586.42578125,-74.21875,0.0
1734413418.5192568,-79.1015625,-163.0859375,-221.6796875,-57.12890625,0.0
1734413418.5231533,-39.55078125,450.1953125,372.55859375,-6.8359375,0.0
1734413418.5270498,5.37109375,385.25390625,451.66015625,0.48828125,0.0
1734413418.5310454,-1.46484375,263.18359375,196.2890625,-40.52734375,0.0
1734413418.5349422,-39.55078125,87.890625,-369.140625,-63.96484375,0.0
1734413418.5388386,-58.10546875,-121.09375,-344.7265625,-45.41015625,0.0
1734413418.542735,-42.48046875,51.26953125,237.3046875,-15.13671875,0.0
1734413418.5466316,-2.44140625,493.1640625,500.9765625,-3.90625,0.0
1734413418.5505283,-12.6953125,202.1484375,200.1953125,-21.97265625,0.0
1734413418.5544248,-41.50390625,-466.796875,-501.46484375,-56.15234375,0.0
1734413418.5583212,-44.921875,-938.96484375,-694.3359375,-43.45703125,0.0
1734413418.562218,-41.9921875,-349.609375,63.96484375,-0.48828125,0.0
1734413418.5661144,-16.11328125,611.81640625,551.26953125,20.01953125,0.0
1734413418.570011,-0.9765625,383.7890625,248.046875,-5.859375,0.0
1734413418.5739076,-16.11328125,-187.5,-396.484375,-52.734375,0.0
1734413418.577893,-41.9921875,-135.7421875,-405.2734375,-53.7109375,0.0
1734413418.5817897,-36.1328125,297.36328125,249.51171875,-7.8125,0.0
1734413418.5856862,-7.32421875,477.5390625,471.19140625,5.859375,0.0
1734413418.5895827,-10.7421875,349.12109375,345.703125,-18.06640625,0.0
1734413418.5934794,-32.71484375,80.56640625,-180.17578125,-42.96875,0.0
1734413418.5973759,-64.453125,-314.453125,-508.7890625,-62.98828125,0.0
1734413418.6012726,-62.01171875,-483.3984375,-106.4453125,-28.80859375,0.0
1734413418.605169,-20.99609375,-264.16015625,381.8359375,21.484375,0.0
1734413418.6090655,-15.625,411.62109375,438.4765625,-12.6953125,0.0
1734413418.6129622,-42.96875,-12.6953125,-267.08984375,-68.84765625,0.0
1734413418.6168587,-81.0546875,-587.890625,-645.01953125,-83.984375,0.0
1734413418.6207552,-79.1015625,-51.7578125,8.30078125,-46.38671875,0.0
1734413418.624733,0.0,661.1328125,543.45703125,-20.5078125,0.0
1734413418.6286297,0.0,609.375,438.96484375,-32.71484375,0.0
1734413418.6325262,0.0,-78.61328125,-200.1953125,-46.38671875,0.0
1734413418.6364226,0.0,-215.33203125,-532.2265625,-75.68359375,0.0
1734413418.6403193,0.0,28.3203125,-99.609375,-59.08203125,0.0
1734413418.6442158,0.0,120.60546875,354.00390625,-11.23046875,0.0
1734413418.6481125,0.0,-46.875,320.80078125,-17.578125,0.0
1734413418.652009,0.0,-184.5703125,-98.6328125,-52.24609375,0.0
1734413418.6559057,0.0,-63.4765625,-467.7734375,-58.10546875,0.0
1734413418.6598022,0.0,-143.06640625,-273.4375,-29.78515625,0.0
1734413418.6636987,0.0,-344.23828125,183.59375,1.953125,0.0
1734413418.6675954,0.0,301.26953125,471.19140625,-6.34765625,0.0
1734413418.6716368,-15.625,177.734375,7.8125,-56.640625,0.0
1734413418.6755333,-56.640625,-479.4921875,-585.9375,-86.9140625,0.0
1734413418.67943,-85.44921875,-306.640625,-298.828125,-68.359375,0.0
1734413418.6833265,-64.94140625,362.79296875,360.3515625,-28.80859375,0.0
1734413418.6872232,-8.30078125,714.84375,520.01953125,-26.85546875,0.0
1734413418.6911197,1.46484375,15.625,7.32421875,-66.89453125,0.0
1734413418.6950164,-35.15625,-750.9765625,-615.72265625,-95.21484375,0.0
1734413418.6989129,-64.94140625,-316.40625,-371.58203125,-98.6328125,0.0
1734413418.7028096,-47.8515625,366.69921875,309.08203125,-45.8984375,0.0
1734413418.706706,-9.765625,252.44140625,454.1015625,-19.53125,0.0
1734413418.7106028,-12.6953125,8.7890625,168.45703125,-65.4296875,0.0
1734413418.7144992,-39.0625,26.3671875,-384.765625,-99.609375,0.0
1734413418.7185323,-58.59375,-152.83203125,-473.6328125,-72.75390625,0.0
1734413418.7224288,-62.5,-65.91796875,66.89453125,-26.85546875,0.0
1734413418.7263255,-31.73828125,494.62890625,483.88671875,-20.99609375,0.0
1734413418.7302222,-9.27734375,399.4140625,225.5859375,-34.66796875,0.0
1734413418.7341187,-34.1796875,-250.9765625,-457.03125,-65.4296875,0.0
1734413418.7380154,-66.89453125,-687.98828125,-605.46875,-78.61328125,0.0
1734413418.741912,-62.5,-394.04296875,-45.8984375,-30.76171875,0.0
1734413418.7458086,-22.4609375,418.45703125,503.41796875,-0.48828125,0.0
1734413418.749705,-1.953125,433.10546875,329.1015625,-29.296875,0.0
1734413418.7536018,-18.06640625,-663.57421875,-562.98828125,-48.828125,0.0
1734413418.7574985,-52.734375,-615.72265625,-615.72265625,-68.359375,0.0
1734413418.761395,-49.31640625,97.16796875,33.69140625,-49.31640625,0.0
1734413418.7654176,-21.97265625,404.78515625,426.26953125,-5.859375,0.0
1734413418.7693143,-13.18359375,384.765625,403.3203125,-18.5546875,0.0
1734413418.773211,-23.92578125,143.06640625,-142.08984375,-69.3359375,0.0
1734413418.7771075,-51.7578125,-66.40625,-506.34765625,-84.9609375,0.0
1734413418.7810042,-46.875,-166.9921875,-224.609375,-41.015625,0.0
1734413418.784901,0.9765625,-82.03125,297.36328125,4.8828125,0.0
1734413418.7887974,9.765625,141.11328125,395.5078125,-8.30078125,0.0
1734413418.792694,-21.484375,47.8515625,-131.34765625,-55.17578125,0.0
1734413418.7965908,-34.66796875,-500.9765625,-663.0859375,-60.05859375,0.0
1734413418.8004873,-53.22265625,-609.86328125,-266.6015625,-24.90234375,0.0
1734413418.804384,-36.62109375,449.21875,463.37890625,9.27734375,0.0
1734413418.8082805,3.41796875,731.4453125,463.37890625,-4.8828125,0.0
1734413418.812294,-12.20703125,40.52734375,-151.3671875,-60.05859375,0.0
1734413418.8161907,-58.59375,-222.16796875,-592.28515625,-83.0078125,0.0
1734413418.8200872,-68.84765625,53.7109375,-216.30859375,-54.19921875,0.0
1734413418.823984,-23.92578125,392.578125,332.51953125,0.0,0.0
1734413418.8278806,13.18359375,196.77734375,354.00390625,16.6015625,0.0
1734413418.8317773,-2.44140625,-157.71484375,-85.44921875,-21.97265625,0.0
1734413418.8356738,-31.73828125,-443.84765625,-583.49609375,-62.98828125,0.0
1734413418.8395705,-41.015625,-549.8046875,-433.59375,-42.96875,0.0
1734413418.8434672,-17.578125,-535.64453125,16.11328125,18.06640625,0.0
1734413418.8473637,2.9296875,78.125,401.85546875,1.46484375,0.0
1734413418.8512604,-8.7890625,218.75,77.1484375,-43.45703125,0.0
1734413418.8551571,-38.57421875,-248.53515625,-603.515625,-67.87109375,0.0
1734413418.8591628,-60.05859375,-268.5546875,-418.45703125,-59.5703125,0.0
1734413418.8630595,-35.64453125,328.61328125,295.41015625,-8.7890625,0.0
1734413418.8669562,3.90625,724.12109375,496.58203125,6.34765625,0.0
1734413418.8708527,6.34765625,352.5390625,97.16796875,-16.6015625,0.0
1734413418.8747494,-26.85546875,-165.0390625,-494.62890625,-42.48046875,0.0
1734413418.8786461,-42.96875,-477.05078125,-566.40625,-43.9453125,0.0
1734413418.8825428,-36.62109375,-123.046875,15.625,-9.27734375,0.0
1734413418.8864393,-9.27734375,45.8984375,364.2578125,16.6015625,0.0
1734413418.890336,8.7890625,-359.375,84.47265625,-1.46484375,0.0
1734413418.8942327,-18.5546875,-92.28515625,-402.83203125,-64.94140625,0.0
1734413418.8981295,-60.05859375,-61.5234375,-530.76171875,-84.47265625,0.0
1734413418.9020262,-49.8046875,-227.05078125,-234.375,-28.3203125,0.0
1734413418.9060264,-18.5546875,242.67578125,311.5234375,3.90625,0.0
1734413418.909923,-14.16015625,372.0703125,284.66796875,-30.2734375,0.0
1734413418.9138198,-15.625,-87.890625,-430.17578125,-58.10546875,0.0
1734413418.9177163,-42.96875,-483.88671875,-635.25390625,-62.01171875,0.0
1734413418.921613,-53.7109375,-163.57421875,-126.46484375,-38.0859375,0.0
1734413418.9255097,-23.4375,219.23828125,357.421875,-6.8359375,0.0
1734413418.9294064,-3.90625,52.734375,242.67578125,-16.11328125,0.0
1734413418.933303,-27.83203125,-712.40234375,-579.58984375,-60.05859375,0.0
1734413418.9371998,-73.2421875,-597.16796875,-704.1015625,-85.44921875,0.0
1734413418.9410965,-72.75390625,170.8984375,-104.98046875,-41.015625,0.0
1734413418.944993,-26.3671875,408.203125,348.14453125,6.34765625,0.0
1734413418.9488897,1.953125,365.72265625,411.62109375,-16.6015625,0.0
1734413418.9528756,-19.53125,251.46484375,-125.9765625,-65.91796875,0.0
1734413418.9567723,-62.01171875,-35.64453125,-589.35546875,-96.19140625,0.0
1734413418.960669,-61.03515625,-168.45703125,-323.2421875,-61.5234375,0.0
1734413418.9645658,-35.15625,236.328125,298.828125,-12.20703125,0.0
1734413418.9684622,-25.87890625,427.24609375,381.34765625,-24.90234375,0.0
1734413418.972359,-30.2734375,-70.80078125,-193.359375,-71.77734375,0.0
1734413418.9762557,-55.17578125,-694.82421875,-736.81640625,-73.73046875,0.0
1734413418.9801524,-67.87109375,-698.73046875,-409.66796875,-56.640625,0.0
1734413418.984049,-51.7578125,331.0546875,370.1171875,-30.2734375,0.0
1734413418.9879458,-21.484375,755.859375,484.86328125,-12.20703125,0.0
1734413418.9918425,-30.2734375,104.00390625,-105.95703125,-38.0859375,0.0
1734413418.9957392,-53.22265625,-259.27734375,-600.09765625,-82.03125,0.0
1734413418.99971,-64.94140625,9.27734375,-304.19921875,-70.3125,0.0
1734413419.0036068,-41.50390625,353.02734375,285.15625,-22.94921875,0.0
1734413419.0075035,-17.08984375,321.2890625,405.2734375,-14.16015625,0.0
1734413419.0114002,-25.87890625,269.04296875,103.02734375,-43.9453125,0.0
1734413419.015297,-51.26953125,-33.203125,-460.9375,-79.1015625,0.0
1734413419.0191936,-74.70703125,-489.74609375,-510.25390625,-71.2890625,0.0
1734413419.0230904,-61.5234375,-373.53515625,-9.27734375,-27.83203125,0.0
1734413419.026987,-28.80859375,115.234375,395.01953125,-7.8125,0.0
1734413419.0308838,-27.34375,315.4296875,225.5859375,-43.45703125,0.0
1734413419.0347805,-56.15234375,-84.47265625,-488.76953125,-82.03125,0.0
1734413419.0386772,-62.01171875,-752.44140625,-640.625,-52.734375,0.0
1734413419.042574,-46.875,-33.69140625,190.91796875,-22.4609375,0.0
1734413419.0466158,-18.06640625,762.6953125,549.31640625,-5.859375,0.0
1734413419.0505126,-10.7421875,449.70703125,234.375,-13.18359375,0.0
1734413419.0544093,-30.2734375,-83.49609375,-398.4375,-59.08203125,0.0
1734413419.058306,-49.8046875,-133.7890625,-450.68359375,-84.9609375,0.0
1734413419.0622027,-39.55078125,260.25390625,169.921875,-39.55078125,0.0
1734413419.0660994,-3.41796875,210.44921875,419.43359375,-2.9296875,0.0
1734413419.069996,-4.8828125,-80.56640625,247.55859375,-27.34375,0.0
1734413419.0738928,-35.15625,15.13671875,-277.83203125,-61.03515625,0.0
1734413419.0777895,-60.546875,-39.55078125,-483.88671875,-77.1484375,0.0
1734413419.0816863,-51.7578125,-173.828125,-87.890625,-32.2265625,0.0
1734413419.085583,-20.99609375,121.09375,381.34765625,-5.859375,0.0
1734413419.0894797,-5.859375,408.69140625,429.6875,-28.80859375,0.0
1734413419.0935135,-21.484375,124.51171875,-147.4609375,-65.4296875,0.0
1734413419.0974102,-41.50390625,-435.546875,-601.5625,-77.1484375,0.0
1734413419.101307,-36.1328125,-133.30078125,-70.80078125,-26.85546875,0.0
1734413419.1052036,-12.20703125,569.82421875,519.04296875,19.04296875,0.0
1734413419.1091003,-6.8359375,567.87109375,444.82421875,-6.34765625,0.0
1734413419.112997,-31.73828125,-194.3359375,-235.83984375,-56.15234375,0.0
1734413419.1168938,-49.31640625,-682.6171875,-659.1796875,-65.4296875,0.0
1734413419.1207907,-59.08203125,-312.98828125,-165.52734375,-23.4375,0.0
1734413419.1246874,-43.45703125,249.51171875,419.921875,7.8125,0.0
1734413419.1285841,-18.06640625,211.42578125,419.43359375,3.90625,0.0
1734413419.1324809,-25.390625,146.484375,10.7421875,-34.66796875,0.0
1734413419.1363776,-62.98828125,19.53125,-444.3359375,-58.10546875,0.0
1734413419.1403933,-82.03125,-204.1015625,-285.15625,-34.66796875,0.0
1734413419.14429,-41.50390625,-354.4921875,189.94140625,23.4375,0.0
1734413419.148187,-18.5546875,179.19921875,466.796875,17.578125,0.0
1734413419.1520836,-20.01953125,374.0234375,158.203125,-28.3203125,0.0
1734413419.1559803,-46.38671875,-194.82421875,-477.5390625,-41.9921875,0.0
1734413419.159877,-66.40625,-515.625,-349.609375,-26.3671875,0.0
1734413419.1637738,-51.7578125,63.4765625,357.421875,0.9765625,0.0
1734413419.1676707,-22.4609375,760.7421875,584.47265625,3.41796875,0.0
1734413419.1715674,-6.34765625,130.859375,42.48046875,-24.90234375,0.0
1734413419.1754642,-39.0625,-682.12890625,-535.64453125,-60.05859375,0.0
1734413419.1793609,-83.0078125,-164.0625,-264.16015625,-69.3359375,0.0
1734413419.1832576,-62.98828125,142.08984375,286.1328125,-35.64453125,0.0
1734413419.187272,-20.99609375,236.328125,475.5859375,-7.32421875,0.0
1734413419.1911688,-15.13671875,411.62109375,292.96875,-34.66796875,0.0
1734413419.1950655,-47.8515625,174.8046875,-326.171875,-71.77734375,0.0
1734413419.1989622,-68.359375,-74.70703125,-369.62890625,-70.3125,0.0
1734413419.2028592,-49.8046875,-69.3359375,199.21875,-25.87890625,0.0
1734413419.2067559,-20.01953125,244.62890625,459.9609375,0.0,0.0
1734413419.2106526,-13.18359375,267.578125,302.734375,-17.578125,0.0
1734413419.2145493,-24.90234375,-297.8515625,-413.0859375,-56.15234375,0.0
1734413419.2184463,-46.38671875,-866.69921875,-655.76171875,-46.875,0.0
1734413419.222343,-57.6171875,-159.66796875,185.546875,-10.7421875,0.0
1734413419.2262397,-19.53125,764.16015625,598.14453125,11.71875,0.0
1734413419.2301364,8.30078125,590.33203125,364.2578125,6.8359375,0.0
1734413419.2341368,-22.4609375,38.57421875,-270.99609375,-37.109375,0.0
1734413419.2380335,-49.8046875,-55.6640625,-417.96875,-45.8984375,0.0
1734413419.2419302,-40.52734375,250.0,177.24609375,5.859375,0.0
1734413419.2458272,-10.7421875,477.5390625,487.3046875,20.5078125,0.0
1734413419.249724,-0.9765625,475.09765625,427.734375,-12.20703125,0.0
1734413419.2536206,-11.23046875,-61.5234375,-177.24609375,-46.38671875,0.0
1734413419.2575176,-31.73828125,-453.61328125,-546.38671875,-47.8515625,0.0
1734413419.2614143,-52.24609375,-404.78515625,-125.48828125,3.90625,0.0
1734413419.265311,-22.94921875,-394.04296875,358.3984375,18.5546875,0.0
1734413419.269208,2.9296875,306.640625,513.671875,-13.18359375,0.0
1734413419.2731047,-23.4375,369.140625,17.578125,-48.33984375,0.0
1734413419.2770014,-39.55078125,-309.5703125,-543.9453125,-61.5234375,0.0
1734413419.2809923,-54.19921875,-91.30859375,-74.70703125,-29.78515625,0.0
1734413419.2848892,-36.1328125,598.14453125,531.73828125,3.90625,0.0
1734413419.288786,0.9765625,660.64453125,482.421875,-2.9296875,0.0
1734413419.2926826,-10.7421875,44.921875,-82.03125,-33.69140625,0.0
1734413419.2965796,-46.875,-243.65234375,-520.01953125,-53.22265625,0.0
1734413419.3004763,-69.3359375,-252.9296875,-215.8203125,-38.57421875,0.0
1734413419.304373,-50.29296875,-16.11328125,328.125,6.8359375,0.0
1734413419.30827,-10.7421875,-251.46484375,316.40625,7.32421875,0.0
1734413419.3121667,-26.85546875,-162.109375,118.1640625,-43.45703125,0.0
1734413419.3160636,-56.15234375,75.1953125,-336.9140625,-63.96484375,0.0
1734413419.3199604,-56.15234375,-85.9375,-289.0625,-42.48046875,0.0
1734413419.323857,-42.48046875,85.9375,358.3984375,8.7890625,0.0
1734413419.3278377,0.0,471.6796875,541.015625,23.4375,0.0
1734413419.3317344,0.0,533.203125,259.765625,-13.671875,0.0
1734413419.3356311,0.0,-57.6171875,-398.92578125,-56.640625,0.0
1734413419.339528,0.0,-267.08984375,-320.80078125,-58.59375,0.0
1734413419.3434248,0.0,298.828125,366.69921875,0.0,0.0
1734413419.3473217,0.0,500.0,523.4375,19.53125,0.0
1734413419.3512185,0.0,-75.68359375,158.69140625,-16.11328125,0.0
1734413419.3551154,0.0,-704.1015625,-463.8671875,-56.640625,0.0
1734413419.3590121,0.0,-251.953125,-321.2890625,-48.33984375,0.0
1734413419.362909,0.0,338.8671875,325.68359375,-7.8125,0.0
1734413419.3668058,0.0,435.546875,531.25,6.8359375,0.0
1734413419.3707025,0.0,420.41015625,367.1875,-28.80859375,0.0
1734413419.3746781,-40.52734375,184.08203125,-174.8046875,-76.66015625,0.0
1734413419.378575,-68.359375,-65.91796875,-378.41796875,-76.66015625,0.0
1734413419.3824718,-51.7578125,-154.78515625,91.30859375,-26.85546875,0.0
1734413419.3863688,-9.765625,243.1640625,496.58203125,5.859375,0.0
1734413419.3902655,-9.765625,468.26171875,375.0,-18.06640625,0.0
1734413419.3941624,-30.2734375,-230.46875,-358.3984375,-51.26953125,0.0
1734413419.3980591,-62.01171875,-819.82421875,-584.9609375,-67.3828125,0.0
1734413419.401956,-68.84765625,-497.55859375,-29.78515625,-42.48046875,0.0
1734413419.4058528,-32.2265625,494.140625,542.96875,1.46484375,0.0
1734413419.4097497,-6.8359375,526.3671875,428.22265625,-10.7421875,0.0
1734413419.4136465,-15.625,-586.9140625,-424.8046875,-57.12890625,0.0
1734413419.4175434,-73.2421875,-472.65625,-522.94921875,-77.1484375,0.0
1734413419.4215786,-82.03125,146.484375,83.49609375,-38.0859375,0.0
1734413419.4254754,-34.1796875,380.37109375,446.2890625,7.32421875,0.0
1734413419.4293723,-4.8828125,459.9609375,475.09765625,6.8359375,0.0
1734413419.4332693,-16.6015625,244.62890625,12.20703125,-47.36328125,0.0
1734413419.437166,-52.734375,-44.921875,-435.546875,-71.2890625,0.0
1734413419.441063,-63.96484375,-410.15625,-265.13671875,-27.34375,0.0
1734413419.4449596,-43.45703125,-444.3359375,250.0,6.34765625,0.0
1734413419.4488566,-16.6015625,256.8359375,500.9765625,-11.71875,0.0
1734413419.4527533,-17.08984375,359.86328125,82.03125,-42.48046875,0.0
1734413419.4566503,-55.6640625,-344.7265625,-533.69140625,-56.15234375,0.0
1734413419.4605472,-67.87109375,-297.36328125,-216.30859375,-36.62109375,0.0
1734413419.464444,-33.203125,486.81640625,486.328125,3.90625,0.0
1734413419.4684753,4.8828125,681.640625,533.203125,8.7890625,0.0
1734413419.4723723,-1.953125,73.73046875,1.953125,-25.390625,0.0
1734413419.4762692,-37.59765625,-236.81640625,-490.234375,-47.36328125,0.0
1734413419.480166,-59.08203125,-41.015625,-222.16796875,-22.94921875,0.0
1734413419.484063,-33.69140625,235.3515625,353.02734375,13.18359375,0.0
1734413419.4879596,6.34765625,163.57421875,426.26953125,-4.8828125,0.0
1734413419.4918566,-18.5546875,-148.92578125,67.3828125,-42.48046875,0.0
1734413419.4957535,-52.24609375,-281.73828125,-397.94921875,-66.89453125,0.0
1734413419.4996502,-56.15234375,-276.85546875,-380.859375,-49.8046875,0.0
1734413419.5035472,-41.50390625,-624.0234375,-13.18359375,8.30078125,0.0
1734413419.5074441,-12.6953125,89.84375,479.98046875,12.20703125,0.0
1734413419.5113409,-12.6953125,565.4296875,351.5625,-23.92578125,0.0
1734413419.5153625,-40.0390625,-115.72265625,-433.59375,-69.3359375,0.0
1734413419.5192595,-52.24609375,-345.21484375,-400.390625,-61.03515625,0.0
1734413419.5231564,-43.9453125,189.453125,331.0546875,-17.08984375,0.0
1734413419.527053,-25.390625,676.26953125,564.453125,-5.37109375,0.0
1734413419.53095,-18.5546875,330.56640625,256.8359375,-25.390625,0.0
1734413419.534847,-40.0390625,-462.890625,-440.91796875,-70.3125,0.0
1734413419.538744,-72.75390625,-562.5,-429.19921875,-74.21875,0.0
1734413419.5426407,-72.265625,207.03125,302.24609375,-32.2265625,0.0
1734413419.5465376,-25.87890625,316.40625,494.140625,-1.46484375,0.0
1734413419.5504346,-3.41796875,-196.77734375,307.12890625,-20.5078125,0.0
1734413419.5543313,-46.875,-11.71875,-104.00390625,-80.56640625,0.0
1734413419.5582283,-72.265625,-55.6640625,-380.37109375,-79.1015625,0.0
1734413419.5623121,-52.24609375,-241.69921875,37.59765625,-25.87890625,0.0
1734413419.566209,-34.1796875,275.87890625,527.83203125,-3.41796875,0.0
1734413419.570106,-31.25,688.4765625,514.16015625,-17.578125,0.0
1734413419.5740027,-36.1328125,205.56640625,-41.50390625,-50.29296875,0.0
1734413419.5778997,-44.43359375,-525.390625,-486.328125,-61.03515625,0.0
1734413419.5817966,-53.7109375,-377.44140625,34.1796875,-18.5546875,0.0
1734413419.5856936,-40.52734375,239.2578125,566.89453125,7.8125,0.0
1734413419.5895905,-4.39453125,245.60546875,454.1015625,-4.8828125,0.0
1734413419.5934875,-2.44140625,-594.23828125,-317.87109375,-34.1796875,0.0
1734413419.5973842,-55.17578125,-521.484375,-509.765625,-71.77734375,0.0
1734413419.6012812,-77.1484375,133.7890625,99.12109375,-48.828125,0.0
1734413419.605178,-45.8984375,306.15234375,494.140625,-0.48828125,0.0
1734413419.609175,-17.578125,490.234375,545.41015625,-14.16015625,0.0
1734413419.613072,-28.3203125,386.23046875,176.26953125,-66.89453125,0.0
1734413419.6169689,-50.78125,20.01953125,-349.609375,-83.0078125,0.0
1734413419.6208656,-48.33984375,-194.3359375,-194.82421875,-34.66796875,0.0
1734413419.6247625,-34.66796875,86.9140625,411.1328125,5.859375,0.0
1734413419.6286595,-24.4140625,321.77734375,505.859375,11.23046875,0.0
1734413419.6325564,-27.83203125,106.93359375,149.4140625,-26.3671875,0.0
1734413419.6364534,-47.8515625,-339.84375,-437.5,-75.68359375,0.0
1734413419.6403503,-75.1953125,-344.7265625,-236.328125,-61.5234375,0.0
1734413419.6442473,-55.17578125,410.15625,469.7265625,-27.34375,0.0
1734413419.6481442,-15.13671875,846.6796875,598.14453125,-26.3671875,0.0
1734413419.6520412,-21.484375,6.34765625,48.828125,-41.50390625,0.0
1734413419.6560338,0.0,-753.41796875,0.0,-50.29296875,0.0
1734413419.6599307,0.0,-189.94140625,0.0,-65.4296875,0.0
1734413419.6638277,0.0,331.54296875,0.0,-32.2265625,0.0
1734413419.6677246,0.0,417.96875,0.0,-6.8359375,0.0
1734413419.6716216,0.0,281.73828125,0.0,-57.6171875,0.0
1734413419.6755185,0.0,-282.2265625,0.0,-84.9609375,0.0
1734413419.6794155,0.0,-655.76171875,0.0,-71.77734375,0.0
1734413419.6833124,0.0,-748.53515625,0.0,-32.2265625,0.0
1734413419.6872094,0.0,28.3203125,0.0,-20.01953125,0.0
1734413419.6911063,0.0,594.7265625,0.0,-50.78125,0.0
1734413419.6950033,0.0,-11.23046875,0.0,-91.796875,0.0
1734413419.6989002,0.0,-415.52734375,0.0,-103.02734375,0.0
1734413419.702881,-85.9375,135.7421875,286.1328125,-71.77734375,0.0
1734413419.706778,-52.24609375,708.49609375,578.61328125,-54.19921875,0.0
1734413419.710675,-33.203125,430.17578125,334.9609375,-52.24609375,0.0
1734413419.714572,-60.546875,-63.96484375,-286.62109375,-83.984375,0.0
1734413419.718469,-91.796875,-227.05078125,-461.42578125,-123.53515625,0.0
1734413419.7223659,-79.1015625,-72.265625,83.0078125,-74.21875,0.0
1734413419.7262628,-44.43359375,0.48828125,409.66796875,-34.66796875,0.0
1734413419.7301598,-40.0390625,-340.8203125,264.16015625,-66.89453125,0.0
1734413419.7340567,-58.59375,-74.70703125,-96.6796875,-118.65234375,0.0
1734413419.7379537,-84.47265625,-108.3984375,-446.2890625,-124.51171875,0.0
1734413419.7418506,-77.63671875,-319.3359375,-140.625,-72.75390625,0.0
1734413419.7457476,-40.52734375,283.69140625,437.98828125,-41.9921875,0.0
1734413419.7497165,-35.15625,686.03515625,506.8359375,-47.8515625,0.0
1734413419.7536135,-40.0390625,197.75390625,-54.6875,-73.73046875,0.0
1734413419.7575104,-54.19921875,-512.6953125,-564.94140625,-88.8671875,0.0
1734413419.7614074,-59.5703125,-196.77734375,-74.70703125,-41.9921875,0.0
1734413419.7653043,-22.4609375,475.09765625,503.41796875,-5.37109375,0.0
1734413419.7692015,-3.90625,245.60546875,357.91015625,-22.4609375,0.0
1734413419.7730985,-9.765625,-467.28515625,-219.7265625,-47.36328125,0.0
1734413419.7769954,-24.4140625,-644.04296875,-545.41015625,-70.3125,0.0
1734413419.7808924,-49.8046875,-65.4296875,-72.75390625,-50.29296875,0.0
1734413419.7847893,-15.13671875,304.6875,422.8515625,18.5546875,0.0
1734413419.7886863,38.0859375,-132.8125,343.26171875,29.78515625,0.0
1734413419.7925832,8.30078125,29.78515625,179.19921875,-23.4375,0.0
1734413419.79662,-34.1796875,48.33984375,-298.828125,-48.828125,0.0
1734413419.8005168,-55.17578125,-292.48046875,-255.37109375,-29.78515625,0.0
1734413419.8044138,-31.25,83.0078125,404.78515625,24.90234375,0.0
1734413419.8083107,7.8125,623.046875,572.75390625,27.83203125,0.0
1734413419.8122077,-17.578125,486.81640625,284.1796875,-15.13671875,0.0
1734413419.8161047,-58.59375,-362.79296875,-397.4609375,-24.4140625,0.0
1734413419.8200018,-69.3359375,-764.6484375,-316.89453125,-21.97265625,0.0
1734413419.8238988,-50.78125,136.71875,434.5703125,-34.66796875,0.0
1734413419.8277957,-39.55078125,738.28125,573.73046875,-36.62109375,0.0
1734413419.8316927,-62.98828125,254.39453125,324.21875,-67.3828125,0.0
1734413419.8355896,-79.1015625,-117.67578125,-96.6796875,-111.328125,0.0
1734413419.8394866,-85.9375,3.41796875,-101.07421875,-98.14453125,0.0
1734413419.843511,-83.984375,309.5703125,407.71484375,-48.828125,0.0
1734413419.847408,-62.98828125,343.26171875,509.27734375,-16.6015625,0.0
1734413419.851305,-59.5703125,342.7734375,417.48046875,-53.22265625,0.0
1734413419.8552022,-72.265625,203.61328125,30.2734375,-99.609375,0.0
1734413419.8590991,-84.47265625,-144.04296875,-200.68359375,-88.8671875,0.0
1734413419.862996,-84.47265625,-245.60546875,210.9375,-35.15625,0.0
1734413419.866893,-51.26953125,90.8203125,512.6953125,-20.5078125,0.0
1734413419.87079,-43.9453125,170.8984375,434.08203125,-68.359375,0.0
1734413419.8746872,-68.359375,-281.25,-57.12890625,-86.9140625,0.0
1734413419.8785841,-85.9375,-853.02734375,-470.21484375,-59.5703125,0.0
1734413419.882481,-104.98046875,-219.7265625,204.1015625,-31.25,0.0
1734413419.886378,-101.07421875,692.87109375,641.6015625,-36.1328125,0.0
1734413419.890398,-79.58984375,522.4609375,470.703125,-91.30859375,0.0
1734413419.8942952,-88.37890625,49.31640625,132.32421875,-129.8828125,0.0
1734413419.8981922,-108.88671875,-74.70703125,-83.984375,-122.0703125,0.0
1734413419.902089,-110.83984375,203.61328125,279.78515625,-77.63671875,0.0
1734413419.9059863,-72.265625,403.3203125,521.484375,-48.828125,0.0
1734413419.9098833,-58.10546875,166.9921875,459.47265625,-69.3359375,0.0
1734413419.9137802,-91.30859375,20.01953125,234.86328125,-123.53515625,0.0
1734413419.9176772,-104.00390625,88.8671875,79.1015625,-120.1171875,0.0
1734413419.9215744,-87.890625,-315.4296875,192.3828125,-68.84765625,0.0
1734413419.9254713,-46.875,-350.5859375,435.05859375,-42.96875,0.0
1734413419.9293683,-25.390625,520.01953125,606.93359375,-51.26953125,0.0
1734413419.9332654,-46.38671875,440.4296875,291.50390625,-89.84375,0.0
1734413419.9372706,-71.77734375,-438.4765625,-248.046875,-106.4453125,0.0
1734413419.9411676,-84.9609375,-217.28515625,154.296875,-85.44921875,0.0
1734413419.9450648,-74.70703125,586.42578125,627.44140625,-37.59765625,0.0
1734413419.9489617,-43.9453125,710.9375,554.6875,-15.13671875,0.0
1734413419.9528587,-60.546875,135.25390625,254.39453125,-62.98828125,0.0
1734413419.9567559,-95.703125,-419.921875,-121.09375,-90.33203125,0.0
1734413419.9606528,-94.23828125,-329.1015625,52.24609375,-64.94140625,0.0
1734413419.9645498,-89.35546875,-85.9375,414.0625,-27.83203125,0.0
1734413419.968447,-57.6171875,-127.9296875,427.24609375,-21.484375,0.0
1734413419.972344,-60.546875,190.4296875,374.0234375,-52.24609375,0.0
1734413419.9762409,-89.35546875,189.453125,125.48828125,-77.1484375,0.0
1734413419.980138,-91.30859375,-309.5703125,64.453125,-63.96484375,0.0
1734413419.9841392,-80.078125,-478.02734375,290.52734375,-18.06640625,0.0
1734413419.9880362,-56.15234375,383.30078125,591.30859375,-6.8359375,0.0
1734413419.9919333,-47.36328125,638.671875,484.86328125,-35.15625,0.0
1734413419.9958303,-71.2890625,-57.12890625,-6.8359375,-64.453125,0.0
1734413419.9997275,-97.16796875,-204.1015625,31.73828125,-58.10546875,0.0
1734413420.0036244,-82.03125,74.70703125,422.36328125,-4.39453125,0.0
1734413420.0075214,-43.9453125,335.44921875,580.078125,4.8828125,0.0
1734413420.0114186,-34.1796875,82.51953125,369.140625,-27.34375,0.0
1734413420.0153155,-59.5703125,-576.171875,-90.8203125,-62.5,0.0
1734413420.0192127,-79.1015625,-116.2109375,152.83203125,-67.87109375,0.0
1734413420.0231097,-66.89453125,364.74609375,479.98046875,-15.13671875,0.0
1734413420.0270066,-37.59765625,345.703125,587.890625,-3.90625,0.0
1734413420.0309932,-18.06640625,514.16015625,554.19921875,-33.203125,0.0
1734413420.0348902,-62.01171875,340.33203125,213.37890625,-57.6171875,0.0
1734413420.0387874,-102.5390625,-180.6640625,26.3671875,-56.15234375,0.0
1734413420.0426843,-99.609375,-190.91796875,266.11328125,-45.41015625,0.0
1734413420.0465815,-100.5859375,380.859375,555.6640625,-60.05859375,0.0
1734413420.0504785,-113.28125,340.8203125,526.3671875,-100.5859375,0.0
1734413420.0543756,-136.71875,-257.32421875,34.66796875,-131.8359375,0.0
1734413420.0582726,-154.296875,-813.4765625,-394.04296875,-133.7890625,0.0
1734413420.0621696,-171.875,-228.02734375,192.87109375,-113.28125,0.0
1734413420.0660667,-166.9921875,629.39453125,621.58203125,-116.69921875,0.0
1734413420.0699637,-128.41796875,500.0,519.53125,-126.46484375,0.0
1734413420.073861,-138.18359375,-143.5546875,135.7421875,-138.671875,0.0
1734413420.0778384,-184.08203125,-175.29296875,-126.46484375,-170.8984375,0.0
1734413420.0817354,-198.2421875,154.78515625,214.35546875,-166.50390625,0.0
1734413420.0856326,-159.66796875,299.8046875,503.90625,-128.90625,0.0
1734413420.0895295,-128.90625,367.67578125,545.41015625,-121.09375,0.0
1734413420.0934267,-134.765625,252.44140625,240.234375,-166.9921875,0.0
1734413420.0973237,-149.4140625,-249.0234375,-280.76171875,-185.546875,0.0
1734413420.1012208,-152.83203125,-632.32421875,-185.05859375,-142.578125,0.0
1734413420.1051178,-125.0,-547.36328125,313.96484375,-89.84375,0.0
1734413420.109015,-104.00390625,433.59375,574.70703125,-86.9140625,0.0
1734413420.112912,-104.4921875,511.23046875,279.296875,-120.60546875,0.0
1734413420.1168091,-103.02734375,-367.67578125,-394.04296875,-138.671875,0.0
1734413420.120706,-114.74609375,-283.203125,-146.97265625,-132.8125,0.0
1734413420.124674,-88.37890625,456.54296875,511.23046875,-100.09765625,0.0
1734413420.1285713,-34.66796875,661.62109375,555.17578125,-64.453125,0.0
1734413420.1324682,-32.71484375,84.9609375,167.48046875,-87.890625,0.0
1734413420.1363654,-62.98828125,-253.41796875,-354.98046875,-136.23046875,0.0
1734413420.1402624,-71.2890625,-208.984375,-266.6015625,-106.93359375,0.0
1734413420.1441596,-58.10546875,-135.7421875,265.625,-26.3671875,0.0
1734413420.1480565,-13.671875,-92.7734375,417.96875,-18.5546875,0.0
1734413420.1519537,-0.9765625,13.18359375,259.765625,-65.4296875,0.0
1734413420.155851,-27.83203125,-70.80078125,-300.29296875,-85.44921875,0.0
1734413420.1597478,-44.921875,-544.43359375,-493.65234375,-83.0078125,0.0
1734413420.163645,-31.25,-649.4140625,-34.1796875,-46.38671875,0.0
1734413420.167542,-1.953125,302.24609375,517.08984375,-14.16015625,0.0
1734413420.171581,-2.9296875,606.93359375,414.0625,-35.64453125,0.0
1734413420.175478,-20.99609375,-178.22265625,-375.9765625,-85.44921875,0.0
1734413420.1793752,-38.57421875,-500.48828125,-452.1484375,-79.58984375,0.0
1734413420.1832721,-33.203125,56.15234375,252.44140625,-25.390625,0.0
1734413420.1871693,13.18359375,625.48828125,558.10546875,9.27734375,0.0
1734413420.1910665,32.71484375,97.65625,224.12109375,7.32421875,0.0
1734413420.1949635,-5.37109375,-741.2109375,-463.37890625,-44.43359375,0.0
1734413420.1988606,-32.71484375,-425.29296875,-481.4453125,-83.0078125,0.0
1734413420.2027578,-27.34375,109.86328125,88.37890625,-29.296875,0.0
1734413420.2066548,6.34765625,214.84375,446.2890625,27.34375,0.0
1734413420.210552,22.94921875,309.08203125,394.53125,-8.7890625,0.0
1734413420.214449,-4.39453125,114.2578125,-187.01171875,-66.89453125,0.0
1734413420.218477,-28.3203125,-528.3203125,-627.9296875,-52.734375,0.0
1734413420.2223742,-37.59765625,-508.7890625,-278.3203125,-3.90625,0.0
1734413420.2262712,-14.6484375,316.89453125,397.4609375,0.48828125,0.0
1734413420.2301683,10.7421875,660.15625,478.515625,-15.13671875,0.0
1734413420.2340655,-7.8125,33.203125,-189.453125,-49.31640625,0.0
1734413420.2379625,-32.2265625,-725.5859375,-641.6015625,-62.01171875,0.0
1734413420.2418597,-40.52734375,-629.39453125,-314.453125,-25.390625,0.0
1734413420.2457569,-19.53125,57.6171875,351.07421875,2.9296875,0.0
1734413420.2496538,18.06640625,343.26171875,455.078125,0.9765625,0.0
1734413420.253551,8.30078125,-589.84375,-429.6875,-13.671875,0.0
1734413420.2574482,-39.0625,-660.15625,-700.1953125,-58.10546875,0.0
1734413420.2613454,-43.9453125,26.85546875,-161.62109375,-38.57421875,0.0
1734413420.2653596,-10.7421875,313.96484375,347.16796875,19.53125,0.0
1734413420.2692566,-0.9765625,453.125,478.02734375,19.04296875,0.0
1734413420.2731538,-12.20703125,301.26953125,14.6484375,-30.2734375,0.0
1734413420.277051,-35.64453125,-267.578125,-602.05078125,-62.01171875,0.0
1734413420.2809482,-41.9921875,-506.34765625,-420.41015625,-35.64453125,0.0
1734413420.2848454,-9.27734375,-148.92578125,236.81640625,11.71875,0.0
1734413420.2887423,12.20703125,323.73046875,463.8671875,22.4609375,0.0
1734413420.2926395,-5.859375,391.6015625,111.328125,-25.87890625,0.0
1734413420.2965367,-35.15625,-404.78515625,-603.515625,-57.12890625,0.0
1734413420.3004339,-41.50390625,-729.00390625,-477.05078125,-33.69140625,0.0
1734413420.3043308,-41.50390625,244.140625,330.56640625,9.27734375,0.0
1734413420.308228,-7.8125,733.3984375,524.4140625,25.87890625,0.0
1734413420.3122387,12.20703125,175.78125,30.2734375,-4.8828125,0.0
1734413420.316136,-26.85546875,-230.95703125,-542.96875,-50.78125,0.0
1734413420.320033,-59.08203125,-103.02734375,-378.41796875,-50.78125,0.0
1734413420.3239303,-35.15625,249.51171875,230.46875,-17.578125,0.0
1734413420.3278275,3.90625,281.25,428.7109375,6.8359375,0.0
1734413420.3317246,1.953125,0.48828125,178.7109375,-14.6484375,0.0
1734413420.3356216,-36.62109375,-316.40625,-422.8515625,-56.15234375,0.0
1734413420.3395188,-61.5234375,-562.98828125,-582.03125,-66.89453125,0.0
1734413420.343416,-40.0390625,-706.54296875,-257.32421875,-3.41796875,0.0
1734413420.3473132,-17.578125,128.41796875,377.9296875,6.34765625,0.0
1734413420.3512104,-26.85546875,683.59375,400.390625,-26.3671875,0.0
1734413420.3551075,-42.48046875,-16.6015625,-425.78125,-53.7109375,0.0
1734413420.359107,-69.3359375,-397.4609375,-551.26953125,-87.40234375,0.0
1734413420.3630042,-68.84765625,136.23046875,108.88671875,-44.921875,0.0
1734413420.3669014,-28.80859375,673.828125,504.8828125,-1.953125,0.0
1734413420.3707986,-22.94921875,458.49609375,320.3125,-16.11328125,0.0
1734413420.3746955,-47.8515625,-97.65625,-339.84375,-57.6171875,0.0
1734413420.3785927,-63.4765625,-561.5234375,-631.34765625,-84.9609375,0.0
1734413420.38249,-67.87109375,-214.84375,-79.1015625,-53.22265625,0.0
1734413420.386387,-33.69140625,190.4296875,400.87890625,-13.18359375,0.0
1734413420.3902843,-13.18359375,-159.1796875,311.03515625,-26.85546875,0.0
1734413420.3941815,-58.59375,-57.12890625,-140.625,-75.1953125,0.0
1734413420.3980787,-89.35546875,-379.8828125,-595.21484375,-86.42578125,0.0
1734413420.4019759,-67.3828125,-396.484375,-279.296875,-34.1796875,0.0
1734413420.4059675,-32.2265625,432.12890625,416.50390625,21.484375,0.0
1734413420.4098647,-21.484375,829.1015625,535.64453125,-11.23046875,0.0
1734413420.4137619,-44.43359375,320.3125,-39.0625,-70.3125,0.0
1734413420.417659,-71.2890625,-349.609375,-575.1953125,-97.16796875,0.0
1734413420.4215562,-88.8671875,-129.8828125,-183.59375,-93.75,0.0
1734413420.4254534,-56.640625,311.5234375,428.22265625,-37.59765625,0.0
1734413420.4293506,-23.4375,258.30078125,412.109375,-25.390625,0.0
1734413420.4332478,-31.25,-558.59375,-346.19140625,-70.80078125,0.0
1734413420.437145,-54.6875,-590.33203125,-646.484375,-92.7734375,0.0
1734413420.4410422,-65.4296875,78.125,-172.8515625,-72.75390625,0.0
1734413420.4449394,-48.33984375,382.32421875,364.2578125,-18.06640625,0.0
1734413420.4488366,-18.06640625,504.39453125,502.44140625,-2.44140625,0.0
1734413420.452892,-21.484375,380.37109375,122.0703125,-36.1328125,0.0
1734413420.4567893,-62.98828125,-222.16796875,-524.90234375,-64.94140625,0.0
1734413420.4606864,-76.171875,-433.59375,-419.921875,-63.4765625,0.0
1734413420.4645839,-31.25,226.5625,330.56640625,-13.18359375,0.0
1734413420.468481,-12.20703125,750.48828125,553.22265625,0.0,0.0
1734413420.4723783,-17.08984375,275.390625,118.65234375,-38.57421875,0.0
1734413420.4762754,-40.52734375,-529.296875,-583.0078125,-51.26953125,0.0
1734413420.4801726,-74.21875,-714.84375,-487.3046875,-58.59375,0.0
1734413420.4840698,-56.15234375,252.44140625,310.05859375,-46.38671875,0.0
1734413420.487967,-15.13671875,854.98046875,555.17578125,-1.953125,0.0
1734413420.4918642,-24.4140625,305.17578125,164.0625,-29.78515625,0.0
1734413420.4957614,-47.36328125,-96.6796875,-438.4765625,-84.47265625,0.0
1734413420.4997308,-58.10546875,15.625,-399.90234375,-70.3125,0.0
1734413420.503628,-42.96875,311.5234375,220.21484375,-18.5546875,0.0
1734413420.5075252,-5.37109375,425.78125,452.1484375,17.578125,0.0
1734413420.5114224,-8.7890625,405.76171875,248.046875,-12.6953125,0.0
1734413420.5153196,-31.25,-51.26953125,-392.578125,-67.3828125,0.0
1734413420.5192168,-46.38671875,-538.0859375,-607.421875,-76.171875,0.0
1734413420.5231142,-41.50390625,-388.671875,-91.30859375,-23.92578125,0.0
1734413420.5270114,-23.92578125,177.734375,414.55078125,23.4375,0.0
1734413420.5309086,-14.16015625,590.8203125,441.89453125,-11.23046875,0.0
1734413420.5348058,-30.76171875,112.79296875,-220.21484375,-52.24609375,0.0
1734413420.538703,-55.17578125,-821.2890625,-733.88671875,-50.78125,0.0
1734413420.5426002,-54.19921875,-210.44921875,-33.69140625,-40.0390625,0.0
1734413420.5466363,-20.01953125,762.6953125,559.08203125,-8.7890625,0.0
1734413420.5505335,-4.8828125,576.171875,373.046875,-12.6953125,0.0
1734413420.554431,-22.4609375,51.26953125,-228.515625,-48.828125,0.0
1734413420.5583282,-57.6171875,-88.37890625,-535.64453125,-77.1484375,0.0
1734413420.5622253,-67.3828125,192.3828125,-67.87109375,-62.01171875,0.0
1734413420.5661225,-30.76171875,173.33984375,373.53515625,-17.578125,0.0
1734413420.5700197,-22.94921875,-44.921875,375.9765625,-25.87890625,0.0
1734413420.573917,-49.31640625,23.4375,-76.171875,-64.453125,0.0
1734413420.5778143,-73.2421875,-242.1875,-555.17578125,-99.12109375,0.0
1734413420.5817115,-85.9375,-307.6171875,-311.5234375,-68.84765625,0.0
1734413420.5856087,-61.5234375,289.0625,345.703125,-15.625,0.0
1734413420.589506,-28.80859375,806.640625,540.0390625,-15.13671875,0.0
1734413420.5935354,0.0,413.57421875,15.625,-71.77734375,0.0
1734413420.5974326,0.0,-312.01171875,-617.67578125,-110.83984375,0.0
1734413420.60133,0.0,-159.1796875,-280.76171875,-81.54296875,0.0
1734413420.6052272,0.0,559.08203125,436.5234375,-45.41015625,0.0
1734413420.6091244,0.0,681.15234375,479.98046875,-31.25,0.0
1734413420.6130216,0.0,-22.4609375,-80.078125,-52.734375,0.0
1734413420.616919,0.0,-577.1484375,-626.953125,-97.16796875,0.0
1734413420.6208162,0.0,-407.71484375,-378.90625,-78.125,0.0
1734413420.6247134,0.0,192.87109375,277.34375,-34.66796875,0.0
1734413420.6286106,0.0,-71.77734375,326.171875,-35.15625,0.0
1734413420.632508,0.0,-133.30078125,83.0078125,-65.91796875,0.0
1734413420.6364052,0.0,-174.31640625,-471.6796875,-91.796875,0.0
1734413420.6404243,-72.75390625,-315.91796875,-487.79296875,-69.82421875,0.0
1734413420.6443214,-61.03515625,153.3203125,217.7734375,-36.62109375,0.0
1734413420.6482189,-33.203125,729.4921875,559.08203125,-24.90234375,0.0
1734413420.652116,-28.3203125,632.8125,283.69140625,-43.45703125,0.0
1734413420.6560133,-44.43359375,-62.98828125,-412.59765625,-90.33203125,0.0
1734413420.6599107,-68.359375,-576.66015625,-541.015625,-86.9140625,0.0
1734413420.6638079,-72.265625,-182.6171875,110.83984375,-40.52734375,0.0
1734413420.667705,-43.9453125,651.3671875,549.31640625,-18.5546875,0.0
1734413420.6716025,-29.296875,252.9296875,234.86328125,-23.4375,0.0
1734413420.6754997,-36.62109375,-633.30078125,-458.0078125,-60.546875,0.0
1734413420.6793969,-73.2421875,-225.09765625,-446.77734375,-100.5859375,0.0
1734413420.6832943,-87.890625,284.1796875,181.15234375,-59.08203125,0.0
1734413420.6872973,-53.7109375,450.1953125,519.04296875,-12.20703125,0.0
1734413420.6911948,-34.66796875,353.515625,201.171875,-29.296875,0.0
1734413420.695092,-49.8046875,-47.8515625,-398.4375,-80.56640625,0.0
1734413420.6989892,-72.265625,-204.1015625,-531.73828125,-107.421875,0.0
1734413420.7028866,-72.75390625,-198.73046875,-143.5546875,-58.59375,0.0
1734413420.7067838,-41.50390625,189.94140625,409.66796875,-17.578125,0.0
1734413420.7106812,-19.04296875,348.6328125,451.66015625,-32.71484375,0.0
1734413420.7145784,-38.57421875,-137.6953125,-227.5390625,-77.63671875,0.0
1734413420.7184756,-63.96484375,-811.03515625,-759.765625,-87.40234375,0.0
1734413420.722373,-78.125,-264.6484375,-120.1171875,-47.8515625,0.0
1734413420.7262702,-47.36328125,748.53515625,524.4140625,4.8828125,0.0
1734413420.7301674,-26.3671875,677.734375,463.37890625,3.41796875,0.0
1734413420.7342386,-42.96875,142.578125,-8.30078125,-47.8515625,0.0
1734413420.7381358,-60.546875,-49.31640625,-501.953125,-64.94140625,0.0
1734413420.7420332,-78.125,141.6015625,-167.48046875,-58.59375,0.0
1734413420.7459304,-55.17578125,445.80078125,418.45703125,-23.92578125,0.0
1734413420.7498276,-12.6953125,601.5625,498.53515625,-5.37109375,0.0
1734413420.753725,-24.90234375,190.91796875,-40.52734375,-37.59765625,0.0
1734413420.7576222,-54.6875,-350.09765625,-565.91796875,-63.4765625,0.0
1734413420.7615197,-51.26953125,-565.91796875,-411.1328125,-42.96875,0.0
1734413420.7654169,-25.87890625,-363.28125,115.72265625,-6.34765625,0.0
1734413420.7693143,-0.48828125,566.89453125,520.99609375,-4.8828125,0.0
1734413420.7732115,-1.46484375,556.640625,193.359375,-40.52734375,0.0
1734413420.777109,-29.78515625,-267.578125,-571.77734375,-78.125,0.0
1734413420.781098,-53.7109375,-220.21484375,-367.1875,-71.77734375,0.0
1734413420.7849953,-45.41015625,527.83203125,414.0625,-12.6953125,0.0
1734413420.7888925,-14.16015625,751.46484375,531.25,12.20703125,0.0
1734413420.79279,-10.7421875,210.9375,49.8046875,-34.66796875,0.0
1734413420.7966871,-44.43359375,-189.94140625,-521.484375,-75.68359375,0.0
1734413420.8005846,-79.1015625,-363.28125,-437.5,-71.2890625,0.0
1734413420.8044817,-67.87109375,-215.33203125,132.32421875,-18.5546875,0.0
1734413420.8083792,-14.16015625,59.08203125,361.328125,19.53125,0.0
1734413420.8122766,-12.6953125,176.26953125,187.5,-23.4375,0.0
1734413420.8161738,-66.40625,-18.06640625,-357.91015625,-85.9375,0.0
1734413420.8200712,-86.42578125,-212.40234375,-512.6953125,-69.82421875,0.0
1734413420.8239684,-61.5234375,-562.5,-188.96484375,-20.01953125,0.0
1734413420.8279498,-41.9921875,260.7421875,436.03515625,2.44140625,0.0
1734413420.8318472,-39.0625,758.30078125,418.9453125,-22.4609375,0.0
1734413420.8357444,-49.8046875,35.64453125,-398.4375,-78.61328125,0.0
1734413420.8396418,-62.5,-246.58203125,-496.09375,-76.66015625,0.0
1734413420.843539,-53.22265625,208.984375,158.69140625,-30.76171875,0.0
1734413420.8474364,-31.73828125,487.3046875,488.28125,3.90625,0.0
1734413420.8513339,-4.39453125,39.0625,234.86328125,0.0,0.0
1734413420.855231,-25.87890625,-649.90234375,-426.7578125,-49.8046875,0.0
1734413420.8591285,-66.40625,-326.171875,-517.08984375,-81.54296875,0.0
1734413420.8630257,-69.3359375,219.7265625,37.109375,-34.66796875,0.0
1734413420.866923,-38.57421875,381.8359375,478.515625,9.27734375,0.0
1734413420.8708203,-11.23046875,314.453125,430.17578125,-9.765625,0.0
1734413420.8747964,-35.15625,86.9140625,-89.84375,-57.12890625,0.0
1734413420.8786938,-63.96484375,-130.37109375,-528.80859375,-80.078125,0.0
1734413420.882591,-62.98828125,-218.75,-262.6953125,-44.43359375,0.0
1734413420.8864884,-37.109375,454.1015625,436.03515625,-6.8359375,0.0
1734413420.8903856,-11.23046875,738.76953125,512.20703125,-16.11328125,0.0
1734413420.894283,-17.578125,-4.8828125,-174.31640625,-56.15234375,0.0
1734413420.8981805,-54.6875,-720.21484375,-636.23046875,-71.2890625,0.0
1734413420.9020777,-72.75390625,-384.765625,-196.2890625,-39.0625,0.0
1734413420.905975,-42.96875,619.62890625,492.67578125,1.46484375,0.0
1734413420.9098725,-17.08984375,670.8984375,492.67578125,-5.859375,0.0
1734413420.9137697,-26.85546875,-337.40234375,-239.74609375,-53.22265625,0.0
1734413420.9176672,-51.7578125,-353.02734375,-583.984375,-85.9375,0.0
1734413420.921707,-69.82421875,119.62890625,-199.21875,-61.03515625,0.0
1734413420.9256043,-52.24609375,381.8359375,359.375,-10.7421875,0.0
1734413420.9295018,-21.97265625,461.9140625,504.8828125,-1.46484375,0.0
1734413420.933399,-17.08984375,144.53125,37.59765625,-24.4140625,0.0
1734413420.9372964,-43.9453125,6.34765625,-468.26171875,-61.03515625,0.0
1734413420.9411938,-64.94140625,-399.4140625,-472.65625,-45.8984375,0.0
1734413420.945091,-49.8046875,-412.59765625,34.1796875,10.7421875,0.0
1734413420.9489884,-22.94921875,562.5,520.99609375,8.30078125,0.0
1734413420.9528859,0.9765625,643.5546875,259.27734375,-40.52734375,0.0
1734413420.956783,-15.625,-174.8046875,-503.90625,-73.2421875,0.0
1734413420.9606805,-47.8515625,-284.1796875,-424.8046875,-68.84765625,0.0
1734413420.964578,-35.15625,441.40625,327.63671875,-14.6484375,0.0
1734413420.9686,-1.46484375,738.76953125,519.04296875,8.30078125,0.0
1734413420.9724975,9.765625,272.4609375,194.3359375,-20.99609375,0.0
1734413420.9763947,-23.92578125,-79.1015625,-409.66796875,-48.828125,0.0
1734413420.980292,-51.26953125,-17.578125,-399.4140625,-67.3828125,0.0
1734413420.9841895,-32.2265625,194.3359375,208.984375,-36.1328125,0.0
1734413420.988087,-2.9296875,169.921875,415.0390625,17.08984375,0.0
1734413420.9919841,6.34765625,36.62109375,225.5859375,-7.32421875,0.0
1734413420.9958816,-22.94921875,-272.94921875,-394.53125,-69.82421875,0.0
1734413420.999779,-55.17578125,-529.78515625,-582.51953125,-73.2421875,0.0
1734413421.0036764,-48.828125,-705.078125,-260.25390625,-5.37109375,0.0
1734413421.0075738,-14.6484375,135.25390625,382.32421875,24.90234375,0.0
1734413421.011471,4.8828125,799.31640625,516.11328125,-17.08984375,0.0
1734413421.015482,-21.97265625,147.94921875,-211.9140625,-61.03515625,0.0
1734413421.0193791,-46.875,-310.05859375,-521.484375,-83.984375,0.0
1734413421.0232766,-48.828125,111.328125,36.62109375,-57.12890625,0.0
1734413421.027174,-20.01953125,649.4140625,512.6953125,-1.46484375,0.0
1734413421.0310714,4.8828125,491.69921875,372.55859375,-4.8828125,0.0
1734413421.0349689,-23.4375,-214.35546875,-325.68359375,-43.9453125,0.0
1734413421.0388663,-45.8984375,-461.9140625,-563.96484375,-69.3359375,0.0
1734413421.0427637,-55.17578125,113.28125,-10.25390625,-36.62109375,0.0
1734413421.046661,-25.390625,229.4921875,393.5546875,18.5546875,0.0
1734413421.0505583,-3.90625,-253.41796875,337.890625,9.27734375,0.0
1734413421.0544558,-34.66796875,79.1015625,14.6484375,-36.62109375,0.0
1734413421.0583532,-57.12890625,47.8515625,-464.84375,-65.91796875,0.0
1734413421.0623603,-59.08203125,-252.44140625,-297.8515625,-42.96875,0.0
1734413421.0662577,-33.69140625,383.7890625,393.06640625,0.48828125,0.0
1734413421.0701551,-4.39453125,830.078125,545.41015625,-2.9296875,0.0
1734413421.0740526,-7.8125,440.91796875,99.12109375,-43.9453125,0.0
1734413421.07795,-50.29296875,-382.32421875,-528.80859375,-69.82421875,0.0
1734413421.0818474,-64.453125,-551.7578125,-387.20703125,-37.109375,0.0
1734413421.0857446,-36.62109375,43.9453125,334.9609375,0.0,0.0
1734413421.089642,-7.32421875,277.83203125,474.609375,4.8828125,0.0
1734413421.0935395,-0.48828125,-441.40625,-232.91015625,-8.30078125,0.0
1734413421.097437,-34.66796875,-554.6875,-607.421875,-55.17578125,0.0
1734413421.1013343,-59.5703125,11.71875,-238.28125,-52.24609375,0.0
1734413421.1052318,-33.203125,332.51953125,338.37890625,12.20703125,0.0
1734413421.1092262,-2.9296875,362.3046875,517.08984375,17.578125,0.0
1734413421.1131237,-11.23046875,284.66796875,227.05078125,-40.52734375,0.0
1734413421.117021,-46.38671875,78.125,-400.390625,-65.91796875,0.0
1734413421.1209185,-63.4765625,-195.3125,-410.15625,-55.17578125,0.0
1734413421.1248157,-40.52734375,150.87890625,280.2734375,-13.18359375,0.0
1734413421.1287131,7.8125,373.046875,433.59375,4.8828125,0.0
1734413421.1326106,13.671875,193.359375,185.05859375,-17.08984375,0.0
1734413421.136508,-19.04296875,-367.67578125,-486.81640625,-35.64453125,0.0
1734413421.1404054,-39.55078125,-737.79296875,-532.71484375,-40.0390625,0.0
1734413421.1443028,-23.4375,161.62109375,283.203125,-7.8125,0.0
1734413421.1482003,16.6015625,755.859375,546.875,26.3671875,0.0
1734413421.1520977,19.04296875,330.078125,246.58203125,3.41796875,0.0
1734413421.1560802,-15.625,-58.10546875,-366.2109375,-33.203125,0.0
1734413421.1599777,-48.33984375,-65.91796875,-457.03125,-59.08203125,0.0
1734413421.163875,-41.50390625,193.84765625,133.7890625,-12.6953125,0.0
1734413421.1677725,1.953125,257.32421875,438.4765625,46.38671875,0.0
1734413421.17167,24.4140625,127.44140625,294.921875,9.27734375,0.0
1734413421.1755674,-7.8125,-196.2890625,-361.81640625,-53.22265625,0.0
1734413421.1794648,-36.62109375,-575.68359375,-638.671875,-57.12890625,0.0
1734413421.1833622,-24.90234375,-820.80078125,-319.82421875,-1.953125,0.0
1734413421.1872597,11.71875,-10.7421875,354.00390625,33.69140625,0.0
1734413421.191157,18.06640625,760.7421875,527.83203125,7.8125,0.0
1734413421.1950545,0.0,200.68359375,-174.31640625,-25.87890625,0.0
1734413421.198952,-24.90234375,-335.9375,-565.91796875,-54.6875,0.0
1734413421.2029312,-54.6875,49.8046875,-55.17578125,-47.8515625,0.0
1734413421.2068286,-23.4375,638.18359375,475.09765625,-4.8828125,0.0
1734413421.210726,0.9765625,568.359375,444.3359375,4.8828125,0.0
1734413421.2146235,-18.5546875,101.5625,-59.08203125,-46.875,0.0
1734413421.2185209,-37.59765625,-185.546875,-546.875,-68.359375,0.0
1734413421.2224183,-42.48046875,-246.58203125,-295.8984375,-38.57421875,0.0
1734413421.2263157,-19.04296875,-167.48046875,255.37109375,3.90625,0.0
1734413421.2302132,20.5078125,-333.984375,306.15234375,13.671875,0.0
1734413421.2341106,13.18359375,32.2265625,-17.578125,-34.66796875,0.0
1734413421.238008,-30.2734375,-50.29296875,-534.1796875,-72.265625,0.0
1734413421.2419055,-43.45703125,-374.0234375,-417.48046875,-38.57421875,0.0
1734413421.245803,-12.20703125,191.89453125,287.109375,4.39453125,0.0
1734413421.249775,19.04296875,744.62890625,535.15625,8.30078125,0.0
1734413421.2536724,14.16015625,400.87890625,65.91796875,-28.80859375,0.0
1734413421.2575698,-17.08984375,-444.82421875,-650.87890625,-62.98828125,0.0
1734413421.2614672,-27.83203125,-333.984375,-427.734375,-34.1796875,0.0
1734413421.2653646,-20.5078125,281.73828125,314.94140625,12.20703125,0.0
1734413421.269262,17.08984375,251.46484375,417.48046875,21.97265625,0.0
1734413421.2731595,19.04296875,-293.45703125,-127.9296875,-4.39453125,0.0
1734413421.277057,-21.97265625,-564.94140625,-615.234375,-54.6875,0.0
1734413421.2809546,-42.96875,-128.90625,-376.46484375,-59.08203125,0.0
1734413421.284852,-25.390625,183.59375,187.98828125,11.71875,0.0
1734413421.2887495,13.18359375,-255.859375,288.57421875,30.76171875,0.0
1734413421.292647,5.37109375,-75.68359375,156.25,-13.18359375,0.0
1734413421.2966826,-21.97265625,54.19921875,-402.83203125,-41.50390625,0.0
1734413421.30058,-35.15625,-317.3828125,-606.4453125,-28.3203125,0.0
1734413421.3044775,-24.4140625,-51.7578125,0.48828125,-1.46484375,0.0
1734413421.308375,11.23046875,560.546875,479.4921875,18.06640625,0.0
1734413421.3122723,16.6015625,557.12890625,287.59765625,4.39453125,0.0
1734413421.3161697,-10.25390625,-331.0546875,-526.85546875,-33.203125,0.0
1734413421.3200674,-26.85546875,-767.578125,-663.57421875,-42.48046875,0.0
1734413421.3239648,-26.85546875,-20.5078125,28.3203125,7.32421875,0.0
1734413421.3278623,2.9296875,588.8671875,473.14453125,38.0859375,0.0
1734413421.3317597,19.53125,308.59375,278.80859375,10.25390625,0.0
1734413421.3356571,-3.90625,-173.828125,-414.0625,-28.3203125,0.0
1734413421.3395545,-25.87890625,-229.4921875,-615.72265625,-53.7109375,0.0
1734413421.3435786,-27.83203125,19.53125,-98.6328125,-11.23046875,0.0
1734413421.347476,0.48828125,111.81640625,354.00390625,40.0390625,0.0
1734413421.3513734,25.87890625,221.19140625,378.90625,36.62109375,0.0
1734413421.3552709,3.41796875,170.41015625,-187.5,-18.5546875,0.0
1734413421.3591685,-30.76171875,-263.671875,-634.765625,-46.875,0.0
1734413421.363066,-27.83203125,-507.32421875,-317.3828125,1.46484375,0.0
1734413421.3669634,1.46484375,-75.1953125,297.8515625,35.15625,0.0
1734413421.3708608,19.04296875,340.8203125,428.22265625,28.3203125,0.0
1734413421.3747585,10.25390625,64.94140625,-169.921875,-5.859375,0.0
1734413421.378656,-3.41796875,-778.3203125,-812.01171875,-37.59765625,0.0
1734413421.3825533,-34.1796875,-423.33984375,-342.7734375,-30.76171875,0.0
1734413421.3864508,-10.25390625,516.6015625,395.99609375,12.6953125,0.0
1734413421.3904653,11.71875,574.70703125,443.359375,27.34375,0.0
1734413421.3943627,-1.46484375,110.3515625,-65.91796875,-24.4140625,0.0
1734413421.3982604,-25.390625,-191.89453125,-596.19140625,-59.08203125,0.0
1734413421.4021578,-46.38671875,-97.65625,-343.75,-18.5546875,0.0
1734413421.4060552,-15.13671875,157.71484375,254.39453125,24.90234375,0.0
1734413421.4099526,23.4375,108.3984375,390.625,23.4375,0.0
1734413421.4138503,-1.46484375,-180.17578125,-110.83984375,-19.53125,0.0
1734413421.4177477,-37.59765625,-244.140625,-588.8671875,-61.5234375,0.0
1734413421.4216452,-40.52734375,-529.296875,-543.45703125,-38.57421875,0.0
1734413421.4255428,-22.94921875,-519.04296875,-27.83203125,25.390625,0.0
1734413421.4294403,4.39453125,429.19921875,476.07421875,20.99609375,0.0
1734413421.4333377,2.9296875,407.2265625,129.39453125,-30.2734375,0.0
1734413421.4373436,-25.390625,-392.578125,-654.296875,-54.6875,0.0
1734413421.4412413,-49.8046875,-398.92578125,-535.15625,-28.80859375,0.0
1734413421.4451387,-23.4375,273.92578125,252.9296875,28.3203125,0.0
1734413421.4490361,19.53125,639.6484375,477.05078125,34.1796875,0.0
1734413421.4529338,19.53125,97.65625,-7.32421875,-2.9296875,0.0
1734413421.4568312,-23.92578125,-522.94921875,-604.4921875,-49.31640625,0.0
1734413421.4607286,-42.48046875,-611.328125,-603.515625,-50.78125,0.0
1734413421.4646263,-36.62109375,-335.9375,-86.42578125,-2.44140625,0.0
1734413421.4685237,-11.23046875,-335.44921875,243.1640625,31.73828125,0.0
1734413421.4724212,-0.48828125,-25.390625,211.9140625,-13.18359375,0.0
1734413421.4763188,-23.92578125,183.59375,-363.76953125,-64.94140625,0.0
1734413421.4802163,-45.41015625,-231.93359375,-628.90625,-52.734375,0.0
1734413421.4842076,-40.52734375,-80.56640625,-63.4765625,12.20703125,0.0
1734413421.488105,-5.859375,622.55859375,493.1640625,37.109375,0.0
1734413421.4920027,15.625,698.2421875,364.2578125,-0.9765625,0.0
1734413421.4959002,-10.25390625,20.5078125,-388.671875,-44.921875,0.0
1734413421.4997978,-42.96875,-390.13671875,-633.7890625,-69.82421875,0.0
1734413421.5036952,-37.109375,-276.85546875,-202.63671875,-29.78515625,0.0
1734413421.5075927,0.9765625,215.8203125,380.37109375,7.8125,0.0
1734413421.5114903,24.90234375,111.81640625,288.0859375,0.9765625,0.0
1734413421.5153878,-13.671875,-662.59765625,-453.61328125,-32.2265625,0.0
1734413421.5192854,-59.08203125,-362.3046875,-591.30859375,-70.80078125,0.0
1734413421.5231829,-57.12890625,92.7734375,-143.5546875,-40.52734375,0.0
1734413421.5270805,-12.20703125,211.42578125,373.046875,11.71875,0.0
1734413421.531068,6.34765625,483.3984375,443.359375,14.6484375,0.0
1734413421.5349655,-23.92578125,353.02734375,-118.65234375,-36.62109375,0.0
1734413421.5388632,-45.8984375,-180.6640625,-622.0703125,-73.73046875,0.0
1734413421.5427606,-48.828125,-366.2109375,-374.0234375,-50.78125,0.0
1734413421.5466583,-17.578125,216.796875,312.01171875,3.90625,0.0
1734413421.5505557,0.9765625,361.81640625,426.26953125,10.7421875,0.0
1734413421.5544531,-27.83203125,-187.01171875,-175.78125,-42.96875,0.0
1734413421.5583508,-56.15234375,-849.12109375,-809.5703125,-73.2421875,0.0
1734413421.5622482,-72.265625,-483.88671875,-376.953125,-62.5,0.0
1734413421.566146,-48.828125,484.86328125,385.7421875,-11.71875,0.0
1734413421.5700433,-13.671875,641.11328125,489.74609375,9.27734375,0.0
1734413421.573941,-23.92578125,149.90234375,29.78515625,-30.76171875,0.0
1734413421.5779195,-49.31640625,-109.86328125,-554.19921875,-79.1015625,0.0
1734413421.581817,-63.4765625,-43.9453125,-375.0,-52.24609375,0.0
1734413421.5857146,-38.57421875,134.27734375,236.328125,11.71875,0.0
1734413421.589612,-8.30078125,375.0,478.515625,14.16015625,0.0
1734413421.5935097,-22.4609375,318.359375,66.89453125,-18.06640625,0.0
1734413421.597407,-47.8515625,-315.4296875,-607.421875,-60.05859375,0.0
1734413421.6013048,-48.33984375,-781.25,-628.41796875,-63.96484375,0.0
1734413421.6052022,-39.55078125,-613.28125,-97.65625,-11.71875,0.0
1734413421.6090999,-24.4140625,422.36328125,459.9609375,3.90625,0.0
1734413421.6129973,-17.578125,552.24609375,216.30859375,-20.5078125,0.0
1734413421.616895,-46.38671875,-309.08203125,-583.49609375,-53.22265625,0.0
1734413421.6207924,-61.03515625,-432.6171875,-597.16796875,-56.15234375,0.0
1734413421.6247635,-52.24609375,188.4765625,106.4453125,-19.04296875,0.0
1734413421.6286612,-30.2734375,590.33203125,458.984375,-0.48828125,0.0
1734413421.6325586,-5.37109375,183.10546875,104.4921875,-19.04296875,0.0
1734413421.6364563,-34.1796875,-144.53125,-486.81640625,-62.5,0.0
1734413421.640354,-55.6640625,-283.203125,-607.91015625,-78.61328125,0.0
1734413421.6442513,-31.73828125,-335.9375,-133.7890625,-29.78515625,0.0
1734413421.648149,-16.11328125,-107.421875,298.33984375,3.90625,0.0
1734413421.6520464,-5.37109375,-50.78125,199.21875,-23.92578125,0.0
1734413421.655944,-23.4375,-126.46484375,-395.01953125,-66.89453125,0.0
1734413421.6598415,-51.26953125,-343.26171875,-666.015625,-62.01171875,0.0
1734413421.6637392,-35.64453125,-753.41796875,-379.8828125,-11.71875,0.0
1734413421.6676366,-12.6953125,149.90234375,344.23828125,12.20703125,0.0
1734413421.671666,12.20703125,708.49609375,445.3125,0.9765625,0.0
1734413421.6755636,9.27734375,7.32421875,-323.73046875,-27.34375,0.0
1734413421.6794612,-45.8984375,-445.3125,-672.36328125,-51.26953125,0.0
1734413421.6833587,-63.96484375,-98.14453125,-174.31640625,-23.4375,0.0
1734413421.6872563,-22.4609375,554.6875,441.89453125,24.90234375,0.0
1734413421.691154,8.30078125,227.5390625,314.94140625,21.97265625,0.0
1734413421.6950514,1.953125,-605.46875,-366.69921875,-22.4609375,0.0
1734413421.698949,-33.203125,-384.27734375,-616.2109375,-58.10546875,0.0
1734413421.7028465,-38.57421875,-40.52734375,-250.48828125,-29.296875,0.0
1734413421.7067442,7.8125,86.42578125,294.43359375,32.2265625,0.0
1734413421.7106419,32.2265625,335.44921875,428.22265625,28.80859375,0.0
1734413421.7145393,2.9296875,187.01171875,-62.01171875,-34.66796875,0.0
1734413421.7185633,-31.73828125,-205.56640625,-598.6328125,-62.5,0.0
1734413421.722461,-30.76171875,-488.28125,-469.7265625,-28.80859375,0.0
1734413421.7263587,-5.37109375,143.5546875,276.85546875,20.01953125,0.0
1734413421.730256,13.671875,735.83984375,541.9921875,21.97265625,0.0
1734413421.7341537,1.953125,251.953125,-4.39453125,-16.6015625,0.0
1734413421.7380514,-21.484375,-649.90234375,-657.2265625,-35.15625,0.0
1734413421.7419488,-36.1328125,-815.4296875,-505.859375,-23.4375,0.0
1734413421.7458465,-13.18359375,19.53125,271.97265625,5.859375,0.0
1734413421.7497442,21.97265625,553.7109375,499.51171875,23.4375,0.0
1734413421.7536418,20.99609375,-417.48046875,-240.234375,10.7421875,0.0
1734413421.7575393,-3.90625,-616.69921875,-634.27734375,-48.828125,0.0
1734413421.761437,-32.2265625,-145.01953125,-396.97265625,-53.7109375,0.0
1734413421.7654464,-26.85546875,-33.203125,127.9296875,9.27734375,0.0
1734413421.7693439,6.8359375,345.703125,498.53515625,21.484375,0.0
1734413421.7732415,8.30078125,457.03125,240.234375,-10.25390625,0.0
1734413421.7771392,-19.53125,35.64453125,-429.19921875,-47.36328125,0.0
1734413421.7810369,-41.9921875,-375.48828125,-479.98046875,-39.0625,0.0
1734413421.7849345,-33.203125,-307.12890625,50.78125,2.9296875,0.0
1734413421.788832,-3.90625,210.9375,439.453125,23.92578125,0.0
1734413421.7927296,6.8359375,503.90625,333.49609375,-10.25390625,0.0
1734413421.7966273,-0.48828125,-247.55859375,-497.0703125,-45.41015625,0.0
1734413421.800525,-18.06640625,-832.03125,-651.3671875,-36.62109375,0.0
1734413421.8044224,-32.2265625,17.578125,112.79296875,5.37109375,0.0
1734413421.80832,6.34765625,682.12890625,507.32421875,36.1328125,0.0
1734413421.8123257,41.9921875,292.48046875,275.390625,28.3203125,0.0
1734413421.8162234,2.44140625,-83.984375,-354.98046875,-13.671875,0.0
1734413421.820121,-32.2265625,-182.6171875,-538.0859375,-36.1328125,0.0
1734413421.8240185,-23.4375,-185.05859375,-119.140625,-2.44140625,0.0
1734413421.8279161,5.859375,2.44140625,354.98046875,34.66796875,0.0
1734413421.8318138,34.1796875,55.17578125,347.65625,16.6015625,0.0
1734413421.8357115,13.671875,-258.7890625,-340.8203125,-23.4375,0.0
1734413421.8396091,-10.7421875,-632.32421875,-665.52734375,-29.296875,0.0
1734413421.8435066,3.90625,-843.26171875,-359.86328125,29.78515625,0.0
1734413421.8474042,23.4375,111.328125,358.3984375,57.6171875,0.0
1734413421.851302,46.38671875,842.7734375,549.8046875,38.0859375,0.0
1734413421.8551996,41.50390625,200.1953125,-110.3515625,11.23046875,0.0
1734413421.8591948,-1.953125,-462.890625,-604.00390625,-10.7421875,0.0
1734413421.8630924,-21.484375,-89.84375,-154.296875,15.625,0.0
1734413421.86699,10.25390625,604.00390625,472.16796875,39.0625,0.0
1734413421.8708878,37.109375,629.8828125,492.67578125,34.66796875,0.0
1734413421.8747854,26.85546875,192.87109375,32.71484375,0.9765625,0.0
1734413421.878683,0.0,-402.34375,-562.5,-32.2265625,0.0
1734413421.8825808,-23.4375,-406.25,-272.94921875,-20.5078125,0.0
1734413421.8864782,-0.9765625,-20.01953125,345.703125,29.296875,0.0
1734413421.8903759,29.78515625,-80.56640625,403.80859375,49.31640625,0.0
1734413421.8942735,13.18359375,257.8125,161.62109375,8.7890625,0.0
1734413421.8981712,-20.5078125,70.3125,-425.78125,-50.29296875,0.0
1734413421.9020689,-28.80859375,-367.1875,-430.6640625,-39.55078125,0.0
1734413421.9060566,4.8828125,221.19140625,312.01171875,29.78515625,0.0
1734413421.909954,18.5546875,868.1640625,600.09765625,30.76171875,0.0
1734413421.9138517,14.6484375,494.62890625,182.12890625,-5.859375,0.0
1734413421.9177494,-7.8125,-331.54296875,-537.59765625,-28.80859375,0.0
1734413421.921647,-41.015625,-358.88671875,-406.25,-38.0859375,0.0
1734413421.9255447,-27.83203125,60.546875,270.5078125,-6.8359375,0.0
1734413421.9294424,12.20703125,244.62890625,429.19921875,28.3203125,0.0
1734413421.93334,19.53125,-420.41015625,-130.37109375,14.16015625,0.0
1734413421.9372377,-17.08984375,-541.015625,-560.546875,-41.9921875,0.0
1734413421.9411354,-42.96875,-159.66796875,-424.31640625,-42.48046875,0.0
1734413421.945033,-37.59765625,-90.8203125,92.28515625,25.87890625,0.0
1734413421.9489307,-8.30078125,329.58984375,520.5078125,34.66796875,0.0
1734413421.9529092,11.23046875,548.828125,350.5859375,-7.32421875,0.0
1734413421.956807,-4.8828125,156.25,-346.19140625,-51.26953125,0.0
1734413421.9607046,-46.875,-370.1171875,-593.26171875,-56.15234375,0.0
1734413421.9646022,-33.203125,-65.91796875,22.4609375,-9.27734375,0.0
1734413421.9685,-1.953125,618.65234375,523.4375,22.94921875,0.0
1734413421.9723976,-5.859375,366.69921875,323.73046875,3.90625,0.0
1734413421.9762952,-31.25,-394.04296875,-444.82421875,-55.17578125,0.0
1734413421.980193,-53.22265625,-824.21875,-671.875,-75.1953125,0.0
1734413421.9840906,-57.12890625,-70.3125,52.734375,-25.390625,0.0
1734413421.9879882,-19.53125,665.52734375,514.16015625,10.7421875,0.0
1734413421.991886,20.01953125,408.203125,399.4140625,-8.7890625,0.0
1734413421.9957836,-1.46484375,43.45703125,-143.06640625,-40.0390625,0.0
1734413421.999752,0.0,-144.04296875,-547.8515625,-48.828125,0.0
1734413422.0036497,0.0,-243.1640625,-213.8671875,-17.08984375,0.0
1734413422.0075474,0.0,61.03515625,349.12109375,28.80859375,0.0
1734413422.011445,0.0,519.04296875,483.88671875,32.71484375,0.0
1734413422.0153427,0.0,233.3984375,-75.1953125,-12.20703125,0.0
1734413422.0192404,0.0,-558.10546875,-631.8359375,-43.45703125,0.0
1734413422.023138,0.0,-728.515625,-359.86328125,-14.6484375,0.0
1734413422.0270357,0.0,67.87109375,342.28515625,23.92578125,0.0
1734413422.0309334,0.0,778.3203125,547.8515625,14.16015625,0.0
1734413422.034831,0.0,295.8984375,-13.671875,-28.3203125,0.0
1734413422.0387287,0.0,-777.83203125,-743.1640625,-42.96875,0.0
1734413422.0426264,0.0,-395.01953125,-285.64453125,-25.87890625,0.0
1734413422.0466573,-26.3671875,571.2890625,464.84375,6.8359375,0.0
1734413422.050555,4.8828125,635.7421875,486.81640625,4.39453125,0.0
1734413422.0544527,-14.6484375,234.86328125,113.28125,-36.62109375,0.0
1734413422.0583503,-46.38671875,-95.703125,-475.5859375,-74.21875,0.0
1734413422.062248,-51.7578125,-217.7734375,-386.71875,-54.19921875,0.0
1734413422.066146,-34.1796875,-112.79296875,227.5390625,-4.8828125,0.0
1734413422.0700436,-14.16015625,66.40625,468.26171875,-1.46484375,0.0
1734413422.0739412,-14.16015625,350.09765625,215.8203125,-45.41015625,0.0
1734413422.077839,-44.43359375,77.1484375,-449.21875,-70.80078125,0.0
1734413422.0817366,-64.453125,-466.30859375,-514.6484375,-39.55078125,0.0
1734413422.0856342,-48.33984375,-82.03125,213.8671875,-16.11328125,0.0
1734413422.089532,-14.16015625,736.328125,564.94140625,-9.765625,0.0
1734413422.0935519,0.0,567.3828125,238.76953125,-25.87890625,0.0
1734413422.0974495,0.0,-282.71484375,-535.15625,-55.17578125,0.0
1734413422.1013472,0.0,-400.390625,-514.6484375,-34.1796875,0.0
1734413422.1052449,0.0,276.85546875,264.6484375,-4.39453125,0.0
1734413422.1091425,0.0,567.87109375,501.46484375,1.46484375,0.0
1734413422.1130402,0.0,26.3671875,131.8359375,-8.7890625,0.0
1734413422.1169379,0.0,-526.85546875,-503.41796875,-41.9921875,0.0
1734413422.1208358,0.0,-594.23828125,-547.36328125,-63.4765625,0.0
1734413422.1247334,0.0,-253.90625,-3.41796875,-27.83203125,0.0
1734413422.128631,0.0,-257.32421875,307.12890625,20.99609375,0.0
1734413422.1325288,0.0,59.5703125,342.7734375,0.48828125,0.0
1734413422.1364264,0.0,98.6328125,-278.80859375,-48.33984375,0.0
1734413422.1404352,-45.8984375,-333.49609375,-620.60546875,-56.15234375,0.0
1734413422.144333,-41.9921875,-73.73046875,-41.50390625,-4.39453125,0.0
1734413422.1482306,-18.5546875,626.46484375,514.16015625,22.94921875,0.0
1734413422.1521285,-0.9765625,751.46484375,451.66015625,-13.671875,0.0
1734413422.1560261,-10.25390625,53.7109375,-233.88671875,-51.26953125,0.0
1734413422.1599238,-44.921875,-652.83203125,-655.2734375,-61.03515625,0.0
1734413422.1638215,-62.01171875,-319.82421875,-148.92578125,-32.2265625,0.0
1734413422.1677194,-26.3671875,621.58203125,503.90625,22.4609375,0.0
1734413422.171617,13.671875,385.25390625,361.328125,26.3671875,0.0
1734413422.1755147,1.46484375,-549.8046875,-319.82421875,-26.85546875,0.0
1734413422.1794124,-26.85546875,-432.6171875,-598.14453125,-67.3828125,0.0
1734413422.18331,-29.296875,-227.05078125,-244.62890625,-32.71484375,0.0
1734413422.187313,0.0,89.84375,340.8203125,24.90234375,0.0
1734413422.1912107,21.484375,561.03515625,500.0,15.13671875,0.0
1734413422.1951084,-17.08984375,437.5,21.484375,-32.71484375,0.0
1734413422.1990063,-47.36328125,-112.3046875,-555.17578125,-58.10546875,0.0
1734413422.202904,-53.22265625,-400.87890625,-390.625,-31.73828125,0.0
1734413422.2068017,-31.25,1.46484375,289.55078125,16.6015625,0.0
1734413422.2106993,-3.90625,325.1953125,479.4921875,16.6015625,0.0
1734413422.2145972,-3.41796875,-34.66796875,-44.43359375,-30.76171875,0.0
1734413422.218495,-32.2265625,-793.9453125,-759.765625,-63.96484375,0.0
1734413422.2223926,-65.4296875,-458.0078125,-392.08984375,-47.36328125,0.0
1734413422.2262902,-42.48046875,516.6015625,381.34765625,6.8359375,0.0
1734413422.2301881,6.34765625,665.0390625,498.53515625,22.94921875,0.0
1734413422.2341776,3.90625,293.45703125,198.73046875,-20.99609375,0.0
1734413422.2380753,-45.41015625,-61.5234375,-485.83984375,-65.91796875,0.0
1734413422.2419732,-54.19921875,-344.23828125,-500.9765625,-41.9921875,0.0
1734413422.2458708,-28.3203125,9.27734375,240.234375,10.7421875,0.0
1734413422.2497685,-6.8359375,588.37890625,534.1796875,6.34765625,0.0
1734413422.2536664,-1.46484375,294.921875,149.90234375,-20.5078125,0.0
1734413422.257564,-34.1796875,-330.078125,-511.71875,-54.6875,0.0
1734413422.2614617,-62.5,-641.6015625,-624.0234375,-68.84765625,0.0
1734413422.2653594,-50.29296875,-560.05859375,-77.1484375,-21.484375,0.0
1734413422.2692573,-17.08984375,521.484375,512.6953125,6.34765625,0.0
1734413422.273155,-4.8828125,754.8828125,336.42578125,-20.99609375,0.0
1734413422.2770526,-27.34375,-158.203125,-505.37109375,-53.22265625,0.0
1734413422.2811081,-54.6875,-313.4765625,-561.03515625,-53.22265625,0.0
1734413422.285006,-56.640625,313.96484375,181.15234375,-11.23046875,0.0
1734413422.2889037,-34.1796875,720.21484375,507.8125,7.32421875,0.0
1734413422.2928016,-7.32421875,429.6875,281.73828125,-15.625,0.0
1734413422.2966993,-19.53125,-56.640625,-387.6953125,-62.98828125,0.0
1734413422.300597,-58.59375,-452.1484375,-648.4375,-76.66015625,0.0
1734413422.3044949,-49.31640625,-305.6640625,-165.52734375,-26.3671875,0.0
1734413422.3083925,-4.39453125,-296.875,242.67578125,24.4140625,0.0
1734413422.3122904,9.27734375,3.41796875,379.8828125,17.578125,0.0
1734413422.316188,-7.8125,263.671875,-141.6015625,-35.64453125,0.0
1734413422.3200858,-38.0859375,-223.14453125,-630.859375,-53.7109375,0.0
1734413422.3239837,-54.19921875,-166.50390625,-164.55078125,-21.97265625,0.0
1734413422.327961,-30.76171875,548.828125,468.75,13.671875,0.0
1734413422.3318586,2.9296875,763.18359375,460.44921875,11.71875,0.0
1734413422.3357565,-10.25390625,110.83984375,-202.1484375,-46.38671875,0.0
1734413422.3396542,-49.8046875,-381.34765625,-640.625,-83.49609375,0.0
1734413422.343552,-58.10546875,-28.80859375,-196.2890625,-40.52734375,0.0
1734413422.3474498,-24.4140625,276.3671875,360.83984375,22.94921875,0.0
1734413422.3513477,6.34765625,227.5390625,389.6484375,22.94921875,0.0
1734413422.3552454,-11.23046875,112.3046875,-75.68359375,-37.59765625,0.0
1734413422.359143,-37.59765625,-276.3671875,-625.0,-75.1953125,0.0
1734413422.363041,-49.31640625,-199.70703125,-316.89453125,-40.52734375,0.0
1734413422.3669386,-20.5078125,45.41015625,286.1328125,12.20703125,0.0
1734413422.3708365,0.0,-71.2890625,387.20703125,-4.39453125,0.0
1734413422.3748035,-17.578125,256.8359375,53.7109375,-61.5234375,0.0
1734413422.3787012,-31.73828125,-59.08203125,-566.89453125,-76.171875,0.0
1734413422.3825989,-50.78125,-468.26171875,-506.8359375,-50.78125,0.0
1734413422.3864968,-30.2734375,243.65234375,283.69140625,-6.8359375,0.0
1734413422.3903944,6.8359375,718.26171875,530.76171875,-0.9765625,0.0
1734413422.3942924,8.30078125,62.98828125,-21.484375,-35.15625,0.0
1734413422.39819,-20.5078125,-755.37109375,-643.06640625,-66.40625,0.0
1734413422.402088,-44.43359375,-648.92578125,-471.19140625,-55.17578125,0.0
1734413422.4059856,-33.203125,327.63671875,313.96484375,-0.9765625,0.0
1734413422.4098835,0.48828125,668.9453125,507.32421875,19.04296875,0.0
1734413422.4137812,5.859375,-214.84375,-159.1796875,-3.90625,0.0
1734413422.417679,-21.97265625,-526.3671875,-647.4609375,-48.828125,0.0
1734413422.4217079,-63.4765625,-263.671875,-424.31640625,-54.6875,0.0
1734413422.4256058,-56.640625,149.4140625,215.8203125,-15.13671875,0.0
1734413422.4295034,-7.8125,536.1328125,536.1328125,6.34765625,0.0
1734413422.4334013,1.953125,559.08203125,296.875,-19.04296875,0.0
1734413422.4372993,-25.390625,126.46484375,-389.6484375,-52.734375,0.0
1734413422.441197,-49.31640625,-551.7578125,-660.15625,-54.6875,0.0
1734413422.4450948,-47.36328125,-562.01171875,-114.2578125,-18.06640625,0.0
1734413422.4489925,-17.08984375,491.69921875,515.625,8.7890625,0.0
1734413422.4528904,-1.46484375,699.21875,372.0703125,-9.27734375,0.0
1734413422.456788,-25.87890625,-192.87109375,-450.68359375,-46.38671875,0.0
1734413422.460686,-56.15234375,-433.59375,-601.5625,-68.359375,0.0
1734413422.4645836,-57.6171875,197.75390625,66.89453125,-41.9921875,0.0
1734413422.4686027,-35.15625,648.92578125,495.1171875,6.34765625,0.0
1734413422.4725006,-9.27734375,389.16015625,346.19140625,15.13671875,0.0
1734413422.4763982,-33.69140625,-118.1640625,-287.109375,-45.41015625,0.0
