timestamps,TP9,AF7,AF8,TP10,Right AUX
1734414602.4295964,15.625,-45.41015625,-124.51171875,38.57421875,0.0
1734414688.2973726,-14.6484375,-42.96875,-103.515625,-45.41015625,0.0
1734414688.3051841,-4.8828125,-44.921875,109.375,-14.6484375,0.0
1734414602.4413135,18.06640625,-51.26953125,-272.94921875,33.203125,0.0
1734414688.3129954,-43.9453125,-34.66796875,-353.02734375,-53.7109375,0.0
1734414602.4491248,14.6484375,-38.57421875,174.8046875,33.203125,0.0
1734414688.320807,-33.69140625,-34.66796875,89.35546875,-57.12890625,0.0
1734414688.3286185,-8.30078125,-35.15625,-54.19921875,-31.73828125,0.0
1734414602.4608421,-1.46484375,-35.64453125,-36.1328125,27.83203125,0.0
1734414688.3366423,0.0,-39.55078125,-20.01953125,-18.5546875,0.0
1734414688.3444536,0.0,-45.8984375,31.25,-28.80859375,0.0
1734414602.4726825,3.41796875,-31.25,-22.4609375,6.34765625,0.0
1734414688.3522651,0.0,-45.41015625,35.64453125,-30.2734375,0.0
1734414602.4804938,-9.27734375,-29.296875,109.375,-8.30078125,0.0
1734414688.3600767,0.0,-44.43359375,-217.28515625,-19.53125,0.0
1734414688.367888,0.0,-46.38671875,1.953125,-28.80859375,0.0
1734414602.4922109,-1.46484375,-38.0859375,-114.2578125,-0.48828125,0.0
1734414688.3756995,0.0,-49.31640625,-154.78515625,-41.9921875,0.0
1734414602.5000224,-1.953125,-24.90234375,-150.390625,-7.32421875,0.0
1734414688.3832035,5.37109375,-57.12890625,-60.546875,-51.7578125,0.0
1734414688.3910148,-10.25390625,-46.38671875,65.91796875,-44.43359375,0.0
1734414602.5117395,8.30078125,-20.5078125,17.08984375,6.34765625,0.0
1734414688.3988264,-9.765625,-43.9453125,-279.296875,-41.9921875,0.0
1734414688.406638,3.90625,-47.36328125,-252.44140625,-36.62109375,0.0
1734414602.5235527,15.13671875,-30.76171875,0.0,9.765625,0.0
1734414688.4144492,-13.18359375,-45.8984375,-255.37109375,-37.109375,0.0
1734414602.5313642,3.41796875,-39.55078125,0.0,1.46484375,0.0
1734414688.4222608,-21.484375,-45.41015625,-10.25390625,-31.25,0.0
1734414688.4295132,-28.3203125,-42.96875,-318.359375,-26.85546875,0.0
1734414602.5430813,-21.97265625,-37.109375,0.0,-4.39453125,0.0
1734414688.4373248,-15.13671875,-37.59765625,-86.42578125,-36.62109375,0.0
1734414602.5508926,-11.23046875,-45.41015625,0.0,7.8125,0.0
1734414688.445136,-16.6015625,-44.921875,-221.6796875,-44.921875,0.0
1734414688.4529476,-30.2734375,-50.78125,-299.8046875,-66.89453125,0.0
1734414602.5626748,-18.06640625,-19.53125,-81.0546875,-10.7421875,0.0
1734414688.460759,-32.2265625,-52.734375,-359.375,-68.359375,0.0
1734414688.4685705,-17.578125,-41.9921875,-187.98828125,-54.6875,0.0
1734414602.5743918,-15.625,-8.7890625,17.08984375,-6.34765625,0.0
1734414688.4763608,-43.45703125,-37.59765625,-258.7890625,-38.57421875,0.0
1734414602.5822034,-9.27734375,-32.2265625,-163.0859375,-6.8359375,0.0
1734414688.484172,-53.7109375,-47.8515625,33.69140625,-32.2265625,0.0
1734414688.4919837,-36.1328125,-50.29296875,-349.609375,-30.76171875,0.0
1734414602.5939205,-38.57421875,-31.73828125,-351.07421875,-22.4609375,0.0
1734414688.499795,-66.40625,-50.29296875,-248.53515625,-66.89453125,0.0
1734414688.5076065,-51.26953125,-33.203125,-446.2890625,-52.24609375,0.0
1734414602.6056376,-18.06640625,-33.69140625,-59.08203125,-4.8828125,0.0
1734414688.515418,-51.26953125,-41.9921875,-233.88671875,-64.94140625,0.0
1734414602.613488,0.0,-20.01953125,104.98046875,-41.015625,0.0
1734414688.5232034,0.0,-37.109375,-18.5546875,-48.33984375,0.0
1734414688.5310147,0.0,-33.203125,59.5703125,-27.83203125,0.0
1734414602.625205,0.0,-17.578125,24.90234375,-15.13671875,0.0
1734414688.5388262,0.0,-40.0390625,85.9375,-41.015625,0.0
1734414602.6330166,0.0,-27.34375,-93.75,-31.73828125,0.0
1734414688.5466378,0.0,-41.9921875,65.4296875,-20.99609375,0.0
1734414688.554449,0.0,-38.57421875,25.87890625,-15.625,0.0
1734414602.6447337,0.0,-18.06640625,81.54296875,-31.25,0.0
1734414688.5622606,0.0,-36.1328125,110.3515625,-25.390625,0.0
1734414688.5695274,-48.33984375,-39.55078125,0.0,-28.3203125,0.0
1734414602.6564686,-28.80859375,-13.671875,63.96484375,-35.15625,0.0
1734414688.5773387,-44.43359375,-41.015625,0.0,-18.06640625,0.0
1734414602.6642802,-8.7890625,-11.71875,13.18359375,-32.2265625,0.0
1734414688.5851502,-53.22265625,-34.66796875,0.0,-23.4375,0.0
1734414688.5929618,-33.203125,-37.59765625,0.0,-12.6953125,0.0
1734414602.6759973,-21.97265625,-16.11328125,-124.51171875,-45.41015625,0.0
1734414688.600773,-34.1796875,-28.3203125,0.0,-23.4375,0.0
1734414688.6085846,-12.6953125,-30.76171875,0.0,-21.97265625,0.0
1734414602.6877143,0.48828125,-8.30078125,58.59375,-18.5546875,0.0
1734414688.6163862,-31.25,-21.97265625,295.41015625,-31.73828125,0.0
1734414602.695526,-8.30078125,-28.80859375,-51.7578125,-31.25,0.0
1734414688.6241977,-47.8515625,-29.296875,192.3828125,-46.875,0.0
1734414688.632009,-61.5234375,-21.97265625,182.6171875,-55.6640625,0.0
1734414602.7072363,-33.203125,-18.06640625,76.66015625,-34.66796875,0.0
1734414688.6398206,-42.48046875,-30.76171875,-113.76953125,-55.17578125,0.0
1734414602.7150478,-36.1328125,-24.90234375,21.97265625,-43.45703125,0.0
1734414688.647632,-57.12890625,-24.90234375,251.46484375,-50.78125,0.0
1734414688.6554434,-55.17578125,-23.4375,71.2890625,-53.22265625,0.0
1734414602.726765,-10.7421875,-37.109375,-245.1171875,-3.41796875,0.0
1734414688.6632946,-57.6171875,-26.85546875,142.578125,-57.12890625,0.0
1734414688.671106,-51.7578125,-27.34375,35.15625,-30.76171875,0.0
1734414602.738482,-43.45703125,-10.25390625,24.4140625,-37.109375,0.0
1734414688.6789174,-46.875,-24.90234375,117.67578125,-54.6875,0.0
1734414602.7462935,-31.73828125,-10.25390625,121.58203125,-25.87890625,0.0
1734414688.686729,-36.62109375,-30.76171875,-377.44140625,-52.24609375,0.0
1734414688.6945405,-67.3828125,-29.296875,8.30078125,-61.5234375,0.0
1734414602.7579713,-41.015625,-27.34375,-85.9375,-21.97265625,0.0
1734414688.7023518,-50.29296875,-21.97265625,-146.484375,-66.40625,0.0
1734414602.7657826,-48.828125,-27.34375,182.6171875,-28.80859375,0.0
1734414688.710308,-74.21875,-19.53125,21.97265625,-69.82421875,0.0
1734414688.7181196,-63.96484375,-16.11328125,-143.5546875,-86.42578125,0.0
1734414602.7774997,-52.734375,-32.71484375,14.6484375,-23.4375,0.0
1734414688.7259312,-55.17578125,-24.90234375,-49.8046875,-76.66015625,0.0
1734414688.7337425,-60.546875,-17.08984375,-208.984375,-81.54296875,0.0
1734414602.7892168,-32.2265625,-23.4375,-25.87890625,-23.4375,0.0
1734414688.741554,-42.48046875,-16.11328125,16.11328125,-62.5,0.0
1734414602.7971466,-45.41015625,-20.5078125,-63.4765625,-49.31640625,0.0
1734414688.7493656,-52.734375,-20.01953125,-230.95703125,-41.50390625,0.0
1734414688.7573242,0.0,-19.04296875,64.453125,-52.734375,0.0
1734414602.8088636,-26.85546875,-28.3203125,137.6953125,-28.3203125,0.0
1734414688.7651358,0.0,-18.06640625,145.01953125,-52.24609375,0.0
1734414688.7729473,0.0,-20.5078125,68.359375,-45.41015625,0.0
1734414602.8205807,-34.66796875,-8.30078125,-182.12890625,-45.41015625,0.0
1734414688.7807586,0.0,-20.5078125,135.25390625,-26.85546875,0.0
1734414602.8283923,-65.91796875,-24.4140625,120.60546875,-52.24609375,0.0
1734414688.7885702,0.0,-25.87890625,-66.89453125,-29.78515625,0.0
1734414688.7963817,0.0,-13.18359375,257.8125,-34.1796875,0.0
1734414602.8401093,-32.2265625,-41.9921875,151.85546875,-42.96875,0.0
1734414688.8043442,-39.55078125,-20.01953125,44.43359375,-46.875,0.0
1734414602.8482003,-87.40234375,-37.109375,75.68359375,-37.109375,0.0
1734414688.8121555,-37.59765625,-11.71875,224.609375,-19.53125,0.0
1734414688.819967,-41.9921875,-9.27734375,115.234375,-45.8984375,0.0
1734414602.8599174,-48.33984375,-35.15625,-14.16015625,-30.2734375,0.0
1734414688.8277786,-38.57421875,-8.7890625,138.18359375,-36.62109375,0.0
1734414688.83559,-36.62109375,-18.06640625,-87.890625,-39.0625,0.0
1734414602.8716345,-37.109375,-45.41015625,189.94140625,-19.04296875,0.0
1734414688.8434014,-43.9453125,-11.71875,171.38671875,-56.15234375,0.0
1734414602.879446,-36.62109375,-47.8515625,-418.9453125,-24.90234375,0.0
1734414688.8513665,0.0,-18.5546875,0.0,-32.71484375,0.0
1734414688.8591778,0.0,-19.04296875,0.0,-25.87890625,0.0
1734414602.891231,-32.71484375,-26.3671875,-32.71484375,-33.203125,0.0
1734414688.8669894,0.0,-26.3671875,0.0,-32.2265625,0.0
1734414602.8990426,-28.80859375,-20.99609375,83.49609375,-26.3671875,0.0
1734414688.874801,0.0,-11.23046875,0.0,-33.69140625,0.0
1734414688.8826122,0.0,-17.578125,0.0,-37.109375,0.0
1734414602.9107597,-41.015625,-46.38671875,-139.6484375,-27.34375,0.0
1734414688.8904238,0.0,-14.16015625,0.0,-30.2734375,0.0
1734414688.898405,-20.01953125,-17.578125,105.46875,-23.92578125,0.0
1734414602.9224768,-15.625,-37.59765625,-89.84375,-31.25,0.0
1734414688.9062166,-32.2265625,-12.6953125,78.61328125,-41.50390625,0.0
1734414602.9302883,-58.59375,-21.97265625,152.83203125,-21.97265625,0.0
1734414688.914028,-32.71484375,-22.4609375,63.4765625,-44.43359375,0.0
1734414688.9218395,-34.1796875,-26.85546875,-57.6171875,-52.24609375,0.0
1734414602.9422462,-42.96875,-38.0859375,-75.1953125,-13.18359375,0.0
1734414688.929651,-46.38671875,-32.71484375,-82.03125,-44.43359375,0.0
1734414688.9374623,-31.73828125,-34.66796875,-54.19921875,-57.12890625,0.0
1734414602.9539633,-48.33984375,-39.0625,-110.83984375,-24.4140625,0.0
1734414688.9451892,-54.19921875,-26.3671875,83.0078125,-40.52734375,0.0
1734414602.9617748,-29.78515625,-36.62109375,51.26953125,-31.25,0.0
1734414688.9530008,-45.8984375,-29.78515625,15.13671875,-38.57421875,0.0
1734414688.960812,-39.0625,-29.78515625,46.875,-19.53125,0.0
1734414602.973492,-49.8046875,-20.99609375,-18.5546875,-24.4140625,0.0
1734414688.9686236,-37.59765625,-27.83203125,-306.640625,-16.6015625,0.0
1734414602.9813032,-41.9921875,-28.80859375,-138.18359375,-34.66796875,0.0
1734414688.9764352,-48.33984375,-25.390625,21.97265625,-29.78515625,0.0
1734414688.9842465,-23.92578125,-34.66796875,-158.69140625,-20.5078125,0.0
1734414602.993055,-61.03515625,-32.71484375,96.6796875,-40.52734375,0.0
1734414688.9919739,-39.55078125,-24.90234375,92.7734375,-37.59765625,0.0
1734414688.9997854,-36.1328125,-22.4609375,-88.8671875,-31.73828125,0.0
1734414603.0047724,-31.73828125,-40.52734375,32.2265625,-36.62109375,0.0
1734414689.007597,-20.5078125,-19.04296875,81.54296875,-43.9453125,0.0
1734414603.0125837,-71.2890625,-60.546875,-132.8125,-54.6875,0.0
1734414689.0154083,-29.296875,-24.90234375,-304.6875,-16.6015625,0.0
1734414689.0232198,-28.80859375,-26.3671875,100.09765625,-47.8515625,0.0
1734414603.0243008,-60.05859375,-26.85546875,63.96484375,-46.38671875,0.0
1734414689.0310314,-27.34375,-35.15625,-133.7890625,-32.71484375,0.0
1734414689.039024,-37.109375,-38.0859375,84.9609375,-29.296875,0.0
1734414603.0360243,-44.921875,-23.4375,134.27734375,-43.9453125,0.0
1734414689.0468357,-35.64453125,-32.2265625,-166.015625,-36.1328125,0.0
1734414603.0438359,-38.57421875,-26.85546875,-42.96875,-32.71484375,0.0
1734414689.0546472,-27.34375,-23.92578125,99.12109375,-33.203125,0.0
1734414689.0624585,-25.390625,-34.66796875,-369.62890625,-20.99609375,0.0
1734414603.055553,-37.109375,-41.50390625,-278.3203125,-28.3203125,0.0
1734414689.07027,-36.1328125,-31.73828125,78.125,-42.96875,0.0
1734414603.0633643,-16.6015625,-30.76171875,-6.8359375,-16.11328125,0.0
1734414689.0780816,-34.66796875,-40.52734375,-71.2890625,-31.73828125,0.0
1734414689.0860732,0.0,-34.66796875,65.4296875,-32.71484375,0.0
1734414603.0750816,-28.3203125,-16.6015625,-231.93359375,-24.90234375,0.0
1734414689.0938847,0.0,-30.2734375,5.859375,-39.55078125,0.0
1734414689.101696,0.0,-32.71484375,24.4140625,-30.76171875,0.0
1734414603.086784,-20.5078125,-15.625,2.9296875,2.44140625,0.0
1734414689.1095076,0.0,-38.57421875,-288.0859375,-31.73828125,0.0
1734414603.0945952,-25.87890625,-22.4609375,38.57421875,-26.85546875,0.0
1734414689.117319,0.0,-39.55078125,28.80859375,-49.8046875,0.0
1734414689.1251304,0.0,-36.1328125,-231.4453125,-20.01953125,0.0
1734414603.1063123,0.48828125,-13.671875,-246.58203125,-16.6015625,0.0
1734414689.132524,-28.80859375,-39.55078125,0.0,-33.69140625,0.0
1734414603.1141238,-38.0859375,-19.04296875,-17.08984375,-36.1328125,0.0
1734414689.1403356,-25.87890625,-24.90234375,0.0,-34.1796875,0.0
1734414689.1481469,-18.06640625,-32.2265625,0.0,-40.52734375,0.0
1734414603.1258051,-53.22265625,-39.55078125,140.625,-22.4609375,0.0
1734414689.1559584,-47.36328125,-32.2265625,0.0,-40.52734375,0.0
1734414689.16377,-33.203125,-35.15625,0.0,-40.52734375,0.0
1734414603.1375225,-62.98828125,-46.38671875,55.6640625,-37.109375,0.0
1734414689.1715813,-31.73828125,-32.71484375,0.0,-58.10546875,0.0
1734414603.1453338,-46.38671875,-49.31640625,-104.98046875,-19.04296875,0.0
1734414689.1796153,-40.0390625,-32.71484375,-97.16796875,-24.90234375,0.0
1734414689.1874268,-44.43359375,-34.66796875,80.078125,-47.8515625,0.0
1734414603.1570508,-69.3359375,-41.9921875,110.83984375,-41.50390625,0.0
1734414689.1952384,-36.1328125,-32.71484375,-76.66015625,-38.0859375,0.0
1734414689.2030497,-24.90234375,-36.62109375,-174.8046875,-32.2265625,0.0
1734414603.1687682,-60.546875,-48.33984375,59.08203125,-24.90234375,0.0
1734414689.2108612,-30.76171875,-27.83203125,-229.4921875,-32.71484375,0.0
1734414603.1767213,-56.15234375,-45.41015625,-158.203125,-24.90234375,0.0
1734414689.2186728,-36.62109375,-29.296875,-57.6171875,-20.99609375,0.0
1734414689.2265744,-24.90234375,-32.2265625,-178.22265625,-18.06640625,0.0
1734414603.1884387,-27.34375,-30.2734375,81.54296875,-8.30078125,0.0
1734414689.234386,-21.484375,-25.87890625,86.9140625,-30.2734375,0.0
1734414603.19625,-45.41015625,-52.734375,-241.69921875,-26.3671875,0.0
1734414689.2421975,-15.625,-21.484375,-195.3125,-25.390625,0.0
1734414689.2500088,-47.36328125,-29.78515625,-93.75,-46.875,0.0
1734414603.207967,-25.87890625,-34.66796875,-164.0625,-31.25,0.0
1734414689.2578204,-46.875,-36.1328125,-413.57421875,-37.109375,0.0
1734414689.265632,-51.26953125,-33.203125,56.640625,-52.24609375,0.0
1734414603.2197871,0.0,-32.2265625,-27.34375,-41.9921875,0.0
1734414689.2734182,-55.6640625,-29.296875,0.0,-55.6640625,0.0
1734414603.2275984,0.0,-31.73828125,84.9609375,-24.90234375,0.0
1734414689.2812297,-47.36328125,-37.109375,0.0,-47.8515625,0.0
1734414689.2890413,-42.48046875,-37.109375,0.0,-45.41015625,0.0
1734414603.2393155,0.0,-33.69140625,-372.55859375,-43.9453125,0.0
1734414689.2968526,-35.64453125,-33.203125,0.0,-48.33984375,0.0
1734414603.247127,0.0,-21.97265625,157.71484375,-20.99609375,0.0
1734414689.3046641,-48.33984375,-39.55078125,0.0,-37.109375,0.0
1734414689.3124757,-20.99609375,-26.3671875,0.0,-37.59765625,0.0
1734414603.2588441,0.0,-36.62109375,-20.99609375,-14.6484375,0.0
1734414689.3202717,-47.8515625,-33.69140625,-3.41796875,-47.8515625,0.0
1734414689.328083,-52.24609375,-37.109375,-106.4453125,-48.828125,0.0
1734414603.2706518,-33.69140625,-21.97265625,69.3359375,-18.5546875,0.0
1734414689.3358946,-55.17578125,-44.43359375,-121.58203125,-55.17578125,0.0
1734414603.2784631,-46.875,-28.3203125,115.234375,-42.96875,0.0
1734414689.3437061,-51.26953125,-42.48046875,-428.7109375,-43.9453125,0.0
1734414689.3515174,-54.19921875,-36.1328125,-3.41796875,-35.64453125,0.0
1734414603.2901804,8.7890625,-38.0859375,49.8046875,-27.34375,0.0
1734414689.359329,-36.62109375,-38.57421875,-141.11328125,-34.1796875,0.0
1734414689.3671303,-37.109375,-37.59765625,41.015625,-43.45703125,0.0
1734414603.3018975,-39.0625,-29.296875,-199.70703125,-36.62109375,0.0
1734414689.3749416,-49.8046875,-36.1328125,-127.44140625,-40.52734375,0.0
1734414603.3097088,-34.1796875,-37.59765625,58.59375,-38.57421875,0.0
1734414689.3827531,-47.36328125,-39.0625,51.7578125,-46.875,0.0
1734414689.3905647,-30.76171875,-39.55078125,-439.94140625,-27.34375,0.0
1734414603.3214912,-37.59765625,-22.94921875,132.8125,-44.43359375,0.0
1734414689.398376,-50.78125,-37.59765625,57.6171875,-26.85546875,0.0
1734414603.3293025,-38.0859375,-31.73828125,4.8828125,-35.15625,0.0
1734414689.4061875,-26.85546875,-33.203125,-197.265625,-26.85546875,0.0
1734414689.4139936,-50.29296875,-39.0625,109.86328125,-38.57421875,0.0
1734414603.3410199,-37.59765625,-40.0390625,-80.56640625,-50.29296875,0.0
1734414689.421805,-36.62109375,-42.96875,-325.1953125,-20.99609375,0.0
1734414689.4296165,-45.8984375,-35.64453125,75.1953125,-34.66796875,0.0
1734414603.352737,-34.1796875,-33.203125,70.3125,-25.87890625,0.0
1734414689.437428,-49.8046875,-42.48046875,-412.109375,-41.015625,0.0
1734414603.3605783,0.0,-34.66796875,-26.85546875,-39.55078125,0.0
1734414689.4452393,-42.48046875,-42.96875,80.078125,-37.59765625,0.0
1734414689.4530509,-36.62109375,-38.57421875,-100.09765625,-29.296875,0.0
1734414603.3722954,0.0,-12.6953125,-26.3671875,-12.6953125,0.0
1734414689.4611166,-27.83203125,-41.015625,0.0,-23.4375,0.0
1734414689.468928,-33.69140625,-42.48046875,0.0,-25.390625,0.0
1734414603.3840125,0.0,-30.76171875,51.7578125,-44.921875,0.0
1734414689.4767394,-32.71484375,-41.015625,0.0,-36.1328125,0.0
1734414603.391824,0.0,-37.59765625,-235.3515625,-28.3203125,0.0
1734414689.484551,-42.96875,-37.59765625,0.0,-40.52734375,0.0
1734414689.4923625,-48.33984375,-41.015625,0.0,-49.8046875,0.0
1734414603.403541,0.0,-21.484375,12.20703125,-34.1796875,0.0
1734414689.5001738,-28.3203125,-32.2265625,0.0,-45.41015625,0.0
1734414603.410833,-40.52734375,-26.85546875,66.89453125,-37.109375,0.0
1734414689.5082366,-41.015625,-33.69140625,-94.7265625,-37.109375,0.0
1734414689.5160482,-37.59765625,-34.1796875,-69.82421875,-41.9921875,0.0
1734414603.42255,-43.9453125,-17.578125,83.49609375,-28.3203125,0.0
1734414689.5238597,-27.83203125,-39.0625,-75.1953125,-35.64453125,0.0
1734414689.531671,-37.59765625,-40.0390625,-170.8984375,-50.29296875,0.0
1734414603.4342673,-33.203125,-40.0390625,-287.59765625,-34.1796875,0.0
1734414689.5394826,-53.22265625,-41.015625,-207.03125,-42.96875,0.0
1734414603.4420786,-25.390625,-24.4140625,197.75390625,-27.83203125,0.0
1734414689.5472941,-54.19921875,-40.0390625,-37.59765625,-59.5703125,0.0
1734414689.555103,0.0,-41.50390625,-64.94140625,-57.12890625,0.0
1734414603.4537864,-47.8515625,-27.34375,71.2890625,-33.203125,0.0
1734414689.5629146,0.0,-44.921875,77.63671875,-56.640625,0.0
1734414603.4615977,-41.50390625,-25.87890625,-26.85546875,-38.57421875,0.0
1734414689.5707262,0.0,-41.015625,-173.33984375,-49.8046875,0.0
1734414689.5785375,0.0,-54.6875,-241.2109375,-13.671875,0.0
1734414603.473315,-50.29296875,-47.36328125,8.30078125,-47.36328125,0.0
1734414689.586349,0.0,-39.55078125,-291.9921875,-31.25,0.0
1734414689.5941606,0.0,-30.76171875,-90.8203125,-19.04296875,0.0
1734414603.485032,-56.640625,-24.90234375,189.453125,-50.78125,0.0
1734414689.6020873,32.2265625,-33.203125,-145.5078125,4.8828125,0.0
1734414603.4928434,-46.875,-29.78515625,-68.359375,-44.921875,0.0
1734414689.6098988,16.6015625,-31.73828125,97.65625,26.85546875,0.0
1734414689.6177104,51.26953125,-27.83203125,-263.18359375,43.45703125,0.0
1734414603.504527,-46.875,-26.3671875,26.3671875,-43.45703125,0.0
1734414689.6255217,51.7578125,-27.34375,-203.125,49.8046875,0.0
1734414689.6333332,56.15234375,-32.71484375,-423.33984375,55.17578125,0.0
1734414603.5162442,-53.22265625,-48.828125,77.63671875,-55.17578125,0.0
1734414689.6411448,64.453125,-30.76171875,-45.41015625,46.38671875,0.0
1734414603.5240555,-58.10546875,-26.3671875,-301.26953125,-41.50390625,0.0
1734414689.6489592,24.4140625,-43.45703125,-96.19140625,47.36328125,0.0
1734414689.6567707,6.8359375,-42.48046875,-12.20703125,18.06640625,0.0
1734414603.5357728,-49.31640625,-20.01953125,-49.31640625,-51.7578125,0.0
1734414689.664582,26.3671875,-39.55078125,-189.94140625,2.9296875,0.0
1734414603.543584,-45.8984375,-30.2734375,45.41015625,-41.50390625,0.0
1734414689.6723936,26.85546875,-34.1796875,-299.31640625,-2.44140625,0.0
1734414689.680205,30.2734375,-32.2265625,-195.80078125,9.27734375,0.0
1734414603.5554447,-44.43359375,-37.109375,-50.78125,-32.2265625,0.0
1734414689.6880164,28.3203125,-32.71484375,-354.00390625,6.34765625,0.0
1734414689.6958308,6.34765625,-39.55078125,-160.64453125,-27.83203125,0.0
1734414603.5671618,-27.83203125,-29.78515625,-143.06640625,-25.390625,0.0
1734414689.7036424,5.37109375,-44.921875,-80.56640625,3.90625,0.0
1734414603.574973,-31.25,-26.85546875,87.40234375,-41.9921875,0.0
1734414689.711454,-3.90625,-43.9453125,45.8984375,-7.8125,0.0
1734414689.7192652,20.5078125,-32.71484375,-384.765625,-24.90234375,0.0
1734414603.5866904,-29.78515625,-22.94921875,-102.5390625,-29.78515625,0.0
1734414689.7270768,-18.5546875,-23.4375,24.90234375,8.7890625,0.0
1734414689.7348883,-10.25390625,-40.52734375,-20.99609375,7.32421875,0.0
1734414603.5985138,0.0,-40.52734375,-106.4453125,-52.734375,0.0
1734414689.7427964,21.484375,-28.80859375,106.93359375,1.46484375,0.0
1734414603.6063251,0.0,-15.13671875,142.08984375,-21.484375,0.0
1734414689.750608,11.23046875,-31.25,35.15625,12.20703125,0.0
1734414689.7584195,-1.953125,-19.04296875,53.22265625,-4.39453125,0.0
1734414603.6180422,0.0,-39.0625,-157.71484375,-24.90234375,0.0
1734414689.7662308,-7.8125,-32.2265625,-207.03125,1.953125,0.0
1734414603.6258538,0.0,-22.94921875,-83.984375,-14.6484375,0.0
1734414689.7740424,-9.765625,-21.484375,183.10546875,-14.6484375,0.0
1734414689.781854,-20.5078125,-20.01953125,87.40234375,-30.2734375,0.0
1734414603.6375709,0.0,-20.99609375,-76.66015625,-28.80859375,0.0
1734414689.7897303,0.0,-14.16015625,150.390625,-37.59765625,0.0
1734414689.7975419,0.0,-21.484375,48.828125,-72.75390625,0.0
1734414603.6493762,-26.3671875,-32.2265625,62.5,-11.23046875,0.0
1734414689.8053534,0.0,-21.484375,150.390625,-66.89453125,0.0
1734414603.6571875,-37.109375,-30.2734375,-89.84375,-29.296875,0.0
1734414689.813165,0.0,-41.50390625,-321.77734375,-66.40625,0.0
1734414689.8209763,0.0,-25.87890625,157.2265625,-52.24609375,0.0
1734414603.6689045,-13.671875,-16.11328125,130.37109375,-18.06640625,0.0
1734414689.8287878,0.0,-33.69140625,-4.8828125,-22.4609375,0.0
1734414603.676716,-7.32421875,-42.96875,-272.4609375,-26.3671875,0.0
1734414689.8368828,-23.4375,-39.0625,104.98046875,-21.97265625,0.0
1734414689.8446941,-20.5078125,-42.48046875,23.4375,-46.875,0.0
1734414603.688493,0.0,-15.625,16.11328125,-26.85546875,0.0
1734414689.8525057,-26.3671875,-42.96875,95.21484375,-0.9765625,0.0
1734414689.8603172,-22.4609375,-48.33984375,-69.3359375,-10.7421875,0.0
1734414603.70021,0.0,-31.25,-20.01953125,-24.90234375,0.0
1734414689.8681288,-6.34765625,-39.55078125,42.48046875,-22.4609375,0.0
1734414603.7080216,0.0,-47.8515625,-146.97265625,-22.4609375,0.0
1734414689.87594,-43.9453125,-34.1796875,-45.8984375,-24.4140625,0.0
1734414689.8839931,0.0,-39.0625,46.38671875,-20.99609375,0.0
1734414603.7197387,0.0,-25.390625,-439.94140625,-17.08984375,0.0
1734414689.8918047,0.0,-27.83203125,123.046875,-44.43359375,0.0
1734414689.899616,0.0,-25.390625,0.48828125,-45.8984375,0.0
1734414603.7314558,0.0,-28.3203125,-102.05078125,-34.1796875,0.0
1734414689.9074275,0.0,-25.390625,44.43359375,-41.50390625,0.0
1734414603.7392995,-35.15625,-28.80859375,0.0,-35.15625,0.0
1734414689.915239,0.0,-32.71484375,-157.71484375,-26.3671875,0.0
1734414689.9230506,0.0,-32.71484375,132.32421875,-29.296875,0.0
1734414603.7510169,-21.97265625,-24.4140625,0.0,-8.7890625,0.0
1734414689.9310842,-47.36328125,-40.52734375,-119.62890625,-35.15625,0.0
1734414603.7588282,-52.24609375,-14.6484375,0.0,-40.52734375,0.0
1734414689.9388957,-60.05859375,-30.76171875,91.796875,-31.25,0.0
1734414689.9467072,-45.41015625,-36.1328125,-62.5,-54.6875,0.0
1734414603.7705452,-38.57421875,-14.16015625,0.0,-40.0390625,0.0
1734414689.9545186,-65.4296875,-39.0625,-143.5546875,-52.24609375,0.0
1734414689.96233,-73.2421875,-44.921875,-248.53515625,-57.12890625,0.0
1734414603.782271,-24.4140625,-19.04296875,12.6953125,-28.3203125,0.0
1734414689.9701416,-48.828125,-27.83203125,-116.69921875,-59.5703125,0.0
1734414603.7900822,-17.578125,-20.5078125,15.13671875,-21.97265625,0.0
1734414689.978128,0.0,-31.73828125,-32.71484375,-79.58984375,0.0
1734414689.9859395,0.0,-30.2734375,136.71875,-56.640625,0.0
1734414603.8017993,-44.43359375,-38.0859375,-140.13671875,-50.29296875,0.0
1734414689.993751,0.0,-34.1796875,-125.9765625,-49.8046875,0.0
1734414603.8096108,-29.296875,-22.4609375,-325.1953125,-27.34375,0.0
1734414690.0015626,0.0,-33.69140625,47.8515625,-60.546875,0.0
1734414690.009374,0.0,-39.55078125,-301.7578125,-45.8984375,0.0
1734414603.821328,-35.15625,-29.78515625,-95.21484375,-36.1328125,0.0
1734414690.0171854,0.0,-31.25,89.84375,-59.08203125,0.0
1734414690.0251558,-45.8984375,-29.78515625,48.33984375,-51.7578125,0.0
1734414603.833042,-33.203125,-33.203125,89.35546875,-41.9921875,0.0
1734414690.0329673,-54.6875,-40.52734375,85.44921875,-39.55078125,0.0
1734414603.8408532,-28.80859375,-36.1328125,-24.4140625,-36.1328125,0.0
1734414690.0407789,-54.6875,-42.96875,28.3203125,-49.31640625,0.0
1734414690.0485904,-41.015625,-34.66796875,3.41796875,-4.8828125,0.0
1734414603.8525705,-26.85546875,-13.671875,-273.4375,-40.0390625,0.0
1734414690.056402,-29.78515625,-29.296875,-42.96875,-42.48046875,0.0
1734414690.0642133,-67.87109375,-42.96875,-1.46484375,-27.34375,0.0
1734414603.8642876,-32.2265625,-36.1328125,89.84375,-25.390625,0.0
1734414690.0721269,-58.10546875,-48.828125,159.66796875,-55.6640625,0.0
1734414603.872099,-27.83203125,-22.94921875,123.53515625,-33.69140625,0.0
1734414690.0799384,-44.43359375,-46.38671875,25.390625,-36.1328125,0.0
1734414690.08775,-29.296875,-33.203125,129.8828125,-48.828125,0.0
1734414603.8837836,-25.87890625,-30.76171875,-76.66015625,-20.01953125,0.0
1734414690.0955613,-37.59765625,-33.203125,-169.43359375,-23.4375,0.0
1734414603.8915951,-20.99609375,-40.52734375,134.765625,-35.64453125,0.0
1734414690.1033728,-50.29296875,-29.78515625,127.9296875,-37.109375,0.0
1734414690.1111844,-40.52734375,-31.25,-75.1953125,-27.83203125,0.0
1734414603.9033122,-10.25390625,-31.25,-2.44140625,-11.71875,0.0
1734414690.1190872,-49.8046875,-39.0625,142.08984375,-34.1796875,0.0
1734414690.1268985,-26.3671875,-41.015625,-40.52734375,-35.64453125,0.0
1734414603.9150293,-30.76171875,-17.08984375,-60.05859375,-27.83203125,0.0
1734414690.13471,-44.43359375,-41.015625,45.8984375,-25.87890625,0.0
1734414603.922974,0.0,-40.52734375,0.0,-48.33984375,0.0
1734414690.1425216,-26.85546875,-41.50390625,-425.78125,-21.484375,0.0
1734414690.1503332,-61.03515625,-42.48046875,111.81640625,-32.2265625,0.0
1734414603.9346914,0.0,-31.73828125,0.0,-30.76171875,0.0
1734414690.1581445,-60.05859375,-41.015625,-246.58203125,-35.64453125,0.0
1734414690.1659985,-42.96875,-37.109375,62.01171875,-32.71484375,0.0
1734414603.9464085,0.0,-36.1328125,0.0,-16.11328125,0.0
1734414690.17381,-41.50390625,-27.34375,-356.93359375,-57.6171875,0.0
1734414603.9542198,0.0,-35.15625,0.0,-19.53125,0.0
1734414690.1816213,-36.1328125,-27.34375,-65.4296875,-41.50390625,0.0
1734414690.1894329,-36.1328125,-34.1796875,-403.80859375,-32.2265625,0.0
1734414603.9659371,0.0,-30.2734375,0.0,-19.04296875,0.0
1734414690.1972444,-43.45703125,-33.69140625,29.296875,-47.8515625,0.0
1734414603.973852,-21.484375,-28.3203125,-33.69140625,-23.4375,0.0
1734414690.205056,-35.64453125,-38.0859375,-222.16796875,-8.7890625,0.0
1734414690.2131236,0.0,-27.34375,-133.7890625,-16.11328125,0.0
1734414603.9855692,-42.48046875,-20.5078125,34.66796875,-40.0390625,0.0
1734414690.2209349,0.0,-18.5546875,-236.81640625,-38.57421875,0.0
1734414690.2287464,0.0,-19.53125,-311.5234375,-14.6484375,0.0
1734414603.9972863,-52.24609375,-16.6015625,138.671875,-39.0625,0.0
1734414690.236558,0.0,-15.13671875,-354.4921875,-43.9453125,0.0
1734414604.0050976,-8.7890625,-33.69140625,-270.99609375,-33.203125,0.0
1734414690.2443695,0.0,-12.6953125,-289.55078125,-31.73828125,0.0
1734414690.252181,0.0,-22.94921875,-288.0859375,-11.23046875,0.0
1734414604.016894,-55.17578125,-18.06640625,-152.34375,-41.50390625,0.0
1734414690.2602193,-17.578125,-17.578125,-308.10546875,-33.69140625,0.0
1734414604.0247056,-30.2734375,-15.625,138.18359375,-30.76171875,0.0
1734414690.268031,-36.62109375,-19.04296875,-51.7578125,-24.90234375,0.0
1734414690.2758422,-19.04296875,-26.3671875,-148.4375,-4.8828125,0.0
1734414604.0364227,-55.17578125,-26.85546875,-278.80859375,-54.19921875,0.0
1734414690.2836537,-40.0390625,-22.94921875,-176.26953125,-38.57421875,0.0
1734414690.2914653,-42.48046875,-27.34375,-312.01171875,-23.4375,0.0
1734414604.0481398,-22.94921875,-72.265625,-205.56640625,-44.921875,0.0
1734414690.2992768,-76.171875,-15.625,106.4453125,-52.734375,0.0
1734414604.0559514,-47.8515625,-34.1796875,157.71484375,-47.8515625,0.0
1734414690.3072786,-16.11328125,-19.04296875,0.0,-22.4609375,0.0
1734414690.3150902,-81.54296875,-31.73828125,0.0,-25.87890625,0.0
1734414604.0677216,-30.76171875,-6.34765625,108.3984375,-27.34375,0.0
1734414690.3229015,-50.29296875,-19.53125,0.0,-30.2734375,0.0
1734414690.330713,-64.453125,-19.04296875,0.0,-30.2734375,0.0
1734414604.079439,-40.0390625,-18.06640625,-133.30078125,-30.2734375,0.0
1734414690.3385246,-46.875,-22.94921875,0.0,-17.578125,0.0
1734414604.0872502,-23.4375,-23.92578125,70.80078125,-36.62109375,0.0
1734414690.3463361,-73.2421875,-16.6015625,0.0,-7.32421875,0.0
1734414690.3543172,0.0,-17.578125,12.20703125,-35.64453125,0.0
1734414604.0989676,-51.26953125,-28.3203125,-65.91796875,-53.7109375,0.0
1734414690.3621287,0.0,1.953125,172.8515625,-29.78515625,0.0
1734414604.1067789,-42.96875,-30.2734375,-64.453125,-20.99609375,0.0
1734414690.3699403,0.0,-9.765625,-133.30078125,-3.41796875,0.0
1734414690.3777518,0.0,-7.8125,113.28125,-25.390625,0.0
1734414604.1185298,-53.22265625,-21.97265625,-11.71875,-51.26953125,0.0
1734414690.3855634,0.0,-8.30078125,-255.859375,-13.671875,0.0
1734414690.3933747,0.0,-1.953125,120.1171875,5.37109375,0.0
1734414604.1302469,-28.3203125,-31.73828125,9.27734375,-18.06640625,0.0
1734414690.4015505,-87.40234375,-9.27734375,161.1328125,-20.5078125,0.0
1734414604.1380584,-13.671875,-26.3671875,-396.484375,-20.5078125,0.0
1734414690.409362,-85.9375,-12.6953125,66.89453125,-6.34765625,0.0
1734414690.4171734,-87.40234375,-4.39453125,124.0234375,-11.23046875,0.0
1734414604.1497755,-45.41015625,-37.109375,43.45703125,-25.87890625,0.0
1734414690.424985,-81.54296875,-10.25390625,72.265625,-2.44140625,0.0
1734414604.1575923,-35.64453125,-28.80859375,63.96484375,-23.4375,0.0
1734414690.4327965,-73.2421875,-9.27734375,-29.78515625,26.3671875,0.0
1734414690.440608,-33.203125,-9.765625,7.8125,17.578125,0.0
1734414604.1693094,-25.390625,-27.83203125,-11.71875,-30.76171875,0.0
1734414690.4485195,0.0,-11.23046875,190.4296875,28.3203125,0.0
1734414690.456331,0.0,-8.30078125,43.45703125,40.52734375,0.0
1734414604.1810265,-44.43359375,-32.71484375,-367.67578125,-41.9921875,0.0
1734414690.4641426,0.0,-12.20703125,115.72265625,60.05859375,0.0
1734414604.188838,-14.6484375,-37.59765625,-8.30078125,-33.69140625,0.0
1734414690.471954,0.0,-6.8359375,-45.41015625,52.24609375,0.0
1734414690.4797657,0.0,-11.71875,119.140625,40.0390625,0.0
1734414604.200555,-52.24609375,-51.7578125,-294.921875,-41.015625,0.0
1734414690.487577,0.0,0.48828125,-132.8125,76.66015625,0.0
1734414690.4954429,-5.859375,-10.25390625,154.78515625,48.828125,0.0
1734414604.2122517,0.0,-27.83203125,-52.24609375,-37.109375,0.0
1734414690.5032542,-38.0859375,-2.9296875,26.3671875,66.40625,0.0
1734414604.220063,0.0,-20.01953125,45.8984375,-48.828125,0.0
1734414690.5110657,-46.38671875,-4.8828125,99.12109375,27.83203125,0.0
1734414690.5188773,-104.00390625,-12.6953125,-296.38671875,-11.23046875,0.0
1734414604.23178,0.0,-44.43359375,-255.37109375,-10.7421875,0.0
1734414690.5266888,-140.13671875,-6.8359375,67.3828125,-68.84765625,0.0
1734414604.2395916,0.0,-29.78515625,-126.46484375,-36.62109375,0.0
1734414690.5345004,-132.8125,-15.13671875,-89.35546875,-82.51953125,0.0
1734414690.5423346,-157.2265625,-22.4609375,130.37109375,-78.61328125,0.0
1734414604.25126,-39.0625,-30.76171875,88.8671875,-30.76171875,0.0
1734414690.550146,-169.921875,-27.34375,-43.45703125,-54.19921875,0.0
1734414690.5579574,-111.81640625,-13.671875,69.3359375,-71.77734375,0.0
1734414604.2629771,-27.34375,-28.3203125,61.03515625,-34.1796875,0.0
1734414690.565769,-97.65625,-12.20703125,-306.15234375,-10.7421875,0.0
1734414604.2707884,-42.48046875,-33.203125,-162.109375,-43.45703125,0.0
1734414690.5735805,-79.1015625,-5.859375,100.5859375,-44.921875,0.0
1734414690.581392,-65.91796875,-3.90625,-77.1484375,-38.0859375,0.0
1734414604.2825058,-67.87109375,-52.24609375,142.08984375,-33.203125,0.0
1734414690.5894377,0.0,3.90625,104.4921875,-9.27734375,0.0
1734414690.5972493,0.0,-7.8125,-2.9296875,2.44140625,0.0
1734414604.2942228,-40.0390625,-13.671875,-24.90234375,-43.45703125,0.0
1734414690.6050608,0.0,-3.90625,89.84375,13.18359375,0.0
1734414604.3021612,-23.92578125,-24.4140625,-240.234375,-42.96875,0.0
1734414690.6128724,0.0,0.9765625,-73.73046875,8.30078125,0.0
1734414690.620684,0.0,3.90625,35.64453125,29.78515625,0.0
1734414604.3138783,-41.9921875,-30.76171875,84.47265625,-51.7578125,0.0
1734414690.6284952,0.0,-3.41796875,-24.4140625,40.52734375,0.0
1734414604.3216896,-11.23046875,-23.4375,-229.98046875,-65.4296875,0.0
1734414690.6358316,-9.27734375,-4.39453125,14.16015625,31.73828125,0.0
1734414690.6436431,-66.89453125,-5.37109375,64.94140625,48.33984375,0.0
1734414604.333407,-42.96875,-35.64453125,-134.27734375,-34.66796875,0.0
1734414690.6514547,-31.73828125,-9.765625,11.71875,46.38671875,0.0
1734414690.6592662,-17.08984375,-1.953125,16.6015625,52.24609375,0.0
1734414604.345225,-39.0625,-25.87890625,77.1484375,-36.62109375,0.0
1734414690.6670778,-14.16015625,-1.46484375,-125.48828125,70.80078125,0.0
1734414604.3530366,-40.52734375,-26.3671875,-50.78125,-24.90234375,0.0
1734414690.6748893,11.71875,10.25390625,138.671875,40.0390625,0.0
1734414690.6828794,10.7421875,-2.44140625,-4.39453125,32.2265625,0.0
1734414604.3647537,-9.765625,-56.15234375,-274.90234375,-24.4140625,0.0
1734414690.690691,-0.9765625,-5.859375,166.015625,35.15625,0.0
1734414604.3725653,-72.75390625,-27.34375,133.7890625,-37.59765625,0.0
1734414690.6985025,9.765625,-6.34765625,-4.39453125,37.59765625,0.0
1734414690.706314,32.2265625,11.23046875,-20.01953125,60.546875,0.0
1734414604.3842824,-42.48046875,-35.64453125,22.94921875,-17.578125,0.0
1734414690.7141254,42.48046875,-1.953125,-176.7578125,77.63671875,0.0
1734414690.721937,44.921875,7.32421875,47.36328125,68.84765625,0.0
1734414604.3960748,-39.0625,-31.73828125,-55.17578125,-38.0859375,0.0
1734414690.7298913,0.0,7.32421875,-31.73828125,76.66015625,0.0
1734414604.403886,-32.71484375,-29.296875,112.3046875,-35.64453125,0.0
1734414690.7377028,0.0,-6.34765625,121.09375,66.89453125,0.0
1734414690.7455144,0.0,-4.39453125,-84.9609375,80.56640625,0.0
1734414604.4156034,-20.5078125,-31.25,-83.0078125,-37.59765625,0.0
1734414690.7533257,0.0,-2.9296875,24.90234375,62.98828125,0.0
1734414690.7611372,0.0,-5.37109375,-444.3359375,69.82421875,0.0
1734414604.4273205,-47.8515625,-28.3203125,-183.10546875,-20.99609375,0.0
1734414690.7689488,0.0,2.44140625,82.03125,57.6171875,0.0
1734414604.4351318,-42.96875,-28.80859375,39.55078125,-29.78515625,0.0
1734414690.7768755,47.36328125,5.37109375,-52.734375,43.45703125,0.0
1734414690.784687,49.8046875,-4.39453125,17.08984375,67.3828125,0.0
1734414604.4469,-16.11328125,-16.6015625,182.12890625,-14.6484375,0.0
1734414690.7924986,40.0390625,-8.30078125,-79.58984375,31.25,0.0
1734414604.4547114,-42.48046875,-34.1796875,-83.49609375,-32.2265625,0.0
1734414690.80031,21.97265625,-12.20703125,-317.3828125,37.109375,0.0
1734414690.8081214,25.87890625,-8.7890625,-236.81640625,35.64453125,0.0
1734414604.4664285,-46.875,-31.73828125,21.484375,-42.48046875,0.0
1734414690.815933,19.53125,-12.20703125,-312.98828125,22.4609375,0.0
1734414690.8238232,32.2265625,-10.7421875,-158.203125,19.04296875,0.0
1734414604.4781456,-69.82421875,-33.203125,101.5625,-28.80859375,0.0
1734414690.8316348,18.5546875,-15.625,-90.33203125,30.76171875,0.0
1734414604.4859905,0.0,-38.57421875,10.25390625,-27.34375,0.0
1734414690.8394463,7.8125,-16.6015625,-0.9765625,13.671875,0.0
1734414690.8472579,35.64453125,-8.30078125,-415.0390625,32.71484375,0.0
1734414604.4977076,0.0,-31.73828125,-45.8984375,-22.94921875,0.0
1734414690.8550694,33.203125,3.41796875,-94.7265625,41.50390625,0.0
1734414690.862881,67.87109375,-7.8125,-102.5390625,32.2265625,0.0
1734414604.5094247,0.0,-44.43359375,57.6171875,8.7890625,0.0
1734414690.870755,20.99609375,-5.37109375,58.10546875,35.64453125,0.0
1734414604.5172362,0.0,-40.52734375,-271.97265625,-2.9296875,0.0
1734414690.8785665,47.8515625,-5.859375,-227.05078125,25.87890625,0.0
1734414690.886378,42.48046875,-6.34765625,53.7109375,34.66796875,0.0
1734414604.5289533,0.0,-28.3203125,46.875,-6.34765625,0.0
1734414690.8941896,33.69140625,-11.23046875,-435.05859375,42.48046875,0.0
1734414604.536765,-48.33984375,-20.01953125,47.8515625,-36.62109375,0.0
1734414690.9020011,17.08984375,-7.32421875,120.1171875,6.34765625,0.0
1734414690.9098125,22.94921875,-10.25390625,-155.2734375,28.3203125,0.0
1734414604.5484822,-23.92578125,-44.43359375,70.3125,-11.23046875,0.0
1734414690.9176536,-0.9765625,-10.7421875,93.75,15.625,0.0
1734414690.925465,18.5546875,-19.04296875,-119.62890625,34.1796875,0.0
1734414604.5601995,-20.5078125,-30.2734375,-307.6171875,-31.73828125,0.0
1734414690.9332767,3.90625,-13.671875,68.359375,21.97265625,0.0
1734414604.5680108,-37.109375,-27.34375,178.22265625,-17.08984375,0.0
1734414690.941088,14.16015625,-17.578125,-476.5625,40.0390625,0.0
1734414690.9488995,65.4296875,-6.34765625,104.4921875,39.55078125,0.0
1734414604.5797055,0.0,-29.296875,-9.27734375,-27.34375,0.0
1734414690.956711,21.484375,-17.578125,-60.546875,39.55078125,0.0
1734414604.5875168,0.0,-36.62109375,25.390625,-24.90234375,0.0
1734414690.9647493,60.546875,-12.6953125,67.3828125,24.90234375,0.0
1734414690.972561,81.0546875,-11.23046875,-30.2734375,22.4609375,0.0
1734414604.599234,0.0,-18.5546875,19.04296875,-12.20703125,0.0
1734414690.9803724,39.0625,-11.71875,16.6015625,12.6953125,0.0
1734414690.9881837,53.7109375,-16.6015625,-196.77734375,57.12890625,0.0
1734414604.6109512,0.0,-40.52734375,176.26953125,-12.6953125,0.0
1734414690.9959953,41.50390625,-11.71875,-48.33984375,27.83203125,0.0
1734414604.6187627,0.0,-56.15234375,-28.3203125,-32.71484375,0.0
1734414691.0038068,23.4375,-24.90234375,-298.828125,13.18359375,0.0
1734414691.0118098,30.2734375,-24.90234375,-77.63671875,21.97265625,0.0
1734414604.63043,-48.33984375,-27.83203125,48.33984375,-27.83203125,0.0
1734414691.0196214,38.0859375,-0.9765625,21.97265625,8.7890625,0.0
1734414691.027433,50.29296875,-13.671875,-168.45703125,9.765625,0.0
1734414604.6421473,-43.9453125,-25.87890625,64.94140625,-34.1796875,0.0
1734414691.0352445,31.25,-13.671875,-257.8125,20.01953125,0.0
1734414604.6499586,-20.01953125,-48.33984375,-355.46875,-27.83203125,0.0
1734414691.0430558,69.3359375,-20.5078125,-239.2578125,28.3203125,0.0
1734414691.0508673,55.17578125,-18.5546875,-71.77734375,18.06640625,0.0
1734414604.661676,-34.66796875,-39.55078125,-13.18359375,-41.9921875,0.0
1734414691.0588427,0.0,-23.92578125,-204.1015625,20.01953125,0.0
1734414604.6694872,-31.25,-31.73828125,-13.18359375,-33.203125,0.0
1734414691.0666542,0.0,-28.80859375,-125.48828125,20.5078125,0.0
1734414691.0744658,0.0,-30.76171875,-250.9765625,-22.94921875,0.0
1734414604.681129,-6.34765625,-24.4140625,-37.109375,-33.69140625,0.0
1734414691.0822773,0.0,-29.78515625,-299.8046875,-23.92578125,0.0
1734414691.0900886,0.0,-34.66796875,-403.3203125,-21.484375,0.0
1734414604.692846,-36.62109375,-27.34375,-148.4375,-16.11328125,0.0
1734414691.0979002,0.0,-28.80859375,-147.94921875,-3.90625,0.0
1734414604.7006576,-23.4375,-31.25,41.9921875,-16.11328125,0.0
1734414691.1058378,-2.9296875,-31.73828125,-310.05859375,2.9296875,0.0
1734414691.1136494,0.9765625,-41.015625,-187.98828125,-10.25390625,0.0
1734414604.7123747,-25.390625,-27.34375,-173.828125,-8.7890625,0.0
1734414691.121461,16.11328125,-38.0859375,-384.27734375,2.44140625,0.0
1734414604.7202857,-32.71484375,-33.203125,1.46484375,-23.4375,0.0
1734414691.1292725,0.48828125,-37.109375,-267.08984375,-12.6953125,0.0
1734414691.137084,-13.18359375,-32.2265625,-509.27734375,-18.06640625,0.0
1734414604.7320027,-42.96875,-21.97265625,129.39453125,-36.1328125,0.0
1734414691.1448956,14.16015625,-25.390625,-56.15234375,-27.34375,0.0
1734414691.1528177,34.1796875,-23.92578125,-268.06640625,-27.34375,0.0
1734414604.7437198,-52.24609375,-37.59765625,-90.33203125,-34.1796875,0.0
1734414691.1606293,44.921875,-20.01953125,-46.38671875,-19.04296875,0.0
1734414604.7515314,-56.15234375,-33.203125,-103.02734375,-44.921875,0.0
1734414691.1684408,12.6953125,-17.08984375,-271.97265625,-32.2265625,0.0
1734414691.1762524,12.20703125,-33.69140625,-337.890625,-32.2265625,0.0
1734414604.7632484,-41.50390625,-39.55078125,-12.6953125,-43.9453125,0.0
1734414691.184064,37.109375,-30.2734375,-306.640625,-11.71875,0.0
1734414691.1918755,-2.44140625,-38.57421875,-352.05078125,-21.484375,0.0
1734414604.775043,0.0,1.46484375,33.203125,-34.66796875,0.0
1734414691.1997454,-4.8828125,-35.64453125,-24.90234375,-28.3203125,0.0
1734414604.7828546,0.0,-23.4375,-98.6328125,-34.66796875,0.0
1734414691.207557,7.32421875,-38.0859375,-171.38671875,-13.671875,0.0
1734414691.2153685,-6.8359375,-36.1328125,-98.14453125,-22.4609375,0.0
1734414604.7945716,0.0,-26.85546875,120.60546875,-42.96875,0.0
1734414691.22318,-1.46484375,-38.57421875,-424.8046875,-14.16015625,0.0
1734414604.802383,0.0,-14.6484375,-287.59765625,-2.9296875,0.0
1734414691.2309916,-5.37109375,-32.71484375,9.27734375,-11.71875,0.0
1734414691.2388031,-4.8828125,-30.2734375,-260.25390625,-23.4375,0.0
1734414604.8141649,-49.8046875,-32.71484375,-28.3203125,-49.31640625,0.0
1734414691.2466402,-11.23046875,-29.296875,104.00390625,-25.87890625,0.0
1734414691.2544518,17.08984375,-30.2734375,-80.078125,7.8125,0.0
1734414604.825882,-49.31640625,-26.3671875,45.8984375,-29.78515625,0.0
1734414691.2622633,29.296875,-24.4140625,54.19921875,6.34765625,0.0
1734414604.8336935,-59.5703125,-37.109375,-281.73828125,-41.9921875,0.0
1734414691.2700748,40.0390625,-31.25,-397.94921875,21.484375,0.0
1734414691.2778864,19.04296875,-27.83203125,145.01953125,7.32421875,0.0
1734414604.8454106,-39.55078125,-46.875,-322.265625,-25.390625,0.0
1734414691.285698,3.41796875,-32.2265625,-175.78125,-20.5078125,0.0
1734414691.293513,-15.625,-25.390625,-41.9921875,-41.50390625,0.0
1734414604.857128,-3.90625,-29.296875,-174.8046875,2.9296875,0.0
1734414691.3013246,-10.7421875,-31.73828125,-231.93359375,-44.921875,0.0
1734414604.864966,-44.921875,-34.66796875,99.609375,-32.2265625,0.0
1734414691.3091362,-7.32421875,-33.69140625,61.03515625,-33.203125,0.0
1734414691.3169477,-48.33984375,-41.015625,-393.5546875,-40.52734375,0.0
1734414604.876683,-73.2421875,-22.94921875,-63.96484375,-58.10546875,0.0
1734414691.3247592,-29.78515625,-43.45703125,85.9375,-46.38671875,0.0
1734414604.8844945,-64.453125,-44.43359375,-202.1484375,-52.734375,0.0
1734414691.3325708,-8.7890625,-33.203125,-312.5,-31.25,0.0
1734414691.3405888,-10.7421875,-30.2734375,44.921875,-33.69140625,0.0
1734414604.8962116,-46.875,-27.34375,119.140625,-45.8984375,0.0
1734414691.3484004,-11.23046875,-36.1328125,-108.3984375,-42.96875,0.0
1734414691.356212,-8.7890625,-32.71484375,-284.1796875,-31.25,0.0
1734414604.90793,-27.83203125,-43.45703125,76.66015625,-38.0859375,0.0
1734414691.3640234,-32.2265625,-38.57421875,-191.89453125,-27.83203125,0.0
1734414604.9157414,-28.3203125,-31.25,-23.92578125,-46.875,0.0
1734414691.371835,-15.13671875,-35.15625,-48.33984375,-30.2734375,0.0
1734414691.3796465,-17.08984375,-33.203125,-145.01953125,-36.62109375,0.0
1734414604.9274585,-53.22265625,-37.109375,38.0859375,-24.4140625,0.0
1734414691.3876586,-14.6484375,-31.73828125,-152.83203125,-26.85546875,0.0
1734414604.9352698,-46.875,-39.0625,-356.93359375,-27.83203125,0.0
1734414691.3954701,-14.16015625,-39.55078125,-15.13671875,-27.83203125,0.0
1734414691.4032817,-26.85546875,-37.59765625,-149.4140625,-27.34375,0.0
1734414604.9469872,-17.578125,-30.76171875,-52.734375,-20.5078125,0.0
1734414691.4110932,-3.41796875,-30.2734375,-332.03125,-19.53125,0.0
1734414691.4189048,-20.99609375,-32.2265625,-213.37890625,-34.66796875,0.0
1734414604.9586875,-36.1328125,-30.2734375,86.9140625,-32.2265625,0.0
1734414691.426716,-12.6953125,-32.2265625,-47.36328125,-23.4375,0.0
1734414604.9664989,-37.59765625,-30.76171875,4.8828125,-38.0859375,0.0
1734414691.4346888,-18.5546875,-32.2265625,-122.55859375,-24.4140625,0.0
1734414691.4425004,-18.5546875,-34.66796875,48.828125,-18.5546875,0.0
1734414604.9782162,-55.6640625,-39.0625,-325.68359375,-22.94921875,0.0
1734414691.450312,-3.90625,-31.73828125,-176.26953125,-20.99609375,0.0
1734414691.4581234,-11.71875,-37.59765625,-226.07421875,-28.3203125,0.0
1734414604.9899333,-12.6953125,-23.4375,94.7265625,-48.33984375,0.0
1734414691.465935,-9.765625,-36.1328125,-313.4765625,-24.90234375,0.0
1734414604.9977446,-68.84765625,-29.78515625,75.1953125,-62.01171875,0.0
1734414691.4737465,-33.69140625,-29.78515625,-211.9140625,-43.45703125,0.0
1734414691.4816864,-20.5078125,-30.76171875,-137.20703125,-32.2265625,0.0
1734414605.0096037,-45.8984375,-32.2265625,15.625,-44.43359375,0.0
1734414691.489498,-35.64453125,-42.96875,41.50390625,-27.83203125,0.0
1734414605.0174153,-37.59765625,-28.3203125,72.75390625,-49.31640625,0.0
1734414691.4973094,4.8828125,-32.2265625,-149.4140625,-13.671875,0.0
1734414691.505121,-24.90234375,-32.71484375,-174.31640625,-29.296875,0.0
1734414605.0291324,-43.45703125,-29.296875,3.90625,-32.71484375,0.0
1734414691.5129325,-23.4375,-41.50390625,-429.6875,-16.11328125,0.0
1734414691.520744,-18.06640625,-24.4140625,84.47265625,-32.2265625,0.0
1734414605.0408494,-41.50390625,-47.8515625,-89.35546875,-41.50390625,0.0
1734414691.5286367,1.46484375,-33.203125,-170.41015625,-29.78515625,0.0
1734414605.0485833,-21.97265625,-29.78515625,94.7265625,-15.625,0.0
1734414691.5364482,-23.92578125,-35.64453125,-74.21875,-35.64453125,0.0
1734414691.5442598,-36.1328125,-41.9921875,-170.41015625,-41.015625,0.0
1734414605.0603004,-3.41796875,-33.69140625,97.65625,-16.6015625,0.0
1734414691.5520713,-19.04296875,-47.8515625,-289.0625,-30.2734375,0.0
1734414691.5598829,-33.69140625,-48.828125,-269.04296875,-20.01953125,0.0
1734414605.0720177,-37.109375,-40.0390625,-171.875,-0.48828125,0.0
1734414691.5676944,-32.2265625,-45.8984375,-342.28515625,-27.34375,0.0
1734414605.079829,-44.43359375,-27.34375,92.7734375,-38.0859375,0.0
1734414691.5755606,-28.80859375,-35.64453125,-39.0625,-47.8515625,0.0
1734414691.583372,-21.484375,-28.3203125,-210.9375,-30.2734375,0.0
1734414605.091546,-46.38671875,-29.296875,189.453125,-39.0625,0.0
1734414691.5911837,-32.2265625,-37.59765625,-315.91796875,-34.66796875,0.0
1734414605.0994544,0.0,-45.41015625,-71.2890625,-35.64453125,0.0
1734414691.5989952,-31.73828125,-32.71484375,-412.109375,-35.15625,0.0
1734414691.6068068,-30.76171875,-32.71484375,-176.26953125,-47.36328125,0.0
1734414605.1111717,0.0,-31.25,51.26953125,-31.73828125,0.0
1734414691.6146183,-34.66796875,-27.34375,-141.6015625,-55.17578125,0.0
1734414691.62246,-46.38671875,-31.73828125,46.875,-67.3828125,0.0
1734414605.1228888,0.0,-45.8984375,95.703125,-28.80859375,0.0
1734414691.6302714,-31.73828125,-41.015625,-196.2890625,-41.9921875,0.0
1734414605.1307,0.0,-31.73828125,-188.96484375,-16.6015625,0.0
1734414691.638083,-55.6640625,-40.52734375,-54.19921875,-46.38671875,0.0
1734414691.6458945,-20.5078125,-26.85546875,-476.07421875,-45.41015625,0.0
1734414605.141948,-53.7109375,-40.0390625,-185.05859375,-20.5078125,0.0
1734414691.653706,-38.0859375,-33.69140625,-95.703125,-28.3203125,0.0
1734414605.1497595,-49.8046875,-28.3203125,161.62109375,-33.203125,0.0
1734414691.6615176,-29.296875,-27.83203125,-365.234375,-37.59765625,0.0
1734414691.669315,0.0,-22.4609375,-74.21875,-38.0859375,0.0
1734414605.1614766,-51.26953125,-36.1328125,-265.13671875,-43.45703125,0.0
1734414691.6771266,0.0,-25.87890625,-256.34765625,-28.3203125,0.0
1734414691.6849382,0.0,-26.3671875,4.39453125,-41.9921875,0.0
1734414605.1731937,-18.06640625,-41.9921875,-280.76171875,-36.1328125,0.0
1734414691.6927497,0.0,-33.203125,-497.0703125,-40.52734375,0.0
1734414605.1810052,-46.38671875,-16.11328125,106.93359375,-58.10546875,0.0
1734414691.7005613,0.0,-24.90234375,57.12890625,-50.29296875,0.0
1734414691.7083728,0.0,-30.76171875,-447.75390625,-41.9921875,0.0
1734414605.1927783,-45.41015625,-38.0859375,85.44921875,-50.78125,0.0
1734414691.7163825,-31.73828125,-31.73828125,0.0,-43.45703125,0.0
1734414691.724194,-15.625,-40.52734375,0.0,-49.31640625,0.0
1734414605.2044954,-47.8515625,-13.18359375,-25.87890625,-14.16015625,0.0
1734414691.7320056,-35.64453125,-32.71484375,0.0,-42.48046875,0.0
1734414605.212307,-67.3828125,-45.8984375,79.58984375,-46.875,0.0
1734414691.7398171,-30.76171875,-29.78515625,0.0,-37.109375,0.0
1734414691.7476287,-20.01953125,-37.59765625,0.0,-42.48046875,0.0
1734414605.224024,-46.875,-33.203125,-5.37109375,-41.50390625,0.0
1734414691.7554402,-30.76171875,-36.62109375,0.0,-46.38671875,0.0
1734414605.2318356,-16.6015625,-18.06640625,-78.125,-24.90234375,0.0
1734414691.7634325,-19.53125,-34.66796875,-212.890625,-53.7109375,0.0
1734414691.771244,-31.25,-31.73828125,-226.5625,-50.29296875,0.0
1734414605.2435832,-30.76171875,-28.80859375,2.44140625,-31.73828125,0.0
1734414691.7790556,-43.9453125,-39.55078125,-207.03125,-44.43359375,0.0
1734414691.7868671,-50.78125,-43.45703125,-296.38671875,-66.89453125,0.0
1734414605.2553003,-30.76171875,-17.578125,-49.8046875,-20.5078125,0.0
1734414691.7946787,-48.828125,-38.0859375,-289.0625,-48.33984375,0.0
1734414605.2631118,-16.11328125,-28.80859375,-362.79296875,-24.4140625,0.0
1734414691.8024902,-59.08203125,-31.73828125,-68.84765625,-49.31640625,0.0
1734414691.8104336,0.0,-36.1328125,-215.8203125,-48.828125,0.0
1734414605.274829,-64.453125,-27.34375,44.43359375,-39.0625,0.0
1734414691.8182452,0.0,-33.203125,15.13671875,-53.22265625,0.0
1734414605.2826455,0.0,-9.765625,12.20703125,-49.8046875,0.0
1734414691.8260567,0.0,-35.15625,-276.85546875,-47.36328125,0.0
1734414691.8338683,0.0,-33.203125,-264.16015625,-51.7578125,0.0
1734414605.2943628,0.0,-45.41015625,-107.91015625,-33.203125,0.0
1734414691.8416798,0.0,-36.62109375,-340.33203125,-42.48046875,0.0
1734414691.8494914,0.0,-24.90234375,-103.515625,-50.29296875,0.0
1734414605.3060799,0.0,-39.55078125,-129.8828125,-20.99609375,0.0
1734414691.8574057,-45.41015625,-40.52734375,-208.49609375,-32.71484375,0.0
1734414605.3138914,0.0,-20.01953125,-26.3671875,-13.18359375,0.0
1734414691.8652172,-52.24609375,-41.015625,37.109375,-40.0390625,0.0
1734414691.8730288,-56.15234375,-40.0390625,-411.1328125,-27.34375,0.0
1734414605.3256085,0.0,-22.4609375,-180.17578125,-18.5546875,0.0
1734414691.8808403,-27.34375,-38.57421875,-219.7265625,-46.875,0.0
1734414691.8886518,-37.109375,-45.41015625,-505.859375,-45.41015625,0.0
1734414605.3373091,-48.33984375,-33.69140625,-97.65625,-50.29296875,0.0
1734414691.8964634,-54.6875,-41.9921875,24.90234375,-57.12890625,0.0
1734414605.3451204,-34.66796875,-40.52734375,102.5390625,-20.01953125,0.0
1734414691.9043376,-36.1328125,-43.45703125,-213.8671875,-50.29296875,0.0
1734414691.9121492,-51.26953125,-44.43359375,-35.64453125,-75.1953125,0.0
1734414605.3568375,-66.89453125,-23.4375,-359.375,-36.1328125,0.0
1734414691.9199607,-48.33984375,-41.50390625,-257.8125,-55.6640625,0.0
1734414605.364649,-38.57421875,-30.2734375,3.41796875,-44.43359375,0.0
1734414691.9277723,-45.41015625,-45.8984375,-312.01171875,-60.05859375,0.0
1734414691.9355838,-47.8515625,-41.50390625,-344.23828125,-44.921875,0.0
1734414605.3763223,-55.6640625,-47.36328125,63.4765625,-63.4765625,0.0
1734414691.9433954,-41.50390625,-48.828125,-368.1640625,-47.36328125,0.0
1734414691.9512558,0.0,-33.69140625,-191.40625,-52.734375,0.0
1734414605.3880396,-25.87890625,-29.78515625,101.5625,-32.2265625,0.0
1734414691.9590673,0.0,-41.015625,-182.12890625,-61.03515625,0.0
1734414605.395851,-58.59375,-22.4609375,-244.140625,-40.0390625,0.0
1734414691.966879,0.0,-35.64453125,-140.625,-52.734375,0.0
1734414691.9746904,0.0,-33.203125,-438.4765625,-68.359375,0.0
1734414605.407568,-40.52734375,-35.64453125,159.1796875,-4.8828125,0.0
1734414691.982502,0.0,-32.71484375,-195.80078125,-68.359375,0.0
1734414691.9903135,0.0,-40.0390625,-144.04296875,-61.03515625,0.0
1734414605.4192853,-44.921875,-28.80859375,-170.41015625,-29.78515625,0.0
1734414691.9981427,-63.96484375,-36.62109375,15.13671875,-77.63671875,0.0
1734414605.4270303,-40.52734375,-34.1796875,-300.78125,-15.13671875,0.0
1734414692.0059543,-49.8046875,-37.59765625,-252.9296875,-63.96484375,0.0
1734414692.0137658,-58.59375,-30.2734375,-59.5703125,-73.2421875,0.0
1734414605.4387474,-49.8046875,-41.50390625,49.31640625,-42.48046875,0.0
1734414692.0215774,-31.73828125,-29.296875,-467.28515625,-39.55078125,0.0
1734414605.446559,-9.27734375,-18.06640625,-131.34765625,-10.7421875,0.0
1734414692.029389,-41.015625,-25.87890625,44.43359375,-59.5703125,0.0
1734414692.0372005,-71.77734375,-37.59765625,-291.9921875,-44.43359375,0.0
1734414605.458276,-27.34375,-30.2734375,-272.4609375,-21.97265625,0.0
1734414692.044997,-50.78125,-37.109375,44.921875,-60.546875,0.0
1734414692.0528085,-38.57421875,-41.015625,-238.28125,-61.03515625,0.0
1734414605.4701107,-33.69140625,-20.5078125,44.921875,-51.26953125,0.0
1734414692.06062,-62.98828125,-42.96875,70.3125,-59.08203125,0.0
1734414605.4779222,-33.69140625,-24.4140625,-106.93359375,-50.29296875,0.0
1734414692.0684316,-57.6171875,-41.015625,-506.34765625,-53.7109375,0.0
1734414692.0762432,-48.33984375,-35.64453125,76.171875,-48.33984375,0.0
1734414605.4896393,-49.31640625,-39.55078125,-259.765625,-35.15625,0.0
1734414692.0840547,-52.734375,-32.2265625,-245.1171875,-57.12890625,0.0
1734414605.4974508,-39.55078125,-17.578125,98.14453125,-32.71484375,0.0
1734414692.092298,0.0,-35.64453125,17.08984375,-42.48046875,0.0
1734414692.1001096,0.0,-34.1796875,-100.09765625,-56.15234375,0.0
1734414605.509168,-55.17578125,-44.43359375,75.1953125,-26.85546875,0.0
1734414692.1079211,0.0,-39.55078125,5.859375,-38.0859375,0.0
1734414692.1157327,0.0,-40.0390625,-287.59765625,-36.62109375,0.0
1734414605.5209637,0.0,-48.828125,-28.80859375,-40.52734375,0.0
1734414692.1235442,0.0,-33.69140625,-170.41015625,-36.62109375,0.0
1734414605.5287752,0.0,-32.71484375,118.65234375,-27.34375,0.0
1734414692.1313558,0.0,-36.62109375,-102.05078125,-41.50390625,0.0
1734414692.139317,-65.4296875,-43.45703125,-117.67578125,-45.41015625,0.0
1734414605.5404923,0.0,-49.8046875,-154.78515625,-17.578125,0.0
1734414692.1471286,-45.8984375,-35.15625,-26.3671875,-50.29296875,0.0
1734414692.1549401,-64.453125,-40.52734375,-105.95703125,-34.1796875,0.0
1734414605.5522094,0.0,-32.2265625,-266.11328125,-9.27734375,0.0
1734414692.1627517,-58.10546875,-41.50390625,-227.5390625,-54.19921875,0.0
1734414605.560021,0.0,-24.90234375,27.34375,-24.4140625,0.0
1734414692.1705635,-67.3828125,-36.1328125,-187.5,-48.33984375,0.0
1734414692.178375,-67.3828125,-31.25,-33.203125,-54.6875,0.0
1734414605.5717928,-55.17578125,-20.01953125,156.25,-25.87890625,0.0
1734414692.1863039,-47.8515625,-38.0859375,-454.58984375,-54.19921875,0.0
1734414605.5796041,-45.8984375,-41.9921875,-105.95703125,-30.76171875,0.0
1734414692.1941154,-72.265625,-42.96875,-9.765625,-61.03515625,0.0
1734414692.201927,-42.48046875,-42.96875,-183.10546875,-47.36328125,0.0
1734414605.5913212,-36.62109375,-30.76171875,-18.5546875,-15.13671875,0.0
1734414692.2097385,-60.05859375,-45.41015625,-296.875,-49.8046875,0.0
1734414692.21755,-52.24609375,-46.38671875,-309.5703125,-39.55078125,0.0
1734414605.6030385,-41.015625,-24.4140625,109.375,-31.73828125,0.0
1734414692.2253616,-45.41015625,-38.57421875,-118.1640625,-43.45703125,0.0
1734414605.610879,-38.57421875,-43.45703125,5.37109375,-38.57421875,0.0
1734414692.2332687,0.0,-45.41015625,-177.24609375,-46.38671875,0.0
1734414692.2410803,0.0,-46.875,-105.95703125,-49.31640625,0.0
1734414605.622596,-15.625,-22.94921875,-27.34375,-14.6484375,0.0
1734414692.2488918,0.0,-39.55078125,-238.76953125,-53.22265625,0.0
1734414605.6304076,-30.2734375,-31.73828125,16.6015625,-16.6015625,0.0
1734414692.2567034,0.0,-42.96875,-196.77734375,-62.5,0.0
1734414692.264515,0.0,-45.8984375,-483.88671875,-38.0859375,0.0
1734414605.6421247,-29.296875,-30.2734375,-295.41015625,-20.01953125,0.0
1734414692.2723265,0.0,-46.38671875,84.47265625,-60.05859375,0.0
1734414692.280196,-72.265625,-45.41015625,-95.21484375,-55.6640625,0.0
1734414605.6538417,-21.97265625,-13.18359375,-63.96484375,-20.5078125,0.0
1734414692.2880075,-55.6640625,-45.8984375,22.94921875,-65.91796875,0.0
1734414605.661659,0.0,-7.32421875,136.71875,-22.94921875,0.0
1734414692.295819,-58.10546875,-53.22265625,-200.1953125,-56.15234375,0.0
1734414692.3036306,-46.38671875,-50.29296875,-224.609375,-44.43359375,0.0
1734414605.673376,0.0,-29.296875,64.94140625,-36.1328125,0.0
1734414692.3114421,-49.8046875,-52.734375,-219.7265625,-40.52734375,0.0
1734414692.3192537,-44.43359375,-49.31640625,-270.99609375,-59.08203125,0.0
1734414605.6850932,0.0,-22.94921875,-238.76953125,-20.5078125,0.0
1734414692.3270967,-67.87109375,-40.52734375,62.98828125,-70.80078125,0.0
1734414605.6929047,0.0,-30.2734375,157.71484375,-39.0625,0.0
1734414692.3349082,-62.98828125,-40.52734375,-117.67578125,-69.3359375,0.0
1734414692.3427198,-76.66015625,-42.48046875,-39.55078125,-52.24609375,0.0
1734414605.7046025,-32.71484375,-44.43359375,14.6484375,-18.06640625,0.0
1734414692.3505313,-49.31640625,-48.828125,-388.671875,-44.921875,0.0
1734414605.7124138,-29.296875,-34.66796875,-78.125,-23.4375,0.0
1734414692.358343,-62.5,-41.50390625,-196.2890625,-46.875,0.0
1734414692.3661544,-57.12890625,-40.0390625,-109.375,-34.66796875,0.0
1734414605.724131,-0.48828125,-31.25,77.1484375,-44.43359375,0.0
1734414692.3739617,-57.12890625,-41.015625,60.546875,-50.29296875,0.0
1734414692.3817732,-54.19921875,-44.921875,-101.07421875,-34.66796875,0.0
1734414605.7358482,-59.5703125,-22.94921875,133.30078125,-50.29296875,0.0
1734414692.3895848,-64.453125,-44.43359375,33.203125,-50.78125,0.0
1734414605.7436597,-46.875,-25.390625,28.80859375,-33.203125,0.0
1734414692.3973963,-59.5703125,-54.19921875,-460.9375,-51.26953125,0.0
1734414692.4052079,-71.2890625,-45.41015625,107.91015625,-68.359375,0.0
1734414605.7553313,-43.9453125,-31.73828125,0.9765625,-35.15625,0.0
1734414692.4130194,-67.87109375,-46.875,-179.19921875,-41.50390625,0.0
1734414692.420793,-60.05859375,-38.57421875,22.4609375,-52.24609375,0.0
1734414605.7670484,-24.4140625,-33.203125,131.8359375,-16.6015625,0.0
1734414692.4286046,-66.40625,-42.96875,-132.8125,-50.29296875,0.0
1734414605.77486,-37.109375,-29.296875,-424.31640625,-20.01953125,0.0
1734414692.4364161,-62.98828125,-47.8515625,67.3828125,-57.12890625,0.0
1734414692.4442277,-40.0390625,-43.9453125,-380.859375,-49.8046875,0.0
1734414605.786577,-31.25,-22.94921875,9.765625,-38.57421875,0.0
1734414692.4520392,-63.4765625,-33.203125,80.56640625,-62.5,0.0
1734414605.7943883,-56.15234375,-35.64453125,74.70703125,-52.24609375,0.0
1734414692.459851,-81.0546875,-40.0390625,-110.3515625,-67.3828125,0.0
1734414692.4678502,-85.44921875,-49.8046875,47.36328125,-71.2890625,0.0
1734414605.8060362,-37.59765625,-43.9453125,18.06640625,-38.57421875,0.0
1734414692.4756618,-49.8046875,-54.19921875,-181.15234375,-27.34375,0.0
1734414692.4834733,-57.6171875,-47.36328125,-56.640625,-60.05859375,0.0
1734414605.8177533,-14.16015625,-32.71484375,-282.71484375,-29.78515625,0.0
1734414692.4912848,-14.6484375,-39.0625,-229.4921875,-14.16015625,0.0
1734414605.8255646,-59.5703125,-38.0859375,148.4375,-41.50390625,0.0
1734414692.4990964,-23.92578125,-44.43359375,-63.4765625,-14.6484375,0.0
1734414692.5069082,5.859375,-42.48046875,-290.0390625,5.859375,0.0
1734414605.837282,-58.59375,-21.97265625,-91.30859375,-49.8046875,0.0
1734414692.514863,0.0,-41.9921875,-286.62109375,12.6953125,0.0
1734414605.8453965,-37.109375,-31.73828125,0.0,-46.875,0.0
1734414692.5226746,0.0,-34.66796875,-170.8984375,27.34375,0.0
1734414692.530486,0.0,-40.52734375,-331.54296875,35.64453125,0.0
1734414605.8571136,-49.31640625,-51.26953125,0.0,-57.12890625,0.0
1734414692.5382977,0.0,-49.31640625,-301.26953125,13.671875,0.0
1734414692.5461092,0.0,-53.22265625,-399.90234375,12.6953125,0.0
1734414605.868831,-27.34375,-45.41015625,0.0,-23.92578125,0.0
1734414692.5539207,0.0,-48.33984375,-243.65234375,19.04296875,0.0
1734414605.8766422,-38.57421875,-19.53125,0.0,-27.83203125,0.0
1734414692.5612032,28.80859375,-48.33984375,-289.0625,15.625,0.0
1734414692.5690148,27.83203125,-47.8515625,-138.18359375,4.39453125,0.0
1734414605.8883595,-48.33984375,-15.625,0.0,-19.04296875,0.0
1734414692.5768263,37.109375,-50.29296875,-312.98828125,-1.46484375,0.0
1734414692.5846379,22.4609375,-41.015625,-338.37890625,-13.18359375,0.0
1734414605.9001586,-34.66796875,-23.92578125,64.453125,-26.3671875,0.0
1734414692.5924497,5.859375,-52.734375,-460.44921875,-13.18359375,0.0
1734414605.90797,-34.66796875,-20.99609375,-24.4140625,-31.25,0.0
1734414692.6002612,33.203125,-42.96875,-260.7421875,-19.04296875,0.0
1734414692.607518,3.90625,-50.29296875,-341.30859375,0.9765625,0.0
1734414605.9196873,-29.296875,-34.1796875,-66.89453125,-28.3203125,0.0
1734414692.6153295,3.90625,-51.26953125,-182.12890625,-15.13671875,0.0
1734414605.9274986,-31.25,-26.85546875,-49.8046875,-22.4609375,0.0
1734414692.623141,-20.01953125,-51.26953125,-381.8359375,-27.83203125,0.0
1734414692.6309526,-21.97265625,-54.6875,-269.04296875,-18.5546875,0.0
1734414605.9392667,-50.78125,-26.85546875,-333.984375,-32.2265625,0.0
1734414692.6387641,-22.94921875,-64.453125,-516.6015625,-16.6015625,0.0
1734414692.6465757,-11.23046875,-50.78125,-132.32421875,-30.2734375,0.0
1734414605.9509838,-43.9453125,-33.203125,13.671875,-40.0390625,0.0
1734414692.6546924,-59.08203125,-49.8046875,-287.109375,-43.9453125,0.0
1734414605.9587953,-26.85546875,-32.2265625,-211.9140625,-35.15625,0.0
1734414692.662504,-57.6171875,-48.33984375,-208.0078125,-33.69140625,0.0
1734414692.6703155,-59.08203125,-52.24609375,-281.73828125,-44.43359375,0.0
1734414605.9705124,-4.39453125,-35.64453125,-321.77734375,-17.08984375,0.0
1734414692.678127,-72.75390625,-48.33984375,-297.36328125,-46.38671875,0.0
1734414692.6859386,-43.9453125,-44.921875,-366.69921875,-29.296875,0.0
1734414605.9822295,-36.62109375,-33.69140625,-80.078125,-21.97265625,0.0
1734414692.6937501,-66.40625,-47.36328125,-231.93359375,-50.29296875,0.0
1734414605.9900725,-27.34375,-39.0625,118.65234375,-9.27734375,0.0
1734414692.7015967,0.0,-48.33984375,-23.4375,-40.0390625,0.0
1734414692.7094083,0.0,-62.98828125,-124.0234375,-35.15625,0.0
1734414606.0017898,-34.1796875,-35.64453125,-60.546875,-25.87890625,0.0
1734414692.7172198,0.0,-56.640625,-287.59765625,-52.734375,0.0
1734414606.009601,-15.625,-23.4375,-139.6484375,-20.99609375,0.0
1734414692.7250314,0.0,-59.08203125,-395.5078125,-36.1328125,0.0
1734414692.732843,0.0,-50.78125,-51.26953125,-36.62109375,0.0
1734414606.0213184,-34.66796875,-25.87890625,92.7734375,-18.06640625,0.0
1734414692.7406545,0.0,-54.19921875,-277.34375,-34.66796875,0.0
1734414692.7484753,-73.73046875,-44.43359375,-50.78125,-35.64453125,0.0
1734414606.0330462,-62.5,-32.2265625,29.296875,-40.0390625,0.0
1734414692.7562869,-58.10546875,-41.50390625,-244.140625,-54.6875,0.0
1734414606.0408576,-44.921875,-29.296875,-13.18359375,-45.41015625,0.0
1734414692.7640984,-61.5234375,-40.0390625,-115.72265625,-49.31640625,0.0
1734414692.7719102,-60.05859375,-55.17578125,-525.87890625,-34.66796875,0.0
1734414606.0525749,-24.90234375,-22.4609375,-56.15234375,-17.578125,0.0
1734414692.7797217,-58.59375,-43.45703125,-115.234375,-45.41015625,0.0
1734414606.0603862,-22.4609375,-34.66796875,-393.06640625,-20.01953125,0.0
1734414692.7875333,-59.5703125,-44.43359375,-353.515625,-41.015625,0.0
1734414692.795328,-65.91796875,-42.96875,-210.44921875,-56.15234375,0.0
1734414606.0721035,-29.296875,-24.4140625,-84.9609375,-26.85546875,0.0
1734414692.8031394,-78.125,-50.29296875,-390.13671875,-52.734375,0.0
1734414692.810951,-64.94140625,-49.8046875,-183.10546875,-38.0859375,0.0
1734414606.0837982,0.0,-28.80859375,139.6484375,-30.76171875,0.0
1734414692.8187625,-62.98828125,-59.08203125,-551.26953125,-40.0390625,0.0
1734414606.0916097,0.0,-31.25,18.5546875,-20.99609375,0.0
1734414692.826574,-59.5703125,-46.875,-214.35546875,-48.828125,0.0
1734414692.8343856,-78.61328125,-55.6640625,-288.57421875,-59.5703125,0.0
1734414606.1033268,0.0,-36.1328125,-365.72265625,-18.06640625,0.0
1734414692.8423908,-82.03125,-57.12890625,-270.99609375,-71.2890625,0.0
1734414692.8502023,-83.984375,-59.5703125,-275.390625,-61.5234375,0.0
1734414606.115044,0.0,-27.34375,66.89453125,-40.0390625,0.0
1734414692.8580139,-118.65234375,-66.40625,-330.56640625,-80.56640625,0.0
1734414606.1228554,0.0,-37.109375,57.6171875,-47.36328125,0.0
1734414692.8658254,-94.23828125,-66.89453125,-329.1015625,-74.70703125,0.0
1734414692.873637,-105.46875,-68.359375,-108.88671875,-82.03125,0.0
1734414606.134519,-49.8046875,-42.96875,-6.8359375,-39.55078125,0.0
1734414692.8814485,-107.91015625,-75.1953125,-354.98046875,-68.359375,0.0
1734414606.1423306,-40.0390625,-17.578125,99.609375,-54.6875,0.0
1734414692.8894153,-80.56640625,-78.125,-100.09765625,-57.6171875,0.0
1734414692.8972268,-109.86328125,-74.70703125,-229.98046875,-67.87109375,0.0
1734414606.1540477,-77.63671875,-21.484375,-54.19921875,-68.84765625,0.0
1734414692.9050384,-90.33203125,-67.3828125,-298.33984375,-66.40625,0.0
1734414692.91285,-92.28515625,-55.6640625,-279.78515625,-49.8046875,0.0
1734414606.1657648,-94.23828125,-15.625,-76.66015625,-82.51953125,0.0
1734414692.9206614,-91.30859375,-51.7578125,-271.484375,-61.5234375,0.0
1734414606.1735024,-131.8359375,-17.08984375,37.59765625,-123.046875,0.0
1734414692.928473,-72.75390625,-36.1328125,-147.94921875,-55.6640625,0.0
1734414692.936398,0.0,-33.69140625,-149.90234375,-67.3828125,0.0
1734414606.1852198,-150.390625,-20.01953125,100.5859375,-147.94921875,0.0
1734414692.9442096,0.0,-43.9453125,-19.53125,-71.77734375,0.0
1734414606.193031,-151.3671875,-44.43359375,-291.015625,-138.671875,0.0
1734414692.9520211,0.0,-39.55078125,-230.95703125,-44.921875,0.0
1734414692.9598327,0.0,-40.52734375,-280.76171875,-70.80078125,0.0
1734414606.2047484,-155.76171875,-22.4609375,91.796875,-127.9296875,0.0
1734414692.9676445,0.0,-52.24609375,-358.3984375,-46.875,0.0
1734414692.975456,0.0,-40.52734375,-123.046875,-56.15234375,0.0
1734414606.2164655,-136.71875,-57.6171875,97.65625,-114.2578125,0.0
1734414692.9826987,-60.05859375,-46.875,-277.34375,-47.8515625,0.0
1734414606.2243896,0.0,-41.50390625,4.39453125,-72.75390625,0.0
1734414692.9905102,-67.3828125,-39.55078125,62.98828125,-31.25,0.0
1734414692.9983218,-27.34375,-53.22265625,-406.25,-49.31640625,0.0
1734414606.2361069,0.0,-21.97265625,-72.75390625,-62.01171875,0.0
1734414693.0061333,-46.38671875,-58.10546875,-210.44921875,-53.22265625,0.0
1734414693.0139449,-57.12890625,-49.8046875,-508.30078125,-56.15234375,0.0
1734414606.247824,0.0,-19.04296875,146.97265625,-22.4609375,0.0
1734414693.0217564,-69.3359375,-36.1328125,-5.37109375,-78.61328125,0.0
1734414606.2556355,0.0,-59.5703125,-255.859375,-5.859375,0.0
1734414693.029642,-53.7109375,-37.109375,-141.6015625,-57.12890625,0.0
1734414693.0374537,-62.01171875,-34.1796875,-51.26953125,-65.4296875,0.0
1734414606.2674363,3.41796875,-34.66796875,-51.26953125,20.01953125,0.0
1734414693.0452652,-49.8046875,-32.2265625,-136.23046875,-52.24609375,0.0
1734414606.2752478,-8.7890625,-34.66796875,105.46875,-0.48828125,0.0
1734414693.0530767,-51.26953125,-30.2734375,-278.80859375,-57.6171875,0.0
1734414693.0608885,-69.82421875,-31.25,-321.2890625,-51.7578125,0.0
1734414606.286965,14.16015625,-44.43359375,-45.8984375,29.78515625,0.0
1734414693.0687,-41.015625,-34.1796875,-287.109375,-45.8984375,0.0
1734414693.0765457,0.0,-36.1328125,30.2734375,-55.17578125,0.0
1734414606.298682,11.71875,-35.15625,-242.67578125,20.5078125,0.0
1734414693.0843573,0.0,-38.57421875,-117.1875,-41.9921875,0.0
1734414606.3064935,9.27734375,-15.625,118.65234375,13.18359375,0.0
1734414693.0921688,0.0,-44.921875,59.08203125,-14.6484375,0.0
1734414693.0999804,0.0,-36.62109375,-406.73828125,-65.91796875,0.0
1734414606.3182719,0.0,-31.25,79.58984375,-31.73828125,0.0
1734414693.107792,0.0,-23.92578125,2.44140625,-31.25,0.0
1734414693.1156034,0.0,-26.85546875,-88.37890625,-40.52734375,0.0
1734414606.3299892,0.0,-48.33984375,-19.04296875,0.9765625,0.0
1734414693.123419,-26.85546875,-17.578125,71.77734375,-36.1328125,0.0
1734414606.3378005,0.0,-26.3671875,18.06640625,-2.44140625,0.0
1734414693.1312306,-11.71875,-19.04296875,-87.890625,-31.25,0.0
1734414693.1390421,2.44140625,-14.16015625,-45.8984375,-43.45703125,0.0
1734414606.3495178,0.0,-50.29296875,-22.94921875,-11.23046875,0.0
1734414693.1468537,4.8828125,-7.8125,-406.25,-31.73828125,0.0
1734414606.3573291,0.0,-40.0390625,-89.35546875,-14.6484375,0.0
1734414693.1546652,8.7890625,-7.8125,99.12109375,-33.203125,0.0
1734414693.1624768,-7.8125,-23.4375,-204.1015625,-51.26953125,0.0
1734414606.3685257,2.44140625,-18.06640625,81.0546875,10.7421875,0.0
1734414693.1702633,-7.32421875,-22.94921875,107.91015625,-43.9453125,0.0
1734414693.1780748,-20.5078125,-25.390625,-187.01171875,-49.31640625,0.0
1734414606.3802428,-29.296875,-52.734375,-84.9609375,-7.32421875,0.0
1734414693.1858864,-20.99609375,-27.34375,-45.41015625,-30.76171875,0.0
1734414606.3880544,-13.671875,-38.57421875,-210.9375,4.39453125,0.0
1734414693.193698,-35.15625,-32.71484375,-382.32421875,-29.296875,0.0
1734414693.2015095,-42.48046875,-31.73828125,50.29296875,-41.015625,0.0
1734414606.3997715,-12.6953125,-23.4375,20.99609375,-29.78515625,0.0
1734414693.209321,-39.0625,-32.71484375,-93.75,-28.80859375,0.0
1734414606.4070358,2.44140625,-19.04296875,110.83984375,-9.27734375,0.0
1734414693.2173145,-66.40625,-30.76171875,35.15625,-63.4765625,0.0
1734414693.225126,-51.26953125,-28.80859375,-67.3828125,-59.08203125,0.0
1734414606.418753,1.46484375,-26.3671875,-89.35546875,-9.27734375,0.0
1734414693.2329378,-47.36328125,-32.71484375,36.62109375,-54.6875,0.0
1734414693.2407494,-33.69140625,-22.94921875,-262.6953125,-33.69140625,0.0
1734414606.43047,2.44140625,-54.19921875,-189.94140625,-35.64453125,0.0
1734414693.248561,-3.90625,-23.4375,-167.96875,-20.01953125,0.0
1734414606.4382815,-12.6953125,-45.8984375,-64.453125,-10.7421875,0.0
1734414693.2563725,-23.92578125,-23.92578125,-187.5,-11.71875,0.0
1734414693.2643452,0.0,-21.484375,-29.78515625,-27.83203125,0.0
1734414606.4499986,-10.25390625,-10.25390625,-242.1875,-10.7421875,0.0
1734414693.2721567,0.0,-22.4609375,58.10546875,-28.3203125,0.0
1734414693.2799683,0.0,-31.73828125,-176.26953125,-64.453125,0.0
1734414606.4611664,-6.34765625,-31.73828125,-81.54296875,-13.18359375,0.0
1734414693.2877798,0.0,-31.25,-217.7734375,-49.31640625,0.0
1734414606.468978,-9.27734375,-33.203125,99.609375,-8.30078125,0.0
1734414693.2955914,0.0,-39.0625,-202.1484375,-75.1953125,0.0
1734414693.303403,0.0,-35.15625,-239.74609375,-62.98828125,0.0
1734414606.480695,-31.73828125,-28.3203125,-370.60546875,-8.30078125,0.0
1734414693.3106809,-13.18359375,-40.52734375,-96.19140625,-52.24609375,0.0
1734414606.4885063,-8.30078125,-32.71484375,92.28515625,-15.13671875,0.0
1734414693.3184924,-29.78515625,-39.55078125,-6.8359375,-65.91796875,0.0
1734414693.326304,-48.33984375,-44.43359375,-136.23046875,-46.875,0.0
1734414606.5002058,-33.69140625,-23.92578125,84.47265625,-27.34375,0.0
1734414693.3341155,-40.0390625,-49.31640625,-240.72265625,-43.45703125,0.0
1734414693.341927,-79.1015625,-51.26953125,-463.8671875,-27.83203125,0.0
1734414606.5119228,-17.578125,-25.390625,78.61328125,-11.71875,0.0
1734414693.3497386,-62.98828125,-40.0390625,-172.8515625,-42.96875,0.0
1734414606.5197344,-31.73828125,-27.34375,-181.15234375,-22.94921875,0.0
1734414693.3576362,-67.3828125,-34.1796875,-308.10546875,-70.80078125,0.0
1734414693.3654478,-57.6171875,-33.69140625,-184.08203125,-66.89453125,0.0
1734414606.5314515,-34.66796875,-26.85546875,150.390625,-30.2734375,0.0
1734414693.3732593,-41.9921875,-35.64453125,-340.33203125,-39.55078125,0.0
1734414693.3810709,-10.7421875,-26.85546875,-282.71484375,-38.57421875,0.0
1734414606.5431685,-13.18359375,-26.85546875,-26.3671875,-10.7421875,0.0
1734414693.3888824,-22.4609375,-40.0390625,-481.93359375,-18.5546875,0.0
1734414606.5509284,-24.4140625,-34.66796875,-52.734375,-14.6484375,0.0
1734414693.396694,-67.87109375,-47.8515625,-25.390625,-57.12890625,0.0
1734414693.404576,-64.453125,-48.33984375,-275.390625,-51.26953125,0.0
1734414606.5626454,-36.1328125,-32.2265625,91.30859375,-29.296875,0.0
1734414693.4123878,-82.51953125,-54.6875,-96.6796875,-51.7578125,0.0
1734414606.5704567,-48.33984375,-27.83203125,-165.0390625,-28.3203125,0.0
1734414693.4201994,-101.07421875,-67.87109375,-321.77734375,-65.4296875,0.0
1734414693.428011,-86.42578125,-68.359375,-312.5,-46.38671875,0.0
1734414606.582174,-55.17578125,-25.390625,-103.02734375,-41.9921875,0.0
1734414693.4358225,-90.33203125,-63.4765625,-377.44140625,-41.015625,0.0
1734414693.443634,-72.265625,-62.01171875,-333.0078125,-40.0390625,0.0
1734414606.5940125,-64.453125,-50.78125,-14.16015625,-44.43359375,0.0
1734414693.4514813,-62.5,-56.640625,35.15625,-36.62109375,0.0
1734414606.601824,-51.7578125,-48.828125,-97.16796875,-27.83203125,0.0
1734414693.459293,-58.59375,-54.19921875,-78.61328125,-41.9921875,0.0
1734414693.4671044,-47.8515625,-46.875,32.2265625,-42.48046875,0.0
1734414606.6135411,-45.41015625,-24.4140625,-296.875,-23.92578125,0.0
1734414693.4749162,-51.7578125,-41.50390625,-345.703125,-47.8515625,0.0
1734414606.6213527,-39.55078125,-25.87890625,130.37109375,-32.2265625,0.0
1734414693.4827278,-42.96875,-36.62109375,-89.84375,-52.734375,0.0
1734414693.4905393,-41.9921875,-41.9921875,-156.25,-64.94140625,0.0
1734414606.6330698,-5.859375,-23.92578125,22.4609375,-27.83203125,0.0
1734414693.4983604,0.0,-35.15625,131.34765625,-59.08203125,0.0
1734414693.506172,0.0,-45.8984375,-47.8515625,-44.921875,0.0
1734414606.6448965,0.0,-31.73828125,0.0,-25.87890625,0.0
1734414693.5139835,0.0,-47.36328125,91.30859375,-46.38671875,0.0
1734414606.6527078,0.0,-23.92578125,0.0,-40.52734375,0.0
1734414693.521795,0.0,-61.5234375,-379.39453125,-54.6875,0.0
1734414693.5296066,0.0,-54.19921875,97.16796875,-54.19921875,0.0
1734414606.664425,0.0,-48.828125,0.0,-20.01953125,0.0
1734414693.5374181,0.0,-59.5703125,-212.890625,-55.6640625,0.0
1734414693.5452054,-52.24609375,-47.36328125,26.85546875,-43.9453125,0.0
1734414606.6761422,0.0,-17.578125,0.0,-24.90234375,0.0
1734414693.553017,-66.40625,-43.45703125,-113.28125,-40.0390625,0.0
1734414606.6839535,0.0,-19.53125,0.0,-18.06640625,0.0
1734414693.5608284,-42.48046875,-37.109375,63.4765625,-29.296875,0.0
1734414693.56864,-48.33984375,-33.69140625,-454.1015625,-36.62109375,0.0
1734414606.6952,-35.64453125,-34.66796875,106.4453125,-40.0390625,0.0
1734414693.5764515,-38.57421875,-21.484375,85.44921875,-45.41015625,0.0
1734414606.7030113,-41.015625,-44.43359375,-16.6015625,-8.7890625,0.0
1734414693.584263,-44.921875,-28.80859375,-99.609375,-50.29296875,0.0
1734414693.5922525,-40.52734375,-30.76171875,17.578125,-62.98828125,0.0
1734414606.7147284,-24.4140625,-35.15625,-20.5078125,-30.76171875,0.0
1734414693.600064,-55.6640625,-36.62109375,-291.015625,-73.2421875,0.0
1734414693.6078756,-66.40625,-43.9453125,13.18359375,-75.68359375,0.0
1734414606.7264457,-36.62109375,-16.11328125,174.8046875,-17.578125,0.0
1734414693.6156871,-68.84765625,-43.45703125,-292.96875,-65.4296875,0.0
1734414606.734322,-34.66796875,-31.25,-90.33203125,-36.62109375,0.0
1734414693.6234987,-75.68359375,-44.43359375,-13.671875,-83.49609375,0.0
1734414693.6313102,-70.3125,-48.33984375,-188.96484375,-50.78125,0.0
1734414606.7460394,-29.296875,-26.3671875,43.45703125,-34.66796875,0.0
1734414693.639268,0.0,-54.19921875,-81.54296875,-71.2890625,0.0
1734414606.7538507,-39.0625,-33.203125,-90.33203125,-27.34375,0.0
1734414693.6470795,0.0,-54.19921875,-91.30859375,-54.19921875,0.0
1734414693.654891,0.0,-51.7578125,-162.59765625,-42.48046875,0.0
1734414606.7655678,-24.90234375,-38.57421875,-249.0234375,-14.6484375,0.0
1734414693.6627028,0.0,-54.6875,-358.88671875,-33.69140625,0.0
1734414693.6705143,0.0,-48.33984375,-284.1796875,-37.109375,0.0
1734414606.7772849,2.9296875,-43.45703125,-144.04296875,-24.90234375,0.0
1734414693.678326,0.0,-38.57421875,-119.62890625,-32.2265625,0.0
1734414606.785134,0.0,-20.5078125,173.828125,-19.53125,0.0
1734414693.6862462,-57.12890625,-30.76171875,-146.97265625,-46.875,0.0
1734414693.6940577,-65.4296875,-27.83203125,-66.89453125,-58.10546875,0.0
1734414606.7968512,0.0,-34.66796875,30.76171875,-39.0625,0.0
1734414693.7018692,-68.359375,-29.296875,-181.15234375,-69.82421875,0.0
1734414693.7096808,-54.6875,-25.390625,-219.23828125,-65.91796875,0.0
1734414606.8085682,0.0,-25.87890625,-226.5625,-11.71875,0.0
1734414693.7174923,-40.52734375,-35.15625,-317.87109375,-69.3359375,0.0
1734414606.8163795,0.0,-24.4140625,139.16015625,-43.45703125,0.0
1734414693.725304,-49.8046875,-37.109375,-104.00390625,-69.3359375,0.0
1734414693.7332091,-49.8046875,-43.45703125,-197.75390625,-59.5703125,0.0
1734414606.8280962,-29.78515625,-18.5546875,65.91796875,-21.97265625,0.0
1734414693.7410207,-47.8515625,-38.57421875,83.0078125,-57.12890625,0.0
1734414606.8359075,-48.828125,-36.62109375,-92.7734375,-48.33984375,0.0
1734414693.7488322,-45.41015625,-35.64453125,-145.99609375,-41.9921875,0.0
1734414693.7566438,-43.9453125,-34.1796875,-177.24609375,-41.50390625,0.0
1734414606.8476245,0.48828125,-27.34375,98.14453125,-21.484375,0.0
1734414693.7644553,-57.12890625,-41.015625,-458.984375,-39.55078125,0.0
1734414693.772267,-72.265625,-42.48046875,18.06640625,-56.15234375,0.0
1734414606.8593416,-38.0859375,-34.1796875,152.34375,-25.87890625,0.0
1734414693.7801356,-55.6640625,-36.1328125,-194.82421875,-68.84765625,0.0
1734414606.8671532,-37.109375,-36.1328125,30.2734375,-26.3671875,0.0
1734414693.7879472,-54.19921875,-34.66796875,39.55078125,-69.82421875,0.0
1734414693.7957587,-53.7109375,-41.015625,-193.84765625,-68.84765625,0.0
1734414606.878847,-50.29296875,-30.76171875,8.7890625,-46.38671875,0.0
1734414693.8035703,-56.640625,-57.12890625,-282.2265625,-65.91796875,0.0
1734414693.8113818,-49.31640625,-50.78125,-354.4921875,-43.45703125,0.0
1734414606.890564,-30.76171875,-25.390625,101.5625,-23.92578125,0.0
1734414693.8191934,-35.64453125,-46.875,-296.38671875,-66.40625,0.0
1734414606.8983753,-47.36328125,-34.1796875,-318.359375,-18.5546875,0.0
1734414693.8270311,0.0,-46.875,0.0,-42.96875,0.0
1734414693.8348427,0.0,-47.8515625,0.0,-48.828125,0.0
1734414606.9100926,-39.0625,-51.7578125,-40.52734375,-26.3671875,0.0
1734414693.8426545,0.0,-42.96875,0.0,-56.15234375,0.0
1734414606.917904,-48.828125,-36.62109375,-20.01953125,-56.640625,0.0
1734414693.850466,0.0,-49.31640625,0.0,-29.296875,0.0
1734414693.8582776,0.0,-38.0859375,0.0,-41.50390625,0.0
1734414606.9295614,-35.64453125,-21.97265625,-14.16015625,-34.66796875,0.0
1734414693.866089,0.0,-34.1796875,0.0,-39.55078125,0.0
1734414693.8738973,-50.78125,-36.1328125,14.16015625,-40.0390625,0.0
1734414606.9412785,-64.94140625,-26.3671875,-183.59375,-40.0390625,0.0
1734414693.8817089,-65.91796875,-39.55078125,-235.3515625,-47.36328125,0.0
1734414606.9490898,-45.8984375,-35.15625,164.55078125,-33.203125,0.0
1734414693.8895204,-63.4765625,-48.828125,18.06640625,-43.9453125,0.0
1734414693.8973322,-71.2890625,-51.7578125,-489.2578125,-55.6640625,0.0
1734414606.960807,-44.921875,-47.8515625,-10.7421875,-34.1796875,0.0
1734414693.9051437,-41.015625,-35.64453125,45.8984375,-48.828125,0.0
1734414606.968736,-30.2734375,-41.9921875,23.92578125,-24.90234375,0.0
1734414693.9129553,-29.296875,-45.41015625,-237.79296875,-44.921875,0.0
1734414693.920745,-51.7578125,-35.15625,51.7578125,-54.19921875,0.0
1734414606.980453,-9.27734375,-16.11328125,107.91015625,-21.484375,0.0
1734414693.9285564,-50.78125,-38.57421875,-173.33984375,-41.015625,0.0
1734414693.936368,-74.70703125,-44.43359375,8.30078125,-28.3203125,0.0
1734414606.99217,-49.31640625,-24.90234375,-154.296875,-30.76171875,0.0
1734414693.9441795,-60.546875,-59.08203125,-511.23046875,-29.78515625,0.0
1734414606.9999814,-46.875,-26.3671875,-59.5703125,-39.55078125,0.0
1734414693.951991,-88.37890625,-56.15234375,44.921875,-59.08203125,0.0
1734414693.9598026,-80.078125,-58.59375,-190.91796875,-74.70703125,0.0
1734414607.0116987,-44.43359375,-27.34375,-2.44140625,-37.109375,0.0
1734414693.9677823,0.0,-56.640625,21.97265625,-85.9375,0.0
1734414693.9755938,0.0,-63.96484375,-153.80859375,-79.1015625,0.0
1734414607.0235143,-27.83203125,-20.99609375,0.0,-36.1328125,0.0
1734414693.9834054,0.0,-65.4296875,-109.375,-83.0078125,0.0
1734414607.0313258,-55.17578125,-40.0390625,0.0,-42.48046875,0.0
1734414693.991217,0.0,-60.546875,-252.44140625,-58.59375,0.0
1734414693.9990284,0.0,-59.08203125,-9.765625,-82.03125,0.0
1734414607.043043,-23.4375,-36.62109375,0.0,-19.04296875,0.0
1734414694.00684,0.0,-54.6875,-184.08203125,-67.87109375,0.0
1734414607.0508542,-29.296875,-36.62109375,0.0,-25.87890625,0.0
1734414694.014791,-92.7734375,-61.03515625,-128.90625,-71.2890625,0.0
1734414694.0226026,-63.4765625,-51.7578125,41.9921875,-64.94140625,0.0
1734414607.0626445,-3.90625,-24.90234375,-17.578125,-34.1796875,0.0
1734414694.030414,-59.5703125,-55.6640625,-49.8046875,-41.50390625,0.0
1734414694.038226,-66.40625,-55.17578125,-272.94921875,-46.38671875,0.0
1734414607.0743618,-46.38671875,-19.53125,-217.28515625,-27.83203125,0.0
1734414694.0460374,-46.38671875,-47.8515625,-124.0234375,-45.8984375,0.0
1734414607.082173,-22.94921875,-35.15625,-127.9296875,-21.97265625,0.0
1734414694.053849,-50.78125,-42.48046875,-8.30078125,-56.640625,0.0
1734414694.0617785,0.0,-49.8046875,-106.93359375,-59.08203125,0.0
1734414607.0938902,-50.29296875,-51.26953125,-334.47265625,-30.2734375,0.0
1734414694.06959,0.0,-46.38671875,93.26171875,-54.6875,0.0
1734414607.1017017,-39.0625,-41.9921875,148.4375,-48.828125,0.0
1734414694.0774016,0.0,-47.36328125,-190.91796875,-59.08203125,0.0
1734414694.0852134,0.0,-47.36328125,-105.95703125,-40.52734375,0.0
1734414607.1134653,0.0,-36.62109375,0.0,-36.62109375,0.0
1734414694.093025,0.0,-51.26953125,-228.02734375,-45.8984375,0.0
1734414694.1008365,0.0,-43.9453125,-33.203125,-64.94140625,0.0
1734414607.1251824,0.0,-35.15625,0.0,-31.73828125,0.0
1734414694.1080954,-47.36328125,-45.41015625,-9.765625,-43.9453125,0.0
1734414607.132994,0.0,-22.4609375,0.0,-30.76171875,0.0
1734414694.115907,-52.24609375,-46.38671875,117.1875,-56.640625,0.0
1734414694.1237185,-61.03515625,-46.875,-57.6171875,-58.59375,0.0
1734414607.144711,0.0,-33.203125,0.0,-22.4609375,0.0
1734414694.13153,-57.6171875,-45.41015625,2.44140625,-70.80078125,0.0
1734414694.1393416,-42.48046875,-43.45703125,-384.765625,-50.29296875,0.0
1734414607.1564555,-42.96875,-20.01953125,62.98828125,-34.66796875,0.0
1734414694.1471531,-55.17578125,-38.57421875,128.90625,-48.33984375,0.0
1734414607.164267,-26.85546875,-44.921875,31.73828125,-29.296875,0.0
1734414694.1550221,-37.59765625,-44.43359375,-40.0390625,-41.50390625,0.0
1734414694.1628337,-36.62109375,-42.48046875,16.11328125,-33.203125,0.0
1734414607.1759841,-55.6640625,-35.15625,-149.4140625,-26.3671875,0.0
1734414694.1706452,-30.76171875,-38.0859375,-37.109375,-24.90234375,0.0
1734414607.1837957,-41.50390625,-31.73828125,-312.98828125,-21.97265625,0.0
1734414694.1784568,-33.203125,-41.015625,-240.234375,-38.57421875,0.0
1734414694.1862686,-13.671875,-35.15625,-282.2265625,-16.11328125,0.0
1734414607.1955128,-81.0546875,-20.99609375,-162.109375,-59.08203125,0.0
1734414694.19408,-16.6015625,-23.4375,-141.11328125,-55.17578125,0.0
1734414694.2019203,0.0,-25.390625,25.390625,-60.546875,0.0
1734414607.2072256,-46.38671875,-39.55078125,157.2265625,-19.53125,0.0
1734414694.2097318,0.0,-33.69140625,-21.484375,-37.59765625,0.0
1734414607.215037,-41.9921875,-40.52734375,-81.0546875,-36.1328125,0.0
1734414694.2175434,0.0,-43.45703125,25.87890625,-55.17578125,0.0
1734414694.225355,0.0,-40.52734375,-364.2578125,-32.2265625,0.0
1734414607.2267542,-22.4609375,-43.45703125,-253.41796875,-15.13671875,0.0
1734414694.2331665,0.0,-44.921875,-6.34765625,-27.83203125,0.0
1734414694.2409782,0.0,-31.73828125,-99.609375,-46.875,0.0
1734414607.2384713,-69.3359375,-19.04296875,44.43359375,-29.296875,0.0
1734414694.2481496,-50.78125,-25.87890625,70.80078125,-54.6875,0.0
1734414607.2462828,-10.7421875,-14.6484375,111.81640625,-27.83203125,0.0
1734414694.2559612,-25.390625,-24.4140625,-66.89453125,-60.546875,0.0
1734414694.2637727,-54.6875,-12.20703125,70.3125,-58.10546875,0.0
1734414607.2579732,-41.015625,-33.203125,-55.6640625,-50.29296875,0.0
1734414694.2715843,-32.71484375,-13.18359375,-293.9453125,-56.640625,0.0
1734414607.2657845,-30.76171875,-46.875,102.05078125,-33.69140625,0.0
1734414694.2793958,-47.8515625,-3.41796875,59.5703125,-78.61328125,0.0
1734414694.2872074,-47.36328125,-6.8359375,-181.640625,-55.6640625,0.0
1734414607.2775018,-45.41015625,-29.296875,-62.98828125,-25.87890625,0.0
1734414694.2943747,-42.48046875,-7.32421875,55.6640625,-71.77734375,0.0
1734414694.3021863,-52.734375,-8.30078125,-173.828125,-59.08203125,0.0
1734414607.289219,-26.3671875,-17.578125,-17.08984375,-22.94921875,0.0
1734414694.3099978,-32.71484375,-10.25390625,-32.71484375,-35.64453125,0.0
1734414607.2969747,-29.296875,-21.97265625,22.4609375,-47.8515625,0.0
1734414694.3178093,-21.484375,-10.25390625,-486.328125,-46.875,0.0
1734414694.325621,-17.578125,-13.18359375,93.26171875,-30.2734375,0.0
1734414607.308692,-11.71875,-32.71484375,73.2421875,-23.92578125,0.0
1734414694.3334324,-4.39453125,-23.92578125,-69.3359375,-38.0859375,0.0
1734414607.3165033,-35.64453125,-34.66796875,-159.1796875,-36.62109375,0.0
1734414694.3414378,-18.06640625,-20.01953125,39.0625,-46.38671875,0.0
1734414694.3492494,-24.90234375,-17.08984375,-59.5703125,-29.78515625,0.0
1734414607.3282204,-10.25390625,-17.08984375,108.88671875,-37.109375,0.0
1734414694.357061,-24.4140625,-12.6953125,-11.23046875,-50.78125,0.0
1734414694.3648725,-32.71484375,-20.5078125,-327.63671875,-41.9921875,0.0
1734414607.3399377,-36.1328125,-47.8515625,158.203125,-22.4609375,0.0
1734414694.372684,-35.64453125,-23.4375,3.90625,-34.66796875,0.0
1734414607.3478742,-32.2265625,-25.390625,56.15234375,-14.6484375,0.0
1734414694.3804955,-30.2734375,-26.85546875,-139.16015625,-22.94921875,0.0
1734414694.3884785,0.0,-28.80859375,-15.13671875,-17.578125,0.0
1734414607.3595915,-60.546875,-40.52734375,33.203125,-44.921875,0.0
1734414694.39629,0.0,-26.85546875,-8.7890625,-43.45703125,0.0
1734414694.4041016,0.0,-25.390625,-80.56640625,-36.1328125,0.0
1734414607.3713086,-40.0390625,-36.1328125,110.83984375,-29.296875,0.0
1734414694.4119132,0.0,-22.94921875,-198.2421875,-30.2734375,0.0
1734414607.3791199,-34.66796875,-47.8515625,-237.79296875,-27.83203125,0.0
1734414694.4197247,0.0,-29.296875,-165.0390625,-35.64453125,0.0
1734414694.4275362,0.0,-26.3671875,-91.30859375,-18.06640625,0.0
1734414607.390947,0.0,-20.5078125,-85.44921875,-29.296875,0.0
1734414694.4354706,-61.5234375,-28.3203125,-61.03515625,-53.7109375,0.0
1734414607.3987584,0.0,-16.6015625,131.8359375,-42.96875,0.0
1734414694.4432821,-47.8515625,-32.2265625,113.28125,-44.921875,0.0
1734414607.4065697,0.0,-21.97265625,10.7421875,-31.25,0.0
1734414607.4104755,0.0,-32.2265625,-69.3359375,-30.2734375,0.0
1734414607.4143813,0.0,-38.57421875,18.5546875,-38.57421875,0.0
1734414607.418287,0.0,-33.69140625,160.64453125,-43.9453125,0.0
1734414607.4221926,0.0,-22.94921875,-168.45703125,-13.671875,0.0
1734414607.4260983,0.0,-32.2265625,-308.59375,0.0,0.0
1734414607.4300041,0.0,-24.4140625,125.48828125,-20.5078125,0.0
1734414607.43391,0.0,-5.37109375,91.796875,-18.06640625,0.0
1734414607.437886,-33.69140625,-14.6484375,0.0,-11.23046875,0.0
1734414607.4417918,0.9765625,-35.15625,0.0,-6.8359375,0.0
1734414607.4456975,0.0,-44.43359375,0.0,-15.13671875,0.0
1734414607.449603,-49.8046875,-32.2265625,0.0,-24.90234375,0.0
1734414607.4535089,-47.8515625,-24.90234375,0.0,-18.06640625,0.0
1734414607.4574146,-26.3671875,-25.390625,0.0,-10.7421875,0.0
1734414607.4613204,-15.13671875,-27.34375,0.0,-6.34765625,0.0
1734414607.465226,-16.6015625,-38.57421875,0.0,-12.20703125,0.0
1734414607.4691317,-12.6953125,-41.015625,0.0,-9.27734375,0.0
1734414607.4730375,-20.5078125,-28.3203125,0.0,-15.13671875,0.0
1734414607.4769433,-32.71484375,-18.06640625,0.0,-29.296875,0.0
1734414607.4808488,-26.3671875,-35.64453125,0.0,-24.4140625,0.0
1734414607.4847982,-26.85546875,-42.48046875,-48.828125,-22.94921875,0.0
1734414607.4887037,-43.45703125,-21.484375,95.21484375,-32.2265625,0.0
1734414607.4926095,-60.05859375,-20.5078125,99.12109375,-41.015625,0.0
1734414607.4965153,-53.22265625,-26.85546875,-56.640625,-39.55078125,0.0
1734414607.500421,-13.671875,-24.4140625,-57.6171875,-33.69140625,0.0
1734414607.5043266,-26.85546875,-27.34375,53.22265625,-42.48046875,0.0
1734414607.5082324,-63.4765625,-31.73828125,109.375,-58.59375,0.0
1734414607.5121381,-57.12890625,-40.52734375,-231.93359375,-55.17578125,0.0
1734414607.516044,-51.7578125,-40.0390625,-294.921875,-54.19921875,0.0
1734414607.5199494,-52.24609375,-22.94921875,156.73828125,-60.05859375,0.0
1734414607.5238552,-52.24609375,-26.3671875,102.5390625,-48.33984375,0.0
1734414607.527761,-46.875,-31.73828125,72.265625,-35.64453125,0.0
1734414607.531698,0.0,-23.92578125,108.3984375,-31.73828125,0.0
1734414607.5356038,0.0,-29.296875,114.2578125,-43.45703125,0.0
1734414607.5395093,0.0,-38.57421875,11.71875,-45.8984375,0.0
1734414607.543415,0.0,-29.296875,-60.546875,-28.80859375,0.0
1734414607.5473208,0.0,-22.4609375,41.015625,-20.01953125,0.0
1734414607.5512266,0.0,-24.4140625,10.25390625,-20.99609375,0.0
1734414607.5551322,0.0,-35.15625,-88.37890625,-21.97265625,0.0
1734414607.559038,0.0,-36.62109375,-271.484375,-19.53125,0.0
1734414607.5629437,0.0,-28.80859375,-23.4375,-17.578125,0.0
1734414607.5668495,0.0,-26.85546875,216.30859375,-0.9765625,0.0
1734414607.570755,0.0,-29.296875,-26.85546875,0.0,0.0
1734414607.5746608,0.0,-27.83203125,-241.69921875,-27.34375,0.0
1734414607.578559,-23.4375,-26.3671875,0.48828125,-25.390625,0.0
1734414607.5824647,-15.625,-23.4375,157.71484375,-12.6953125,0.0
1734414607.5863702,-20.01953125,-32.2265625,23.4375,-12.20703125,0.0
1734414607.590276,-22.94921875,-40.0390625,20.99609375,-13.671875,0.0
1734414607.5941818,-29.296875,-27.34375,72.75390625,-27.34375,0.0
1734414607.5980875,-41.50390625,-18.5546875,-45.8984375,-41.50390625,0.0
1734414607.601993,-39.0625,-29.78515625,-369.140625,-34.1796875,0.0
1734414607.6058989,-43.9453125,-43.9453125,-269.04296875,-26.3671875,0.0
1734414607.6098046,-31.73828125,-40.52734375,138.671875,-41.50390625,0.0
1734414607.6137104,-43.45703125,-36.62109375,72.75390625,-48.33984375,0.0
1734414607.617616,-78.61328125,-32.71484375,-12.6953125,-45.41015625,0.0
1734414607.6215217,-59.08203125,-27.83203125,46.38671875,-37.109375,0.0
1734414607.625609,0.0,-38.0859375,145.99609375,-30.2734375,0.0
1734414607.6295145,0.0,-40.0390625,54.6875,-29.296875,0.0
1734414607.6334202,0.0,-45.41015625,-36.62109375,-45.41015625,0.0
1734414607.637326,0.0,-52.734375,54.6875,-55.17578125,0.0
1734414607.6412318,0.0,-37.109375,108.88671875,-35.64453125,0.0
1734414607.6451373,0.0,-29.78515625,-22.4609375,-23.4375,0.0
1734414607.649043,0.0,-35.64453125,-252.44140625,-21.97265625,0.0
1734414607.6529489,0.0,-33.203125,-76.171875,-45.41015625,0.0
1734414607.6568546,0.0,-28.80859375,120.1171875,-66.40625,0.0
1734414607.6607602,0.0,-29.78515625,-62.01171875,-47.8515625,0.0
1734414607.664666,0.0,-33.69140625,-149.90234375,-29.296875,0.0
1734414607.6685717,0.0,-32.71484375,-50.78125,-19.53125,0.0
1734414607.6720705,-39.55078125,-22.4609375,-3.41796875,-27.34375,0.0
1734414607.6759763,-41.9921875,-27.83203125,-28.80859375,-29.78515625,0.0
1734414607.679882,-53.22265625,-23.4375,-61.5234375,-15.13671875,0.0
1734414607.6837878,-51.26953125,-15.625,107.91015625,-12.20703125,0.0
1734414607.6876934,-38.0859375,-34.1796875,130.859375,-23.4375,0.0
1734414607.6915991,-26.85546875,-35.15625,-222.65625,-25.390625,0.0
1734414607.695505,-28.80859375,-16.6015625,-284.66796875,-16.6015625,0.0
1734414607.6994107,-46.38671875,-9.765625,61.03515625,-11.71875,0.0
1734414607.7033162,-45.41015625,-28.3203125,140.13671875,-10.25390625,0.0
1734414607.707222,-31.25,-50.78125,-212.890625,-10.25390625,0.0
1734414607.7111278,-21.484375,-36.1328125,-407.71484375,-7.32421875,0.0
1734414607.7150335,-20.01953125,-26.85546875,17.578125,-14.16015625,0.0
1734414607.7190604,-22.4609375,-39.0625,0.0,-23.92578125,0.0
1734414607.7229662,-25.87890625,-42.48046875,0.0,-24.90234375,0.0
1734414607.7268717,-8.30078125,-24.4140625,0.0,-2.44140625,0.0
1734414607.7307775,-10.25390625,-14.16015625,0.0,-8.30078125,0.0
1734414607.7346833,-43.9453125,-21.484375,0.0,-45.41015625,0.0
1734414607.738589,-39.0625,-15.13671875,0.0,-52.734375,0.0
1734414607.7424946,-29.78515625,-10.25390625,0.0,-43.45703125,0.0
1734414607.7464004,-21.97265625,-16.6015625,0.0,-45.41015625,0.0
1734414607.7503061,8.30078125,-21.484375,0.0,-49.31640625,0.0
1734414607.754212,-25.390625,-23.92578125,0.0,-47.8515625,0.0
1734414607.7581174,-79.58984375,-27.83203125,0.0,-64.94140625,0.0
1734414607.7620232,-64.453125,-24.90234375,0.0,-66.40625,0.0
1734414607.7660267,0.0,-23.92578125,-75.68359375,-48.33984375,0.0
1734414607.7699325,0.0,-38.57421875,-5.859375,-40.52734375,0.0
1734414607.7738383,0.0,-37.109375,81.0546875,-44.43359375,0.0
1734414607.777744,0.0,-28.80859375,66.89453125,-40.0390625,0.0
1734414607.7816496,0.0,-28.3203125,-73.73046875,-16.6015625,0.0
1734414607.7855554,0.0,-22.4609375,-137.20703125,-5.37109375,0.0
1734414607.7894611,0.0,-30.2734375,3.41796875,-18.06640625,0.0
1734414607.793367,0.0,-43.45703125,119.140625,-34.1796875,0.0
1734414607.7972724,0.0,-36.62109375,-264.16015625,-21.484375,0.0
1734414607.8011782,0.0,-22.4609375,-319.82421875,-1.46484375,0.0
1734414607.805084,0.0,-19.04296875,175.78125,-9.765625,0.0
1734414607.8089898,0.0,-27.83203125,69.3359375,-30.76171875,0.0
1734414607.8129733,-27.83203125,-24.4140625,-88.8671875,-34.1796875,0.0
1734414607.816879,-22.94921875,-7.8125,-16.11328125,-21.97265625,0.0
1734414607.8207848,-15.625,-10.7421875,93.75,-20.01953125,0.0
1734414607.8246903,3.90625,-23.4375,54.19921875,-23.92578125,0.0
1734414607.828596,-27.83203125,-27.83203125,1.46484375,-32.71484375,0.0
1734414607.832502,-73.2421875,-30.76171875,-151.3671875,-41.015625,0.0
1734414607.8364077,-58.59375,-32.71484375,-183.10546875,-46.38671875,0.0
1734414607.8403132,-42.96875,-28.80859375,-49.8046875,-32.2265625,0.0
1734414607.844219,-34.66796875,-29.296875,-254.8828125,-13.18359375,0.0
1734414607.8481247,-37.109375,-19.04296875,-2.44140625,-18.5546875,0.0
1734414607.8520305,-40.0390625,-12.20703125,143.5546875,-35.64453125,0.0
1734414607.855936,-33.69140625,-32.2265625,-200.1953125,-45.8984375,0.0
1734414607.8598855,-40.0390625,-23.4375,-151.3671875,-51.7578125,0.0
1734414607.863791,-42.48046875,-28.3203125,158.203125,-44.921875,0.0
1734414607.8676968,-37.59765625,-54.19921875,135.25390625,-39.0625,0.0
1734414607.8716025,-48.33984375,-57.12890625,-46.875,-47.36328125,0.0
1734414607.8755083,-59.08203125,-39.55078125,-79.1015625,-55.6640625,0.0
1734414607.8794138,-49.31640625,-20.99609375,-135.25390625,-56.640625,0.0
1734414607.8833196,-41.50390625,-31.25,8.30078125,-45.8984375,0.0
1734414607.8872254,-12.20703125,-32.2265625,-169.921875,-15.625,0.0
1734414607.8911312,5.859375,-17.578125,-281.73828125,-12.20703125,0.0
1734414607.8950367,-42.48046875,-28.80859375,116.2109375,-34.66796875,0.0
1734414607.8989425,-58.10546875,-46.38671875,30.2734375,-30.76171875,0.0
1734414607.9028482,-39.0625,-39.0625,62.01171875,-19.04296875,0.0
1734414607.9067717,-36.62109375,-31.73828125,150.87890625,-21.484375,0.0
1734414607.9106774,-36.1328125,-37.109375,127.9296875,-28.3203125,0.0
1734414607.9145832,-43.45703125,-39.55078125,-5.37109375,-25.87890625,0.0
1734414607.918489,-40.52734375,-41.015625,-53.7109375,-26.3671875,0.0
1734414607.9223945,-19.04296875,-39.55078125,82.51953125,-18.06640625,0.0
1734414607.9263003,-20.99609375,-26.85546875,43.45703125,-9.765625,0.0
1734414607.930206,-30.76171875,-15.13671875,-27.83203125,-15.625,0.0
1734414607.9341118,-28.3203125,-17.578125,-233.3984375,-25.390625,0.0
1734414607.9380176,-28.3203125,-16.11328125,-45.41015625,-36.62109375,0.0
1734414607.9419231,-35.64453125,-27.34375,200.68359375,-38.57421875,0.0
1734414607.945829,-28.3203125,-34.66796875,13.18359375,-32.2265625,0.0
1734414607.9497347,-41.50390625,-41.50390625,-88.37890625,-46.875,0.0
1734414607.9536326,-68.359375,-49.31640625,100.09765625,-57.6171875,0.0
1734414607.9575384,-56.15234375,-33.69140625,52.734375,-40.52734375,0.0
1734414607.9614441,-42.48046875,-31.73828125,-89.35546875,-33.69140625,0.0
1734414607.96535,-44.43359375,-33.69140625,41.50390625,-43.45703125,0.0
1734414607.9692554,-41.50390625,-26.85546875,120.1171875,-43.45703125,0.0
1734414607.9731612,-41.50390625,-19.53125,-2.9296875,-42.48046875,0.0
1734414607.977067,-33.203125,-24.90234375,-370.60546875,-36.62109375,0.0
1734414607.9809728,-28.3203125,-40.52734375,-261.23046875,-24.4140625,0.0
1734414607.9848783,-27.83203125,-41.50390625,193.359375,-32.71484375,0.0
1734414607.988784,3.90625,-29.296875,105.95703125,-34.1796875,0.0
1734414607.9926898,-10.7421875,-17.578125,22.94921875,-29.296875,0.0
1734414607.9965956,-32.71484375,-25.87890625,56.640625,-27.83203125,0.0
1734414608.0004663,-25.87890625,-18.5546875,127.44140625,-20.99609375,0.0
1734414608.0043721,-33.69140625,-17.08984375,65.91796875,-15.13671875,0.0
1734414608.0082777,-34.66796875,-35.15625,6.8359375,-12.6953125,0.0
1734414608.0121834,-34.1796875,-33.203125,78.125,-24.4140625,0.0
1734414608.0160892,-36.62109375,-30.76171875,18.5546875,-32.71484375,0.0
1734414608.019995,-33.203125,-43.45703125,-106.93359375,-27.34375,0.0
1734414608.0239005,-32.2265625,-51.7578125,-156.25,-21.97265625,0.0
1734414608.0278063,-27.83203125,-29.78515625,27.83203125,-13.18359375,0.0
1734414608.031712,-29.296875,-17.08984375,145.99609375,-15.625,0.0
1734414608.0356178,-48.33984375,-36.62109375,-83.984375,-23.4375,0.0
1734414608.0395234,-40.52734375,-56.15234375,-124.51171875,-24.4140625,0.0
1734414608.0434291,-22.4609375,-42.96875,81.0546875,-23.92578125,0.0
1734414608.0474846,-35.64453125,-29.296875,78.61328125,-29.296875,0.0
1734414608.0513904,-49.31640625,-31.25,9.765625,-40.52734375,0.0
1734414608.055296,-49.31640625,-26.85546875,-8.30078125,-40.52734375,0.0
1734414608.0592017,-41.9921875,-24.90234375,130.37109375,-39.55078125,0.0
1734414608.0631075,-30.76171875,-36.62109375,158.203125,-36.1328125,0.0
1734414608.0670133,-5.37109375,-39.55078125,-147.4609375,-17.08984375,0.0
1734414608.070919,-29.78515625,-32.71484375,-161.1328125,-14.6484375,0.0
1734414608.0748246,-65.91796875,-26.85546875,110.83984375,-31.73828125,0.0
1734414608.0787303,-48.828125,-36.1328125,-26.85546875,-40.52734375,0.0
1734414608.082636,-41.50390625,-55.17578125,-139.6484375,-38.57421875,0.0
1734414608.086542,-44.43359375,-44.921875,1.953125,-37.59765625,0.0
1734414608.0904474,-41.50390625,-27.34375,136.71875,-37.59765625,0.0
1734414608.094481,0.0,-27.34375,8.7890625,-40.0390625,0.0
1734414608.0983868,0.0,-33.69140625,-48.33984375,-38.0859375,0.0
1734414608.1022925,0.0,-40.52734375,64.94140625,-42.48046875,0.0
1734414608.1061983,0.0,-35.15625,157.71484375,-45.8984375,0.0
1734414608.1101038,0.0,-39.55078125,25.87890625,-36.1328125,0.0
1734414608.1140096,0.0,-48.33984375,-249.0234375,-45.8984375,0.0
1734414608.1179154,0.0,-37.59765625,-178.7109375,-48.33984375,0.0
1734414608.1218212,0.0,-25.390625,104.00390625,-33.203125,0.0
1734414608.1257267,0.0,-33.203125,-6.34765625,-37.109375,0.0
1734414608.1296325,0.0,-34.1796875,-317.87109375,-29.78515625,0.0
1734414608.1335382,0.0,-30.76171875,-115.234375,-44.921875,0.0
1734414608.137444,0.0,-17.578125,-166.9921875,-77.1484375,0.0
1734414608.1414418,-82.51953125,-13.18359375,-318.359375,-83.0078125,0.0
1734414608.1453476,-94.7265625,-27.34375,-40.0390625,-84.47265625,0.0
1734414608.1492531,-114.2578125,-23.4375,111.81640625,-102.05078125,0.0
1734414608.153159,-100.09765625,-15.625,64.94140625,-120.60546875,0.0
1734414608.1570647,-108.3984375,-19.53125,-95.703125,-129.8828125,0.0
1734414608.1609704,-162.109375,-18.5546875,-307.12890625,-138.671875,0.0
1734414608.164876,-159.66796875,-11.71875,-109.86328125,-142.578125,0.0
1734414608.1687818,-160.15625,-23.92578125,156.25,-149.4140625,0.0
1734414608.1726875,-168.45703125,-30.76171875,-250.48828125,-142.08984375,0.0
1734414608.1765933,-169.43359375,-30.2734375,-363.28125,-145.01953125,0.0
1734414608.1804988,-174.31640625,-30.2734375,93.26171875,-166.50390625,0.0
1734414608.1844046,-157.71484375,-10.7421875,69.82421875,-151.85546875,0.0
1734414608.1883738,0.0,-6.8359375,2.9296875,-144.53125,0.0
1734414608.1922796,0.0,-22.4609375,41.50390625,-161.1328125,0.0
1734414608.1961854,0.0,-19.04296875,-22.4609375,-159.1796875,0.0
1734414608.2000911,0.0,-10.25390625,-74.70703125,-150.87890625,0.0
1734414608.2039967,0.0,-25.87890625,-24.90234375,-135.7421875,0.0
1734414608.2079024,0.0,-39.0625,-18.5546875,-119.62890625,0.0
1734414608.2118082,0.0,-26.85546875,28.80859375,-114.2578125,0.0
1734414608.215714,0.0,-12.20703125,-27.83203125,-103.515625,0.0
1734414608.2196198,0.0,-19.04296875,-314.453125,-88.37890625,0.0
1734414608.2235253,0.0,-26.3671875,-20.5078125,-80.56640625,0.0
1734414608.227431,0.0,-17.578125,181.15234375,-71.2890625,0.0
1734414608.2313368,0.0,-0.48828125,-148.4375,-56.640625,0.0
1734414608.2347157,-153.80859375,-12.20703125,-193.359375,-57.12890625,0.0
1734414608.2386212,-157.71484375,-37.109375,82.51953125,-57.12890625,0.0
1734414608.242527,-147.94921875,-41.015625,111.328125,-36.1328125,0.0
1734414608.2464328,-130.37109375,-28.80859375,13.18359375,-16.6015625,0.0
1734414608.2503386,-116.69921875,-44.43359375,-31.73828125,-14.16015625,0.0
1734414608.254244,-118.1640625,-46.38671875,-70.80078125,-12.6953125,0.0
1734414608.2581499,-119.140625,-32.71484375,-109.86328125,-1.953125,0.0
1734414608.2620556,-106.4453125,-40.52734375,-336.42578125,9.765625,0.0
1734414608.2659614,-90.8203125,-22.94921875,-247.55859375,21.97265625,0.0
1734414608.269867,-79.1015625,-11.71875,148.92578125,18.06640625,0.0
1734414608.2737727,-62.01171875,-41.50390625,61.5234375,12.20703125,0.0
1734414608.2776785,-42.48046875,-49.31640625,-47.36328125,22.4609375,0.0
1734414608.2810519,-38.0859375,-34.66796875,40.52734375,29.296875,0.0
1734414608.2849574,-42.96875,-22.4609375,146.97265625,28.80859375,0.0
1734414608.2888632,-12.6953125,-23.4375,1.46484375,32.2265625,0.0
1734414608.292769,22.94921875,-39.0625,-61.5234375,22.4609375,0.0
1734414608.2966747,-18.06640625,-34.1796875,41.50390625,22.4609375,0.0
1734414608.3005803,-48.33984375,-33.203125,-8.7890625,41.015625,0.0
1734414608.304486,-16.11328125,-41.015625,-39.0625,45.41015625,0.0
1734414608.3083918,4.39453125,-29.296875,-208.984375,50.78125,0.0
1734414608.3122973,9.27734375,-19.53125,-183.10546875,39.0625,0.0
1734414608.316203,5.859375,-29.296875,64.94140625,13.671875,0.0
1734414608.320109,-3.90625,-39.55078125,13.18359375,19.53125,0.0
1734414608.3240147,4.39453125,-36.1328125,-94.7265625,30.2734375,0.0
1734414608.3279371,29.78515625,-41.9921875,76.171875,11.23046875,0.0
1734414608.331843,-20.5078125,-42.48046875,112.79296875,-1.953125,0.0
1734414608.3357487,-10.7421875,-34.1796875,-59.08203125,4.39453125,0.0
1734414608.3396544,1.46484375,-30.2734375,-28.3203125,-5.37109375,0.0
1734414608.34356,1.953125,-27.34375,75.1953125,-2.9296875,0.0
1734414608.3474658,-2.44140625,-37.59765625,-15.13671875,10.25390625,0.0
1734414608.3513715,-12.6953125,-44.921875,-344.23828125,4.8828125,0.0
1734414608.355277,-6.8359375,-40.52734375,-312.98828125,1.953125,0.0
1734414608.3591828,3.90625,-38.57421875,138.671875,5.859375,0.0
1734414608.3630886,2.44140625,-45.41015625,100.09765625,16.11328125,0.0
1734414608.3669944,0.9765625,-33.203125,14.16015625,14.6484375,0.0
1734414608.3709,-12.6953125,-25.87890625,-14.16015625,-2.44140625,0.0
1734414608.3747814,-16.11328125,-30.2734375,16.6015625,3.41796875,0.0
1734414608.378687,10.25390625,-32.2265625,2.9296875,18.5546875,0.0
1734414608.3825927,13.18359375,-38.0859375,5.37109375,16.11328125,0.0
1734414608.3864985,-6.8359375,-38.0859375,88.37890625,0.0,0.0
1734414608.3904042,-22.4609375,-31.25,52.734375,-12.6953125,0.0
1734414608.3943098,-19.53125,-20.99609375,-179.6875,-12.20703125,0.0
1734414608.3982155,4.39453125,-13.671875,-354.00390625,10.7421875,0.0
1734414608.4021213,10.25390625,-16.11328125,-2.44140625,20.01953125,0.0
1734414608.406027,-7.32421875,-17.08984375,157.2265625,0.48828125,0.0
1734414608.4099326,-16.6015625,-26.85546875,-23.4375,-4.39453125,0.0
1734414608.4138384,8.30078125,-31.73828125,-112.3046875,-10.7421875,0.0
1734414608.4177442,-5.37109375,-37.109375,-161.1328125,-22.94921875,0.0
1734414608.4216065,-37.59765625,-44.921875,-36.62109375,-24.4140625,0.0
1734414608.4255123,-24.90234375,-40.52734375,-4.8828125,-20.99609375,0.0
1734414608.4294178,-23.4375,-45.8984375,-212.40234375,-18.5546875,0.0
1734414608.4333236,-34.66796875,-41.50390625,-94.23828125,-25.87890625,0.0
1734414608.4372294,-21.484375,-35.15625,77.1484375,-25.390625,0.0
1734414608.4411352,-10.7421875,-26.3671875,-200.68359375,-9.27734375,0.0
1734414608.4450407,-13.671875,-18.06640625,-217.7734375,-2.44140625,0.0
1734414608.4489465,-13.671875,-20.5078125,99.609375,-18.06640625,0.0
1734414608.4528522,-14.6484375,-13.671875,47.36328125,-31.25,0.0
1734414608.456758,-11.23046875,-8.7890625,-157.71484375,-16.6015625,0.0
1734414608.4606636,-9.27734375,-17.08984375,-36.62109375,-6.34765625,0.0
1734414608.4645693,-11.71875,-31.25,156.73828125,-15.625,0.0
1734414608.4686096,-17.08984375,-37.59765625,14.6484375,-23.4375,0.0
1734414608.472515,-24.90234375,-31.73828125,-108.3984375,-30.2734375,0.0
1734414608.4764209,-25.390625,-22.94921875,-6.8359375,-36.62109375,0.0
1734414608.4803267,-25.87890625,-19.53125,132.8125,-23.92578125,0.0
1734414608.4842324,12.20703125,-29.78515625,35.64453125,-0.9765625,0.0
1734414608.488138,1.953125,-45.41015625,-173.33984375,-4.39453125,0.0
1734414608.4920437,-49.8046875,-44.921875,-134.765625,-2.44140625,0.0
1734414608.4959495,-37.109375,-40.52734375,55.6640625,-4.8828125,0.0
1734414608.499855,-20.01953125,-31.25,9.27734375,-18.06640625,0.0
1734414608.5037608,-16.11328125,-26.3671875,-124.51171875,-10.7421875,0.0
1734414608.5076666,-25.87890625,-19.53125,85.9375,-14.6484375,0.0
1734414608.5115724,-39.55078125,-17.578125,45.41015625,-41.015625,0.0
1734414608.5155897,-42.48046875,-31.25,-136.71875,-49.31640625,0.0
1734414608.5194952,-36.62109375,-35.64453125,-18.06640625,-31.73828125,0.0
1734414608.523401,-16.6015625,-24.90234375,152.34375,-17.08984375,0.0
1734414608.5273068,-7.8125,-24.90234375,131.8359375,-10.25390625,0.0
1734414608.5312126,-13.671875,-34.66796875,-42.48046875,-15.625,0.0
1734414608.535118,-24.4140625,-38.0859375,-286.1328125,-33.69140625,0.0
1734414608.5390239,-25.390625,-22.94921875,-96.19140625,-30.76171875,0.0
1734414608.5429296,-15.13671875,-13.671875,212.40234375,-12.20703125,0.0
1734414608.5468354,-11.23046875,-26.85546875,-198.73046875,1.953125,0.0
1734414608.550741,-26.85546875,-32.2265625,-306.640625,-5.859375,0.0
1734414608.5546467,-41.50390625,-43.45703125,111.328125,-31.73828125,0.0
1734414608.5585525,-39.0625,-45.8984375,35.64453125,-34.66796875,0.0
1734414608.562543,-7.32421875,-40.0390625,40.52734375,-24.90234375,0.0
1734414608.5664487,2.9296875,-48.828125,108.88671875,-23.92578125,0.0
1734414608.5703545,-47.8515625,-36.1328125,125.9765625,-25.87890625,0.0
1734414608.5742602,-62.98828125,-23.4375,21.97265625,-39.0625,0.0
1734414608.5781658,-54.6875,-24.90234375,-50.78125,-49.8046875,0.0
1734414608.5820715,-41.9921875,-23.4375,14.6484375,-34.1796875,0.0
1734414608.5859773,-47.36328125,-34.66796875,92.28515625,-31.25,0.0
1734414608.589883,-48.828125,-38.57421875,20.01953125,-31.73828125,0.0
1734414608.5937886,-35.64453125,-29.78515625,-268.06640625,-19.04296875,0.0
1734414608.5976944,-33.203125,-17.578125,-18.5546875,-20.99609375,0.0
1734414608.6016002,-27.83203125,-27.34375,171.38671875,-20.5078125,0.0
1734414608.6055057,-19.53125,-32.71484375,-17.08984375,-16.6015625,0.0
1734414608.609462,-21.484375,-22.94921875,-74.70703125,-16.6015625,0.0
1734414608.6133678,-36.1328125,-13.18359375,64.94140625,-21.484375,0.0
1734414608.6172733,-36.62109375,-9.27734375,113.76953125,-29.296875,0.0
1734414608.621179,-21.97265625,-26.3671875,10.7421875,-21.97265625,0.0
1734414608.6250849,-23.4375,-35.15625,62.5,-14.6484375,0.0
1734414608.6289907,-34.66796875,-50.29296875,54.19921875,-22.94921875,0.0
1734414608.6328962,-37.59765625,-53.22265625,36.1328125,-36.62109375,0.0
1734414608.636802,-28.3203125,-39.0625,-262.6953125,-31.73828125,0.0
1734414608.6407077,-16.11328125,-29.296875,-299.8046875,-17.578125,0.0
1734414608.6446135,-15.625,-15.13671875,169.43359375,-14.6484375,0.0
1734414608.648519,-28.80859375,-18.5546875,92.28515625,-11.71875,0.0
1734414608.6524248,-43.45703125,-19.04296875,-13.671875,-20.99609375,0.0
1734414608.6563554,0.0,-15.13671875,62.5,-30.76171875,0.0
1734414608.6602612,0.0,-25.87890625,156.73828125,-28.3203125,0.0
1734414608.664167,0.0,-36.1328125,44.921875,-19.53125,0.0
1734414608.6680725,0.0,-38.57421875,-21.97265625,-23.92578125,0.0
1734414608.6719782,0.0,-42.48046875,58.59375,-28.80859375,0.0
1734414608.675884,0.0,-26.3671875,-55.17578125,-29.296875,0.0
1734414608.6797898,0.0,-15.13671875,-174.31640625,-30.76171875,0.0
1734414608.6836953,0.0,-25.390625,-248.046875,-5.859375,0.0
1734414608.687601,0.0,-15.13671875,-17.08984375,-7.8125,0.0
1734414608.6915069,0.0,-13.671875,160.64453125,-33.69140625,0.0
1734414608.6954126,0.0,-26.3671875,-31.25,-35.15625,0.0
1734414608.6993182,0.0,-35.64453125,-242.67578125,-30.76171875,0.0
1734414608.7032213,-32.2265625,-36.1328125,-18.5546875,-20.01953125,0.0
1734414608.707127,-24.90234375,-22.94921875,174.8046875,-21.97265625,0.0
1734414608.7110326,-36.1328125,-27.34375,-38.0859375,-43.45703125,0.0
1734414608.7149384,-47.8515625,-32.2265625,-39.0625,-57.12890625,0.0
1734414608.7188442,-36.62109375,-28.3203125,69.82421875,-53.22265625,0.0
1734414608.72275,-21.484375,-26.3671875,-19.53125,-35.15625,0.0
1734414608.7266555,-18.06640625,-31.73828125,-311.03515625,-26.85546875,0.0
1734414608.7305613,-22.4609375,-32.2265625,-330.078125,-28.80859375,0.0
1734414608.734467,-42.96875,-24.90234375,77.63671875,-44.921875,0.0
1734414608.7383728,-49.31640625,-28.3203125,49.31640625,-53.22265625,0.0
1734414608.7422783,-42.48046875,-29.296875,-41.015625,-42.48046875,0.0
1734414608.746184,-41.015625,-20.01953125,55.17578125,-36.1328125,0.0
1734414608.7500634,-55.6640625,-11.71875,125.48828125,-48.33984375,0.0
1734414608.753969,-74.21875,-17.578125,-0.9765625,-60.05859375,0.0
1734414608.7578747,-64.94140625,-27.34375,-104.00390625,-57.12890625,0.0
1734414608.7617805,-63.4765625,-26.3671875,25.87890625,-57.6171875,0.0
1734414608.7656863,-68.84765625,-34.66796875,82.51953125,-67.3828125,0.0
1734414608.7695918,-49.8046875,-37.109375,-106.4453125,-76.171875,0.0
1734414608.7734976,-83.49609375,-27.34375,-333.49609375,-73.73046875,0.0
1734414608.7774034,-122.0703125,-20.5078125,-90.33203125,-84.47265625,0.0
1734414608.7813091,-114.2578125,-17.08984375,150.390625,-97.16796875,0.0
1734414608.7852147,-110.3515625,-20.01953125,-78.125,-95.21484375,0.0
1734414608.7891204,-131.34765625,-29.78515625,-166.015625,-112.3046875,0.0
1734414608.7930262,-151.85546875,-14.6484375,-150.87890625,-126.953125,0.0
1734414608.7968848,-157.2265625,-7.32421875,-88.8671875,-133.30078125,0.0
1734414608.8007905,-164.0625,-24.90234375,-85.9375,-149.90234375,0.0
1734414608.804696,-160.64453125,-20.01953125,-101.07421875,-154.296875,0.0
1734414608.8086019,-169.43359375,-14.6484375,85.44921875,-160.64453125,0.0
1734414608.8125076,-187.01171875,-22.94921875,44.43359375,-171.875,0.0
1734414608.8164134,-185.05859375,-37.59765625,-288.0859375,-167.48046875,0.0
1734414608.820319,-173.33984375,-33.203125,-355.95703125,-162.59765625,0.0
1734414608.8242247,-171.38671875,-12.20703125,62.01171875,-163.0859375,0.0
1734414608.8281305,-161.62109375,-6.34765625,67.87109375,-154.78515625,0.0
1734414608.8320363,-156.73828125,-6.8359375,-207.03125,-143.06640625,0.0
1734414608.8359418,-161.1328125,-1.46484375,-104.00390625,-150.390625,0.0
1734414608.8398476,-148.4375,-11.71875,89.84375,-148.92578125,0.0
1734414608.844082,0.0,-17.578125,-30.2734375,-142.578125,0.0
1734414608.847988,0.0,-19.04296875,-113.28125,-143.06640625,0.0
1734414608.8518934,0.0,-24.4140625,-6.34765625,-136.23046875,0.0
1734414608.8557992,0.0,-31.25,39.55078125,-144.53125,0.0
1734414608.859705,0.0,-41.50390625,-50.78125,-146.484375,0.0
1734414608.8636107,0.0,-41.015625,-237.3046875,-127.44140625,0.0
1734414608.8675163,0.0,-31.25,-138.18359375,-107.91015625,0.0
1734414608.871422,0.0,-31.73828125,82.51953125,-94.23828125,0.0
1734414608.8753278,0.0,-46.875,-82.51953125,-83.49609375,0.0
1734414608.8792336,0.0,-52.24609375,-282.71484375,-78.125,0.0
1734414608.8831391,0.0,-48.828125,21.484375,-80.078125,0.0
1734414608.887045,0.0,-41.015625,82.03125,-63.4765625,0.0
1734414608.8910596,-69.3359375,-48.828125,-177.734375,-47.36328125,0.0
1734414608.8949652,-51.7578125,-53.7109375,-125.48828125,-33.69140625,0.0
1734414608.898871,-34.66796875,-45.8984375,79.1015625,-18.06640625,0.0
1734414608.9027767,-12.20703125,-37.59765625,61.03515625,-13.18359375,0.0
1734414608.9066825,-6.8359375,-31.25,-97.65625,-6.34765625,0.0
1734414608.910588,-9.765625,-37.109375,-243.1640625,0.0,0.0
1734414608.9144938,-3.41796875,-42.48046875,-55.6640625,-1.953125,0.0
1734414608.9183996,7.32421875,-39.55078125,109.375,7.32421875,0.0
1734414608.9223053,20.01953125,-35.64453125,-81.54296875,33.69140625,0.0
1734414608.9262109,37.109375,-30.76171875,-23.4375,46.38671875,0.0
1734414608.9301167,34.66796875,-34.66796875,114.2578125,27.34375,0.0
1734414608.9340224,27.34375,-32.2265625,53.22265625,16.11328125,0.0
1734414608.937999,0.0,-26.3671875,-312.01171875,33.203125,0.0
1734414608.9419045,0.0,-34.66796875,-217.28515625,43.9453125,0.0
1734414608.9458103,0.0,-23.92578125,208.0078125,45.41015625,0.0
1734414608.949716,0.0,-21.484375,40.52734375,47.8515625,0.0
1734414608.9536219,0.0,-39.0625,-42.96875,46.38671875,0.0
1734414608.9575274,0.0,-44.921875,-30.2734375,40.52734375,0.0
1734414608.9614332,0.0,-36.62109375,-55.17578125,35.64453125,0.0
1734414608.965339,0.0,-27.83203125,-49.31640625,41.9921875,0.0
1734414608.9692447,0.0,-30.2734375,-240.234375,49.31640625,0.0
1734414608.9731503,0.0,-36.62109375,-46.875,50.78125,0.0
1734414608.977056,0.0,-33.69140625,142.578125,40.0390625,0.0
1734414608.9809618,0.0,-23.92578125,-96.6796875,48.33984375,0.0
1734414608.9849043,50.29296875,-30.76171875,-89.84375,66.40625,0.0
1734414608.98881,49.31640625,-43.9453125,136.23046875,49.8046875,0.0
1734414608.9927158,36.62109375,-38.57421875,101.07421875,30.2734375,0.0
1734414608.9966216,41.9921875,-21.484375,-73.2421875,33.69140625,0.0
1734414609.0005271,43.9453125,-23.92578125,-50.29296875,30.76171875,0.0
1734414609.004433,55.6640625,-15.625,12.20703125,35.64453125,0.0
1734414609.0083387,63.96484375,-10.7421875,108.3984375,48.828125,0.0
1734414609.0122445,42.96875,-34.1796875,-186.5234375,49.8046875,0.0
1734414609.01615,43.9453125,-26.3671875,-333.0078125,42.96875,0.0
1734414609.0200558,45.41015625,-11.71875,98.14453125,31.73828125,0.0
1734414609.0239615,27.83203125,-41.015625,45.8984375,26.85546875,0.0
1734414609.0278673,16.11328125,-48.828125,62.98828125,20.5078125,0.0
1734414609.0317905,7.8125,-36.1328125,0.0,3.90625,0.0
1734414609.0356963,8.30078125,-33.69140625,0.0,-10.7421875,0.0
1734414609.039602,12.6953125,-28.3203125,0.0,-2.44140625,0.0
1734414609.0435078,26.85546875,-40.0390625,0.0,8.30078125,0.0
1734414609.0474133,57.12890625,-36.1328125,0.0,26.3671875,0.0
1734414609.0513191,27.83203125,-25.390625,0.0,18.5546875,0.0
1734414609.055225,-16.11328125,-33.69140625,0.0,-0.9765625,0.0
1734414609.0591307,3.90625,-35.15625,0.0,17.08984375,0.0
1734414609.0630362,18.06640625,-28.3203125,0.0,24.4140625,0.0
1734414609.066942,7.32421875,-26.85546875,0.0,9.765625,0.0
1734414609.0708477,1.46484375,-28.3203125,0.0,9.27734375,0.0
1734414609.0747535,0.48828125,-26.85546875,0.0,9.765625,0.0
1734414609.0786645,0.0,-27.83203125,-37.59765625,-1.46484375,0.0
1734414609.0825703,0.0,-29.296875,67.87109375,-2.44140625,0.0
1734414609.086476,0.0,-35.15625,-46.875,0.9765625,0.0
1734414609.0903819,0.0,-40.0390625,32.71484375,-4.8828125,0.0
1734414609.0942874,0.0,-26.85546875,90.8203125,-2.44140625,0.0
1734414609.0981932,0.0,-21.97265625,38.57421875,5.37109375,0.0
1734414609.102099,0.0,-47.36328125,-246.58203125,10.7421875,0.0
1734414609.1060047,0.0,-60.546875,-244.140625,4.39453125,0.0
1734414609.1099102,0.0,-40.0390625,157.2265625,-10.7421875,0.0
1734414609.113816,0.0,-23.4375,95.703125,-12.6953125,0.0
1734414609.1177218,0.0,-20.99609375,-38.57421875,-6.34765625,0.0
1734414609.1216276,0.0,-16.11328125,45.8984375,-7.32421875,0.0
1734414609.125509,0.0,-18.06640625,178.22265625,-8.7890625,0.0
1734414609.1294148,-17.08984375,-24.4140625,54.19921875,-12.6953125,0.0
1734414609.1333206,-20.01953125,-25.87890625,0.0,-26.85546875,0.0
1734414609.137226,-22.94921875,-27.83203125,60.05859375,-37.109375,0.0
1734414609.1411319,-23.4375,-32.2265625,73.73046875,-34.1796875,0.0
1734414609.1450377,-15.13671875,-43.9453125,13.671875,-27.34375,0.0
1734414609.1489434,-24.4140625,-43.9453125,-228.02734375,-22.4609375,0.0
1734414609.152849,-35.64453125,-29.296875,-36.62109375,-29.296875,0.0
1734414609.1567547,-41.015625,-34.1796875,133.7890625,-39.0625,0.0
1734414609.1606605,-35.64453125,-24.90234375,20.5078125,-25.87890625,0.0
1734414609.1645663,-18.06640625,-9.765625,30.2734375,-9.27734375,0.0
1734414609.168472,-16.6015625,-24.90234375,51.26953125,-12.20703125,0.0
1734414609.1723177,-36.1328125,-36.1328125,79.1015625,-28.3203125,0.0
1734414609.1762235,-35.64453125,-30.2734375,-5.859375,-26.3671875,0.0
1734414609.1801293,-22.4609375,-28.80859375,-5.37109375,-20.01953125,0.0
1734414609.1840348,-19.04296875,-27.83203125,155.2734375,-21.97265625,0.0
1734414609.1879406,-22.94921875,-37.59765625,114.74609375,-22.4609375,0.0
1734414609.1918464,8.30078125,-49.31640625,-258.7890625,-12.6953125,0.0
1734414609.1957521,4.39453125,-25.87890625,-270.5078125,-8.30078125,0.0
1734414609.1996577,-41.015625,-23.4375,94.23828125,-25.87890625,0.0
1734414609.2035635,-30.76171875,-48.33984375,125.9765625,-18.5546875,0.0
1734414609.2074692,-22.94921875,-40.52734375,43.9453125,-13.18359375,0.0
1734414609.211375,-28.3203125,-29.78515625,43.9453125,-31.73828125,0.0
1734414609.2152805,-36.1328125,-28.80859375,121.58203125,-43.9453125,0.0
1734414609.2193067,-30.76171875,-30.76171875,67.87109375,-35.64453125,0.0
1734414609.2232122,-16.11328125,-29.296875,93.26171875,-17.08984375,0.0
1734414609.227118,-12.6953125,-31.25,131.34765625,-9.765625,0.0
1734414609.2310238,-16.11328125,-34.66796875,128.90625,-12.20703125,0.0
1734414609.2349296,-26.3671875,-33.203125,8.7890625,-20.5078125,0.0
1734414609.238835,-30.76171875,-43.9453125,-215.33203125,-19.04296875,0.0
1734414609.2427409,-24.4140625,-48.828125,-33.203125,-7.8125,0.0
1734414609.2466466,-11.71875,-38.0859375,196.77734375,1.953125,0.0
1734414609.2505524,-4.8828125,-23.4375,3.90625,3.41796875,0.0
1734414609.254458,-21.484375,-20.99609375,-245.60546875,-25.87890625,0.0
1734414609.2583637,-27.83203125,-24.90234375,-66.89453125,-40.52734375,0.0
1734414609.2622695,-0.9765625,-33.69140625,42.96875,-30.76171875,0.0
1734414609.2662792,0.48828125,-38.57421875,-28.3203125,-27.83203125,0.0
1734414609.270185,-36.62109375,-34.1796875,28.3203125,-24.90234375,0.0
1734414609.2740908,-54.19921875,-26.85546875,92.7734375,-41.50390625,0.0
1734414609.2779965,-61.5234375,-28.80859375,96.6796875,-54.6875,0.0
1734414609.281902,-51.7578125,-25.87890625,47.8515625,-45.8984375,0.0
1734414609.2858078,-34.66796875,-29.78515625,-16.11328125,-33.203125,0.0
1734414609.2897136,-26.85546875,-36.1328125,52.734375,-23.4375,0.0
