timestamps,TP9,AF7,AF8,TP10,Right AUX
1734582489.6590314,33.203125,-25.87890625,222.65625,25.390625,0.0
1734582489.6629374,28.80859375,-28.80859375,72.75390625,35.64453125,0.0
1734582489.6668437,31.73828125,-29.78515625,111.328125,40.52734375,0.0
1734582489.6707497,48.828125,-32.2265625,193.359375,54.6875,0.0
1734582489.674656,40.52734375,-35.64453125,159.66796875,51.7578125,0.0
1734582489.678562,28.80859375,-39.0625,-123.046875,43.45703125,0.0
1734582489.6824682,34.1796875,-39.0625,-228.515625,50.29296875,0.0
1734582489.6863742,35.64453125,-26.85546875,182.6171875,39.0625,0.0
1734582489.6902804,35.15625,-31.25,196.77734375,36.1328125,0.0
1734582489.6941864,25.87890625,-37.59765625,143.5546875,32.2265625,0.0
1734582489.6980927,35.15625,-29.78515625,201.171875,40.52734375,0.0
1734582489.6986852,48.33984375,-19.04296875,216.30859375,52.24609375,0.0
1734582489.7025914,31.73828125,-22.94921875,175.29296875,44.921875,0.0
1734582489.7064974,34.1796875,-19.53125,179.19921875,51.7578125,0.0
1734582489.7104034,39.55078125,-20.01953125,274.4140625,56.640625,0.0
1734582489.7143097,34.1796875,-34.66796875,256.8359375,46.875,0.0
1734582489.7182157,41.9921875,-34.1796875,131.8359375,46.875,0.0
1734582489.722122,27.34375,-24.4140625,166.50390625,34.66796875,0.0
1734582489.726028,18.5546875,-12.6953125,314.94140625,24.4140625,0.0
1734582489.7299342,27.83203125,-21.484375,281.73828125,35.15625,0.0
1734582489.7338402,32.2265625,-32.2265625,125.9765625,44.43359375,0.0
1734582489.7377465,21.484375,-27.83203125,155.2734375,38.57421875,0.0
1734582489.7416525,5.37109375,-23.92578125,287.109375,29.296875,0.0
1734582489.7487602,20.01953125,-9.765625,350.5859375,38.0859375,0.0
1734582489.7526662,30.2734375,-17.578125,81.54296875,45.41015625,0.0
1734582489.7565725,28.80859375,-12.20703125,12.6953125,54.19921875,0.0
1734582489.7604785,20.01953125,4.8828125,360.83984375,41.9921875,0.0
1734582489.7643847,19.04296875,-12.20703125,336.9140625,28.80859375,0.0
1734582489.7682908,33.203125,-15.625,176.26953125,32.71484375,0.0
1734582489.772197,26.85546875,-5.859375,175.29296875,22.4609375,0.0
1734582489.776103,0.48828125,-7.32421875,324.70703125,1.953125,0.0
1734582489.7800093,-13.18359375,-36.1328125,299.31640625,-11.23046875,0.0
1734582489.7839153,-3.41796875,-41.015625,271.97265625,-6.34765625,0.0
1734582489.7878215,-2.9296875,-21.484375,318.359375,-1.953125,0.0
1734582489.7917275,10.25390625,-7.8125,348.14453125,7.8125,0.0
1734582489.8039575,8.7890625,-7.32421875,299.31640625,7.8125,0.0
1734582489.8078635,1.46484375,-20.5078125,267.08984375,-0.48828125,0.0
1734582489.8117697,8.7890625,-14.16015625,346.6796875,12.20703125,0.0
1734582489.8156757,1.953125,-3.41796875,356.4453125,9.765625,0.0
1734582489.819582,-0.9765625,-22.4609375,298.828125,0.48828125,0.0
1734582489.823488,-14.16015625,-41.9921875,243.65234375,-12.20703125,0.0
1734582489.8273942,-22.94921875,-31.73828125,288.0859375,-24.90234375,0.0
1734582489.8313003,-26.85546875,-23.92578125,371.09375,-28.3203125,0.0
1734582489.8352065,-24.4140625,-32.2265625,246.58203125,-20.5078125,0.0
1734582489.8391125,-7.32421875,-45.8984375,240.72265625,-12.6953125,0.0
1734582489.8430188,-6.34765625,-33.69140625,375.9765625,-11.71875,0.0
1734582489.846925,-2.44140625,-12.20703125,384.765625,1.953125,0.0
1734582489.8484292,7.32421875,-8.7890625,142.08984375,11.23046875,0.0
1734582489.8523352,-6.8359375,-37.109375,0.48828125,-4.8828125,0.0
1734582489.8562415,-18.06640625,-25.87890625,295.41015625,-22.4609375,0.0
1734582489.8601475,-20.01953125,-11.71875,360.3515625,-20.99609375,0.0
1734582489.8640537,-30.76171875,-25.87890625,280.2734375,-18.06640625,0.0
1734582489.8679597,-29.78515625,-25.390625,213.37890625,-17.578125,0.0
1734582489.871866,-15.625,-22.94921875,219.23828125,-5.37109375,0.0
1734582489.875772,-4.8828125,-41.9921875,243.65234375,5.859375,0.0
1734582489.8796782,-5.37109375,-45.41015625,268.5546875,1.953125,0.0
1734582489.8835843,-11.23046875,-15.625,299.8046875,4.8828125,0.0
1734582489.8874905,6.8359375,-2.9296875,303.7109375,11.23046875,0.0
1734582489.8913965,4.8828125,-15.13671875,224.12109375,0.9765625,0.0
1734582489.8985639,-29.296875,-25.87890625,173.828125,-16.6015625,0.0
1734582489.90247,-42.48046875,-26.3671875,247.55859375,-27.83203125,0.0
1734582489.9063761,-35.15625,-27.83203125,272.94921875,-24.4140625,0.0
1734582489.9102824,-23.92578125,-23.4375,149.4140625,-19.04296875,0.0
1734582489.9141884,-17.578125,-25.390625,66.40625,-11.71875,0.0
1734582489.9180946,-10.7421875,-27.83203125,140.625,-2.44140625,0.0
1734582489.9220006,-3.90625,-23.4375,168.45703125,0.0,0.0
1734582489.925907,-18.5546875,-39.55078125,139.16015625,-13.671875,0.0
1734582489.9298131,-20.99609375,-64.453125,-304.6875,-17.578125,0.0
1734582489.9337192,-10.25390625,-34.1796875,-188.96484375,-4.8828125,0.0
1734582489.9376254,-8.30078125,-1.46484375,305.6640625,-0.9765625,0.0
1734582489.9415314,-13.18359375,-25.390625,112.3046875,-13.18359375,0.0
1734582489.944559,-21.484375,-35.15625,94.23828125,-20.01953125,0.0
1734582489.948465,-38.57421875,-31.73828125,201.66015625,-26.3671875,0.0
1734582489.9523714,-32.71484375,-26.3671875,172.36328125,-23.92578125,0.0
1734582489.9562774,-11.71875,-9.765625,153.80859375,-8.7890625,0.0
1734582489.9601836,-21.484375,-18.06640625,140.13671875,-17.578125,0.0
1734582489.9640896,-23.92578125,-24.90234375,94.23828125,-23.92578125,0.0
1734582489.967996,-21.97265625,-32.2265625,39.0625,-29.296875,0.0
1734582489.971902,-22.4609375,-30.76171875,-74.70703125,-28.3203125,0.0
1734582489.9758081,-27.34375,-25.87890625,9.765625,-17.08984375,0.0
1734582489.9797142,-25.87890625,-14.6484375,176.7578125,-20.5078125,0.0
1734582489.9836204,-27.83203125,-19.04296875,101.5625,-30.2734375,0.0
1734582489.9875267,-35.15625,-28.3203125,-49.8046875,-22.4609375,0.0
1734582489.9933612,-24.4140625,-14.16015625,16.11328125,-7.32421875,0.0
1734582489.9972675,-34.66796875,-16.11328125,187.01171875,-16.6015625,0.0
1734582490.0011735,-44.921875,-32.2265625,93.26171875,-29.78515625,0.0
1734582490.0050797,-42.48046875,-57.12890625,-161.62109375,-27.83203125,0.0
1734582490.008986,-48.828125,-55.17578125,-32.71484375,-30.76171875,0.0
1734582490.012892,-36.1328125,-43.45703125,74.70703125,-30.76171875,0.0
1734582490.0167983,-34.1796875,-54.19921875,-62.01171875,-29.296875,0.0
1734582490.0207043,-39.0625,-34.1796875,-53.22265625,-21.484375,0.0
1734582490.0246105,-33.69140625,-2.9296875,115.72265625,-15.625,0.0
1734582490.0285165,-27.83203125,-9.765625,117.1875,-17.08984375,0.0
1734582490.0324228,-17.578125,-24.90234375,-202.1484375,-10.25390625,0.0
1734582490.0363288,-31.25,-30.2734375,-347.16796875,-16.11328125,0.0
1734582490.0354156,-39.55078125,-15.625,43.45703125,-20.99609375,0.0
1734582490.0393217,-31.73828125,-14.6484375,116.69921875,-17.578125,0.0
1734582490.043228,-31.25,-30.76171875,-114.74609375,-25.390625,0.0
1734582490.047134,-46.38671875,-37.109375,-118.65234375,-34.66796875,0.0
1734582490.0510402,-45.41015625,-38.0859375,-12.6953125,-32.71484375,0.0
1734582490.0549462,-26.85546875,-47.8515625,-168.45703125,-24.90234375,0.0
1734582490.0588524,-20.99609375,-45.8984375,-320.80078125,-20.5078125,0.0
1734582490.0627584,-5.859375,-30.2734375,-267.578125,-8.30078125,0.0
1734582490.0666647,-11.71875,-11.71875,-45.8984375,-1.46484375,0.0
1734582490.0705707,-27.83203125,-8.30078125,1.46484375,-16.11328125,0.0
1734582490.074477,-20.01953125,-18.5546875,-215.33203125,-11.23046875,0.0
1734582490.078383,-22.94921875,-21.484375,-165.0390625,-8.30078125,0.0
1734582490.0810907,-14.6484375,-22.4609375,-83.0078125,-10.25390625,0.0
1734582490.084997,-14.16015625,-27.83203125,-304.6875,-7.32421875,0.0
1734582490.088903,-28.80859375,-41.9921875,-361.328125,-22.94921875,0.0
1734582490.0928092,-31.73828125,-32.2265625,-70.3125,-28.3203125,0.0
1734582490.0967155,-28.80859375,-19.53125,31.73828125,-27.34375,0.0
1734582490.1006215,-18.06640625,-28.80859375,-310.05859375,-22.4609375,0.0
1734582490.1045277,-24.90234375,-32.71484375,-465.33203125,-16.11328125,0.0
1734582490.1084337,-40.0390625,-26.3671875,-233.3984375,-22.94921875,0.0
1734582490.11234,-31.73828125,-20.5078125,13.18359375,-28.3203125,0.0
1734582490.116246,-34.1796875,-33.203125,-198.2421875,-30.2734375,0.0
1734582490.1201522,-34.1796875,-44.43359375,-352.5390625,-31.25,0.0
1734582490.1240582,-21.484375,-33.69140625,-199.70703125,-27.83203125,0.0
1734582490.1234128,-26.85546875,-22.94921875,-219.7265625,-33.69140625,0.0
1734582490.1273189,-35.15625,-22.94921875,-250.48828125,-29.296875,0.0
1734582490.131225,-33.203125,-23.4375,-207.03125,-21.484375,0.0
1734582490.1351311,-30.76171875,-30.2734375,-230.46875,-24.90234375,0.0
1734582490.1390374,-31.73828125,-28.80859375,-333.0078125,-27.83203125,0.0
1734582490.1429434,-41.015625,-22.94921875,-385.7421875,-29.296875,0.0
1734582490.1468496,-45.8984375,-31.25,-326.171875,-36.1328125,0.0
1734582490.1507556,-37.59765625,-27.34375,-277.34375,-34.1796875,0.0
1734582490.154662,-23.92578125,-19.04296875,-258.30078125,-26.85546875,0.0
1734582490.158568,-18.06640625,-36.62109375,-502.44140625,-7.32421875,0.0
1734582490.1624742,-20.99609375,-20.01953125,-474.12109375,-1.953125,0.0
1734582490.1663802,-34.66796875,-7.8125,-190.91796875,-28.80859375,0.0
1734582490.1699212,-45.41015625,-25.87890625,-259.27734375,-45.8984375,0.0
1734582490.1738274,-40.52734375,-28.80859375,-309.5703125,-43.45703125,0.0
1734582490.1777334,-34.66796875,-32.71484375,-270.99609375,-36.62109375,0.0
1734582490.1816397,-31.73828125,-34.66796875,-246.58203125,-30.76171875,0.0
1734582490.1855457,-38.57421875,-32.2265625,-347.16796875,-25.390625,0.0
1734582490.1894517,-31.25,-35.15625,-412.59765625,-23.92578125,0.0
1734582490.193358,-27.83203125,-48.33984375,-336.42578125,-23.92578125,0.0
1734582490.197264,-39.55078125,-37.59765625,-270.99609375,-31.25,0.0
1734582490.2011702,-24.4140625,-19.04296875,-404.78515625,-20.01953125,0.0
1734582490.2050762,-26.85546875,-35.64453125,-492.67578125,-23.4375,0.0
1734582490.2089825,-28.3203125,-24.4140625,-192.87109375,-29.78515625,0.0
1734582490.2128885,-16.6015625,-12.20703125,-187.98828125,-12.20703125,0.0
1734582490.2157226,-29.78515625,-20.99609375,-303.7109375,-21.484375,0.0
1734582490.2196286,-32.71484375,-22.94921875,-296.875,-37.109375,0.0
1734582490.2235348,-31.73828125,-23.4375,-248.53515625,-27.34375,0.0
1734582490.2274408,-31.73828125,-31.73828125,-255.37109375,-24.90234375,0.0
1734582490.2313468,-31.73828125,-29.78515625,-320.80078125,-32.2265625,0.0
1734582490.235253,-30.2734375,-22.94921875,-368.65234375,-25.390625,0.0
1734582490.239159,-29.296875,-39.0625,-387.20703125,-25.87890625,0.0
1734582490.2430654,-33.69140625,-39.0625,-325.68359375,-35.64453125,0.0
1734582490.2469714,-29.296875,-35.64453125,-483.3984375,-25.87890625,0.0
1734582490.2508776,-20.99609375,-22.94921875,-481.93359375,-14.6484375,0.0
1734582490.2547836,-28.3203125,-3.90625,-208.984375,-24.4140625,0.0
1734582490.2586899,-32.2265625,-22.4609375,-302.734375,-32.2265625,0.0
1734582490.2613351,-31.25,-16.6015625,-346.19140625,-32.71484375,0.0
1734582490.2652411,-31.25,-10.25390625,-245.1171875,-24.4140625,0.0
1734582490.2691474,-22.94921875,-22.94921875,-228.02734375,-18.06640625,0.0
1734582490.2730534,-24.90234375,-18.5546875,-315.91796875,-19.04296875,0.0
1734582490.2769594,-45.41015625,-41.015625,-418.9453125,-34.1796875,0.0
1734582490.2808657,-29.78515625,-47.8515625,-425.29296875,-34.66796875,0.0
1734582490.2847717,-17.578125,-22.94921875,-335.44921875,-14.16015625,0.0
1734582490.288678,-34.1796875,-30.76171875,-431.15234375,-20.5078125,0.0
1734582490.292584,-41.50390625,-31.73828125,-513.671875,-28.80859375,0.0
1734582490.2964902,-34.66796875,-19.04296875,-299.8046875,-27.34375,0.0
1734582490.3003962,-27.34375,-16.6015625,-250.0,-29.78515625,0.0
1734582490.3043025,-25.87890625,-22.4609375,-429.19921875,-17.08984375,0.0
1734582490.3069,-27.34375,-27.83203125,-473.14453125,-9.27734375,0.0
1734582490.3108063,-27.83203125,-23.4375,-249.0234375,-18.5546875,0.0
1734582490.3147123,-25.87890625,-15.13671875,-310.546875,-9.765625,0.0
1734582490.3186185,-25.87890625,-21.97265625,-363.28125,-9.765625,0.0
1734582490.3225245,-21.97265625,-28.80859375,-330.078125,-16.6015625,0.0
1734582490.3264306,-16.11328125,-33.203125,-372.0703125,-15.13671875,0.0
1734582490.3303368,-23.4375,-50.29296875,-349.12109375,-24.90234375,0.0
1734582490.3342428,-36.1328125,-55.6640625,-558.10546875,-29.296875,0.0
1734582490.338149,-35.15625,-27.34375,-559.5703125,-22.4609375,0.0
1734582490.342055,-30.76171875,4.8828125,-249.0234375,-23.4375,0.0
1734582490.3459613,-32.2265625,-4.8828125,-294.921875,-27.34375,0.0
1734582490.3498673,-33.69140625,-27.83203125,-353.02734375,-24.90234375,0.0
1734582490.3558095,-31.25,-26.85546875,-315.4296875,-27.34375,0.0
1734582490.3597155,-32.71484375,-38.57421875,-319.3359375,-34.66796875,0.0
1734582490.3636217,-41.50390625,-51.7578125,-379.8828125,-38.0859375,0.0
1734582490.3675277,-39.55078125,-29.296875,-355.46875,-33.203125,0.0
1734582490.371434,-38.57421875,-20.5078125,-338.37890625,-27.83203125,0.0
1734582490.37534,-25.87890625,-42.96875,-403.3203125,-24.90234375,0.0
1734582490.3792462,-18.06640625,-56.640625,-478.02734375,-27.83203125,0.0
1734582490.3831522,-26.3671875,-30.76171875,-512.6953125,-27.83203125,0.0
1734582490.3870585,-25.390625,-10.7421875,-296.875,-21.484375,0.0
1734582490.3909645,-17.08984375,-28.3203125,-261.23046875,-21.97265625,0.0
1734582490.3948705,-22.4609375,-31.73828125,-376.953125,-29.78515625,0.0
1734582490.3987768,-25.390625,-30.76171875,-414.55078125,-23.92578125,0.0
1734582490.4004126,-17.08984375,-44.43359375,-316.40625,-20.99609375,0.0
1734582490.4043188,-23.4375,-22.4609375,-311.5234375,-23.4375,0.0
1734582490.4082248,-29.296875,-16.11328125,-369.140625,-21.97265625,0.0
1734582490.412131,-23.92578125,-18.5546875,-348.14453125,-24.4140625,0.0
1734582490.416037,-19.53125,-18.5546875,-395.5078125,-20.5078125,0.0
1734582490.4199433,-25.87890625,-29.78515625,-480.46875,-17.578125,0.0
1734582490.4238493,-37.59765625,-36.62109375,-485.83984375,-25.390625,0.0
1734582490.4277556,-33.69140625,-52.24609375,-459.47265625,-20.99609375,0.0
1734582490.4316616,-17.578125,-40.52734375,-416.015625,-10.25390625,0.0
1734582490.4355676,-15.625,-13.671875,-409.1796875,-9.27734375,0.0
1734582490.4394739,-16.11328125,-27.34375,-626.46484375,-14.16015625,0.0
1734582490.4433799,-17.08984375,-36.1328125,-572.265625,-16.6015625,0.0
1734582490.4450965,-19.53125,-30.76171875,-337.40234375,-16.6015625,0.0
1734582490.4490025,-10.7421875,-25.87890625,-467.7734375,-14.6484375,0.0
1734582490.4529088,-20.5078125,-30.2734375,-550.78125,-25.390625,0.0
1734582490.4568148,-20.99609375,-55.6640625,-474.12109375,-35.15625,0.0
1734582490.4607208,-10.7421875,-51.7578125,-447.75390625,-18.06640625,0.0
1734582490.464627,-8.7890625,-7.8125,-589.35546875,1.46484375,0.0
1734582490.468533,-15.625,11.23046875,-682.12890625,-4.39453125,0.0
1734582490.4724393,-30.2734375,-5.859375,-553.7109375,-21.97265625,0.0
1734582490.4763453,-27.34375,-24.4140625,-520.01953125,-25.390625,0.0
1734582490.4802516,-25.87890625,-23.4375,-556.640625,-22.4609375,0.0
1734582490.4841576,-24.90234375,-38.57421875,-614.74609375,-23.4375,0.0
1734582490.4880636,-21.484375,-34.66796875,-552.24609375,-20.5078125,0.0
1734582490.4897568,-31.25,-21.484375,-534.66796875,-27.34375,0.0
1734582490.4936628,-21.97265625,-21.484375,-588.8671875,-25.390625,0.0
1734582490.497569,-11.71875,-20.99609375,-542.96875,-18.5546875,0.0
1734582490.501475,-25.87890625,-13.671875,-510.25390625,-26.85546875,0.0
1734582490.5053813,-25.87890625,-10.7421875,-593.26171875,-32.71484375,0.0
1734582490.5092874,-16.11328125,-16.6015625,-686.03515625,-30.76171875,0.0
1734582490.5131934,-26.3671875,-29.296875,-680.6640625,-33.69140625,0.0
1734582490.5170996,-23.92578125,-23.92578125,-618.1640625,-27.83203125,0.0
1734582490.5210056,-20.99609375,-14.16015625,-560.05859375,-25.87890625,0.0
1734582490.5249119,-18.06640625,-32.2265625,-657.2265625,-19.53125,0.0
1734582490.528818,-3.90625,-18.06640625,-634.765625,-2.44140625,0.0
1734582490.5327241,-14.6484375,-5.37109375,-533.203125,-12.6953125,0.0
1734582490.5377853,-30.76171875,-19.53125,-556.640625,-36.1328125,0.0
1734582490.5416915,-26.3671875,-16.6015625,-537.59765625,-31.25,0.0
1734582490.5455976,-23.92578125,-19.04296875,-487.3046875,-20.99609375,0.0
1734582490.5495036,-33.203125,-21.97265625,-482.91015625,-27.34375,0.0
1734582490.5534098,-25.390625,-12.6953125,-570.3125,-24.90234375,0.0
1734582490.5573158,-12.6953125,-14.16015625,-661.1328125,-14.16015625,0.0
1734582490.561222,-21.484375,-17.578125,-524.4140625,-17.08984375,0.0
1734582490.565128,-30.76171875,-25.390625,-416.015625,-27.83203125,0.0
1734582490.5690343,-20.01953125,-21.484375,-604.98046875,-19.04296875,0.0
1734582490.5729403,-17.578125,-17.08984375,-721.19140625,-11.23046875,0.0
1734582490.5768464,-22.4609375,-18.5546875,-479.98046875,-19.04296875,0.0
1734582490.5807526,-17.08984375,-28.80859375,-415.52734375,-22.4609375,0.0
1734582490.5852895,-12.6953125,-35.15625,-516.6015625,-8.7890625,0.0
1734582490.5891955,-6.8359375,-30.76171875,-558.59375,-9.765625,0.0
1734582490.5931017,-20.01953125,-22.94921875,-476.07421875,-20.01953125,0.0
1734582490.5970078,-30.2734375,-5.859375,-457.51953125,-18.06640625,0.0
1734582490.600914,-22.94921875,-6.34765625,-532.2265625,-18.06640625,0.0
1734582490.60482,-27.34375,-17.08984375,-568.359375,-21.484375,0.0
1734582490.608726,-28.3203125,-25.87890625,-522.4609375,-20.5078125,0.0
1734582490.6126323,-14.16015625,-21.484375,-523.92578125,-9.27734375,0.0
1734582490.6165383,-20.5078125,-6.8359375,-697.265625,-14.16015625,0.0
1734582490.6204445,-29.78515625,-8.7890625,-674.8046875,-20.01953125,0.0
1734582490.6243505,-23.4375,-12.20703125,-370.60546875,-20.99609375,0.0
1734582490.6282568,-23.92578125,-19.04296875,-429.6875,-27.83203125,0.0
1734582490.632071,-24.4140625,-12.6953125,-509.765625,-21.484375,0.0
1734582490.6359773,-29.296875,-14.16015625,-460.44921875,-19.04296875,0.0
1734582490.6398833,-27.83203125,-28.3203125,-437.98828125,-16.11328125,0.0
1734582490.6437895,-23.92578125,-15.625,-509.765625,-12.20703125,0.0
1734582490.6476955,-21.97265625,-11.71875,-580.078125,-12.20703125,0.0
1734582490.6516018,-23.4375,-20.99609375,-602.05078125,-12.6953125,0.0
1734582490.6555078,-31.73828125,-8.7890625,-518.06640625,-22.94921875,0.0
1734582490.6594138,-27.83203125,-6.34765625,-560.05859375,-27.34375,0.0
1734582490.66332,-28.3203125,-39.55078125,-749.0234375,-15.625,0.0
1734582490.667226,-15.13671875,-20.5078125,-518.06640625,-3.41796875,0.0
1734582490.6711323,-7.32421875,18.06640625,-388.18359375,-2.44140625,0.0
1734582490.6750383,-35.15625,-2.9296875,-495.60546875,-32.2265625,0.0
1734582490.6783996,-34.1796875,-17.08984375,-479.98046875,-49.8046875,0.0
1734582490.6823056,-29.296875,-14.16015625,-382.8125,-35.15625,0.0
1734582490.6862118,-30.76171875,-38.0859375,-442.3828125,-29.78515625,0.0
1734582490.6901178,-24.4140625,-50.78125,-497.0703125,-26.85546875,0.0
1734582490.694024,-23.92578125,-6.34765625,-492.1875,-12.6953125,0.0
1734582490.69793,-30.2734375,-3.90625,-560.546875,-17.08984375,0.0
1734582490.7018363,-27.34375,-13.18359375,-492.67578125,-23.92578125,0.0
1734582490.7057424,-19.04296875,-9.27734375,-676.7578125,-17.578125,0.0
1734582490.7096484,-25.87890625,-13.671875,-708.0078125,-19.53125,0.0
1734582490.7135546,-31.73828125,-1.46484375,-416.9921875,-26.3671875,0.0
1734582490.7174606,-23.92578125,-13.18359375,-477.05078125,-18.06640625,0.0
1734582490.721367,-23.4375,-26.85546875,-513.671875,-11.71875,0.0
1734582490.7275488,-14.16015625,-26.3671875,-424.31640625,-12.6953125,0.0
1734582490.731455,-9.27734375,-22.4609375,-412.59765625,-6.8359375,0.0
1734582490.735361,-20.99609375,-22.4609375,-503.90625,-3.90625,0.0
1734582490.7392673,-19.04296875,-18.06640625,-525.390625,-5.859375,0.0
1734582490.7431734,-26.85546875,-2.9296875,-459.9609375,-8.7890625,0.0
1734582490.7470794,-33.203125,1.46484375,-501.46484375,-11.71875,0.0
1734582490.7509856,-25.87890625,-1.46484375,-618.65234375,-13.18359375,0.0
1734582490.7548916,-24.4140625,-21.97265625,-687.5,-15.13671875,0.0
1734582490.758798,-32.2265625,-34.66796875,-471.6796875,-28.3203125,0.0
1734582490.762704,-34.1796875,-29.78515625,-460.44921875,-33.69140625,0.0
1734582490.7666101,-30.2734375,-19.53125,-563.4765625,-23.4375,0.0
1734582490.7705162,-19.04296875,-3.41796875,-507.32421875,-18.06640625,0.0
1734582490.7727547,-26.3671875,-22.4609375,-433.10546875,-26.85546875,0.0
1734582490.7766607,-28.3203125,-33.203125,-459.47265625,-22.4609375,0.0
1734582490.7805667,-21.97265625,-13.671875,-495.1171875,-14.6484375,0.0
1734582490.784473,-30.2734375,-7.32421875,-447.75390625,-23.4375,0.0
1734582490.788379,-36.1328125,-10.7421875,-447.265625,-33.69140625,0.0
1734582490.7922852,-46.875,-32.71484375,-578.125,-42.96875,0.0
1734582490.7961912,-41.9921875,-31.25,-595.703125,-39.0625,0.0
1734582490.8000975,-33.203125,-9.765625,-471.19140625,-33.203125,0.0
1734582490.8040035,-36.62109375,-2.44140625,-371.58203125,-38.0859375,0.0
1734582490.8079095,-43.45703125,-4.8828125,-396.97265625,-49.31640625,0.0
1734582490.8118157,-50.29296875,-16.6015625,-632.32421875,-47.8515625,0.0
1734582490.8157218,-57.12890625,-10.25390625,-629.39453125,-51.26953125,0.0
1734582490.8179183,-53.7109375,-5.859375,-409.66796875,-52.24609375,0.0
1734582490.8218243,-58.59375,-2.44140625,-400.390625,-57.12890625,0.0
1734582490.8257303,-58.10546875,-39.0625,-423.33984375,-58.10546875,0.0
1734582490.8296366,-42.96875,-46.38671875,-394.53125,-41.50390625,0.0
1734582490.8335426,-52.734375,6.34765625,-397.94921875,-53.22265625,0.0
1734582490.8374488,-59.08203125,7.32421875,-493.1640625,-65.91796875,0.0
1734582490.8413548,-47.8515625,-5.37109375,-543.9453125,-61.5234375,0.0
1734582490.845261,-57.12890625,5.37109375,-364.2578125,-70.3125,0.0
1734582490.849167,-62.01171875,7.32421875,-298.828125,-72.75390625,0.0
1734582490.8530731,-59.5703125,-9.27734375,-446.2890625,-66.89453125,0.0
1734582490.8569794,-64.453125,-16.11328125,-463.8671875,-73.2421875,0.0
1734582490.8608854,-69.82421875,-11.71875,-311.03515625,-82.03125,0.0
1734582490.8630984,-77.1484375,-13.18359375,-334.9609375,-88.37890625,0.0
1734582490.8670044,-75.68359375,-18.06640625,-410.64453125,-85.9375,0.0
1734582490.8709104,-81.54296875,-22.4609375,-481.93359375,-83.984375,0.0
1734582490.8748167,-84.9609375,0.0,-429.6875,-93.75,0.0
1734582490.8787227,-78.125,16.11328125,-378.41796875,-97.16796875,0.0
1734582490.882629,-94.7265625,1.46484375,-500.9765625,-104.98046875,0.0
1734582490.886535,-141.6015625,-13.671875,-510.7421875,-128.41796875,0.0
1734582490.890441,-148.4375,-20.01953125,-391.6015625,-132.8125,0.0
1734582490.8943472,-139.16015625,-17.578125,-320.3125,-124.0234375,0.0
1734582490.8982532,-152.83203125,-25.87890625,-351.07421875,-133.30078125,0.0
1734582490.9021595,-140.625,-27.34375,-281.73828125,-119.140625,0.0
1734582490.9060655,-146.484375,-31.25,-249.0234375,-120.1171875,0.0
1734582490.9113479,-172.36328125,-46.875,-243.65234375,-139.16015625,0.0
1734582490.9152539,-175.78125,-63.4765625,-287.109375,-136.71875,0.0
1734582490.9191601,-192.3828125,-61.03515625,-59.5703125,-159.66796875,0.0
1734582490.9230661,-195.3125,-50.29296875,111.81640625,-167.96875,0.0
1734582490.9269722,-187.5,-71.2890625,-32.71484375,-152.34375,0.0
1734582490.9308784,-197.265625,-80.56640625,-207.51953125,-165.52734375,0.0
1734582490.9347844,-205.56640625,-74.21875,-73.73046875,-167.96875,0.0
1734582490.9386907,-207.51953125,-88.37890625,159.1796875,-158.203125,0.0
1734582490.9425967,-208.984375,-111.328125,62.5,-168.9453125,0.0
1734582490.9465027,-202.1484375,-113.76953125,-49.8046875,-168.45703125,0.0
1734582490.950409,-202.63671875,-106.93359375,178.22265625,-165.52734375,0.0
1734582490.954315,-204.1015625,-110.3515625,193.359375,-165.52734375,0.0
1734582490.9589603,-200.68359375,-106.93359375,79.1015625,-155.76171875,0.0
1734582490.9628665,-186.5234375,-113.28125,119.62890625,-153.3203125,0.0
1734582490.9667726,-191.40625,-124.51171875,201.171875,-155.76171875,0.0
1734582490.9706788,-192.87109375,-126.46484375,133.7890625,-141.11328125,0.0
1734582490.9745848,-179.6875,-118.1640625,65.91796875,-125.9765625,0.0
1734582490.978491,-174.8046875,-114.2578125,46.38671875,-112.79296875,0.0
1734582490.982397,-154.78515625,-122.55859375,45.8984375,-101.5625,0.0
1734582490.986303,-145.99609375,-136.23046875,94.7265625,-107.421875,0.0
1734582490.9902093,-142.578125,-162.109375,-227.05078125,-100.09765625,0.0
1734582490.9941154,-134.765625,-166.9921875,-296.875,-75.1953125,0.0
1734582490.9980216,-126.46484375,-146.97265625,160.15625,-62.5,0.0
1734582491.0019276,-106.4453125,-143.06640625,48.828125,-52.24609375,0.0
1734582491.0059495,-103.515625,-152.83203125,-50.78125,-56.640625,0.0
1734582491.0098555,-100.5859375,-149.90234375,34.66796875,-40.52734375,0.0
1734582491.0137618,-81.54296875,-149.4140625,46.38671875,-18.5546875,0.0
1734582491.0176678,-71.77734375,-161.62109375,-70.3125,-13.671875,0.0
1734582491.021574,-63.96484375,-166.50390625,-227.5390625,-4.8828125,0.0
1734582491.02548,-55.6640625,-176.26953125,-300.29296875,6.34765625,0.0
1734582491.0293863,-42.96875,-168.45703125,-317.3828125,20.5078125,0.0
1734582491.0332923,-32.71484375,-159.1796875,-408.69140625,32.2265625,0.0
1734582491.0371983,-29.78515625,-164.55078125,-506.8359375,43.45703125,0.0
1734582491.0411046,-25.87890625,-152.34375,-267.08984375,47.36328125,0.0
1734582491.0450106,-24.4140625,-165.0390625,-292.48046875,38.0859375,0.0
1734582491.0489168,-5.37109375,-172.8515625,-421.875,53.22265625,0.0
1734582491.0525908,0.48828125,-167.96875,-362.3046875,54.19921875,0.0
1734582491.056497,-14.6484375,-166.50390625,-284.66796875,42.96875,0.0
1734582491.060403,-1.953125,-163.57421875,-302.734375,63.4765625,0.0
1734582491.0643091,2.44140625,-164.0625,-358.88671875,64.94140625,0.0
1734582491.0682154,0.0,-161.62109375,-369.140625,58.59375,0.0
1734582491.0721214,3.90625,-160.15625,-425.78125,67.3828125,0.0
1734582491.0760276,6.8359375,-160.15625,-411.62109375,71.2890625,0.0
1734582491.0799336,11.71875,-169.921875,-582.03125,75.1953125,0.0
1734582491.0838397,17.578125,-157.71484375,-583.0078125,83.49609375,0.0
1734582491.087746,16.6015625,-137.20703125,-312.5,79.1015625,0.0
1734582491.091652,8.30078125,-146.97265625,-380.859375,70.80078125,0.0
1734582491.0955582,15.13671875,-136.23046875,-416.015625,73.73046875,0.0
1734582491.1019344,20.5078125,-116.69921875,-352.5390625,78.61328125,0.0
1734582491.1058404,14.16015625,-129.39453125,-417.96875,70.80078125,0.0
1734582491.1097467,13.18359375,-130.859375,-518.5546875,60.05859375,0.0
1734582491.1136527,26.85546875,-98.14453125,-447.265625,64.94140625,0.0
1734582491.117559,34.66796875,-79.58984375,-417.48046875,72.265625,0.0
1734582491.121465,18.5546875,-90.8203125,-459.9609375,57.6171875,0.0
1734582491.1253712,3.41796875,-105.46875,-518.06640625,40.0390625,0.0
1734582491.1292772,10.25390625,-100.5859375,-614.74609375,48.33984375,0.0
1734582491.1331832,15.13671875,-83.0078125,-455.078125,42.96875,0.0
1734582491.1370895,9.27734375,-83.49609375,-400.87890625,33.69140625,0.0
1734582491.1409955,8.7890625,-90.33203125,-516.6015625,36.62109375,0.0
1734582491.1449018,8.30078125,-90.33203125,-549.31640625,28.80859375,0.0
1734582491.147211,6.34765625,-86.9140625,-465.8203125,25.87890625,0.0
1734582491.151117,11.71875,-86.42578125,-516.6015625,39.55078125,0.0
1734582491.1550233,24.4140625,-73.73046875,-546.875,41.9921875,0.0
1734582491.1589293,15.625,-64.94140625,-507.8125,20.5078125,0.0
1734582491.1628356,24.4140625,-58.10546875,-560.546875,31.73828125,0.0
1734582491.1667416,25.390625,-55.17578125,-596.6796875,42.48046875,0.0
1734582491.1706479,20.5078125,-61.5234375,-646.97265625,35.15625,0.0
1734582491.1745539,32.2265625,-40.0390625,-612.79296875,41.50390625,0.0
1734582491.17846,8.30078125,-34.66796875,-474.609375,17.578125,0.0
1734582491.1823661,1.46484375,-44.43359375,-477.5390625,3.90625,0.0
1734582491.1862721,5.859375,-49.31640625,-710.44921875,16.6015625,0.0
1734582491.1901784,6.34765625,-47.8515625,-681.15234375,20.01953125,0.0
1734582491.192524,24.4140625,-21.97265625,-465.8203125,27.34375,0.0
1734582491.1964302,18.06640625,-23.92578125,-527.34375,21.97265625,0.0
1734582491.2003362,9.27734375,-21.97265625,-566.40625,14.16015625,0.0
1734582491.2042425,-0.9765625,-26.3671875,-494.140625,2.9296875,0.0
1734582491.2081485,-6.8359375,-51.7578125,-532.71484375,-9.27734375,0.0
1734582491.2120547,12.20703125,-42.48046875,-668.9453125,3.41796875,0.0
1734582491.2159607,17.08984375,-41.015625,-736.81640625,18.06640625,0.0
1734582491.2198668,6.34765625,-31.25,-561.5234375,8.7890625,0.0
1734582491.223773,3.90625,-12.6953125,-459.47265625,0.9765625,0.0
1734582491.227679,9.27734375,-21.484375,-605.46875,7.8125,0.0
1734582491.2315853,5.37109375,-23.92578125,-639.16015625,5.859375,0.0
1734582491.2354913,0.9765625,-28.3203125,-507.32421875,-1.953125,0.0
1734582491.2378097,3.90625,-24.4140625,-486.328125,0.9765625,0.0
1734582491.2417157,2.9296875,-13.671875,-533.69140625,8.30078125,0.0
1734582491.2456217,5.37109375,-11.23046875,-540.0390625,6.8359375,0.0
1734582491.249528,10.7421875,-18.06640625,-509.27734375,10.7421875,0.0
1734582491.253434,6.34765625,-32.71484375,-546.875,0.9765625,0.0
1734582491.2573402,-0.48828125,-30.76171875,-631.34765625,0.9765625,0.0
1734582491.2612462,-9.765625,-19.53125,-605.46875,3.41796875,0.0
1734582491.2651522,-8.30078125,-9.27734375,-531.25,-3.90625,0.0
1734582491.2690585,-2.9296875,-10.25390625,-529.296875,0.9765625,0.0
1734582491.2729645,1.953125,-9.765625,-621.09375,11.23046875,0.0
1734582491.2768705,11.23046875,-2.44140625,-484.375,18.5546875,0.0
1734582491.2807767,17.08984375,-20.01953125,-401.85546875,9.765625,0.0
1734582491.2861252,11.23046875,-22.4609375,-485.3515625,0.9765625,0.0
1734582491.2900314,4.8828125,-0.9765625,-534.66796875,8.30078125,0.0
1734582491.2939374,3.90625,8.30078125,-473.14453125,4.39453125,0.0
1734582491.2978435,-8.30078125,8.30078125,-397.94921875,-12.6953125,0.0
1734582491.3017497,-7.8125,2.9296875,-468.26171875,-18.06640625,0.0
1734582491.3056557,-0.48828125,-8.7890625,-592.28515625,-12.20703125,0.0
1734582491.309562,-10.25390625,1.46484375,-519.04296875,-15.625,0.0
1734582491.313468,-14.6484375,4.8828125,-409.66796875,-14.6484375,0.0
1734582491.317374,-0.9765625,-4.39453125,-570.3125,-0.9765625,0.0
1734582491.3212802,0.48828125,-10.7421875,-644.53125,-2.44140625,0.0
1734582491.3251863,-2.9296875,-6.8359375,-460.44921875,-5.859375,0.0
1734582491.3290925,-6.8359375,4.39453125,-507.32421875,-6.8359375,0.0
1734582491.3336887,-9.27734375,0.48828125,-512.20703125,-2.44140625,0.0
1734582491.337595,1.46484375,12.20703125,-451.66015625,1.46484375,0.0
1734582491.341501,-9.27734375,19.04296875,-393.06640625,-9.27734375,0.0
1734582491.345407,-17.08984375,-1.46484375,-388.671875,-22.94921875,0.0
1734582491.3493133,-3.90625,-0.9765625,-458.0078125,-16.11328125,0.0
1734582491.3532193,7.32421875,21.97265625,-474.12109375,4.8828125,0.0
1734582491.3571255,5.859375,11.71875,-454.1015625,1.46484375,0.0
1734582491.3610315,5.859375,2.9296875,-379.39453125,-2.9296875,0.0
1734582491.3649375,3.90625,-4.39453125,-547.36328125,0.0,0.0
1734582491.3688438,7.8125,-3.41796875,-555.17578125,8.30078125,0.0
1734582491.3727498,5.37109375,35.15625,-279.78515625,2.44140625,0.0
1734582491.376656,5.37109375,39.55078125,-339.35546875,-3.41796875,0.0
1734582491.38067,4.39453125,23.92578125,-350.5859375,-9.765625,0.0
1734582491.384576,-3.41796875,15.625,-265.625,-13.671875,0.0
1734582491.3884823,-7.8125,12.20703125,-315.91796875,-15.625,0.0
1734582491.3923883,-12.20703125,4.39453125,-407.71484375,-23.92578125,0.0
1734582491.3962946,-4.39453125,12.20703125,-404.296875,-16.6015625,0.0
1734582491.4002006,5.859375,11.71875,-399.90234375,-13.18359375,0.0
1734582491.4041066,-3.90625,-20.99609375,-302.734375,-14.6484375,0.0
1734582491.4080129,3.41796875,-8.30078125,-393.06640625,-5.859375,0.0
1734582491.4119189,5.37109375,17.578125,-531.25,-11.23046875,0.0
1734582491.4158251,0.9765625,30.76171875,-306.640625,-19.53125,0.0
1734582491.4197311,7.8125,40.52734375,-253.41796875,-11.71875,0.0
1734582491.4236374,9.27734375,32.71484375,-383.30078125,-2.9296875,0.0
1734582491.427385,12.6953125,28.80859375,-422.36328125,0.9765625,0.0
1734582491.431291,0.9765625,30.2734375,-330.56640625,-7.8125,0.0
1734582491.4351974,-1.953125,29.78515625,-357.91015625,-12.20703125,0.0
1734582491.4391034,-2.44140625,27.34375,-367.1875,-17.08984375,0.0
1734582491.4430094,-7.32421875,18.06640625,-375.0,-14.6484375,0.0
1734582491.4469156,-6.34765625,16.11328125,-474.12109375,-11.71875,0.0
1734582491.4508216,-15.625,9.27734375,-431.640625,-23.92578125,0.0
1734582491.454728,-4.39453125,2.44140625,-599.12109375,-18.06640625,0.0
1734582491.458634,4.8828125,20.01953125,-577.1484375,-10.7421875,0.0
1734582491.46254,-9.765625,33.69140625,-281.25,-15.625,0.0
1734582491.4664462,-14.6484375,19.53125,-396.484375,-19.04296875,0.0
1734582491.4703522,-12.6953125,14.6484375,-500.48828125,-22.4609375,0.0
1734582491.473718,-13.18359375,23.4375,-387.20703125,-28.80859375,0.0
1734582491.477624,-16.6015625,28.80859375,-292.96875,-32.2265625,0.0
1734582491.4815302,-9.765625,18.5546875,-362.79296875,-26.85546875,0.0
1734582491.4854362,-12.20703125,4.8828125,-407.2265625,-30.2734375,0.0
1734582491.4893425,-25.390625,1.46484375,-400.87890625,-43.45703125,0.0
1734582491.4932485,-17.08984375,11.71875,-458.0078125,-38.57421875,0.0
1734582491.4971545,-19.53125,13.671875,-499.51171875,-33.203125,0.0
1734582491.5010607,-29.296875,-2.44140625,-494.62890625,-38.57421875,0.0
1734582491.5049667,-7.8125,7.8125,-398.92578125,-26.3671875,0.0
1734582491.508873,-0.48828125,21.484375,-353.515625,-19.53125,0.0
1734582491.512779,-12.20703125,22.94921875,-504.39453125,-13.18359375,0.0
1734582491.516685,-14.6484375,24.90234375,-571.77734375,-10.7421875,0.0
1734582491.5196946,-13.18359375,32.2265625,-293.45703125,-17.578125,0.0
1734582491.5236008,-24.4140625,9.765625,-325.1953125,-28.80859375,0.0
1734582491.5275068,-33.69140625,-0.48828125,-410.64453125,-36.1328125,0.0
1734582491.531413,-35.15625,10.25390625,-346.19140625,-32.71484375,0.0
1734582491.535319,-31.25,4.39453125,-346.19140625,-28.3203125,0.0
1734582491.539225,-23.4375,4.8828125,-392.08984375,-28.80859375,0.0
1734582491.5431314,-19.53125,10.25390625,-562.5,-26.3671875,0.0
1734582491.5470374,-22.94921875,9.765625,-627.9296875,-21.484375,0.0
1734582491.5509436,-25.87890625,7.32421875,-389.6484375,-34.1796875,0.0
1734582491.5548496,-15.625,29.78515625,-373.53515625,-35.64453125,0.0
1734582491.5587556,16.11328125,47.8515625,-475.5859375,-11.71875,0.0
1734582491.562662,18.5546875,26.85546875,-439.453125,-2.9296875,0.0
1734582491.568572,-21.97265625,19.53125,-374.51171875,-24.4140625,0.0
1734582491.5724783,-37.59765625,9.765625,-443.84765625,-35.64453125,0.0
1734582491.5763843,-39.55078125,-12.6953125,-442.87109375,-30.76171875,0.0
1734582491.5802906,-34.1796875,-8.7890625,-382.8125,-16.6015625,0.0
1734582491.5841966,-33.69140625,-17.08984375,-401.3671875,-16.11328125,0.0
1734582491.5881026,-57.12890625,-41.50390625,-528.80859375,-42.96875,0.0
1734582491.5920088,-73.2421875,-54.6875,-581.54296875,-36.62109375,0.0
1734582491.5959148,-87.40234375,-58.10546875,-353.02734375,-41.015625,0.0
1734582491.599821,-74.70703125,-63.4765625,-251.953125,-47.36328125,0.0
1734582491.603727,-66.40625,-79.58984375,-437.01171875,-39.55078125,0.0
1734582491.6076334,-67.3828125,-85.9375,-499.51171875,-32.2265625,0.0
1734582491.6115394,-68.359375,-97.65625,-353.02734375,-33.203125,0.0
1734582491.6167016,-84.9609375,-112.79296875,-377.44140625,-45.8984375,0.0
1734582491.6206079,-78.61328125,-115.72265625,-425.78125,-47.8515625,0.0
1734582491.6245139,-70.3125,-97.16796875,-437.5,-37.109375,0.0
1734582491.62842,-63.96484375,-75.68359375,-412.59765625,-24.90234375,0.0
1734582491.6323261,-53.7109375,-102.05078125,-493.1640625,-26.85546875,0.0
1734582491.6362321,-47.8515625,-100.5859375,-619.140625,-19.04296875,0.0
1734582491.6401384,-47.36328125,-68.359375,-591.796875,-12.20703125,0.0
1734582491.6440444,-60.05859375,-56.640625,-572.75390625,-22.4609375,0.0
1734582491.6479506,-71.77734375,-57.12890625,-571.77734375,-42.96875,0.0
1734582491.6518567,-67.87109375,-74.21875,-783.203125,-46.875,0.0
1734582491.655763,-58.59375,-67.3828125,-811.5234375,-41.015625,0.0
1734582491.659669,-62.5,-57.6171875,-610.3515625,-38.57421875,0.0
1734582491.6640916,-65.91796875,-62.98828125,-660.64453125,-35.15625,0.0
1734582491.6679978,-51.7578125,-55.6640625,-687.5,-27.83203125,0.0
1734582491.6719038,-35.15625,-52.734375,-643.06640625,-26.3671875,0.0
1734582491.67581,-26.3671875,-48.828125,-650.390625,-16.11328125,0.0
1734582491.679716,-40.52734375,-44.921875,-739.74609375,-13.18359375,0.0
1734582491.6836221,-49.31640625,-44.921875,-799.31640625,-15.625,0.0
1734582491.6875284,-48.33984375,-34.66796875,-755.37109375,-18.06640625,0.0
1734582491.6914344,-47.8515625,-32.2265625,-706.0546875,-20.99609375,0.0
1734582491.6953406,-42.48046875,-47.36328125,-839.35546875,-37.109375,0.0
1734582491.6992466,-51.26953125,-50.29296875,-906.73828125,-59.08203125,0.0
1734582491.703153,-46.38671875,-26.3671875,-715.8203125,-60.546875,0.0
1734582491.707059,-27.83203125,-28.3203125,-728.515625,-55.6640625,0.0
1734582491.7109985,-43.9453125,-43.45703125,-791.9921875,-46.875,0.0
1734582491.7149045,-41.50390625,-15.13671875,-793.9453125,-28.3203125,0.0
1734582491.7188108,-26.85546875,14.16015625,-781.73828125,-25.87890625,0.0
1734582491.7227168,-38.0859375,-5.37109375,-776.85546875,-39.55078125,0.0
1734582491.726623,-43.45703125,-19.04296875,-835.9375,-38.57421875,0.0
1734582491.730529,-41.015625,-5.859375,-883.30078125,-34.66796875,0.0
1734582491.734435,-25.87890625,0.48828125,-886.71875,-32.2265625,0.0
1734582491.7383413,-33.203125,1.953125,-887.20703125,-39.55078125,0.0
1734582491.7422473,-43.45703125,-5.37109375,-935.05859375,-41.50390625,0.0
1734582491.7461536,-34.1796875,-2.44140625,-936.5234375,-26.3671875,0.0
1734582491.7500596,-34.1796875,4.8828125,-876.46484375,-27.83203125,0.0
1734582491.7539659,-32.71484375,-12.20703125,-915.52734375,-32.71484375,0.0
1734582491.7575307,-32.2265625,-6.8359375,-894.53125,-33.69140625,0.0
1734582491.7614367,-30.76171875,16.11328125,-868.65234375,-41.9921875,0.0
1734582491.765343,-31.25,15.13671875,-867.67578125,-43.9453125,0.0
1734582491.769249,-34.1796875,4.39453125,-889.16015625,-40.0390625,0.0
1734582491.7731552,-30.76171875,-7.8125,-913.57421875,-43.9453125,0.0
1734582491.7770612,-20.5078125,-11.71875,-928.22265625,-32.2265625,0.0
1734582491.7809675,-18.5546875,-6.8359375,-886.71875,-33.203125,0.0
1734582491.7848735,-18.06640625,-0.48828125,-919.921875,-39.55078125,0.0
1734582491.7887795,-14.16015625,6.8359375,-963.37890625,-30.2734375,0.0
1734582491.7926857,-29.78515625,13.671875,-910.15625,-45.41015625,0.0
1734582491.7965918,-35.64453125,14.16015625,-931.640625,-42.96875,0.0
1734582491.800498,-35.64453125,-1.953125,-923.828125,-43.9453125,0.0
1734582491.8037233,-42.48046875,-7.8125,-903.3203125,-48.828125,0.0
1734582491.8076293,-22.4609375,13.18359375,-889.6484375,-24.90234375,0.0
1734582491.8115356,-10.7421875,20.99609375,-900.390625,-25.390625,0.0
1734582491.8154416,-28.80859375,21.484375,-883.30078125,-36.62109375,0.0
1734582491.8193476,-34.1796875,15.13671875,-890.625,-43.9453125,0.0
1734582491.8232539,-33.69140625,5.859375,-917.96875,-47.36328125,0.0
1734582491.82716,-39.55078125,14.6484375,-895.01953125,-47.36328125,0.0
1734582491.8310661,-30.2734375,20.01953125,-941.40625,-41.9921875,0.0
1734582491.8349721,-30.2734375,22.4609375,-927.24609375,-33.69140625,0.0
1734582491.8388784,-30.76171875,26.85546875,-811.5234375,-28.80859375,0.0
1734582491.8427844,-38.0859375,15.625,-844.7265625,-41.015625,0.0
1734582491.8466904,-35.15625,10.7421875,-862.79296875,-41.50390625,0.0
1734582491.8496387,-26.3671875,24.4140625,-854.00390625,-32.71484375,0.0
1734582491.853545,-32.71484375,33.69140625,-846.19140625,-38.0859375,0.0
1734582491.857451,-41.015625,21.484375,-835.44921875,-45.8984375,0.0
1734582491.8613572,-45.8984375,9.27734375,-829.58984375,-53.7109375,0.0
1734582491.8652632,-30.2734375,15.625,-828.61328125,-37.109375,0.0
1734582491.8691692,-13.18359375,24.4140625,-869.140625,-26.85546875,0.0
1734582491.8730755,-20.01953125,21.97265625,-897.4609375,-44.921875,0.0
1734582491.8769815,-38.0859375,9.27734375,-879.8828125,-48.828125,0.0
1734582491.8808877,-42.48046875,30.2734375,-765.13671875,-56.640625,0.0
1734582491.8847938,-38.0859375,35.15625,-757.8125,-72.265625,0.0
1734582491.8886998,-32.2265625,14.16015625,-832.51953125,-61.03515625,0.0
1734582491.892606,-36.62109375,17.08984375,-839.84375,-54.6875,0.0
1734582491.8954153,-42.96875,18.5546875,-771.484375,-55.6640625,0.0
1734582491.8993216,-44.43359375,19.04296875,-786.1328125,-55.6640625,0.0
1734582491.9032276,-40.52734375,2.44140625,-816.89453125,-53.7109375,0.0
1734582491.9071338,-34.66796875,2.44140625,-826.66015625,-54.6875,0.0
1734582491.9110398,-43.45703125,6.34765625,-861.81640625,-60.546875,0.0
1734582491.914946,-36.1328125,3.41796875,-878.90625,-60.546875,0.0
1734582491.918852,-30.76171875,15.13671875,-931.15234375,-51.7578125,0.0
1734582491.922758,-39.0625,14.16015625,-926.7578125,-58.59375,0.0
1734582491.9266644,-48.828125,14.16015625,-819.3359375,-65.91796875,0.0
1734582491.9305704,-38.57421875,14.16015625,-869.62890625,-52.24609375,0.0
1734582491.9344766,-23.4375,22.4609375,-877.9296875,-38.57421875,0.0
1734582491.9383826,-31.25,15.625,-842.7734375,-55.6640625,0.0
1734582491.9409668,-44.921875,2.9296875,-846.6796875,-74.70703125,0.0
1734582491.944873,-40.0390625,-4.39453125,-886.71875,-65.91796875,0.0
1734582491.948779,-19.53125,-10.7421875,-904.296875,-58.10546875,0.0
1734582491.952685,-26.3671875,-4.8828125,-870.1171875,-47.36328125,0.0
1734582491.9565914,-31.73828125,-3.90625,-890.625,-44.43359375,0.0
1734582491.9604974,-20.5078125,-0.9765625,-933.10546875,-41.015625,0.0
1734582491.9644036,-15.625,3.41796875,-937.5,-27.83203125,0.0
1734582491.9683096,-24.90234375,8.30078125,-911.62109375,-36.1328125,0.0
1734582491.9722157,-29.78515625,10.25390625,-876.953125,-45.41015625,0.0
1734582491.976122,-20.5078125,-3.90625,-909.1796875,-40.52734375,0.0
1734582491.980028,-17.578125,4.39453125,-930.6640625,-42.48046875,0.0
1734582491.9839342,-38.57421875,12.20703125,-872.55859375,-58.10546875,0.0
1734582491.986415,-43.9453125,-5.859375,-862.3046875,-64.453125,0.0
1734582491.990321,-15.625,-10.7421875,-871.58203125,-32.2265625,0.0
1734582491.994227,-11.71875,1.46484375,-872.55859375,-18.06640625,0.0
1734582491.9981332,-32.71484375,11.23046875,-857.421875,-44.921875,0.0
1734582492.0020392,-45.8984375,7.32421875,-883.7890625,-61.03515625,0.0
1734582492.0059454,-33.203125,-4.39453125,-911.62109375,-54.6875,0.0
1734582492.0098515,-29.78515625,-9.27734375,-908.69140625,-46.875,0.0
1734582492.0137575,-47.36328125,0.48828125,-882.32421875,-55.6640625,0.0
1734582492.0176637,-23.92578125,-1.953125,-882.32421875,-41.9921875,0.0
1734582492.0215697,-1.953125,-18.5546875,-879.39453125,-5.37109375,0.0
1734582492.025476,-44.43359375,-19.53125,-847.16796875,-30.2734375,0.0
1734582492.029382,-62.98828125,-22.4609375,-854.4921875,-75.68359375,0.0
1734582492.0350652,-49.8046875,-32.71484375,-866.69921875,-58.10546875,0.0
1734582492.0389712,-54.6875,-41.9921875,-851.07421875,-47.36328125,0.0
1734582492.0428774,-57.6171875,-55.6640625,-794.921875,-57.12890625,0.0
1734582492.0467834,-48.828125,-72.75390625,-783.69140625,-46.38671875,0.0
1734582492.0506897,-50.78125,-81.0546875,-803.7109375,-32.2265625,0.0
1734582492.0545957,-57.12890625,-95.703125,-842.28515625,-42.48046875,0.0
1734582492.0585017,-51.26953125,-95.703125,-789.55078125,-41.9921875,0.0
1734582492.062408,-56.640625,-93.26171875,-697.75390625,-42.96875,0.0
1734582492.066314,-58.59375,-113.76953125,-799.8046875,-31.25,0.0
1734582492.0702202,-39.55078125,-118.65234375,-850.09765625,-4.39453125,0.0
1734582492.0741262,-30.2734375,-104.00390625,-632.8125,-10.25390625,0.0
1734582492.0780323,-34.1796875,-110.3515625,-663.57421875,-6.34765625,0.0
1734582492.0828247,-33.69140625,-108.88671875,-718.75,-4.8828125,0.0
1734582492.086731,-36.1328125,-98.14453125,-638.18359375,-24.90234375,0.0
1734582492.090637,-43.9453125,-106.93359375,-600.09765625,-26.3671875,0.0
1734582492.094543,-41.50390625,-121.09375,-592.7734375,-10.7421875,0.0
1734582492.0984492,-20.5078125,-108.3984375,-641.6015625,1.46484375,0.0
1734582492.1023552,-16.6015625,-82.03125,-645.01953125,-3.90625,0.0
1734582492.1062615,-35.64453125,-76.66015625,-601.5625,-18.5546875,0.0
1734582492.1101675,-58.10546875,-82.03125,-557.12890625,-44.43359375,0.0
1734582492.1140738,-53.22265625,-89.35546875,-705.56640625,-32.71484375,0.0
1734582492.1179798,-41.50390625,-77.63671875,-684.5703125,-13.671875,0.0
1734582492.1218858,-43.45703125,-59.5703125,-413.0859375,-32.2265625,0.0
1734582492.125792,-44.921875,-66.40625,-495.1171875,-35.64453125,0.0
1734582492.130165,-40.52734375,-63.4765625,-528.3203125,-25.87890625,0.0
1734582492.1340714,-42.48046875,-64.453125,-470.703125,-25.87890625,0.0
1734582492.1379774,-34.1796875,-59.08203125,-483.3984375,-27.83203125,0.0
1734582492.1418834,-21.484375,-52.734375,-454.58984375,-17.578125,0.0
1734582492.1457896,-31.73828125,-62.01171875,-478.02734375,-17.578125,0.0
1734582492.1496956,-34.66796875,-60.546875,-535.64453125,-20.01953125,0.0
1734582492.153602,-20.5078125,-48.828125,-448.2421875,-14.6484375,0.0
1734582492.157508,-30.2734375,-46.38671875,-455.078125,-18.06640625,0.0
1734582492.161414,-31.25,-41.015625,-598.14453125,-11.71875,0.0
1734582492.1653202,-23.4375,-27.34375,-378.90625,-11.71875,0.0
1734582492.1692262,-28.80859375,-37.109375,-374.0234375,-18.06640625,0.0
1734582492.1731324,-20.01953125,-42.96875,-548.828125,-21.484375,0.0
1734582492.177169,-24.4140625,-22.4609375,-473.14453125,-26.3671875,0.0
1734582492.181075,-26.3671875,-17.578125,-364.2578125,-27.83203125,0.0
1734582492.1849813,-30.2734375,-44.921875,-405.2734375,-29.296875,0.0
1734582492.1888874,-29.78515625,-40.0390625,-428.22265625,-22.4609375,0.0
1734582492.1927934,-12.20703125,-25.390625,-440.91796875,-20.5078125,0.0
1734582492.1966996,-15.625,-29.296875,-488.28125,-22.94921875,0.0
1734582492.2006056,-27.83203125,-29.296875,-458.984375,-33.69140625,0.0
1734582492.204512,-35.15625,-45.8984375,-653.3203125,-34.66796875,0.0
1734582492.208418,-36.1328125,-44.921875,-669.921875,-37.59765625,0.0
1734582492.212324,-25.87890625,-18.5546875,-379.39453125,-43.9453125,0.0
1734582492.2162302,-19.04296875,-26.85546875,-425.78125,-40.52734375,0.0
1734582492.2201362,-20.01953125,-49.8046875,-457.03125,-42.48046875,0.0
1734582492.2235518,-8.7890625,-25.87890625,-393.06640625,-24.90234375,0.0
1734582492.227458,-16.11328125,-21.484375,-424.8046875,-23.92578125,0.0
1734582492.231364,-34.1796875,-47.36328125,-518.06640625,-43.45703125,0.0
1734582492.23527,-39.0625,-41.50390625,-507.8125,-41.50390625,0.0
1734582492.2391763,-25.390625,-23.92578125,-493.65234375,-31.73828125,0.0
1734582492.2430823,-22.94921875,-34.1796875,-555.6640625,-28.3203125,0.0
1734582492.2469885,-41.50390625,-51.7578125,-595.21484375,-41.015625,0.0
1734582492.2508945,-51.26953125,-55.17578125,-702.63671875,-41.50390625,0.0
1734582492.2548006,-45.8984375,-38.0859375,-554.6875,-39.0625,0.0
1734582492.2587068,-39.0625,-24.4140625,-423.828125,-39.0625,0.0
1734582492.2626128,-41.015625,-41.015625,-536.1328125,-44.43359375,0.0
1734582492.266519,-37.59765625,-41.015625,-572.265625,-42.48046875,0.0
1734582492.2699833,-30.2734375,-22.4609375,-433.10546875,-40.0390625,0.0
1734582492.2738893,-27.83203125,-20.99609375,-401.3671875,-42.96875,0.0
1734582492.2777956,-25.87890625,-27.83203125,-425.78125,-32.2265625,0.0
1734582492.2817016,-21.484375,-29.296875,-395.99609375,-17.578125,0.0
1734582492.2856078,-22.94921875,-32.71484375,-422.8515625,-11.71875,0.0
1734582492.2895138,-36.1328125,-35.64453125,-483.88671875,-31.25,0.0
1734582492.2934198,-32.71484375,-39.55078125,-626.953125,-37.109375,0.0
1734582492.297326,-19.53125,-35.64453125,-605.95703125,-31.73828125,0.0
1734582492.301232,-32.2265625,-19.53125,-331.0546875,-41.50390625,0.0
1734582492.3051383,-46.875,-21.97265625,-400.390625,-50.29296875,0.0
1734582492.3090444,-43.9453125,-18.06640625,-479.4921875,-40.52734375,0.0
1734582492.3129504,-28.80859375,-8.30078125,-368.65234375,-25.390625,0.0
1734582492.3157082,-18.5546875,-9.765625,-330.078125,-25.87890625,0.0
1734582492.3196142,-18.06640625,-22.4609375,-399.90234375,-23.4375,0.0
1734582492.3235204,-31.73828125,-41.015625,-426.26953125,-19.53125,0.0
1734582492.3274264,-33.69140625,-42.96875,-360.3515625,-32.71484375,0.0
1734582492.3313324,-31.25,-32.2265625,-388.18359375,-42.48046875,0.0
1734582492.3352387,-27.83203125,-29.78515625,-511.71875,-24.90234375,0.0
1734582492.3391447,-36.62109375,-53.22265625,-549.8046875,-28.80859375,0.0
1734582492.343051,-38.57421875,-47.36328125,-395.99609375,-37.109375,0.0
1734582492.346957,-23.92578125,-21.484375,-302.24609375,-31.25,0.0
1734582492.350863,-34.1796875,-34.66796875,-431.15234375,-32.2265625,0.0
1734582492.3547692,-33.69140625,-38.0859375,-459.47265625,-30.76171875,0.0
1734582492.3586752,-34.1796875,-35.15625,-280.76171875,-39.0625,0.0
1734582492.3613672,-39.0625,-46.875,-346.19140625,-41.9921875,0.0
1734582492.3652732,-30.2734375,-53.7109375,-432.6171875,-28.3203125,0.0
1734582492.3691795,-24.4140625,-50.29296875,-357.91015625,-31.25,0.0
1734582492.3730855,-25.390625,-42.96875,-263.671875,-41.015625,0.0
1734582492.3769915,-35.15625,-51.7578125,-278.80859375,-44.43359375,0.0
1734582492.3808978,-35.64453125,-66.40625,-463.8671875,-39.0625,0.0
1734582492.3848038,-45.8984375,-67.3828125,-455.56640625,-47.36328125,0.0
1734582492.38871,-40.0390625,-60.05859375,-296.875,-56.640625,0.0
1734582492.392616,-24.4140625,-49.8046875,-267.578125,-47.36328125,0.0
1734582492.396522,-34.66796875,-52.734375,-271.484375,-45.8984375,0.0
1734582492.4004283,-44.921875,-58.59375,-81.0546875,-41.9921875,0.0
1734582492.4043343,-39.0625,-53.22265625,65.4296875,-31.73828125,0.0
1734582492.4099762,-27.83203125,-60.546875,-20.99609375,-28.3203125,0.0
1734582492.4138823,-24.90234375,-61.5234375,-26.85546875,-31.73828125,0.0
1734582492.4177883,-20.5078125,-51.26953125,76.171875,-26.3671875,0.0
1734582492.4216945,-11.23046875,-52.734375,7.32421875,-19.53125,0.0
1734582492.4256005,-13.671875,-55.6640625,-64.94140625,-27.34375,0.0
1734582492.4295068,-25.390625,-61.5234375,-175.78125,-33.69140625,0.0
1734582492.4334128,-13.671875,-66.89453125,-76.66015625,-16.11328125,0.0
1734582492.4373188,-0.48828125,-42.96875,152.34375,-2.9296875,0.0
1734582492.441225,-19.53125,-43.45703125,-13.18359375,-15.625,0.0
1734582492.445131,-34.66796875,-61.5234375,-169.43359375,-39.55078125,0.0
1734582492.4490373,-39.0625,-56.15234375,62.5,-57.12890625,0.0
1734582492.4529433,-47.8515625,-62.01171875,159.66796875,-51.7578125,0.0
1734582492.457764,-37.59765625,-69.82421875,-29.78515625,-36.1328125,0.0
1734582492.46167,-30.76171875,-69.82421875,-35.64453125,-36.62109375,0.0
1734582492.4655762,-31.25,-76.171875,90.33203125,-33.69140625,0.0
1734582492.4694822,-30.2734375,-72.75390625,85.44921875,-29.296875,0.0
1734582492.4733882,-14.6484375,-66.40625,-45.8984375,-25.87890625,0.0
1734582492.4772944,-3.41796875,-58.10546875,-118.65234375,-16.11328125,0.0
1734582492.4812005,-19.04296875,-51.26953125,-9.765625,-14.6484375,0.0
1734582492.4851067,-23.92578125,-63.96484375,43.45703125,-20.5078125,0.0
1734582492.4890127,-16.11328125,-75.1953125,-240.234375,-19.53125,0.0
1734582492.4929187,-23.4375,-62.98828125,-264.16015625,-20.5078125,0.0
1734582492.496825,-31.73828125,-53.22265625,157.2265625,-32.2265625,0.0
1734582492.500731,-33.69140625,-65.4296875,59.08203125,-34.66796875,0.0
1734582492.504978,-17.08984375,-68.84765625,-61.5234375,-33.203125,0.0
1734582492.508884,-9.765625,-72.75390625,17.578125,-27.34375,0.0
1734582492.5127902,-5.859375,-73.73046875,77.1484375,-18.06640625,0.0
1734582492.5166962,0.48828125,-74.70703125,-0.48828125,-12.20703125,0.0
1734582492.5206025,-29.78515625,-84.47265625,-53.7109375,-7.8125,0.0
1734582492.5245085,-43.45703125,-83.0078125,-73.2421875,-18.5546875,0.0
1734582492.5284145,-37.109375,-71.77734375,7.8125,-36.1328125,0.0
1734582492.5323207,-36.1328125,-73.73046875,18.06640625,-44.921875,0.0
1734582492.5362267,-33.69140625,-93.75,-281.73828125,-41.9921875,0.0
1734582492.540133,-22.94921875,-83.0078125,-79.1015625,-28.80859375,0.0
1734582492.544039,-11.71875,-64.453125,177.24609375,-18.5546875,0.0
1734582492.547945,-0.48828125,-62.5,8.30078125,-3.90625,0.0
1734582492.5517373,-11.71875,-73.73046875,-23.92578125,-6.8359375,0.0
1734582492.5556436,-26.3671875,-81.54296875,122.55859375,-26.85546875,0.0
1734582492.5595496,-23.4375,-71.2890625,121.58203125,-26.85546875,0.0
1734582492.5634556,-18.5546875,-66.89453125,-19.53125,-22.94921875,0.0
1734582492.5673618,-12.6953125,-86.42578125,-64.453125,-20.5078125,0.0
1734582492.5712678,-26.85546875,-98.14453125,-119.140625,-16.11328125,0.0
1734582492.575174,-16.11328125,-76.66015625,-188.4765625,-3.90625,0.0
1734582492.57908,-0.9765625,-83.0078125,-388.671875,11.71875,0.0
1734582492.582986,-39.55078125,-101.5625,-323.73046875,-9.765625,0.0
1734582492.5868924,-62.98828125,-101.07421875,66.89453125,-38.57421875,0.0
1734582492.5907984,-57.12890625,-112.79296875,-3.90625,-38.57421875,0.0
1734582492.5947046,-64.453125,-129.8828125,-226.07421875,-48.33984375,0.0
1734582492.598233,-71.77734375,-132.8125,-106.93359375,-51.26953125,0.0
1734582492.602139,-54.6875,-121.58203125,147.94921875,-39.0625,0.0
1734582492.6060452,-47.36328125,-129.8828125,27.83203125,-20.99609375,0.0
1734582492.6099513,-51.26953125,-148.4375,-46.38671875,-17.08984375,0.0
1734582492.6138573,-49.8046875,-152.34375,4.39453125,-27.83203125,0.0
1734582492.6177635,-35.15625,-152.34375,-104.98046875,-23.4375,0.0
1734582492.6216695,-36.1328125,-153.3203125,-261.23046875,-14.16015625,0.0
1734582492.6255758,-37.109375,-144.04296875,-355.95703125,-9.765625,0.0
1734582492.6294818,-22.94921875,-128.90625,-87.40234375,-9.27734375,0.0
1734582492.6333878,-13.671875,-123.046875,119.140625,1.46484375,0.0
1734582492.637294,-5.859375,-123.046875,-4.8828125,-0.9765625,0.0
1734582492.6412,-15.13671875,-126.46484375,-22.4609375,-0.48828125,0.0
1734582492.6443534,-23.92578125,-125.0,106.4453125,-5.37109375,0.0
1734582492.6482596,-17.578125,-125.9765625,79.58984375,-20.01953125,0.0
1734582492.6521657,-15.625,-123.53515625,-69.82421875,-12.20703125,0.0
1734582492.6560717,-13.671875,-107.421875,1.46484375,-12.6953125,0.0
1734582492.659978,-19.04296875,-98.6328125,105.95703125,-7.8125,0.0
1734582492.663884,-14.16015625,-107.91015625,87.40234375,0.9765625,0.0
1734582492.6677902,-16.11328125,-121.09375,-199.21875,-2.9296875,0.0
1734582492.6716962,-30.76171875,-122.0703125,-240.234375,-22.94921875,0.0
1734582492.6756022,-10.25390625,-100.5859375,213.8671875,-5.859375,0.0
1734582492.6795084,-3.90625,-82.51953125,175.78125,3.90625,0.0
1734582492.6834145,-33.203125,-96.19140625,152.83203125,-23.4375,0.0
1734582492.6873207,-18.5546875,-86.9140625,214.84375,-8.7890625,0.0
1734582492.690293,0.9765625,-68.359375,263.18359375,-5.859375,0.0
1734582492.694199,-25.390625,-85.44921875,231.4453125,-17.578125,0.0
1734582492.698105,-20.99609375,-90.33203125,204.58984375,-5.37109375,0.0
1734582492.7020113,-10.7421875,-81.54296875,299.31640625,4.39453125,0.0
1734582492.7059174,-17.578125,-87.890625,300.78125,-5.37109375,0.0
1734582492.7098236,-9.765625,-99.609375,241.69921875,-17.08984375,0.0
1734582492.7137296,-6.8359375,-90.8203125,205.078125,-21.97265625,0.0
1734582492.7176356,-10.25390625,-65.4296875,319.82421875,-5.37109375,0.0
1734582492.721542,-2.9296875,-64.453125,422.8515625,-2.9296875,0.0
1734582492.725448,-11.71875,-73.2421875,328.61328125,-4.39453125,0.0
1734582492.7293541,-27.34375,-76.171875,328.125,-8.30078125,0.0
1734582492.7332602,-8.7890625,-64.94140625,441.40625,-20.01953125,0.0
1734582492.7360158,-4.8828125,-67.87109375,457.03125,-8.7890625,0.0
1734582492.739922,-1.953125,-86.42578125,364.74609375,7.8125,0.0
1734582492.743828,5.859375,-78.61328125,367.1875,9.765625,0.0
1734582492.7477343,-16.11328125,-75.1953125,451.171875,-16.11328125,0.0
1734582492.7516403,-26.3671875,-80.56640625,456.0546875,-35.15625,0.0
1734582492.7555463,-11.71875,-79.1015625,264.6484375,-10.7421875,0.0
1734582492.7594526,-9.27734375,-63.4765625,258.30078125,-7.8125,0.0
1734582492.7633586,-24.4140625,-55.6640625,440.91796875,-24.4140625,0.0
1734582492.7672648,-30.2734375,-65.91796875,385.7421875,-18.06640625,0.0
1734582492.7711709,-25.390625,-62.01171875,430.17578125,-19.53125,0.0
1734582492.7750769,-27.34375,-57.12890625,503.41796875,-30.76171875,0.0
1734582492.778983,-25.87890625,-50.78125,512.6953125,-23.92578125,0.0
1734582492.7848175,-26.85546875,-54.19921875,458.984375,-21.484375,0.0
1734582492.7887235,-32.71484375,-69.3359375,404.78515625,-27.83203125,0.0
1734582492.7926295,-20.01953125,-60.546875,471.6796875,-16.11328125,0.0
1734582492.7965357,-18.5546875,-47.36328125,512.6953125,-14.16015625,0.0
1734582492.8004417,-22.94921875,-68.359375,441.89453125,-23.4375,0.0
1734582492.804348,-19.53125,-85.9375,335.9375,-23.92578125,0.0
1734582492.808254,-30.2734375,-70.80078125,365.234375,-38.0859375,0.0
1734582492.81216,-31.25,-48.33984375,455.56640625,-30.76171875,0.0
1734582492.8160663,-26.85546875,-52.24609375,436.03515625,-28.80859375,0.0
1734582492.8199723,-35.64453125,-70.80078125,407.2265625,-37.59765625,0.0
1734582492.8238785,-31.73828125,-69.82421875,398.92578125,-28.3203125,0.0
1734582492.8277845,-32.71484375,-58.10546875,404.78515625,-18.06640625,0.0
1734582492.8357165,-20.01953125,-64.94140625,299.31640625,-16.6015625,0.0
1734582492.8396227,10.25390625,-56.15234375,265.625,-12.6953125,0.0
1734582492.8435287,13.671875,-32.71484375,444.82421875,-0.9765625,0.0
1734582492.847435,-11.23046875,-66.40625,418.9453125,-8.30078125,0.0
1734582492.851341,-24.90234375,-80.56640625,340.8203125,-19.04296875,0.0
1734582492.855247,-14.16015625,-55.6640625,326.171875,-8.30078125,0.0
1734582492.8591533,-8.7890625,-50.78125,365.234375,-10.7421875,0.0
1734582492.8630593,-2.9296875,-60.546875,398.4375,-8.30078125,0.0
1734582492.8669655,13.671875,-66.89453125,243.65234375,6.34765625,0.0
1734582492.8708715,-10.25390625,-61.03515625,269.53125,-4.8828125,0.0
1734582492.8747778,-23.4375,-47.36328125,465.8203125,-18.5546875,0.0
1734582492.8786838,-9.765625,-50.29296875,412.59765625,-16.6015625,0.0
1734582492.8824322,2.9296875,-43.9453125,397.4609375,-3.41796875,0.0
1734582492.8863385,-6.34765625,-55.6640625,388.671875,-20.5078125,0.0
1734582492.8902445,-23.4375,-71.77734375,397.94921875,-35.15625,0.0
1734582492.8941505,-4.8828125,-67.3828125,363.76953125,-5.859375,0.0
1734582492.8980567,1.953125,-77.1484375,335.9375,-4.39453125,0.0
1734582492.9019628,-5.859375,-75.1953125,373.046875,-17.578125,0.0
1734582492.905869,-24.4140625,-64.453125,405.2734375,-32.2265625,0.0
1734582492.909775,-14.16015625,-71.77734375,399.4140625,-19.04296875,0.0
1734582492.9136813,-14.16015625,-80.56640625,356.93359375,-21.484375,0.0
1734582492.9175873,-32.2265625,-74.21875,423.33984375,-39.0625,0.0
1734582492.9214933,-24.90234375,-77.1484375,462.40234375,-26.3671875,0.0
1734582492.9253995,-24.90234375,-83.0078125,348.6328125,-31.73828125,0.0
1734582492.9287872,-20.01953125,-82.03125,312.01171875,-25.87890625,0.0
1734582492.9326932,-14.16015625,-77.63671875,457.03125,-22.94921875,0.0
1734582492.9365995,-29.296875,-89.84375,474.609375,-39.55078125,0.0
1734582492.9405055,-34.1796875,-105.46875,371.58203125,-37.109375,0.0
1734582492.9444115,-23.92578125,-103.02734375,368.1640625,-21.97265625,0.0
1734582492.9483178,-20.01953125,-89.35546875,411.1328125,-17.578125,0.0
1734582492.9522238,-32.2265625,-89.35546875,388.18359375,-37.59765625,0.0
1734582492.95613,-41.015625,-122.0703125,259.27734375,-52.24609375,0.0
1734582492.960036,-19.53125,-109.86328125,328.125,-30.76171875,0.0
1734582492.963942,-14.16015625,-75.1953125,531.25,-29.78515625,0.0
1734582492.9678483,-39.55078125,-92.28515625,465.8203125,-43.45703125,0.0
1734582492.9717543,-51.26953125,-109.375,435.546875,-51.26953125,0.0
1734582492.9809663,-34.66796875,-97.65625,479.00390625,-38.0859375,0.0
1734582492.9848726,-37.109375,-98.6328125,533.69140625,-39.0625,0.0
1734582492.9887786,-39.0625,-111.328125,480.95703125,-41.50390625,0.0
1734582492.9926848,-20.99609375,-102.05078125,445.80078125,-29.296875,0.0
1734582492.9965909,-17.08984375,-97.16796875,481.4453125,-22.4609375,0.0
1734582493.000497,-20.99609375,-102.05078125,441.89453125,-25.87890625,0.0
1734582493.004403,-16.11328125,-105.95703125,433.10546875,-32.71484375,0.0
1734582493.0083094,-27.34375,-119.62890625,412.109375,-34.66796875,0.0
1734582493.0122154,-32.71484375,-117.67578125,490.234375,-38.0859375,0.0
1734582493.0161216,-32.71484375,-108.88671875,534.66796875,-40.52734375,0.0
1734582493.0200276,-28.80859375,-104.98046875,445.3125,-32.2265625,0.0
1734582493.0239336,-11.23046875,-93.75,471.6796875,-31.73828125,0.0
1734582493.02552,-17.578125,-89.35546875,541.9921875,-41.9921875,0.0
1734582493.0294263,-16.6015625,-96.6796875,539.0625,-31.25,0.0
1734582493.0333323,-9.27734375,-112.3046875,422.8515625,-10.25390625,0.0
1734582493.0372386,-4.8828125,-117.67578125,437.98828125,-18.06640625,0.0
1734582493.0411446,-9.27734375,-105.95703125,520.99609375,-36.62109375,0.0
1734582493.0450506,-22.94921875,-115.234375,460.44921875,-37.59765625,0.0
1734582493.0489569,-26.85546875,-131.34765625,436.5234375,-35.15625,0.0
1734582493.052863,-22.94921875,-122.0703125,437.01171875,-30.2734375,0.0
1734582493.0567691,-12.20703125,-108.88671875,474.12109375,-32.2265625,0.0
1734582493.0606751,-7.32421875,-111.328125,475.09765625,-24.90234375,0.0
1734582493.0645814,4.8828125,-113.28125,366.2109375,-5.37109375,0.0
1734582493.0684874,19.04296875,-121.09375,414.0625,-2.9296875,0.0
1734582493.070083,21.97265625,-111.81640625,503.90625,-4.39453125,0.0
1734582493.073989,-9.765625,-92.28515625,419.43359375,-17.578125,0.0
1734582493.0778952,-24.4140625,-110.83984375,243.1640625,-31.25,0.0
1734582493.0818012,-15.13671875,-104.4921875,355.46875,-27.34375,0.0
1734582493.0857074,-7.32421875,-85.9375,473.6328125,-21.97265625,0.0
1734582493.0896134,-18.5546875,-98.14453125,321.77734375,-47.36328125,0.0
1734582493.0935194,-38.57421875,-113.76953125,200.68359375,-65.4296875,0.0
1734582493.0974257,-23.92578125,-120.60546875,295.41015625,-46.875,0.0
1734582493.1013317,-43.9453125,-116.69921875,406.25,-58.59375,0.0
1734582493.105238,-54.6875,-116.2109375,277.83203125,-66.40625,0.0
1734582493.109144,-48.33984375,-111.81640625,263.671875,-74.21875,0.0
1734582493.1130502,-36.62109375,-101.07421875,347.16796875,-64.453125,0.0
1734582493.1147606,-12.6953125,-107.421875,304.19921875,-41.015625,0.0
1734582493.1186666,-12.20703125,-113.76953125,264.16015625,-40.52734375,0.0
1734582493.1225727,-14.6484375,-111.81640625,312.98828125,-45.41015625,0.0
1734582493.126479,-8.30078125,-118.1640625,348.6328125,-22.94921875,0.0
1734582493.130385,-4.39453125,-136.71875,319.82421875,-12.6953125,0.0
1734582493.1342912,-9.765625,-152.34375,118.1640625,-30.2734375,0.0
1734582493.1381972,-6.34765625,-158.203125,106.93359375,-34.66796875,0.0
1734582493.1421032,-3.90625,-161.62109375,313.96484375,-26.3671875,0.0
1734582493.1460094,-12.6953125,-155.2734375,338.37890625,-35.15625,0.0
1734582493.1499155,-18.5546875,-149.90234375,204.58984375,-37.59765625,0.0
1734582493.1538217,-28.80859375,-142.08984375,246.09375,-42.96875,0.0
1734582493.1577277,-20.01953125,-137.20703125,379.39453125,-49.8046875,0.0
1734582493.1624997,-12.6953125,-146.484375,315.4296875,-40.52734375,0.0
1734582493.166406,-16.6015625,-143.06640625,295.41015625,-39.55078125,0.0
1734582493.170312,-22.4609375,-148.4375,300.29296875,-46.875,0.0
1734582493.1742182,-35.64453125,-160.64453125,297.8515625,-52.24609375,0.0
1734582493.1781242,-25.390625,-158.69140625,337.40234375,-41.015625,0.0
1734582493.1820304,-31.73828125,-169.921875,283.203125,-52.734375,0.0
1734582493.1859365,-37.109375,-157.71484375,303.22265625,-61.03515625,0.0
1734582493.1898425,-33.69140625,-136.23046875,357.421875,-55.17578125,0.0
1734582493.1937487,-30.2734375,-135.7421875,258.30078125,-51.7578125,0.0
1734582493.1976547,-28.80859375,-145.99609375,232.421875,-52.734375,0.0
1734582493.201561,-46.38671875,-144.53125,370.60546875,-71.77734375,0.0
1734582493.205467,-52.734375,-143.06640625,381.8359375,-66.89453125,0.0
1734582493.20983,-48.33984375,-144.53125,212.890625,-62.98828125,0.0
1734582493.213736,-43.9453125,-123.53515625,202.1484375,-63.4765625,0.0
1734582493.2176423,-52.24609375,-104.4921875,333.49609375,-60.546875,0.0
1734582493.2215483,-48.33984375,-123.53515625,326.171875,-53.22265625,0.0
1734582493.2254546,-14.16015625,-121.58203125,182.6171875,-24.90234375,0.0
1734582493.2293606,-9.27734375,-90.8203125,134.27734375,-18.5546875,0.0
1734582493.2332666,-23.4375,-98.6328125,128.41796875,-30.2734375,0.0
1734582493.2371728,-4.8828125,-87.890625,155.2734375,-20.99609375,0.0
1734582493.2410789,-10.7421875,-91.30859375,-61.03515625,-20.99609375,0.0
1734582493.244985,-42.48046875,-106.4453125,-164.55078125,-33.203125,0.0
1734582493.248891,-57.6171875,-90.33203125,138.671875,-36.62109375,0.0
1734582493.2527971,-45.8984375,-81.0546875,36.1328125,-39.55078125,0.0
1734582493.2567132,-37.109375,-78.125,-44.921875,-31.73828125,0.0
1734582493.2606194,-30.76171875,-83.49609375,24.4140625,-41.9921875,0.0
1734582493.2645254,-26.3671875,-80.56640625,25.390625,-42.48046875,0.0
1734582493.2684317,-12.20703125,-80.078125,-192.3828125,-32.2265625,0.0
1734582493.2723377,-10.25390625,-78.61328125,-403.3203125,-36.62109375,0.0
1734582493.2762437,-5.37109375,-61.5234375,-425.78125,-12.6953125,0.0
1734582493.28015,-5.859375,-44.43359375,-274.4140625,8.7890625,0.0
1734582493.284056,-21.484375,-54.6875,-363.76953125,-8.7890625,0.0
1734582493.2879622,-23.92578125,-83.984375,-573.73046875,-25.87890625,0.0
1734582493.2918682,-26.3671875,-71.2890625,-413.57421875,-32.2265625,0.0
1734582493.2957745,-16.6015625,-46.38671875,-338.37890625,-24.90234375,0.0
1734582493.2996805,-17.578125,-48.828125,-422.36328125,-14.16015625,0.0
1734582493.3031807,-21.97265625,-48.33984375,-470.703125,-26.3671875,0.0
1734582493.3070867,-20.5078125,-44.921875,-367.67578125,-22.94921875,0.0
1734582493.310993,-10.25390625,-57.12890625,-446.77734375,-13.18359375,0.0
1734582493.314899,-10.7421875,-62.98828125,-472.16796875,-27.83203125,0.0
1734582493.3188052,-13.18359375,-62.01171875,-437.5,-21.484375,0.0
1734582493.3227112,-6.34765625,-71.2890625,-513.18359375,-28.80859375,0.0
1734582493.3266172,-14.6484375,-64.453125,-496.09375,-36.62109375,0.0
1734582493.3305235,-43.9453125,-85.9375,-696.2890625,-24.4140625,0.0
1734582493.3344295,-47.8515625,-98.14453125,-685.05859375,-30.76171875,0.0
1734582493.3383358,-24.4140625,-70.3125,-346.19140625,-27.34375,0.0
1734582493.3422418,-33.69140625,-74.70703125,-428.22265625,-37.59765625,0.0
1734582493.346148,-37.59765625,-102.5390625,-576.171875,-61.03515625,0.0
1734582493.3495567,-25.390625,-98.14453125,-491.2109375,-32.71484375,0.0
1734582493.3534627,-36.1328125,-80.56640625,-447.75390625,-33.203125,0.0
1734582493.357369,-47.8515625,-105.95703125,-474.609375,-65.4296875,0.0
1734582493.361275,-35.15625,-115.234375,-495.1171875,-53.22265625,0.0
1734582493.365181,-38.0859375,-101.07421875,-477.5390625,-41.015625,0.0
1734582493.3690872,-57.6171875,-110.83984375,-546.875,-42.96875,0.0
1734582493.3729932,-60.05859375,-114.2578125,-592.7734375,-51.7578125,0.0
1734582493.3768995,-54.19921875,-117.1875,-591.796875,-45.41015625,0.0
1734582493.3808055,-58.59375,-108.88671875,-420.8984375,-47.8515625,0.0
1734582493.3847115,-56.15234375,-110.3515625,-362.3046875,-48.33984375,0.0
1734582493.3886178,-44.43359375,-130.37109375,-552.734375,-38.57421875,0.0
1734582493.3925238,-53.7109375,-129.39453125,-609.86328125,-44.43359375,0.0
1734582493.3953915,-58.10546875,-118.65234375,-398.92578125,-44.43359375,0.0
1734582493.3992977,-39.55078125,-124.0234375,-403.3203125,-39.55078125,0.0
1734582493.4032037,-33.203125,-123.046875,-502.9296875,-32.2265625,0.0
1734582493.4071097,-34.1796875,-109.86328125,-477.5390625,-29.78515625,0.0
1734582493.411016,-41.015625,-114.74609375,-507.32421875,-37.109375,0.0
1734582493.414922,-37.59765625,-123.046875,-528.3203125,-37.59765625,0.0
1734582493.4188282,-23.92578125,-144.53125,-652.34375,-15.625,0.0
1734582493.4227343,-33.203125,-147.4609375,-696.77734375,-16.6015625,0.0
1734582493.4266403,-27.83203125,-110.3515625,-492.67578125,-13.671875,0.0
1734582493.4305465,-18.06640625,-105.95703125,-562.98828125,-2.9296875,0.0
1734582493.4344525,-27.34375,-105.46875,-639.6484375,-31.25,0.0
1734582493.4383588,-31.73828125,-99.609375,-560.05859375,-36.62109375,0.0
1734582493.4411113,-31.25,-99.609375,-460.9375,-18.06640625,0.0
1734582493.4450173,-24.90234375,-102.5390625,-531.73828125,-13.18359375,0.0
1734582493.4489233,-22.4609375,-105.46875,-601.07421875,-22.94921875,0.0
1734582493.4528296,-24.90234375,-104.98046875,-512.6953125,-21.484375,0.0
1734582493.4567356,-31.73828125,-106.4453125,-481.93359375,-30.76171875,0.0
1734582493.4606419,-31.73828125,-106.93359375,-577.63671875,-43.45703125,0.0
1734582493.4645479,7.32421875,-100.5859375,-651.3671875,2.9296875,0.0
1734582493.468454,18.5546875,-96.19140625,-553.7109375,15.625,0.0
1734582493.4723601,-10.25390625,-104.98046875,-465.8203125,-9.765625,0.0
1734582493.4762661,-6.8359375,-118.1640625,-533.203125,-11.71875,0.0
1734582493.4801724,-11.23046875,-127.9296875,-553.22265625,-6.8359375,0.0
1734582493.4840784,-20.01953125,-126.46484375,-409.66796875,5.37109375,0.0
1734582493.4866686,-15.13671875,-136.71875,-406.73828125,-1.46484375,0.0
1734582493.4905746,-17.578125,-153.80859375,-455.56640625,-5.37109375,0.0
1734582493.4944808,-20.5078125,-165.52734375,-351.07421875,5.859375,0.0
1734582493.4983869,-7.8125,-170.41015625,-223.6328125,19.53125,0.0
1734582493.5022929,-1.953125,-173.33984375,-275.87890625,25.390625,0.0
1734582493.5061991,-7.8125,-191.40625,-495.60546875,20.5078125,0.0
1734582493.5101051,-4.39453125,-184.5703125,-479.98046875,17.08984375,0.0
1734582493.5140114,-10.25390625,-180.6640625,-236.81640625,39.0625,0.0
1734582493.5179174,-10.7421875,-180.6640625,-196.77734375,64.94140625,0.0
1734582493.5218234,-7.8125,-176.7578125,-350.09765625,64.94140625,0.0
1734582493.5257297,-13.671875,-179.19921875,-230.95703125,51.26953125,0.0
1734582493.5296357,-2.9296875,-163.57421875,102.05078125,44.921875,0.0
1734582493.5351863,0.0,-153.3203125,105.46875,39.0625,0.0
1734582493.5390925,0.0,-148.92578125,139.16015625,41.50390625,0.0
1734582493.5429986,0.0,-151.85546875,204.1015625,43.9453125,0.0
1734582493.5469048,0.0,-149.90234375,183.10546875,43.9453125,0.0
1734582493.5508108,0.0,-142.08984375,121.09375,47.36328125,0.0
1734582493.554717,0.0,-126.953125,108.3984375,23.92578125,0.0
1734582493.558623,0.0,-98.14453125,241.69921875,20.99609375,0.0
1734582493.562529,0.0,-87.890625,325.1953125,44.43359375,0.0
1734582493.5664353,0.0,-116.2109375,169.921875,50.29296875,0.0
1734582493.5703413,0.0,-151.85546875,34.66796875,28.80859375,0.0
1734582493.5742476,0.0,-134.765625,219.23828125,-9.27734375,0.0
1734582493.5781536,0.0,-90.8203125,341.30859375,1.953125,0.0
1734582493.5829737,4.39453125,-89.84375,185.546875,35.15625,0.0
1734582493.58688,-0.9765625,-87.40234375,121.09375,26.85546875,0.0
1734582493.590786,5.37109375,-77.63671875,229.98046875,16.6015625,0.0
1734582493.594692,18.06640625,-79.1015625,264.6484375,27.34375,0.0
1734582493.5985982,14.16015625,-75.68359375,201.171875,34.66796875,0.0
1734582493.6025043,7.8125,-84.47265625,171.38671875,17.578125,0.0
1734582493.6064105,3.41796875,-82.03125,189.453125,13.18359375,0.0
1734582493.6103165,-11.23046875,-68.359375,192.87109375,26.85546875,0.0
1734582493.6142228,1.953125,-73.2421875,78.125,27.83203125,0.0
1734582493.6181288,17.578125,-62.01171875,183.59375,17.578125,0.0
1734582493.6220348,-3.90625,-51.7578125,438.96484375,15.625,0.0
1734582493.625941,-0.9765625,-64.94140625,323.73046875,24.90234375,0.0
1734582493.6303334,20.5078125,-50.78125,249.51171875,24.4140625,0.0
1734582493.6342397,-3.90625,-44.921875,341.796875,2.9296875,0.0
1734582493.6381457,5.37109375,-51.26953125,458.984375,9.27734375,0.0
1734582493.642052,21.97265625,-49.31640625,423.828125,27.34375,0.0
1734582493.645958,9.765625,-42.96875,370.60546875,20.99609375,0.0
1734582493.6498642,22.4609375,-41.015625,388.18359375,14.6484375,0.0
1734582493.6537702,25.390625,-40.0390625,436.03515625,8.30078125,0.0
1734582493.6576762,19.53125,-43.45703125,543.45703125,12.20703125,0.0
1734582493.6615825,6.8359375,-66.89453125,545.41015625,37.109375,0.0
1734582493.6654885,-1.46484375,-70.3125,591.796875,40.52734375,0.0
1734582493.6693947,7.8125,-48.828125,598.6328125,14.6484375,0.0
1734582493.6733007,8.7890625,-30.2734375,540.0390625,23.4375,0.0
1734582493.6771038,-7.8125,-38.0859375,604.4921875,47.36328125,0.0
1734582493.6810098,7.8125,-37.109375,657.71484375,50.29296875,0.0
1734582493.6849158,14.16015625,-37.59765625,610.3515625,41.9921875,0.0
1734582493.688822,10.7421875,-53.7109375,483.3984375,20.99609375,0.0
1734582493.692728,1.953125,-52.734375,501.953125,31.25,0.0
1734582493.6966343,3.41796875,-56.640625,555.6640625,35.64453125,0.0
1734582493.7005403,4.8828125,-49.8046875,553.7109375,32.71484375,0.0
1734582493.7044463,14.6484375,-56.15234375,386.71875,23.92578125,0.0
1734582493.7083526,30.76171875,-53.22265625,351.07421875,20.5078125,0.0
1734582493.7122586,19.53125,-59.5703125,530.76171875,61.5234375,0.0
1734582493.7161648,38.57421875,-58.59375,538.57421875,77.63671875,0.0
1734582493.7200708,26.3671875,-28.3203125,541.50390625,24.90234375,0.0
1734582493.7234743,9.27734375,-37.109375,526.85546875,-14.6484375,0.0
1734582493.7273805,14.16015625,-52.24609375,509.765625,0.48828125,0.0
1734582493.7312865,-15.13671875,-48.828125,455.078125,-16.6015625,0.0
1734582493.7351928,-53.7109375,-41.50390625,453.125,-59.5703125,0.0
1734582493.7390988,-89.35546875,-30.76171875,520.99609375,-71.2890625,0.0
1734582493.7430048,-98.14453125,-28.3203125,489.2578125,-72.75390625,0.0
1734582493.746911,-101.07421875,-6.8359375,372.0703125,-115.234375,0.0
1734582493.750817,-88.8671875,23.92578125,250.48828125,-127.9296875,0.0
1734582493.7547233,-94.7265625,40.0390625,382.32421875,-103.02734375,0.0
1734582493.7586293,-118.1640625,52.734375,487.79296875,-134.27734375,0.0
1734582493.7625356,-88.8671875,54.19921875,302.734375,-138.671875,0.0
1734582493.7664416,-70.80078125,59.5703125,222.65625,-136.23046875,0.0
1734582493.7697074,-68.84765625,53.22265625,260.25390625,-127.44140625,0.0
1734582493.7736137,-80.078125,46.875,242.1875,-136.71875,0.0
1734582493.7775197,-47.8515625,53.22265625,138.671875,-117.67578125,0.0
1734582493.7814257,-24.90234375,23.4375,97.16796875,-89.84375,0.0
1734582493.785332,-38.0859375,0.0,126.46484375,-83.984375,0.0
1734582493.789238,-14.6484375,40.0390625,-84.9609375,-68.84765625,0.0
1734582493.7931442,-49.8046875,47.8515625,-429.6875,-71.77734375,0.0
1734582493.7970502,-107.421875,5.859375,-283.203125,-91.30859375,0.0
1734582493.8009562,-108.3984375,8.7890625,-21.484375,-102.5390625,0.0
1734582493.8048625,-87.40234375,30.76171875,-333.49609375,-79.58984375,0.0
1734582493.8087685,-67.3828125,32.2265625,-506.8359375,-69.82421875,0.0
1734582493.8126748,-53.7109375,43.45703125,-498.53515625,-59.5703125,0.0
1734582493.8157692,-37.59765625,17.08984375,-395.5078125,-52.734375,0.0
1734582493.8196754,-24.4140625,44.921875,-453.61328125,-59.08203125,0.0
1734582493.8235815,-50.29296875,99.609375,-618.1640625,-88.37890625,0.0
1734582493.8274877,-62.5,127.44140625,-684.08203125,-80.56640625,0.0
1734582493.8313937,-31.73828125,143.06640625,-766.6015625,-55.17578125,0.0
1734582493.8352997,-29.296875,143.5546875,-848.14453125,-64.453125,0.0
1734582493.839206,-62.01171875,168.45703125,-868.1640625,-79.1015625,0.0
1734582493.843112,-66.40625,213.37890625,-885.7421875,-80.56640625,0.0
1734582493.8470182,-35.64453125,237.3046875,-947.75390625,-53.22265625,0.0
1734582493.8509243,-26.85546875,256.34765625,-984.375,-29.78515625,0.0
1734582493.8548303,-41.015625,304.19921875,-999.51171875,-52.734375,0.0
1734582493.8587365,-39.55078125,370.1171875,-999.51171875,-68.359375,0.0
1734582493.8675067,-11.71875,353.515625,-1000.0,-33.69140625,0.0
1734582493.8714128,-5.37109375,342.7734375,-1000.0,-23.4375,0.0
1734582493.875319,-36.1328125,459.47265625,-1000.0,-51.26953125,0.0
1734582493.879225,-56.640625,551.7578125,-1000.0,-53.22265625,0.0
1734582493.8831313,-65.91796875,582.03125,-1000.0,-66.40625,0.0
1734582493.8870373,-78.61328125,615.234375,-1000.0,-83.49609375,0.0
1734582493.8909433,-65.4296875,706.0546875,-1000.0,-78.125,0.0
1734582493.8948495,-57.6171875,808.10546875,-1000.0,-63.96484375,0.0
1734582493.8987556,-59.08203125,878.41796875,-1000.0,-62.98828125,0.0
1734582493.9026618,-46.875,942.87109375,-1000.0,-69.3359375,0.0
1734582493.9065678,-48.828125,970.703125,-1000.0,-83.984375,0.0
1734582493.910474,-39.55078125,968.26171875,-1000.0,-61.03515625,0.0
1734582493.9148405,-19.53125,969.23828125,-1000.0,-41.9921875,0.0
1734582493.9187465,2.9296875,969.7265625,-1000.0,-63.4765625,0.0
1734582493.9226527,-15.625,969.23828125,-1000.0,-73.73046875,0.0
1734582493.9265587,-43.9453125,969.23828125,-1000.0,-70.80078125,0.0
1734582493.930465,-30.2734375,969.23828125,-1000.0,-64.453125,0.0
1734582493.934371,-39.0625,969.23828125,-1000.0,-80.56640625,0.0
1734582493.9382772,-76.171875,969.23828125,-1000.0,-73.73046875,0.0
1734582493.9421833,-41.50390625,969.7265625,-1000.0,-62.01171875,0.0
1734582493.9460895,-27.34375,969.23828125,-1000.0,-65.91796875,0.0
1734582493.9499955,-37.109375,969.23828125,-1000.0,-69.3359375,0.0
1734582493.9539015,-49.8046875,969.23828125,-1000.0,-72.265625,0.0
1734582493.9578078,-59.5703125,969.23828125,-1000.0,-67.3828125,0.0
1734582493.9618337,-66.89453125,969.23828125,-1000.0,-73.73046875,0.0
1734582493.9657397,-35.15625,969.7265625,-1000.0,-79.1015625,0.0
1734582493.969646,-47.36328125,968.75,-1000.0,-85.44921875,0.0
1734582493.973552,-74.70703125,969.7265625,-1000.0,-73.73046875,0.0
1734582493.9774582,-43.9453125,966.796875,-1000.0,-72.265625,0.0
1734582493.9813643,-27.34375,950.1953125,-1000.0,-71.2890625,0.0
1734582493.9852705,-49.8046875,950.1953125,-1000.0,-63.96484375,0.0
1734582493.9891765,-83.49609375,928.22265625,-1000.0,-89.84375,0.0
1734582493.9930825,-82.03125,884.765625,-1000.0,-66.89453125,0.0
1734582493.9969888,-53.7109375,876.46484375,-1000.0,-82.03125,0.0
1734582494.0008948,-52.734375,854.98046875,-1000.0,-94.23828125,0.0
1734582494.004801,-58.59375,824.70703125,-1000.0,-47.8515625,0.0
1734582494.0083027,-67.3828125,819.82421875,-1000.0,-59.08203125,0.0
1734582494.0122087,-98.6328125,826.171875,-1000.0,-79.1015625,0.0
1734582494.016115,-75.1953125,839.35546875,-1000.0,-77.1484375,0.0
1734582494.020021,-22.4609375,830.078125,-1000.0,-71.2890625,0.0
1734582494.0239272,-38.0859375,806.640625,-1000.0,-52.734375,0.0
1734582494.0278332,-57.12890625,776.85546875,-1000.0,-45.8984375,0.0
1734582494.0317395,-45.41015625,724.12109375,-1000.0,-57.6171875,0.0
1734582494.0356455,-63.4765625,667.96875,-1000.0,-62.98828125,0.0
1734582494.0395515,-55.6640625,647.94921875,-1000.0,-64.94140625,0.0
1734582494.0434577,-44.921875,665.52734375,-1000.0,-69.3359375,0.0
1734582494.0473638,-82.03125,660.15625,-1000.0,-74.70703125,0.0
1734582494.05127,-85.44921875,645.99609375,-1000.0,-73.2421875,0.0
1734582494.0544736,-90.33203125,662.109375,-1000.0,-58.59375,0.0
1734582494.0583797,-69.3359375,733.3984375,-1000.0,-46.875,0.0
1734582494.062286,-21.484375,784.1796875,-1000.0,-50.78125,0.0
1734582494.066192,-38.57421875,788.0859375,-1000.0,-64.453125,0.0
1734582494.0700982,-85.9375,812.98828125,-1000.0,-70.80078125,0.0
1734582494.0740042,-78.61328125,875.0,-1000.0,-76.171875,0.0
1734582494.0779102,-70.3125,917.48046875,-1000.0,-57.12890625,0.0
1734582494.0818164,-60.546875,942.3828125,-1000.0,-44.43359375,0.0
1734582494.0857224,-63.96484375,963.37890625,-1000.0,-42.96875,0.0
1734582494.0896287,-48.828125,970.703125,-1000.0,-62.5,0.0
1734582494.0935347,-32.2265625,968.75,-1000.0,-70.80078125,0.0
1734582494.097441,-20.01953125,969.7265625,-1000.0,-50.78125,0.0
1734582494.1004243,-12.20703125,969.23828125,-1000.0,-43.9453125,0.0
1734582494.1043305,-53.7109375,969.23828125,-1000.0,-45.41015625,0.0
1734582494.1082366,-65.4296875,969.7265625,-1000.0,-40.0390625,0.0
1734582494.1121426,-67.3828125,969.7265625,-1000.0,-17.08984375,0.0
1734582494.1160488,-83.49609375,969.7265625,-1000.0,-39.55078125,0.0
1734582494.1199548,-80.56640625,969.23828125,-1000.0,-79.58984375,0.0
1734582494.123861,-86.42578125,969.23828125,-1000.0,-39.55078125,0.0
1734582494.127767,-64.453125,969.23828125,-1000.0,-40.0390625,0.0
1734582494.1316733,-66.40625,969.23828125,-1000.0,-57.12890625,0.0
1734582494.1355793,-93.75,969.7265625,-1000.0,-72.265625,0.0
1734582494.1394854,-55.17578125,969.23828125,-1000.0,-78.61328125,0.0
1734582494.1433916,-1.953125,969.23828125,-1000.0,-41.50390625,0.0
1734582494.146132,-44.43359375,969.23828125,-1000.0,-68.84765625,0.0
1734582494.150038,-75.68359375,969.7265625,-1000.0,-72.75390625,0.0
1734582494.1539443,-99.12109375,968.26171875,-1000.0,-60.546875,0.0
1734582494.1578503,-111.328125,969.7265625,-1000.0,-62.01171875,0.0
1734582494.1617565,-54.6875,958.49609375,-1000.0,-65.4296875,0.0
1734582494.1656625,-50.29296875,921.38671875,-1000.0,-48.33984375,0.0
1734582494.1695685,-93.75,868.1640625,-1000.0,-13.18359375,0.0
1734582494.1734748,-78.61328125,874.0234375,-1000.0,1.46484375,0.0
1734582494.1773808,-69.3359375,893.5546875,-1000.0,-13.18359375,0.0
1734582494.181287,-112.3046875,860.83984375,-1000.0,-22.4609375,0.0
1734582494.185193,-110.83984375,828.125,-1000.0,-42.48046875,0.0
1734582494.189099,-104.98046875,834.47265625,-1000.0,-64.453125,0.0
1734582494.1947656,-75.68359375,810.546875,-1000.0,-55.6640625,0.0
1734582494.1986718,-74.70703125,785.15625,-1000.0,-37.109375,0.0
1734582494.2025778,-85.44921875,786.1328125,-1000.0,-13.671875,0.0
1734582494.206484,-58.59375,788.57421875,-1000.0,-34.66796875,0.0
1734582494.21039,-101.5625,777.34375,-1000.0,-63.96484375,0.0
1734582494.2142963,-126.46484375,772.4609375,-1000.0,-94.23828125,0.0
1734582494.2182024,-128.41796875,801.7578125,-1000.0,-97.16796875,0.0
1734582494.2221084,-116.2109375,791.50390625,-1000.0,-87.890625,0.0
1734582494.2260146,-106.93359375,765.625,-1000.0,-126.953125,0.0
1734582494.2299206,-154.296875,786.62109375,-1000.0,-127.44140625,0.0
1734582494.2338269,-173.828125,802.734375,-1000.0,-122.0703125,0.0
1734582494.237733,-148.92578125,796.875,-1000.0,-131.34765625,0.0
1734582494.2395725,-155.76171875,838.8671875,-1000.0,-145.99609375,0.0
1734582494.2434785,-161.1328125,858.88671875,-1000.0,-142.578125,0.0
1734582494.2473848,-134.765625,842.7734375,-1000.0,-127.44140625,0.0
1734582494.2512908,-136.23046875,860.83984375,-1000.0,-155.2734375,0.0
1734582494.255197,-149.90234375,849.12109375,-1000.0,-154.78515625,0.0
1734582494.259103,-154.78515625,827.1484375,-1000.0,-127.9296875,0.0
1734582494.263009,-147.4609375,864.2578125,-1000.0,-115.234375,0.0
1734582494.2669153,-156.73828125,853.515625,-1000.0,-113.76953125,0.0
1734582494.2708213,-151.85546875,799.8046875,-1000.0,-104.00390625,0.0
1734582494.2747276,-126.46484375,792.96875,-1000.0,-110.83984375,0.0
1734582494.2786336,-111.328125,783.203125,-1000.0,-114.2578125,0.0
1734582494.2825396,-99.609375,769.53125,-1000.0,-117.1875,0.0
1734582494.2875636,-117.1875,724.609375,-1000.0,-99.12109375,0.0
1734582494.2914696,-106.4453125,702.1484375,-1000.0,-56.640625,0.0
1734582494.2953758,-71.77734375,669.921875,-1000.0,-56.640625,0.0
1734582494.2992818,-84.47265625,662.109375,-1000.0,-90.33203125,0.0
1734582494.303188,-41.015625,630.859375,-1000.0,-56.15234375,0.0
1734582494.307094,-12.20703125,584.47265625,-1000.0,-49.31640625,0.0
1734582494.3110003,-58.10546875,559.5703125,-1000.0,-76.171875,0.0
1734582494.3149064,-30.76171875,529.78515625,-1000.0,-67.3828125,0.0
1734582494.3188124,-2.44140625,490.234375,-1000.0,-51.26953125,0.0
1734582494.3227186,-20.5078125,454.1015625,-1000.0,-54.6875,0.0
1734582494.3266246,-10.7421875,430.6640625,-1000.0,-40.52734375,0.0
1734582494.330531,-1.953125,378.90625,-1000.0,-33.69140625,0.0
1734582494.3349037,-10.7421875,390.625,-1000.0,-44.43359375,0.0
1734582494.33881,-2.44140625,362.3046875,-1000.0,-32.2265625,0.0
1734582494.342716,30.2734375,297.8515625,-1000.0,-28.3203125,0.0
1734582494.346622,0.48828125,284.1796875,-1000.0,-38.0859375,0.0
1734582494.3505282,-17.08984375,244.62890625,-1000.0,-37.109375,0.0
1734582494.3544343,35.64453125,227.5390625,-1000.0,-1.46484375,0.0
1734582494.3583405,44.921875,194.82421875,-1000.0,14.16015625,0.0
1734582494.3622465,16.6015625,169.43359375,-1000.0,0.0,0.0
1734582494.3661528,40.0390625,177.24609375,-1000.0,12.6953125,0.0
1734582494.3700588,43.9453125,167.96875,-1000.0,4.39453125,0.0
1734582494.3739648,-4.8828125,132.32421875,-1000.0,-21.484375,0.0
1734582494.377871,28.80859375,96.6796875,-1000.0,2.9296875,0.0
1734582494.3818705,62.5,82.51953125,-1000.0,21.97265625,0.0
1734582494.3857765,74.70703125,82.51953125,-1000.0,3.41796875,0.0
1734582494.3896828,58.59375,61.03515625,-1000.0,-3.41796875,0.0
1734582494.3935888,47.8515625,55.6640625,-1000.0,1.46484375,0.0
1734582494.397495,60.546875,72.75390625,-1000.0,-1.953125,0.0
1734582494.401401,71.2890625,56.640625,-1000.0,9.765625,0.0
1734582494.405307,64.453125,61.03515625,-1000.0,-10.25390625,0.0
1734582494.4092133,38.0859375,60.546875,-1000.0,-19.04296875,0.0
1734582494.4131193,18.5546875,-0.9765625,-1000.0,18.06640625,0.0
1734582494.4170256,24.90234375,2.44140625,-1000.0,4.39453125,0.0
1734582494.4209316,49.8046875,-17.578125,-1000.0,-3.90625,0.0
1734582494.4248378,59.5703125,-38.0859375,-1000.0,-2.44140625,0.0
1734582494.4283023,56.15234375,-13.18359375,-1000.0,3.41796875,0.0
1734582494.4322085,35.64453125,-17.08984375,-1000.0,0.48828125,0.0
1734582494.4361145,36.62109375,-20.5078125,-1000.0,-18.06640625,0.0
1734582494.4400208,38.0859375,0.0,-1000.0,-21.97265625,0.0
1734582494.4439268,17.578125,14.6484375,-1000.0,-22.94921875,0.0
1734582494.447833,40.0390625,-15.625,-1000.0,1.953125,0.0
1734582494.451739,48.33984375,-32.71484375,-1000.0,-9.27734375,0.0
1734582494.455645,29.78515625,-5.859375,-1000.0,-30.2734375,0.0
1734582494.4595513,57.6171875,0.48828125,-1000.0,-18.06640625,0.0
1734582494.4634573,62.98828125,11.71875,-1000.0,6.34765625,0.0
1734582494.4673636,81.0546875,44.43359375,-1000.0,41.50390625,0.0
1734582494.4712696,72.75390625,56.15234375,-1000.0,7.32421875,0.0
1734582494.474448,59.08203125,100.5859375,-1000.0,-2.9296875,0.0
1734582494.478354,91.30859375,145.01953125,-1000.0,29.296875,0.0
1734582494.4822602,88.37890625,170.41015625,-1000.0,30.76171875,0.0
1734582494.4861662,107.91015625,223.14453125,-1000.0,52.24609375,0.0
1734582494.4900723,153.80859375,306.640625,-1000.0,89.84375,0.0
1734582494.4939785,169.921875,380.859375,-998.53515625,101.5625,0.0
1734582494.4978845,183.59375,444.82421875,-1000.0,95.703125,0.0
1734582494.5017908,238.76953125,487.3046875,-987.79296875,131.34765625,0.0
1734582494.5056968,262.20703125,552.24609375,-971.19140625,138.671875,0.0
1734582494.5096028,301.26953125,608.3984375,-980.46875,155.76171875,0.0
1734582494.513509,363.28125,673.33984375,-974.609375,213.8671875,0.0
1734582494.517415,387.20703125,738.76953125,-1000.0,250.48828125,0.0
1734582494.5204043,387.20703125,777.34375,-134.765625,237.79296875,0.0
1734582494.5243106,350.09765625,803.22265625,912.59765625,207.51953125,0.0
1734582494.5282166,316.40625,808.59375,929.6875,183.59375,0.0
1734582494.5321229,286.62109375,810.546875,945.3125,122.55859375,0.0
1734582494.5360289,214.84375,781.73828125,976.07421875,45.41015625,0.0
1734582494.539935,139.6484375,703.125,968.75,-34.1796875,0.0
1734582494.5438411,45.8984375,618.1640625,969.7265625,-121.09375,0.0
1734582494.5477471,-60.05859375,563.4765625,969.23828125,-191.89453125,0.0
1734582494.5516534,-131.34765625,470.703125,969.23828125,-290.52734375,0.0
1734582494.5555594,-217.7734375,371.09375,969.23828125,-400.87890625,0.0
1734582494.5594656,-296.38671875,287.109375,969.23828125,-457.51953125,0.0
1734582494.5633717,-317.87109375,196.77734375,969.23828125,-485.83984375,0.0
1734582494.566115,-360.83984375,134.765625,969.23828125,-526.3671875,0.0
1734582494.570021,-432.6171875,67.87109375,969.23828125,-577.1484375,0.0
1734582494.573927,-478.02734375,0.9765625,969.23828125,-601.5625,0.0
1734582494.5778332,-495.60546875,-55.17578125,969.23828125,-586.42578125,0.0
1734582494.5817392,-496.09375,-135.25390625,969.23828125,-558.59375,0.0
1734582494.5856454,-492.1875,-192.87109375,969.7265625,-570.80078125,0.0
1734582494.5895514,-485.83984375,-237.79296875,968.75,-585.9375,0.0
1734582494.5934575,-520.5078125,-298.828125,969.23828125,-571.77734375,0.0
1734582494.5973637,-531.73828125,-341.796875,968.75,-557.12890625,0.0
1734582494.6012697,-504.39453125,-387.20703125,955.078125,-539.55078125,0.0
1734582494.605176,-499.0234375,-426.7578125,945.3125,-527.34375,0.0
1734582494.609082,-473.14453125,-443.359375,942.87109375,-503.90625,0.0
1734582494.6116858,-424.31640625,-426.26953125,932.6171875,-460.44921875,0.0
1734582494.615592,-413.57421875,-444.82421875,908.203125,-415.52734375,0.0
1734582494.619498,-405.76171875,-473.6328125,894.04296875,-404.296875,0.0
1734582494.6234043,-348.14453125,-444.82421875,881.34765625,-373.53515625,0.0
1734582494.6273103,-333.0078125,-428.7109375,865.234375,-345.21484375,0.0
1734582494.6312163,-323.2421875,-433.10546875,833.0078125,-336.42578125,0.0
1734582494.6351225,-318.84765625,-430.6640625,814.453125,-320.80078125,0.0
1734582494.6390285,-303.7109375,-430.17578125,800.78125,-297.36328125,0.0
1734582494.6429348,-264.6484375,-419.921875,772.4609375,-259.27734375,0.0
1734582494.6468408,-253.90625,-401.3671875,571.2890625,-237.3046875,0.0
1734582494.6507468,-237.3046875,-386.23046875,493.65234375,-226.07421875,0.0
1734582494.654653,-225.5859375,-360.83984375,510.25390625,-208.49609375,0.0
1734582494.6602604,-226.5625,-356.4453125,347.65625,-204.1015625,0.0
1734582494.6641665,-182.6171875,-353.515625,149.4140625,-188.96484375,0.0
1734582494.6680727,-144.53125,-344.7265625,58.59375,-152.83203125,0.0
1734582494.6719787,-158.203125,-332.51953125,32.2265625,-138.18359375,0.0
1734582494.6758847,-155.2734375,-315.91796875,-202.63671875,-139.16015625,0.0
1734582494.679791,-140.625,-315.4296875,-517.08984375,-124.0234375,0.0
1734582494.683697,-120.1171875,-302.734375,-576.171875,-98.14453125,0.0
1734582494.6876032,-116.69921875,-282.71484375,-608.3984375,-101.07421875,0.0
1734582494.6915092,-111.81640625,-282.71484375,-772.4609375,-97.65625,0.0
1734582494.6954153,-97.65625,-281.25,-859.375,-77.63671875,0.0
1734582494.6993215,-76.66015625,-254.8828125,-828.61328125,-71.2890625,0.0
1734582494.7032275,-74.70703125,-247.55859375,-896.484375,-69.82421875,0.0
1734582494.7079961,-77.1484375,-249.51171875,-920.8984375,-59.08203125,0.0
1734582494.7119024,-48.33984375,-233.88671875,-941.40625,-38.57421875,0.0
1734582494.7158084,-53.7109375,-226.5625,-929.6875,-37.109375,0.0
1734582494.7197146,-60.05859375,-209.47265625,-946.2890625,-28.80859375,0.0
1734582494.7236207,-53.7109375,-187.5,-977.5390625,-18.06640625,0.0
1734582494.7275267,-61.03515625,-203.61328125,-979.98046875,-40.52734375,0.0
1734582494.731433,-45.41015625,-214.35546875,-980.46875,-16.11328125,0.0
1734582494.735339,-35.15625,-182.6171875,-959.47265625,-7.8125,0.0
1734582494.7392452,-32.71484375,-165.0390625,-981.4453125,-6.34765625,0.0
1734582494.7431512,-15.13671875,-169.921875,-981.93359375,10.25390625,0.0
1734582494.7470574,-31.25,-162.109375,-918.9453125,8.30078125,0.0
1734582494.7509634,-35.15625,-149.4140625,-933.59375,-0.48828125,0.0
1734582494.7551625,-17.578125,-148.92578125,-932.12890625,-29.78515625,0.0
1734582494.7590685,-16.6015625,-137.6953125,-906.25,-35.64453125,0.0
1734582494.7629747,-14.6484375,-114.2578125,-912.109375,-25.390625,0.0
1734582494.7668808,-10.7421875,-109.86328125,-915.52734375,-15.13671875,0.0
1734582494.770787,-16.11328125,-112.3046875,-927.734375,-11.71875,0.0
1734582494.774693,-2.9296875,-83.984375,-901.3671875,-4.8828125,0.0
1734582494.778599,6.34765625,-62.5,-840.8203125,15.625,0.0
1734582494.7825053,15.13671875,-52.734375,-865.234375,30.2734375,0.0
1734582494.7864113,37.109375,-45.41015625,-844.23828125,45.41015625,0.0
1734582494.7903175,23.92578125,-41.015625,-702.63671875,29.78515625,0.0
1734582494.7942235,24.4140625,-44.921875,-593.75,30.76171875,0.0
1734582494.7981296,34.1796875,-28.80859375,-679.19921875,50.29296875,0.0
1734582494.8020942,20.5078125,7.32421875,-682.12890625,28.80859375,0.0
1734582494.8060005,36.62109375,41.9921875,-486.81640625,44.921875,0.0
1734582494.8099065,31.73828125,62.98828125,-525.87890625,63.96484375,0.0
1734582494.8138127,42.48046875,66.89453125,-534.66796875,56.640625,0.0
1734582494.8177187,55.17578125,71.2890625,-491.69921875,39.0625,0.0
1734582494.8216248,27.83203125,81.0546875,-534.1796875,12.6953125,0.0
1734582494.825531,3.41796875,115.72265625,-552.734375,4.8828125,0.0
1734582494.829437,-12.20703125,134.765625,-743.65234375,-7.32421875,0.0
1734582494.8333433,-14.16015625,127.9296875,-764.16015625,-35.64453125,0.0
1734582494.8372493,-61.5234375,147.4609375,-595.21484375,-53.22265625,0.0
1734582494.8411555,-71.77734375,151.85546875,-723.6328125,-31.73828125,0.0
1734582494.8450615,-35.64453125,172.36328125,-728.515625,-8.30078125,0.0
1734582494.8485548,-24.90234375,192.3828125,-695.80078125,-8.7890625,0.0
1734582494.8524609,-40.0390625,182.6171875,-693.84765625,-27.83203125,0.0
1734582494.856367,-22.4609375,200.68359375,-704.58984375,-29.296875,0.0
1734582494.8602731,-2.9296875,236.81640625,-716.30859375,-20.5078125,0.0
1734582494.8641791,2.44140625,194.82421875,-709.47265625,-2.9296875,0.0
1734582494.8680854,-22.4609375,141.6015625,-774.90234375,-16.6015625,0.0
1734582494.8719914,-40.52734375,164.0625,-801.7578125,-46.38671875,0.0
1734582494.8758976,-44.43359375,149.4140625,-756.8359375,-20.99609375,0.0
1734582494.8798037,-48.828125,113.76953125,-651.3671875,-20.01953125,0.0
1734582494.8837097,-49.31640625,96.6796875,-679.19921875,-18.5546875,0.0
1734582494.887616,-39.55078125,54.6875,-812.5,-12.6953125,0.0
1734582494.891522,-23.92578125,52.734375,-874.51171875,-33.69140625,0.0
1734582494.8945456,-23.92578125,41.015625,-796.875,-38.0859375,0.0
1734582494.8984516,-34.1796875,-22.4609375,-793.45703125,-28.3203125,0.0
1734582494.9023576,-37.109375,-34.1796875,-837.890625,-17.578125,0.0
1734582494.9062638,-21.97265625,-36.1328125,-860.3515625,-2.9296875,0.0
1734582494.9101698,-12.20703125,-58.10546875,-881.34765625,-2.9296875,0.0
1734582494.914076,-7.32421875,-65.4296875,-881.34765625,-18.06640625,0.0
1734582494.917982,-18.5546875,-69.3359375,-929.6875,-13.671875,0.0
1734582494.9218884,-26.85546875,-83.49609375,-947.265625,-10.7421875,0.0
1734582494.9257944,-15.13671875,-115.234375,-858.88671875,-2.9296875,0.0
1734582494.9297004,-4.39453125,-119.62890625,-881.8359375,13.671875,0.0
1734582494.9336066,-11.23046875,-99.12109375,-876.953125,29.78515625,0.0
1734582494.9375126,-12.6953125,-126.953125,-843.75,45.8984375,0.0
1734582494.9404883,0.9765625,-148.92578125,-838.37890625,43.9453125,0.0
1734582494.9443944,7.8125,-150.87890625,-838.8671875,34.66796875,0.0
1734582494.9483006,-1.953125,-149.4140625,-880.37109375,26.85546875,0.0
1734582494.9522066,-3.90625,-159.1796875,-821.77734375,21.97265625,0.0
1734582494.9561129,16.6015625,-176.26953125,-750.48828125,34.66796875,0.0
1734582494.9600189,27.34375,-182.6171875,-782.2265625,46.38671875,0.0
1734582494.963925,27.34375,-196.2890625,-880.859375,47.36328125,0.0
1734582494.9678311,14.16015625,-180.17578125,-815.91796875,45.8984375,0.0
1734582494.9717371,4.8828125,-168.45703125,-544.921875,60.546875,0.0
1734582494.9756434,9.27734375,-166.9921875,-634.27734375,55.17578125,0.0
1734582494.9795494,11.23046875,-156.73828125,-682.6171875,18.06640625,0.0
1734582494.9834554,17.08984375,-191.89453125,-533.69140625,31.25,0.0
1734582494.9862351,1.953125,-209.47265625,-516.11328125,53.22265625,0.0
1734582494.9901412,-0.9765625,-201.171875,-564.453125,52.24609375,0.0
1734582494.9940472,4.39453125,-206.0546875,-504.8828125,49.31640625,0.0
1734582494.9979534,1.46484375,-208.984375,-359.375,36.62109375,0.0
1734582495.0018594,-4.39453125,-221.19140625,-382.8125,17.578125,0.0
1734582495.0057657,-6.34765625,-229.98046875,-561.03515625,22.94921875,0.0
1734582495.0096717,8.30078125,-216.796875,-507.8125,40.52734375,0.0
1734582495.0135777,3.90625,-194.82421875,-287.59765625,27.34375,0.0
1734582495.017484,-7.32421875,-195.3125,-278.80859375,16.11328125,0.0
1734582495.02139,1.46484375,-210.44921875,-326.66015625,18.06640625,0.0
1734582495.025296,16.6015625,-194.82421875,-111.81640625,25.87890625,0.0
1734582495.0292022,7.32421875,-195.3125,124.51171875,26.3671875,0.0
1734582495.034829,3.90625,-213.37890625,88.37890625,19.53125,0.0
1734582495.038735,-23.92578125,-178.7109375,76.66015625,10.25390625,0.0
1734582495.042641,-23.4375,-187.01171875,140.625,13.671875,0.0
1734582495.0465472,5.37109375,-213.37890625,162.59765625,4.39453125,0.0
1734582495.0504532,11.71875,-201.66015625,109.86328125,17.578125,0.0
1734582495.0543594,-0.48828125,-177.24609375,29.296875,30.76171875,0.0
1734582495.0582654,-3.41796875,-169.43359375,119.62890625,17.08984375,0.0
1734582495.0621715,6.34765625,-165.52734375,216.30859375,5.859375,0.0
1734582495.0660777,9.765625,-154.78515625,91.30859375,4.39453125,0.0
1734582495.0699837,6.34765625,-159.66796875,-39.0625,10.7421875,0.0
1734582495.07389,12.6953125,-150.87890625,138.18359375,28.3203125,0.0
1734582495.077796,8.30078125,-156.25,234.86328125,43.45703125,0.0
1734582495.0827067,-20.01953125,-156.73828125,71.77734375,8.7890625,0.0
1734582495.086613,-14.16015625,-140.13671875,62.98828125,11.71875,0.0
1734582495.090519,-18.06640625,-154.296875,169.921875,35.15625,0.0
1734582495.094425,-75.1953125,-167.48046875,155.76171875,-15.625,0.0
1734582495.0983312,-91.796875,-186.03515625,39.55078125,-62.98828125,0.0
1734582495.1022372,-67.87109375,-201.66015625,-27.83203125,-37.59765625,0.0
1734582495.1061435,-95.703125,-203.61328125,8.7890625,-27.34375,0.0
1734582495.1100495,-101.5625,-207.03125,81.54296875,-20.99609375,0.0
1734582495.1139555,-91.30859375,-203.61328125,-168.45703125,-14.16015625,0.0
1734582495.1178617,-107.421875,-183.59375,-226.5625,-49.31640625,0.0
1734582495.1217678,-86.42578125,-161.1328125,127.9296875,-72.265625,0.0
1734582495.125674,-75.68359375,-145.5078125,-39.55078125,-63.96484375,0.0
1734582495.1330364,-64.453125,-154.296875,-222.16796875,-44.43359375,0.0
1734582495.1369424,-47.36328125,-161.1328125,-247.55859375,-39.0625,0.0
1734582495.1408486,-40.0390625,-128.41796875,-289.0625,-39.0625,0.0
1734582495.1447546,-55.6640625,-122.55859375,-449.70703125,-13.671875,0.0
1734582495.148661,-55.17578125,-114.2578125,-620.60546875,-9.27734375,0.0
1734582495.152567,-29.78515625,-95.21484375,-758.30078125,-0.9765625,0.0
1734582495.156473,-55.17578125,-85.9375,-806.15234375,9.27734375,0.0
1734582495.1603792,-53.22265625,-67.3828125,-889.6484375,16.6015625,0.0
1734582495.1642852,-7.8125,-54.6875,-966.30859375,28.3203125,0.0
1734582495.1681914,-15.13671875,-41.9921875,-951.171875,19.53125,0.0
1734582495.1720974,-5.859375,-41.015625,-973.6328125,27.34375,0.0
1734582495.1760037,27.83203125,-26.85546875,-989.2578125,30.76171875,0.0
1734582495.179247,40.52734375,-0.9765625,-991.2109375,20.01953125,0.0
1734582495.183153,6.8359375,20.99609375,-988.28125,37.59765625,0.0
1734582495.187059,11.23046875,18.06640625,-993.65234375,82.51953125,0.0
1734582495.1909652,24.90234375,10.25390625,-990.234375,59.08203125,0.0
1734582495.1948712,-17.578125,11.71875,-991.69921875,22.4609375,0.0
1734582495.1987774,5.37109375,-2.9296875,-1000.0,13.18359375,0.0
1734582495.2026834,-17.08984375,10.25390625,-1000.0,14.6484375,0.0
1734582495.2065897,-5.859375,37.59765625,-998.046875,35.15625,0.0
1734582495.2104957,5.37109375,62.01171875,-989.2578125,29.296875,0.0
1734582495.2144017,-6.8359375,81.0546875,-986.328125,27.34375,0.0
1734582495.218308,-3.41796875,79.1015625,-979.98046875,19.04296875,0.0
1734582495.222214,5.859375,84.9609375,-998.046875,17.08984375,0.0
1734582495.2252123,1.46484375,112.3046875,-963.8671875,24.90234375,0.0
1734582495.2291186,-14.16015625,130.859375,-853.515625,14.16015625,0.0
1734582495.2330246,-39.55078125,129.39453125,-798.33984375,-8.30078125,0.0
1734582495.2369306,6.34765625,122.0703125,-666.50390625,-6.8359375,0.0
1734582495.2408369,23.4375,110.3515625,-569.3359375,-1.953125,0.0
1734582495.2447429,-51.7578125,106.93359375,-538.0859375,-11.71875,0.0
1734582495.2486491,-57.6171875,117.1875,-499.51171875,-25.390625,0.0
1734582495.2525551,-67.3828125,105.95703125,-466.796875,-40.52734375,0.0
1734582495.2564614,-70.80078125,102.5390625,-269.04296875,-52.24609375,0.0
1734582495.2603674,-58.59375,104.00390625,-209.47265625,-60.546875,0.0
1734582495.2642734,-84.9609375,76.171875,-326.171875,-78.125,0.0
1734582495.2681797,-99.609375,55.6640625,-316.40625,-91.796875,0.0
1734582495.2710185,-88.37890625,48.828125,-207.03125,-89.84375,0.0
1734582495.2749248,-82.51953125,44.921875,-203.125,-98.14453125,0.0
1734582495.2788308,-87.40234375,24.90234375,-267.08984375,-98.14453125,0.0
1734582495.282737,-114.74609375,24.4140625,-248.046875,-77.63671875,0.0
1734582495.286643,-130.37109375,21.97265625,-259.765625,-56.15234375,0.0
1734582495.290549,-147.94921875,12.6953125,-355.95703125,-58.10546875,0.0
1734582495.2944553,-139.16015625,3.41796875,-479.00390625,-68.84765625,0.0
1734582495.2983613,-133.7890625,20.01953125,-483.3984375,-116.2109375,0.0
1734582495.3022676,-137.6953125,41.9921875,-246.09375,-150.87890625,0.0
1734582495.3061736,-112.79296875,26.85546875,-291.015625,-121.09375,0.0
1734582495.3100796,-130.859375,24.4140625,-354.4921875,-116.2109375,0.0
1734582495.3139858,-115.234375,32.71484375,-307.12890625,-124.51171875,0.0
1734582495.3166194,-88.37890625,18.5546875,-248.53515625,-113.76953125,0.0
1734582495.3205254,-76.66015625,6.8359375,-300.29296875,-108.88671875,0.0
1734582495.3244314,-71.77734375,4.39453125,-359.375,-99.609375,0.0
1734582495.3283377,-81.0546875,13.671875,-288.57421875,-97.65625,0.0
1734582495.3322437,-100.09765625,18.5546875,-314.453125,-88.37890625,0.0
1734582495.33615,-112.3046875,8.30078125,-415.52734375,-79.58984375,0.0
1734582495.340056,-96.19140625,-5.859375,-439.453125,-71.2890625,0.0
1734582495.343962,-82.03125,0.9765625,-316.89453125,-74.70703125,0.0
1734582495.3478682,-78.61328125,7.8125,-323.2421875,-85.44921875,0.0
1734582495.3517742,-64.453125,-8.30078125,-475.5859375,-67.3828125,0.0
1734582495.3556805,-82.03125,-25.390625,-500.48828125,-86.9140625,0.0
1734582495.3595865,-77.1484375,-19.53125,-380.37109375,-86.42578125,0.0
1734582495.3621256,-43.45703125,-3.41796875,-403.3203125,-49.8046875,0.0
1734582495.3660316,-35.15625,-5.37109375,-514.16015625,-48.33984375,0.0
1734582495.3699377,-6.34765625,-11.71875,-491.69921875,-47.36328125,0.0
1734582495.373844,-20.5078125,-6.34765625,-347.16796875,-36.62109375,0.0
1734582495.37775,-4.8828125,6.34765625,-310.546875,-34.66796875,0.0
1734582495.3816562,38.0859375,-4.8828125,-474.12109375,-34.1796875,0.0
1734582495.3855622,18.06640625,-10.7421875,-519.04296875,-23.92578125,0.0
1734582495.3894682,9.765625,0.48828125,-275.87890625,-18.5546875,0.0
1734582495.3933744,28.80859375,1.46484375,-54.19921875,-16.6015625,0.0
1734582495.3972805,42.48046875,15.625,-78.125,-8.30078125,0.0
1734582495.4011865,41.9921875,15.13671875,-60.05859375,3.41796875,0.0
1734582495.4050927,38.0859375,5.37109375,70.80078125,-0.48828125,0.0
1734582495.4106493,0.0,11.71875,-122.0703125,14.16015625,0.0
1734582495.4145553,0.0,9.27734375,-269.04296875,2.9296875,0.0
1734582495.4184616,0.0,6.34765625,-207.51953125,-4.39453125,0.0
1734582495.4223676,0.0,-1.46484375,-238.28125,7.8125,0.0
1734582495.4262736,0.0,-11.71875,-388.671875,-15.625,0.0
1734582495.4301798,0.0,-19.04296875,-550.29296875,-20.99609375,0.0
1734582495.4340858,0.0,-25.87890625,-493.65234375,-25.87890625,0.0
1734582495.437992,0.0,-28.3203125,-421.875,-34.66796875,0.0
1734582495.441898,0.0,-52.24609375,-629.8828125,-26.3671875,0.0
1734582495.4458044,0.0,-76.66015625,-798.33984375,-46.875,0.0
1734582495.4497104,0.0,-75.68359375,-722.16796875,-67.87109375,0.0
1734582495.4536164,0.0,-73.2421875,-733.88671875,-65.4296875,0.0
1734582495.4583213,1.46484375,-78.61328125,-834.9609375,-77.1484375,0.0
1734582495.4622276,11.23046875,-83.984375,-892.08984375,-76.171875,0.0
1734582495.4661336,5.859375,-97.65625,-876.46484375,-83.984375,0.0
1734582495.4700396,-4.8828125,-102.5390625,-928.7109375,-89.84375,0.0
1734582495.4739459,-19.53125,-108.88671875,-938.4765625,-90.33203125,0.0
1734582495.4778519,-13.18359375,-117.1875,-940.4296875,-102.5390625,0.0
1734582495.481758,-4.39453125,-106.4453125,-948.2421875,-91.30859375,0.0
1734582495.4856641,-36.62109375,-110.3515625,-942.3828125,-101.5625,0.0
1734582495.4895704,-21.97265625,-134.765625,-982.91015625,-108.88671875,0.0
1734582495.4934764,-18.5546875,-135.7421875,-979.00390625,-88.8671875,0.0
1734582495.4973824,-40.0390625,-129.8828125,-898.92578125,-101.07421875,0.0
1734582495.5012887,-43.45703125,-157.2265625,-900.87890625,-109.86328125,0.0
1734582495.5054798,-21.97265625,-156.25,-883.7890625,-105.46875,0.0
1734582495.5093858,-22.4609375,-148.4375,-810.05859375,-103.515625,0.0
1734582495.513292,-35.15625,-157.71484375,-711.42578125,-90.8203125,0.0
1734582495.517198,-22.4609375,-166.015625,-624.51171875,-89.84375,0.0
1734582495.521104,-23.92578125,-184.5703125,-595.703125,-84.9609375,0.0
1734582495.5250103,-41.50390625,-188.96484375,-498.046875,-88.37890625,0.0
1734582495.5289164,-30.2734375,-185.546875,-350.09765625,-91.30859375,0.0
1734582495.5328226,-4.39453125,-188.4765625,-237.79296875,-93.26171875,0.0
1734582495.5367286,1.46484375,-191.40625,-143.5546875,-79.1015625,0.0
1734582495.5406346,-11.71875,-192.3828125,232.91015625,-69.3359375,0.0
1734582495.544541,-11.71875,-182.12890625,462.40234375,-80.078125,0.0
1734582495.548447,-6.34765625,-181.15234375,429.6875,-80.078125,0.0
1734582495.5522773,-11.23046875,-187.5,556.15234375,-81.54296875,0.0
1734582495.5561833,-15.13671875,-187.5,690.4296875,-88.37890625,0.0
1734582495.5600896,-14.6484375,-191.40625,766.11328125,-99.609375,0.0
1734582495.5639956,-18.06640625,-204.58984375,760.7421875,-102.5390625,0.0
1734582495.5679016,-14.16015625,-208.0078125,783.203125,-98.14453125,0.0
1734582495.5718079,-7.32421875,-215.8203125,816.40625,-90.33203125,0.0
1734582495.5757139,-1.953125,-212.890625,819.3359375,-91.796875,0.0
1734582495.5796201,1.953125,-219.7265625,816.89453125,-88.8671875,0.0
1734582495.5835261,6.8359375,-233.3984375,826.66015625,-85.44921875,0.0
1734582495.5874321,2.9296875,-220.703125,851.07421875,-82.51953125,0.0
1734582495.5913384,-2.9296875,-215.8203125,854.00390625,-78.125,0.0
1734582495.5952444,14.16015625,-231.4453125,854.4921875,-65.91796875,0.0
1734582495.5987117,19.04296875,-242.67578125,855.46875,-71.2890625,0.0
1734582495.6026177,-4.8828125,-228.02734375,857.91015625,-83.49609375,0.0
1734582495.606524,-13.671875,-219.7265625,848.14453125,-77.1484375,0.0
1734582495.61043,-13.671875,-231.93359375,841.796875,-76.66015625,0.0
1734582495.614336,-11.71875,-257.32421875,854.00390625,-93.26171875,0.0
1734582495.6182423,-13.671875,-274.4140625,851.5625,-89.84375,0.0
1734582495.6221483,-24.4140625,-274.90234375,846.19140625,-82.51953125,0.0
1734582495.6260545,-21.484375,-285.64453125,836.9140625,-72.265625,0.0
1734582495.6299605,-20.99609375,-291.9921875,846.6796875,-75.1953125,0.0
1734582495.6338668,-20.99609375,-289.55078125,854.98046875,-66.89453125,0.0
1734582495.6377728,-6.8359375,-293.45703125,853.02734375,-75.1953125,0.0
1734582495.6416788,10.25390625,-326.171875,853.515625,-75.1953125,0.0
1734582495.6448119,-2.44140625,-349.609375,854.98046875,-47.8515625,0.0
1734582495.6487179,-0.9765625,-344.7265625,853.515625,-45.8984375,0.0
1734582495.6526241,4.39453125,-339.84375,841.796875,-55.17578125,0.0
1734582495.6565301,0.0,-335.9375,845.703125,-61.5234375,0.0
1734582495.6604364,-0.48828125,-346.19140625,851.5625,-52.734375,0.0
1734582495.6643424,-1.46484375,-356.93359375,847.65625,-41.50390625,0.0
1734582495.6682484,1.953125,-372.55859375,829.1015625,-22.4609375,0.0
1734582495.6721547,-8.30078125,-381.34765625,824.21875,-15.625,0.0
1734582495.6760607,-19.04296875,-374.0234375,847.65625,-31.25,0.0
1734582495.679967,1.953125,-391.6015625,849.12109375,-30.76171875,0.0
1734582495.683873,3.90625,-413.0859375,845.21484375,-26.85546875,0.0
1734582495.6877792,-17.08984375,-443.359375,847.16796875,-27.83203125,0.0
1734582495.6937625,-14.6484375,-434.5703125,849.609375,-32.71484375,0.0
1734582495.6976686,-16.6015625,-395.99609375,844.7265625,-26.85546875,0.0
1734582495.7015748,-12.6953125,-404.296875,837.890625,-13.671875,0.0
1734582495.7054808,3.90625,-402.83203125,843.26171875,-16.6015625,0.0
1734582495.7093868,-0.9765625,-372.55859375,849.12109375,-29.78515625,0.0
1734582495.713293,-14.6484375,-361.81640625,840.8203125,-20.5078125,0.0
1734582495.717199,-6.34765625,-372.55859375,808.10546875,-7.8125,0.0
1734582495.7211053,-11.23046875,-372.55859375,839.35546875,-15.13671875,0.0
1734582495.7250113,-9.27734375,-354.00390625,853.515625,-16.6015625,0.0
1734582495.7289176,-0.9765625,-348.14453125,837.890625,-3.90625,0.0
1734582495.7328236,-2.44140625,-348.6328125,842.28515625,-6.8359375,0.0
1734582495.7367296,-3.90625,-344.7265625,849.12109375,-14.6484375,0.0
1734582495.7387404,17.578125,-339.35546875,852.5390625,-21.97265625,0.0
1734582495.7426465,12.20703125,-334.47265625,840.8203125,-22.4609375,0.0
1734582495.7465527,-27.34375,-345.21484375,841.796875,-21.484375,0.0
1734582495.7504587,-20.5078125,-340.8203125,849.609375,-36.1328125,0.0
1734582495.7543647,-1.953125,-315.91796875,846.19140625,-37.59765625,0.0
1734582495.758271,-12.20703125,-312.5,840.8203125,-34.66796875,0.0
1734582495.762177,-17.578125,-307.6171875,843.26171875,-31.25,0.0
1734582495.7660832,-27.83203125,-299.8046875,844.7265625,-36.62109375,0.0
1734582495.7699893,-30.76171875,-301.26953125,845.21484375,-39.0625,0.0
1734582495.7738955,-16.6015625,-310.05859375,832.51953125,-41.015625,0.0
1734582495.7778015,-33.69140625,-303.22265625,843.26171875,-53.22265625,0.0
1734582495.7817075,-30.76171875,-277.34375,859.86328125,-50.29296875,0.0
1734582495.786793,-9.27734375,-266.11328125,852.5390625,-30.2734375,0.0
1734582495.790699,-37.109375,-281.73828125,852.05078125,-26.3671875,0.0
1734582495.7946053,-57.6171875,-297.36328125,855.95703125,-48.33984375,0.0
1734582495.7985113,-47.36328125,-274.90234375,859.86328125,-51.26953125,0.0
1734582495.8024173,-30.76171875,-265.13671875,851.5625,-35.15625,0.0
1734582495.8063235,-29.78515625,-282.2265625,831.0546875,-13.671875,0.0
1734582495.8102295,-32.71484375,-284.66796875,847.16796875,-21.97265625,0.0
1734582495.8141358,-34.66796875,-272.94921875,858.88671875,-39.0625,0.0
1734582495.8180418,-28.80859375,-257.8125,851.5625,-26.85546875,0.0
1734582495.821948,-41.015625,-252.44140625,851.5625,-28.80859375,0.0
1734582495.825854,-49.31640625,-232.421875,862.79296875,-32.71484375,0.0
1734582495.82976,-18.5546875,-211.9140625,865.234375,-31.73828125,0.0
1734582495.8342447,-10.7421875,-204.1015625,868.1640625,-24.90234375,0.0
1734582495.838151,-19.53125,-187.98828125,872.55859375,-5.859375,0.0
1734582495.842057,1.46484375,-187.01171875,875.0,8.30078125,0.0
1734582495.8459632,27.34375,-171.875,875.0,10.25390625,0.0
1734582495.8498693,46.38671875,-145.5078125,864.74609375,30.76171875,0.0
1734582495.8537753,60.05859375,-134.27734375,864.2578125,61.03515625,0.0
1734582495.8576815,73.73046875,-110.83984375,872.0703125,62.01171875,0.0
1734582495.8615875,90.8203125,-93.26171875,873.046875,73.2421875,0.0
1734582495.8654938,100.09765625,-110.3515625,862.79296875,94.23828125,0.0
1734582495.8693998,84.47265625,-104.4921875,863.76953125,73.73046875,0.0
1734582495.873306,69.3359375,-71.77734375,862.79296875,40.52734375,0.0
1734582495.877212,71.2890625,-79.1015625,858.88671875,33.69140625,0.0
1734582495.881211,66.40625,-94.23828125,858.3984375,37.109375,0.0
1734582495.8851173,56.15234375,-102.5390625,852.5390625,48.828125,0.0
1734582495.8890233,57.6171875,-100.5859375,849.609375,54.19921875,0.0
1734582495.8929293,62.5,-92.28515625,844.23828125,45.41015625,0.0
1734582495.8968356,57.12890625,-89.84375,824.21875,29.78515625,0.0
1734582495.9007416,62.01171875,-84.47265625,810.546875,31.25,0.0
1734582495.9046478,57.12890625,-88.8671875,828.61328125,21.484375,0.0
1734582495.9085538,64.453125,-84.47265625,808.10546875,-4.8828125,0.0
1734582495.91246,62.5,-83.984375,702.1484375,3.90625,0.0
1734582495.916366,51.26953125,-57.6171875,770.99609375,20.99609375,0.0
1734582495.920272,88.37890625,-52.734375,818.359375,37.59765625,0.0
1734582495.9241784,99.609375,-67.3828125,737.3046875,47.8515625,0.0
1734582495.9278557,74.21875,-63.4765625,681.15234375,25.390625,0.0
1734582495.931762,57.6171875,-74.70703125,616.69921875,-3.41796875,0.0
1734582495.935668,56.640625,-87.890625,586.42578125,18.5546875,0.0
1734582495.9395742,50.29296875,-84.47265625,455.56640625,28.80859375,0.0
1734582495.9434803,38.57421875,-85.44921875,360.3515625,12.20703125,0.0
1734582495.9473863,55.6640625,-85.9375,282.71484375,22.94921875,0.0
1734582495.9512925,63.4765625,-78.61328125,251.953125,27.34375,0.0
1734582495.9551985,32.71484375,-86.42578125,-58.10546875,26.85546875,0.0
1734582495.9591048,0.0,-102.5390625,-187.98828125,17.578125,0.0
1734582495.9630108,-2.9296875,-109.86328125,128.90625,-5.859375,0.0
1734582495.966917,-0.9765625,-120.60546875,-29.78515625,-12.20703125,0.0
1734582495.970823,-13.671875,-133.7890625,-296.875,-13.671875,0.0
1734582495.977065,-25.390625,-132.8125,-351.07421875,-34.66796875,0.0
1734582495.980971,-26.85546875,-139.6484375,-372.55859375,-55.6640625,0.0
1734582495.984877,-23.92578125,-144.04296875,-486.328125,-51.7578125,0.0
1734582495.9887834,-44.921875,-137.20703125,-596.6796875,-57.6171875,0.0
1734582495.9926894,-48.33984375,-148.4375,-620.60546875,-61.03515625,0.0
1734582495.9965956,-49.8046875,-153.80859375,-667.48046875,-61.5234375,0.0
1734582496.0005016,-67.87109375,-148.4375,-714.84375,-61.5234375,0.0
1734582496.004408,-65.4296875,-152.34375,-733.88671875,-57.6171875,0.0
1734582496.008314,-66.40625,-148.4375,-681.15234375,-65.91796875,0.0
1734582496.01222,-50.29296875,-140.13671875,-636.23046875,-55.6640625,0.0
1734582496.0161262,-43.9453125,-140.13671875,-742.1875,-60.546875,0.0
1734582496.0200322,-60.546875,-142.578125,-798.828125,-75.1953125,0.0
1734582496.0227046,-66.89453125,-139.6484375,-687.98828125,-58.59375,0.0
1734582496.0266106,-56.640625,-142.08984375,-751.46484375,-41.9921875,0.0
1734582496.0305169,-53.7109375,-140.625,-833.49609375,-44.43359375,0.0
1734582496.0344229,-34.66796875,-134.27734375,-840.33203125,-46.875,0.0
1734582496.0383291,-42.96875,-133.30078125,-871.09375,-54.6875,0.0
1734582496.0422351,-69.3359375,-145.5078125,-927.24609375,-69.82421875,0.0
1734582496.0461414,-58.59375,-156.25,-967.28515625,-56.640625,0.0
1734582496.0500474,-73.73046875,-151.3671875,-984.375,-64.94140625,0.0
1734582496.0539534,-79.58984375,-133.7890625,-951.171875,-75.68359375,0.0
1734582496.0578597,-64.94140625,-133.30078125,-958.984375,-52.734375,0.0
1734582496.0617657,-66.89453125,-144.04296875,-997.0703125,-44.43359375,0.0
1734582496.065672,-73.2421875,-140.625,-996.09375,-53.22265625,0.0
1734582496.0679526,-78.125,-129.39453125,-986.81640625,-62.5,0.0
1734582496.0718586,-77.63671875,-132.8125,-996.58203125,-62.98828125,0.0
1734582496.075765,-65.91796875,-131.8359375,-1000.0,-53.7109375,0.0
1734582496.079671,-67.3828125,-117.1875,-1000.0,-56.15234375,0.0
1734582496.0835772,-62.01171875,-107.421875,-1000.0,-57.12890625,0.0
1734582496.0874832,-60.05859375,-109.86328125,-1000.0,-58.10546875,0.0
1734582496.0913892,-73.73046875,-117.1875,-1000.0,-58.59375,0.0
1734582496.0952954,-73.2421875,-107.421875,-1000.0,-59.08203125,0.0
1734582496.0992014,-74.21875,-93.26171875,-1000.0,-67.87109375,0.0
1734582496.1031077,-84.47265625,-99.609375,-1000.0,-70.3125,0.0
1734582496.1070137,-87.40234375,-99.12109375,-1000.0,-82.51953125,0.0
1734582496.1109197,-79.1015625,-94.7265625,-1000.0,-109.86328125,0.0
1734582496.1132405,-106.93359375,-103.515625,-1000.0,-117.1875,0.0
1734582496.1171465,-124.51171875,-106.4453125,-1000.0,-111.328125,0.0
1734582496.1210527,-115.234375,-97.65625,-1000.0,-106.93359375,0.0
1734582496.1249588,-109.86328125,-94.7265625,-1000.0,-112.79296875,0.0
1734582496.128865,-113.76953125,-103.02734375,-1000.0,-122.0703125,0.0
1734582496.132771,-117.67578125,-113.76953125,-1000.0,-122.55859375,0.0
1734582496.136677,-109.375,-101.07421875,-1000.0,-121.09375,0.0
1734582496.1405833,-112.79296875,-82.51953125,-1000.0,-128.90625,0.0
1734582496.1444893,-114.2578125,-83.0078125,-1000.0,-127.44140625,0.0
1734582496.1483955,-115.72265625,-82.51953125,-1000.0,-116.69921875,0.0
1734582496.1523015,-108.3984375,-75.68359375,-1000.0,-115.234375,0.0
1734582496.1562076,-100.5859375,-79.1015625,-1000.0,-110.3515625,0.0
1734582496.1613426,-100.5859375,-84.47265625,-1000.0,-109.375,0.0
1734582496.1652486,-100.09765625,-79.58984375,-1000.0,-109.375,0.0
1734582496.169155,-90.33203125,-77.1484375,-1000.0,-97.16796875,0.0
1734582496.173061,-86.42578125,-83.0078125,-1000.0,-82.51953125,0.0
1734582496.176967,-72.75390625,-87.890625,-1000.0,-77.1484375,0.0
1734582496.1808732,-57.6171875,-83.0078125,-1000.0,-62.01171875,0.0
1734582496.1847792,-50.78125,-76.66015625,-1000.0,-46.875,0.0
1734582496.1886854,-29.78515625,-71.2890625,-1000.0,-41.9921875,0.0
1734582496.1925914,0.0,-80.078125,-1000.0,-31.25,0.0
1734582496.1964974,-11.23046875,-83.0078125,-1000.0,-14.6484375,0.0
1734582496.2004037,-31.25,-62.5,-1000.0,-7.32421875,0.0
1734582496.2043097,-16.11328125,-59.08203125,-1000.0,-1.953125,0.0
1734582496.2088788,12.6953125,-71.77734375,-1000.0,9.765625,0.0
1734582496.212785,0.48828125,-69.3359375,-1000.0,1.953125,0.0
1734582496.216691,28.3203125,-62.98828125,-1000.0,5.859375,0.0
1734582496.220597,39.55078125,-65.4296875,-1000.0,20.99609375,0.0
1734582496.2245033,-0.9765625,-57.12890625,-1000.0,18.06640625,0.0
1734582496.2284093,9.765625,-51.7578125,-1000.0,25.87890625,0.0
1734582496.2323155,14.16015625,-52.24609375,-1000.0,35.64453125,0.0
1734582496.2362216,20.5078125,-41.9921875,-1000.0,37.109375,0.0
1734582496.2401276,36.62109375,-29.78515625,-1000.0,49.8046875,0.0
1734582496.2440338,58.10546875,-21.97265625,-1000.0,60.546875,0.0
1734582496.2479398,62.98828125,-14.16015625,-1000.0,54.19921875,0.0
1734582496.251846,52.734375,-16.11328125,-1000.0,69.82421875,0.0
1734582496.255962,33.203125,-20.01953125,-998.53515625,62.01171875,0.0
1734582496.2598681,41.9921875,-18.5546875,-988.76953125,57.12890625,0.0
1734582496.2637742,48.33984375,-15.625,-983.88671875,57.6171875,0.0
1734582496.2676804,47.8515625,-20.01953125,-985.83984375,62.5,0.0
1734582496.2715864,51.7578125,-22.4609375,-989.74609375,57.6171875,0.0
1734582496.2754924,62.5,-32.2265625,-987.3046875,43.9453125,0.0
1734582496.2793987,64.94140625,-30.76171875,-979.4921875,50.29296875,0.0
1734582496.2833047,34.1796875,-26.85546875,-987.79296875,40.0390625,0.0
1734582496.287211,13.671875,-51.7578125,-976.07421875,40.52734375,0.0
1734582496.291117,-0.9765625,-49.8046875,-946.2890625,30.2734375,0.0
1734582496.2950232,-3.41796875,-41.015625,-929.19921875,8.7890625,0.0
1734582496.2989292,7.8125,-44.43359375,-958.0078125,16.11328125,0.0
1734582496.302623,22.4609375,-52.24609375,-954.1015625,27.34375,0.0
1734582496.3065293,6.34765625,-56.15234375,-902.34375,26.85546875,0.0
1734582496.3104353,-4.39453125,-54.19921875,-907.2265625,3.41796875,0.0
1734582496.3143413,-14.6484375,-65.4296875,-891.6015625,-13.18359375,0.0
1734582496.3182476,-28.3203125,-77.63671875,-903.80859375,0.0,0.0
1734582496.3221536,-39.55078125,-91.30859375,-916.015625,-19.53125,0.0
1734582496.3260598,-38.0859375,-103.02734375,-897.94921875,-55.17578125,0.0
1734582496.3299658,-51.26953125,-103.02734375,-962.40234375,-37.109375,0.0
