timestamps,TP9,AF7,AF8,TP10,Right AUX
1734414492.2102365,-54.6875,8.7890625,57.12890625,-4.8828125,0.0
1734414492.2141423,-34.66796875,-5.37109375,89.84375,-20.99609375,0.0
1734414492.218048,-37.109375,-24.4140625,-12.20703125,-10.25390625,0.0
1734414492.2219539,-28.80859375,-7.8125,72.265625,-19.04296875,0.0
1734414492.2258594,-32.2265625,-9.27734375,39.0625,-27.83203125,0.0
1734414492.2297652,-31.25,-3.90625,32.71484375,-30.2734375,0.0
1734414492.233671,-19.04296875,-6.8359375,-68.359375,-22.94921875,0.0
1734414492.2375767,-33.203125,-3.41796875,-171.875,-26.85546875,0.0
1734414492.2414825,-35.15625,8.30078125,25.87890625,-39.0625,0.0
1734414492.245388,-29.78515625,-0.9765625,100.5859375,-23.4375,0.0
1734414492.2492938,-4.39453125,-42.48046875,-175.29296875,-21.484375,0.0
1734414492.2544518,35.15625,-3.90625,-82.03125,-34.66796875,0.0
1734414492.2583575,49.8046875,16.6015625,145.5078125,-34.1796875,0.0
1734414492.262263,-15.13671875,-25.390625,27.34375,-20.5078125,0.0
1734414492.2661688,-74.70703125,-26.85546875,-72.75390625,-7.32421875,0.0
1734414492.2700746,-67.3828125,-9.27734375,42.48046875,-16.6015625,0.0
1734414492.2739804,-57.6171875,-20.99609375,52.24609375,-19.53125,0.0
1734414492.2778862,-49.31640625,-39.55078125,-64.94140625,0.9765625,0.0
1734414492.2817917,-28.80859375,-55.6640625,-346.19140625,12.6953125,0.0
1734414492.2856975,-32.71484375,30.76171875,-38.57421875,-18.5546875,0.0
1734414492.2896032,-8.7890625,44.921875,202.1484375,-28.3203125,0.0
1734414492.293509,2.44140625,-11.23046875,82.03125,-22.94921875,0.0
1734414492.2974148,-10.7421875,-3.90625,122.55859375,-33.203125,0.0
1734414492.3006024,-8.7890625,2.9296875,108.3984375,-36.62109375,0.0
1734414492.3045082,9.765625,-24.4140625,20.5078125,-35.64453125,0.0
1734414492.308414,11.71875,-10.7421875,-23.4375,-41.50390625,0.0
1734414492.3123198,-35.64453125,24.90234375,54.6875,-38.57421875,0.0
1734414492.3162253,-74.70703125,21.484375,80.56640625,-35.15625,0.0
1734414492.320131,-47.36328125,11.71875,-97.65625,-34.1796875,0.0
1734414492.3240368,-19.53125,14.16015625,-223.6328125,-28.3203125,0.0
1734414492.3279426,-19.53125,53.22265625,27.83203125,-36.62109375,0.0
1734414492.3318484,-34.66796875,49.8046875,103.02734375,-31.73828125,0.0
1734414492.335754,-44.921875,10.7421875,-6.8359375,-24.4140625,0.0
1734414492.3396597,-38.57421875,-27.34375,-221.6796875,-20.01953125,0.0
1734414492.3435655,-37.109375,15.625,-234.86328125,-1.46484375,0.0
1734414492.3466904,-36.62109375,77.1484375,103.515625,-3.90625,0.0
1734414492.3505962,-22.94921875,25.87890625,52.24609375,-33.203125,0.0
1734414492.354502,14.16015625,6.8359375,-104.4921875,-54.6875,0.0
1734414492.3584077,6.8359375,13.18359375,-9.27734375,-49.8046875,0.0
1734414492.3623133,-39.0625,-5.859375,-55.6640625,-39.55078125,0.0
1734414492.366219,-49.31640625,-23.4375,-256.34765625,-35.64453125,0.0
1734414492.3701248,-47.8515625,-65.91796875,-423.33984375,-19.04296875,0.0
1734414492.3740306,-49.8046875,8.30078125,-94.7265625,-30.2734375,0.0
1734414492.3779361,-40.52734375,30.76171875,97.16796875,-32.71484375,0.0
1734414492.381842,-33.69140625,-13.18359375,-67.3828125,-11.71875,0.0
1734414492.3857477,-43.45703125,-6.8359375,-41.015625,-18.06640625,0.0
1734414492.3896534,-35.64453125,-4.8828125,93.75,-33.203125,0.0
1734414492.392771,-27.83203125,-19.04296875,99.12109375,-29.296875,0.0
1734414492.3966768,-21.484375,-42.48046875,-53.22265625,-18.06640625,0.0
1734414492.4005826,-25.87890625,-29.296875,-101.07421875,-19.53125,0.0
1734414492.4044883,-44.921875,-12.6953125,41.50390625,-20.99609375,0.0
1734414492.408394,-34.66796875,-32.2265625,24.90234375,-23.92578125,0.0
1734414492.4122996,-16.6015625,-84.47265625,-272.4609375,-25.390625,0.0
1734414492.4162054,12.6953125,-64.94140625,-280.76171875,-31.25,0.0
1734414492.4201112,7.8125,-29.78515625,-208.984375,-28.80859375,0.0
1734414492.424017,-39.0625,-44.921875,-258.7890625,-7.32421875,0.0
1734414492.4279225,-59.08203125,-62.98828125,-371.09375,13.18359375,0.0
1734414492.4318283,-40.52734375,-26.3671875,-219.23828125,7.32421875,0.0
1734414492.435734,-24.90234375,6.34765625,44.43359375,0.9765625,0.0
1734414492.4397304,-22.94921875,-24.90234375,-23.92578125,-3.41796875,0.0
1734414492.4436362,-15.13671875,-66.40625,-408.69140625,-7.8125,0.0
1734414492.4475417,-14.6484375,-10.25390625,-307.12890625,7.8125,0.0
1734414492.4514475,-16.6015625,18.5546875,-37.109375,12.6953125,0.0
1734414492.4553533,-6.8359375,-22.4609375,-104.00390625,3.41796875,0.0
1734414492.459259,-13.671875,-68.84765625,-465.8203125,13.18359375,0.0
1734414492.4631646,-30.76171875,-0.9765625,-332.03125,7.32421875,0.0
1734414492.4670703,-35.15625,26.85546875,0.48828125,-3.41796875,0.0
1734414492.470976,-10.7421875,-29.296875,-136.23046875,0.0,0.0
1734414492.474882,24.4140625,-35.64453125,-285.15625,-12.20703125,0.0
1734414492.4787877,0.48828125,-2.9296875,-219.7265625,-26.3671875,0.0
1734414492.4826932,-45.41015625,-13.671875,-177.24609375,-13.671875,0.0
1734414492.4877357,-37.109375,-40.52734375,-274.4140625,-4.39453125,0.0
1734414492.4916415,-24.90234375,-21.97265625,-269.53125,-2.44140625,0.0
1734414492.495547,-13.671875,-5.37109375,-190.4296875,5.37109375,0.0
1734414492.4994528,-16.6015625,-23.92578125,-239.2578125,-4.39453125,0.0
1734414492.5033586,-24.90234375,-51.7578125,-308.59375,-12.20703125,0.0
1734414492.5072644,-35.15625,-51.7578125,-362.79296875,-5.37109375,0.0
1734414492.5111701,-47.8515625,-13.18359375,-296.38671875,5.859375,0.0
1734414492.5150757,-47.36328125,4.8828125,-224.609375,0.9765625,0.0
1734414492.5189815,-30.2734375,-62.5,-420.41015625,-11.23046875,0.0
1734414492.5228872,-27.34375,-38.0859375,-441.89453125,-14.6484375,0.0
1734414492.526793,-35.15625,34.66796875,-208.0078125,-31.73828125,0.0
1734414492.5306985,-38.57421875,-3.90625,-245.1171875,-34.66796875,0.0
1734414492.5354686,-47.36328125,-49.31640625,0.0,-24.4140625,0.0
1734414492.5393744,-41.015625,-18.06640625,0.0,-12.6953125,0.0
1734414492.54328,-41.50390625,4.8828125,0.0,-14.16015625,0.0
1734414492.5471857,-31.25,-25.87890625,0.0,-6.8359375,0.0
1734414492.5510914,-40.0390625,-52.734375,0.0,-0.9765625,0.0
1734414492.5549972,-40.52734375,-14.6484375,0.0,-11.23046875,0.0
1734414492.558903,-26.3671875,6.34765625,0.0,-14.16015625,0.0
1734414492.5628085,-33.203125,-15.13671875,0.0,-21.97265625,0.0
1734414492.5667143,-28.3203125,-22.4609375,0.0,-37.109375,0.0
1734414492.57062,-15.13671875,-13.18359375,0.0,-40.52734375,0.0
1734414492.5745258,-10.7421875,-25.390625,0.0,-33.69140625,0.0
1734414492.5784316,-23.4375,-62.01171875,0.0,-22.94921875,0.0
1734414492.581917,-62.98828125,-84.47265625,-617.1875,-14.16015625,0.0
1734414492.5858228,-74.70703125,-14.16015625,-366.69921875,-21.97265625,0.0
1734414492.5897286,-53.7109375,-33.203125,-274.90234375,-20.5078125,0.0
1734414492.5936344,-46.875,-65.4296875,-389.6484375,-12.6953125,0.0
1734414492.59754,-25.390625,-36.62109375,-330.56640625,-27.34375,0.0
1734414492.6014457,-16.6015625,-46.38671875,-385.25390625,-28.3203125,0.0
1734414492.6053514,-50.78125,-40.0390625,-362.3046875,-16.6015625,0.0
1734414492.6092572,-56.640625,-55.6640625,-406.25,-9.27734375,0.0
1734414492.613163,-37.109375,-45.8984375,-383.7890625,-12.20703125,0.0
1734414492.6170685,-30.2734375,-47.8515625,-342.7734375,-20.5078125,0.0
1734414492.6209743,-15.13671875,-50.29296875,-338.37890625,-18.5546875,0.0
1734414492.62488,-19.53125,-89.84375,-539.55078125,-17.08984375,0.0
1734414492.6282873,-35.15625,-70.3125,-468.26171875,-19.53125,0.0
1734414492.632193,-17.578125,-18.06640625,-258.30078125,-15.625,0.0
1734414492.6360989,-22.94921875,-50.78125,-322.75390625,-19.04296875,0.0
1734414492.6400046,-40.52734375,-67.87109375,-350.09765625,-10.25390625,0.0
1734414492.6439102,-46.38671875,-48.828125,-315.4296875,-5.37109375,0.0
1734414492.647816,-59.5703125,-55.6640625,-361.328125,-12.20703125,0.0
1734414492.6517217,-39.0625,-61.03515625,-414.0625,0.9765625,0.0
1734414492.6556275,-30.2734375,-86.9140625,-579.1015625,0.48828125,0.0
1734414492.6595333,-28.80859375,-17.08984375,-381.8359375,-8.7890625,0.0
1734414492.6634388,2.9296875,8.30078125,-191.89453125,16.11328125,0.0
1734414492.6673446,-5.37109375,-41.015625,-335.9375,5.859375,0.0
1734414492.6712503,-45.41015625,-38.0859375,-334.47265625,-28.3203125,0.0
1734414492.6746352,-42.48046875,-32.71484375,-231.4453125,-31.25,0.0
1734414492.678541,-34.1796875,-56.640625,-239.74609375,-39.0625,0.0
1734414492.6824467,-50.78125,-75.68359375,-320.3125,-66.40625,0.0
1734414492.6863523,-62.01171875,-52.734375,-277.34375,-61.5234375,0.0
1734414492.690258,-75.1953125,-36.62109375,-247.0703125,-45.41015625,0.0
1734414492.6941638,-57.12890625,-54.6875,-322.265625,-33.69140625,0.0
1734414492.6980696,-30.2734375,-61.03515625,-410.64453125,-34.66796875,0.0
1734414492.7019753,-23.92578125,-23.4375,-354.00390625,-43.45703125,0.0
1734414492.7058809,-53.22265625,7.32421875,-278.80859375,-30.76171875,0.0
1734414492.7097867,-69.82421875,-21.484375,-371.09375,-27.83203125,0.0
1734414492.7136924,-52.24609375,-37.109375,-403.3203125,-39.0625,0.0
1734414492.7175982,-53.22265625,-20.99609375,-299.31640625,-41.015625,0.0
1734414492.7218003,-55.17578125,-24.4140625,-215.33203125,-30.2734375,0.0
1734414492.725706,-50.29296875,-45.8984375,-248.53515625,-22.4609375,0.0
1734414492.7296119,-53.7109375,-53.22265625,-332.03125,-8.7890625,0.0
1734414492.7335176,-59.08203125,-26.3671875,-277.83203125,-8.30078125,0.0
1734414492.7374232,-57.12890625,-15.13671875,-222.65625,-16.11328125,0.0
1734414492.741329,-39.0625,-52.734375,-330.56640625,-3.41796875,0.0
1734414492.7452347,-30.2734375,-83.0078125,-496.58203125,0.9765625,0.0
1734414492.7491405,-26.3671875,-2.9296875,-295.41015625,-5.859375,0.0
1734414492.7530463,-19.04296875,-3.41796875,-138.18359375,-15.625,0.0
1734414492.7569518,-24.4140625,-44.43359375,-229.98046875,-23.92578125,0.0
1734414492.7608576,-31.73828125,-39.0625,-243.1640625,-20.01953125,0.0
1734414492.7647634,-14.6484375,-33.69140625,-260.25390625,-11.71875,0.0
1734414492.7679548,6.34765625,-16.6015625,-224.12109375,-20.99609375,0.0
1734414492.7718606,-15.13671875,-34.66796875,-224.609375,-14.16015625,0.0
1734414492.7757661,-37.109375,-25.87890625,-210.9375,3.90625,0.0
1734414492.779672,-31.73828125,-20.99609375,-97.65625,13.671875,0.0
1734414492.7835777,-27.83203125,-40.0390625,-107.91015625,24.90234375,0.0
1734414492.7874835,-29.78515625,-65.4296875,-266.6015625,22.4609375,0.0
1734414492.7913892,-28.3203125,-31.73828125,-283.203125,17.578125,0.0
1734414492.7952948,-25.87890625,-3.90625,-53.22265625,17.08984375,0.0
1734414492.7992005,-15.625,-47.8515625,-67.3828125,16.6015625,0.0
1734414492.8031063,-34.66796875,-98.6328125,-389.16015625,26.85546875,0.0
1734414492.807012,-67.3828125,-42.96875,-334.9609375,26.3671875,0.0
1734414492.8109176,-44.43359375,12.6953125,-45.41015625,25.390625,0.0
1734414492.8150187,-36.1328125,-27.83203125,-40.0390625,24.4140625,0.0
1734414492.8189244,-30.76171875,-57.12890625,-332.03125,10.25390625,0.0
1734414492.8228302,-28.80859375,-28.80859375,-368.65234375,5.859375,0.0
1734414492.8267357,-46.38671875,-0.9765625,-204.58984375,4.39453125,0.0
1734414492.8306415,-41.50390625,-40.0390625,-220.21484375,10.7421875,0.0
1734414492.8345473,-28.80859375,-63.4765625,-319.3359375,-0.9765625,0.0
1734414492.838453,-24.90234375,-8.7890625,-301.26953125,-16.11328125,0.0
1734414492.8423588,-3.41796875,23.92578125,-203.125,-19.04296875,0.0
1734414492.8462644,-8.7890625,-32.2265625,-289.55078125,-16.11328125,0.0
1734414492.8501701,-20.01953125,-62.5,-498.046875,0.0,0.0
1734414492.854076,-23.92578125,17.578125,-319.3359375,9.765625,0.0
1734414492.8579817,-39.55078125,7.32421875,-219.7265625,3.41796875,0.0
1734414492.861892,-20.5078125,-29.78515625,-328.61328125,3.90625,0.0
1734414492.8657978,-20.5078125,-8.7890625,-285.64453125,12.20703125,0.0
1734414492.8697033,-20.01953125,0.0,-219.7265625,12.20703125,0.0
1734414492.873609,-14.16015625,-8.30078125,-232.91015625,0.0,0.0
1734414492.8775148,-20.5078125,-18.5546875,-343.75,-2.9296875,0.0
1734414492.8814206,-33.203125,-14.16015625,-406.73828125,-6.8359375,0.0
1734414492.8853261,-40.0390625,7.8125,-345.21484375,-2.9296875,0.0
1734414492.889232,-37.59765625,29.296875,-270.01953125,0.9765625,0.0
1734414492.8931377,-25.390625,-23.92578125,-445.3125,9.765625,0.0
1734414492.8970435,-22.94921875,-12.20703125,-460.9375,4.39453125,0.0
1734414492.9009492,-27.34375,32.2265625,-301.26953125,-22.4609375,0.0
1734414492.9048548,-30.76171875,-20.99609375,-408.69140625,-16.11328125,0.0
1734414492.9086742,-19.04296875,-40.52734375,-577.63671875,-2.9296875,0.0
1734414492.91258,2.44140625,1.46484375,-412.109375,-8.7890625,0.0
1734414492.9164858,-20.5078125,10.25390625,-294.921875,-17.578125,0.0
1734414492.9203916,-39.0625,-29.78515625,-385.25390625,-27.34375,0.0
1734414492.924297,-20.99609375,-55.17578125,-426.26953125,-30.2734375,0.0
1734414492.9282029,-28.3203125,-42.96875,-442.3828125,-27.83203125,0.0
1734414492.9321086,-35.64453125,-10.7421875,-350.09765625,-21.97265625,0.0
1734414492.9360144,-39.0625,-27.34375,-403.80859375,-21.97265625,0.0
1734414492.93992,-53.7109375,-73.2421875,-612.79296875,-16.11328125,0.0
1734414492.9438257,-45.41015625,0.0,-370.60546875,-15.625,0.0
1734414492.9477315,-37.59765625,-4.39453125,-270.99609375,-14.16015625,0.0
1734414492.9516373,-52.24609375,-64.94140625,-436.03515625,-8.7890625,0.0
1734414492.9563956,0.0,-47.8515625,0.0,-12.6953125,0.0
1734414492.9603014,0.0,-23.4375,0.0,-14.16015625,0.0
1734414492.9642072,0.0,-45.41015625,0.0,-13.18359375,0.0
1734414492.968113,0.0,-73.73046875,0.0,-10.25390625,0.0
1734414492.9720185,0.0,-58.10546875,0.0,-8.7890625,0.0
1734414492.9759243,0.0,-62.01171875,0.0,-12.20703125,0.0
1734414492.97983,0.0,-71.2890625,0.0,-32.2265625,0.0
1734414492.9837358,0.0,-76.66015625,0.0,-29.296875,0.0
1734414492.9876416,0.0,-51.7578125,0.0,-12.6953125,0.0
1734414492.991547,0.0,-30.2734375,0.0,-8.7890625,0.0
1734414492.995453,0.0,-47.8515625,0.0,0.48828125,0.0
1734414492.9993587,0.0,-55.17578125,0.0,-5.859375,0.0
1734414493.0028496,-58.59375,-23.4375,-414.0625,-20.5078125,0.0
1734414493.0067554,-55.17578125,-19.53125,-287.109375,-13.18359375,0.0
1734414493.0106611,-62.01171875,-57.6171875,-372.55859375,3.90625,0.0
1734414493.014567,-42.48046875,-51.26953125,-365.72265625,11.23046875,0.0
1734414493.0184727,-33.203125,-25.390625,-338.37890625,1.46484375,0.0
1734414493.0223782,-41.015625,-38.0859375,-396.484375,-12.20703125,0.0
1734414493.026284,-36.62109375,-56.640625,-477.05078125,-11.23046875,0.0
1734414493.0301898,-42.48046875,-46.875,-451.66015625,3.90625,0.0
1734414493.0340955,-31.25,-21.97265625,-352.05078125,2.9296875,0.0
1734414493.0380013,-26.3671875,-27.83203125,-317.87109375,-20.01953125,0.0
1734414493.0419068,-17.08984375,-76.171875,-454.1015625,-20.99609375,0.0
1734414493.0458126,0.48828125,-119.140625,-657.71484375,-3.90625,0.0
1734414493.0492556,18.5546875,-34.66796875,-461.9140625,-18.06640625,0.0
1734414493.0531614,-11.71875,-40.52734375,-426.26953125,-37.109375,0.0
1734414493.0570672,-58.59375,-68.84765625,-498.53515625,-33.69140625,0.0
1734414493.060973,-46.875,-35.15625,-397.4609375,-23.4375,0.0
1734414493.0648785,-38.57421875,-33.203125,-372.55859375,-18.06640625,0.0
1734414493.0687842,-51.7578125,-57.6171875,-436.5234375,-8.30078125,0.0
1734414493.07269,-66.40625,-95.703125,-582.51953125,5.37109375,0.0
1734414493.0765958,-62.98828125,-60.546875,-540.0390625,1.953125,0.0
1734414493.0805016,-44.43359375,-5.859375,-399.4140625,-20.5078125,0.0
1734414493.084407,-33.69140625,-44.43359375,-498.53515625,-10.7421875,0.0
1734414493.0883129,-41.9921875,-54.19921875,-563.4765625,-4.8828125,0.0
1734414493.0922186,-47.8515625,-21.484375,-440.4296875,-7.8125,0.0
1734414493.0955102,-44.921875,-13.18359375,-378.41796875,-5.37109375,0.0
1734414493.099416,-42.48046875,-53.7109375,-423.33984375,-7.8125,0.0
1734414493.1033218,-42.48046875,-91.796875,-595.703125,3.41796875,0.0
1734414493.1072276,-34.1796875,-44.43359375,-546.38671875,9.27734375,0.0
1734414493.111133,-29.78515625,-23.92578125,-393.5546875,-6.8359375,0.0
1734414493.1150389,-33.69140625,-69.3359375,-481.4453125,-28.80859375,0.0
1734414493.1189446,-28.3203125,-105.46875,-674.31640625,-29.78515625,0.0
1734414493.1228504,-12.6953125,-18.06640625,-471.19140625,-21.484375,0.0
1734414493.126756,-3.90625,10.7421875,-317.87109375,-16.6015625,0.0
1734414493.1306617,-1.953125,-26.85546875,-447.265625,-37.59765625,0.0
1734414493.1345675,-8.7890625,-25.390625,-412.109375,-57.12890625,0.0
1734414493.1384733,-35.64453125,-20.5078125,-356.93359375,-50.78125,0.0
1734414493.1416621,-68.84765625,-24.4140625,-351.5625,-41.015625,0.0
1734414493.145568,-66.89453125,-34.66796875,-421.875,-26.85546875,0.0
1734414493.1494734,-38.57421875,-17.578125,-424.8046875,-22.94921875,0.0
1734414493.1533792,-27.34375,0.48828125,-347.65625,-33.69140625,0.0
1734414493.157285,-15.625,-21.97265625,-359.86328125,-43.45703125,0.0
1734414493.1611907,-16.11328125,-75.1953125,-500.0,-39.0625,0.0
1734414493.1650963,-42.96875,-66.40625,-522.94921875,-33.203125,0.0
1734414493.169002,-57.12890625,-1.953125,-365.72265625,-26.85546875,0.0
1734414493.1729078,-38.0859375,-21.484375,-380.859375,-22.4609375,0.0
1734414493.1768136,-28.80859375,-60.546875,-515.625,-28.80859375,0.0
1734414493.1807194,-37.109375,-29.296875,-429.19921875,-24.4140625,0.0
1734414493.184625,-23.92578125,-4.8828125,-303.7109375,-20.5078125,0.0
1734414493.190032,0.0,-18.5546875,-372.0703125,-28.3203125,0.0
1734414493.1939378,0.0,-40.0390625,-479.00390625,-34.1796875,0.0
1734414493.1978433,0.0,-19.53125,-389.6484375,-27.83203125,0.0
1734414493.201749,0.0,-9.27734375,-335.44921875,-23.92578125,0.0
1734414493.2056549,0.0,-32.2265625,-377.9296875,-20.01953125,0.0
1734414493.2095606,0.0,-55.17578125,-452.63671875,-20.01953125,0.0
1734414493.2134662,0.0,-17.08984375,-423.33984375,-29.78515625,0.0
1734414493.217372,0.0,20.99609375,-344.7265625,-36.62109375,0.0
1734414493.2212777,0.0,-22.4609375,-435.05859375,-28.80859375,0.0
1734414493.2251835,0.0,-58.59375,-616.69921875,-14.16015625,0.0
1734414493.2290893,0.0,11.71875,-454.58984375,-22.94921875,0.0
1734414493.2329948,0.0,19.53125,-344.7265625,-17.578125,0.0
1734414493.236887,-21.484375,-12.20703125,0.0,-5.37109375,0.0
1734414493.2407928,-65.91796875,-7.8125,0.0,-9.765625,0.0
1734414493.2446985,-83.49609375,-11.71875,0.0,-12.6953125,0.0
1734414493.2486043,-74.21875,-30.76171875,0.0,-13.18359375,0.0
1734414493.25251,-55.17578125,-44.43359375,0.0,-7.8125,0.0
1734414493.2564156,-42.96875,-37.109375,0.0,-27.34375,0.0
1734414493.2603214,-48.33984375,-7.32421875,0.0,-40.0390625,0.0
1734414493.2642272,-39.0625,6.8359375,0.0,-23.92578125,0.0
1734414493.268133,-31.25,-38.57421875,0.0,-18.5546875,0.0
1734414493.2720387,-27.83203125,-17.578125,0.0,-16.6015625,0.0
1734414493.2759442,-14.6484375,30.2734375,0.0,-6.8359375,0.0
1734414493.27985,-20.99609375,4.8828125,0.0,-19.53125,0.0
1734414493.283674,0.0,-38.57421875,-688.4765625,-30.2734375,0.0
1734414493.2875798,0.0,24.90234375,-533.69140625,-21.484375,0.0
1734414493.2914853,0.0,67.87109375,-343.26171875,-25.87890625,0.0
1734414493.295391,0.0,14.16015625,-429.6875,-31.73828125,0.0
1734414493.2992969,0.0,-6.34765625,-482.91015625,-27.34375,0.0
1734414493.3032026,0.0,-2.44140625,-500.48828125,-19.53125,0.0
1734414493.3071084,0.0,13.18359375,-447.265625,-22.94921875,0.0
1734414493.311014,0.0,-9.27734375,-452.63671875,-22.4609375,0.0
1734414493.3149197,0.0,-77.63671875,-690.4296875,-4.8828125,0.0
1734414493.3188255,0.0,4.8828125,-529.296875,-1.953125,0.0
1734414493.3227313,0.0,33.69140625,-389.6484375,-13.18359375,0.0
1734414493.3266368,0.0,-8.7890625,-517.08984375,-5.859375,0.0
1734414493.3303242,-16.11328125,19.04296875,-465.33203125,0.9765625,0.0
1734414493.33423,-20.5078125,7.8125,-427.24609375,-1.953125,0.0
1734414493.3381357,-48.33984375,-27.83203125,-520.01953125,-5.859375,0.0
1734414493.3420413,-62.5,-9.27734375,-497.0703125,-11.71875,0.0
1734414493.345947,-45.8984375,16.6015625,-423.33984375,-4.8828125,0.0
1734414493.3498528,-37.109375,0.48828125,-500.48828125,2.44140625,0.0
1734414493.3537586,-37.59765625,1.46484375,-452.63671875,-7.8125,0.0
1734414493.357664,-34.66796875,-25.390625,-504.8828125,-4.39453125,0.0
1734414493.36157,-27.83203125,-22.4609375,-532.2265625,0.9765625,0.0
1734414493.3654757,-16.11328125,20.01953125,-431.15234375,-12.20703125,0.0
1734414493.3693814,-15.13671875,7.8125,-415.52734375,-6.34765625,0.0
1734414493.3732872,-24.4140625,-58.59375,-609.375,-7.8125,0.0
1734414493.3768857,-23.92578125,-35.15625,-516.6015625,-27.83203125,0.0
1734414493.3807912,-38.0859375,-4.8828125,-335.9375,-35.15625,0.0
1734414493.384697,-39.55078125,-51.7578125,-433.59375,-25.390625,0.0
1734414493.3886027,-24.90234375,-77.63671875,-602.5390625,-22.94921875,0.0
1734414493.3925085,-19.53125,-38.57421875,-475.5859375,-26.85546875,0.0
1734414493.3964143,-22.94921875,-29.296875,-411.1328125,-15.13671875,0.0
1734414493.4003198,-59.08203125,-49.31640625,-518.06640625,-12.20703125,0.0
1734414493.4042256,-69.82421875,-74.70703125,-638.671875,2.9296875,0.0
1734414493.4081314,-54.19921875,-0.9765625,-436.5234375,8.30078125,0.0
1734414493.4120371,-35.15625,18.06640625,-299.8046875,-10.7421875,0.0
1734414493.4159427,-18.06640625,-35.64453125,-403.80859375,-12.20703125,0.0
1734414493.4198484,-35.64453125,-36.1328125,-372.0703125,-15.625,0.0
1734414493.4254434,-42.96875,-15.625,-310.546875,-25.390625,0.0
1734414493.429349,-25.390625,-30.2734375,-333.0078125,-18.5546875,0.0
1734414493.4332547,-19.04296875,-54.6875,-426.7578125,-6.8359375,0.0
1734414493.4371605,-22.4609375,-22.94921875,-377.9296875,-9.765625,0.0
1734414493.4410663,-17.578125,-17.08984375,-337.40234375,-23.4375,0.0
1734414493.444972,-21.97265625,-61.03515625,-414.0625,-21.97265625,0.0
1734414493.4488776,-28.3203125,-83.49609375,-470.703125,-21.484375,0.0
1734414493.4527833,-27.83203125,-57.6171875,-445.80078125,-25.87890625,0.0
1734414493.4566891,-13.671875,-24.4140625,-362.3046875,-31.25,0.0
1734414493.460595,-17.578125,-49.31640625,-412.109375,-28.80859375,0.0
1734414493.4645007,-34.66796875,-55.17578125,-447.75390625,-7.32421875,0.0
1734414493.4684062,-16.6015625,-20.5078125,-338.8671875,-9.765625,0.0
1734414493.4715967,-25.390625,-8.30078125,-280.76171875,-21.484375,0.0
1734414493.4755023,-50.78125,-34.1796875,-302.734375,-18.5546875,0.0
1734414493.479408,-5.859375,-58.59375,-418.9453125,-12.20703125,0.0
1734414493.4833138,25.390625,-27.83203125,-338.37890625,-2.44140625,0.0
1734414493.4872196,-8.30078125,-34.1796875,-283.69140625,20.01953125,0.0
1734414493.4911253,-22.4609375,-88.37890625,-421.38671875,26.3671875,0.0
1734414493.4950309,-21.97265625,-81.54296875,-412.109375,4.8828125,0.0
1734414493.4989367,-34.66796875,-36.62109375,-301.26953125,0.9765625,0.0
1734414493.5028424,-44.921875,-40.52734375,-255.859375,3.90625,0.0
1734414493.5067482,-38.0859375,-77.63671875,-378.41796875,0.9765625,0.0
1734414493.510654,-36.1328125,-90.33203125,-444.82421875,7.8125,0.0
1734414493.5145595,-34.1796875,-39.0625,-302.734375,19.04296875,0.0
1734414493.5176618,-21.97265625,-18.5546875,-244.140625,11.71875,0.0
1734414493.5215676,-0.48828125,-60.05859375,-393.5546875,11.23046875,0.0
1734414493.5254734,8.7890625,-77.1484375,-560.05859375,20.99609375,0.0
1734414493.5293791,-9.27734375,5.859375,-333.0078125,6.8359375,0.0
1734414493.5332847,-16.6015625,9.27734375,-230.95703125,4.8828125,0.0
1734414493.5371904,-2.44140625,-49.31640625,-404.78515625,20.5078125,0.0
1734414493.5410962,-19.04296875,-36.1328125,-413.57421875,14.16015625,0.0
1734414493.545002,-27.83203125,24.90234375,-245.1171875,3.90625,0.0
1734414493.5489075,-12.20703125,4.39453125,-272.94921875,14.6484375,0.0
1734414493.5528133,5.859375,-27.83203125,-379.39453125,21.484375,0.0
1734414493.556719,3.90625,1.46484375,-308.59375,20.5078125,0.0
1734414493.5606248,-26.85546875,5.37109375,-226.5625,19.04296875,0.0
1734414493.5648382,-24.4140625,-25.87890625,-269.53125,25.87890625,0.0
1734414493.568744,-9.27734375,-46.875,-415.0390625,21.484375,0.0
1734414493.5726497,-13.671875,-14.6484375,-250.48828125,4.39453125,0.0
1734414493.5765555,-18.06640625,-7.8125,-164.55078125,9.27734375,0.0
1734414493.5804613,-25.390625,-43.9453125,-266.6015625,9.27734375,0.0
1734414493.5843668,-38.0859375,-67.87109375,-355.95703125,7.32421875,0.0
1734414493.5882726,-39.55078125,-22.94921875,-320.3125,5.859375,0.0
1734414493.5921783,-28.80859375,4.39453125,-116.2109375,-3.90625,0.0
1734414493.596084,-18.06640625,-50.29296875,-164.55078125,-12.6953125,0.0
1734414493.5999897,-22.4609375,-93.26171875,-484.86328125,-21.97265625,0.0
1734414493.6038954,-17.578125,-24.90234375,-291.9921875,-36.62109375,0.0
1734414493.6078012,-16.6015625,-6.34765625,-71.2890625,-41.015625,0.0
1734414493.6117547,-30.76171875,-33.69140625,-209.47265625,-48.828125,0.0
1734414493.6156602,-44.43359375,-18.06640625,-272.94921875,-48.828125,0.0
1734414493.619566,-57.12890625,-6.34765625,-154.78515625,-48.33984375,0.0
1734414493.6234717,-52.24609375,-26.3671875,-130.37109375,-48.33984375,0.0
1734414493.6273775,-30.2734375,-49.31640625,-292.48046875,-54.19921875,0.0
1734414493.6312833,-30.76171875,-36.1328125,-363.28125,-60.546875,0.0
1734414493.6351888,-41.015625,5.37109375,-247.0703125,-67.87109375,0.0
1734414493.6390946,-34.1796875,6.8359375,-221.6796875,-77.63671875,0.0
1734414493.6430004,-25.87890625,-50.78125,-399.90234375,-75.68359375,0.0
1734414493.6469061,-36.1328125,-33.69140625,-402.34375,-65.91796875,0.0
1734414493.650812,-61.03515625,18.5546875,-220.21484375,-76.66015625,0.0
1734414493.6547174,-43.45703125,-11.71875,-239.2578125,-79.58984375,0.0
1734414493.65968,-30.2734375,-36.1328125,-390.13671875,-73.73046875,0.0
1734414493.6635854,-41.9921875,-17.578125,-288.57421875,-99.12109375,0.0
1734414493.6674912,-48.828125,-19.53125,-208.49609375,-107.421875,0.0
1734414493.671397,-56.640625,-48.33984375,-268.06640625,-98.14453125,0.0
1734414493.6753027,-49.8046875,-62.01171875,-303.22265625,-101.07421875,0.0
1734414493.6792085,-40.0390625,-48.33984375,-353.515625,-91.30859375,0.0
1734414493.683114,-28.3203125,-6.8359375,-298.828125,-73.2421875,0.0
1734414493.6870198,-21.97265625,-5.37109375,-334.9609375,-85.44921875,0.0
1734414493.6909256,-21.484375,-45.41015625,-539.55078125,-81.0546875,0.0
1734414493.6948314,-30.2734375,29.78515625,-306.640625,-67.87109375,0.0
1734414493.6987371,-41.015625,37.109375,-167.48046875,-69.3359375,0.0
1734414493.7026427,-46.875,-4.8828125,-321.2890625,-86.9140625,0.0
1734414493.7063417,-41.9921875,22.4609375,-254.39453125,-91.30859375,0.0
1734414493.7102475,-16.11328125,27.83203125,-177.24609375,-76.171875,0.0
1734414493.7141533,-14.6484375,0.9765625,-192.3828125,-75.68359375,0.0
1734414493.718059,-29.78515625,-15.13671875,-251.953125,-76.171875,0.0
1734414493.7219648,-47.36328125,0.48828125,-252.44140625,-60.546875,0.0
1734414493.7258704,-31.73828125,-7.32421875,-290.0390625,-62.5,0.0
1734414493.7297761,0.48828125,-1.46484375,-266.11328125,-68.359375,0.0
1734414493.733682,-25.87890625,-17.578125,-269.53125,-58.59375,0.0
1734414493.7375877,-83.984375,-23.4375,-292.48046875,-40.52734375,0.0
1734414493.7414935,-73.73046875,-4.39453125,-273.4375,-37.109375,0.0
1734414493.745399,-53.22265625,-12.20703125,-278.3203125,-35.15625,0.0
1734414493.7493048,-56.640625,-44.43359375,-434.5703125,-25.390625,0.0
1734414493.7540364,-46.875,-0.48828125,-341.30859375,-26.3671875,0.0
1734414493.7579422,-37.59765625,31.73828125,-29.78515625,-37.59765625,0.0
1734414493.7618477,-44.921875,-18.06640625,-83.0078125,-45.41015625,0.0
1734414493.7657535,-40.0390625,-16.6015625,-252.9296875,-38.0859375,0.0
1734414493.7696593,-37.59765625,0.9765625,-228.02734375,-30.76171875,0.0
1734414493.773565,-25.390625,-31.25,-272.94921875,-37.59765625,0.0
1734414493.7774708,-11.23046875,-48.33984375,-365.234375,-32.71484375,0.0
1734414493.7813764,-14.6484375,-61.5234375,-502.9296875,-16.6015625,0.0
1734414493.7852821,-25.390625,-1.46484375,-224.12109375,-13.18359375,0.0
1734414493.789188,-36.1328125,6.34765625,37.109375,-4.8828125,0.0
1734414493.7930937,-33.69140625,-35.15625,-129.8828125,2.44140625,0.0
1734414493.7969995,-1.953125,-31.73828125,-247.0703125,14.6484375,0.0
1734414493.8003316,6.34765625,-32.71484375,-284.66796875,21.97265625,0.0
1734414493.8042371,-2.9296875,-29.78515625,-244.140625,16.6015625,0.0
1734414493.808143,3.41796875,-52.734375,-283.69140625,13.18359375,0.0
1734414493.8120487,-6.8359375,-43.45703125,-271.97265625,15.13671875,0.0
1734414493.8159544,-3.90625,-37.59765625,-239.2578125,11.23046875,0.0
1734414493.8198602,0.9765625,-64.94140625,-363.28125,7.32421875,0.0
1734414493.8237658,-22.4609375,-70.3125,-381.34765625,8.30078125,0.0
1734414493.8276715,-30.76171875,-39.55078125,-279.296875,2.9296875,0.0
1734414493.8315773,-15.13671875,-45.8984375,-281.73828125,14.16015625,0.0
1734414493.835483,6.34765625,-65.4296875,-347.65625,11.23046875,0.0
1734414493.8393888,-11.71875,-68.359375,-455.078125,-0.9765625,0.0
1734414493.8432944,-23.92578125,-35.64453125,-362.3046875,-5.37109375,0.0
1734414493.8465545,0.0,13.671875,-186.5234375,-8.7890625,0.0
1734414493.8504603,0.0,-17.08984375,-273.4375,9.765625,0.0
1734414493.854366,0.0,-66.89453125,-535.64453125,8.7890625,0.0
1734414493.8582716,0.0,-12.20703125,-389.16015625,-8.7890625,0.0
1734414493.8621774,0.0,13.18359375,-227.5390625,-1.46484375,0.0
1734414493.8660831,0.0,-53.22265625,-384.27734375,6.8359375,0.0
1734414493.869989,0.0,-99.609375,-550.78125,14.6484375,0.0
1734414493.8738947,0.0,-24.4140625,-346.6796875,-2.44140625,0.0
1734414493.8778002,0.0,-7.32421875,-209.9609375,-22.94921875,0.0
1734414493.881706,0.0,-64.453125,-337.890625,-19.04296875,0.0
1734414493.8856118,0.0,-50.29296875,-323.73046875,-17.08984375,0.0
1734414493.8895175,0.0,-39.55078125,-263.18359375,1.46484375,0.0
1734414493.8926692,-44.43359375,-53.7109375,-271.97265625,-1.953125,0.0
1734414493.8965747,-28.3203125,-68.84765625,-362.3046875,-20.99609375,0.0
1734414493.9004805,-13.671875,-66.40625,-343.75,-26.3671875,0.0
1734414493.9043863,-8.30078125,-57.12890625,-276.3671875,-21.484375,0.0
1734414493.908292,-25.390625,-66.89453125,-309.08203125,-20.5078125,0.0
1734414493.9121976,-20.99609375,-95.703125,-414.55078125,-21.484375,0.0
1734414493.9161034,-8.30078125,-81.54296875,-435.05859375,-21.484375,0.0
1734414493.9200091,-21.97265625,-30.2734375,-322.75390625,-33.203125,0.0
1734414493.923915,-20.99609375,-51.7578125,-315.4296875,-32.2265625,0.0
1734414493.9278207,-10.25390625,-101.5625,-448.2421875,-18.5546875,0.0
1734414493.9317262,-23.92578125,-55.6640625,-360.83984375,-35.64453125,0.0
1734414493.935632,-22.4609375,-23.92578125,-236.328125,-41.015625,0.0
1734414493.939725,-20.01953125,-54.19921875,-288.57421875,-37.109375,0.0
1734414493.9436307,-31.73828125,-72.75390625,-418.9453125,-33.69140625,0.0
1734414493.9475365,-7.32421875,-44.43359375,-331.54296875,-27.83203125,0.0
1734414493.9514422,-26.3671875,-21.484375,-226.5625,-25.87890625,0.0
1734414493.955348,-45.41015625,-36.62109375,-269.04296875,-23.92578125,0.0
1734414493.9592535,-28.80859375,-63.96484375,-381.8359375,-33.203125,0.0
1734414493.9631593,-23.4375,-24.4140625,-344.7265625,-38.0859375,0.0
1734414493.967065,-12.20703125,0.48828125,-224.12109375,-25.87890625,0.0
1734414493.9709709,-27.34375,-46.875,-339.84375,-24.4140625,0.0
1734414493.9748766,-39.0625,-49.8046875,-340.8203125,-35.64453125,0.0
1734414493.9787822,-11.23046875,-15.13671875,-263.18359375,-36.62109375,0.0
1734414493.982688,-12.20703125,-19.04296875,-263.671875,-23.92578125,0.0
1734414493.9866745,-29.78515625,-71.2890625,-397.4609375,-24.4140625,0.0
1734414493.9905803,-41.50390625,-83.49609375,-452.1484375,-28.80859375,0.0
1734414493.994486,-51.7578125,-24.4140625,-263.671875,-43.9453125,0.0
1734414493.9983916,-41.015625,-34.1796875,-246.09375,-52.24609375,0.0
1734414494.0022974,-33.69140625,-71.2890625,-323.2421875,-34.1796875,0.0
1734414494.0062032,-35.64453125,-77.63671875,-351.07421875,-15.625,0.0
1734414494.010109,-23.4375,-45.41015625,-303.22265625,-30.76171875,0.0
1734414494.0140147,-3.41796875,-28.80859375,-244.140625,-55.6640625,0.0
1734414494.0179203,-9.765625,-82.51953125,-405.2734375,-45.8984375,0.0
1734414494.021826,-26.85546875,-55.6640625,-406.73828125,-24.4140625,0.0
1734414494.0257318,-42.48046875,-8.7890625,-256.8359375,-15.13671875,0.0
1734414494.0296376,-58.59375,-49.31640625,-351.5625,-13.671875,0.0
1734414494.033996,-45.41015625,-51.26953125,-405.76171875,-17.578125,0.0
1734414494.0379019,-33.203125,-19.53125,-303.22265625,-22.94921875,0.0
1734414494.0418074,-36.1328125,-12.6953125,-256.34765625,-35.64453125,0.0
1734414494.0457132,-7.8125,-22.94921875,-273.4375,-29.78515625,0.0
1734414494.049619,-2.44140625,-37.109375,-280.76171875,-22.4609375,0.0
1734414494.0535247,-40.0390625,-53.22265625,-310.05859375,-41.50390625,0.0
1734414494.0574305,-58.10546875,-26.3671875,-245.60546875,-46.38671875,0.0
1734414494.061336,-41.50390625,-29.78515625,-232.91015625,-40.52734375,0.0
1734414494.0652418,-14.16015625,-92.7734375,-465.33203125,-17.578125,0.0
1734414494.0691476,-21.484375,-30.76171875,-274.90234375,-26.85546875,0.0
1734414494.0730534,-56.640625,-21.484375,-85.44921875,-65.4296875,0.0
1734414494.0769591,-41.015625,-70.3125,-190.4296875,-60.546875,0.0
1734414494.080724,7.8125,-64.94140625,-267.08984375,-36.1328125,0.0
1734414494.0846295,26.85546875,-78.125,-293.45703125,-23.92578125,0.0
1734414494.0885353,5.37109375,-67.3828125,-248.046875,-25.87890625,0.0
1734414494.092441,-38.57421875,-65.4296875,-282.71484375,-16.11328125,0.0
1734414494.0963469,-47.36328125,-54.19921875,-322.265625,-24.90234375,0.0
1734414494.1002524,-38.0859375,-54.19921875,-323.73046875,-35.15625,0.0
1734414494.1041582,-29.296875,-40.52734375,-286.62109375,-31.73828125,0.0
1734414494.108064,-7.8125,-49.31640625,-346.6796875,-35.64453125,0.0
1734414494.1119697,-13.671875,-50.78125,-361.328125,-34.1796875,0.0
1734414494.1158755,-49.8046875,-13.18359375,-264.16015625,-40.52734375,0.0
1734414494.119781,-47.36328125,-29.296875,-266.6015625,-44.921875,0.0
1734414494.1236868,-34.66796875,-58.10546875,-375.9765625,-49.8046875,0.0
1734414494.1271653,0.0,-41.9921875,-326.66015625,-49.8046875,0.0
1734414494.131071,0.0,-34.1796875,-238.76953125,-39.0625,0.0
1734414494.1349769,0.0,-57.12890625,-296.875,-25.390625,0.0
1734414494.1388824,0.0,-73.2421875,-386.23046875,-20.5078125,0.0
1734414494.1427882,0.0,-67.3828125,-396.484375,-26.3671875,0.0
1734414494.146694,0.0,-50.78125,-383.7890625,-30.2734375,0.0
1734414494.1505997,0.0,-57.12890625,-402.34375,-43.45703125,0.0
1734414494.1545053,0.0,-86.9140625,-566.40625,-40.52734375,0.0
1734414494.158411,0.0,-12.6953125,-382.32421875,-49.8046875,0.0
1734414494.1623168,0.0,8.30078125,-228.515625,-63.4765625,0.0
1734414494.1662226,0.0,-45.8984375,-367.67578125,-48.828125,0.0
1734414494.1701283,0.0,-37.109375,-394.04296875,-37.109375,0.0
1734414494.1724763,-41.50390625,-15.13671875,-366.2109375,-44.43359375,0.0
1734414494.1763818,-42.96875,-34.66796875,-377.9296875,-43.9453125,0.0
1734414494.1802876,-37.109375,-56.15234375,-430.6640625,-41.50390625,0.0
1734414494.1841934,-34.1796875,-40.52734375,-399.90234375,-50.78125,0.0
1734414494.1880991,-30.2734375,-32.2265625,-386.23046875,-62.5,0.0
1734414494.1920047,-25.390625,-56.640625,-458.984375,-42.48046875,0.0
1734414494.1959105,-13.18359375,-77.1484375,-545.41015625,-22.4609375,0.0
1734414494.1998162,-20.5078125,-46.875,-528.80859375,-41.9921875,0.0
1734414494.203722,-33.203125,-4.39453125,-417.96875,-33.203125,0.0
1734414494.2076275,-33.69140625,-46.875,-462.890625,-20.5078125,0.0
1734414494.2115333,-34.1796875,-89.35546875,-543.45703125,-30.76171875,0.0
1734414494.215439,-9.27734375,-62.5,-440.4296875,-27.34375,0.0
1734414494.218907,-42.96875,-29.78515625,-331.0546875,-19.04296875,0.0
1734414494.222813,-42.48046875,-57.12890625,-375.0,-17.578125,0.0
1734414494.2267187,-19.04296875,-103.515625,-599.12109375,-11.71875,0.0
1734414494.2306244,-27.83203125,-51.26953125,-454.58984375,-12.6953125,0.0
1734414494.23453,-51.7578125,-35.64453125,-299.31640625,-24.4140625,0.0
1734414494.2384357,-18.06640625,-92.7734375,-458.0078125,-23.4375,0.0
1734414494.2423415,-10.7421875,-84.9609375,-479.00390625,-13.671875,0.0
1734414494.2462473,-38.57421875,-37.109375,-362.79296875,-8.7890625,0.0
1734414494.2501528,-42.96875,-37.109375,-300.29296875,-16.6015625,0.0
1734414494.2540586,-44.921875,-79.58984375,-390.13671875,-21.484375,0.0
1734414494.2579644,-31.25,-111.328125,-619.62890625,-16.6015625,0.0
1734414494.2618701,-49.8046875,-13.18359375,-420.8984375,-20.01953125,0.0
1734414494.2673345,0.0,5.859375,0.0,-20.99609375,0.0
1734414494.2712402,0.0,-53.22265625,0.0,-25.87890625,0.0
1734414494.2751458,0.0,-47.36328125,0.0,-25.390625,0.0
1734414494.2790515,0.0,-29.296875,0.0,-22.94921875,0.0
1734414494.2829573,0.0,-42.48046875,0.0,-33.69140625,0.0
1734414494.286863,0.0,-83.49609375,0.0,-33.69140625,0.0
1734414494.2907686,0.0,-60.546875,0.0,-25.87890625,0.0
1734414494.2946744,0.0,-4.8828125,0.0,-32.2265625,0.0
1734414494.2985802,0.0,-37.109375,0.0,-36.62109375,0.0
1734414494.302486,0.0,-62.98828125,0.0,-54.6875,0.0
1734414494.3063917,0.0,-16.11328125,0.0,-58.10546875,0.0
1734414494.3102973,0.0,-2.44140625,0.0,-45.8984375,0.0
1734414494.314495,-27.34375,-52.734375,-395.01953125,-38.57421875,0.0
1734414494.3184006,-38.57421875,-70.80078125,-598.6328125,-30.2734375,0.0
1734414494.3223064,-70.3125,-21.484375,-409.66796875,-42.96875,0.0
1734414494.3262122,-62.98828125,-5.37109375,-276.85546875,-54.6875,0.0
1734414494.330118,-48.828125,-52.734375,-356.93359375,-47.8515625,0.0
1734414494.3340237,-62.5,-85.44921875,-500.48828125,-42.48046875,0.0
1734414494.3379292,-46.875,-17.08984375,-422.36328125,-43.45703125,0.0
1734414494.341835,-40.52734375,21.484375,-296.38671875,-50.78125,0.0
1734414494.3457408,-31.73828125,-30.2734375,-384.27734375,-43.9453125,0.0
1734414494.3496466,-5.859375,-53.7109375,-395.5078125,-24.90234375,0.0
1734414494.3535523,-21.484375,-13.671875,-304.19921875,-48.33984375,0.0
1734414494.3574579,-41.015625,-25.87890625,-276.3671875,-59.08203125,0.0
1734414494.364082,0.0,-66.89453125,-440.91796875,0.0,0.0
1734414494.3679879,0.0,-60.546875,-625.0,0.0,0.0
1734414494.3718936,0.0,20.99609375,-402.83203125,0.0,0.0
1734414494.3757992,0.0,11.23046875,-346.19140625,0.0,0.0
1734414494.379705,0.0,-8.7890625,-412.59765625,0.0,0.0
1734414494.3836107,0.0,-7.8125,-375.48828125,0.0,0.0
1734414494.3875165,0.0,-14.6484375,-363.76953125,0.0,0.0
1734414494.3914223,0.0,-11.71875,-308.59375,0.0,0.0
1734414494.395328,0.0,-62.5,-431.640625,0.0,0.0
1734414494.3992336,0.0,-36.1328125,-447.75390625,0.0,0.0
1734414494.4031394,0.0,36.1328125,-271.97265625,0.0,0.0
1734414494.4070451,0.0,-6.34765625,-313.4765625,0.0,0.0
1734414494.4106917,-29.296875,-37.109375,-472.16796875,-24.90234375,0.0
1734414494.4145973,-35.64453125,-4.8828125,-333.984375,-38.0859375,0.0
1734414494.418503,-42.96875,-13.671875,-270.01953125,-35.15625,0.0
1734414494.4224088,-20.5078125,-38.0859375,-337.890625,-28.3203125,0.0
1734414494.4263146,-9.27734375,-47.8515625,-334.9609375,-37.109375,0.0
1734414494.4302204,-7.32421875,-24.4140625,-341.796875,-41.9921875,0.0
1734414494.434126,-24.4140625,-8.7890625,-332.03125,-26.3671875,0.0
1734414494.4380317,-44.921875,-30.2734375,-350.5859375,-11.23046875,0.0
1734414494.4419374,-56.15234375,-24.90234375,-316.40625,-7.32421875,0.0
1734414494.4458432,-45.41015625,11.23046875,-213.37890625,-13.18359375,0.0
1734414494.449749,-21.97265625,13.671875,-191.89453125,-10.7421875,0.0
1734414494.4536548,-25.390625,-7.32421875,-293.9453125,-8.7890625,0.0
1734414494.4571927,-35.15625,-2.44140625,-294.43359375,-13.671875,0.0
1734414494.4610984,-28.3203125,15.625,-203.125,-12.6953125,0.0
1734414494.4650042,-34.1796875,2.9296875,-157.71484375,-17.08984375,0.0
1734414494.46891,-29.78515625,-37.109375,-318.359375,-8.7890625,0.0
1734414494.4728155,-22.4609375,-31.73828125,-485.83984375,0.0,0.0
1734414494.4767213,-23.92578125,16.11328125,-328.61328125,-4.39453125,0.0
1734414494.480627,-29.78515625,22.4609375,-206.54296875,-13.18359375,0.0
1734414494.4845328,-19.04296875,-14.6484375,-320.80078125,-20.5078125,0.0
1734414494.4884386,-0.48828125,-14.16015625,-402.83203125,-18.06640625,0.0
1734414494.4923441,3.90625,43.45703125,-298.33984375,-20.99609375,0.0
1734414494.49625,-17.578125,32.2265625,-239.2578125,-22.94921875,0.0
1734414494.5001557,-47.8515625,-0.9765625,-330.078125,-13.671875,0.0
1734414494.5046864,0.0,18.5546875,-274.90234375,-15.625,0.0
1734414494.508592,0.0,28.80859375,-79.1015625,-5.37109375,0.0
1734414494.5124977,0.0,-6.8359375,-80.56640625,3.90625,0.0
1734414494.5164034,0.0,-19.53125,-284.1796875,-15.13671875,0.0
1734414494.5203092,0.0,0.9765625,-248.046875,-25.87890625,0.0
1734414494.524215,0.0,-23.92578125,-292.48046875,-29.296875,0.0
1734414494.5281208,0.0,-43.45703125,-389.16015625,-25.390625,0.0
1734414494.5320263,0.0,-58.59375,-509.765625,-14.6484375,0.0
1734414494.535932,0.0,8.7890625,-307.6171875,-27.34375,0.0
1734414494.5398378,0.0,13.671875,-159.66796875,-34.66796875,0.0
1734414494.5437436,0.0,-60.546875,-311.5234375,-15.625,0.0
1734414494.5476494,0.0,-67.87109375,-348.14453125,-17.08984375,0.0
1734414494.5508835,-39.55078125,-15.625,-233.3984375,-28.3203125,0.0
1734414494.554789,-30.76171875,3.90625,-184.5703125,-22.4609375,0.0
1734414494.5586948,-17.578125,-15.625,-297.8515625,-23.92578125,0.0
1734414494.5626006,-28.80859375,-1.46484375,-261.23046875,-22.4609375,0.0
1734414494.5665064,-22.4609375,-2.44140625,-205.56640625,-18.06640625,0.0
1734414494.5704122,-15.625,-40.52734375,-303.22265625,-26.85546875,0.0
1734414494.5743177,-0.48828125,-39.55078125,-324.21875,-30.2734375,0.0
1734414494.5782235,27.34375,8.30078125,-202.1484375,-4.8828125,0.0
1734414494.5821292,-33.203125,-15.13671875,-188.96484375,-7.8125,0.0
1734414494.586035,-78.61328125,-53.22265625,-242.1875,-14.6484375,0.0
1734414494.5899408,-35.15625,-81.0546875,-378.90625,-6.8359375,0.0
1734414494.5938463,-30.2734375,-37.59765625,-259.765625,-24.90234375,0.0
1734414494.5969925,0.0,24.4140625,51.26953125,-39.55078125,0.0
1734414494.6008983,0.0,-15.13671875,-18.06640625,-13.18359375,0.0
1734414494.6048038,0.0,-41.50390625,-213.37890625,1.953125,0.0
1734414494.6087096,0.0,-20.99609375,-54.6875,-16.6015625,0.0
1734414494.6126153,0.0,-29.296875,73.2421875,-4.8828125,0.0
1734414494.6165211,0.0,-44.43359375,-209.47265625,7.8125,0.0
1734414494.620427,0.0,-44.921875,-472.65625,-24.4140625,0.0
1734414494.6243324,0.0,37.109375,-143.06640625,-75.1953125,0.0
1734414494.6282382,0.0,66.89453125,124.51171875,-98.14453125,0.0
1734414494.632144,0.0,24.4140625,-13.18359375,-107.91015625,0.0
1734414494.6360497,0.0,30.76171875,-80.078125,-149.90234375,0.0
1734414494.6399553,0.0,46.38671875,53.7109375,-194.3359375,0.0
1734414494.6420891,-61.5234375,56.15234375,120.1171875,-228.515625,0.0
1734414494.6459947,-62.01171875,48.828125,55.17578125,-237.3046875,0.0
1734414494.6499004,-55.17578125,66.89453125,88.8671875,-243.1640625,0.0
1734414494.6538062,-60.546875,83.0078125,140.625,-264.6484375,0.0
1734414494.657712,-36.62109375,62.98828125,119.140625,-255.859375,0.0
1734414494.6616178,-5.37109375,20.99609375,-22.94921875,-245.1171875,0.0
1734414494.6655233,-41.50390625,14.6484375,-120.60546875,-229.4921875,0.0
1734414494.669429,-75.68359375,53.7109375,86.9140625,-205.56640625,0.0
1734414494.6733348,-88.37890625,18.5546875,82.51953125,-196.77734375,0.0
1734414494.6772406,-121.09375,-24.4140625,-121.09375,-196.77734375,0.0
1734414494.6811461,-145.5078125,13.671875,4.8828125,-173.828125,0.0
1734414494.685052,-167.48046875,20.99609375,127.9296875,-138.671875,0.0
1734414494.6892736,-105.95703125,-14.16015625,84.9609375,-120.60546875,0.0
1734414494.6931794,-105.46875,-66.40625,-182.6171875,-112.3046875,0.0
1734414494.697085,-93.26171875,-14.6484375,-119.62890625,-118.65234375,0.0
1734414494.7009907,-70.3125,16.11328125,114.74609375,-102.5390625,0.0
1734414494.7048965,-68.359375,-45.8984375,27.34375,-67.87109375,0.0
1734414494.7088022,-56.15234375,-73.2421875,-240.72265625,-57.12890625,0.0
1734414494.712708,-46.875,-19.53125,-153.80859375,-59.5703125,0.0
1734414494.7166135,-53.22265625,-5.37109375,40.52734375,-50.78125,0.0
1734414494.7205193,-48.33984375,-41.50390625,-43.9453125,-48.33984375,0.0
1734414494.724425,-35.64453125,-62.98828125,-282.71484375,-34.1796875,0.0
1734414494.7283309,-16.11328125,-0.9765625,-5.859375,-30.2734375,0.0
1734414494.7322364,9.765625,-0.48828125,184.5703125,-24.90234375,0.0
1734414494.7362256,-2.9296875,-34.1796875,64.453125,-19.04296875,0.0
1734414494.7401311,-18.06640625,-25.390625,85.44921875,-27.83203125,0.0
1734414494.744037,-15.625,-34.1796875,105.95703125,-18.5546875,0.0
1734414494.7479427,-22.4609375,-50.29296875,101.07421875,-8.30078125,0.0
1734414494.7518485,-9.765625,-59.5703125,-49.8046875,8.7890625,0.0
1734414494.7557542,-0.9765625,-56.15234375,-139.16015625,7.32421875,0.0
1734414494.7596598,1.46484375,-42.48046875,-49.8046875,2.9296875,0.0
1734414494.7635655,-6.34765625,-28.3203125,106.4453125,4.39453125,0.0
1734414494.7674713,-10.7421875,-86.9140625,-90.33203125,4.8828125,0.0
1734414494.771377,-7.8125,-94.7265625,-284.66796875,3.90625,0.0
1734414494.7752826,-5.37109375,-15.625,-3.90625,0.9765625,0.0
1734414494.7791884,3.41796875,-7.8125,118.65234375,2.44140625,0.0
1734414494.7831013,0.48828125,-44.921875,-54.19921875,6.8359375,0.0
1734414494.787007,-15.625,-32.71484375,-3.90625,7.32421875,0.0
1734414494.7909129,-21.484375,-30.76171875,116.2109375,-3.41796875,0.0
1734414494.7948186,-2.44140625,-50.78125,55.6640625,-22.4609375,0.0
1734414494.7987242,-4.8828125,-76.66015625,-277.34375,-14.6484375,0.0
1734414494.80263,-19.53125,-52.734375,-305.6640625,-5.859375,0.0
1734414494.8065357,-10.25390625,-33.203125,-109.86328125,4.39453125,0.0
1734414494.8104415,-11.71875,-53.7109375,-12.20703125,25.390625,0.0
1734414494.814347,-21.484375,-103.02734375,-316.40625,29.78515625,0.0
1734414494.8182528,-8.7890625,-15.625,-121.58203125,7.32421875,0.0
1734414494.8221586,-14.6484375,19.53125,147.4609375,-15.625,0.0
1734414494.8260643,-12.20703125,-26.3671875,-17.08984375,-7.8125,0.0
1734414494.8297875,0.0,-34.1796875,-109.375,20.01953125,0.0
1734414494.8336933,0.0,-27.83203125,-74.21875,39.0625,0.0
1734414494.837599,0.0,10.25390625,39.55078125,20.99609375,0.0
1734414494.8415048,0.0,6.8359375,-56.640625,-33.69140625,0.0
1734414494.8454106,0.0,-3.41796875,-140.13671875,-44.921875,0.0
1734414494.8493161,0.0,-4.39453125,-189.453125,-12.20703125,0.0
1734414494.853222,0.0,8.30078125,-227.05078125,-45.41015625,0.0
1734414494.8571277,0.0,-20.01953125,-254.39453125,-107.91015625,0.0
1734414494.8610334,0.0,-26.3671875,-233.88671875,-99.609375,0.0
1734414494.864939,0.0,11.23046875,-84.9609375,-93.75,0.0
1734414494.8688447,0.0,-7.32421875,16.6015625,-88.37890625,0.0
1734414494.8727505,0.0,-42.48046875,-61.03515625,-68.359375,0.0
1734414494.8764439,-53.7109375,-21.97265625,-28.80859375,-47.36328125,0.0
1734414494.8803496,-54.19921875,-10.25390625,90.33203125,-31.25,0.0
1734414494.8842552,-62.01171875,-23.4375,20.99609375,-39.0625,0.0
1734414494.888161,-47.36328125,-22.4609375,-274.4140625,-35.64453125,0.0
1734414494.8920667,-38.0859375,4.39453125,-224.609375,-19.53125,0.0
1734414494.8959725,-43.9453125,-0.9765625,-126.46484375,-24.90234375,0.0
1734414494.899878,-41.015625,-37.109375,-259.765625,-41.015625,0.0
1734414494.9037838,-35.15625,-70.80078125,-428.22265625,-31.73828125,0.0
1734414494.9076896,-50.29296875,-1.46484375,-167.96875,-27.34375,0.0
1734414494.9115953,-38.0859375,10.7421875,99.12109375,-23.4375,0.0
1734414494.915501,-27.34375,-34.66796875,-63.4765625,-9.765625,0.0
1734414494.9194067,-17.578125,-17.08984375,-111.81640625,-8.30078125,0.0
1734414494.9240735,1.953125,-7.32421875,0.0,-13.18359375,0.0
1734414494.9279792,16.6015625,-18.5546875,0.0,-10.25390625,0.0
1734414494.9318848,21.97265625,-32.2265625,0.0,-12.20703125,0.0
1734414494.9357905,-12.20703125,-33.69140625,0.0,-24.90234375,0.0
1734414494.9396963,-26.3671875,-34.66796875,0.0,-27.34375,0.0
1734414494.943602,-31.73828125,-45.8984375,0.0,-10.25390625,0.0
1734414494.9475076,-53.7109375,-62.98828125,0.0,-2.44140625,0.0
1734414494.9514134,-46.875,-48.33984375,0.0,-5.859375,0.0
1734414494.9553192,-42.48046875,-15.625,0.0,-10.25390625,0.0
1734414494.959225,-47.36328125,-59.08203125,0.0,-5.859375,0.0
1734414494.9631307,-42.96875,-73.73046875,0.0,-7.8125,0.0
1734414494.9670362,-24.90234375,-53.7109375,0.0,-26.3671875,0.0
1734414494.9715033,-22.4609375,-51.7578125,165.0390625,-29.78515625,0.0
1734414494.975409,-41.9921875,-64.94140625,118.65234375,-13.671875,0.0
1734414494.9793148,-25.87890625,-87.890625,-10.25390625,-11.23046875,0.0
1734414494.9832203,-9.765625,-69.82421875,73.73046875,-34.1796875,0.0
1734414494.987126,-24.4140625,-57.12890625,180.6640625,-24.90234375,0.0
1734414494.991032,-24.4140625,-94.7265625,20.01953125,-2.44140625,0.0
1734414494.9949377,-23.92578125,-78.125,-140.625,-12.20703125,0.0
1734414494.9988434,-22.94921875,-15.625,92.28515625,-3.90625,0.0
1734414495.002749,-20.5078125,-28.3203125,185.05859375,-10.7421875,0.0
1734414495.0066547,0.48828125,-73.73046875,-3.41796875,-6.34765625,0.0
1734414495.0105605,32.71484375,-97.65625,-310.05859375,33.203125,0.0
1734414495.0144663,0.0,-23.92578125,-7.32421875,-7.8125,0.0
1734414495.0175881,-32.71484375,-21.97265625,176.7578125,-69.3359375,0.0
1734414495.021494,-17.08984375,-74.70703125,34.66796875,-59.5703125,0.0
1734414495.0253997,0.0,-61.03515625,77.1484375,-9.765625,0.0
1734414495.0293055,-42.48046875,-61.03515625,100.5859375,-26.85546875,0.0
1734414495.0332112,-83.49609375,-81.0546875,130.859375,-41.50390625,0.0
1734414495.0371168,-45.41015625,-105.95703125,-61.03515625,-19.04296875,0.0
1734414495.0410225,-11.23046875,-67.87109375,-141.6015625,-28.80859375,0.0
1734414495.0449283,-13.18359375,-33.203125,86.42578125,-23.4375,0.0
1734414495.048834,-41.50390625,-65.4296875,101.07421875,0.48828125,0.0
1734414495.0527396,-68.359375,-105.46875,-150.390625,1.46484375,0.0
1734414495.0566454,-63.4765625,-63.4765625,-161.1328125,1.46484375,0.0
1734414495.0605512,-52.24609375,-26.3671875,74.70703125,-0.48828125,0.0
1734414495.0647418,-49.31640625,-65.91796875,10.7421875,-12.6953125,0.0
1734414495.0686476,-37.109375,-69.3359375,-45.41015625,-12.20703125,0.0
1734414495.0725534,-32.2265625,-45.8984375,78.125,-9.765625,0.0
1734414495.0764592,-22.4609375,-39.55078125,135.7421875,-15.13671875,0.0
1734414495.0803647,-8.30078125,-55.6640625,66.89453125,-8.30078125,0.0
1734414495.0842705,-6.34765625,-93.26171875,-215.8203125,4.39453125,0.0
1734414495.0881763,-8.30078125,-64.453125,-126.953125,7.32421875,0.0
1734414495.092082,-18.5546875,-25.87890625,141.6015625,-12.6953125,0.0
1734414495.0959878,-18.5546875,-50.78125,36.62109375,-16.11328125,0.0
1734414495.0998933,-21.484375,-62.98828125,-105.95703125,-14.16015625,0.0
1734414495.103799,-19.04296875,-24.90234375,66.89453125,-25.390625,0.0
1734414495.1077049,-3.41796875,-27.34375,139.16015625,-12.20703125,0.0
1734414495.1116896,-6.8359375,-57.6171875,17.578125,-7.8125,0.0
1734414495.115595,1.953125,-35.64453125,-70.80078125,-10.7421875,0.0
1734414495.1195009,-8.7890625,-6.8359375,-8.7890625,-5.859375,0.0
1734414495.1234066,-22.4609375,-9.27734375,119.140625,0.48828125,0.0
1734414495.1273124,-29.78515625,-47.36328125,29.78515625,-5.37109375,0.0
1734414495.1312182,-20.01953125,-68.84765625,-86.9140625,-6.34765625,0.0
1734414495.1351237,-9.27734375,-28.80859375,82.03125,-10.25390625,0.0
1734414495.1390295,-29.296875,-24.4140625,149.90234375,-24.90234375,0.0
1734414495.1429353,-33.203125,-68.359375,-88.37890625,-21.484375,0.0
1734414495.146841,-16.11328125,-26.3671875,-163.0859375,-4.39453125,0.0
1734414495.1507466,-5.37109375,12.6953125,120.1171875,-2.9296875,0.0
1734414495.1546524,-3.41796875,-23.92578125,150.87890625,-13.18359375,0.0
1734414495.1584852,-22.4609375,-43.9453125,-32.71484375,-13.671875,0.0
1734414495.1623907,-35.64453125,-25.87890625,41.015625,3.41796875,0.0
1734414495.1662965,-31.73828125,-1.953125,193.359375,-9.765625,0.0
1734414495.1702023,-37.59765625,-25.390625,145.99609375,-19.04296875,0.0
1734414495.174108,-37.59765625,-89.35546875,-229.98046875,-7.32421875,0.0
1734414495.1780138,-26.3671875,-67.87109375,-199.70703125,-23.4375,0.0
1734414495.1819193,-24.4140625,-44.921875,52.734375,-33.203125,0.0
1734414495.185825,-9.27734375,-62.98828125,-43.45703125,-22.4609375,0.0
1734414495.189731,-15.625,-88.8671875,-317.3828125,-33.203125,0.0
1734414495.1936367,-43.45703125,-27.83203125,-60.05859375,-69.3359375,0.0
1734414495.1975422,-38.57421875,-8.7890625,170.8984375,-70.3125,0.0
1734414495.201448,-22.4609375,-55.17578125,2.44140625,-49.31640625,0.0
1734414495.2062943,-14.6484375,-36.62109375,-83.0078125,-55.17578125,0.0
1734414495.2102,-44.43359375,-7.8125,42.48046875,-36.62109375,0.0
1734414495.2141056,-55.6640625,-24.90234375,59.5703125,-19.04296875,0.0
1734414495.2180114,-47.8515625,-43.9453125,-83.0078125,-40.0390625,0.0
1734414495.2219172,-72.265625,-34.66796875,-114.2578125,-47.8515625,0.0
1734414495.225823,-61.03515625,-40.0390625,-145.5078125,-22.94921875,0.0
1734414495.2297287,-41.9921875,-45.41015625,-228.515625,-19.53125,0.0
1734414495.2336342,-64.453125,-69.82421875,-284.66796875,-38.57421875,0.0
1734414495.23754,-64.94140625,-75.68359375,-353.02734375,-33.203125,0.0
1734414495.2414458,-56.640625,-18.06640625,-231.4453125,-33.69140625,0.0
1734414495.2453516,-51.26953125,-15.625,-13.18359375,-32.2265625,0.0
1734414495.2492573,-28.80859375,-60.05859375,-186.03515625,-16.11328125,0.0
1734414495.252729,-28.3203125,-43.9453125,0.0,-17.08984375,0.0
1734414495.2566347,-44.921875,-25.390625,0.0,-32.71484375,0.0
1734414495.2605405,-36.1328125,-58.59375,0.0,-32.71484375,0.0
1734414495.2644463,-28.3203125,-104.4921875,0.0,-27.83203125,0.0
1734414495.2683518,-31.73828125,-58.10546875,0.0,-33.69140625,0.0
1734414495.2722576,-13.18359375,-42.96875,0.0,-28.80859375,0.0
1734414495.2761633,2.44140625,-78.61328125,0.0,-36.1328125,0.0
1734414495.280069,5.859375,-73.73046875,0.0,-59.5703125,0.0
1734414495.283975,-19.53125,-17.08984375,0.0,-43.9453125,0.0
1734414495.2878804,-27.83203125,-11.23046875,0.0,-27.34375,0.0
1734414495.2917862,-35.64453125,-67.87109375,0.0,-33.203125,0.0
1734414495.295692,-29.296875,-104.00390625,0.0,-22.94921875,0.0
1734414495.2990806,-16.11328125,-16.6015625,-327.63671875,-38.57421875,0.0
1734414495.3029864,-60.546875,-9.765625,-208.0078125,-48.828125,0.0
1734414495.3068922,-69.3359375,-56.15234375,-344.7265625,-30.76171875,0.0
1734414495.3107977,-48.828125,-38.0859375,-276.85546875,-30.2734375,0.0
1734414495.3147035,-53.22265625,-37.59765625,-250.0,-37.59765625,0.0
1734414495.3186092,-47.8515625,-51.7578125,-335.44921875,-44.921875,0.0
1734414495.322515,-44.921875,-65.91796875,-392.08984375,-36.1328125,0.0
1734414495.3264208,-43.9453125,-54.6875,-391.11328125,-20.99609375,0.0
1734414495.3303263,-42.48046875,-16.11328125,-268.06640625,-32.2265625,0.0
1734414495.334232,-40.0390625,-50.78125,-315.91796875,-58.59375,0.0
1734414495.3381379,-32.2265625,-50.29296875,-371.58203125,-62.01171875,0.0
1734414495.3420436,-40.0390625,-15.13671875,-275.87890625,-41.015625,0.0
1734414495.3452961,-45.41015625,-28.80859375,-238.28125,-43.9453125,0.0
1734414495.349202,-25.390625,-63.4765625,-348.6328125,-49.8046875,0.0
1734414495.3531077,-11.71875,-65.4296875,-448.73046875,-41.9921875,0.0
1734414495.3570135,-25.87890625,-48.33984375,-316.40625,-61.03515625,0.0
1734414495.360919,-36.1328125,-47.36328125,-229.98046875,-79.58984375,0.0
1734414495.3648248,-19.04296875,-78.125,-356.4453125,-43.9453125,0.0
1734414495.3687305,-38.0859375,-114.2578125,-519.53125,-25.390625,0.0
1734414495.3726363,-60.546875,-45.41015625,-322.75390625,-39.0625,0.0
1734414495.3765419,-61.5234375,-8.7890625,-172.36328125,-32.71484375,0.0
1734414495.3804476,-59.5703125,-73.73046875,-333.49609375,-42.48046875,0.0
1734414495.3843534,-55.6640625,-86.42578125,-326.171875,-49.8046875,0.0
1734414495.3882592,-57.12890625,-42.96875,-246.58203125,-49.31640625,0.0
1734414495.391458,-62.98828125,-54.19921875,-219.7265625,-36.1328125,0.0
1734414495.3953638,-69.3359375,-98.6328125,-325.68359375,-39.55078125,0.0
1734414495.3992693,-43.9453125,-72.75390625,-315.4296875,-70.3125,0.0
1734414495.403175,-29.296875,-42.48046875,-221.6796875,-45.8984375,0.0
1734414495.407081,-35.64453125,-63.96484375,-289.0625,-27.34375,0.0
1734414495.4109867,-34.1796875,-84.9609375,-375.9765625,-41.50390625,0.0
1734414495.4148922,-33.69140625,-65.91796875,-429.19921875,-36.1328125,0.0
1734414495.418798,-38.57421875,-1.953125,-237.79296875,-37.59765625,0.0
1734414495.4227037,-21.484375,-37.59765625,-275.87890625,-32.71484375,0.0
1734414495.4266095,-12.6953125,-59.08203125,-363.76953125,-32.2265625,0.0
1734414495.4305153,-8.7890625,-34.66796875,-248.046875,-55.17578125,0.0
1734414495.4344208,-8.7890625,-28.3203125,-231.4453125,-46.38671875,0.0
1734414495.4397902,-41.50390625,-40.52734375,-282.2265625,-37.59765625,0.0
1734414495.443696,-63.4765625,-77.1484375,-413.0859375,-49.8046875,0.0
1734414495.4476018,-46.875,-36.62109375,-341.796875,-38.57421875,0.0
1734414495.4515073,-17.578125,-5.859375,-267.578125,-19.04296875,0.0
1734414495.455413,-11.71875,-32.2265625,-320.3125,-35.15625,0.0
1734414495.4593189,-28.80859375,-70.80078125,-463.37890625,-43.45703125,0.0
1734414495.4632246,-42.96875,-55.17578125,-420.41015625,-25.390625,0.0
1734414495.4671304,-39.55078125,-22.4609375,-285.64453125,-16.6015625,0.0
1734414495.471036,-30.2734375,-55.6640625,-342.28515625,-14.6484375,0.0
1734414495.4749417,-37.109375,-96.19140625,-573.2421875,-20.01953125,0.0
1734414495.4788475,-43.9453125,-0.9765625,-412.59765625,-29.296875,0.0
1734414495.4827533,-39.0625,20.5078125,-275.87890625,-39.55078125,0.0
1734414495.4867349,-33.203125,-18.06640625,-398.4375,-45.8984375,0.0
1734414495.4906406,-22.94921875,-9.27734375,-367.1875,-36.62109375,0.0
1734414495.4945464,-29.296875,-10.7421875,-299.8046875,-33.69140625,0.0
1734414495.498452,-51.7578125,-16.6015625,-333.49609375,-54.19921875,0.0
1734414495.5023577,-52.24609375,-24.4140625,-389.16015625,-51.7578125,0.0
1734414495.5062635,-32.2265625,-13.671875,-461.9140625,-37.59765625,0.0
1734414495.5101693,-3.41796875,34.1796875,-370.1171875,-33.69140625,0.0
1734414495.5140748,-1.46484375,32.2265625,-294.43359375,-37.59765625,0.0
1734414495.5179806,-33.69140625,-25.87890625,-431.640625,-43.45703125,0.0
1734414495.5218863,-57.12890625,-24.90234375,-462.890625,-33.203125,0.0
1734414495.5257921,-52.734375,22.94921875,-356.93359375,-25.390625,0.0
1734414495.529698,-32.2265625,25.390625,-291.50390625,-23.4375,0.0
1734414495.5336015,0.0,-41.015625,-475.5859375,0.0,0.0
1734414495.5375073,0.0,-7.8125,-442.3828125,0.0,0.0
1734414495.541413,0.0,39.55078125,-236.81640625,0.0,0.0
1734414495.5453186,0.0,-10.7421875,-300.78125,0.0,0.0
1734414495.5492244,0.0,-23.92578125,-416.015625,0.0,0.0
1734414495.5531301,0.0,-11.23046875,-430.17578125,0.0,0.0
1734414495.557036,0.0,-3.41796875,-341.30859375,0.0,0.0
1734414495.5609417,0.0,-22.4609375,-336.42578125,0.0,0.0
1734414495.5648472,0.0,-75.68359375,-516.6015625,0.0,0.0
1734414495.568753,0.0,-0.48828125,-333.0078125,0.0,0.0
1734414495.5726588,0.0,10.25390625,-199.70703125,0.0,0.0
1734414495.5765646,0.0,-62.5,-348.14453125,0.0,0.0
1734414495.5770519,-31.73828125,-62.5,0.0,-32.2265625,0.0
1734414495.5809574,-42.96875,-37.59765625,0.0,-52.24609375,0.0
1734414495.5848632,-51.26953125,-40.0390625,0.0,-62.5,0.0
1734414495.588769,-40.0390625,-54.19921875,0.0,-49.31640625,0.0
1734414495.5926747,-7.8125,-37.109375,0.0,-11.71875,0.0
1734414495.5965803,10.25390625,-41.9921875,0.0,7.8125,0.0
1734414495.600486,-9.765625,-33.203125,0.0,-25.87890625,0.0
1734414495.6043918,-20.01953125,-46.38671875,0.0,-34.1796875,0.0
1734414495.6082976,0.0,-56.640625,0.0,3.90625,0.0
1734414495.6122031,17.578125,-14.6484375,0.0,5.37109375,0.0
1734414495.616109,26.3671875,-18.06640625,0.0,19.53125,0.0
1734414495.6200147,14.6484375,-66.40625,0.0,47.36328125,0.0
1734414495.6206164,81.0546875,-42.48046875,-375.9765625,73.73046875,0.0
1734414495.6245222,98.6328125,-7.8125,-277.34375,85.44921875,0.0
1734414495.6284277,61.5234375,-44.43359375,-283.203125,76.171875,0.0
1734414495.6323335,-0.48828125,-68.84765625,-340.8203125,49.8046875,0.0
1734414495.6362393,10.25390625,-41.50390625,-327.1484375,47.36328125,0.0
1734414495.6401448,15.13671875,-35.64453125,-377.9296875,48.828125,0.0
1734414495.6440506,17.578125,-39.55078125,-349.12109375,37.109375,0.0
1734414495.6479564,27.83203125,-75.68359375,-390.13671875,43.45703125,0.0
1734414495.6518621,29.296875,-6.8359375,-432.12890625,30.2734375,0.0
1734414495.6557677,26.85546875,18.06640625,-342.28515625,14.16015625,0.0
1734414495.6596735,16.6015625,-31.73828125,-312.5,14.6484375,0.0
1734414495.6635792,24.4140625,-16.6015625,-428.7109375,7.8125,0.0
1734414495.6642394,0.0,-4.8828125,-366.69921875,0.0,0.0
1734414495.6681452,0.0,-20.5078125,-248.53515625,0.0,0.0
1734414495.6720507,0.0,-47.8515625,-338.8671875,0.0,0.0
1734414495.6759565,0.0,-29.78515625,-448.73046875,0.0,0.0
1734414495.6798623,0.0,-32.71484375,-352.5390625,0.0,0.0
1734414495.6837678,0.0,-50.29296875,-354.98046875,0.0,0.0
1734414495.6876736,0.0,-71.77734375,-425.78125,0.0,0.0
1734414495.6915793,0.0,-49.8046875,-577.63671875,0.0,0.0
1734414495.6954849,0.0,0.48828125,-405.2734375,0.0,0.0
1734414495.6993906,0.0,-28.80859375,-248.53515625,0.0,0.0
1734414495.7032964,0.0,-16.6015625,-363.28125,0.0,0.0
1734414495.707202,0.0,12.6953125,-329.1015625,0.0,0.0
1734414495.711242,-39.0625,11.71875,-215.33203125,15.13671875,0.0
1734414495.7151477,-42.48046875,-29.296875,-254.8828125,16.6015625,0.0
1734414495.7190533,-15.13671875,-65.91796875,-411.1328125,-0.9765625,0.0
1734414495.722959,-8.30078125,-27.34375,-333.984375,-38.57421875,0.0
1734414495.7268648,-25.87890625,-28.3203125,-258.7890625,-27.83203125,0.0
1734414495.7307703,-26.3671875,-80.56640625,-393.06640625,-20.99609375,0.0
1734414495.7346761,-20.5078125,-100.5859375,-556.15234375,-20.99609375,0.0
1734414495.738582,-35.64453125,-18.5546875,-387.20703125,0.48828125,0.0
1734414495.7424874,-40.52734375,1.953125,-285.15625,8.7890625,0.0
1734414495.7463932,-43.45703125,-32.2265625,-345.21484375,-14.16015625,0.0
1734414495.750299,-41.015625,-26.85546875,-312.98828125,-44.921875,0.0
1734414495.7542045,-32.2265625,-14.6484375,-291.50390625,-43.45703125,0.0
1734414495.7691927,-23.4375,-29.78515625,-334.9609375,-28.3203125,0.0
1734414495.7730982,-21.97265625,-46.875,-472.65625,-29.296875,0.0
1734414495.777004,-28.80859375,-34.66796875,-369.62890625,-26.3671875,0.0
1734414495.7809098,-29.296875,-32.2265625,-279.78515625,-28.3203125,0.0
1734414495.7848155,-24.90234375,-44.921875,-338.8671875,-30.76171875,0.0
1734414495.7887213,-22.94921875,-74.21875,-486.81640625,-28.3203125,0.0
1734414495.7926269,-27.34375,-43.45703125,-409.1796875,-27.83203125,0.0
1734414495.7965326,-23.4375,10.7421875,-270.99609375,-33.203125,0.0
1734414495.8004384,-7.32421875,-38.0859375,-379.8828125,-21.97265625,0.0
1734414495.8043442,4.39453125,-74.21875,-590.33203125,-19.04296875,0.0
1734414495.80825,-3.41796875,-38.57421875,-405.76171875,-29.296875,0.0
1734414495.8121555,-28.3203125,-24.90234375,-257.8125,-26.3671875,0.0
1734414495.8232698,-17.578125,-33.69140625,-393.5546875,0.0,0.0
1734414495.8271756,-19.53125,-59.5703125,-454.1015625,0.0,0.0
1734414495.8310814,-6.8359375,-44.43359375,-329.58984375,0.0,0.0
1734414495.8349872,-22.4609375,-28.80859375,-290.52734375,0.0,0.0
1734414495.838893,-51.26953125,-36.1328125,-387.20703125,0.0,0.0
1734414495.8427987,-36.1328125,-66.89453125,-416.015625,0.0,0.0
1734414495.8467045,-31.25,-32.2265625,-324.70703125,0.0,0.0
1734414495.8506103,-32.2265625,13.18359375,-273.92578125,0.0,0.0
1734414495.854516,-15.13671875,-32.2265625,-401.85546875,0.0,0.0
1734414495.8584218,-28.80859375,-81.0546875,-457.51953125,0.0,0.0
1734414495.8623273,-58.10546875,-12.6953125,-298.33984375,0.0,0.0
1734414495.866233,-56.15234375,9.27734375,-284.66796875,0.0,0.0
1734414495.8733501,0.0,-33.203125,0.0,0.0,0.0
1734414495.8772557,0.0,-38.57421875,0.0,0.0,0.0
1734414495.8811615,0.0,3.90625,0.0,0.0,0.0
1734414495.8850672,0.0,6.8359375,0.0,0.0,0.0
1734414495.888973,0.0,-30.76171875,0.0,0.0,0.0
1734414495.8928788,0.0,-35.15625,0.0,0.0,0.0
1734414495.8967845,0.0,-13.18359375,0.0,0.0,0.0
1734414495.9006903,0.0,-5.859375,0.0,0.0,0.0
1734414495.904596,0.0,-60.05859375,0.0,0.0,0.0
1734414495.9085019,0.0,-60.546875,0.0,0.0,0.0
1734414495.9124076,0.0,5.37109375,0.0,0.0,0.0
1734414495.9163134,0.0,-22.4609375,0.0,0.0,0.0
1734414495.9204614,0.0,-48.828125,0.0,-9.27734375,0.0
1734414495.9243672,0.0,-16.11328125,0.0,-1.46484375,0.0
1734414495.928273,0.0,-16.6015625,0.0,-9.765625,0.0
1734414495.9321787,0.0,-51.26953125,0.0,-13.18359375,0.0
1734414495.9360845,0.0,-68.84765625,0.0,0.9765625,0.0
1734414495.9399903,0.0,-50.78125,0.0,-6.8359375,0.0
1734414495.943896,0.0,-11.23046875,0.0,-27.83203125,0.0
1734414495.9478018,0.0,-20.5078125,0.0,-17.578125,0.0
1734414495.9517076,0.0,-99.609375,0.0,-10.7421875,0.0
1734414495.9556131,0.0,-28.80859375,0.0,-16.6015625,0.0
1734414495.959519,0.0,1.953125,0.0,-13.18359375,0.0
1734414495.9634247,0.0,-55.17578125,0.0,-16.6015625,0.0
1734414495.966099,-18.5546875,-39.0625,-296.875,-25.87890625,0.0
1734414495.9700048,-11.71875,-15.625,-252.44140625,-21.484375,0.0
1734414495.9739103,-23.92578125,-21.484375,-255.859375,-12.6953125,0.0
1734414495.977816,-29.296875,-25.87890625,-310.546875,-9.765625,0.0
1734414495.9817219,-29.296875,-15.625,-299.8046875,-16.6015625,0.0
1734414495.9856277,-38.0859375,-42.96875,-323.2421875,-30.76171875,0.0
1734414495.9895334,-51.26953125,-62.01171875,-357.421875,-33.203125,0.0
1734414495.9934392,-34.1796875,-58.59375,-334.47265625,-31.25,0.0
1734414495.997345,-30.2734375,-52.734375,-325.1953125,-22.4609375,0.0
1734414496.0012507,-39.55078125,-38.57421875,-291.50390625,-16.11328125,0.0
1734414496.0051565,-24.4140625,-21.484375,-205.56640625,0.0,0.0
1734414496.0090623,-17.578125,-86.42578125,-417.48046875,-3.90625,0.0
1734414496.0116951,-22.4609375,-60.546875,-388.18359375,-15.13671875,0.0
1734414496.015601,-26.85546875,-4.8828125,-203.125,-16.6015625,0.0
1734414496.0195067,-27.34375,-54.19921875,-295.41015625,-24.4140625,0.0
1734414496.0234125,-33.69140625,-60.05859375,-383.7890625,-27.83203125,0.0
1734414496.0273182,-34.1796875,-36.62109375,-284.66796875,-25.87890625,0.0
1734414496.0312238,-29.78515625,-41.50390625,-260.7421875,-14.16015625,0.0
1734414496.0351295,-30.2734375,-54.6875,-338.37890625,-4.8828125,0.0
1734414496.0390353,-21.484375,-83.49609375,-467.28515625,2.44140625,0.0
1734414496.042941,-15.13671875,-36.62109375,-270.01953125,-6.8359375,0.0
1734414496.0468469,-21.97265625,-29.296875,-140.625,-20.01953125,0.0
1734414496.0507526,-28.80859375,-89.35546875,-331.0546875,-23.4375,0.0
1734414496.0546584,-14.16015625,-89.84375,-454.58984375,2.9296875,0.0
1734414496.0572891,0.9765625,17.08984375,-125.9765625,6.34765625,0.0
1734414496.061195,-31.73828125,29.296875,58.10546875,-52.24609375,0.0
1734414496.0651007,-52.24609375,-18.5546875,-147.94921875,-91.30859375,0.0
1734414496.0690064,-90.33203125,5.859375,-196.2890625,-117.1875,0.0
1734414496.0729122,-173.828125,9.765625,-21.97265625,-146.484375,0.0
1734414496.076818,-214.35546875,-13.671875,-123.53515625,-186.03515625,0.0
1734414496.0807238,-220.703125,-25.390625,-331.0546875,-218.75,0.0
1734414496.0846295,-251.46484375,12.6953125,-335.9375,-236.81640625,0.0
1734414496.0885353,-268.06640625,63.4765625,-19.04296875,-258.7890625,0.0
1734414496.0924408,-253.41796875,3.90625,-73.73046875,-255.859375,0.0
1734414496.0963466,-235.3515625,-24.4140625,-256.34765625,-240.72265625,0.0
1734414496.1002524,-224.609375,0.9765625,-35.15625,-233.3984375,0.0
1734414496.1028109,-196.77734375,-6.8359375,-38.57421875,-205.56640625,0.0
1734414496.1067166,-162.109375,-19.04296875,-94.23828125,-187.01171875,0.0
1734414496.1106224,-139.6484375,-54.19921875,-215.33203125,-165.0390625,0.0
1734414496.1145282,-135.7421875,-5.859375,-93.26171875,-139.6484375,0.0
1734414496.1184337,-151.85546875,14.6484375,83.984375,-131.8359375,0.0
1734414496.1223395,-156.25,-42.48046875,-195.80078125,-125.48828125,0.0
1734414496.1262453,-127.44140625,-71.77734375,-469.23828125,-110.83984375,0.0
1734414496.130151,-107.421875,2.44140625,-221.6796875,-103.515625,0.0
1734414496.1340568,-101.5625,30.76171875,69.3359375,-104.4921875,0.0
1734414496.1379626,-78.61328125,-27.83203125,-68.84765625,-105.46875,0.0
1734414496.1418684,-62.98828125,-28.3203125,-187.01171875,-89.35546875,0.0
1734414496.1457741,-87.890625,-14.6484375,-46.875,-80.078125,0.0
1734414496.1505744,-100.09765625,-32.71484375,39.0625,-84.9609375,0.0
1734414496.1544802,-89.35546875,-41.50390625,-112.79296875,-77.1484375,0.0
1734414496.158386,-74.70703125,-35.15625,-226.5625,-63.96484375,0.0
1734414496.1622918,-67.87109375,-40.52734375,-229.98046875,-62.01171875,0.0
1734414496.1661975,-58.10546875,-29.78515625,-132.32421875,-66.89453125,0.0
1734414496.170103,-41.015625,-52.734375,-266.6015625,-54.19921875,0.0
1734414496.1740088,-34.66796875,-30.2734375,-312.5,-48.828125,0.0
1734414496.1779146,-37.59765625,1.953125,-27.34375,-50.78125,0.0
1734414496.1818204,-46.875,-45.8984375,-81.54296875,-46.875,0.0
1734414496.1857262,-52.734375,-76.171875,-323.73046875,-44.43359375,0.0
1734414496.189632,-46.875,-49.8046875,-219.7265625,-35.15625,0.0
1734414496.1935377,-43.45703125,-36.62109375,-36.62109375,-29.296875,0.0
1734414496.1970077,-34.1796875,-67.87109375,-81.54296875,-28.80859375,0.0
1734414496.2009134,-24.90234375,-87.890625,-308.10546875,-30.2734375,0.0
1734414496.2048192,-33.69140625,-68.359375,-288.57421875,-38.0859375,0.0
1734414496.2087247,-37.59765625,-55.6640625,-145.01953125,-33.69140625,0.0
1734414496.2126305,-45.41015625,-65.4296875,-217.28515625,-11.23046875,0.0
1734414496.2165363,-36.1328125,-88.8671875,-466.30859375,-12.6953125,0.0
1734414496.220442,-25.87890625,-53.22265625,-379.39453125,-30.2734375,0.0
1734414496.2243478,-24.90234375,-15.13671875,-206.0546875,-34.1796875,0.0
1734414496.2282536,-35.15625,-49.8046875,-224.609375,-30.2734375,0.0
1734414496.2321594,-44.43359375,-79.58984375,-284.66796875,-33.203125,0.0
1734414496.2360651,-37.59765625,-48.33984375,-252.44140625,-26.3671875,0.0
1734414496.2399707,-34.66796875,-42.48046875,-160.64453125,-21.484375,0.0
1734414496.2434223,-47.8515625,-86.9140625,-223.6328125,-22.4609375,0.0
1734414496.247328,-40.0390625,-136.71875,-503.41796875,-2.9296875,0.0
1734414496.2512338,-32.71484375,-53.7109375,-234.375,-10.7421875,0.0
1734414496.2551394,-32.2265625,-32.2265625,52.734375,-30.2734375,0.0
1734414496.2590451,-24.90234375,-77.1484375,-83.49609375,-35.64453125,0.0
1734414496.262951,-31.25,-66.40625,-272.94921875,-30.76171875,0.0
1734414496.2668567,-28.80859375,-16.11328125,-162.109375,-30.76171875,0.0
1734414496.2707624,-19.04296875,2.44140625,65.4296875,-35.64453125,0.0
1734414496.2746682,-26.85546875,-65.91796875,-169.43359375,-46.38671875,0.0
1734414496.278574,-27.34375,-62.98828125,-359.86328125,-40.52734375,0.0
1734414496.2824798,-30.76171875,7.32421875,-172.36328125,-43.45703125,0.0
1734414496.2863853,-14.6484375,-13.671875,-141.11328125,-32.2265625,0.0
1734414496.2897065,0.0,-47.8515625,-308.59375,0.0,0.0
1734414496.2936122,0.0,-36.1328125,-281.25,0.0,0.0
1734414496.297518,0.0,-35.15625,-189.453125,0.0,0.0
1734414496.3014238,0.0,-47.36328125,-248.53515625,0.0,0.0
1734414496.3053293,0.0,-60.05859375,-368.1640625,0.0,0.0
1734414496.309235,0.0,-61.5234375,-384.27734375,0.0,0.0
1734414496.3131409,0.0,-40.52734375,-324.21875,0.0,0.0
1734414496.3170466,0.0,-45.41015625,-284.66796875,0.0,0.0
1734414496.3209524,0.0,-90.8203125,-487.79296875,0.0,0.0
1734414496.3248582,0.0,-9.27734375,-334.47265625,0.0,0.0
1734414496.328764,0.0,3.41796875,-199.21875,0.0,0.0
1734414496.3326695,0.0,-62.5,-385.25390625,0.0,0.0
1734414496.3359354,-36.62109375,-40.52734375,-349.609375,-48.33984375,0.0
1734414496.3398411,-65.91796875,-16.11328125,-237.3046875,-53.7109375,0.0
1734414496.343747,-74.21875,-39.0625,-261.23046875,-31.73828125,0.0
1734414496.3476527,-56.15234375,-65.4296875,-397.94921875,-21.484375,0.0
1734414496.3515582,-56.640625,-47.8515625,-395.99609375,-37.59765625,0.0
1734414496.355464,-51.7578125,-58.10546875,-372.0703125,-43.45703125,0.0
1734414496.3593698,-47.36328125,-54.6875,-322.265625,-38.57421875,0.0
1734414496.3632755,-37.59765625,-74.21875,-369.140625,-38.0859375,0.0
1734414496.3671813,-23.4375,-84.9609375,-442.87109375,-53.22265625,0.0
1734414496.371087,-30.2734375,-39.55078125,-357.91015625,-48.33984375,0.0
1734414496.3749928,-24.4140625,-42.96875,-304.6875,-33.203125,0.0
1734414496.3788984,-37.59765625,-75.1953125,-345.21484375,-26.85546875,0.0
1734414496.3843293,-47.8515625,-69.82421875,-340.33203125,-32.71484375,0.0
1734414496.388235,-43.45703125,-51.26953125,-270.5078125,-35.64453125,0.0
1734414496.3921409,-39.55078125,-73.2421875,-374.0234375,-35.64453125,0.0
1734414496.3960466,-41.015625,-74.21875,-456.0546875,-33.69140625,0.0
1734414496.3999524,-32.71484375,-46.875,-321.2890625,-32.2265625,0.0
1734414496.4038582,-16.6015625,-57.12890625,-326.66015625,-31.73828125,0.0
1734414496.407764,-16.11328125,-71.77734375,-390.625,-37.59765625,0.0
1734414496.4116695,-35.64453125,-98.14453125,-531.25,-28.80859375,0.0
1734414496.4155753,-55.6640625,-34.66796875,-374.51171875,-20.99609375,0.0
1734414496.419481,-55.17578125,-10.7421875,-194.3359375,-30.2734375,0.0
1734414496.4233868,-46.38671875,-58.59375,-309.5703125,-35.15625,0.0
1734414496.4272926,-35.64453125,-45.8984375,-309.5703125,-39.0625,0.0
1734414496.4301448,-24.90234375,-17.578125,-242.1875,-41.50390625,0.0
1734414496.4340506,-11.23046875,-33.203125,-250.9765625,-34.66796875,0.0
1734414496.4379563,-10.7421875,-55.6640625,-328.61328125,-24.90234375,0.0
1734414496.441862,-19.04296875,-26.85546875,-326.66015625,-33.69140625,0.0
1734414496.4457679,-17.08984375,-20.99609375,-309.5703125,-29.296875,0.0
1734414496.4496734,-34.66796875,-50.29296875,-384.27734375,-21.484375,0.0
1734414496.4535792,-35.15625,-51.7578125,-406.73828125,-20.5078125,0.0
1734414496.457485,-33.203125,-14.6484375,-301.26953125,-21.484375,0.0
1734414496.4613907,-30.76171875,-22.4609375,-301.7578125,-28.3203125,0.0
1734414496.4652965,-17.08984375,-45.41015625,-360.83984375,-28.80859375,0.0
1734414496.4692023,-25.87890625,-49.31640625,-400.87890625,-27.34375,0.0
1734414496.473108,-30.2734375,-30.2734375,-364.2578125,-28.80859375,0.0
1734414496.4758787,-52.734375,-17.08984375,-265.625,-25.390625,0.0
1734414496.4797845,-59.08203125,-41.9921875,-296.38671875,-11.71875,0.0
1734414496.4836903,-40.0390625,-75.68359375,-556.640625,-10.25390625,0.0
1734414496.4875958,-42.48046875,-15.13671875,-436.03515625,-23.92578125,0.0
1734414496.4915016,-35.64453125,17.578125,-240.72265625,-35.64453125,0.0
1734414496.4954073,-31.25,-35.64453125,-377.9296875,-18.5546875,0.0
1734414496.499313,-31.25,-73.73046875,-585.9375,-13.18359375,0.0
1734414496.503219,-32.2265625,-18.06640625,-451.171875,-23.4375,0.0
1734414496.5071247,-23.92578125,30.2734375,-231.93359375,-32.71484375,0.0
1734414496.5110304,-17.08984375,-10.25390625,-305.6640625,-32.2265625,0.0
1734414496.514936,-18.5546875,-13.671875,-310.546875,-27.83203125,0.0
1734414496.5188417,-23.92578125,1.953125,-250.0,-29.296875,0.0
1734414496.5215867,-26.85546875,-6.8359375,-251.46484375,-28.3203125,0.0
1734414496.5254922,-42.96875,-10.25390625,-308.59375,-22.4609375,0.0
1734414496.529398,-41.50390625,3.90625,-289.55078125,-25.87890625,0.0
1734414496.5333037,-22.4609375,4.39453125,-247.0703125,-29.296875,0.0
1734414496.5372095,-29.296875,-23.4375,-255.37109375,-30.2734375,0.0
1734414496.5411153,-25.87890625,-60.05859375,-367.67578125,-26.85546875,0.0
1734414496.545021,-25.87890625,-22.4609375,-373.046875,-19.04296875,0.0
1734414496.5489266,-28.80859375,32.71484375,-234.375,-20.01953125,0.0
1734414496.5528324,-35.15625,-2.9296875,-261.23046875,-23.92578125,0.0
1734414496.5567381,-37.109375,-58.10546875,-399.90234375,-32.71484375,0.0
1734414496.560644,-34.66796875,-29.78515625,-358.88671875,-43.45703125,0.0
1734414496.5645497,-40.0390625,-1.46484375,-223.6328125,-52.734375,0.0
1734414496.5683906,-30.2734375,-27.83203125,-248.53515625,-41.50390625,0.0
1734414496.5722964,-19.53125,-64.94140625,-453.125,-21.484375,0.0
1734414496.5762022,-17.578125,-29.78515625,-327.1484375,-10.7421875,0.0
1734414496.580108,-14.6484375,1.953125,-204.1015625,-25.87890625,0.0
1734414496.5840137,-6.34765625,-38.0859375,-297.36328125,-30.76171875,0.0
1734414496.5879195,9.27734375,-72.265625,-436.5234375,-22.94921875,0.0
1734414496.591825,-9.765625,-27.34375,-357.421875,-25.87890625,0.0
1734414496.5957308,-58.10546875,-6.34765625,-210.44921875,-26.85546875,0.0
1734414496.5996366,-74.21875,-50.78125,-298.33984375,-35.15625,0.0
1734414496.6035423,-63.4765625,-100.09765625,-514.6484375,-39.0625,0.0
1734414496.607448,-47.8515625,-33.203125,-331.54296875,-39.0625,0.0
1734414496.6113539,-29.78515625,-9.765625,-194.82421875,-36.62109375,0.0
1734414496.6150143,-28.3203125,-39.0625,-312.01171875,-36.1328125,0.0
1734414496.6189198,-35.15625,-20.01953125,-315.4296875,-44.43359375,0.0
1734414496.6228256,-24.4140625,-4.39453125,-272.4609375,-47.8515625,0.0
1734414496.6267314,-37.59765625,-17.578125,-268.5546875,-38.57421875,0.0
1734414496.6306372,-45.41015625,-37.59765625,-351.5625,-23.4375,0.0
1734414496.634543,-32.2265625,-33.69140625,-383.30078125,-23.92578125,0.0
1734414496.6384485,-30.2734375,2.9296875,-307.6171875,-35.15625,0.0
1734414496.6423542,-29.78515625,17.578125,-273.92578125,-32.2265625,0.0
1734414496.64626,-25.87890625,-45.41015625,-417.96875,-23.4375,0.0
1734414496.6501658,-14.16015625,-47.36328125,-443.359375,-1.953125,0.0
1734414496.6540716,0.48828125,19.53125,-244.62890625,13.18359375,0.0
1734414496.6579773,-16.6015625,-0.9765625,-267.08984375,-24.90234375,0.0
1734414496.6618252,-30.76171875,-31.25,-425.78125,-62.5,0.0
1734414496.665731,-5.37109375,-5.859375,-337.40234375,-34.1796875,0.0
1734414496.6696367,22.94921875,-1.953125,-258.7890625,5.859375,0.0
1734414496.6735425,7.8125,-39.55078125,-375.0,8.7890625,0.0
1734414496.6774483,13.18359375,-42.96875,-464.84375,3.90625,0.0
1734414496.681354,14.16015625,-26.85546875,-430.6640625,-0.9765625,0.0
1734414496.6852596,-8.30078125,-0.48828125,-301.7578125,-2.9296875,0.0
1734414496.6891654,7.8125,-13.18359375,-326.171875,-0.9765625,0.0
1734414496.6930711,27.83203125,-81.0546875,-572.265625,12.6953125,0.0
1734414496.696977,20.01953125,-3.90625,-377.9296875,3.90625,0.0
1734414496.7008827,0.0,3.90625,-270.99609375,-16.6015625,0.0
1734414496.7047884,-25.390625,-50.78125,-421.875,-6.8359375,0.0
1734414496.7083006,0.0,-21.484375,-363.28125,-2.44140625,0.0
1734414496.7122061,0.0,-7.32421875,-298.33984375,-8.30078125,0.0
1734414496.716112,0.0,-28.3203125,-325.68359375,-16.11328125,0.0
1734414496.7200177,0.0,-59.5703125,-425.78125,-23.4375,0.0
1734414496.7239234,0.0,-50.78125,-416.50390625,-20.99609375,0.0
1734414496.7278292,0.0,-60.546875,-446.2890625,-16.6015625,0.0
1734414496.731735,0.0,-57.6171875,-452.63671875,-12.20703125,0.0
1734414496.7356405,0.0,-60.546875,-458.49609375,-6.34765625,0.0
1734414496.7395463,0.0,-70.80078125,-543.9453125,-4.8828125,0.0
1734414496.743452,0.0,-11.23046875,-437.5,-21.484375,0.0
1734414496.7473578,0.0,-5.859375,-361.81640625,-10.25390625,0.0
1734414496.7512636,0.0,-37.109375,-437.01171875,-11.71875,0.0
1734414496.7546413,0.0,-8.7890625,-374.51171875,-35.15625,0.0
1734414496.758547,9.27734375,4.39453125,-300.78125,-30.2734375,0.0
1734414496.7624528,12.6953125,-35.64453125,-361.81640625,-26.85546875,0.0
1734414496.7663584,16.11328125,-69.82421875,-513.18359375,-26.85546875,0.0
1734414496.7702641,0.9765625,-54.6875,-436.5234375,-24.90234375,0.0
1734414496.77417,-12.20703125,-53.7109375,-406.73828125,-18.5546875,0.0
1734414496.7780757,-11.71875,-60.05859375,-481.4453125,-17.08984375,0.0
1734414496.7819815,-18.5546875,-86.9140625,-608.3984375,-23.4375,0.0
1734414496.7858872,-19.53125,-33.203125,-482.91015625,-23.4375,0.0
1734414496.7897928,-9.765625,-16.11328125,-391.6015625,-22.94921875,0.0
1734414496.7936985,14.6484375,-29.296875,-433.59375,-42.48046875,0.0
1734414496.7976043,42.48046875,-20.99609375,-408.203125,-56.640625,0.0
1734414496.8008423,-1.46484375,-20.5078125,-386.71875,-50.78125,0.0
1734414496.804748,-58.10546875,-29.296875,-349.12109375,-43.9453125,0.0
1734414496.8086538,-59.08203125,-67.3828125,-441.40625,-41.9921875,0.0
1734414496.8125596,-59.08203125,-44.43359375,-440.4296875,-59.5703125,0.0
1734414496.8164654,-49.31640625,-17.578125,-348.14453125,-62.01171875,0.0
1734414496.8203712,-36.62109375,-56.640625,-421.875,-53.7109375,0.0
1734414496.8242767,-41.015625,-84.47265625,-505.859375,-72.75390625,0.0
1734414496.8281825,-41.50390625,-60.546875,-539.55078125,-75.1953125,0.0
1734414496.8320882,-30.76171875,-8.7890625,-403.80859375,-69.82421875,0.0
1734414496.835994,-33.69140625,-46.38671875,-410.15625,-70.80078125,0.0
1734414496.8398998,-34.66796875,-62.01171875,-443.359375,-59.5703125,0.0
1734414496.8438053,-26.3671875,-45.8984375,-422.36328125,-56.640625,0.0
1734414496.846937,-32.2265625,-19.53125,-366.2109375,-53.22265625,0.0
1734414496.8508427,-34.1796875,-30.76171875,-343.26171875,-45.8984375,0.0
1734414496.8547485,-19.53125,-68.84765625,-485.83984375,-53.22265625,0.0
1734414496.858654,-7.32421875,-14.16015625,-412.59765625,-68.359375,0.0
1734414496.8625598,-9.765625,9.27734375,-310.546875,-57.12890625,0.0
1734414496.8664656,-22.4609375,-39.55078125,-420.41015625,-32.71484375,0.0
1734414496.8703713,-29.296875,-65.4296875,-608.3984375,-35.15625,0.0
1734414496.874277,-17.08984375,14.6484375,-408.203125,-42.48046875,0.0
1734414496.8781826,-4.8828125,31.25,-269.04296875,-41.9921875,0.0
1734414496.8820884,-35.64453125,-24.4140625,-378.90625,-41.50390625,0.0
1734414496.8859942,-56.640625,-17.08984375,-355.95703125,-20.99609375,0.0
1734414496.8899,-37.59765625,3.41796875,-322.75390625,-15.625,0.0
1734414496.8929093,-34.1796875,-2.44140625,-291.015625,-28.3203125,0.0
1734414496.896815,-49.31640625,-32.2265625,-400.390625,-27.83203125,0.0
1734414496.9007206,-45.41015625,-34.1796875,-437.01171875,-29.78515625,0.0
1734414496.9046264,-48.828125,-10.25390625,-306.15234375,-34.1796875,0.0
1734414496.9085321,-47.36328125,-22.4609375,-277.34375,-35.64453125,0.0
1734414496.912438,-42.48046875,-70.80078125,-401.85546875,-31.25,0.0
1734414496.9163437,-43.9453125,-61.03515625,-458.0078125,-33.203125,0.0
1734414496.9202492,-43.45703125,3.41796875,-288.0859375,-44.43359375,0.0
1734414496.924155,-37.109375,-31.25,-327.63671875,-42.96875,0.0
1734414496.9280608,-41.015625,-71.2890625,-414.55078125,-37.59765625,0.0
1734414496.9319665,-32.71484375,-29.78515625,-299.8046875,-48.828125,0.0
1734414496.935872,-2.9296875,-16.6015625,-240.72265625,-49.8046875,0.0
1734414496.9400089,-14.16015625,-41.9921875,0.0,-50.78125,0.0
1734414496.9439147,-34.1796875,-64.94140625,0.0,-33.203125,0.0
1734414496.9478204,-33.203125,-26.85546875,0.0,-14.16015625,0.0
1734414496.9517262,-26.3671875,-15.625,0.0,-33.203125,0.0
1734414496.9556317,-18.06640625,-53.22265625,0.0,-61.03515625,0.0
1734414496.9595375,-34.66796875,-87.40234375,0.0,-58.10546875,0.0
1734414496.9634433,-47.8515625,-58.10546875,0.0,-58.59375,0.0
1734414496.967349,-53.22265625,-11.23046875,0.0,-53.7109375,0.0
1734414496.9712548,-55.17578125,-40.52734375,0.0,-40.0390625,0.0
1734414496.9751604,-32.2265625,-104.98046875,0.0,-34.66796875,0.0
1734414496.9790661,-19.53125,-22.4609375,0.0,-41.50390625,0.0
1734414496.982972,-53.22265625,3.90625,0.0,-50.29296875,0.0
1734414496.9868813,-42.48046875,-26.3671875,-329.58984375,-32.2265625,0.0
1734414496.990787,-31.25,0.9765625,-263.671875,-33.203125,0.0
1734414496.9946928,-46.875,-0.9765625,-244.140625,-44.921875,0.0
1734414496.9985986,-35.64453125,-12.20703125,-263.18359375,-41.9921875,0.0
1734414497.002504,-31.73828125,-26.85546875,-335.9375,-44.43359375,0.0
1734414497.00641,-37.59765625,-37.109375,-407.71484375,-49.8046875,0.0
1734414497.0103157,-38.0859375,-13.671875,-293.45703125,-60.05859375,0.0
1734414497.0142214,-34.1796875,-18.06640625,-260.7421875,-65.4296875,0.0
1734414497.0181272,-28.3203125,-65.91796875,-418.9453125,-57.12890625,0.0
1734414497.0220327,-30.76171875,-40.0390625,-401.3671875,-48.828125,0.0
1734414497.0259385,-24.4140625,34.66796875,-236.81640625,-44.921875,0.0
1734414497.0298443,-15.13671875,9.27734375,-254.39453125,-38.0859375,0.0
1734414497.0336468,-12.6953125,-36.62109375,-377.44140625,-37.59765625,0.0
1734414497.0375526,-9.765625,-1.953125,-329.58984375,-38.57421875,0.0
1734414497.0414584,-23.4375,31.73828125,-220.703125,-27.83203125,0.0
1734414497.0453641,-52.734375,-0.48828125,-269.53125,-31.73828125,0.0
1734414497.04927,-60.05859375,-48.33984375,-511.23046875,-37.109375,0.0
1734414497.0531754,-50.29296875,-21.484375,-421.38671875,-36.62109375,0.0
1734414497.0570812,-45.8984375,2.9296875,-285.64453125,-43.9453125,0.0
1734414497.060987,-50.78125,-2.44140625,-291.9921875,-44.43359375,0.0
1734414497.0648928,-53.22265625,-64.453125,-486.81640625,-30.76171875,0.0
1734414497.0687985,-48.33984375,-13.18359375,-354.4921875,-27.34375,0.0
1734414497.072704,-47.8515625,-1.46484375,-253.41796875,-36.1328125,0.0
1734414497.0766098,-44.43359375,-42.48046875,-367.67578125,-47.36328125,0.0
1734414497.08258,-47.36328125,-9.27734375,-261.71875,-50.29296875,0.0
1734414497.0864859,-47.36328125,-5.37109375,-226.07421875,-42.48046875,0.0
1734414497.0903916,-37.59765625,-22.4609375,-260.25390625,-42.48046875,0.0
1734414497.0942974,-41.9921875,-22.94921875,-281.25,-46.38671875,0.0
1734414497.0982032,-36.62109375,-5.859375,-257.32421875,-42.48046875,0.0
1734414497.1021087,-35.64453125,-25.87890625,-326.171875,-42.96875,0.0
1734414497.1060145,-47.36328125,-27.34375,-364.74609375,-43.45703125,0.0
1734414497.1099203,-44.43359375,-33.69140625,-382.32421875,-35.64453125,0.0
1734414497.113826,-47.8515625,-40.0390625,-423.33984375,-23.4375,0.0
1734414497.1177318,-48.33984375,11.71875,-305.6640625,-38.57421875,0.0
1734414497.1216376,-46.875,5.37109375,-249.0234375,-50.78125,0.0
1734414497.125543,-40.0390625,-20.01953125,-309.5703125,-42.96875,0.0
1734414497.1289027,-32.71484375,0.9765625,-277.34375,-34.66796875,0.0
1734414497.1328084,-32.71484375,-8.7890625,-241.69921875,-39.0625,0.0
1734414497.1367142,-33.203125,-23.92578125,-248.046875,-32.2265625,0.0
1734414497.14062,-36.62109375,-26.85546875,-339.35546875,-33.69140625,0.0
1734414497.1445258,-49.8046875,-11.71875,-222.16796875,-36.1328125,0.0
1734414497.1484313,-38.57421875,-16.6015625,-254.8828125,-36.1328125,0.0
1734414497.152337,-44.43359375,-23.92578125,-351.07421875,-51.7578125,0.0
1734414497.1562428,-79.1015625,-32.2265625,-387.6953125,-65.91796875,0.0
1734414497.1601486,-81.0546875,13.18359375,-277.83203125,-74.21875,0.0
1734414497.1640544,-88.8671875,13.671875,-208.49609375,-80.078125,0.0
1734414497.1679602,-95.21484375,-34.66796875,-321.77734375,-80.56640625,0.0
1734414497.1718657,-106.4453125,-46.875,-335.44921875,-92.7734375,0.0
1734414497.1752179,-112.3046875,-6.8359375,-320.3125,-116.69921875,0.0
1734414497.1791234,-134.27734375,10.7421875,-316.89453125,-139.6484375,0.0
1734414497.1830292,-161.1328125,-39.0625,-430.17578125,-148.92578125,0.0
1734414497.186935,-187.01171875,-85.44921875,-667.96875,-162.109375,0.0
1734414497.1908407,-213.37890625,-10.7421875,-489.74609375,-187.01171875,0.0
1734414497.1947465,-218.26171875,14.6484375,-418.9453125,-190.4296875,0.0
1734414497.198652,-229.00390625,-8.7890625,-558.59375,-197.75390625,0.0
1734414497.2025578,-230.95703125,0.0,-530.76171875,-215.8203125,0.0
1734414497.2064636,-226.5625,17.08984375,-474.609375,-212.40234375,0.0
1734414497.2103693,-234.86328125,9.27734375,-514.6484375,-220.703125,0.0
1734414497.2142751,-223.14453125,0.0,-574.21875,-215.8203125,0.0
1734414497.2181807,-219.23828125,40.0390625,-536.1328125,-212.890625,0.0
1734414497.2236679,0.0,48.828125,0.0,-212.890625,0.0
1734414497.2275736,0.0,-8.7890625,0.0,-174.31640625,0.0
1734414497.2314794,0.0,-17.578125,0.0,-158.203125,0.0
1734414497.2353852,0.0,-4.8828125,0.0,-161.1328125,0.0
1734414497.239291,0.0,-30.2734375,0.0,-145.01953125,0.0
1734414497.2431965,0.0,-55.6640625,0.0,-145.99609375,0.0
1734414497.2471023,0.0,-69.82421875,0.0,-127.9296875,0.0
1734414497.251008,0.0,15.13671875,0.0,-83.49609375,0.0
1734414497.2549138,0.0,50.78125,0.0,-76.66015625,0.0
1734414497.2588196,0.0,-21.484375,0.0,-72.75390625,0.0
1734414497.262725,0.0,-42.48046875,0.0,-62.01171875,0.0
1734414497.266631,0.0,-29.78515625,0.0,-43.9453125,0.0
1734414497.2706933,-56.15234375,-34.1796875,-511.23046875,0.0,0.0
1734414497.274599,-36.62109375,-54.6875,-597.65625,0.0,0.0
1734414497.2785048,-37.109375,-61.5234375,-587.40234375,0.0,0.0
1734414497.2824106,-14.16015625,-32.2265625,-477.5390625,0.0,0.0
1734414497.2863164,-1.46484375,-22.94921875,-489.2578125,0.0,0.0
1734414497.290222,1.46484375,-47.36328125,-624.51171875,0.0,0.0
1734414497.2941277,9.27734375,-27.83203125,-614.74609375,0.0,0.0
1734414497.2980335,20.01953125,-22.94921875,-531.25,0.0,0.0
1734414497.3019392,36.62109375,-88.8671875,-613.76953125,0.0,0.0
1734414497.305845,37.59765625,-119.62890625,-681.640625,0.0,0.0
1734414497.3097508,37.59765625,-56.15234375,-637.20703125,0.0,0.0
1734414497.3136563,35.15625,-7.32421875,-551.26953125,0.0,0.0
1734414497.3186762,0.0,-28.3203125,-542.96875,40.52734375,0.0
1734414497.322582,0.0,-90.33203125,-753.90625,41.015625,0.0
1734414497.3264878,0.0,-35.64453125,-675.78125,52.734375,0.0
1734414497.3303936,0.0,27.34375,-469.7265625,46.875,0.0
1734414497.334299,0.0,-9.27734375,-508.7890625,58.59375,0.0
1734414497.3382049,0.0,-40.0390625,-649.90234375,82.03125,0.0
1734414497.3421106,0.0,-12.20703125,-609.86328125,58.59375,0.0
1734414497.3460164,0.0,63.4765625,-418.45703125,52.734375,0.0
1734414497.3499222,0.0,42.48046875,-432.6171875,64.94140625,0.0
1734414497.353828,0.0,-2.9296875,-651.85546875,62.98828125,0.0
1734414497.3577335,0.0,132.32421875,-471.19140625,50.29296875,0.0
1734414497.3616393,0.0,174.31640625,-351.07421875,37.109375,0.0
1734414497.3653185,32.2265625,166.015625,-479.00390625,50.29296875,0.0
1734414497.3692243,26.85546875,263.18359375,-431.15234375,63.96484375,0.0
1734414497.37313,40.0390625,310.05859375,-382.32421875,84.9609375,0.0
1734414497.3770359,52.24609375,304.6875,-387.6953125,84.9609375,0.0
1734414497.3809416,50.29296875,303.7109375,-453.125,64.94140625,0.0
1734414497.3848472,52.24609375,333.49609375,-464.84375,82.03125,0.0
1734414497.388753,46.875,367.1875,-395.99609375,83.49609375,0.0
1734414497.3926587,33.203125,371.58203125,-337.890625,73.73046875,0.0
1734414497.3965645,30.2734375,338.37890625,-400.390625,71.77734375,0.0
1734414497.4004703,26.85546875,342.28515625,-443.84765625,67.3828125,0.0
1734414497.404376,28.80859375,397.94921875,-339.84375,62.98828125,0.0
1734414497.4082816,43.9453125,385.25390625,-295.41015625,61.03515625,0.0
1734414497.4119966,50.29296875,320.80078125,-484.375,75.68359375,0.0
1734414497.4159024,37.109375,346.6796875,-417.48046875,78.125,0.0
1734414497.4198081,20.99609375,341.30859375,-253.90625,58.10546875,0.0
1734414497.423714,20.99609375,262.6953125,-342.28515625,51.26953125,0.0
1734414497.4276195,32.71484375,254.8828125,-415.52734375,45.41015625,0.0
1734414497.4315252,30.76171875,294.921875,-384.765625,29.78515625,0.0
1734414497.435431,6.8359375,370.1171875,-265.625,10.25390625,0.0
1734414497.4393368,-9.27734375,375.0,-264.6484375,11.23046875,0.0
1734414497.4432425,5.37109375,323.73046875,-499.0234375,13.18359375,0.0
1734414497.4471483,5.859375,409.1796875,-371.09375,7.8125,0.0
1734414497.4510539,-2.44140625,445.80078125,-196.77734375,13.18359375,0.0
1734414497.4549596,7.8125,399.4140625,-303.22265625,14.6484375,0.0
1734414497.4584143,16.6015625,425.78125,0.0,12.6953125,0.0
1734414497.46232,16.6015625,485.3515625,0.0,9.765625,0.0
1734414497.4662259,6.8359375,514.16015625,0.0,1.953125,0.0
1734414497.4701316,-1.953125,520.01953125,0.0,19.53125,0.0
1734414497.4740374,0.48828125,564.453125,0.0,25.87890625,0.0
1734414497.477943,4.8828125,589.84375,0.0,-1.46484375,0.0
1734414497.4818487,0.0,635.25390625,0.0,-16.6015625,0.0
1734414497.4857545,0.0,692.87109375,0.0,-4.8828125,0.0
1734414497.4896603,-0.9765625,710.44921875,0.0,5.859375,0.0
1734414497.493566,-8.7890625,744.140625,0.0,-2.44140625,0.0
1734414497.4974718,-1.953125,688.96484375,0.0,5.37109375,0.0
1734414497.5013773,7.8125,550.29296875,0.0,9.27734375,0.0
1734414497.5048862,2.9296875,471.6796875,-306.15234375,0.0,0.0
1734414497.508792,-7.8125,427.734375,-227.5390625,0.0,0.0
1734414497.5126977,-11.71875,386.23046875,-327.63671875,0.0,0.0
1734414497.5166035,2.9296875,371.58203125,-446.77734375,0.0,0.0
1734414497.520509,-6.34765625,390.625,-377.44140625,0.0,0.0
1734414497.5244148,-18.06640625,398.4375,-385.25390625,0.0,0.0
1734414497.5283206,-12.6953125,422.8515625,-422.8515625,0.0,0.0
1734414497.5322263,-24.4140625,393.5546875,-614.74609375,0.0,0.0
1734414497.536132,-45.41015625,452.1484375,-517.578125,0.0,0.0
1734414497.5400376,-44.43359375,502.44140625,-287.109375,0.0,0.0
1734414497.5439434,-36.1328125,451.66015625,-368.1640625,0.0,0.0
1734414497.5478492,-42.48046875,424.8046875,-385.7421875,0.0,0.0
1734414497.5510418,-50.78125,408.69140625,-308.59375,-20.99609375,0.0
1734414497.5549476,-43.9453125,383.7890625,-311.03515625,-35.64453125,0.0
1734414497.5588534,-31.73828125,348.14453125,-416.9921875,-44.43359375,0.0
1734414497.5627592,-36.62109375,293.45703125,-371.09375,-46.875,0.0
1734414497.566665,-41.015625,202.63671875,-309.5703125,-51.26953125,0.0
1734414497.5705705,-40.0390625,82.03125,-414.55078125,-57.6171875,0.0
1734414497.5744762,-59.5703125,16.11328125,-495.1171875,-51.26953125,0.0
1734414497.578382,-59.5703125,19.04296875,-539.55078125,-38.57421875,0.0
1734414497.5822878,-56.15234375,62.98828125,-391.6015625,-45.8984375,0.0
1734414497.5861936,-55.6640625,18.06640625,-402.34375,-49.8046875,0.0
1734414497.590099,-44.43359375,-54.6875,-492.67578125,-36.62109375,0.0
1734414497.5940049,-41.50390625,-64.94140625,-413.0859375,-32.71484375,0.0
1734414497.5970798,-56.15234375,-49.8046875,-321.2890625,-38.0859375,0.0
1734414497.6009855,-64.453125,-65.4296875,-358.3984375,-42.96875,0.0
1734414497.6048913,-59.5703125,-67.87109375,-511.71875,-47.8515625,0.0
1734414497.608797,-56.15234375,-22.94921875,-420.41015625,-43.9453125,0.0
1734414497.6127026,-50.29296875,-23.4375,-329.58984375,-29.296875,0.0
1734414497.6166084,-41.015625,-107.421875,-461.9140625,-33.69140625,0.0
1734414497.6205142,-45.8984375,-140.625,-651.3671875,-21.97265625,0.0
1734414497.62442,-64.453125,-24.4140625,-478.02734375,-22.94921875,0.0
1734414497.6283257,-61.5234375,35.15625,-318.84765625,-44.43359375,0.0
1734414497.6322312,-47.8515625,-13.671875,-409.1796875,-33.69140625,0.0
1734414497.636137,-34.66796875,-45.41015625,-432.6171875,-16.11328125,0.0
1734414497.6400428,-36.62109375,-12.6953125,-362.79296875,-23.92578125,0.0
1734414497.643121,0.0,-19.04296875,-353.02734375,-33.203125,0.0
1734414497.6470268,0.0,-47.8515625,-464.84375,-24.4140625,0.0
1734414497.6509326,0.0,-20.01953125,-421.875,-19.04296875,0.0
1734414497.6548383,0.0,1.46484375,-356.93359375,-21.484375,0.0
1734414497.6587439,0.0,8.7890625,-383.7890625,-27.34375,0.0
1734414497.6626496,0.0,-29.296875,-527.83203125,-27.83203125,0.0
1734414497.6665554,0.0,-19.53125,-649.90234375,-1.953125,0.0
1734414497.6704612,0.0,77.1484375,-412.59765625,7.32421875,0.0
1734414497.6743667,0.0,40.52734375,-386.71875,-8.30078125,0.0
1734414497.6782725,0.0,-9.765625,-523.4375,-16.6015625,0.0
1734414497.6821783,0.0,33.69140625,-430.17578125,-19.04296875,0.0
1734414497.686084,0.0,48.33984375,-375.9765625,-31.25,0.0
1734414497.6901917,-31.25,15.625,-416.015625,-14.16015625,0.0
1734414497.6940975,-28.80859375,-10.25390625,-547.36328125,18.06640625,0.0
1734414497.6980033,-40.52734375,27.83203125,-498.046875,7.32421875,0.0
1734414497.701909,-45.8984375,37.109375,-416.50390625,0.9765625,0.0
1734414497.7058148,-17.578125,22.4609375,-516.6015625,10.7421875,0.0
1734414497.7097204,7.32421875,-5.37109375,-637.6953125,29.78515625,0.0
1734414497.7136261,20.5078125,30.76171875,-498.53515625,43.9453125,0.0
1734414497.717532,27.83203125,62.01171875,-378.90625,47.36328125,0.0
1734414497.7214377,41.50390625,-28.80859375,-449.70703125,72.265625,0.0
1734414497.7253435,51.26953125,-93.75,-649.4140625,79.58984375,0.0
1734414497.729249,51.7578125,-6.8359375,-498.53515625,75.68359375,0.0
1734414497.7331548,74.21875,-8.30078125,-352.05078125,102.5390625,0.0
1734414497.7371614,72.75390625,-62.5,-479.98046875,120.60546875,0.0
1734414497.7410672,75.68359375,-44.43359375,-444.82421875,109.375,0.0
1734414497.744973,102.5390625,-48.828125,-383.30078125,129.39453125,0.0
1734414497.7488785,105.46875,-100.5859375,-408.69140625,149.4140625,0.0
1734414497.7527843,95.703125,-154.296875,-487.79296875,134.765625,0.0
1734414497.75669,93.75,-159.66796875,-541.015625,135.7421875,0.0
1734414497.7605958,104.00390625,-153.3203125,-527.83203125,158.69140625,0.0
1734414497.7645016,113.28125,-152.34375,-498.046875,150.87890625,0.0
1734414497.768407,104.4921875,-183.59375,-551.7578125,140.13671875,0.0
1734414497.7723129,102.5390625,-187.98828125,-561.03515625,140.13671875,0.0
1734414497.7762187,108.88671875,-161.62109375,-422.8515625,114.2578125,0.0
1734414497.7801244,97.16796875,-235.3515625,-431.640625,115.72265625,0.0
1734414497.783982,0.0,-352.05078125,-544.43359375,0.0,0.0
1734414497.7878876,0.0,-452.1484375,-501.46484375,0.0,0.0
1734414497.7917933,0.0,-546.38671875,-430.6640625,0.0,0.0
1734414497.7956991,0.0,-728.02734375,-495.1171875,0.0,0.0
1734414497.799605,0.0,-959.47265625,-629.8828125,0.0,0.0
1734414497.8035107,0.0,-1000.0,-629.39453125,0.0,0.0
1734414497.8074162,0.0,-992.1875,-543.45703125,0.0,0.0
1734414497.811322,0.0,-1000.0,-525.390625,0.0,0.0
1734414497.8152277,0.0,-1000.0,-755.859375,0.0,0.0
1734414497.8191335,0.0,-1000.0,-683.10546875,0.0,0.0
1734414497.8230393,0.0,-1000.0,-517.578125,0.0,0.0
1734414497.8269448,0.0,-1000.0,-611.81640625,0.0,0.0
1734414497.830542,30.2734375,-1000.0,-604.98046875,41.50390625,0.0
1734414497.8344479,20.5078125,-1000.0,-531.73828125,45.8984375,0.0
1734414497.8383534,23.92578125,-1000.0,-550.29296875,36.62109375,0.0
1734414497.8422592,31.73828125,-1000.0,-618.65234375,32.2265625,0.0
1734414497.846165,26.3671875,-1000.0,-588.37890625,21.484375,0.0
1734414497.8500707,20.5078125,-1000.0,-613.76953125,17.578125,0.0
1734414497.8539765,6.34765625,-1000.0,-599.609375,8.7890625,0.0
1734414497.857882,10.7421875,-1000.0,-602.05078125,-2.9296875,0.0
1734414497.8617878,24.90234375,-1000.0,-685.05859375,12.20703125,0.0
1734414497.8656936,24.4140625,-1000.0,-584.47265625,13.18359375,0.0
1734414497.8695993,3.41796875,-1000.0,-496.58203125,1.46484375,0.0
1734414497.8735049,-2.9296875,-1000.0,-595.21484375,-20.01953125,0.0
1734414497.8770025,-9.765625,-1000.0,-609.86328125,-26.85546875,0.0
1734414497.8809083,-23.4375,-1000.0,-468.26171875,-26.85546875,0.0
1734414497.884814,-23.4375,-1000.0,-490.72265625,-19.04296875,0.0
1734414497.8887196,-12.20703125,-1000.0,-610.3515625,-10.7421875,0.0
1734414497.8926253,-10.25390625,-1000.0,-508.30078125,-11.23046875,0.0
1734414497.896531,-11.23046875,-1000.0,-443.359375,-19.04296875,0.0
1734414497.9004369,-21.484375,-1000.0,-492.1875,-33.203125,0.0
1734414497.9043427,-21.97265625,-1000.0,-660.15625,-15.625,0.0
1734414497.9082482,-18.06640625,-1000.0,-515.13671875,-30.2734375,0.0
1734414497.912154,-23.4375,-1000.0,-325.1953125,-44.43359375,0.0
1734414497.9160597,-21.97265625,-1000.0,-433.10546875,-63.96484375,0.0
1734414497.9199655,-12.6953125,-1000.0,-434.5703125,-82.03125,0.0
1734414497.9247565,0.0,-1000.0,0.0,-79.58984375,0.0
1734414497.928662,0.0,-1000.0,0.0,-70.80078125,0.0
1734414497.9325678,0.0,-1000.0,0.0,-62.01171875,0.0
1734414497.9364736,0.0,-1000.0,0.0,-77.63671875,0.0
1734414497.9403794,0.0,-1000.0,0.0,-75.1953125,0.0
1734414497.9442852,0.0,-1000.0,0.0,-87.40234375,0.0
1734414497.9481907,0.0,-1000.0,0.0,-161.62109375,0.0
1734414497.9520965,0.0,-998.046875,0.0,-212.890625,0.0
1734414497.9560022,0.0,-998.046875,0.0,-268.06640625,0.0
1734414497.959908,0.0,-999.0234375,0.0,-327.1484375,0.0
1734414497.9638138,0.0,-972.65625,0.0,-367.1875,0.0
1734414497.9677193,0.0,-922.8515625,0.0,-399.90234375,0.0
1734414497.9709697,-356.93359375,-870.1171875,-271.484375,-440.91796875,0.0
1734414497.9748755,-419.43359375,-844.23828125,-290.0390625,-474.12109375,0.0
1734414497.9787812,-436.03515625,-848.14453125,-398.4375,-479.4921875,0.0
1734414497.9826868,-444.3359375,-766.11328125,-292.48046875,-478.515625,0.0
1734414497.9865925,-459.9609375,-727.05078125,-208.0078125,-479.4921875,0.0
1734414497.9904983,-424.8046875,-770.99609375,-319.3359375,-442.3828125,0.0
1734414497.994404,-385.7421875,-755.37109375,-479.4921875,-421.38671875,0.0
1734414497.9983099,-382.32421875,-651.3671875,-249.0234375,-429.6875,0.0
1734414498.0022154,-387.6953125,-592.7734375,115.234375,-422.36328125,0.0
1734414498.0061212,-358.3984375,-628.41796875,-15.625,-390.625,0.0
1734414498.010027,-298.33984375,-695.80078125,-397.4609375,-344.23828125,0.0
1734414498.0139327,-297.36328125,-598.6328125,-106.4453125,-344.23828125,0.0
1734414498.0170343,-290.0390625,-568.359375,145.5078125,-344.7265625,0.0
1734414498.0209398,-252.9296875,-614.74609375,-51.7578125,-303.7109375,0.0
1734414498.0248456,-236.328125,-582.51953125,-111.328125,-265.13671875,0.0
1734414498.0287514,-190.91796875,-582.51953125,20.99609375,-226.07421875,0.0
1734414498.0326571,-166.50390625,-592.28515625,44.43359375,-203.61328125,0.0
1734414498.036563,-177.734375,-625.48828125,-276.3671875,-201.171875,0.0
1734414498.0404685,-151.3671875,-576.171875,-295.8984375,-176.7578125,0.0
1734414498.0443742,-136.71875,-477.05078125,38.57421875,-151.3671875,0.0
1734414498.04828,-113.76953125,-498.53515625,-32.71484375,-132.8125,0.0
1734414498.0521858,-88.8671875,-491.69921875,-260.7421875,-109.375,0.0
1734414498.0560913,-91.796875,-427.734375,-184.08203125,-109.375,0.0
1734414498.059997,-54.19921875,-397.94921875,51.7578125,-91.30859375,0.0
1734414498.0634775,0.0,-398.4375,17.08984375,-61.03515625,0.0
1734414498.0673833,0.0,-389.6484375,-212.40234375,-61.5234375,0.0
1734414498.071289,0.0,-300.78125,-52.734375,-71.77734375,0.0
1734414498.0751946,0.0,-203.125,97.65625,-54.19921875,0.0
1734414498.0791004,0.0,-165.52734375,72.75390625,-16.11328125,0.0
1734414498.0830061,0.0,-141.6015625,-178.22265625,-5.859375,0.0
1734414498.086912,0.0,-34.1796875,-93.75,-23.4375,0.0
1734414498.0908175,0.0,62.01171875,216.796875,-41.015625,0.0
1734414498.0947232,0.0,183.59375,134.765625,-43.45703125,0.0
1734414498.098629,0.0,420.8984375,-15.625,-61.03515625,0.0
1734414498.1025348,0.0,684.08203125,191.40625,-59.5703125,0.0
1734414498.1064405,0.0,778.80859375,242.1875,-8.30078125,0.0
1734414498.1104605,22.4609375,850.09765625,180.17578125,19.53125,0.0
1734414498.114366,44.921875,938.96484375,232.421875,26.3671875,0.0
1734414498.1182718,56.640625,971.6796875,338.8671875,20.99609375,0.0
1734414498.1221776,47.8515625,967.28515625,369.140625,18.06640625,0.0
1734414498.1260834,44.43359375,970.703125,261.71875,40.52734375,0.0
1734414498.1299891,68.359375,962.890625,43.45703125,49.31640625,0.0
1734414498.1338947,72.265625,971.19140625,227.05078125,35.64453125,0.0
1734414498.1378005,63.96484375,970.21484375,383.30078125,31.25,0.0
1734414498.1417062,72.75390625,753.90625,195.3125,50.29296875,0.0
1734414498.145612,67.87109375,716.30859375,160.15625,55.6640625,0.0
1734414498.1495175,51.7578125,942.3828125,366.69921875,50.29296875,0.0
1734414498.1534233,67.87109375,978.02734375,364.2578125,68.359375,0.0
1734414498.1587873,0.0,960.9375,0.0,75.68359375,0.0
1734414498.162693,0.0,970.703125,0.0,68.84765625,0.0
1734414498.1665988,0.0,969.7265625,0.0,51.7578125,0.0
1734414498.1705043,0.0,969.23828125,0.0,46.38671875,0.0
1734414498.17441,0.0,969.23828125,0.0,31.25,0.0
1734414498.1783159,0.0,969.23828125,0.0,8.7890625,0.0
1734414498.1822217,0.0,969.23828125,0.0,3.90625,0.0
1734414498.1861272,0.0,969.23828125,0.0,13.671875,0.0
1734414498.190033,0.0,969.7265625,0.0,27.83203125,0.0
1734414498.1939387,0.0,969.23828125,0.0,6.8359375,0.0
1734414498.1978445,0.0,969.23828125,0.0,-16.11328125,0.0
1734414498.2017503,0.0,969.23828125,0.0,2.44140625,0.0
1734414498.2054408,19.04296875,969.23828125,199.21875,7.8125,0.0
1734414498.2093465,15.13671875,969.23828125,182.12890625,11.71875,0.0
1734414498.213252,18.5546875,969.23828125,185.546875,0.0,0.0
1734414498.2171578,21.97265625,969.23828125,54.6875,-29.78515625,0.0
1734414498.2210636,40.52734375,969.23828125,-123.046875,-34.66796875,0.0
1734414498.2249694,31.73828125,969.23828125,-67.87109375,-31.73828125,0.0
1734414498.2288752,23.4375,969.23828125,-138.671875,-11.23046875,0.0
1734414498.2327807,24.90234375,969.23828125,-210.44921875,0.9765625,0.0
1734414498.2366865,12.20703125,969.7265625,-264.16015625,-20.99609375,0.0
1734414498.2405922,18.06640625,968.26171875,-296.875,-43.9453125,0.0
1734414498.244498,17.578125,973.6328125,-172.36328125,-27.83203125,0.0
1734414498.2484038,12.6953125,957.03125,-333.49609375,-22.94921875,0.0
1734414498.2521048,0.0,952.63671875,-364.74609375,-26.85546875,0.0
1734414498.2560105,0.0,966.796875,-196.77734375,-28.80859375,0.0
1734414498.2599163,0.0,872.55859375,-256.8359375,-40.52734375,0.0
1734414498.2638218,0.0,761.23046875,-394.04296875,-44.921875,0.0
1734414498.2677276,0.0,734.375,-326.171875,-20.01953125,0.0
1734414498.2716334,0.0,673.828125,-329.1015625,-10.7421875,0.0
1734414498.2755392,0.0,591.796875,-401.85546875,-11.71875,0.0
1734414498.279445,0.0,508.7890625,-520.01953125,-20.5078125,0.0
1734414498.2833505,0.0,523.92578125,-350.09765625,-41.015625,0.0
1734414498.2872562,0.0,501.953125,-153.3203125,-36.62109375,0.0
1734414498.291162,0.0,403.80859375,-224.609375,-17.578125,0.0
1734414498.2950678,0.0,363.76953125,-268.06640625,-37.109375,0.0
1734414498.2984705,-15.625,373.53515625,-219.23828125,-54.19921875,0.0
1734414498.3023763,-14.16015625,353.515625,-232.91015625,-40.0390625,0.0
1734414498.306282,-4.39453125,322.265625,-338.8671875,-20.5078125,0.0
1734414498.3101878,-0.48828125,321.77734375,-300.78125,-7.32421875,0.0
1734414498.3140934,0.9765625,280.76171875,-269.04296875,-18.06640625,0.0
1734414498.3179991,-10.25390625,219.7265625,-300.29296875,-37.109375,0.0
1734414498.321905,-17.578125,167.96875,-399.90234375,-15.13671875,0.0
1734414498.3258107,-9.765625,150.87890625,-484.375,22.94921875,0.0
1734414498.3297164,7.8125,180.6640625,-294.921875,22.94921875,0.0
1734414498.333622,1.46484375,120.1171875,-326.171875,-7.32421875,0.0
1734414498.3375278,-15.13671875,85.9375,-365.72265625,-53.22265625,0.0
1734414498.3414335,-13.18359375,131.34765625,-240.234375,-58.59375,0.0
1734414498.3450236,-6.34765625,152.34375,-171.38671875,-41.9921875,0.0
1734414498.3489294,-6.34765625,105.95703125,-147.94921875,-41.50390625,0.0
1734414498.3528352,-25.390625,35.64453125,-399.4140625,-43.9453125,0.0
1734414498.356741,-34.1796875,85.9375,-271.484375,-51.26953125,0.0
1734414498.3606465,-27.34375,114.74609375,-2.9296875,-47.8515625,0.0
1734414498.3645523,-25.87890625,64.94140625,-241.69921875,-45.41015625,0.0
1734414498.368458,-16.6015625,4.8828125,-517.08984375,-55.6640625,0.0
1734414498.3723638,-4.8828125,16.11328125,-307.12890625,-60.546875,0.0
1734414498.3762693,0.48828125,-0.48828125,-115.72265625,-51.26953125,0.0
1734414498.380175,-15.13671875,-67.3828125,-242.1875,-45.41015625,0.0
1734414498.384081,-27.34375,-61.03515625,-266.11328125,-56.15234375,0.0
1734414498.3879867,-28.3203125,-27.34375,-162.109375,-49.31640625,0.0
1734414498.3924534,-25.87890625,-45.8984375,0.0,0.0,0.0
1734414498.3963592,-27.83203125,-54.19921875,0.0,0.0,0.0
1734414498.400265,-21.484375,-7.8125,0.0,0.0,0.0
1734414498.4041708,-20.01953125,-1.953125,0.0,0.0,0.0
1734414498.4080763,-28.3203125,-22.4609375,0.0,0.0,0.0
1734414498.411982,-6.8359375,-66.40625,0.0,0.0,0.0
1734414498.4158878,1.46484375,-37.109375,0.0,0.0,0.0
1734414498.4197936,-6.34765625,15.625,0.0,0.0,0.0
1734414498.4236994,-3.41796875,-33.69140625,0.0,0.0,0.0
1734414498.427605,11.23046875,-37.59765625,0.0,0.0,0.0
1734414498.4315107,6.8359375,27.83203125,0.0,0.0,0.0
1734414498.4354165,-1.953125,44.43359375,0.0,0.0,0.0
1734414498.436324,1.953125,10.7421875,213.37890625,-42.48046875,0.0
1734414498.4402294,-2.44140625,-25.87890625,73.2421875,-48.33984375,0.0
1734414498.4441352,-8.7890625,14.16015625,155.2734375,-39.0625,0.0
1734414498.448041,-3.90625,25.87890625,278.80859375,-28.80859375,0.0
1734414498.4519467,-13.671875,-6.34765625,182.6171875,-31.25,0.0
1734414498.4558523,-1.953125,-33.203125,32.2265625,-27.34375,0.0
1734414498.459758,40.52734375,24.90234375,191.40625,-7.8125,0.0
1734414498.4636638,20.5078125,67.87109375,356.4453125,-2.44140625,0.0
1734414498.4675696,11.71875,41.015625,254.8828125,37.109375,0.0
1734414498.4714751,34.1796875,-8.7890625,-39.55078125,84.9609375,0.0
1734414498.475381,23.4375,111.328125,187.01171875,104.4921875,0.0
1734414498.4792867,23.4375,205.56640625,369.140625,127.44140625,0.0
1734414498.4836247,31.25,159.66796875,260.7421875,173.828125,0.0
1734414498.4875305,13.671875,158.69140625,269.04296875,169.921875,0.0
1734414498.4914362,-0.48828125,155.2734375,253.41796875,157.71484375,0.0
1734414498.4953418,1.46484375,111.328125,247.0703125,145.99609375,0.0
1734414498.4992476,7.32421875,68.84765625,207.03125,125.9765625,0.0
1734414498.5031533,4.8828125,53.7109375,111.328125,97.16796875,0.0
1734414498.507059,-0.48828125,68.84765625,63.96484375,85.44921875,0.0
1734414498.5109646,0.48828125,76.66015625,194.3359375,89.35546875,0.0
1734414498.5148704,-13.671875,-16.11328125,54.19921875,90.8203125,0.0
1734414498.5187762,-24.4140625,-51.7578125,-162.59765625,90.33203125,0.0
1734414498.522682,-31.25,22.4609375,139.6484375,65.91796875,0.0
1734414498.5265875,-20.5078125,-19.04296875,180.17578125,32.2265625,0.0
1734414498.5306911,0.0,-82.51953125,27.34375,39.55078125,0.0
1734414498.5345967,0.0,-67.87109375,64.94140625,40.52734375,0.0
1734414498.5385025,0.0,-55.6640625,113.76953125,13.671875,0.0
1734414498.5424082,0.0,-85.9375,92.28515625,12.20703125,0.0
1734414498.546314,0.0,-112.79296875,-87.890625,10.7421875,0.0
1734414498.5502195,0.0,-100.5859375,-282.71484375,17.08984375,0.0
1734414498.5541253,0.0,-37.59765625,-136.23046875,9.765625,0.0
1734414498.558031,0.0,-39.0625,81.54296875,-30.76171875,0.0
1734414498.5619369,0.0,-121.09375,-337.890625,-28.3203125,0.0
1734414498.5658424,0.0,-15.625,-224.12109375,-12.6953125,0.0
1734414498.5697482,0.0,52.24609375,224.609375,-15.13671875,0.0
1734414498.573654,0.0,-6.8359375,108.88671875,-27.83203125,0.0
1734414498.577684,-40.0390625,14.6484375,-8.30078125,-52.734375,0.0
1734414498.5815895,-38.57421875,74.70703125,150.390625,-45.41015625,0.0
1734414498.5854952,-23.4375,62.98828125,207.03125,-49.31640625,0.0
1734414498.589401,-27.34375,50.29296875,185.05859375,-74.21875,0.0
1734414498.5933068,-34.1796875,69.82421875,207.03125,-99.12109375,0.0
1734414498.5972123,-33.203125,50.29296875,113.76953125,-111.328125,0.0
1734414498.601118,-31.73828125,61.03515625,109.375,-97.65625,0.0
1734414498.6050239,-30.2734375,74.70703125,60.05859375,-72.265625,0.0
1734414498.6089296,-18.06640625,85.44921875,-218.75,-63.4765625,0.0
1734414498.6128352,-31.25,163.0859375,-34.66796875,-110.83984375,0.0
1734414498.616741,-55.17578125,183.59375,157.2265625,-161.1328125,0.0
1734414498.6206467,-49.8046875,171.875,89.35546875,-150.390625,0.0
1734414498.6256652,0.0,244.140625,142.578125,-128.41796875,0.0
1734414498.629571,0.0,271.97265625,190.4296875,-127.44140625,0.0
1734414498.6334765,0.0,238.28125,130.859375,-136.71875,0.0
1734414498.6373823,0.0,312.98828125,-10.25390625,-141.6015625,0.0
1734414498.641288,0.0,423.828125,46.38671875,-147.94921875,0.0
1734414498.6451938,0.0,411.62109375,28.3203125,-125.9765625,0.0
1734414498.6490996,0.0,380.859375,-40.0390625,-83.49609375,0.0
1734414498.6530051,0.0,375.0,-299.8046875,-90.8203125,0.0
1734414498.656911,0.0,509.27734375,-179.19921875,-129.39453125,0.0
1734414498.6608167,0.0,562.5,153.3203125,-112.3046875,0.0
1734414498.6647224,0.0,486.81640625,40.0390625,-89.35546875,0.0
1734414498.668628,0.0,472.16796875,-57.6171875,-99.609375,0.0
1734414498.6699312,-50.29296875,482.91015625,82.51953125,-111.81640625,0.0
1734414498.6738367,-59.5703125,453.61328125,95.703125,-114.74609375,0.0
1734414498.6777425,-45.41015625,436.03515625,-50.29296875,-106.93359375,0.0
1734414498.6816483,-35.64453125,478.515625,-39.0625,-102.5390625,0.0
1734414498.685554,-47.8515625,489.2578125,106.4453125,-95.703125,0.0
1734414498.6894596,-41.50390625,430.17578125,-26.3671875,-87.890625,0.0
1734414498.6933653,-32.2265625,411.1328125,-216.30859375,-110.83984375,0.0
1734414498.697271,-33.203125,444.82421875,-105.46875,-111.328125,0.0
1734414498.701177,-36.1328125,454.58984375,18.06640625,-81.0546875,0.0
1734414498.7050824,-47.8515625,442.3828125,-67.87109375,-83.984375,0.0
1734414498.7089882,-62.5,386.71875,-207.51953125,-88.37890625,0.0
1734414498.712894,-52.24609375,388.18359375,-210.44921875,-96.6796875,0.0
1734414498.7164927,-67.87109375,445.80078125,79.58984375,-86.9140625,0.0
1734414498.7203984,-68.84765625,383.7890625,83.49609375,-62.98828125,0.0
1734414498.724304,-48.33984375,333.0078125,-86.9140625,-69.82421875,0.0
1734414498.7282097,-56.15234375,371.58203125,5.37109375,-66.89453125,0.0
1734414498.7321155,-61.5234375,374.51171875,123.046875,-72.75390625,0.0
1734414498.7360213,-46.875,342.7734375,1.46484375,-90.33203125,0.0
1734414498.7399268,-51.7578125,325.1953125,-325.68359375,-71.2890625,0.0
1734414498.7438326,-55.6640625,422.8515625,-129.8828125,-63.4765625,0.0
1734414498.7477384,-55.17578125,466.30859375,187.98828125,-82.51953125,0.0
1734414498.7516441,-40.52734375,386.71875,58.10546875,-86.42578125,0.0
1734414498.7555497,-27.34375,375.48828125,32.2265625,-98.6328125,0.0
1734414498.7594554,-32.71484375,457.03125,129.39453125,-92.7734375,0.0
1734414498.762902,-28.80859375,523.92578125,194.3359375,-87.40234375,0.0
1734414498.7668078,-36.62109375,491.2109375,90.8203125,-89.35546875,0.0
1734414498.7707133,-44.921875,469.7265625,-58.59375,-106.93359375,0.0
1734414498.774619,-33.69140625,470.21484375,95.703125,-109.86328125,0.0
1734414498.7785249,-37.59765625,418.45703125,178.22265625,-83.0078125,0.0
1734414498.7824304,-43.9453125,286.62109375,-34.1796875,-63.4765625,0.0
1734414498.7863362,-23.4375,246.09375,-318.84765625,-49.8046875,0.0
1734414498.790242,-29.78515625,244.140625,7.32421875,-68.359375,0.0
1734414498.7941477,-50.29296875,-84.47265625,76.66015625,-89.35546875,0.0
1734414498.7980533,-37.59765625,-246.09375,-54.6875,-80.56640625,0.0
1734414498.801959,-30.2734375,-215.8203125,73.73046875,-84.9609375,0.0
1734414498.8058648,-36.1328125,-208.984375,125.9765625,-100.09765625,0.0
1734414498.8104196,0.0,-189.453125,117.1875,-106.4453125,0.0
1734414498.8143253,0.0,-224.609375,-35.15625,-94.23828125,0.0
1734414498.818231,0.0,-179.6875,29.296875,-94.7265625,0.0
1734414498.8221369,0.0,-132.32421875,184.5703125,-107.91015625,0.0
1734414498.8260424,0.0,-163.57421875,157.2265625,-92.28515625,0.0
1734414498.8299482,0.0,-180.6640625,-54.19921875,-64.94140625,0.0
1734414498.833854,0.0,-157.2265625,-2.44140625,-95.21484375,0.0
1734414498.8377595,0.0,-255.859375,243.1640625,-135.7421875,0.0
1734414498.8416653,0.0,-427.24609375,173.33984375,-130.37109375,0.0
1734414498.845571,0.0,-498.53515625,-200.68359375,-107.421875,0.0
1734414498.8494768,0.0,-400.390625,-20.01953125,-80.56640625,0.0
1734414498.8533823,0.0,-315.91796875,208.984375,-88.8671875,0.0
1734414498.859007,-41.50390625,-291.015625,74.21875,-111.328125,0.0
1734414498.8629127,-59.08203125,-242.67578125,34.1796875,-126.46484375,0.0
1734414498.8668184,-50.29296875,-172.8515625,94.23828125,-126.953125,0.0
1734414498.870724,-43.45703125,-78.125,98.6328125,-126.46484375,0.0
1734414498.8746297,-47.36328125,-3.90625,18.5546875,-116.69921875,0.0
1734414498.8785355,-53.22265625,91.30859375,-158.69140625,-107.421875,0.0
1734414498.8824413,-42.48046875,182.12890625,-68.84765625,-102.5390625,0.0
1734414498.8863468,-37.59765625,239.74609375,152.34375,-86.42578125,0.0
1734414498.8902526,-38.0859375,262.6953125,-61.03515625,-76.66015625,0.0
1734414498.8941584,-21.484375,308.10546875,-282.71484375,-71.2890625,0.0
1734414498.8980641,-32.71484375,404.78515625,75.68359375,-95.703125,0.0
1734414498.9019697,-47.36328125,399.4140625,190.4296875,-119.140625,0.0
1734414498.9061234,-47.8515625,349.12109375,0.0,-104.98046875,0.0
1734414498.9100292,-52.734375,383.7890625,0.0,-62.98828125,0.0
1734414498.913935,-62.01171875,429.6875,0.0,-65.91796875,0.0
1734414498.9178405,-60.546875,416.9921875,0.0,-75.1953125,0.0
1734414498.9217463,-51.7578125,354.4921875,0.0,-60.546875,0.0
1734414498.925652,-53.22265625,226.5625,0.0,-67.87109375,0.0
1734414498.9295578,-36.1328125,219.23828125,0.0,-42.96875,0.0
1734414498.9334633,-35.64453125,223.6328125,0.0,-16.11328125,0.0
1734414498.937369,-54.19921875,177.24609375,0.0,-40.0390625,0.0
1734414498.941275,-51.7578125,247.0703125,0.0,-47.36328125,0.0
1734414498.9451807,-45.8984375,293.45703125,0.0,-50.29296875,0.0
1734414498.9490862,-58.10546875,261.71875,0.0,-81.0546875,0.0
1734414498.952948,-60.546875,241.69921875,-364.74609375,-93.75,0.0
1734414498.9568539,-71.77734375,343.75,-104.00390625,-100.09765625,0.0
1734414498.9607596,-67.3828125,358.3984375,99.12109375,-108.3984375,0.0
1734414498.9646652,-28.80859375,319.82421875,-139.6484375,-89.35546875,0.0
1734414498.968571,-17.578125,339.84375,-257.8125,-91.796875,0.0
1734414498.9724767,-35.64453125,362.79296875,-330.078125,-99.12109375,0.0
1734414498.9763825,-57.6171875,399.90234375,-238.76953125,-101.07421875,0.0
1734414498.980288,-43.9453125,353.02734375,-279.296875,-73.2421875,0.0
1734414498.9841938,-40.0390625,315.4296875,-495.1171875,-43.45703125,0.0
1734414498.9880996,-26.85546875,384.27734375,-326.171875,-58.10546875,0.0
1734414498.9920053,-22.4609375,388.18359375,-180.6640625,-60.546875,0.0
1734414498.9959111,-82.51953125,364.2578125,-276.3671875,-52.734375,0.0
1734414498.9996946,-94.7265625,383.30078125,-215.33203125,-51.26953125,0.0
1734414499.0036001,-84.9609375,387.6953125,-16.11328125,-36.1328125,0.0
1734414499.007506,-74.21875,364.74609375,0.0,-24.90234375,0.0
1734414499.0114117,-51.7578125,341.796875,-234.86328125,-28.3203125,0.0
1734414499.0153174,-57.12890625,348.14453125,-128.90625,-46.38671875,0.0
1734414499.019223,-73.73046875,339.35546875,-99.609375,-53.7109375,0.0
1734414499.0231287,-79.58984375,335.44921875,-252.44140625,-25.390625,0.0
1734414499.0270345,-84.47265625,319.3359375,-440.4296875,-36.1328125,0.0
1734414499.0309403,-65.91796875,390.13671875,-248.53515625,-67.3828125,0.0
1734414499.0348458,-40.52734375,445.80078125,96.19140625,-87.890625,0.0
1734414499.0387516,-37.109375,416.015625,-34.66796875,-123.53515625,0.0
1734414499.0426574,-45.8984375,436.03515625,-232.421875,-129.8828125,0.0
1734414499.0461957,-66.40625,489.74609375,-185.05859375,-101.07421875,0.0
1734414499.0501013,-60.05859375,471.19140625,-175.29296875,-101.5625,0.0
1734414499.054007,-53.22265625,442.87109375,-312.01171875,-105.95703125,0.0
1734414499.0579128,-48.828125,463.8671875,-313.96484375,-89.35546875,0.0
1734414499.0618186,-25.87890625,479.4921875,-279.78515625,-65.91796875,0.0
1734414499.0657241,-24.90234375,463.8671875,-355.95703125,-52.24609375,0.0
1734414499.06963,-55.6640625,458.49609375,-404.78515625,-62.01171875,0.0
1734414499.0735357,-57.6171875,467.7734375,-499.51171875,-68.84765625,0.0
1734414499.0774415,-57.6171875,525.390625,-332.51953125,-76.171875,0.0
1734414499.081347,-27.34375,507.32421875,-334.47265625,-54.19921875,0.0
1734414499.0852528,-10.25390625,490.72265625,-371.58203125,-43.9453125,0.0
1734414499.0891585,-61.03515625,493.65234375,-264.16015625,-70.80078125,0.0
1734414499.0949817,-83.984375,458.0078125,-219.23828125,-83.49609375,0.0
1734414499.0988872,-103.02734375,420.8984375,-222.16796875,-79.1015625,0.0
1734414499.102793,-115.234375,404.296875,-326.66015625,-67.87109375,0.0
1734414499.1066988,-82.51953125,438.4765625,-151.3671875,-56.15234375,0.0
1734414499.1106045,-42.48046875,454.1015625,60.546875,-34.66796875,0.0
