timestamps,TP9,AF7,AF8,TP10,Right AUX
1734413616.4494689,-38.0859375,-63.4765625,185.546875,15.625,0.0
1734413616.4533734,-57.6171875,1.953125,237.3046875,-129.39453125,0.0
1734413616.4572783,-41.015625,3.90625,258.7890625,-97.16796875,0.0
1734413616.4611828,-9.765625,-53.22265625,203.61328125,80.56640625,0.0
1734413616.4650874,3.90625,-81.0546875,163.0859375,166.50390625,0.0
1734413616.4689922,-25.390625,-31.25,159.1796875,31.73828125,0.0
1734413616.4728968,-47.8515625,19.04296875,258.30078125,-117.67578125,0.0
1734413616.4768016,-41.50390625,-80.56640625,97.16796875,-97.65625,0.0
1734413616.4807062,-23.4375,-98.14453125,3.41796875,66.40625,0.0
1734413616.4846108,-4.8828125,36.62109375,249.51171875,159.1796875,0.0
1734413616.4885156,-22.94921875,-0.9765625,238.76953125,51.26953125,0.0
1734413616.4924316,-45.41015625,-50.29296875,125.48828125,-103.515625,0.0
1734413616.4963362,-41.50390625,-14.6484375,132.8125,-122.0703125,0.0
1734413616.500241,-18.5546875,8.30078125,240.72265625,32.2265625,0.0
1734413616.5041456,3.41796875,-44.43359375,200.68359375,170.41015625,0.0
1734413616.5080502,-12.20703125,-67.3828125,110.3515625,92.7734375,0.0
1734413616.511955,-47.36328125,-44.43359375,94.23828125,-85.44921875,0.0
1734413616.5158596,-54.19921875,0.9765625,168.45703125,-137.6953125,0.0
1734413616.5197644,-20.99609375,-2.9296875,178.22265625,18.5546875,0.0
1734413616.523669,3.90625,-19.53125,173.33984375,154.296875,0.0
1734413616.5275736,-12.6953125,16.11328125,216.30859375,87.890625,0.0
1734413616.5314784,-42.48046875,-8.7890625,220.703125,-78.61328125,0.0
1734413616.535383,-43.9453125,-74.70703125,133.30078125,-158.69140625,0.0
1734413616.539304,-16.6015625,-76.171875,96.19140625,-30.76171875,0.0
1734413616.5432088,3.41796875,-17.08984375,172.8515625,115.234375,0.0
1734413616.5471134,6.8359375,11.71875,213.37890625,102.05078125,0.0
1734413616.5510182,-16.11328125,-56.15234375,149.4140625,-47.36328125,0.0
1734413616.5549228,-42.48046875,-126.46484375,-100.09765625,-143.06640625,0.0
1734413616.5588274,-24.90234375,-20.01953125,-18.06640625,-39.0625,0.0
1734413616.5627322,9.27734375,68.359375,265.625,101.5625,0.0
1734413616.5666368,0.48828125,-35.64453125,138.18359375,92.28515625,0.0
1734413616.5705414,-46.875,-92.7734375,-51.26953125,-70.3125,0.0
1734413616.5744462,-66.40625,33.203125,166.9921875,-202.1484375,0.0
1734413616.5783508,-36.62109375,0.0,243.1640625,-110.83984375,0.0
1734413616.5822556,-6.8359375,-60.546875,135.7421875,62.98828125,0.0
1734413616.5861385,-1.46484375,-35.15625,166.9921875,102.05078125,0.0
1734413616.590043,-18.5546875,-14.6484375,225.09765625,-57.12890625,0.0
1734413616.593948,-46.875,-53.7109375,174.8046875,-196.2890625,0.0
1734413616.5978525,-38.57421875,-82.51953125,155.76171875,-117.1875,0.0
1734413616.601757,-6.8359375,-41.50390625,157.71484375,40.52734375,0.0
1734413616.6056619,8.7890625,-26.3671875,134.27734375,96.6796875,0.0
1734413616.6095665,-18.06640625,-20.5078125,185.05859375,-35.64453125,0.0
1734413616.6134713,-41.9921875,-92.28515625,-52.734375,-170.8984375,0.0
1734413616.6173759,-33.203125,-31.73828125,-66.89453125,-133.7890625,0.0
1734413616.6212804,-8.30078125,82.03125,295.41015625,17.578125,0.0
1734413616.6251853,-0.9765625,-31.25,207.51953125,90.33203125,0.0
1734413616.6290898,-37.109375,-55.17578125,137.6953125,-38.57421875,0.0
1734413616.6329625,-75.68359375,2.44140625,198.73046875,-188.96484375,0.0
1734413616.636867,-72.75390625,-8.7890625,217.28515625,-186.5234375,0.0
1734413616.6407719,-26.3671875,-69.82421875,183.10546875,-26.3671875,0.0
1734413616.6446764,-9.765625,-71.77734375,169.921875,80.56640625,0.0
1734413616.648581,-41.50390625,-26.3671875,168.9453125,-33.203125,0.0
1734413616.6524858,-66.40625,-68.84765625,123.53515625,-179.19921875,0.0
1734413616.6563904,-59.08203125,-121.09375,-6.34765625,-186.5234375,0.0
1734413616.6602952,-30.76171875,-80.56640625,-83.984375,-35.15625,0.0
1734413616.6641998,-20.01953125,51.26953125,173.33984375,76.66015625,0.0
1734413616.6681044,-38.57421875,10.25390625,262.6953125,-1.953125,0.0
1734413616.6720092,-62.01171875,-81.54296875,53.22265625,-146.97265625,0.0
1734413616.6759138,-59.08203125,-56.15234375,28.3203125,-203.125,0.0
1734413616.6798897,-37.59765625,10.7421875,228.02734375,-74.21875,0.0
1734413616.6837945,-27.34375,-18.06640625,246.58203125,57.6171875,0.0
1734413616.687699,-45.8984375,-66.89453125,173.33984375,6.8359375,0.0
1734413616.6916037,-67.3828125,-77.63671875,88.37890625,-142.578125,0.0
1734413616.6955085,-76.66015625,-56.640625,98.6328125,-220.703125,0.0
1734413616.699413,-46.875,-40.0390625,178.7109375,-88.37890625,0.0
1734413616.7033179,-12.6953125,-119.140625,-99.12109375,66.89453125,0.0
1734413616.7072225,-28.3203125,-62.01171875,-145.01953125,32.2265625,0.0
1734413616.711127,-58.10546875,26.3671875,185.05859375,-135.25390625,0.0
1734413616.7150319,-67.3828125,-62.98828125,78.125,-229.00390625,0.0
1734413616.7189364,-46.875,-30.76171875,89.35546875,-106.93359375,0.0
1734413616.7228413,-19.53125,21.97265625,218.26171875,41.9921875,0.0
1734413616.7266803,-21.484375,5.859375,241.2109375,44.43359375,0.0
1734413616.7305849,-48.828125,-61.03515625,113.28125,-104.00390625,0.0
1734413616.7344897,-55.17578125,-61.5234375,63.96484375,-230.95703125,0.0
1734413616.7383943,-40.52734375,4.8828125,174.31640625,-148.4375,0.0
1734413616.742299,-27.83203125,-2.9296875,225.5859375,20.5078125,0.0
1734413616.7462037,-20.5078125,-101.07421875,65.4296875,59.08203125,0.0
1734413616.7501082,-41.015625,-101.07421875,-25.390625,-88.37890625,0.0
1734413616.754013,-69.82421875,-0.48828125,149.4140625,-221.6796875,0.0
1734413616.7579176,-56.640625,0.9765625,235.83984375,-160.15625,0.0
1734413616.7618225,-27.83203125,-99.609375,32.2265625,7.8125,0.0
1734413616.765727,-26.85546875,-101.07421875,-55.17578125,66.40625,0.0
1734413616.7696316,-56.15234375,21.484375,200.68359375,-88.37890625,0.0
1734413616.7734694,-79.1015625,-50.29296875,132.32421875,-223.6328125,0.0
1734413616.777374,-67.87109375,-51.26953125,82.51953125,-172.36328125,0.0
1734413616.7812786,-42.48046875,-13.671875,170.41015625,-18.5546875,0.0
1734413616.7851834,-32.2265625,-53.7109375,171.875,61.5234375,0.0
1734413616.789088,-42.96875,-66.40625,140.13671875,-60.546875,0.0
1734413616.7929926,-65.91796875,-79.1015625,25.87890625,-213.37890625,0.0
1734413616.7968974,-62.5,-39.0625,62.5,-201.171875,0.0
1734413616.800802,-27.83203125,12.6953125,252.44140625,-29.296875,0.0
1734413616.8047068,-4.39453125,-44.921875,192.87109375,76.66015625,0.0
1734413616.8086114,-21.484375,-117.1875,-43.45703125,-33.203125,0.0
1734413616.812516,-59.5703125,-21.484375,45.41015625,-193.84765625,0.0
1734413616.8164208,-64.94140625,30.76171875,227.5390625,-227.5390625,0.0
1734413616.820355,-30.76171875,-46.875,141.11328125,-67.87109375,0.0
1734413616.8242598,-6.34765625,-49.31640625,138.18359375,72.265625,0.0
1734413616.8281643,-25.390625,-44.921875,141.11328125,-16.11328125,0.0
1734413616.832069,-60.05859375,-36.1328125,166.9921875,-186.03515625,0.0
1734413616.8359737,-75.68359375,-52.24609375,119.140625,-240.234375,0.0
1734413616.8398783,-55.17578125,-88.37890625,3.41796875,-87.40234375,0.0
1734413616.8437831,-32.71484375,-11.23046875,145.99609375,63.96484375,0.0
1734413616.8476877,-39.0625,13.18359375,255.859375,3.41796875,0.0
1734413616.8515923,-62.5,-87.890625,15.13671875,-149.4140625,0.0
1734413616.8554971,-74.21875,-85.9375,-97.16796875,-216.796875,0.0
1734413616.8594017,-49.8046875,59.5703125,197.265625,-89.84375,0.0
1734413616.8633063,-13.18359375,17.08984375,251.46484375,70.3125,0.0
1734413616.86722,-19.04296875,-85.9375,19.04296875,51.7578125,0.0
1734413616.8711245,-55.17578125,-44.43359375,-12.20703125,-107.91015625,0.0
1734413616.875029,-82.03125,5.37109375,195.3125,-210.9375,0.0
1734413616.878934,-56.15234375,-58.10546875,98.6328125,-99.609375,0.0
1734413616.8828385,-15.13671875,-61.5234375,73.2421875,54.6875,0.0
1734413616.886743,-15.13671875,-27.34375,137.20703125,61.5234375,0.0
1734413616.890648,-49.8046875,-24.90234375,70.3125,-91.796875,0.0
1734413616.8945525,-68.84765625,-21.97265625,69.3359375,-206.0546875,0.0
1734413616.8984573,-41.9921875,-69.82421875,-144.04296875,-92.28515625,0.0
1734413616.9023619,-14.16015625,-7.32421875,-91.796875,73.73046875,0.0
1734413616.9062665,-7.8125,67.87109375,256.34765625,88.37890625,0.0
1734413616.9101713,-41.015625,-43.9453125,111.81640625,-68.84765625,0.0
1734413616.9142032,0.0,-64.94140625,54.19921875,0.0,0.0
1734413616.9181077,0.0,-8.7890625,149.4140625,0.0,0.0
1734413616.9220123,0.0,-15.13671875,180.17578125,0.0,0.0
1734413616.9259171,0.0,-62.98828125,123.53515625,0.0,0.0
1734413616.9298217,0.0,-71.77734375,71.77734375,0.0,0.0
1734413616.9337265,0.0,-56.640625,32.2265625,0.0,0.0
1734413616.9376311,0.0,-8.7890625,102.05078125,0.0,0.0
1734413616.9415357,0.0,-47.8515625,33.203125,0.0,0.0
1734413616.9454405,0.0,-80.56640625,-65.4296875,0.0,0.0
1734413616.949345,0.0,31.73828125,124.51171875,0.0,0.0
1734413616.95325,0.0,13.18359375,187.5,0.0,0.0
1734413616.9571545,0.0,-96.6796875,-65.4296875,0.0,0.0
1734413616.9610448,-28.80859375,-63.4765625,-103.02734375,-5.37109375,0.0
1734413616.9649494,-12.6953125,42.96875,235.83984375,106.4453125,0.0
1734413616.968854,-35.64453125,-17.578125,177.24609375,2.9296875,0.0
1734413616.9727588,-73.73046875,-66.40625,82.03125,-171.875,0.0
1734413616.9766634,-70.3125,-53.7109375,57.12890625,-198.2421875,0.0
1734413616.9805682,-35.15625,-34.1796875,78.125,-28.80859375,0.0
1734413616.9844728,-18.06640625,-22.94921875,139.16015625,104.4921875,0.0
1734413616.9883773,-37.59765625,-12.6953125,177.24609375,10.25390625,0.0
1734413616.9922822,-64.453125,3.41796875,178.22265625,-161.62109375,0.0
1734413616.9961867,-59.08203125,-0.9765625,213.37890625,-200.68359375,0.0
1734413617.0000916,-28.3203125,-40.0390625,196.2890625,-38.57421875,0.0
1734413617.0039961,-2.9296875,-110.83984375,-77.1484375,113.76953125,0.0
1734413617.0078754,-16.11328125,-13.671875,16.11328125,43.45703125,0.0
1734413617.0117803,-44.921875,39.55078125,245.60546875,-139.16015625,0.0
1734413617.0156848,-56.15234375,-61.03515625,117.1875,-206.0546875,0.0
1734413617.0195897,-30.76171875,-43.9453125,136.71875,-55.17578125,0.0
1734413617.0234942,-8.7890625,-2.9296875,192.3828125,105.95703125,0.0
1734413617.0273988,-19.04296875,-53.7109375,134.765625,63.96484375,0.0
1734413617.0313036,-44.43359375,-98.14453125,8.30078125,-103.02734375,0.0
1734413617.0352082,-55.6640625,-80.56640625,-181.640625,-195.80078125,0.0
1734413617.0391128,-35.15625,48.33984375,46.875,-82.03125,0.0
1734413617.0430176,-14.6484375,38.0859375,264.6484375,76.171875,0.0
1734413617.0469222,-15.625,-92.7734375,-16.6015625,78.125,0.0
1734413617.050827,-48.33984375,-74.70703125,-72.75390625,-93.26171875,0.0
1734413617.0546896,-71.2890625,5.859375,175.29296875,-217.7734375,0.0
1734413617.0585942,-43.9453125,-41.015625,104.98046875,-104.4921875,0.0
1734413617.062499,-10.7421875,-44.921875,96.19140625,83.0078125,0.0
1734413617.0664036,-14.16015625,-30.76171875,107.91015625,117.1875,0.0
1734413617.0703082,-47.36328125,-43.9453125,78.125,-45.8984375,0.0
1734413617.074213,-69.3359375,-66.40625,102.05078125,-190.4296875,0.0
1734413617.0781176,-43.9453125,-118.65234375,-130.37109375,-115.72265625,0.0
1734413617.0820224,-17.578125,-32.71484375,-91.30859375,57.12890625,0.0
1734413617.085927,-14.16015625,57.12890625,296.38671875,106.4453125,0.0
1734413617.0898316,-31.73828125,-46.875,157.2265625,-46.875,0.0
1734413617.0937364,-60.05859375,-85.44921875,49.31640625,-204.1015625,0.0
1734413617.097641,-60.546875,-30.76171875,148.92578125,-166.50390625,0.0
1734413617.1014967,-27.83203125,9.27734375,235.3515625,15.625,0.0
1734413617.1054013,-0.9765625,-37.109375,189.453125,115.234375,0.0
1734413617.109306,-27.83203125,-57.12890625,99.609375,-10.7421875,0.0
1734413617.1132107,-57.12890625,-5.37109375,140.625,-169.921875,0.0
1734413617.1171155,-44.921875,-14.16015625,127.44140625,-167.96875,0.0
1734413617.12102,-14.6484375,-62.01171875,59.08203125,2.44140625,0.0
1734413617.1249247,0.0,-55.6640625,-51.7578125,114.74609375,0.0
1734413617.1288295,-22.94921875,60.05859375,95.21484375,-6.34765625,0.0
1734413617.132734,-39.55078125,28.3203125,202.1484375,-176.26953125,0.0
1734413617.1366386,-42.96875,-43.9453125,60.05859375,-201.171875,0.0
1734413617.1405435,-18.06640625,-18.06640625,78.61328125,-35.15625,0.0
1734413617.144448,6.34765625,21.484375,227.05078125,98.6328125,0.0
1734413617.1482837,0.0,-14.16015625,216.30859375,0.48828125,0.0
1734413617.1521883,0.0,-93.26171875,20.01953125,-178.22265625,0.0
1734413617.156093,0.0,-56.15234375,30.76171875,-230.95703125,0.0
1734413617.1599977,0.0,-28.80859375,127.9296875,-67.87109375,0.0
1734413617.1639023,0.0,-56.640625,98.6328125,93.75,0.0
1734413617.167807,0.0,-80.56640625,-13.18359375,41.015625,0.0
1734413617.1717117,0.0,-54.6875,-37.59765625,-141.11328125,0.0
1734413617.1756163,0.0,8.30078125,127.9296875,-235.3515625,0.0
1734413617.179521,0.0,-0.9765625,139.16015625,-89.35546875,0.0
1734413617.1834257,0.0,-30.2734375,38.0859375,88.8671875,0.0
1734413617.1873305,0.0,11.23046875,108.3984375,58.59375,0.0
1734413617.191235,0.0,7.8125,196.2890625,-130.37109375,0.0
1734413617.1951714,-79.58984375,-54.19921875,104.00390625,-235.83984375,0.0
1734413617.199076,-46.38671875,-51.26953125,125.48828125,-96.6796875,0.0
1734413617.2029808,-21.484375,2.44140625,236.81640625,76.171875,0.0
1734413617.2068853,-28.80859375,-23.4375,231.4453125,78.61328125,0.0
1734413617.2107902,-46.875,-94.7265625,82.03125,-93.75,0.0
1734413617.2146947,-71.2890625,-108.88671875,-29.296875,-216.796875,0.0
1734413617.2185993,-62.5,-11.23046875,126.46484375,-102.5390625,0.0
1734413617.2225041,-25.87890625,27.34375,273.4375,73.2421875,0.0
1734413617.2264087,-15.625,-82.51953125,79.58984375,116.69921875,0.0
1734413617.2303133,-50.29296875,-123.53515625,-80.56640625,-43.9453125,0.0
1734413617.2342181,-81.54296875,-21.97265625,104.00390625,-193.84765625,0.0
1734413617.2381227,-51.7578125,21.97265625,250.9765625,-101.5625,0.0
1734413617.2420437,-10.25390625,-80.078125,4.39453125,102.05078125,0.0
1734413617.2459486,-7.32421875,-67.3828125,-75.1953125,155.2734375,0.0
1734413617.2498531,-37.109375,29.296875,211.42578125,-26.3671875,0.0
1734413617.2537577,-58.10546875,-47.8515625,125.9765625,-175.29296875,0.0
1734413617.2576625,-41.50390625,-61.5234375,2.44140625,-110.3515625,0.0
1734413617.261567,-9.765625,-7.32421875,69.3359375,83.984375,0.0
1734413617.265472,1.953125,34.1796875,215.33203125,187.01171875,0.0
1734413617.2693765,-23.4375,14.6484375,230.46875,45.41015625,0.0
1734413617.273281,-50.29296875,-95.703125,-97.16796875,-130.859375,0.0
1734413617.277186,-45.8984375,-13.18359375,-91.30859375,-125.9765625,0.0
1734413617.2810905,-9.765625,92.7734375,305.17578125,44.921875,0.0
1734413617.284995,2.9296875,-18.06640625,207.03125,153.80859375,0.0
1734413617.2888985,-20.99609375,-69.82421875,87.40234375,34.1796875,0.0
1734413617.2928033,-35.64453125,-7.32421875,163.0859375,-128.90625,0.0
1734413617.2967079,-36.62109375,19.53125,194.3359375,-138.671875,0.0
1734413617.3006124,-15.625,-27.34375,172.36328125,31.25,0.0
1734413617.3045173,7.32421875,-43.9453125,173.828125,165.0390625,0.0
1734413617.3084219,-9.27734375,-43.45703125,113.28125,77.1484375,0.0
1734413617.3123264,-45.41015625,-31.73828125,91.796875,-106.93359375,0.0
1734413617.3162313,-51.7578125,-64.94140625,-8.30078125,-165.52734375,0.0
1734413617.3201358,-33.69140625,-56.15234375,-95.21484375,-2.9296875,0.0
1734413617.3240407,-14.16015625,57.12890625,166.015625,142.08984375,0.0
1734413617.3279452,-14.6484375,26.3671875,282.2265625,84.9609375,0.0
1734413617.3318498,-47.36328125,-86.9140625,-1.953125,-93.75,0.0
1734413617.3357394,-63.4765625,-53.22265625,-2.44140625,-179.6875,0.0
1734413617.3396442,-23.92578125,25.390625,254.8828125,-42.48046875,0.0
1734413617.3435488,7.32421875,-24.90234375,247.0703125,110.3515625,0.0
1734413617.3474534,-16.6015625,-98.6328125,97.65625,69.82421875,0.0
1734413617.3513582,-48.828125,-67.3828125,33.69140625,-111.328125,0.0
1734413617.3552628,-58.10546875,-18.06640625,110.3515625,-216.30859375,0.0
1734413617.3591676,-32.2265625,-14.16015625,181.640625,-83.49609375,0.0
1734413617.3630722,1.46484375,-82.03125,-12.6953125,111.328125,0.0
1734413617.3669767,-7.8125,-38.0859375,-18.5546875,109.86328125,0.0
1734413617.3708816,-41.9921875,49.31640625,278.3203125,-83.0078125,0.0
1734413617.3747861,-56.640625,-39.0625,166.50390625,-210.44921875,0.0
1734413617.378691,-35.64453125,-50.29296875,154.296875,-93.75,0.0
1734413617.3828096,-1.46484375,2.9296875,257.32421875,85.44921875,0.0
1734413617.3867142,3.41796875,9.765625,294.43359375,119.140625,0.0
1734413617.390619,-28.3203125,-64.453125,201.66015625,-22.4609375,0.0
1734413617.3945236,-47.36328125,-71.2890625,154.78515625,-175.78125,0.0
1734413617.3984282,-23.92578125,-20.5078125,208.0078125,-83.49609375,0.0
1734413617.402333,4.8828125,-42.48046875,207.51953125,119.140625,0.0
1734413617.4062376,8.30078125,-77.63671875,119.62890625,155.2734375,0.0
1734413617.4101424,-12.6953125,-74.70703125,-40.52734375,13.18359375,0.0
1734413617.414047,-35.15625,35.15625,145.99609375,-146.97265625,0.0
1734413617.4179516,-27.83203125,17.578125,273.92578125,-97.65625,0.0
1734413617.4218564,0.48828125,-46.875,130.859375,107.91015625,0.0
1734413617.425761,19.53125,-13.18359375,176.7578125,193.359375,0.0
1734413617.429624,-3.90625,3.41796875,259.765625,35.64453125,0.0
1734413617.433529,-27.83203125,-35.15625,218.75,-136.71875,0.0
1734413617.4374335,-15.13671875,-77.63671875,126.953125,-125.0,0.0
1734413617.441338,11.71875,-45.8984375,148.92578125,60.546875,0.0
1734413617.445243,13.671875,9.765625,255.859375,177.734375,0.0
1734413617.4491475,-12.20703125,-41.9921875,160.64453125,49.8046875,0.0
1734413617.453052,-48.33984375,-46.875,50.29296875,-130.37109375,0.0
1734413617.4569569,-53.7109375,15.625,162.59765625,-156.25,0.0
1734413617.4608614,-3.90625,-9.27734375,210.44921875,11.23046875,0.0
1734413617.4647663,19.04296875,-37.109375,153.80859375,155.2734375,0.0
1734413617.4686708,-20.5078125,-6.34765625,205.56640625,53.22265625,0.0
1734413617.4725754,-56.15234375,22.94921875,224.12109375,-144.53125,0.0
1734413617.4764242,-56.640625,9.765625,243.1640625,-183.10546875,0.0
1734413617.480329,-23.92578125,-42.96875,228.02734375,-5.859375,0.0
1734413617.4842336,-3.41796875,-84.9609375,46.38671875,148.92578125,0.0
1734413617.4881382,-21.484375,22.94921875,147.4609375,71.77734375,0.0
1734413617.492043,-40.52734375,44.921875,272.4609375,-116.69921875,0.0
1734413617.4959476,-43.45703125,-83.984375,72.75390625,-179.6875,0.0
1734413617.4998524,-5.859375,-64.94140625,-10.7421875,-10.25390625,0.0
1734413617.503757,29.78515625,80.078125,236.81640625,141.6015625,0.0
1734413617.5076616,6.8359375,42.48046875,331.54296875,86.9140625,0.0
1734413617.5115664,-24.90234375,-50.29296875,172.8515625,-102.05078125,0.0
1734413617.515471,-42.48046875,-54.19921875,134.765625,-209.47265625,0.0
1734413617.5193758,-20.01953125,-22.94921875,192.87109375,-67.87109375,0.0
1734413617.5233262,7.8125,-0.48828125,261.23046875,91.796875,0.0
1734413617.5272307,-8.30078125,-19.53125,234.375,79.1015625,0.0
1734413617.5311353,-47.36328125,-26.85546875,207.03125,-93.75,0.0
1734413617.5350401,-68.84765625,-33.69140625,184.08203125,-225.5859375,0.0
1734413617.5389447,-40.52734375,-25.390625,180.6640625,-108.88671875,0.0
1734413617.5428495,-7.8125,-51.7578125,120.60546875,82.03125,0.0
1734413617.5467541,-7.8125,4.39453125,151.3671875,104.98046875,0.0
1734413617.5506587,-41.9921875,48.828125,290.52734375,-69.82421875,0.0
1734413617.5545635,-63.96484375,-32.2265625,211.9140625,-217.7734375,0.0
1734413617.558468,-43.45703125,-45.41015625,109.86328125,-125.9765625,0.0
1734413617.562373,-14.6484375,27.83203125,200.68359375,62.5,0.0
1734413617.5662775,-11.71875,24.90234375,309.08203125,104.4921875,0.0
1734413617.570206,-35.15625,-47.36328125,186.5234375,-47.8515625,0.0
1734413617.5741105,-55.17578125,-70.3125,113.76953125,-191.89453125,0.0
1734413617.578015,-48.33984375,-12.6953125,193.359375,-148.92578125,0.0
1734413617.58192,-15.625,34.1796875,291.9921875,26.3671875,0.0
1734413617.5858245,0.48828125,-42.96875,228.515625,107.91015625,0.0
1734413617.5897293,-31.25,-106.93359375,61.03515625,-57.12890625,0.0
1734413617.593634,-57.6171875,-9.765625,127.9296875,-252.9296875,0.0
1734413617.5975385,-53.22265625,42.96875,254.8828125,-254.8828125,0.0
1734413617.6014433,-29.78515625,-65.91796875,118.1640625,-83.49609375,0.0
1734413617.6053479,-23.92578125,-83.49609375,62.98828125,22.4609375,0.0
1734413617.6092527,-48.828125,31.25,223.6328125,-116.2109375,0.0
1734413617.6131573,-67.3828125,-14.16015625,218.75,-297.36328125,0.0
1734413617.6172037,-62.98828125,-70.80078125,84.47265625,-306.15234375,0.0
1734413617.6211085,-29.296875,-37.59765625,93.26171875,-130.859375,0.0
1734413617.625013,-10.7421875,-22.4609375,221.6796875,-7.8125,0.0
1734413617.6289177,-36.62109375,-97.16796875,91.30859375,-109.86328125,0.0
1734413617.6328225,-62.01171875,-93.26171875,-19.53125,-276.3671875,0.0
1734413617.636727,-57.6171875,-51.7578125,25.390625,-314.453125,0.0
1734413617.640632,-28.3203125,-23.4375,80.078125,-142.578125,0.0
1734413617.6445365,-12.20703125,5.37109375,211.9140625,8.7890625,0.0
1734413617.648441,-22.4609375,-119.62890625,-87.40234375,-56.640625,0.0
1734413617.652346,-52.734375,-71.77734375,-180.17578125,-233.88671875,0.0
1734413617.6562505,-74.70703125,46.38671875,209.9609375,-333.49609375,0.0
1734413617.6601553,-48.33984375,-46.38671875,145.01953125,-176.26953125,0.0
1734413617.6640587,-11.23046875,-52.734375,129.8828125,10.7421875,0.0
1734413617.6679635,-16.6015625,-7.32421875,197.265625,-24.4140625,0.0
1734413617.671868,-57.12890625,-24.90234375,192.3828125,-207.03125,0.0
1734413617.675773,-68.84765625,-67.3828125,127.44140625,-294.43359375,0.0
1734413617.6796775,-37.109375,-73.2421875,97.65625,-143.5546875,0.0
1734413617.683582,-17.578125,-44.43359375,108.88671875,41.9921875,0.0
1734413617.687487,-20.5078125,-2.9296875,203.61328125,48.828125,0.0
1734413617.6913915,-48.33984375,-66.89453125,55.17578125,-134.27734375,0.0
1734413617.6952963,-69.3359375,-80.56640625,-56.640625,-271.484375,0.0
1734413617.6992009,-49.8046875,10.7421875,193.84765625,-166.9921875,0.0
1734413617.7031054,-15.13671875,2.44140625,284.1796875,16.6015625,0.0
1734413617.7070103,-13.18359375,-119.140625,-13.18359375,59.5703125,0.0
1734413617.7110276,-51.7578125,-129.39453125,-163.0859375,-109.86328125,0.0
1734413617.7149322,-69.82421875,23.92578125,169.921875,-261.23046875,0.0
1734413617.718837,-46.38671875,-13.18359375,171.38671875,-166.9921875,0.0
1734413617.7227416,-21.97265625,-69.3359375,106.4453125,14.16015625,0.0
1734413617.7266462,-16.6015625,-57.12890625,110.3515625,62.5,0.0
1734413617.730551,-48.33984375,-52.734375,99.609375,-103.02734375,0.0
1734413617.7344556,-79.1015625,-56.640625,113.28125,-261.23046875,0.0
1734413617.7383604,-60.05859375,-125.0,-149.90234375,-191.40625,0.0
1734413617.742265,-26.3671875,-39.0625,-139.16015625,7.32421875,0.0
1734413617.7461696,-11.23046875,55.6640625,253.90625,78.125,0.0
1734413617.7500744,-31.25,-60.05859375,133.30078125,-69.3359375,0.0
1734413617.753979,-71.77734375,-44.43359375,86.42578125,-234.86328125,0.0
1734413617.7578578,0.0,-0.48828125,172.8515625,-214.35546875,0.0
1734413617.7617626,0.0,0.48828125,228.515625,-15.13671875,0.0
1734413617.7656672,0.0,-41.9921875,202.1484375,88.8671875,0.0
1734413617.769572,0.0,-52.24609375,167.48046875,-66.40625,0.0
1734413617.7734766,0.0,-18.5546875,198.73046875,-248.046875,0.0
1734413617.7773812,0.0,-43.9453125,164.0625,-265.625,0.0
1734413617.781286,0.0,-76.171875,66.89453125,-87.40234375,0.0
1734413617.7851906,0.0,-37.109375,129.8828125,41.9921875,0.0
1734413617.7890954,0.0,19.04296875,247.0703125,-83.0078125,0.0
1734413617.793,0.0,-12.20703125,263.18359375,-279.78515625,0.0
1734413617.7969046,0.0,-113.76953125,21.97265625,-327.1484375,0.0
1734413617.8008094,0.0,-83.49609375,-46.875,-148.92578125,0.0
1734413617.8046696,-25.390625,51.26953125,265.13671875,-3.41796875,0.0
1734413617.8085742,-34.1796875,-28.80859375,184.08203125,-102.5390625,0.0
1734413617.812479,-67.3828125,-87.40234375,33.69140625,-309.08203125,0.0
1734413617.8163836,-77.1484375,-41.9921875,55.17578125,-385.25390625,0.0
1734413617.8202882,-38.0859375,2.9296875,153.80859375,-220.21484375,0.0
1734413617.824193,-0.48828125,-11.23046875,221.19140625,-52.24609375,0.0
1734413617.8280976,-9.765625,-90.8203125,2.9296875,-97.65625,0.0
1734413617.8320024,-49.31640625,-46.38671875,-77.1484375,-291.50390625,0.0
1734413617.835907,-68.359375,68.359375,247.55859375,-410.15625,0.0
1734413617.8398116,-33.69140625,-12.20703125,218.75,-260.7421875,0.0
1734413617.8437164,-2.44140625,-32.2265625,204.58984375,-75.68359375,0.0
1734413617.847621,-7.32421875,3.90625,250.9765625,-85.9375,0.0
1734413617.8514771,-41.015625,-20.01953125,225.5859375,-269.04296875,0.0
1734413617.8553817,-60.546875,-70.3125,146.484375,-397.94921875,0.0
1734413617.8592863,-30.76171875,-44.921875,142.578125,-271.484375,0.0
1734413617.8631911,-13.18359375,-10.7421875,199.21875,-89.35546875,0.0
1734413617.8670957,-21.97265625,-29.296875,187.98828125,-72.75390625,0.0
1734413617.8710003,-45.8984375,-82.03125,66.40625,-242.1875,0.0
1734413617.874905,-76.171875,-83.0078125,-117.67578125,-380.859375,0.0
1734413617.8788097,-63.96484375,50.29296875,105.46875,-289.0625,0.0
1734413617.8827145,-17.08984375,41.50390625,268.5546875,-97.65625,0.0
1734413617.886619,-8.7890625,-41.50390625,124.51171875,-39.55078125,0.0
1734413617.8905237,-35.15625,-40.0390625,86.42578125,-192.3828125,0.0
1734413617.8944285,-58.10546875,-1.46484375,190.91796875,-343.75,0.0
1734413617.8982608,-51.26953125,-16.11328125,206.0546875,-280.76171875,0.0
1734413617.9021657,-26.3671875,-42.96875,121.09375,-91.796875,0.0
1734413617.9060702,-15.625,-20.5078125,151.3671875,-20.5078125,0.0
1734413617.909975,-40.0390625,-35.15625,152.83203125,-161.62109375,0.0
1734413617.9138796,-70.3125,-49.31640625,112.3046875,-324.70703125,0.0
1734413617.9177842,-64.453125,-72.75390625,3.90625,-285.64453125,0.0
1734413617.921689,-30.76171875,-32.71484375,22.4609375,-82.51953125,0.0
1734413617.9255936,-6.8359375,28.3203125,233.3984375,25.87890625,0.0
1734413617.9294982,-34.1796875,-31.25,186.03515625,-93.26171875,0.0
1734413617.933403,-63.96484375,-59.5703125,105.46875,-271.484375,0.0
1734413617.9373076,-54.6875,-20.01953125,162.59765625,-274.4140625,0.0
1734413617.9412124,-20.5078125,-8.7890625,233.88671875,-77.1484375,0.0
1734413617.9451513,-3.90625,-38.57421875,0.0,56.15234375,0.0
1734413617.9490561,-32.2265625,-77.1484375,0.0,-42.96875,0.0
1734413617.9529607,-69.82421875,-34.1796875,0.0,-223.14453125,0.0
1734413617.9568655,-70.3125,-38.57421875,0.0,-264.6484375,0.0
1734413617.9607701,-34.1796875,-82.03125,0.0,-77.1484375,0.0
1734413617.9646747,-8.7890625,-102.5390625,0.0,89.84375,0.0
1734413617.9685795,-26.3671875,-36.1328125,0.0,8.30078125,0.0
1734413617.972484,-53.22265625,-8.7890625,0.0,-187.01171875,0.0
1734413617.976389,-58.59375,-119.62890625,0.0,-246.09375,0.0
1734413617.9802935,-37.109375,-110.83984375,0.0,-77.63671875,0.0
1734413617.984198,-10.7421875,34.66796875,0.0,83.0078125,0.0
1734413617.988103,-9.765625,-6.34765625,0.0,52.24609375,0.0
1734413617.9920287,-43.9453125,-88.8671875,118.65234375,-119.140625,0.0
1734413617.9959335,-67.87109375,-53.22265625,134.27734375,-213.8671875,0.0
1734413617.999838,-32.71484375,-0.48828125,269.53125,-70.3125,0.0
1734413618.0037427,0.48828125,-56.15234375,207.03125,104.00390625,0.0
1734413618.0076475,-9.27734375,-57.6171875,197.75390625,91.30859375,0.0
1734413618.011552,-50.29296875,-62.5,157.71484375,-92.7734375,0.0
1734413618.015457,-75.1953125,-53.7109375,155.76171875,-221.19140625,0.0
1734413618.0193615,-49.31640625,-12.6953125,273.4375,-102.05078125,0.0
1734413618.023266,-9.27734375,-126.953125,21.97265625,92.7734375,0.0
1734413618.027171,-16.11328125,-69.3359375,2.44140625,112.3046875,0.0
1734413618.0310755,-55.17578125,28.80859375,281.25,-74.21875,0.0
1734413618.0349803,-72.75390625,-79.58984375,152.34375,-214.84375,0.0
1734413618.038885,-56.15234375,-64.94140625,121.09375,-122.0703125,0.0
1734413618.04279,-8.30078125,-0.48828125,245.60546875,62.01171875,0.0
1734413618.0466945,1.953125,-22.4609375,282.71484375,127.9296875,0.0
1734413618.0505993,-37.59765625,-101.07421875,122.55859375,-27.83203125,0.0
1734413618.054504,-61.03515625,-129.8828125,27.34375,-188.4765625,0.0
1734413618.0584085,-49.8046875,-64.94140625,102.5390625,-123.53515625,0.0
1734413618.0623133,-26.3671875,-11.71875,198.73046875,61.5234375,0.0
1734413618.066218,-13.671875,-79.58984375,160.64453125,134.765625,0.0
1734413618.0701227,-38.57421875,-144.53125,-78.125,-5.859375,0.0
1734413618.0740273,-72.265625,0.9765625,104.00390625,-186.03515625,0.0
1734413618.077932,-62.5,8.7890625,242.1875,-170.41015625,0.0
1734413618.0818367,-24.90234375,-63.4765625,116.2109375,22.4609375,0.0
1734413618.0857224,-1.953125,-41.015625,158.203125,130.859375,0.0
1734413618.089627,-26.3671875,-24.4140625,242.1875,-18.06640625,0.0
1734413618.0935318,-61.03515625,-95.703125,127.9296875,-205.078125,0.0
1734413618.0974364,-65.4296875,-91.30859375,71.2890625,-214.35546875,0.0
1734413618.101341,-36.62109375,-31.25,149.90234375,-50.29296875,0.0
1734413618.1052458,-15.625,-54.19921875,161.62109375,79.1015625,0.0
1734413618.1091504,-39.55078125,-65.4296875,170.41015625,-21.484375,0.0
1734413618.1130552,-66.89453125,-136.23046875,-74.70703125,-204.1015625,0.0
1734413618.1169598,-75.1953125,-69.82421875,-128.90625,-266.6015625,0.0
1734413618.1208644,-37.59765625,54.19921875,261.71875,-96.6796875,0.0
1734413618.1247692,0.9765625,-29.296875,243.1640625,60.546875,0.0
1734413618.1286738,-34.66796875,-65.4296875,150.87890625,-37.109375,0.0
1734413618.1326714,-83.49609375,-37.109375,182.12890625,-236.328125,0.0
1734413618.136576,-79.58984375,-41.50390625,195.80078125,-310.05859375,0.0
1734413618.1404808,-58.10546875,-79.58984375,151.85546875,-156.73828125,0.0
1734413618.1443853,-38.57421875,-66.40625,174.8046875,1.46484375,0.0
1734413618.1482902,-33.69140625,-43.45703125,215.8203125,-30.2734375,0.0
1734413618.1521947,-53.7109375,-83.49609375,157.71484375,-206.0546875,0.0
1734413618.1560993,-65.4296875,-121.58203125,48.828125,-304.6875,0.0
1734413618.1600041,-48.828125,-85.44921875,-30.2734375,-167.96875,0.0
1734413618.1639087,-26.85546875,23.92578125,175.78125,4.8828125,0.0
1734413618.1678135,-26.85546875,1.46484375,312.98828125,-0.9765625,0.0
1734413618.1717181,-47.8515625,-108.3984375,36.1328125,-182.6171875,0.0
1734413618.1756227,-68.84765625,-92.7734375,-41.015625,-301.7578125,0.0
1734413618.1794906,-44.43359375,9.27734375,0.0,-164.0625,0.0
1734413618.1833951,0.48828125,-8.30078125,0.0,39.55078125,0.0
1734413618.1873,0.0,-115.72265625,0.0,71.77734375,0.0
1734413618.1912045,-41.9921875,-102.05078125,0.0,-102.05078125,0.0
1734413618.1951091,-48.828125,-2.9296875,0.0,-247.0703125,0.0
1734413618.199014,-15.625,-53.22265625,0.0,-131.8359375,0.0
1734413618.2029185,2.44140625,-50.29296875,0.0,55.6640625,0.0
1734413618.2068233,-5.37109375,-18.06640625,0.0,95.703125,0.0
1734413618.210728,-36.62109375,-33.69140625,0.0,-45.41015625,0.0
1734413618.2146325,-58.10546875,-35.15625,0.0,-188.4765625,0.0
1734413618.2185373,-47.8515625,-126.46484375,0.0,-115.72265625,0.0
1734413618.222442,-25.87890625,-53.22265625,0.0,68.359375,0.0
1734413618.2264159,-7.32421875,30.2734375,275.390625,148.92578125,0.0
1734413618.2303205,-27.34375,-59.08203125,125.0,18.5546875,0.0
1734413618.2342253,-60.546875,-59.08203125,101.5625,-143.5546875,0.0
1734413618.2381299,-57.6171875,6.8359375,180.17578125,-123.046875,0.0
1734413618.2420347,-17.08984375,-5.859375,189.453125,70.3125,0.0
1734413618.2459393,12.6953125,-78.61328125,117.67578125,187.98828125,0.0
1734413618.2498438,-30.2734375,-69.82421875,-41.015625,51.26953125,0.0
1734413618.2537487,-68.359375,44.43359375,94.7265625,-125.9765625,0.0
1734413618.2576532,-53.7109375,20.99609375,242.67578125,-127.44140625,0.0
1734413618.261558,-28.3203125,-60.546875,120.1171875,53.22265625,0.0
1734413618.2654626,-9.27734375,-69.3359375,102.05078125,185.05859375,0.0
1734413618.2693672,-29.78515625,-25.390625,197.75390625,71.77734375,0.0
1734413618.2731981,-54.6875,-17.08984375,235.3515625,-116.69921875,0.0
1734413618.277103,-57.12890625,-86.42578125,36.62109375,-147.4609375,0.0
1734413618.2810075,-44.921875,-60.546875,40.0390625,28.3203125,0.0
1734413618.284912,-14.16015625,-22.94921875,194.82421875,165.52734375,0.0
1734413618.288817,-16.6015625,-53.22265625,145.99609375,81.54296875,0.0
1734413618.2927215,-44.921875,-83.984375,31.73828125,-95.703125,0.0
1734413618.2966263,-58.59375,-28.80859375,72.265625,-174.8046875,0.0
1734413618.300531,-35.15625,18.06640625,222.65625,-18.06640625,0.0
1734413618.3044355,-2.44140625,-15.13671875,251.46484375,144.53125,0.0
1734413618.3083403,-20.01953125,-117.1875,-53.22265625,97.65625,0.0
1734413618.312245,-66.40625,-56.15234375,-93.75,-90.33203125,0.0
1734413618.3161497,-75.68359375,40.52734375,234.375,-197.265625,0.0
1734413618.320339,-44.43359375,-48.828125,0.0,-45.8984375,0.0
1734413618.3242435,-21.484375,-57.6171875,0.0,132.8125,0.0
1734413618.3281481,-30.76171875,0.9765625,0.0,120.1171875,0.0
1734413618.332053,-53.7109375,-4.8828125,0.0,-54.6875,0.0
1734413618.3359575,-54.6875,-73.73046875,0.0,-161.1328125,0.0
1734413618.3398623,-14.16015625,-91.30859375,0.0,-22.94921875,0.0
1734413618.343767,5.37109375,6.34765625,0.0,147.4609375,0.0
1734413618.3476715,-11.23046875,27.83203125,0.0,148.4375,0.0
1734413618.3515763,-23.92578125,-97.16796875,0.0,-8.30078125,0.0
1734413618.355481,-30.76171875,-102.05078125,0.0,-136.23046875,0.0
1734413618.3593857,-16.11328125,23.92578125,0.0,-46.875,0.0
1734413618.3632903,7.8125,-7.32421875,0.0,134.27734375,0.0
1734413618.36721,9.27734375,-48.828125,147.4609375,177.24609375,0.0
1734413618.3711147,-24.90234375,-26.3671875,148.92578125,23.92578125,0.0
1734413618.3750193,-54.19921875,-7.32421875,237.3046875,-139.6484375,0.0
1734413618.378924,-37.59765625,-53.7109375,147.4609375,-89.84375,0.0
1734413618.3828287,-8.30078125,-37.59765625,157.2265625,105.95703125,0.0
1734413618.3867333,-11.71875,-16.11328125,193.84765625,187.98828125,0.0
1734413618.390638,-46.38671875,-10.25390625,205.078125,43.45703125,0.0
1734413618.3945427,-81.0546875,-26.85546875,194.82421875,-116.69921875,0.0
1734413618.3984475,-75.68359375,-47.36328125,101.07421875,-83.0078125,0.0
1734413618.402352,-32.71484375,26.3671875,198.2421875,122.55859375,0.0
1734413618.4062567,-5.37109375,24.90234375,292.96875,247.0703125,0.0
1734413618.4101615,-29.78515625,-53.22265625,168.45703125,118.65234375,0.0
1734413618.414061,-61.03515625,-62.98828125,127.44140625,-49.8046875,0.0
1734413618.4179657,-52.734375,-4.8828125,212.890625,-34.66796875,0.0
1734413618.4218702,-9.27734375,14.16015625,263.671875,150.87890625,0.0
1734413618.425775,9.765625,-39.0625,259.765625,276.85546875,0.0
1734413618.4296796,-14.6484375,-105.95703125,9.27734375,174.31640625,0.0
1734413618.4335845,-39.55078125,-26.85546875,28.3203125,4.39453125,0.0
1734413618.437489,-34.1796875,12.6953125,169.921875,-17.578125,0.0
1734413618.4413936,8.30078125,-52.24609375,83.984375,167.48046875,0.0
1734413618.4452984,25.87890625,-48.828125,130.859375,316.89453125,0.0
1734413618.449203,-9.765625,58.59375,291.9921875,221.19140625,0.0
1734413618.4531078,-39.0625,7.32421875,291.9921875,52.24609375,0.0
1734413618.4570124,-44.43359375,-74.21875,133.7890625,-8.30078125,0.0
1734413618.4610338,-19.04296875,-29.296875,172.36328125,125.9765625,0.0
1734413618.4649384,1.953125,12.6953125,336.9140625,278.80859375,0.0
1734413618.4688432,-8.30078125,-33.69140625,321.2890625,237.3046875,0.0
1734413618.4727478,-36.1328125,-96.6796875,195.3125,46.38671875,0.0
1734413618.4766524,-53.7109375,-71.77734375,170.8984375,-63.4765625,0.0
1734413618.4805572,-34.66796875,-41.50390625,214.35546875,50.78125,0.0
1734413618.4844618,-0.48828125,-25.390625,266.6015625,211.9140625,0.0
1734413618.4883666,1.46484375,-94.23828125,94.23828125,212.40234375,0.0
1734413618.4922712,-32.2265625,-65.4296875,74.21875,29.78515625,0.0
1734413618.496176,-47.36328125,25.390625,270.5078125,-100.5859375,0.0
1734413618.5000806,-24.90234375,-24.90234375,205.56640625,20.01953125,0.0
1734413618.5039852,5.859375,-13.18359375,275.87890625,191.89453125,0.0
1734413618.5078678,1.46484375,3.41796875,319.82421875,191.40625,0.0
1734413618.5117726,-32.2265625,-16.6015625,290.0390625,19.53125,0.0
1734413618.5156772,-55.6640625,-71.2890625,202.1484375,-116.69921875,0.0
1734413618.519582,-41.50390625,-55.17578125,189.94140625,-33.69140625,0.0
1734413618.5234866,-11.71875,10.25390625,288.0859375,144.53125,0.0
1734413618.5273912,14.16015625,-39.55078125,237.79296875,198.2421875,0.0
1734413618.531296,3.90625,-79.58984375,110.3515625,43.45703125,0.0
1734413618.5352006,-40.52734375,-49.8046875,125.9765625,-137.20703125,0.0
1734413618.5391054,-51.7578125,16.6015625,267.578125,-107.91015625,0.0
1734413618.54301,-13.671875,21.97265625,342.28515625,84.9609375,0.0
1734413618.5469146,9.27734375,-76.171875,152.34375,161.1328125,0.0
1734413618.5508194,-32.71484375,-113.28125,21.97265625,-14.16015625,0.0
1734413618.554682,-75.68359375,31.25,235.83984375,-198.73046875,0.0
1734413618.5585868,-73.73046875,43.45703125,250.9765625,-174.8046875,0.0
1734413618.5624914,-33.203125,-18.5546875,184.5703125,19.53125,0.0
1734413618.566396,-4.8828125,-35.64453125,192.3828125,134.765625,0.0
1734413618.5703008,-23.92578125,-23.92578125,202.63671875,-7.32421875,0.0
1734413618.5742054,-55.6640625,-31.73828125,199.70703125,-197.265625,0.0
1734413618.5781102,-65.91796875,-118.1640625,-46.875,-211.9140625,0.0
1734413618.5820148,-28.80859375,-41.9921875,-31.73828125,-41.015625,0.0
1734413618.5859196,-9.27734375,82.03125,327.1484375,86.42578125,0.0
1734413618.5898242,-40.0390625,-20.99609375,215.8203125,-33.69140625,0.0
1734413618.5937288,-69.82421875,-48.33984375,171.875,-227.05078125,0.0
1734413618.5976336,-68.84765625,-17.578125,231.93359375,-257.8125,0.0
1734413618.6014767,-37.59765625,-12.20703125,254.8828125,-89.35546875,0.0
1734413618.6053813,-7.32421875,-41.50390625,234.375,65.91796875,0.0
1734413618.609286,-14.16015625,-82.51953125,114.2578125,-23.92578125,0.0
1734413618.6131907,-60.05859375,-28.80859375,144.53125,-235.3515625,0.0
1734413618.6170955,-72.75390625,0.9765625,227.5390625,-324.70703125,0.0
1734413618.621,-20.01953125,-73.73046875,157.71484375,-166.9921875,0.0
1734413618.6249049,2.9296875,-77.1484375,24.4140625,-14.16015625,0.0
1734413618.6288095,-33.69140625,24.90234375,130.37109375,-110.3515625,0.0
1734413618.632714,-63.4765625,17.08984375,276.85546875,-319.82421875,0.0
1734413618.6366189,-62.01171875,-91.796875,25.390625,-428.7109375,0.0
1734413618.6405234,-40.0390625,-66.89453125,-7.32421875,-296.38671875,0.0
1734413618.6444283,-24.4140625,19.53125,258.7890625,-119.62890625,0.0
1734413618.6482742,-41.50390625,-10.7421875,284.1796875,-123.53515625,0.0
1734413618.6521788,-81.0546875,-88.37890625,34.66796875,-297.8515625,0.0
1734413618.6560836,-83.49609375,-67.87109375,8.30078125,-411.62109375,0.0
1734413618.6599882,-46.875,-9.27734375,193.359375,-270.5078125,0.0
1734413618.663893,-11.71875,-35.15625,125.48828125,-80.078125,0.0
1734413618.6677976,-13.18359375,-42.96875,150.87890625,-66.40625,0.0
1734413618.6717021,-50.78125,-21.97265625,127.9296875,-229.00390625,0.0
1734413618.675607,-61.5234375,16.11328125,159.1796875,-347.16796875,0.0
1734413618.6795115,-38.0859375,-0.9765625,248.53515625,-240.72265625,0.0
1734413618.6834164,-18.5546875,-84.9609375,62.5,-41.015625,0.0
1734413618.687321,-14.16015625,-9.765625,107.421875,10.25390625,0.0
1734413618.6912255,-30.2734375,35.15625,280.2734375,-135.7421875,0.0
1734413618.695168,-50.29296875,-55.17578125,142.08984375,-268.06640625,0.0
1734413618.6990726,-41.9921875,-36.62109375,136.23046875,-197.265625,0.0
1734413618.7029774,-15.625,8.7890625,239.2578125,-0.48828125,0.0
1734413618.706882,-10.25390625,0.48828125,265.625,62.5,0.0
1734413618.7107868,-31.25,-67.3828125,159.66796875,-84.47265625,0.0
1734413618.7146914,-47.8515625,-98.6328125,59.5703125,-205.078125,0.0
1734413618.718596,-38.0859375,3.90625,152.83203125,-154.78515625,0.0
1734413618.7225008,-15.13671875,38.0859375,263.671875,18.06640625,0.0
1734413618.7264054,-8.30078125,-73.2421875,116.69921875,124.51171875,0.0
1734413618.7303102,-30.76171875,-71.77734375,15.625,12.6953125,0.0
1734413618.7342148,-63.4765625,43.45703125,199.70703125,-166.015625,0.0
1734413618.7381194,-61.5234375,14.6484375,254.39453125,-184.5703125,0.0
1734413618.7420335,-30.2734375,-77.1484375,31.25,12.6953125,0.0
1734413618.745938,-20.5078125,-31.73828125,72.265625,145.01953125,0.0
1734413618.749843,-46.38671875,14.16015625,249.51171875,24.90234375,0.0
1734413618.7537475,-70.80078125,-71.2890625,126.46484375,-135.25390625,0.0
1734413618.7576523,-65.4296875,-97.16796875,18.5546875,-148.92578125,0.0
1734413618.7615569,-41.50390625,-40.52734375,56.15234375,38.57421875,0.0
1734413618.7654614,-17.578125,23.92578125,229.00390625,194.3359375,0.0
1734413618.7693663,-20.99609375,3.41796875,276.3671875,119.140625,0.0
1734413618.7732708,-44.921875,-127.44140625,-52.24609375,-42.96875,0.0
1734413618.7771757,-60.546875,-50.29296875,-71.77734375,-97.16796875,0.0
1734413618.7810802,-29.296875,49.31640625,260.25390625,72.265625,0.0
1734413618.7849848,24.90234375,-41.50390625,192.3828125,257.8125,0.0
1734413618.7888923,25.390625,-15.13671875,183.59375,230.95703125,0.0
1734413618.792797,-31.73828125,4.8828125,221.6796875,34.66796875,0.0
1734413618.7967017,-62.01171875,-18.06640625,210.9375,-92.7734375,0.0
1734413618.8006065,-24.4140625,-43.9453125,190.4296875,65.4296875,0.0
1734413618.804511,6.8359375,-49.8046875,209.47265625,256.8359375,0.0
1734413618.808416,-6.8359375,-52.734375,186.5234375,238.76953125,0.0
1734413618.8123205,-40.0390625,-23.4375,207.03125,62.98828125,0.0
1734413618.816225,-60.05859375,-80.078125,132.32421875,-42.48046875,0.0
1734413618.8201299,-38.0859375,-102.5390625,-15.625,98.14453125,0.0
1734413618.8240345,-2.44140625,56.640625,228.515625,277.34375,0.0
1734413618.8279393,5.37109375,14.6484375,338.8671875,289.55078125,0.0
1734413618.8318439,-14.6484375,-89.84375,140.625,119.140625,0.0
1734413618.8357337,-54.19921875,-69.3359375,128.41796875,-17.578125,0.0
1734413618.8396385,-59.08203125,-41.50390625,199.70703125,80.078125,0.0
1734413618.843543,-14.6484375,-42.48046875,209.47265625,259.765625,0.0
1734413618.8474476,7.32421875,-58.59375,200.68359375,291.015625,0.0
1734413618.8513525,-17.578125,-65.91796875,160.15625,120.60546875,0.0
1734413618.855257,-43.45703125,-68.84765625,155.76171875,-38.57421875,0.0
1734413618.8591619,-28.3203125,-52.24609375,176.26953125,15.13671875,0.0
1734413618.8630664,5.859375,-102.05078125,17.578125,203.125,0.0
1734413618.866971,1.953125,-58.10546875,50.29296875,258.30078125,0.0
1734413618.8708758,-31.25,52.24609375,316.40625,83.0078125,0.0
1734413618.8747804,-40.52734375,-53.22265625,173.828125,-62.98828125,0.0
1734413618.8786852,-35.15625,-61.03515625,151.85546875,-33.203125,0.0
1734413618.8825705,0.0,19.53125,0.0,123.53515625,0.0
1734413618.886475,0.0,2.9296875,0.0,221.19140625,0.0
1734413618.89038,0.0,-69.82421875,0.0,86.42578125,0.0
1734413618.8942845,0.0,-75.1953125,0.0,-89.84375,0.0
1734413618.8981893,0.0,-37.109375,0.0,-82.51953125,0.0
1734413618.902094,0.0,-24.4140625,0.0,92.28515625,0.0
1734413618.9059985,0.0,-40.0390625,0.0,205.56640625,0.0
1734413618.9099033,0.0,-71.77734375,0.0,94.7265625,0.0
1734413618.9138079,0.0,25.87890625,0.0,-94.7265625,0.0
1734413618.9177127,0.0,21.484375,0.0,-130.859375,0.0
1734413618.9216173,0.0,-60.05859375,0.0,44.921875,0.0
1734413618.9255219,0.0,-28.80859375,0.0,189.453125,0.0
1734413618.929509,-6.8359375,3.41796875,277.34375,80.56640625,0.0
1734413618.9334135,-51.7578125,-51.7578125,229.98046875,-106.93359375,0.0
1734413618.937318,-55.6640625,-90.33203125,122.55859375,-155.2734375,0.0
1734413618.941223,-29.296875,-64.94140625,137.20703125,1.46484375,0.0
1734413618.9451275,-4.39453125,-27.34375,199.21875,151.85546875,0.0
1734413618.9490323,-14.16015625,-36.62109375,200.1953125,82.03125,0.0
1734413618.952937,-39.55078125,-134.765625,-92.7734375,-96.19140625,0.0
1734413618.9568415,-44.921875,-77.1484375,-132.32421875,-183.10546875,0.0
1734413618.9607463,-19.04296875,74.21875,291.9921875,-56.640625,0.0
1734413618.9646509,1.953125,-12.20703125,238.28125,119.140625,0.0
1734413618.9685557,-13.671875,-49.31640625,198.2421875,105.46875,0.0
1734413618.9724603,-54.6875,-18.06640625,245.60546875,-88.37890625,0.0
1734413618.9763093,-66.89453125,-28.80859375,254.39453125,-209.9609375,0.0
1734413618.9802139,-39.0625,-63.96484375,190.91796875,-90.8203125,0.0
1734413618.9841187,-17.08984375,-62.01171875,194.3359375,80.56640625,0.0
1734413618.9880233,-12.6953125,-26.85546875,270.5078125,90.8203125,0.0
1734413618.991928,-25.87890625,-47.8515625,215.8203125,-73.2421875,0.0
1734413618.9958327,-50.29296875,-104.4921875,74.70703125,-200.1953125,0.0
1734413618.9997373,-38.0859375,-66.89453125,45.8984375,-104.98046875,0.0
1734413619.003642,-9.765625,34.66796875,234.375,62.01171875,0.0
1734413619.0075467,-10.7421875,18.06640625,309.08203125,89.35546875,0.0
1734413619.0114515,-38.57421875,-105.46875,72.75390625,-71.77734375,0.0
1734413619.015356,-64.453125,-105.46875,-23.92578125,-210.9375,0.0
1734413619.0192606,-59.5703125,49.8046875,243.1640625,-145.01953125,0.0
1734413619.0232184,-25.390625,12.20703125,288.0859375,28.80859375,0.0
1734413619.027123,-15.625,-66.40625,154.78515625,84.47265625,0.0
1734413619.0310276,-42.96875,-58.59375,144.53125,-61.5234375,0.0
1734413619.0349324,-62.98828125,-54.19921875,173.828125,-203.61328125,0.0
1734413619.038837,-53.7109375,-43.9453125,157.71484375,-176.26953125,0.0
1734413619.0427418,-21.484375,-64.94140625,65.4296875,6.8359375,0.0
1734413619.0466464,-7.8125,-18.5546875,89.35546875,113.28125,0.0
1734413619.050551,-28.80859375,37.59765625,236.328125,-30.2734375,0.0
1734413619.0544558,-46.38671875,-30.76171875,180.17578125,-207.03125,0.0
1734413619.0583603,-40.0390625,-59.5703125,68.84765625,-200.68359375,0.0
1734413619.0622652,-13.18359375,26.85546875,161.1328125,-21.97265625,0.0
1734413619.0661697,-12.20703125,36.62109375,303.22265625,87.890625,0.0
1734413619.0701036,-35.15625,-60.546875,168.9453125,-21.97265625,0.0
1734413619.0740082,-54.19921875,-54.6875,119.140625,-203.125,0.0
1734413619.077913,-66.40625,6.8359375,208.0078125,-245.60546875,0.0
1734413619.0818176,-35.64453125,3.90625,254.8828125,-74.70703125,0.0
1734413619.0857224,-1.46484375,-49.8046875,208.0078125,70.3125,0.0
1734413619.089627,-17.08984375,-83.0078125,119.140625,-12.6953125,0.0
1734413619.0935316,-54.6875,-40.0390625,129.39453125,-200.68359375,0.0
1734413619.0974364,-62.5,11.23046875,227.5390625,-280.2734375,0.0
1734413619.101341,-23.92578125,-77.63671875,115.72265625,-126.46484375,0.0
1734413619.1052458,0.9765625,-107.91015625,52.734375,39.55078125,0.0
1734413619.1091504,-25.390625,25.87890625,242.67578125,-27.34375,0.0
1734413619.113055,-61.5234375,-7.8125,266.6015625,-203.125,0.0
1734413619.1169806,-62.98828125,-117.1875,-6.34765625,-281.25,0.0
1734413619.1208854,-30.2734375,-68.84765625,7.8125,-160.64453125,0.0
1734413619.12479,-4.39453125,6.8359375,259.765625,-24.90234375,0.0
1734413619.1286948,-2.9296875,-63.96484375,165.52734375,-65.4296875,0.0
1734413619.1325994,-32.2265625,-126.953125,-87.890625,-243.1640625,0.0
1734413619.136504,-59.5703125,-80.078125,-137.6953125,-359.375,0.0
1734413619.1404088,-38.0859375,14.6484375,102.5390625,-251.953125,0.0
1734413619.1443133,-4.8828125,12.20703125,220.21484375,-84.9609375,0.0
1734413619.1482182,-7.8125,-133.30078125,-95.703125,-63.4765625,0.0
1734413619.1521227,-47.8515625,-82.51953125,-173.828125,-227.05078125,0.0
1734413619.1560273,-73.73046875,39.55078125,191.89453125,-376.953125,0.0
1734413619.1599321,-41.50390625,-48.828125,123.046875,-287.109375,0.0
1734413619.1639745,-12.6953125,-56.640625,120.60546875,-118.1640625,0.0
1734413619.167879,-22.4609375,-4.39453125,227.05078125,-92.28515625,0.0
1734413619.171784,-49.8046875,-14.16015625,215.8203125,-243.1640625,0.0
1734413619.1756885,-63.96484375,-59.5703125,152.83203125,-389.6484375,0.0
1734413619.1795933,-53.7109375,-81.54296875,107.91015625,-311.03515625,0.0
1734413619.183498,-25.390625,-56.15234375,140.625,-101.5625,0.0
1734413619.1874027,-24.4140625,-33.203125,195.3125,-22.94921875,0.0
1734413619.1913073,-61.03515625,-96.19140625,107.91015625,-152.34375,0.0
1734413619.195212,-83.0078125,-97.65625,-17.08984375,-293.9453125,0.0
1734413619.1991167,-68.359375,21.484375,164.0625,-242.1875,0.0
1734413619.2030213,-22.94921875,-14.16015625,281.25,-19.04296875,0.0
1734413619.206926,-7.8125,-89.84375,143.06640625,127.9296875,0.0
1734413619.210818,0.0,-61.03515625,122.55859375,35.64453125,0.0
1734413619.2147226,0.0,-23.4375,229.98046875,-100.5859375,0.0
1734413619.2186275,0.0,-58.10546875,223.6328125,-77.1484375,0.0
1734413619.222532,0.0,-112.3046875,50.29296875,99.12109375,0.0
1734413619.2264366,0.0,-52.24609375,95.21484375,211.42578125,0.0
1734413619.2303414,0.0,-36.1328125,189.94140625,107.91015625,0.0
1734413619.234246,0.0,-80.078125,116.69921875,-56.15234375,0.0
1734413619.2381508,0.0,-54.19921875,109.86328125,-86.42578125,0.0
1734413619.2420554,0.0,-18.5546875,152.34375,83.984375,0.0
1734413619.24596,0.0,3.90625,273.4375,229.98046875,0.0
1734413619.2498648,0.0,-27.83203125,285.15625,150.87890625,0.0
1734413619.2537694,0.0,-144.04296875,-31.25,-13.18359375,0.0
1734413619.2572966,-38.0859375,-61.03515625,9.765625,-67.3828125,0.0
1734413619.2612011,-55.6640625,36.62109375,290.52734375,93.75,0.0
1734413619.2651057,-51.7578125,-59.5703125,205.078125,254.39453125,0.0
1734413619.2690105,-26.85546875,-85.44921875,176.7578125,197.265625,0.0
1734413619.2729151,-1.953125,-55.6640625,218.26171875,11.23046875,0.0
1734413619.27682,-24.90234375,-88.37890625,180.17578125,-77.1484375,0.0
1734413619.2807245,-60.546875,-108.3984375,137.6953125,72.75390625,0.0
1734413619.284629,-70.80078125,-84.47265625,76.171875,227.05078125,0.0
1734413619.288534,-29.296875,12.6953125,174.31640625,182.6171875,0.0
1734413619.2924385,-2.44140625,-6.8359375,250.48828125,-8.30078125,0.0
1734413619.2963433,-34.1796875,-92.7734375,101.5625,-143.5546875,0.0
1734413619.300248,-56.640625,-91.796875,69.3359375,-35.15625,0.0
1734413619.3041155,-33.203125,-10.25390625,0.0,125.48828125,0.0
1734413619.30802,-26.3671875,-17.08984375,0.0,128.90625,0.0
1734413619.3119247,-38.0859375,-84.9609375,0.0,-37.109375,0.0
1734413619.3158295,-67.87109375,-81.0546875,0.0,-179.6875,0.0
1734413619.319734,-59.5703125,-37.109375,0.0,-99.609375,0.0
1734413619.323639,-36.62109375,-26.85546875,0.0,58.10546875,0.0
1734413619.3275435,-40.0390625,-120.60546875,0.0,89.35546875,0.0
1734413619.331448,-62.5,-79.58984375,0.0,-90.8203125,0.0
1734413619.335353,-83.0078125,33.203125,0.0,-280.76171875,0.0
1734413619.3392575,-74.70703125,-46.38671875,0.0,-241.69921875,0.0
1734413619.3431623,-34.1796875,-64.94140625,0.0,-60.546875,0.0
1734413619.3470669,-4.39453125,-6.34765625,0.0,22.4609375,0.0
1734413619.3509262,-20.5078125,-6.34765625,281.25,-110.83984375,0.0
1734413619.3548307,-47.36328125,-81.54296875,165.0390625,-256.8359375,0.0
1734413619.3587356,-48.828125,-64.453125,127.44140625,-219.7265625,0.0
1734413619.3626401,-19.04296875,38.57421875,248.53515625,-34.1796875,0.0
1734413619.3665447,6.8359375,15.625,276.3671875,68.359375,0.0
1734413619.3704495,-16.11328125,-90.8203125,128.90625,-63.96484375,0.0
1734413619.3743541,-60.05859375,-100.09765625,-45.8984375,-223.14453125,0.0
1734413619.378259,-64.453125,43.45703125,141.6015625,-216.796875,0.0
1734413619.3821635,-22.4609375,47.8515625,308.10546875,-28.80859375,0.0
1734413619.386068,-2.9296875,-38.57421875,190.4296875,113.28125,0.0
1734413619.389973,-29.296875,-42.48046875,164.55078125,-0.48828125,0.0
1734413619.3938775,-51.26953125,2.44140625,247.55859375,-168.45703125,0.0
1734413619.3977096,-45.8984375,-11.23046875,235.3515625,-172.8515625,0.0
1734413619.4016144,-23.92578125,-41.50390625,147.94921875,-1.953125,0.0
1734413619.405519,-13.18359375,-14.6484375,166.9921875,129.39453125,0.0
1734413619.4094236,-18.5546875,-44.43359375,185.546875,48.828125,0.0
1734413619.4133284,-44.921875,-75.1953125,122.55859375,-123.53515625,0.0
1734413619.417233,-61.03515625,-63.96484375,97.65625,-177.734375,0.0
1734413619.4211378,-24.4140625,-36.1328125,106.4453125,-24.4140625,0.0
1734413619.4250424,-3.90625,22.4609375,229.00390625,122.0703125,0.0
1734413619.428947,-26.3671875,-15.13671875,248.53515625,61.03515625,0.0
1734413619.4328518,-52.734375,-122.55859375,-16.11328125,-96.19140625,0.0
1734413619.4367564,-68.359375,-29.296875,35.15625,-174.31640625,0.0
1734413619.4406612,-50.29296875,43.45703125,281.73828125,-43.9453125,0.0
1734413619.4446,-22.4609375,-37.59765625,207.51953125,124.51171875,0.0
1734413619.4485047,-23.4375,-62.5,174.8046875,95.21484375,0.0
1734413619.4524095,-43.9453125,-23.92578125,221.6796875,-70.3125,0.0
1734413619.456314,-64.94140625,-22.94921875,217.7734375,-182.12890625,0.0
1734413619.460219,-37.59765625,-56.15234375,192.87109375,-67.3828125,0.0
1734413619.4641235,0.9765625,-82.51953125,145.01953125,120.60546875,0.0
1734413619.468028,-1.953125,-26.3671875,211.42578125,138.671875,0.0
1734413619.471933,-25.87890625,-32.2265625,209.47265625,-28.80859375,0.0
1734413619.4758375,-52.734375,-108.3984375,27.83203125,-153.80859375,0.0
1734413619.479742,-45.41015625,-54.6875,67.87109375,-59.5703125,0.0
1734413619.4836469,-16.11328125,18.06640625,256.34765625,110.3515625,0.0
1734413619.4875515,-1.953125,-19.53125,309.08203125,143.06640625,0.0
1734413619.4914746,-25.390625,-133.7890625,6.8359375,-17.578125,0.0
1734413619.4953792,-57.12890625,-114.2578125,-95.21484375,-165.52734375,0.0
1734413619.499284,-51.7578125,20.5078125,270.01953125,-111.328125,0.0
1734413619.5031886,-13.671875,-57.6171875,203.125,75.1953125,0.0
1734413619.5070932,-2.44140625,-78.61328125,155.76171875,140.625,0.0
1734413619.510998,-45.8984375,-62.01171875,149.90234375,-20.5078125,0.0
1734413619.5149026,-87.40234375,-41.50390625,143.06640625,-185.546875,0.0
1734413619.5188074,-73.2421875,9.27734375,270.99609375,-146.97265625,0.0
1734413619.522712,-37.109375,-104.00390625,31.73828125,51.26953125,0.0
1734413619.5266166,-23.4375,-83.49609375,-27.83203125,148.92578125,0.0
1734413619.5305214,-41.50390625,28.3203125,266.6015625,0.9765625,0.0
1734413619.534426,-66.40625,-37.59765625,190.4296875,-169.43359375,0.0
1734413619.5383332,-59.5703125,-59.5703125,165.52734375,-150.390625,0.0
1734413619.5422378,-23.92578125,-8.7890625,260.7421875,41.50390625,0.0
1734413619.5461423,-13.671875,-15.625,295.8984375,146.97265625,0.0
1734413619.5500472,-53.7109375,-74.70703125,222.16796875,19.53125,0.0
1734413619.5539517,-86.42578125,-109.375,124.51171875,-152.34375,0.0
1734413619.5578566,-78.125,-90.33203125,102.05078125,-164.55078125,0.0
1734413619.5617611,-24.4140625,-18.06640625,206.0546875,26.3671875,0.0
1734413619.5656657,7.8125,-47.36328125,210.44921875,174.8046875,0.0
1734413619.5695705,-24.4140625,-71.77734375,150.87890625,82.03125,0.0
1734413619.5734751,-62.98828125,3.90625,214.84375,-97.65625,0.0
1734413619.5773797,-66.40625,-11.71875,247.0703125,-147.4609375,0.0
1734413619.5812845,-23.92578125,-88.8671875,89.35546875,17.578125,0.0
1734413619.5851805,21.484375,-87.890625,28.3203125,183.10546875,0.0
1734413619.589085,5.37109375,13.18359375,220.703125,117.1875,0.0
1734413619.59299,-41.9921875,-9.27734375,259.27734375,-62.98828125,0.0
1734413619.5968945,-50.29296875,-143.06640625,-44.43359375,-129.39453125,0.0
1734413619.6007993,-23.4375,-98.14453125,-87.890625,14.16015625,0.0
1734413619.604704,-2.44140625,-6.8359375,194.82421875,160.64453125,0.0
1734413619.6086085,-6.34765625,-14.6484375,239.74609375,126.46484375,0.0
1734413619.6125133,-23.92578125,-114.74609375,-22.4609375,-41.9921875,0.0
1734413619.616418,-36.1328125,-67.3828125,-81.0546875,-152.34375,0.0
1734413619.6203227,-32.71484375,63.96484375,287.109375,-48.828125,0.0
1734413619.6242273,-19.53125,-34.1796875,244.62890625,116.69921875,0.0
1734413619.6281319,-22.4609375,-54.19921875,224.609375,104.4921875,0.0
1734413619.6321325,-48.828125,-27.34375,252.9296875,-71.2890625,0.0
1734413619.636037,-70.80078125,-36.1328125,250.48828125,-191.89453125,0.0
1734413619.639942,-49.31640625,-71.2890625,197.75390625,-92.28515625,0.0
1734413619.6438465,-14.6484375,-85.44921875,146.484375,78.61328125,0.0
1734413619.647751,-5.859375,-47.36328125,199.21875,102.5390625,0.0
1734413619.651656,-32.71484375,-56.15234375,167.96875,-57.6171875,0.0
1734413619.6555605,-61.03515625,-92.7734375,114.2578125,-201.66015625,0.0
1734413619.6594653,-35.15625,-74.70703125,-14.16015625,-123.53515625,0.0
1734413619.66337,10.25390625,66.89453125,152.34375,61.03515625,0.0
1734413619.6672745,17.08984375,57.12890625,332.51953125,125.9765625,0.0
1734413619.6711793,-19.04296875,-70.3125,126.953125,-27.34375,0.0
1734413619.6750839,-48.33984375,-65.4296875,113.28125,-186.5234375,0.0
1734413619.678942,-44.43359375,-18.5546875,228.02734375,-149.90234375,0.0
1734413619.6828465,-15.625,-30.76171875,255.37109375,21.97265625,0.0
1734413619.6867514,1.46484375,-62.5,189.453125,112.3046875,0.0
1734413619.690656,-26.85546875,-83.0078125,96.19140625,-25.390625,0.0
1734413619.6945608,-59.5703125,-47.8515625,162.59765625,-206.0546875,0.0
1734413619.6984653,-60.546875,-62.5,142.08984375,-207.51953125,0.0
1734413619.70237,-30.76171875,-84.47265625,77.1484375,-29.78515625,0.0
1734413619.7062747,-8.30078125,-11.71875,198.73046875,78.125,0.0
1734413619.7101793,-39.55078125,17.578125,276.3671875,-49.8046875,0.0
1734413619.7140841,-80.56640625,-37.109375,244.62890625,-219.23828125,0.0
1734413619.7179887,-80.078125,-145.5078125,-69.3359375,-222.65625,0.0
1734413619.7218933,-48.33984375,-62.98828125,-17.578125,-59.08203125,0.0
1734413619.725736,-21.97265625,47.8515625,347.16796875,55.6640625,0.0
1734413619.7296407,-34.66796875,-57.12890625,194.82421875,-31.25,0.0
1734413619.7335453,-71.2890625,-88.8671875,121.09375,-202.1484375,0.0
1734413619.73745,-84.9609375,-31.25,195.3125,-253.41796875,0.0
1734413619.7413547,-53.7109375,-16.6015625,228.515625,-95.703125,0.0
1734413619.7452593,-13.18359375,-87.40234375,180.17578125,59.08203125,0.0
1734413619.749164,-24.4140625,-104.98046875,-4.39453125,10.7421875,0.0
1734413619.7530687,-66.89453125,35.15625,97.16796875,-175.78125,0.0
1734413619.7569733,-87.40234375,3.41796875,209.47265625,-264.16015625,0.0
1734413619.760878,-47.8515625,-73.73046875,90.33203125,-114.74609375,0.0
1734413619.7647827,-9.27734375,-10.7421875,158.203125,43.45703125,0.0
1734413619.7686875,-29.78515625,13.18359375,267.578125,13.671875,0.0
1734413619.7725213,-52.734375,-35.64453125,222.65625,-150.390625,0.0
1734413619.7764258,-57.6171875,-62.01171875,88.8671875,-241.69921875,0.0
1734413619.7803307,-37.59765625,-20.5078125,127.9296875,-117.1875,0.0
1734413619.7842352,-6.34765625,-27.83203125,192.87109375,39.0625,0.0
1734413619.7881398,-10.7421875,-31.25,224.12109375,37.109375,0.0
1734413619.7920446,-41.015625,-125.9765625,-59.08203125,-112.3046875,0.0
1734413619.7959492,-60.05859375,-83.49609375,-125.0,-227.5390625,0.0
1734413619.799854,-52.734375,52.24609375,258.30078125,-141.11328125,0.0
1734413619.8037586,-22.94921875,-26.85546875,233.88671875,31.73828125,0.0
1734413619.8076632,-23.92578125,-50.78125,222.65625,62.98828125,0.0
1734413619.811568,-59.08203125,-12.20703125,235.3515625,-95.703125,0.0
1734413619.8154726,-72.265625,-50.78125,150.390625,-238.28125,0.0
1734413619.8194118,-48.828125,-77.63671875,113.76953125,-166.50390625,0.0
1734413619.8233166,-15.13671875,-20.5078125,197.265625,15.13671875,0.0
1734413619.8272212,-5.859375,19.04296875,282.2265625,77.1484375,0.0
1734413619.8311257,-30.2734375,-16.11328125,266.11328125,-69.82421875,0.0
1734413619.8350306,-59.5703125,-83.49609375,161.62109375,-229.00390625,0.0
1734413619.8389351,-37.109375,-104.4921875,71.2890625,-187.5,0.0
1734413619.84284,2.9296875,-11.71875,161.1328125,-3.41796875,0.0
1734413619.8467445,3.90625,41.50390625,302.734375,74.70703125,0.0
1734413619.850649,-32.2265625,-79.1015625,96.6796875,-55.17578125,0.0
1734413619.854554,-59.08203125,-102.5390625,-13.671875,-207.03125,0.0
1734413619.8584585,-51.26953125,42.96875,229.00390625,-201.171875,0.0
1734413619.8623633,-17.08984375,10.25390625,265.625,-16.6015625,0.0
1734413619.866418,0.48828125,-60.05859375,142.08984375,92.28515625,0.0
1734413619.8703227,-19.53125,-38.57421875,105.46875,-19.53125,0.0
1734413619.8742273,-47.36328125,-41.015625,137.6953125,-180.17578125,0.0
1734413619.8781319,-45.8984375,-56.15234375,72.265625,-184.08203125,0.0
1734413619.8820367,-2.44140625,-20.99609375,92.7734375,3.41796875,0.0
1734413619.8859413,16.11328125,-11.71875,120.60546875,133.30078125,0.0
1734413619.889846,-11.23046875,0.48828125,130.859375,41.9921875,0.0
1734413619.8937507,-48.828125,3.41796875,237.79296875,-129.8828125,0.0
1734413619.8976552,-55.17578125,-131.8359375,-49.31640625,-168.45703125,0.0
1734413619.90156,-22.94921875,-64.453125,-102.05078125,-6.8359375,0.0
1734413619.9054646,-1.953125,76.171875,315.91796875,140.13671875,0.0
1734413619.9093695,-20.99609375,-22.94921875,212.40234375,85.44921875,0.0
1734413619.9134042,-49.31640625,-47.8515625,154.78515625,-78.61328125,0.0
1734413619.917309,-49.31640625,5.859375,256.8359375,-136.23046875,0.0
1734413619.9212136,-21.97265625,10.7421875,293.9453125,0.9765625,0.0
1734413619.9251184,-2.44140625,-31.25,260.25390625,154.296875,0.0
1734413619.929023,-1.46484375,-64.453125,191.89453125,133.7890625,0.0
1734413619.9329276,-25.390625,-62.5,157.71484375,-30.76171875,0.0
1734413619.9368324,-47.8515625,-42.96875,131.8359375,-125.48828125,0.0
1734413619.940737,-33.69140625,-57.12890625,118.1640625,-11.71875,0.0
1734413619.9446418,-10.25390625,-32.2265625,193.84765625,138.671875,0.0
1734413619.9485464,-13.671875,26.85546875,291.9921875,135.25390625,0.0
1734413619.952451,-41.9921875,6.8359375,299.8046875,-18.06640625,0.0
1734413619.9563558,-56.640625,-106.93359375,67.87109375,-134.27734375,0.0
1734413619.9602442,-35.15625,-102.5390625,14.16015625,-36.62109375,0.0
1734413619.964149,-13.18359375,54.19921875,302.734375,122.0703125,0.0
1734413619.9680536,-15.625,6.34765625,312.5,142.08984375,0.0
1734413619.9719582,-34.66796875,-77.63671875,154.78515625,-12.6953125,0.0
1734413619.975863,-52.734375,-69.82421875,112.79296875,-148.92578125,0.0
1734413619.9797676,-41.9921875,-41.9921875,190.91796875,-80.078125,0.0
1734413619.9836724,5.859375,-42.96875,196.2890625,99.609375,0.0
1734413619.987577,13.18359375,-66.89453125,176.26953125,138.671875,0.0
1734413619.9914815,-46.38671875,-22.4609375,191.40625,-37.109375,0.0
1734413619.9953864,-76.171875,8.30078125,242.1875,-191.40625,0.0
1734413619.999291,-53.22265625,-48.33984375,265.13671875,-142.578125,0.0
1734413620.0031958,-11.71875,-151.85546875,13.671875,43.45703125,0.0
1734413620.007073,13.671875,-85.44921875,36.62109375,123.53515625,0.0
1734413620.0109775,-11.23046875,2.9296875,312.98828125,-20.01953125,0.0
1734413620.0148823,-37.109375,-112.79296875,167.96875,-183.10546875,0.0
1734413620.018787,-31.73828125,-103.02734375,152.83203125,-177.734375,0.0
1734413620.0226917,-17.578125,-59.08203125,229.00390625,-12.20703125,0.0
1734413620.0265963,-3.41796875,-98.6328125,194.82421875,87.40234375,0.0
1734413620.030501,-11.71875,-115.72265625,168.45703125,-28.80859375,0.0
1734413620.0344057,-32.2265625,-115.234375,12.20703125,-182.6171875,0.0
1734413620.0383103,-32.2265625,-0.9765625,106.93359375,-203.125,0.0
1734413620.042215,-18.06640625,-0.48828125,289.0625,-46.875,0.0
1734413620.0461197,-2.9296875,-100.5859375,157.71484375,82.03125,0.0
1734413620.0500243,-17.08984375,-81.0546875,133.7890625,-13.18359375,0.0
1734413620.053888,-54.19921875,-9.765625,248.046875,-203.125,0.0
1734413620.0577927,-57.6171875,-34.1796875,267.08984375,-263.671875,0.0
1734413620.0616972,-22.94921875,-117.1875,50.78125,-99.609375,0.0
1734413620.065602,4.39453125,-92.7734375,4.8828125,57.6171875,0.0
1734413620.0695066,-21.97265625,-24.4140625,210.9375,-11.23046875,0.0
1734413620.0734115,-64.94140625,-59.5703125,216.796875,-189.453125,0.0
1734413620.077316,-70.3125,-142.08984375,-25.390625,-241.69921875,0.0
1734413620.0812206,-28.3203125,-81.0546875,-52.734375,-86.42578125,0.0
1734413620.0851254,-2.44140625,71.77734375,325.1953125,57.6171875,0.0
1734413620.08903,-19.53125,-13.671875,273.4375,-2.44140625,0.0
1734413620.0929348,-63.96484375,-65.91796875,193.84765625,-189.453125,0.0
1734413620.0968394,-65.4296875,-12.6953125,241.2109375,-273.92578125,0.0
1734413620.1009355,-32.71484375,-25.87890625,246.09375,-140.625,0.0
1734413620.10484,-21.97265625,-82.51953125,210.44921875,14.6484375,0.0
1734413620.1087449,-16.6015625,-62.01171875,213.37890625,12.6953125,0.0
1734413620.1126494,-28.3203125,-14.6484375,262.20703125,-138.18359375,0.0
1734413620.1165543,-47.36328125,-37.109375,256.34765625,-249.51171875,0.0
1734413620.1204588,-29.78515625,-98.14453125,184.5703125,-152.34375,0.0
1734413620.1243637,2.44140625,-83.984375,84.47265625,32.71484375,0.0
1734413620.1282682,-3.41796875,39.55078125,216.30859375,64.453125,0.0
1734413620.1321728,-52.734375,20.99609375,299.31640625,-126.46484375,0.0
1734413620.1360776,-71.77734375,-94.23828125,162.109375,-264.6484375,0.0
1734413620.1399822,-28.3203125,-86.42578125,181.15234375,-156.73828125,0.0
1734413620.143887,16.6015625,-16.6015625,318.359375,37.59765625,0.0
1734413620.1478388,0.0,-38.0859375,308.59375,77.63671875,0.0
1734413620.1517434,0.0,-97.65625,137.20703125,-89.84375,0.0
1734413620.1556482,0.0,-84.47265625,137.6953125,-226.07421875,0.0
1734413620.1595528,0.0,-54.19921875,202.1484375,-165.0390625,0.0
1734413620.1634576,0.0,-49.31640625,173.828125,1.46484375,0.0
1734413620.1673622,0.0,-84.47265625,111.328125,70.3125,0.0
1734413620.1712668,0.0,-60.546875,108.3984375,-57.6171875,0.0
1734413620.1751716,0.0,-7.32421875,228.02734375,-208.984375,0.0
1734413620.1790762,0.0,-57.12890625,202.1484375,-200.68359375,0.0
1734413620.182981,0.0,-71.77734375,228.515625,-15.625,0.0
1734413620.1868856,0.0,-26.85546875,291.9921875,102.05078125,0.0
1734413620.1907904,0.0,-28.80859375,265.13671875,-32.2265625,0.0
1734413620.1947274,-69.82421875,-74.21875,224.12109375,-199.21875,0.0
1734413620.198632,-62.01171875,-176.7578125,-81.54296875,-191.89453125,0.0
1734413620.2025368,-13.671875,-60.05859375,28.3203125,-0.48828125,0.0
1734413620.2064414,8.30078125,45.41015625,336.42578125,128.41796875,0.0
1734413620.2103462,-33.69140625,-61.03515625,199.21875,17.08984375,0.0
1734413620.2142508,-57.6171875,-106.93359375,85.44921875,-143.5546875,0.0
1734413620.2181556,-53.7109375,-49.8046875,107.91015625,-166.9921875,0.0
1734413620.2220602,-22.4609375,16.6015625,249.0234375,-15.625,0.0
1734413620.2259648,6.34765625,-40.52734375,235.3515625,134.27734375,0.0
1734413620.2298696,-15.13671875,-86.9140625,76.171875,67.87109375,0.0
1734413620.2337742,-56.15234375,15.13671875,183.10546875,-141.11328125,0.0
1734413620.237679,-62.01171875,-9.765625,263.18359375,-214.84375,0.0
1734413620.2416,-28.80859375,-56.640625,152.83203125,-43.9453125,0.0
1734413620.2455049,-10.25390625,-28.80859375,192.87109375,127.9296875,0.0
1734413620.2494094,-19.04296875,-21.484375,298.33984375,91.30859375,0.0
1734413620.2533143,-41.015625,-95.21484375,177.24609375,-90.33203125,0.0
1734413620.2572188,-56.640625,-95.703125,116.69921875,-187.5,0.0
1734413620.2611237,-43.45703125,-55.17578125,151.3671875,-53.22265625,0.0
1734413620.2650282,-18.06640625,-18.5546875,188.4765625,107.421875,0.0
1734413620.2689328,-17.578125,20.99609375,321.77734375,104.00390625,0.0
1734413620.2728376,-44.921875,-130.859375,52.734375,-54.19921875,0.0
1734413620.2767422,-78.125,-131.34765625,-86.42578125,-194.82421875,0.0
1734413620.280647,-62.98828125,36.1328125,299.8046875,-107.421875,0.0
1734413620.2845516,-17.08984375,-29.78515625,313.96484375,64.94140625,0.0
1734413620.2884564,-18.06640625,-62.98828125,270.01953125,83.0078125,0.0
1734413620.292361,-64.453125,-24.90234375,277.83203125,-83.49609375,0.0
1734413620.2962656,-78.125,-37.59765625,274.4140625,-199.70703125,0.0
1734413620.3001704,-31.25,-81.54296875,236.328125,-97.65625,0.0
1734413620.304075,-6.34765625,-94.7265625,204.58984375,62.5,0.0
1734413620.3079798,-24.90234375,-59.5703125,232.421875,92.28515625,0.0
1734413620.3118844,-61.03515625,-26.85546875,240.234375,-61.5234375,0.0
1734413620.315789,-77.63671875,-75.68359375,219.7265625,-206.54296875,0.0
1734413620.3196938,-62.98828125,-130.37109375,44.921875,-147.94921875,0.0
1734413620.3235984,-35.64453125,7.8125,216.796875,24.4140625,0.0
1734413620.3275032,-15.625,7.8125,377.9296875,106.93359375,0.0
1734413620.3314078,-35.64453125,-114.74609375,174.31640625,-18.06640625,0.0
1734413620.335551,-71.2890625,-111.328125,144.53125,-172.36328125,0.0
1734413620.3394558,-75.1953125,-23.92578125,281.25,-166.9921875,0.0
1734413620.3433604,-57.6171875,-36.62109375,301.26953125,-2.9296875,0.0
1734413620.3472652,-27.34375,-93.75,197.265625,113.76953125,0.0
1734413620.3511698,-40.0390625,-96.6796875,144.04296875,3.90625,0.0
1734413620.3550744,-77.63671875,-83.49609375,155.76171875,-164.0625,0.0
1734413620.3589792,-77.63671875,-46.38671875,201.66015625,-189.94140625,0.0
1734413620.3628838,-48.828125,-110.83984375,48.828125,-5.37109375,0.0
1734413620.3667886,-31.73828125,-85.9375,50.29296875,127.9296875,0.0
1734413620.3706932,-60.546875,22.4609375,351.5625,4.8828125,0.0
1734413620.374598,-82.03125,-72.265625,241.2109375,-148.92578125,0.0
1734413620.3785026,-75.68359375,-89.84375,188.4765625,-182.6171875,0.0
1734413620.382367,-59.08203125,-27.34375,262.20703125,-37.109375,0.0
1734413620.3862715,-49.31640625,-40.52734375,285.64453125,91.796875,0.0
1734413620.3901763,-59.5703125,-109.86328125,184.5703125,16.6015625,0.0
1734413620.3940809,-84.47265625,-83.49609375,153.3203125,-143.06640625,0.0
1734413620.3979857,-83.0078125,-38.0859375,212.890625,-205.078125,0.0
1734413620.4018903,-42.48046875,-80.56640625,154.78515625,-44.43359375,0.0
1734413620.405795,-17.578125,-93.75,118.1640625,103.515625,0.0
1734413620.4096997,-23.4375,-61.5234375,166.015625,39.0625,0.0
1734413620.4136043,-58.10546875,-5.37109375,214.84375,-131.8359375,0.0
1734413620.417509,-85.44921875,-26.85546875,209.9609375,-217.7734375,0.0
1734413620.4214137,-53.7109375,-105.95703125,66.89453125,-83.49609375,0.0
1734413620.4253185,-19.04296875,-89.84375,77.63671875,74.21875,0.0
1734413620.4291773,-22.4609375,-7.32421875,248.046875,63.4765625,0.0
1734413620.4330819,-53.22265625,-27.34375,253.90625,-105.95703125,0.0
1734413620.4369867,-90.33203125,-151.3671875,-28.80859375,-220.703125,0.0
1734413620.4408913,-72.265625,-130.37109375,-124.51171875,-100.09765625,0.0
1734413620.444796,-16.6015625,27.83203125,206.54296875,74.70703125,0.0
1734413620.4487007,-7.8125,-34.66796875,248.53515625,104.98046875,0.0
1734413620.4526055,-44.921875,-158.203125,-57.6171875,-56.15234375,0.0
1734413620.45651,-76.66015625,-86.42578125,-125.48828125,-189.453125,0.0
1734413620.4604146,-55.17578125,64.94140625,307.6171875,-107.421875,0.0
1734413620.4643195,-8.30078125,-26.85546875,276.85546875,68.84765625,0.0
1734413620.468224,-0.9765625,-75.1953125,198.73046875,113.76953125,0.0
1734413620.4721289,-19.04296875,-39.0625,227.05078125,-33.69140625,0.0
1734413620.4759667,-33.69140625,-19.04296875,253.90625,-173.33984375,0.0
1734413620.4798713,-32.2265625,-45.8984375,194.82421875,-135.7421875,0.0
1734413620.4837759,-13.18359375,-50.29296875,185.05859375,31.25,0.0
1734413620.4876807,-12.20703125,-7.32421875,275.87890625,109.375,0.0
1734413620.4915853,-28.3203125,-26.3671875,241.2109375,-20.99609375,0.0
1734413620.49549,-31.73828125,-106.4453125,128.41796875,-178.22265625,0.0
1734413620.4993947,-34.1796875,-60.05859375,145.01953125,-172.36328125,0.0
1734413620.5032995,-32.2265625,36.62109375,257.8125,-8.30078125,0.0
1734413620.507204,-18.06640625,-17.578125,256.8359375,100.5859375,0.0
1734413620.5111086,-17.08984375,-95.703125,77.1484375,1.46484375,0.0
1734413620.5150135,-43.9453125,-79.58984375,20.99609375,-163.57421875,0.0
1734413620.518918,-61.5234375,6.8359375,197.75390625,-189.94140625,0.0
1734413620.5228734,-27.34375,-13.671875,254.39453125,-11.71875,0.0
1734413620.526778,12.6953125,-89.84375,53.22265625,130.37109375,0.0
1734413620.5306828,-7.32421875,-74.70703125,20.5078125,14.6484375,0.0
1734413620.5345874,-45.41015625,-31.25,173.33984375,-166.9921875,0.0
1734413620.538492,-62.5,-54.6875,161.1328125,-206.54296875,0.0
1734413620.5423968,-42.96875,-113.28125,20.5078125,-43.9453125,0.0
1734413620.5463014,-11.71875,-40.0390625,59.5703125,108.3984375,0.0
1734413620.5502062,-25.390625,34.66796875,268.06640625,35.15625,0.0
1734413620.5541108,-63.96484375,-56.15234375,193.359375,-135.7421875,0.0
1734413620.5580153,-68.84765625,-90.8203125,93.75,-171.38671875,0.0
1734413620.5619202,-29.78515625,-23.4375,106.93359375,0.9765625,0.0
1734413620.5658247,0.48828125,18.06640625,237.79296875,125.48828125,0.0
1734413620.5698988,-12.20703125,-19.04296875,217.28515625,71.77734375,0.0
1734413620.5738037,-53.7109375,-49.31640625,166.9921875,-100.09765625,0.0
1734413620.5777082,-72.75390625,-19.53125,215.33203125,-202.63671875,0.0
1734413620.5816128,-41.015625,-14.16015625,232.421875,-64.94140625,0.0
1734413620.5855176,-3.41796875,-45.41015625,209.47265625,116.69921875,0.0
1734413620.5894222,16.11328125,-85.9375,120.1171875,125.48828125,0.0
1734413620.593327,-10.7421875,-21.97265625,160.64453125,-53.7109375,0.0
1734413620.5972316,-62.5,8.7890625,228.02734375,-183.10546875,0.0
1734413620.6011364,-40.0390625,-80.56640625,124.51171875,-57.6171875,0.0
1734413620.605041,6.34765625,-91.30859375,-3.90625,125.0,0.0
1734413620.6089456,3.90625,38.57421875,170.41015625,130.37109375,0.0
1734413620.6128504,-40.0390625,6.34765625,236.81640625,-61.03515625,0.0
1734413620.6167717,-80.56640625,-84.47265625,58.10546875,-209.47265625,0.0
1734413620.6206763,-61.03515625,-72.265625,41.015625,-115.234375,0.0
1734413620.6245809,-26.3671875,-7.32421875,200.1953125,66.89453125,0.0
1734413620.6284857,-19.04296875,-33.203125,177.24609375,117.67578125,0.0
1734413620.6323903,-33.203125,-75.1953125,52.734375,-28.80859375,0.0
1734413620.636295,-60.05859375,-69.3359375,7.32421875,-177.734375,0.0
1734413620.6401997,-45.41015625,1.46484375,122.55859375,-126.46484375,0.0
1734413620.6441045,4.39453125,24.90234375,229.4921875,56.15234375,0.0
1734413620.648009,6.34765625,-23.4375,203.61328125,118.65234375,0.0
1734413620.6519136,-27.34375,14.6484375,214.35546875,-35.15625,0.0
1734413620.6558185,-33.203125,20.01953125,225.09765625,-173.33984375,0.0
1734413620.659723,-18.06640625,2.44140625,242.67578125,-138.18359375,0.0
1734413620.6636457,0.0,-87.890625,0.0,35.64453125,0.0
1734413620.6675503,0.0,-1.46484375,0.0,124.0234375,0.0
1734413620.671455,0.0,84.47265625,0.0,-6.34765625,0.0
1734413620.6753597,0.0,-35.64453125,0.0,-159.66796875,0.0
1734413620.6792643,0.0,-54.19921875,0.0,-160.64453125,0.0
1734413620.6831691,0.0,-2.9296875,0.0,19.04296875,0.0
1734413620.6870737,0.0,6.8359375,0.0,137.20703125,0.0
1734413620.6909785,0.0,-45.41015625,0.0,20.01953125,0.0
1734413620.694883,0.0,-62.98828125,0.0,-141.6015625,0.0
1734413620.6987877,0.0,64.453125,0.0,-197.265625,0.0
1734413620.7026925,0.0,61.03515625,0.0,-32.71484375,0.0
1734413620.706597,0.0,-41.50390625,0.0,113.76953125,0.0
1734413620.7104807,-28.80859375,-40.52734375,246.09375,19.04296875,0.0
1734413620.7143853,-69.3359375,-11.23046875,312.01171875,-161.62109375,0.0
1734413620.71829,-80.56640625,-50.29296875,285.15625,-229.4921875,0.0
1734413620.7221947,-40.52734375,-80.56640625,178.22265625,-55.17578125,0.0
1734413620.7260995,-14.16015625,-51.7578125,193.84765625,96.19140625,0.0
1734413620.730004,-9.27734375,-62.01171875,220.21484375,57.6171875,0.0
1734413620.7339087,-28.80859375,-61.5234375,204.1015625,-98.6328125,0.0
1734413620.7378135,-56.15234375,-127.9296875,-5.37109375,-188.96484375,0.0
1734413620.741718,-34.1796875,-71.2890625,-6.34765625,-63.96484375,0.0
1734413620.7456229,4.8828125,66.40625,358.88671875,89.84375,0.0
1734413620.7495275,5.859375,-28.80859375,262.20703125,84.9609375,0.0
1734413620.7534323,-33.69140625,-70.3125,191.89453125,-83.984375,0.0
1734413620.757307,-63.4765625,-24.90234375,237.79296875,-201.171875,0.0
1734413620.7612116,-29.296875,-12.20703125,258.30078125,-77.63671875,0.0
1734413620.7651165,8.7890625,-61.03515625,205.56640625,101.07421875,0.0
1734413620.769021,2.44140625,-71.2890625,171.875,104.4921875,0.0
1734413620.7729256,-31.73828125,-28.3203125,220.21484375,-67.87109375,0.0
1734413620.7768304,-54.19921875,-62.98828125,177.24609375,-201.171875,0.0
1734413620.780735,-38.0859375,-83.49609375,146.97265625,-122.55859375,0.0
1734413620.7846398,-9.765625,-62.01171875,94.23828125,60.546875,0.0
1734413620.7885444,-2.9296875,48.828125,229.4921875,101.07421875,0.0
1734413620.7924492,-25.390625,-16.11328125,232.91015625,-53.22265625,0.0
1734413620.7963538,-28.3203125,-99.609375,82.03125,-172.36328125,0.0
1734413620.8002584,-14.6484375,-34.1796875,146.97265625,-133.7890625,0.0
1734413620.8041086,-8.7890625,2.44140625,273.92578125,11.23046875,0.0
1734413620.8080132,5.859375,-34.66796875,289.0625,92.7734375,0.0
1734413620.8119178,-5.859375,-89.84375,151.3671875,-17.08984375,0.0
1734413620.8158226,-45.41015625,-86.42578125,96.6796875,-178.22265625,0.0
1734413620.8197272,-50.78125,-52.734375,147.4609375,-180.6640625,0.0
1734413620.823632,-13.18359375,-34.66796875,220.703125,-8.7890625,0.0
1734413620.8275366,13.671875,-129.8828125,1.46484375,114.74609375,0.0
1734413620.8314414,-27.34375,-100.5859375,-58.10546875,0.48828125,0.0
1734413620.835346,-66.40625,34.1796875,283.203125,-176.7578125,0.0
1734413620.8392506,-46.875,-42.96875,232.91015625,-171.38671875,0.0
1734413620.8431554,-15.13671875,-52.24609375,216.30859375,0.0,0.0
1734413620.84706,13.671875,0.0,294.43359375,122.55859375,0.0
1734413620.8508985,8.7890625,-48.33984375,232.91015625,19.04296875,0.0
1734413620.8548033,-36.62109375,-85.44921875,163.57421875,-166.9921875,0.0
1734413620.858708,-57.12890625,-44.921875,190.91796875,-202.63671875,0.0
1734413620.8626127,-22.4609375,-2.9296875,280.2734375,-32.2265625,0.0
1734413620.8665173,-7.8125,-32.71484375,290.0390625,88.37890625,0.0
1734413620.870422,-39.55078125,-125.0,167.96875,3.90625,0.0
1734413620.8743267,-66.40625,-129.8828125,7.8125,-158.203125,0.0
1734413620.8782313,-67.3828125,2.9296875,140.13671875,-225.09765625,0.0
1734413620.882136,-36.1328125,19.53125,312.5,-86.42578125,0.0
1734413620.8860407,-8.30078125,-85.44921875,218.75,75.1953125,0.0
1734413620.8899455,-13.18359375,-113.76953125,148.4375,36.1328125,0.0
1734413620.89385,-35.15625,-35.15625,214.35546875,-135.25390625,0.0
1734413620.897679,-38.57421875,-34.66796875,238.76953125,-215.8203125,0.0
1734413620.901584,-16.11328125,-79.58984375,122.0703125,-80.078125,0.0
1734413620.9054885,2.44140625,-54.6875,175.78125,71.2890625,0.0
1734413620.909393,-2.9296875,-56.15234375,221.6796875,61.03515625,0.0
1734413620.913298,-38.0859375,-63.96484375,198.2421875,-105.95703125,0.0
1734413620.9172025,-70.3125,-134.765625,-41.015625,-229.00390625,0.0
1734413620.9211073,-49.8046875,-71.77734375,-50.78125,-128.90625,0.0
1734413620.9250119,-7.32421875,59.08203125,325.68359375,35.64453125,0.0
1734413620.9289165,10.7421875,-29.296875,267.578125,68.359375,0.0
1734413620.9328213,-21.97265625,-76.66015625,111.81640625,-100.5859375,0.0
1734413620.9367259,-65.4296875,-22.4609375,162.59765625,-248.046875,0.0
1734413620.9406307,-41.015625,-1.46484375,275.87890625,-162.109375,0.0
1734413620.9445682,6.8359375,-44.43359375,220.703125,20.99609375,0.0
1734413620.9484727,6.34765625,-51.7578125,211.9140625,58.59375,0.0
1734413620.9523773,-29.78515625,-18.06640625,239.74609375,-93.26171875,0.0
1734413620.9562821,-53.7109375,-20.01953125,214.84375,-233.88671875,0.0
1734413620.9601867,-41.9921875,-61.03515625,169.921875,-170.8984375,0.0
1734413620.9640915,-10.25390625,-81.0546875,127.44140625,11.71875,0.0
1734413620.9679961,1.953125,-34.66796875,144.04296875,83.0078125,0.0
1734413620.9719007,-27.83203125,3.90625,215.33203125,-56.15234375,0.0
1734413620.9758055,-56.15234375,-69.82421875,145.5078125,-218.26171875,0.0
1734413620.97971,-52.24609375,-98.6328125,96.6796875,-176.7578125,0.0
1734413620.983615,-22.94921875,29.78515625,287.109375,-0.9765625,0.0
1734413620.9875195,-3.41796875,2.9296875,338.37890625,92.28515625,0.0
1734413620.9914467,-27.34375,-90.33203125,184.08203125,-22.4609375,0.0
1734413620.9953513,-58.59375,-76.171875,168.45703125,-182.12890625,0.0
1734413620.999256,-52.734375,-27.34375,280.2734375,-178.22265625,0.0
1734413621.0031607,0.48828125,-63.96484375,243.65234375,9.765625,0.0
1734413621.0070653,25.390625,-88.8671875,114.2578125,139.16015625,0.0
1734413621.01097,-8.7890625,-64.94140625,95.21484375,16.6015625,0.0
1734413621.0148747,-64.453125,-13.671875,233.88671875,-179.19921875,0.0
1734413621.0187793,-70.3125,4.39453125,315.4296875,-209.47265625,0.0
1734413621.022684,-17.08984375,-131.8359375,43.45703125,-19.53125,0.0
1734413621.0265887,-0.48828125,-83.984375,16.11328125,112.3046875,0.0
1734413621.0304935,-31.73828125,33.69140625,330.078125,8.30078125,0.0
1734413621.034398,-50.29296875,-66.40625,222.16796875,-150.87890625,0.0
1734413621.0385623,-43.45703125,-77.1484375,189.94140625,-197.75390625,0.0
1734413621.0424669,-21.97265625,-6.8359375,287.59765625,-48.828125,0.0
1734413621.0463717,4.39453125,0.48828125,328.61328125,97.65625,0.0
1734413621.0502763,3.41796875,-70.3125,232.421875,57.12890625,0.0
1734413621.0541809,-31.25,-105.95703125,143.5546875,-113.28125,0.0
1734413621.0580857,-73.73046875,-86.42578125,105.46875,-213.37890625,0.0
1734413621.0619903,-65.91796875,-16.6015625,193.84765625,-88.37890625,0.0
1734413621.065895,-22.94921875,-44.921875,219.7265625,96.19140625,0.0
1734413621.0697997,-24.4140625,-112.3046875,-12.6953125,95.703125,0.0
1734413621.0737045,-62.01171875,21.97265625,106.4453125,-102.05078125,0.0
1734413621.077609,-66.89453125,17.08984375,234.375,-227.05078125,0.0
1734413621.0815136,-40.0390625,-62.5,89.84375,-99.12109375,0.0
1734413621.085414,-10.25390625,-14.6484375,148.4375,83.0078125,0.0
1734413621.0893188,-6.34765625,17.08984375,264.16015625,98.6328125,0.0
1734413621.0932233,-39.0625,-38.0859375,215.8203125,-71.77734375,0.0
1734413621.097128,-59.08203125,-86.9140625,76.66015625,-199.70703125,0.0
1734413621.1010327,-41.015625,-43.45703125,89.84375,-95.703125,0.0
1734413621.1049373,-5.37109375,-17.08984375,190.91796875,82.51953125,0.0
1734413621.1088421,-3.41796875,-47.8515625,173.33984375,110.3515625,0.0
1734413621.1127467,-37.109375,-58.59375,112.3046875,-58.59375,0.0
1734413621.1166515,-58.10546875,-7.32421875,158.203125,-202.63671875,0.0
1734413621.120556,-40.0390625,20.5078125,254.8828125,-136.23046875,0.0
1734413621.1244607,-6.8359375,-29.296875,231.93359375,43.9453125,0.0
1734413621.1283655,-2.9296875,-43.45703125,255.859375,104.00390625,0.0
1734413621.1322381,-31.73828125,0.48828125,253.41796875,-41.015625,0.0
1734413621.1361427,-63.96484375,-21.484375,211.9140625,-181.15234375,0.0
1734413621.1400476,-47.8515625,-60.05859375,184.08203125,-137.20703125,0.0
1734413621.1439521,-14.6484375,-45.8984375,35.64453125,40.0390625,0.0
1734413621.147857,-13.18359375,29.78515625,158.203125,120.60546875,0.0
1734413621.1517615,-35.64453125,-10.25390625,193.84765625,-17.08984375,0.0
1734413621.155666,-60.546875,-44.43359375,165.52734375,-180.6640625,0.0
1734413621.159571,-52.734375,-112.79296875,-108.88671875,-159.66796875,0.0
1734413621.1634755,-26.3671875,-18.06640625,-126.46484375,14.16015625,0.0
1734413621.1673803,-16.6015625,115.234375,360.83984375,120.1171875,0.0
1734413621.171285,-23.4375,-35.15625,198.2421875,31.25,0.0
1734413621.1751897,-41.50390625,-57.6171875,122.0703125,-138.18359375,0.0
1734413621.1791801,-58.10546875,7.8125,232.91015625,-187.5,0.0
1734413621.183085,-20.01953125,-3.41796875,254.39453125,-11.71875,0.0
1734413621.1869895,37.59765625,-23.92578125,181.640625,156.73828125,0.0
1734413621.1908941,14.6484375,-44.43359375,97.65625,64.94140625,0.0
1734413621.194799,-50.29296875,-39.55078125,110.3515625,-142.578125,0.0
1734413621.1987035,-65.91796875,6.34765625,171.38671875,-219.7265625,0.0
1734413621.2026083,-23.4375,-57.12890625,-0.9765625,-49.31640625,0.0
1734413621.206513,14.16015625,-24.4140625,-0.9765625,126.46484375,0.0
1734413621.2104177,-3.41796875,85.9375,298.828125,51.7578125,0.0
1734413621.2143223,-42.48046875,-12.20703125,208.0078125,-144.53125,0.0
1734413621.218227,-53.22265625,-28.3203125,187.01171875,-221.19140625,0.0
1734413621.2221317,-17.08984375,22.4609375,245.60546875,-68.84765625,0.0
1734413621.225976,8.7890625,21.97265625,288.0859375,96.6796875,0.0
1734413621.2298808,-26.3671875,-45.41015625,201.66015625,61.5234375,0.0
1734413621.2337854,-60.546875,-61.5234375,121.09375,-108.88671875,0.0
1734413621.2376902,-51.26953125,22.4609375,235.83984375,-194.82421875,0.0
1734413621.2415948,-17.578125,6.34765625,239.2578125,-75.68359375,0.0
1734413621.2454996,7.8125,-69.3359375,161.1328125,79.58984375,0.0
1734413621.2494042,-6.34765625,-47.8515625,176.7578125,84.47265625,0.0
1734413621.2533088,-34.66796875,2.44140625,183.10546875,-76.171875,0.0
1734413621.2572136,-52.734375,15.13671875,215.33203125,-201.171875,0.0
1734413621.2611182,-40.52734375,-51.7578125,170.8984375,-110.83984375,0.0
1734413621.265023,-11.71875,-75.1953125,112.79296875,66.40625,0.0
1734413621.2689276,-9.27734375,64.94140625,270.01953125,99.609375,0.0
1734413621.2727563,-32.2265625,19.53125,248.046875,-59.08203125,0.0
1734413621.276661,-47.8515625,-52.24609375,132.32421875,-194.82421875,0.0
1734413621.2805657,-36.62109375,-18.06640625,189.453125,-128.90625,0.0
1734413621.2844703,-19.53125,-20.01953125,238.76953125,45.41015625,0.0
1734413621.288375,-16.6015625,-19.04296875,258.7890625,113.28125,0.0
1734413621.2922797,-24.90234375,-80.56640625,73.73046875,-11.23046875,0.0
1734413621.2961843,-25.87890625,-51.26953125,69.3359375,-153.3203125,0.0
1734413621.3000891,-27.83203125,57.6171875,319.3359375,-139.6484375,0.0
1734413621.3039937,-10.7421875,12.6953125,307.12890625,25.87890625,0.0
1734413621.3078985,12.6953125,-69.82421875,187.5,133.7890625,0.0
1734413621.311803,-14.6484375,-42.48046875,135.7421875,16.11328125,0.0
1734413621.3157077,-49.8046875,23.92578125,259.765625,-154.296875,0.0
1734413621.319653,-42.96875,-14.16015625,208.0078125,-152.83203125,0.0
1734413621.3235579,-6.8359375,-18.06640625,195.80078125,28.80859375,0.0
1734413621.3274624,12.6953125,30.2734375,297.8515625,141.6015625,0.0
1734413621.331367,-11.23046875,21.97265625,278.3203125,27.83203125,0.0
1734413621.3352718,-35.15625,-41.9921875,191.40625,-135.7421875,0.0
1734413621.3391764,-39.0625,-93.26171875,76.66015625,-164.0625,0.0
1734413621.3430812,-21.97265625,-4.8828125,158.203125,-10.7421875,0.0
1734413621.3469858,-8.30078125,33.203125,281.73828125,104.00390625,0.0
1734413621.3508906,-27.34375,-82.03125,110.83984375,16.11328125,0.0
1734413621.3547952,-44.921875,-96.19140625,32.2265625,-133.30078125,0.0
1734413621.3586998,-43.9453125,27.34375,189.453125,-182.12890625,0.0
1734413621.3626046,-18.06640625,23.92578125,267.08984375,-32.2265625,0.0
1734413621.366534,0.48828125,-88.8671875,100.5859375,126.46484375,0.0
1734413621.3704386,-8.7890625,-78.125,23.4375,76.66015625,0.0
1734413621.3743434,-31.25,19.53125,235.3515625,-91.30859375,0.0
1734413621.378248,-40.52734375,-36.62109375,182.6171875,-171.875,0.0
1734413621.3821528,-15.625,-68.359375,51.7578125,-30.76171875,0.0
1734413621.3860574,18.06640625,-15.13671875,109.86328125,143.06640625,0.0
1734413621.3899622,2.9296875,54.6875,264.16015625,109.86328125,0.0
1734413621.3938668,-40.52734375,44.921875,324.70703125,-68.84765625,0.0
1734413621.3977714,-49.8046875,-116.69921875,32.2265625,-162.109375,0.0
1734413621.4016762,-13.18359375,-72.75390625,-10.25390625,-23.92578125,0.0
1734413621.4055808,27.83203125,90.33203125,354.98046875,140.625,0.0
1734413621.4094856,26.3671875,3.41796875,287.109375,136.23046875,0.0
1734413621.413388,-15.625,-39.0625,207.03125,-32.2265625,0.0
1734413621.4172926,-44.43359375,12.20703125,244.62890625,-162.109375,0.0
1734413621.4211972,-19.53125,19.04296875,282.2265625,-57.12890625,0.0
1734413621.425102,17.08984375,-28.3203125,254.8828125,115.72265625,0.0
1734413621.4290066,17.08984375,-34.1796875,240.72265625,144.53125,0.0
1734413621.4329114,-22.94921875,-37.59765625,232.421875,-9.765625,0.0
1734413621.436816,-51.7578125,-9.765625,246.58203125,-154.296875,0.0
1734413621.4407208,-29.78515625,-33.203125,239.2578125,-87.40234375,0.0
1734413621.4446254,5.37109375,-73.2421875,163.0859375,98.6328125,0.0
1734413621.44853,4.8828125,62.01171875,290.52734375,149.90234375,0.0
1734413621.4524348,-22.94921875,45.41015625,344.7265625,-6.8359375,0.0
1734413621.4563394,-35.15625,-90.33203125,144.04296875,-146.484375,0.0
1734413621.4602318,-24.4140625,-78.61328125,119.62890625,-105.46875,0.0
1734413621.4641364,-5.859375,31.25,306.15234375,58.10546875,0.0
1734413621.4680412,13.671875,0.48828125,339.35546875,151.3671875,0.0
1734413621.4719458,-7.32421875,-99.12109375,79.58984375,37.109375,0.0
1734413621.4758503,-42.48046875,-58.10546875,39.0625,-110.83984375,0.0
1734413621.4797552,-33.69140625,-6.8359375,202.63671875,-111.81640625,0.0
1734413621.4836597,-5.859375,-2.9296875,215.33203125,43.9453125,0.0
1734413621.4875646,7.32421875,-86.9140625,75.68359375,164.55078125,0.0
1734413621.4914691,-8.30078125,-60.546875,61.5234375,65.91796875,0.0
1734413621.495374,-41.015625,55.6640625,314.94140625,-113.28125,0.0
1734413621.4992785,-42.48046875,-31.25,236.81640625,-144.04296875,0.0
1734413621.5031831,-8.7890625,-33.203125,243.65234375,14.6484375,0.0
1734413621.5070612,17.08984375,10.25390625,309.08203125,137.20703125,0.0
1734413621.5109658,3.41796875,-11.23046875,297.36328125,53.22265625,0.0
1734413621.5148706,-27.83203125,-68.84765625,186.03515625,-113.76953125,0.0
1734413621.5187752,-36.62109375,-64.94140625,150.87890625,-165.0390625,0.0
1734413621.52268,-21.484375,-15.625,256.34765625,-18.06640625,0.0
1734413621.5265846,-3.41796875,-46.38671875,217.7734375,113.76953125,0.0
1734413621.5304894,-14.6484375,-76.171875,167.48046875,49.31640625,0.0
1734413621.534394,-41.50390625,-81.54296875,36.62109375,-127.9296875,0.0
1734413621.5382986,-55.17578125,-2.9296875,109.86328125,-214.35546875,0.0
1734413621.5422034,-31.73828125,16.6015625,292.48046875,-85.9375,0.0
1734413621.546108,-12.6953125,-33.69140625,211.42578125,58.10546875,0.0
1734413621.5500128,-23.4375,-50.29296875,190.4296875,36.1328125,0.0
1734413621.5538676,-44.43359375,-11.71875,270.01953125,-125.48828125,0.0
1734413621.5577724,-58.59375,-13.18359375,293.45703125,-236.328125,0.0
1734413621.561677,-39.55078125,-86.42578125,90.33203125,-124.51171875,0.0
1734413621.5655816,-13.671875,-93.75,51.7578125,33.203125,0.0
1734413621.5694864,-16.6015625,-16.6015625,278.80859375,37.59765625,0.0
1734413621.573391,-45.41015625,-49.31640625,252.44140625,-117.1875,0.0
1734413621.5772958,-63.4765625,-141.11328125,-12.6953125,-237.3046875,0.0
1734413621.5812004,-44.43359375,-62.5,26.85546875,-140.13671875,0.0
1734413621.5851052,-13.671875,69.82421875,380.37109375,19.04296875,0.0
1734413621.5890098,-12.6953125,-29.296875,326.171875,44.921875,0.0
1734413621.5929143,-57.12890625,-71.77734375,275.390625,-117.67578125,0.0
1734413621.5968192,-76.66015625,-44.43359375,250.48828125,-261.23046875,0.0
1734413621.6006663,-47.8515625,-16.11328125,281.73828125,-189.94140625,0.0
1734413621.6045709,-14.16015625,-25.87890625,291.50390625,-12.20703125,0.0
1734413621.6084754,-2.9296875,-55.6640625,261.23046875,44.921875,0.0
1734413621.6123803,-39.0625,-42.48046875,282.2265625,-102.05078125,0.0
1734413621.6162848,-74.21875,-61.03515625,249.0234375,-242.1875,0.0
1734413621.6201897,-68.84765625,-102.05078125,196.2890625,-195.80078125,0.0
1734413621.6240942,-43.45703125,-109.375,55.17578125,-28.80859375,0.0
1734413621.627999,-20.5078125,15.625,176.7578125,40.52734375,0.0
1734413621.6319036,-33.203125,19.53125,303.22265625,-83.0078125,0.0
1734413621.6358082,-56.640625,-73.2421875,186.5234375,-225.5859375,0.0
1734413621.639713,-56.15234375,-46.875,176.7578125,-213.8671875,0.0
1734413621.6436176,-40.0390625,2.9296875,250.0,-49.8046875,0.0
1734413621.647575,-18.5546875,-16.11328125,297.8515625,50.78125,0.0
1734413621.6514797,-24.4140625,-82.03125,164.55078125,-49.31640625,0.0
1734413621.6553843,-50.78125,-99.609375,81.54296875,-189.453125,0.0
1734413621.6592891,-56.640625,-49.31640625,134.27734375,-202.1484375,0.0
1734413621.6631937,-23.92578125,-16.6015625,237.79296875,-53.22265625,0.0
1734413621.6670985,12.6953125,-119.140625,27.83203125,78.61328125,0.0
1734413621.671003,-5.859375,-89.35546875,-69.82421875,3.90625,0.0
1734413621.6749077,-54.6875,52.734375,274.4140625,-171.38671875,0.0
1734413621.6788125,-54.6875,-19.04296875,230.46875,-207.51953125,0.0
1734413621.682717,-19.53125,-40.0390625,214.84375,-38.57421875,0.0
1734413621.686622,-4.8828125,14.6484375,290.52734375,103.515625,0.0
1734413621.6905265,-20.5078125,-1.953125,283.69140625,41.9921875,0.0
1734413621.6944692,-51.7578125,-67.87109375,191.89453125,-128.90625,0.0
1734413621.6983738,-60.546875,-69.3359375,164.0625,-199.21875,0.0
1734413621.7022786,-35.15625,-10.25390625,239.74609375,-62.98828125,0.0
1734413621.7061832,-11.23046875,-4.39453125,285.64453125,86.9140625,0.0
1734413621.7100878,-25.390625,-60.05859375,237.79296875,71.77734375,0.0
1734413621.7139926,-55.17578125,-104.98046875,87.890625,-73.73046875,0.0
1734413621.7178972,-60.546875,-55.17578125,119.140625,-172.8515625,0.0
1734413621.721802,-40.52734375,9.765625,254.39453125,-56.15234375,0.0
1734413621.7257066,-11.71875,-67.87109375,234.375,108.88671875,0.0
1734413621.7296114,-13.671875,-130.859375,80.56640625,113.76953125,0.0
1734413621.733516,-53.22265625,-9.765625,145.5078125,-47.36328125,0.0
1734413621.7374206,-76.66015625,-34.66796875,229.4921875,-174.8046875,0.0
1734413621.7413473,-54.19921875,-82.03125,145.99609375,-75.68359375,0.0
1734413621.7452521,-18.5546875,-54.6875,191.40625,91.30859375,0.0
1734413621.7491567,-12.6953125,-21.484375,281.25,126.953125,0.0
1734413621.7530615,-31.25,-80.56640625,161.62109375,-6.8359375,0.0
1734413621.756966,-50.78125,-97.65625,51.26953125,-131.8359375,0.0
1734413621.760871,-41.015625,-52.734375,65.91796875,-63.96484375,0.0
1734413621.7647755,-6.8359375,4.39453125,181.640625,106.93359375,0.0
1734413621.76868,8.30078125,-2.44140625,257.8125,171.38671875,0.0
1734413621.772585,-12.20703125,-144.04296875,-70.3125,41.50390625,0.0
1734413621.7764895,-42.96875,-87.890625,-141.11328125,-106.93359375,0.0
1734413621.7803943,-41.50390625,50.29296875,247.55859375,-76.66015625,0.0
1734413621.784299,-16.6015625,-32.71484375,209.47265625,93.26171875,0.0
1734413621.7882037,0.0,-53.7109375,175.78125,156.73828125,0.0
1734413621.7921083,0.0,-4.39453125,221.6796875,17.08984375,0.0
1734413621.796013,0.0,-26.3671875,228.02734375,-120.60546875,0.0
1734413621.7999177,0.0,-59.5703125,181.15234375,-105.46875,0.0
1734413621.8038225,0.0,-60.05859375,157.71484375,52.734375,0.0
1734413621.807727,0.0,-55.17578125,189.94140625,149.4140625,0.0
1734413621.811632,0.0,-32.2265625,210.9375,34.66796875,0.0
1734413621.8155365,0.0,-66.40625,213.37890625,-118.1640625,0.0
1734413621.819441,0.0,-117.67578125,14.16015625,-130.859375,0.0
1734413621.823346,0.0,19.53125,150.87890625,22.4609375,0.0
1734413621.8272505,0.0,14.6484375,304.6875,137.20703125,0.0
1734413621.8311553,0.0,-112.3046875,80.078125,42.96875,0.0
1734413621.8350515,-64.453125,-83.49609375,81.0546875,-130.37109375,0.0
1734413621.838956,-72.75390625,0.48828125,254.39453125,-177.24609375,0.0
1734413621.842861,-34.66796875,-30.2734375,262.6953125,-20.99609375,0.0
1734413621.8467655,-1.46484375,-80.078125,141.6015625,112.79296875,0.0
1734413621.85067,-23.4375,-65.91796875,121.09375,48.33984375,0.0
1734413621.854575,-57.6171875,-52.24609375,188.96484375,-101.07421875,0.0
1734413621.8584795,-52.734375,-32.2265625,236.81640625,-156.25,0.0
1734413621.8623843,-0.9765625,-102.05078125,45.41015625,-4.39453125,0.0
1734413621.866289,22.4609375,-70.80078125,52.734375,138.671875,0.0
1734413621.8701937,19.04296875,61.5234375,357.421875,99.12109375,0.0
1734413621.8740983,10.7421875,-32.71484375,254.8828125,-40.0390625,0.0
1734413621.878003,-13.671875,-60.05859375,242.1875,-122.55859375,0.0
1734413621.8821492,-11.23046875,-31.73828125,295.41015625,-11.71875,0.0
1734413621.8860538,28.80859375,-56.15234375,274.90234375,155.76171875,0.0
1734413621.8899584,50.78125,-67.87109375,235.83984375,170.8984375,0.0
1734413621.8938632,18.5546875,-76.171875,179.6875,-0.9765625,0.0
1734413621.8977678,-10.7421875,-61.5234375,163.57421875,-129.39453125,0.0
1734413621.9016726,6.8359375,-75.1953125,121.58203125,-32.71484375,0.0
1734413621.9055772,28.80859375,-74.70703125,149.90234375,111.328125,0.0
1734413621.909482,27.34375,-81.54296875,54.6875,136.71875,0.0
1734413621.9133866,0.48828125,11.71875,119.140625,-2.44140625,0.0
1734413621.9172914,-11.71875,21.484375,260.25390625,-128.41796875,0.0
1734413621.921196,14.6484375,-66.89453125,125.48828125,-63.4765625,0.0
1734413621.9251006,35.64453125,-36.62109375,162.59765625,80.078125,0.0
1734413621.9289596,25.87890625,10.25390625,277.83203125,126.953125,0.0
1734413621.9328642,-3.90625,-31.73828125,243.1640625,-13.671875,0.0
1734413621.9367688,-34.1796875,-104.98046875,67.87109375,-147.4609375,0.0
1734413621.9406736,-17.578125,-93.26171875,42.96875,-99.609375,0.0
1734413621.9445782,20.5078125,-16.6015625,166.9921875,49.8046875,0.0
1734413621.948483,23.4375,-30.76171875,156.25,128.41796875,0.0
1734413621.9523876,-20.01953125,-72.265625,64.453125,12.20703125,0.0
1734413621.9562924,-36.1328125,-17.578125,119.62890625,-136.71875,0.0
1734413621.960197,-14.6484375,26.3671875,258.7890625,-121.09375,0.0
1734413621.9641016,-0.48828125,-11.71875,245.1171875,41.50390625,0.0
1734413621.9680064,10.7421875,-46.38671875,259.765625,135.7421875,0.0
1734413621.971911,-9.27734375,-2.9296875,274.90234375,22.94921875,0.0
1734413621.9757586,-37.109375,-9.27734375,259.27734375,-126.46484375,0.0
1734413621.9796631,-36.1328125,-60.05859375,237.79296875,-155.76171875,0.0
1734413621.983568,-0.48828125,-118.1640625,-9.27734375,-15.625,0.0
1734413621.9874725,19.53125,-18.5546875,83.0078125,94.23828125,0.0
1734413621.9913774,-11.71875,22.4609375,300.29296875,6.8359375,0.0
1734413621.995282,-43.9453125,-97.16796875,146.484375,-137.20703125,0.0
1734413621.9991865,-43.9453125,-121.09375,-35.15625,-167.48046875,0.0
1734413622.0030913,-18.06640625,25.390625,134.765625,-26.85546875,0.0
1734413622.006996,-0.48828125,67.87109375,364.2578125,84.9609375,0.0
1734413622.0109007,-10.25390625,-73.73046875,207.51953125,20.5078125,0.0
1734413622.0148053,-47.36328125,-92.7734375,164.55078125,-127.44140625,0.0
1734413622.0187101,-50.29296875,-14.6484375,248.046875,-184.5703125,0.0
1734413622.0225348,-19.04296875,-14.6484375,287.109375,-63.4765625,0.0
1734413622.0264394,-13.671875,-76.171875,189.94140625,58.59375,0.0
1734413622.0303442,-19.53125,-64.94140625,209.47265625,32.2265625,0.0
1734413622.0342488,-43.9453125,-80.078125,218.26171875,-115.234375,0.0
1734413622.0381534,-66.89453125,-66.40625,227.5390625,-202.63671875,0.0
1734413622.0420582,-32.2265625,-131.8359375,18.06640625,-82.51953125,0.0
1734413622.0459628,-8.30078125,-98.14453125,-38.57421875,53.7109375,0.0
1734413622.0498676,-16.6015625,39.0625,320.3125,37.59765625,0.0
1734413622.0537722,-36.62109375,-61.5234375,235.3515625,-98.14453125,0.0
1734413622.057677,-55.17578125,-96.19140625,96.6796875,-183.10546875,0.0
1734413622.0615816,-22.94921875,1.46484375,174.8046875,-83.0078125,0.0
1734413622.0654862,4.8828125,19.53125,280.76171875,58.10546875,0.0
1734413622.0695605,1.953125,-54.19921875,205.078125,80.56640625,0.0
1734413622.073465,-26.85546875,-66.89453125,157.2265625,-50.78125,0.0
1734413622.07737,-51.26953125,0.48828125,197.265625,-164.55078125,0.0
1734413622.0812745,-34.1796875,19.53125,235.3515625,-111.328125,0.0
1734413622.085179,0.9765625,-38.57421875,208.0078125,42.48046875,0.0
1734413622.089084,3.41796875,-100.09765625,-3.90625,98.6328125,0.0
1734413622.0929885,-28.3203125,-11.23046875,49.8046875,-49.8046875,0.0
1734413622.0968933,-48.828125,31.25,241.2109375,-179.6875,0.0
1734413622.100798,-39.0625,-76.171875,122.55859375,-132.32421875,0.0
1734413622.1047027,-24.4140625,-92.7734375,84.47265625,12.20703125,0.0
1734413622.1086073,-28.3203125,14.6484375,236.81640625,71.2890625,0.0
1734413622.1125119,-44.43359375,-32.2265625,221.6796875,-30.2734375,0.0
1734413622.1165674,-60.05859375,-107.91015625,57.6171875,-140.13671875,0.0
1734413622.120472,-54.19921875,-56.640625,69.82421875,-136.23046875,0.0
1734413622.1243765,-27.34375,-14.16015625,212.40234375,-10.7421875,0.0
1734413622.1282814,-15.13671875,-78.61328125,166.015625,76.171875,0.0
1734413622.132186,-30.2734375,-97.16796875,61.5234375,-23.92578125,0.0
1734413622.1360908,-48.33984375,-61.5234375,47.8515625,-155.76171875,0.0
1734413622.1399953,-58.59375,3.90625,174.31640625,-184.08203125,0.0
1734413622.1439002,-21.484375,9.765625,262.6953125,-47.8515625,0.0
1734413622.1478047,7.8125,-70.3125,189.94140625,72.265625,0.0
1734413622.1517096,-18.5546875,-18.06640625,205.56640625,-23.4375,0.0
1734413622.1556141,-48.33984375,-12.6953125,229.98046875,-169.921875,0.0
1734413622.1595187,-48.33984375,-63.4765625,198.2421875,-194.82421875,0.0
1734413622.1635525,-4.39453125,-108.3984375,20.99609375,-55.17578125,0.0
1734413622.167457,24.90234375,-31.73828125,91.30859375,57.6171875,0.0
1734413622.171362,2.9296875,21.484375,291.50390625,-7.32421875,0.0
1734413622.1752665,-42.48046875,-70.3125,157.71484375,-145.5078125,0.0
1734413622.179171,-59.5703125,-57.6171875,173.828125,-199.70703125,0.0
1734413622.183076,-30.76171875,-38.57421875,189.94140625,-65.91796875,0.0
1734413622.1869805,-8.7890625,-4.39453125,270.5078125,53.22265625,0.0
1734413622.1908853,-7.8125,-48.828125,257.8125,6.34765625,0.0
1734413622.19479,-28.80859375,-92.28515625,172.36328125,-133.7890625,0.0
1734413622.1986947,-62.5,-27.34375,261.23046875,-208.984375,0.0
1734413622.2025993,-53.22265625,-0.9765625,338.8671875,-104.00390625,0.0
1734413622.206504,-20.5078125,-106.4453125,184.08203125,28.3203125,0.0
1734413622.2103872,-12.6953125,-132.32421875,87.890625,29.78515625,0.0
1734413622.2142918,-34.66796875,35.64453125,262.6953125,-113.28125,0.0
1734413622.2181966,-61.03515625,-18.06640625,249.51171875,-222.65625,0.0
1734413622.2221012,-47.8515625,-100.09765625,118.65234375,-132.8125,0.0
1734413622.2260058,-6.8359375,-62.5,125.48828125,9.765625,0.0
1734413622.2299106,-6.34765625,-31.73828125,216.796875,18.06640625,0.0
1734413622.2338152,-43.45703125,-54.6875,161.1328125,-111.81640625,0.0
1734413622.23772,-66.89453125,-53.7109375,107.421875,-221.19140625,0.0
1734413622.2416246,-51.7578125,3.41796875,185.546875,-169.921875,0.0
1734413622.2455294,-21.97265625,7.8125,248.046875,-37.109375,0.0
1734413622.249434,-6.8359375,-23.92578125,293.9453125,4.8828125,0.0
1734413622.2533386,-24.90234375,-150.87890625,-48.828125,-100.09765625,0.0
1734413622.2572103,-45.8984375,-95.21484375,-121.09375,-227.05078125,0.0
1734413622.2611148,-45.8984375,35.15625,265.13671875,-218.26171875,0.0
1734413622.2650197,-25.390625,-50.29296875,187.5,-76.66015625,0.0
1734413622.2689242,-7.32421875,-48.828125,167.48046875,-11.23046875,0.0
1734413622.272829,-32.71484375,-30.76171875,214.84375,-117.67578125,0.0
1734413622.2767336,-63.96484375,-77.63671875,160.15625,-240.234375,0.0
1734413622.2806385,-62.5,-77.63671875,139.16015625,-224.609375,0.0
1734413622.284543,-32.71484375,-85.9375,18.06640625,-62.98828125,0.0
1734413622.2884476,-19.04296875,15.13671875,117.1875,31.25,0.0
1734413622.2923524,-41.9921875,49.31640625,271.97265625,-67.87109375,0.0
1734413622.296257,-58.10546875,-47.8515625,165.52734375,-185.05859375,0.0
1734413622.3001618,-59.08203125,-39.0625,177.734375,-180.6640625,0.0
1734413622.3040178,-34.66796875,16.6015625,297.8515625,-39.55078125,0.0
1734413622.3079224,-15.13671875,-1.46484375,334.9609375,79.1015625,0.0
1734413622.3118272,-34.1796875,-103.515625,89.84375,21.484375,0.0
1734413622.3157318,-59.5703125,-102.05078125,7.32421875,-94.23828125,0.0
1734413622.3196366,-68.359375,-20.99609375,171.38671875,-128.41796875,0.0
1734413622.3235412,-33.69140625,-19.53125,214.35546875,-0.9765625,0.0
1734413622.3274457,-2.9296875,-90.33203125,37.59765625,132.8125,0.0
1734413622.3313506,-18.5546875,-59.5703125,17.578125,80.56640625,0.0
1734413622.3352551,-37.59765625,60.546875,280.76171875,-67.87109375,0.0
1734413622.33916,-38.57421875,-12.6953125,256.34765625,-112.79296875,0.0
1734413622.3430645,-21.484375,-61.03515625,227.5390625,4.39453125,0.0
1734413622.3469694,-4.8828125,-13.18359375,258.30078125,121.09375,0.0
1734413622.3509452,-13.18359375,26.3671875,326.66015625,91.30859375,0.0
1734413622.35485,-18.5546875,-33.69140625,245.1171875,-30.2734375,0.0
1734413622.3587546,-22.94921875,-63.4765625,180.6640625,-80.078125,0.0
1734413622.3626595,-20.01953125,-1.953125,261.23046875,25.390625,0.0
1734413622.366564,-11.23046875,-5.37109375,287.59765625,147.94921875,0.0
1734413622.3704686,-15.13671875,-82.51953125,222.16796875,151.3671875,0.0
1734413622.3743734,-35.64453125,-104.98046875,32.2265625,35.64453125,0.0
1734413622.378278,-52.24609375,8.30078125,121.58203125,-46.875,0.0
1734413622.3821828,-29.296875,29.78515625,296.875,46.875,0.0
1734413622.3860874,4.39453125,-60.05859375,213.37890625,174.8046875,0.0
1734413622.3899922,-6.34765625,-59.08203125,234.86328125,173.33984375,0.0
1734413622.3938968,-29.296875,-10.7421875,271.484375,56.15234375,0.0
1734413622.3977227,-43.45703125,-41.9921875,245.1171875,-43.45703125,0.0
1734413622.4016275,-29.296875,-82.51953125,142.578125,2.44140625,0.0
1734413622.4055321,0.0,-44.921875,169.921875,124.51171875,0.0
1734413622.409437,-5.859375,-31.25,247.55859375,142.08984375,0.0
1734413622.4133415,-33.69140625,-42.48046875,201.66015625,18.06640625,0.0
1734413622.4172463,-49.8046875,-107.421875,28.80859375,-90.33203125,0.0
1734413622.421151,-39.55078125,-55.6640625,51.7578125,-62.01171875,0.0
1734413622.4250557,-12.20703125,40.0390625,275.390625,51.26953125,0.0
1734413622.4289603,2.9296875,-4.8828125,321.77734375,87.40234375,0.0
1734413622.432865,-27.34375,-143.06640625,11.23046875,-23.92578125,0.0
1734413622.4367697,-62.98828125,-99.609375,-105.46875,-153.80859375,0.0
1734413622.4406743,-57.12890625,56.640625,248.046875,-166.9921875,0.0
1734413622.4446096,-30.76171875,-4.8828125,225.09765625,-50.29296875,0.0
1734413622.4485145,-22.94921875,-25.87890625,211.9140625,23.4375,0.0
1734413622.452419,-39.55078125,0.48828125,251.46484375,-77.1484375,0.0
1734413622.4563236,-53.7109375,-13.671875,229.98046875,-200.68359375,0.0
1734413622.4602284,-59.08203125,-57.6171875,159.66796875,-197.265625,0.0
1734413622.464133,-43.9453125,-63.96484375,109.375,-72.75390625,0.0
1734413622.4680378,-31.25,2.9296875,213.37890625,-0.9765625,0.0
1734413622.4719424,-55.17578125,24.90234375,284.66796875,-93.75,0.0
1734413622.4758472,-74.70703125,-76.66015625,139.16015625,-208.49609375,0.0
1734413622.4797518,-69.82421875,-88.8671875,86.9140625,-225.09765625,0.0
1734413622.4836564,-51.7578125,36.62109375,229.98046875,-114.74609375,0.0
1734413622.4875612,-27.83203125,17.08984375,277.34375,-20.99609375,0.0
1734413622.4914885,-34.66796875,-75.68359375,132.32421875,-80.56640625,0.0
1734413622.4953933,-64.94140625,-66.40625,115.72265625,-204.58984375,0.0
1734413622.4992979,-76.171875,-3.41796875,246.58203125,-244.140625,0.0
1734413622.5032027,-49.8046875,-55.6640625,197.75390625,-119.140625,0.0
1734413622.5071073,-17.08984375,-110.83984375,41.50390625,7.32421875,0.0
1734413622.511012,-35.15625,-74.21875,19.04296875,-19.04296875,0.0
1734413622.5149167,-65.4296875,-24.4140625,151.3671875,-155.2734375,0.0
1734413622.5188212,-64.94140625,-27.83203125,217.28515625,-214.84375,0.0
1734413622.522726,-33.203125,-119.62890625,-5.859375,-90.33203125,0.0
1734413622.5266306,-16.11328125,-72.265625,-16.6015625,36.1328125,0.0
1734413622.5305355,-36.62109375,41.50390625,305.17578125,8.7890625,0.0
1734413622.53444,-53.7109375,-52.734375,206.0546875,-124.51171875,0.0
1734413622.5384839,-61.03515625,-64.94140625,177.24609375,-204.1015625,0.0
1734413622.5423887,-45.41015625,6.34765625,240.234375,-110.3515625,0.0
1734413622.5462933,-22.94921875,10.7421875,282.2265625,20.01953125,0.0
1734413622.550198,-23.4375,-54.19921875,212.40234375,20.5078125,0.0
1734413622.5541027,-48.33984375,-87.890625,114.2578125,-100.09765625,0.0
1734413622.5580075,-63.4765625,-63.96484375,103.02734375,-178.22265625,0.0
1734413622.561912,-40.0390625,-8.7890625,153.3203125,-104.98046875,0.0
1734413622.5658166,-14.16015625,-35.64453125,225.5859375,12.20703125,0.0
1734413622.5697215,-15.625,-103.02734375,64.94140625,41.50390625,0.0
1734413622.573626,-39.55078125,-0.48828125,90.8203125,-66.40625,0.0
1734413622.5775309,-53.7109375,3.41796875,197.75390625,-171.38671875,0.0
1734413622.5814354,-36.1328125,-51.7578125,139.16015625,-121.58203125,0.0
1734413622.585458,-9.27734375,-12.20703125,187.98828125,16.11328125,0.0
1734413622.5893626,-11.23046875,18.06640625,281.25,62.5,0.0
1734413622.5932674,-38.0859375,-30.76171875,245.60546875,-46.875,0.0
1734413622.597172,-55.17578125,-92.7734375,90.8203125,-150.87890625,0.0
1734413622.6010766,-63.4765625,-76.66015625,105.95703125,-130.37109375,0.0
1734413622.6049814,-51.26953125,-58.10546875,200.1953125,2.9296875,0.0
1734413622.608886,-33.69140625,-53.7109375,227.05078125,75.68359375,0.0
1734413622.6127908,-41.9921875,-75.1953125,143.06640625,-22.4609375,0.0
1734413622.6166954,-57.12890625,-39.0625,131.34765625,-141.11328125,0.0
1734413622.6206002,-54.19921875,-10.7421875,219.23828125,-144.04296875,0.0
1734413622.6245048,-32.71484375,-35.15625,257.32421875,-22.4609375,0.0
1734413622.6284096,-21.484375,-149.90234375,21.97265625,72.75390625,0.0
1734413622.6324162,-58.59375,-114.74609375,-84.9609375,-10.25390625,0.0
1734413622.636321,-85.9375,30.76171875,244.62890625,-141.6015625,0.0
1734413622.6402256,-75.68359375,-54.6875,184.5703125,-146.484375,0.0
1734413622.6441305,-40.52734375,-76.66015625,140.625,-9.765625,0.0
1734413622.648035,-10.25390625,-36.1328125,237.3046875,87.890625,0.0
1734413622.6519399,-17.08984375,-62.01171875,175.29296875,24.90234375,0.0
1734413622.6558444,-24.90234375,-84.47265625,122.0703125,-88.37890625,0.0
1734413622.6597493,-45.41015625,-61.03515625,131.34765625,-135.25390625,0.0
1734413622.6636539,-37.109375,-2.44140625,212.40234375,-29.296875,0.0
1734413622.6675587,7.8125,-16.6015625,289.0625,90.33203125,0.0
1734413622.6714633,11.71875,-111.328125,176.7578125,61.5234375,0.0
1734413622.6753678,-29.78515625,-143.06640625,-30.2734375,-84.9609375,0.0
1734413622.6792197,-46.875,-0.48828125,125.9765625,-161.1328125,0.0
1734413622.6831245,-11.23046875,-11.71875,282.71484375,-40.52734375,0.0
1734413622.6870291,21.97265625,-98.6328125,161.62109375,83.49609375,0.0
1734413622.690934,1.953125,-103.515625,85.44921875,41.015625,0.0
1734413622.6948385,-42.96875,-68.359375,130.37109375,-107.421875,0.0
1734413622.698743,-54.19921875,-87.40234375,110.3515625,-174.31640625,0.0
1734413622.702648,-16.6015625,-64.453125,112.3046875,-67.3828125,0.0
1734413622.7065525,6.8359375,-4.39453125,231.93359375,37.109375,0.0
1734413622.7104573,-6.8359375,-12.20703125,259.765625,17.578125,0.0
1734413622.714362,-21.484375,-48.828125,221.19140625,-86.42578125,0.0
1734413622.7182667,-24.90234375,-158.203125,-12.20703125,-151.85546875,0.0
1734413622.7221713,-16.11328125,-83.49609375,-11.71875,-86.9140625,0.0
1734413622.7260127,0.9765625,43.45703125,320.3125,17.08984375,0.0
1734413622.7299175,13.18359375,-35.15625,253.90625,35.64453125,0.0
1734413622.733822,-4.8828125,-65.91796875,184.08203125,-59.5703125,0.0
1734413622.737727,-29.78515625,-28.80859375,237.79296875,-148.92578125,0.0
1734413622.7416315,-19.53125,-45.41015625,196.77734375,-96.19140625,0.0
1734413622.7455363,8.7890625,-83.984375,168.9453125,22.94921875,0.0
1734413622.749441,13.18359375,-102.05078125,28.80859375,55.6640625,0.0
1734413622.7533457,-19.04296875,3.90625,108.3984375,-60.546875,0.0
1734413622.7572503,-39.55078125,48.828125,305.17578125,-169.921875,0.0
1734413622.7611551,-24.90234375,-67.87109375,178.7109375,-139.6484375,0.0
1734413622.7650597,-0.9765625,-73.2421875,157.2265625,-23.4375,0.0
1734413622.7689643,11.71875,-10.25390625,228.515625,39.55078125,0.0
1734413622.7727852,-15.13671875,-25.390625,238.28125,-60.546875,0.0
1734413622.7766898,-38.57421875,-109.86328125,40.0390625,-172.36328125,0.0
1734413622.7805946,-22.4609375,-103.515625,3.90625,-162.59765625,0.0
1734413622.7844992,-1.46484375,-35.15625,156.73828125,-48.33984375,0.0
1734413622.788404,9.27734375,-22.94921875,198.73046875,33.69140625,0.0
1734413622.7923086,1.46484375,-131.8359375,-58.10546875,-34.1796875,0.0
1734413622.7962134,-25.390625,-97.65625,-117.1875,-150.87890625,0.0
1734413622.800118,-32.71484375,56.640625,248.53515625,-185.546875,0.0
1734413622.8040228,-13.18359375,-25.87890625,176.26953125,-80.078125,0.0
1734413622.8079274,-8.30078125,-55.6640625,166.50390625,12.6953125,0.0
1734413622.8118322,-22.4609375,-13.18359375,209.47265625,-53.7109375,0.0
1734413622.8157368,-39.0625,-9.27734375,205.078125,-173.828125,0.0
1734413622.8198133,-31.25,-51.26953125,173.33984375,-202.63671875,0.0
1734413622.8237178,-20.5078125,-54.6875,177.24609375,-83.49609375,0.0
1734413622.8276227,-20.99609375,-5.37109375,254.39453125,3.90625,0.0
1734413622.8315272,-22.4609375,-16.6015625,248.046875,-55.17578125,0.0
1734413622.835432,-44.921875,-73.2421875,144.04296875,-167.96875,0.0
1734413622.8393366,-52.24609375,-110.83984375,48.828125,-217.28515625,0.0
1734413622.8432415,-38.0859375,-13.18359375,169.921875,-129.39453125,0.0
1734413622.847146,-18.5546875,51.26953125,300.29296875,-21.484375,0.0
1734413622.8510509,-12.20703125,-68.84765625,183.10546875,-21.97265625,0.0
1734413622.8549554,-32.2265625,-94.7265625,79.1015625,-129.8828125,0.0
1734413622.8588603,-41.9921875,13.18359375,150.390625,-199.70703125,0.0
1734413622.8627648,-21.484375,-11.71875,141.6015625,-107.91015625,0.0
1734413622.866689,-9.27734375,-36.1328125,79.1015625,15.625,0.0
1734413622.8705938,-15.625,-2.9296875,96.6796875,6.8359375,0.0
1734413622.8744984,-28.3203125,14.6484375,174.8046875,-115.72265625,0.0
1734413622.878403,-33.69140625,-56.15234375,104.4921875,-193.359375,0.0
1734413622.8823078,-23.92578125,-66.89453125,-3.90625,-131.34765625,0.0
1734413622.8862123,-8.7890625,-38.57421875,30.76171875,-22.94921875,0.0
1734413622.8901172,-0.48828125,15.13671875,190.4296875,0.9765625,0.0
1734413622.8940217,-13.18359375,12.6953125,242.1875,-94.23828125,0.0
1734413622.8979266,-45.41015625,-63.4765625,117.67578125,-184.08203125,0.0
1734413622.9018312,-46.38671875,-5.37109375,145.01953125,-158.203125,0.0
1734413622.905736,-10.25390625,29.78515625,268.5546875,-46.875,0.0
1734413622.9096406,4.39453125,-13.671875,292.96875,3.90625,0.0
1734413622.9135509,-26.3671875,-125.9765625,-17.578125,-83.49609375,0.0
1734413622.9174557,-55.6640625,-85.9375,-36.1328125,-190.4296875,0.0
1734413622.9213603,-55.17578125,28.3203125,298.828125,-196.77734375,0.0
1734413622.925265,-34.1796875,-18.5546875,242.67578125,-95.21484375,0.0
1734413622.9291697,-27.34375,-58.59375,189.453125,-67.3828125,0.0
1734413622.9330745,-45.41015625,-87.40234375,161.1328125,-186.03515625,0.0
1734413622.936979,-70.80078125,-57.12890625,185.546875,-297.8515625,0.0
1734413622.9408839,-68.359375,-50.29296875,205.56640625,-299.31640625,0.0
1734413622.9447885,-48.33984375,-98.6328125,38.57421875,-175.29296875,0.0
1734413622.9486933,-46.38671875,28.80859375,176.26953125,-111.81640625,0.0
1734413622.9525979,-49.31640625,34.66796875,304.19921875,-189.453125,0.0
1734413622.9565024,-61.03515625,-80.56640625,153.80859375,-298.33984375,0.0
1734413622.9603882,-69.3359375,-70.3125,131.8359375,-326.171875,0.0
1734413622.964293,-49.31640625,-1.953125,226.5625,-220.21484375,0.0
1734413622.9681976,-37.59765625,-8.30078125,278.80859375,-126.953125,0.0
1734413622.9721024,-55.6640625,-82.51953125,93.26171875,-189.453125,0.0
1734413622.976007,-62.98828125,-85.9375,12.6953125,-314.94140625,0.0
1734413622.9799116,-69.82421875,-42.96875,101.07421875,-349.609375,0.0
1734413622.9838164,-62.01171875,-30.76171875,142.578125,-238.28125,0.0
1734413622.987721,-41.50390625,-97.16796875,-53.7109375,-127.9296875,0.0
1734413622.9916258,-49.8046875,-72.75390625,-132.32421875,-165.52734375,0.0
1734413622.9955304,-67.87109375,60.546875,211.42578125,-295.41015625,0.0
1734413622.9994352,-67.87109375,-24.90234375,168.9453125,-336.9140625,0.0
1734413623.0033398,-53.7109375,-60.546875,57.12890625,-223.14453125,0.0
1734413623.0072122,-34.66796875,12.6953125,156.73828125,-110.3515625,0.0
1734413623.011117,-38.0859375,-9.765625,241.69921875,-123.53515625,0.0
1734413623.0150216,-61.5234375,-86.9140625,123.046875,-226.5625,0.0
1734413623.0189264,-75.1953125,-72.75390625,107.421875,-278.3203125,0.0
1734413623.022831,-59.5703125,-18.06640625,174.8046875,-170.41015625,0.0
1734413623.0267355,-24.4140625,-58.59375,147.94921875,-27.34375,0.0
1734413623.0306404,-16.11328125,-92.7734375,135.25390625,-0.48828125,0.0
1734413623.034545,-39.55078125,-116.69921875,-22.4609375,-88.8671875,0.0
1734413623.0384498,-45.41015625,1.953125,95.21484375,-150.87890625,0.0
1734413623.0423543,-26.85546875,36.1328125,278.3203125,-70.3125,0.0
1734413623.0462592,-15.625,-68.84765625,188.96484375,45.8984375,0.0
1734413623.0501637,-20.99609375,-82.51953125,192.87109375,69.82421875,0.0
1734413623.054285,-39.55078125,-34.66796875,240.234375,-30.76171875,0.0
1734413623.0581899,-42.48046875,-47.8515625,245.60546875,-119.140625,0.0
1734413623.0620944,-23.92578125,-100.09765625,152.34375,-51.26953125,0.0
1734413623.0659993,-10.7421875,-92.7734375,103.02734375,80.078125,0.0
1734413623.0699039,-15.625,-33.203125,191.40625,109.86328125,0.0
1734413623.0738087,-28.80859375,-48.33984375,246.09375,21.97265625,0.0
1734413623.0777133,-40.0390625,-147.94921875,-2.9296875,-52.734375,0.0
1734413623.0816178,-37.109375,-99.609375,-41.50390625,-20.5078125,0.0
1734413623.0855227,-12.20703125,66.89453125,317.87109375,88.37890625,0.0
1734413623.0894272,1.46484375,-14.6484375,289.55078125,146.484375,0.0
1734413623.093332,-26.3671875,-62.98828125,250.9765625,61.03515625,0.0
1734413623.0972366,-56.15234375,-8.30078125,288.57421875,-47.8515625,0.0
1734413623.1010675,-56.640625,-2.9296875,315.4296875,-60.05859375,0.0
1734413623.1049721,-37.59765625,-56.15234375,256.8359375,48.33984375,0.0
1734413623.108877,-19.04296875,-60.05859375,234.86328125,108.88671875,0.0
1734413623.1127815,-37.109375,-5.859375,277.83203125,19.53125,0.0
1734413623.1166863,-60.546875,-35.15625,246.58203125,-97.65625,0.0
1734413623.120591,-64.94140625,-97.16796875,154.296875,-135.25390625,0.0
1734413623.1244957,-54.6875,-59.08203125,139.16015625,-46.875,0.0
1734413623.1284003,-39.0625,20.5078125,248.046875,28.80859375,0.0
1734413623.132305,-34.1796875,3.41796875,274.90234375,-59.08203125,0.0
1734413623.1362097,-53.22265625,-99.609375,137.6953125,-194.82421875,0.0
1734413623.1401143,-89.84375,-105.95703125,50.29296875,-257.8125,0.0
1734413623.1440191,-83.984375,0.48828125,159.66796875,-197.265625,0.0
1734413623.1478405,-57.6171875,-26.85546875,177.734375,-131.34765625,0.0
1734413623.151745,-64.453125,-130.859375,-33.203125,-204.1015625,0.0
1734413623.15565,-80.078125,-103.515625,-166.50390625,-334.47265625,0.0
1734413623.1595545,-87.890625,15.625,39.0625,-412.109375,0.0
1734413623.163459,-78.125,0.48828125,150.390625,-344.7265625,0.0
1734413623.167364,-56.15234375,-99.12109375,-36.1328125,-227.5390625,0.0
1734413623.1712685,-42.48046875,-57.12890625,-49.8046875,-228.02734375,0.0
1734413623.1751733,-66.89453125,53.7109375,225.5859375,-335.44921875,0.0
1734413623.1790779,-76.66015625,-21.97265625,208.984375,-390.625,0.0
1734413623.1829827,-51.7578125,-104.00390625,51.7578125,-284.1796875,0.0
1734413623.1868873,-41.9921875,-33.69140625,85.44921875,-147.4609375,0.0
1734413623.190792,-41.015625,20.99609375,244.62890625,-139.16015625,0.0
1734413623.194734,-53.7109375,-59.5703125,157.2265625,-230.46875,0.0
