timestamps,TP9,AF7,AF8,TP10,Right AUX
1734581528.7822063,-35.15625,-36.1328125,311.03515625,-28.3203125,0.0
1734581528.7860658,-39.0625,-39.0625,-415.0390625,-31.73828125,0.0
1734581528.7899253,-44.921875,-37.59765625,-276.85546875,-26.85546875,0.0
1734581528.7937849,-41.015625,-43.9453125,-159.1796875,-22.4609375,0.0
1734581528.7976446,-44.921875,-47.8515625,-94.23828125,-33.69140625,0.0
1734581528.8015041,-50.29296875,-41.9921875,-69.3359375,-39.0625,0.0
1734581528.8053637,-42.96875,-44.921875,-89.84375,-38.0859375,0.0
1734581528.8080676,-38.0859375,-38.57421875,-80.078125,-33.69140625,0.0
1734581528.8118308,-40.52734375,-30.76171875,-20.99609375,-24.4140625,0.0
1734581528.8155942,-51.7578125,-36.1328125,-32.2265625,-31.73828125,0.0
1734581528.8193574,-60.05859375,-41.015625,-64.94140625,-42.48046875,0.0
1734581528.8231206,-50.29296875,-34.1796875,-39.0625,-42.48046875,0.0
1734581528.8268838,-42.48046875,-37.59765625,-51.7578125,-33.203125,0.0
1734581528.8306472,-36.62109375,-37.59765625,-45.8984375,-30.76171875,0.0
1734581528.8344104,-30.76171875,-33.69140625,-71.77734375,-28.3203125,0.0
1734581528.8381736,-33.69140625,-40.52734375,-53.7109375,-27.34375,0.0
1734581528.8419368,-37.59765625,-28.80859375,46.875,-39.55078125,0.0
1734581528.8457003,-44.921875,-25.390625,0.9765625,-48.33984375,0.0
1734581528.8494635,-43.9453125,-28.80859375,-41.015625,-47.8515625,0.0
1734581528.8503783,-41.50390625,-29.296875,-14.16015625,-42.96875,0.0
1734581528.854023,-43.9453125,-38.0859375,1.953125,-45.41015625,0.0
1734581528.8576674,-40.0390625,-39.55078125,-24.90234375,-45.8984375,0.0
1734581528.8613122,-37.109375,-38.57421875,-43.45703125,-42.96875,0.0
1734581528.8649566,-43.45703125,-34.66796875,-26.3671875,-41.9921875,0.0
1734581528.8686013,-43.45703125,-26.3671875,-41.9921875,-39.0625,0.0
1734581528.8722458,-36.1328125,-25.87890625,-58.10546875,-26.3671875,0.0
1734581528.8758905,-31.25,-31.25,-83.0078125,-16.6015625,0.0
1734581528.879535,-29.296875,-29.296875,-0.9765625,-20.01953125,0.0
1734581528.8831797,-25.87890625,-24.4140625,24.4140625,-25.87890625,0.0
1734581528.8868241,-20.99609375,-32.2265625,-36.1328125,-22.4609375,0.0
1734581528.8904688,-25.390625,-37.109375,-15.625,-22.94921875,0.0
1734581528.890239,-31.25,-38.0859375,21.484375,-30.76171875,0.0
1734581528.8937762,-24.90234375,-31.73828125,9.765625,-28.80859375,0.0
1734581528.897313,-25.87890625,-27.34375,-42.96875,-25.87890625,0.0
1734581528.90085,-26.3671875,-23.4375,-28.80859375,-24.4140625,0.0
1734581528.904387,-23.4375,-23.92578125,-11.71875,-19.53125,0.0
1734581528.907924,-21.97265625,-27.34375,-32.71484375,-13.671875,0.0
1734581528.9114609,-15.625,-23.4375,-97.16796875,-11.23046875,0.0
1734581528.9149978,-18.06640625,-18.06640625,-73.73046875,-16.11328125,0.0
1734581528.9185348,-31.73828125,-20.5078125,33.203125,-27.83203125,0.0
1734581528.9220717,-31.25,-24.90234375,1.953125,-33.69140625,0.0
1734581528.9256086,-24.90234375,-24.90234375,-28.80859375,-31.73828125,0.0
1734581528.9291458,-22.4609375,-22.4609375,-10.25390625,-31.73828125,0.0
1734581528.9289424,-18.06640625,-21.97265625,-17.578125,-32.2265625,0.0
1734581528.9324017,-21.484375,-27.34375,-60.05859375,-29.78515625,0.0
1734581528.9358606,-27.83203125,-35.15625,-47.8515625,-31.73828125,0.0
1734581528.9393196,-26.3671875,-32.2265625,-1.953125,-35.15625,0.0
1734581528.9427786,-31.73828125,-33.69140625,-7.8125,-37.59765625,0.0
1734581528.9462378,-35.15625,-37.59765625,-68.359375,-33.69140625,0.0
1734581528.9496968,-35.15625,-29.78515625,-96.6796875,-26.3671875,0.0
1734581528.9531558,-40.0390625,-29.78515625,-43.9453125,-34.1796875,0.0
1734581528.956615,-42.96875,-28.80859375,-2.9296875,-42.48046875,0.0
1734581528.960074,-34.1796875,-26.3671875,-39.55078125,-35.15625,0.0
1734581528.963533,-30.76171875,-34.66796875,-51.7578125,-27.34375,0.0
1734581528.966992,-34.1796875,-37.109375,0.0,-33.69140625,0.0
1734581528.967526,-39.0625,-34.1796875,-9.765625,-38.57421875,0.0
1734581528.9709363,-39.55078125,-36.1328125,-51.7578125,-39.55078125,0.0
1734581528.9743466,-43.9453125,-41.50390625,-42.96875,-43.9453125,0.0
1734581528.9777567,-49.31640625,-41.015625,-24.90234375,-44.43359375,0.0
1734581528.981167,-44.43359375,-29.78515625,-41.50390625,-42.96875,0.0
1734581528.9845774,-36.62109375,-26.85546875,-114.74609375,-30.76171875,0.0
1734581528.9879878,-34.66796875,-35.15625,-89.35546875,-32.71484375,0.0
1734581528.991398,-39.55078125,-37.109375,14.16015625,-42.96875,0.0
1734581528.9948082,-38.0859375,-36.62109375,-21.97265625,-33.69140625,0.0
1734581528.9982185,-36.1328125,-30.76171875,-49.31640625,-35.64453125,0.0
1734581529.0016289,-38.0859375,-27.34375,-23.4375,-37.109375,0.0
1734581529.0050392,-37.109375,-35.64453125,-5.37109375,-30.2734375,0.0
1734581529.00879,-40.0390625,-32.2265625,-33.203125,-34.66796875,0.0
1734581529.0122051,-41.9921875,-24.4140625,-48.828125,-41.015625,0.0
1734581529.01562,-40.0390625,-27.83203125,-21.484375,-39.0625,0.0
1734581529.019035,-38.0859375,-31.73828125,-8.30078125,-32.71484375,0.0
1734581529.02245,-33.69140625,-31.73828125,-36.1328125,-31.73828125,0.0
1734581529.025865,-37.59765625,-30.2734375,-66.89453125,-30.76171875,0.0
1734581529.0292802,-36.62109375,-30.2734375,-35.15625,-26.85546875,0.0
1734581529.032695,-34.1796875,-33.203125,-12.6953125,-27.83203125,0.0
1734581529.0361102,-35.15625,-35.64453125,-42.96875,-25.87890625,0.0
1734581529.0395253,-37.109375,-36.1328125,-60.05859375,-30.2734375,0.0
1734581529.0429401,-45.41015625,-32.2265625,0.0,-41.50390625,0.0
1734581529.0463552,-45.8984375,-33.203125,4.39453125,-41.015625,0.0
1734581529.0505576,-47.36328125,-35.15625,-46.38671875,-37.59765625,0.0
1734581529.053982,-53.7109375,-32.2265625,-57.12890625,-40.52734375,0.0
1734581529.0574064,-57.12890625,-31.73828125,-31.73828125,-47.8515625,0.0
1734581529.0608306,-54.19921875,-30.2734375,-32.71484375,-46.875,0.0
1734581529.064255,-55.17578125,-31.25,-61.03515625,-41.9921875,0.0
1734581529.0676794,-61.03515625,-26.85546875,-74.21875,-44.921875,0.0
1734581529.0711038,-62.98828125,-20.99609375,-43.45703125,-45.41015625,0.0
1734581529.0745282,-54.6875,-23.92578125,-17.578125,-42.96875,0.0
1734581529.0779526,-44.43359375,-26.85546875,-111.81640625,-34.1796875,0.0
1734581529.081377,-36.62109375,-31.73828125,-105.95703125,-33.69140625,0.0
1734581529.0848014,-36.1328125,-40.52734375,-13.18359375,-41.015625,0.0
1734581529.0882258,-35.64453125,-33.203125,-28.80859375,-37.109375,0.0
1734581529.0928452,-37.109375,-35.64453125,-37.59765625,-36.62109375,0.0
1734581529.096282,-32.71484375,-35.64453125,-22.4609375,-33.203125,0.0
1734581529.0997188,-25.390625,-20.5078125,-18.5546875,-27.83203125,0.0
1734581529.1031559,-25.87890625,-25.390625,-41.015625,-21.484375,0.0
1734581529.1065927,-24.4140625,-28.80859375,-64.453125,-19.53125,0.0
1734581529.1100295,-24.90234375,-28.3203125,-71.2890625,-26.3671875,0.0
1734581529.1134663,-32.2265625,-40.52734375,-53.22265625,-35.15625,0.0
1734581529.116903,-38.57421875,-41.015625,-67.3828125,-40.52734375,0.0
1734581529.1203399,-39.55078125,-37.59765625,-98.6328125,-36.1328125,0.0
1734581529.1237767,-39.55078125,-32.2265625,0.0,-32.71484375,0.0
1734581529.1272137,-38.0859375,-24.90234375,12.6953125,-29.78515625,0.0
1734581529.1306505,-33.69140625,-26.3671875,-54.6875,-27.34375,0.0
1734581529.1354375,-33.203125,-36.1328125,-35.15625,-26.3671875,0.0
1734581529.138887,-40.0390625,-38.57421875,-33.203125,-29.296875,0.0
1734581529.1423364,-44.921875,-36.62109375,-31.73828125,-30.2734375,0.0
1734581529.1457856,-46.38671875,-41.50390625,-41.50390625,-27.34375,0.0
1734581529.149235,-45.41015625,-35.15625,-40.0390625,-33.69140625,0.0
1734581529.1526842,-40.0390625,-35.64453125,-48.828125,-43.45703125,0.0
1734581529.1561337,-45.8984375,-46.875,-50.78125,-48.33984375,0.0
1734581529.159583,-49.8046875,-43.9453125,-95.703125,-37.59765625,0.0
1734581529.1630323,-41.015625,-34.1796875,-85.44921875,-28.80859375,0.0
1734581529.1664817,-44.921875,-25.390625,12.6953125,-42.48046875,0.0
1734581529.169931,-40.52734375,-24.90234375,-25.87890625,-47.8515625,0.0
1734581529.1733804,-36.1328125,-31.73828125,-44.921875,-42.48046875,0.0
1734581529.178533,-40.0390625,-35.15625,-17.578125,-41.015625,0.0
1734581529.1819966,-41.9921875,-42.48046875,-9.765625,-45.41015625,0.0
1734581529.1854603,-31.25,-37.109375,-42.48046875,-36.1328125,0.0
1734581529.1889238,-30.2734375,-28.80859375,-62.01171875,-29.296875,0.0
1734581529.1923873,-35.15625,-38.57421875,-50.78125,-33.69140625,0.0
1734581529.1958508,-36.1328125,-44.921875,-58.10546875,-35.15625,0.0
1734581529.1993144,-43.9453125,-39.55078125,-76.171875,-40.0390625,0.0
1734581529.2027779,-41.50390625,-33.203125,-111.328125,-38.0859375,0.0
1734581529.2062414,-34.1796875,-32.2265625,-22.94921875,-42.48046875,0.0
1734581529.209705,-30.2734375,-38.57421875,17.08984375,-41.015625,0.0
1734581529.2131686,-30.76171875,-38.57421875,-45.41015625,-33.203125,0.0
1734581529.2166321,-32.2265625,-29.296875,-45.8984375,-33.69140625,0.0
1734581529.2217932,-26.85546875,-27.34375,-17.08984375,-30.76171875,0.0
1734581529.2252696,-28.80859375,-30.2734375,-23.92578125,-29.78515625,0.0
1734581529.2287462,-36.1328125,-29.78515625,-65.91796875,-26.85546875,0.0
1734581529.2322226,-33.203125,-34.66796875,-44.43359375,-29.78515625,0.0
1734581529.235699,-36.1328125,-41.015625,-25.87890625,-35.64453125,0.0
1734581529.2391753,-40.0390625,-38.57421875,-66.40625,-36.1328125,0.0
1734581529.2426517,-36.62109375,-39.0625,-124.51171875,-31.25,0.0
1734581529.246128,-38.0859375,-48.33984375,-117.67578125,-28.3203125,0.0
1734581529.2496045,-39.55078125,-43.9453125,-4.39453125,-36.1328125,0.0
1734581529.2530808,-35.64453125,-32.71484375,1.953125,-31.73828125,0.0
1734581529.2565572,-32.2265625,-31.73828125,-30.76171875,-21.97265625,0.0
1734581529.2600336,-27.34375,-28.80859375,-18.5546875,-19.04296875,0.0
1734581529.265454,-24.4140625,-24.4140625,-5.37109375,-20.99609375,0.0
1734581529.268944,-35.15625,-28.80859375,-25.87890625,-22.94921875,0.0
1734581529.272434,-40.0390625,-39.55078125,-46.875,-23.4375,0.0
1734581529.275924,-41.50390625,-39.0625,-21.484375,-27.83203125,0.0
1734581529.2794137,-41.50390625,-33.69140625,-27.83203125,-30.2734375,0.0
1734581529.2829037,-38.57421875,-29.78515625,-66.40625,-28.80859375,0.0
1734581529.2863936,-38.0859375,-34.66796875,-91.796875,-23.92578125,0.0
1734581529.2898834,-30.76171875,-38.57421875,-48.33984375,-22.4609375,0.0
1734581529.2933733,-33.69140625,-38.57421875,-3.41796875,-23.4375,0.0
1734581529.2968633,-34.66796875,-39.0625,-47.36328125,-25.87890625,0.0
1734581529.300353,-26.85546875,-29.78515625,-72.265625,-26.85546875,0.0
1734581529.303843,-31.73828125,-29.296875,-34.1796875,-27.34375,0.0
1734581529.3093097,-29.78515625,-35.64453125,-11.23046875,-23.4375,0.0
1734581529.3128123,-30.76171875,-31.73828125,-38.57421875,-21.484375,0.0
1734581529.316315,-36.1328125,-36.1328125,-50.78125,-27.83203125,0.0
1734581529.3198175,-34.66796875,-35.15625,-20.01953125,-24.90234375,0.0
1734581529.32332,-33.203125,-25.390625,-28.80859375,-26.3671875,0.0
1734581529.3268225,-30.2734375,-22.94921875,-98.14453125,-21.97265625,0.0
1734581529.3303251,-38.57421875,-28.3203125,-91.796875,-21.484375,0.0
1734581529.3338277,-48.33984375,-33.69140625,-13.18359375,-32.71484375,0.0
1734581529.3373303,-41.50390625,-32.71484375,-17.08984375,-32.71484375,0.0
1734581529.340833,-31.73828125,-36.1328125,-66.40625,-27.34375,0.0
1734581529.3443356,-29.78515625,-35.64453125,-37.59765625,-25.390625,0.0
1734581529.347838,-31.73828125,-31.73828125,1.953125,-29.78515625,0.0
1734581529.3548784,-32.71484375,-29.296875,-22.94921875,-33.69140625,0.0
1734581529.358402,-33.203125,-27.34375,-52.734375,-32.71484375,0.0
1734581529.3619256,-31.73828125,-29.296875,-25.87890625,-34.66796875,0.0
1734581529.3654494,-33.69140625,-26.3671875,13.18359375,-36.1328125,0.0
1734581529.368973,-34.66796875,-23.92578125,-37.59765625,-34.1796875,0.0
1734581529.3724966,-25.390625,-27.83203125,-86.42578125,-28.3203125,0.0
1734581529.3760202,-22.94921875,-37.109375,-48.33984375,-31.73828125,0.0
1734581529.3795438,-27.83203125,-42.48046875,2.9296875,-37.59765625,0.0
1734581529.3830676,-23.92578125,-36.62109375,-25.390625,-31.73828125,0.0
1734581529.3865912,-21.97265625,-15.625,-60.05859375,-16.6015625,0.0
1734581529.3901148,-24.4140625,-9.27734375,10.7421875,-20.5078125,0.0
1734581529.3936384,-21.484375,-19.04296875,17.08984375,-31.73828125,0.0
1734581529.4005065,-23.92578125,-22.4609375,-42.48046875,-34.66796875,0.0
1734581529.4040487,-27.83203125,-24.90234375,-34.66796875,-38.57421875,0.0
1734581529.407591,-28.80859375,-30.2734375,-5.859375,-44.43359375,0.0
1734581529.4111333,-21.484375,-29.296875,-23.92578125,-42.48046875,0.0
1734581529.4146755,-22.94921875,-32.71484375,-56.640625,-41.015625,0.0
1734581529.4182177,-20.01953125,-38.0859375,-65.91796875,-39.0625,0.0
1734581529.4217598,-23.4375,-25.390625,-51.26953125,-32.71484375,0.0
1734581529.425302,-29.296875,-17.578125,-10.7421875,-29.78515625,0.0
1734581529.4288442,-32.2265625,-24.90234375,-72.75390625,-31.25,0.0
1734581529.4323864,-40.0390625,-33.69140625,-82.51953125,-31.73828125,0.0
1734581529.4359286,-48.33984375,-40.52734375,29.78515625,-42.48046875,0.0
1734581529.439471,-48.828125,-39.55078125,-9.27734375,-47.36328125,0.0
1734581529.44618,-41.50390625,-34.1796875,-38.57421875,-41.015625,0.0
1734581529.449739,-41.015625,-30.2734375,-13.671875,-41.015625,0.0
1734581529.4532976,-38.57421875,-27.83203125,-17.08984375,-39.0625,0.0
1734581529.4568563,-33.203125,-30.2734375,-45.41015625,-37.59765625,0.0
1734581529.460415,-25.87890625,-29.296875,-63.4765625,-34.66796875,0.0
1734581529.4639738,-32.2265625,-36.1328125,-59.08203125,-32.71484375,0.0
1734581529.4675324,-38.0859375,-41.9921875,-42.48046875,-35.15625,0.0
1734581529.471091,-24.4140625,-42.96875,-43.9453125,-30.76171875,0.0
1734581529.47465,-25.390625,-39.0625,-69.82421875,-25.390625,0.0
1734581529.4782085,-24.90234375,-33.203125,-1.46484375,-30.2734375,0.0
1734581529.4817672,-25.390625,-31.25,26.3671875,-34.1796875,0.0
1734581529.485326,-27.83203125,-30.2734375,-33.203125,-36.1328125,0.0
1734581529.4917514,-23.4375,-32.71484375,-44.921875,-41.015625,0.0
1734581529.4953241,-20.99609375,-34.66796875,-6.8359375,-38.57421875,0.0
1734581529.4988968,-23.92578125,-28.80859375,-12.6953125,-36.62109375,0.0
1734581529.5024698,-25.87890625,-36.1328125,-56.15234375,-37.109375,0.0
1734581529.5060425,-35.64453125,-39.0625,-52.734375,-32.2265625,0.0
1734581529.5096152,-38.57421875,-24.4140625,-55.6640625,-29.78515625,0.0
1734581529.513188,-31.73828125,-21.484375,-43.9453125,-33.69140625,0.0
1734581529.5167608,-28.3203125,-27.83203125,-91.30859375,-28.80859375,0.0
1734581529.5203335,-35.64453125,-29.78515625,-83.49609375,-22.94921875,0.0
1734581529.5239062,-50.29296875,-25.390625,30.2734375,-31.73828125,0.0
1734581529.527479,-45.8984375,-25.390625,-3.41796875,-34.1796875,0.0
1734581529.5310519,-34.1796875,-32.2265625,-46.875,-33.69140625,0.0
1734581529.5374413,-28.80859375,-35.64453125,-12.6953125,-34.1796875,0.0
1734581529.541027,-33.203125,-30.2734375,7.32421875,-27.34375,0.0
1734581529.544613,-32.71484375,-22.4609375,-37.109375,-20.5078125,0.0
1734581529.5481987,-30.76171875,-27.34375,-54.6875,-20.99609375,0.0
1734581529.5517845,-31.25,-36.62109375,-24.90234375,-20.99609375,0.0
1734581529.5553703,-32.71484375,-34.66796875,-40.52734375,-24.90234375,0.0
1734581529.5589561,-34.1796875,-31.25,-73.73046875,-25.87890625,0.0
1734581529.562542,-31.73828125,-38.57421875,-100.09765625,-17.578125,0.0
1734581529.5661278,-38.57421875,-38.0859375,-23.4375,-24.4140625,0.0
1734581529.5697136,-43.9453125,-32.2265625,22.4609375,-35.64453125,0.0
1734581529.5732992,-45.41015625,-38.0859375,-32.2265625,-37.109375,0.0
1734581529.576885,-46.875,-38.57421875,-46.38671875,-34.66796875,0.0
1734581529.5845098,-36.1328125,-29.78515625,-6.8359375,-31.25,0.0
1734581529.5881135,-33.69140625,-29.78515625,-13.18359375,-28.80859375,0.0
1734581529.591717,-41.50390625,-45.41015625,-64.453125,-29.78515625,0.0
1734581529.5953205,-45.8984375,-40.0390625,-44.921875,-36.62109375,0.0
1734581529.598924,-44.43359375,-28.80859375,-28.80859375,-39.0625,0.0
1734581529.6025276,-42.48046875,-33.69140625,-59.08203125,-41.015625,0.0
1734581529.606131,-39.0625,-28.3203125,-131.8359375,-33.69140625,0.0
1734581529.6097345,-32.2265625,-24.90234375,-110.83984375,-26.85546875,0.0
1734581529.613338,-32.71484375,-25.87890625,18.06640625,-30.76171875,0.0
1734581529.6169417,-25.390625,-16.6015625,-10.25390625,-22.94921875,0.0
1734581529.6205451,-26.85546875,-16.6015625,-46.38671875,-21.484375,0.0
1734581529.6241486,-29.296875,-29.78515625,-34.66796875,-24.4140625,0.0
1734581529.6300519,-21.484375,-35.64453125,-22.4609375,-18.5546875,0.0
1734581529.6336648,-20.99609375,-37.109375,-40.0390625,-15.625,0.0
1734581529.6372778,-19.53125,-27.34375,-63.96484375,-13.671875,0.0
1734581529.640891,-20.99609375,-28.80859375,-28.3203125,-17.578125,0.0
1734581529.644504,-25.87890625,-33.203125,-31.73828125,-21.97265625,0.0
1734581529.6481173,-32.2265625,-24.4140625,-85.44921875,-19.53125,0.0
1734581529.6517303,-34.66796875,-32.71484375,-90.8203125,-23.92578125,0.0
1734581529.6553435,-36.62109375,-33.203125,-58.59375,-21.97265625,0.0
1734581529.6589565,-33.69140625,-36.1328125,-19.04296875,-20.01953125,0.0
1734581529.6625695,-32.2265625,-44.43359375,-47.36328125,-26.3671875,0.0
1734581529.6661828,-40.52734375,-38.57421875,-101.07421875,-29.78515625,0.0
1734581529.6697958,-45.8984375,-34.66796875,-11.23046875,-39.0625,0.0
1734581529.6755815,-42.48046875,-38.57421875,2.44140625,-43.45703125,0.0
1734581529.6792033,-40.52734375,-38.57421875,-57.6171875,-41.9921875,0.0
1734581529.6828249,-44.43359375,-44.43359375,-52.24609375,-40.52734375,0.0
1734581529.6864467,-48.33984375,-45.8984375,-22.4609375,-38.57421875,0.0
1734581529.6900685,-51.26953125,-33.203125,-25.390625,-36.62109375,0.0
1734581529.69369,-48.828125,-35.64453125,-104.98046875,-31.73828125,0.0
1734581529.6973119,-47.8515625,-41.015625,-87.890625,-33.203125,0.0
1734581529.7009335,-49.8046875,-41.015625,-4.39453125,-34.66796875,0.0
1734581529.7045553,-44.921875,-41.015625,-44.43359375,-32.2265625,0.0
1734581529.708177,-43.9453125,-35.64453125,-86.42578125,-33.69140625,0.0
1734581529.7117987,-48.33984375,-31.25,-35.64453125,-36.62109375,0.0
1734581529.7154205,-45.41015625,-25.87890625,6.8359375,-35.15625,0.0
1734581529.7224405,-40.0390625,-22.94921875,-40.52734375,-25.390625,0.0
1734581529.7260752,-39.0625,-27.83203125,-54.6875,-21.97265625,0.0
1734581529.7297096,-41.50390625,-31.25,-18.06640625,-22.4609375,0.0
1734581529.7333443,-39.55078125,-26.3671875,-8.30078125,-19.04296875,0.0
1734581529.7369788,-39.0625,-24.90234375,-41.50390625,-18.06640625,0.0
1734581529.7406135,-34.66796875,-31.25,-82.03125,-20.99609375,0.0
1734581529.7442482,-42.48046875,-39.55078125,-53.7109375,-25.87890625,0.0
1734581529.7478826,-45.41015625,-42.48046875,-17.578125,-27.83203125,0.0
1734581529.7515173,-33.69140625,-38.0859375,-45.41015625,-27.83203125,0.0
1734581529.7551517,-36.1328125,-42.96875,-64.453125,-24.90234375,0.0
1734581529.7587864,-29.78515625,-44.921875,16.11328125,-24.90234375,0.0
1734581529.7624211,-28.3203125,-31.73828125,1.46484375,-25.390625,0.0
1734581529.7691815,-34.66796875,-19.53125,-47.8515625,-25.390625,0.0
1734581529.7728274,-31.25,-11.23046875,-15.625,-22.94921875,0.0
1734581529.7764733,-29.296875,-14.16015625,2.44140625,-14.6484375,0.0
1734581529.7801192,-27.34375,-24.4140625,-7.8125,-13.671875,0.0
1734581529.783765,-32.71484375,-27.34375,-42.48046875,-12.20703125,0.0
1734581529.787411,-34.1796875,-29.78515625,-64.453125,-11.71875,0.0
1734581529.7910569,-38.0859375,-42.48046875,-24.90234375,-20.99609375,0.0
1734581529.7947028,-42.48046875,-41.9921875,12.6953125,-30.2734375,0.0
1734581529.7983487,-30.76171875,-38.0859375,-91.30859375,-22.4609375,0.0
1734581529.8019946,-30.76171875,-38.0859375,-97.65625,-16.11328125,0.0
1734581529.8056405,-39.0625,-31.73828125,24.90234375,-26.3671875,0.0
1734581529.8092866,-32.71484375,-31.25,-4.8828125,-29.78515625,0.0
1734581529.815798,-35.15625,-33.203125,-38.0859375,-31.25,0.0
1734581529.819454,-38.0859375,-31.25,-19.04296875,-31.25,0.0
1734581529.8231096,-33.69140625,-31.25,-35.64453125,-30.2734375,0.0
1734581529.8267655,-30.2734375,-31.25,-67.3828125,-33.203125,0.0
1734581529.8304214,-30.2734375,-41.015625,-50.29296875,-31.73828125,0.0
1734581529.8340774,-35.15625,-46.38671875,-54.19921875,-29.78515625,0.0
1734581529.8377333,-35.15625,-39.0625,-51.7578125,-28.80859375,0.0
1734581529.841389,-32.2265625,-34.1796875,-57.12890625,-23.92578125,0.0
1734581529.8450449,-31.73828125,-34.66796875,-84.9609375,-21.484375,0.0
1734581529.8487008,-32.2265625,-34.1796875,3.90625,-30.76171875,0.0
1734581529.8523567,-33.203125,-26.3671875,30.76171875,-36.62109375,0.0
1734581529.8560126,-39.55078125,-25.390625,-42.48046875,-31.73828125,0.0
1734581529.8623135,-41.50390625,-36.62109375,0.0,-32.71484375,0.0
1734581529.8659782,-36.1328125,-31.25,0.0,-32.2265625,0.0
1734581529.869643,-25.87890625,-20.5078125,0.0,-25.390625,0.0
1734581529.8733075,-27.34375,-27.83203125,0.0,-29.78515625,0.0
1734581529.8769722,-25.390625,-28.3203125,0.0,-26.85546875,0.0
1734581529.880637,-21.484375,-31.73828125,0.0,-22.4609375,0.0
1734581529.8843017,-28.3203125,-26.85546875,0.0,-29.78515625,0.0
1734581529.8879662,-30.2734375,-21.484375,0.0,-33.203125,0.0
1734581529.891631,-37.109375,-18.5546875,0.0,-37.59765625,0.0
1734581529.8952956,-39.55078125,-21.97265625,0.0,-39.0625,0.0
1734581529.8989604,-37.109375,-28.80859375,0.0,-36.62109375,0.0
1734581529.902625,-42.96875,-25.390625,0.0,-36.62109375,0.0
1734581529.9086714,-43.45703125,-23.92578125,-8.7890625,-27.34375,0.0
1734581529.9123435,-31.73828125,-27.34375,4.8828125,-14.16015625,0.0
1734581529.9160159,-26.3671875,-33.203125,-33.69140625,-11.71875,0.0
1734581529.9196882,-33.203125,-30.76171875,-54.6875,-19.53125,0.0
1734581529.9233606,-41.015625,-32.71484375,-27.83203125,-20.99609375,0.0
1734581529.927033,-41.50390625,-28.80859375,-44.921875,-23.4375,0.0
1734581529.9307053,-37.109375,-30.76171875,-65.4296875,-25.87890625,0.0
1734581529.9343774,-29.296875,-38.57421875,-78.125,-11.71875,0.0
1734581529.9380498,-25.390625,-31.25,-9.27734375,-10.7421875,0.0
1734581529.9417222,-26.3671875,-28.3203125,19.53125,-20.01953125,0.0
1734581529.9453945,-24.4140625,-37.59765625,-26.85546875,-16.6015625,0.0
1734581529.9490669,-20.5078125,-25.87890625,-31.73828125,-12.20703125,0.0
1734581529.9549673,-26.3671875,-20.5078125,2.9296875,-20.01953125,0.0
1734581529.9586465,-32.71484375,-25.87890625,-0.9765625,-21.97265625,0.0
1734581529.9623256,-34.1796875,-24.4140625,-44.43359375,-24.90234375,0.0
1734581529.9660048,-33.203125,-35.64453125,-31.25,-33.203125,0.0
1734581529.9696841,-25.87890625,-40.0390625,-9.765625,-28.3203125,0.0
1734581529.9733632,-29.78515625,-31.25,-51.26953125,-17.578125,0.0
1734581529.9770424,-30.76171875,-29.78515625,-71.2890625,-12.20703125,0.0
1734581529.9807217,-23.4375,-34.66796875,-25.87890625,-16.11328125,0.0
1734581529.9844007,-29.78515625,-33.69140625,17.08984375,-24.4140625,0.0
1734581529.98808,-32.71484375,-28.80859375,-4.8828125,-29.78515625,0.0
1734581529.9917593,-32.71484375,-34.66796875,-85.44921875,-29.296875,0.0
1734581529.9954383,-33.203125,-38.0859375,-75.1953125,-24.90234375,0.0
1734581530.0022771,-33.69140625,-27.34375,-11.71875,-23.92578125,0.0
1734581530.0059657,-40.0390625,-31.73828125,-26.85546875,-20.01953125,0.0
1734581530.0096545,-41.50390625,-36.1328125,-25.87890625,-17.08984375,0.0
1734581530.013343,-38.0859375,-28.80859375,-5.859375,-19.04296875,0.0
1734581530.0170317,-37.59765625,-25.87890625,-20.01953125,-25.390625,0.0
1734581530.0207202,-39.0625,-32.2265625,-61.5234375,-31.25,0.0
1734581530.0244088,-40.0390625,-42.48046875,-116.2109375,-24.4140625,0.0
1734581530.0280974,-32.2265625,-27.83203125,-51.26953125,-25.390625,0.0
1734581530.031786,-27.83203125,-22.4609375,25.87890625,-35.15625,0.0
1734581530.0354745,-28.3203125,-23.4375,-36.1328125,-23.92578125,0.0
1734581530.039163,-35.15625,-16.6015625,-46.38671875,-19.53125,0.0
1734581530.0428517,-40.52734375,-19.04296875,-3.41796875,-29.78515625,0.0
1734581530.0494957,-39.55078125,-16.11328125,-12.20703125,-36.62109375,0.0
1734581530.0531929,-43.45703125,-25.390625,-52.734375,-30.76171875,0.0
1734581530.05689,-41.015625,-35.15625,-50.78125,-23.4375,0.0
1734581530.0605872,-45.41015625,-34.1796875,-44.921875,-31.73828125,0.0
1734581530.064284,-44.43359375,-30.76171875,-52.24609375,-34.1796875,0.0
1734581530.0679812,-41.9921875,-33.69140625,-74.21875,-28.80859375,0.0
1734581530.0716784,-41.9921875,-37.59765625,-50.78125,-30.2734375,0.0
1734581530.0753753,-43.45703125,-31.73828125,0.9765625,-29.78515625,0.0
1734581530.0790725,-44.921875,-16.11328125,-10.25390625,-28.3203125,0.0
1734581530.0827696,-38.57421875,-17.578125,-107.421875,-25.87890625,0.0
1734581530.0864668,-36.1328125,-23.4375,-92.28515625,-22.4609375,0.0
1734581530.0901637,-36.1328125,-25.390625,16.6015625,-28.80859375,0.0
1734581530.0965471,-34.66796875,-26.85546875,-30.2734375,-30.76171875,0.0
1734581530.1002517,-32.2265625,-30.76171875,-57.6171875,-28.80859375,0.0
1734581530.1039562,-39.0625,-29.78515625,-29.78515625,-26.85546875,0.0
1734581530.1076608,-50.78125,-25.87890625,-16.6015625,-30.2734375,0.0
1734581530.1113653,-42.48046875,-23.92578125,-52.734375,-32.71484375,0.0
1734581530.1150699,-37.109375,-21.97265625,-96.6796875,-26.3671875,0.0
1734581530.1187744,-35.64453125,-20.01953125,-64.94140625,-20.01953125,0.0
1734581530.122479,-35.15625,-18.06640625,-40.52734375,-20.01953125,0.0
1734581530.1261837,-39.55078125,-25.87890625,-65.91796875,-23.92578125,0.0
1734581530.1298883,-41.50390625,-35.15625,-82.51953125,-22.4609375,0.0
1734581530.1335928,-42.96875,-35.64453125,-4.39453125,-25.87890625,0.0
1734581530.1372974,-43.45703125,-35.15625,22.4609375,-27.34375,0.0
1734581530.1434677,-45.8984375,-32.2265625,-44.921875,-26.3671875,0.0
1734581530.1471786,-43.9453125,-25.390625,-62.98828125,-29.296875,0.0
1734581530.1508899,-40.0390625,-24.4140625,-26.85546875,-29.296875,0.0
1734581530.154601,-41.015625,-33.69140625,-30.2734375,-25.87890625,0.0
1734581530.1583123,-44.43359375,-41.9921875,-67.3828125,-27.83203125,0.0
1734581530.1620235,-41.9921875,-32.2265625,-70.80078125,-25.87890625,0.0
1734581530.1657348,-39.0625,-20.01953125,-44.921875,-22.94921875,0.0
1734581530.1694458,-44.921875,-25.390625,-3.41796875,-28.80859375,0.0
1734581530.173157,-44.43359375,-36.62109375,-75.68359375,-18.5546875,0.0
1734581530.1768682,-41.50390625,-38.0859375,-103.02734375,-13.671875,0.0
1734581530.1805794,-49.8046875,-29.78515625,10.25390625,-28.80859375,0.0
1734581530.1842906,-44.43359375,-26.85546875,10.7421875,-26.3671875,0.0
1734581530.190313,-40.0390625,-29.78515625,-12.20703125,-22.4609375,0.0
1734581530.1940305,-49.31640625,-32.2265625,-3.41796875,-26.85546875,0.0
1734581530.1977477,-46.875,-30.2734375,-7.32421875,-23.4375,0.0
1734581530.201465,-43.45703125,-33.69140625,-30.76171875,-27.34375,0.0
1734581530.205182,-43.9453125,-40.0390625,-51.7578125,-30.76171875,0.0
1734581530.2088993,-45.41015625,-36.62109375,-51.7578125,-26.3671875,0.0
1734581530.2126164,-54.6875,-37.109375,-50.78125,-27.83203125,0.0
1734581530.2163336,-59.08203125,-31.25,-59.5703125,-27.34375,0.0
1734581530.2200508,-52.734375,-30.76171875,-81.54296875,-23.92578125,0.0
1734581530.223768,-45.41015625,-34.66796875,-19.04296875,-27.83203125,0.0
1734581530.2274852,-41.015625,-30.2734375,16.6015625,-33.203125,0.0
1734581530.2312024,-42.48046875,-30.76171875,-39.55078125,-33.203125,0.0
1734581530.2370353,-38.0859375,-36.62109375,-65.91796875,-29.78515625,0.0
1734581530.240758,-41.50390625,-40.0390625,-18.06640625,-35.15625,0.0
1734581530.2444804,-42.96875,-48.828125,-3.41796875,-39.55078125,0.0
1734581530.248203,-36.62109375,-44.921875,-43.45703125,-35.64453125,0.0
1734581530.2519255,-42.96875,-36.62109375,-42.96875,-36.62109375,0.0
1734581530.2556481,-43.45703125,-36.62109375,-41.50390625,-35.64453125,0.0
1734581530.2593706,-38.57421875,-29.78515625,-41.9921875,-31.73828125,0.0
1734581530.263093,-38.0859375,-30.2734375,-93.26171875,-25.87890625,0.0
1734581530.2668157,-40.0390625,-27.83203125,-75.68359375,-21.97265625,0.0
1734581530.270538,-31.25,-26.3671875,26.3671875,-27.34375,0.0
1734581530.2742608,-33.69140625,-31.73828125,-3.41796875,-30.2734375,0.0
1734581530.2779832,-40.52734375,-24.90234375,-40.0390625,-29.78515625,0.0
1734581530.2836187,-30.2734375,-21.484375,-18.06640625,-26.3671875,0.0
1734581530.287346,-32.2265625,-29.296875,-2.9296875,-28.80859375,0.0
1734581530.291073,-34.66796875,-37.109375,-31.73828125,-32.2265625,0.0
1734581530.2948003,-30.2734375,-33.203125,-74.21875,-26.85546875,0.0
1734581530.2985275,-30.76171875,-24.4140625,-61.5234375,-27.83203125,0.0
1734581530.302255,-31.25,-24.4140625,-42.96875,-20.99609375,0.0
1734581530.305982,-34.1796875,-25.87890625,-55.17578125,-20.5078125,0.0
1734581530.3097093,-34.1796875,-26.85546875,-83.984375,-20.01953125,0.0
1734581530.3134365,-28.80859375,-25.87890625,-11.71875,-21.484375,0.0
1734581530.3171637,-33.69140625,-31.25,30.76171875,-35.64453125,0.0
1734581530.320891,-35.15625,-22.94921875,-36.1328125,-34.66796875,0.0
1734581530.324618,-33.69140625,-12.6953125,-42.48046875,-31.73828125,0.0
1734581530.3301299,0.0,-26.85546875,0.0,-34.66796875,0.0
1734581530.3338614,0.0,-30.2734375,0.0,-29.296875,0.0
1734581530.3375928,0.0,-20.01953125,0.0,-19.53125,0.0
1734581530.3413243,0.0,-20.5078125,0.0,-23.4375,0.0
1734581530.3450558,0.0,-27.34375,0.0,-29.296875,0.0
1734581530.3487873,0.0,-29.296875,0.0,-24.90234375,0.0
1734581530.3525188,0.0,-36.1328125,0.0,-20.99609375,0.0
1734581530.3562503,0.0,-43.9453125,0.0,-16.6015625,0.0
1734581530.3599815,0.0,-29.296875,0.0,-18.5546875,0.0
1734581530.363713,0.0,-18.5546875,0.0,-22.94921875,0.0
1734581530.3674445,0.0,-22.4609375,0.0,-26.85546875,0.0
1734581530.371176,0.0,-25.87890625,0.0,-21.97265625,0.0
1734581530.3765895,-38.57421875,-26.3671875,-0.9765625,-17.578125,0.0
1734581530.3803248,-34.1796875,-32.2265625,-33.203125,-19.53125,0.0
1734581530.3840601,-31.73828125,-38.57421875,-62.98828125,-20.01953125,0.0
1734581530.3877954,-41.015625,-35.15625,-22.4609375,-28.3203125,0.0
1734581530.391531,-40.0390625,-33.69140625,-20.01953125,-30.2734375,0.0
1734581530.3952663,-41.9921875,-42.48046875,-61.5234375,-26.85546875,0.0
1734581530.3990016,-41.9921875,-43.45703125,-118.1640625,-28.3203125,0.0
1734581530.4027371,-41.50390625,-23.4375,-51.7578125,-28.3203125,0.0
1734581530.4064724,-36.62109375,-19.53125,30.76171875,-27.83203125,0.0
1734581530.4102077,-30.2734375,-36.62109375,-34.66796875,-28.3203125,0.0
1734581530.413943,-32.2265625,-36.62109375,-63.4765625,-25.87890625,0.0
1734581530.4176786,-32.2265625,-30.76171875,-8.7890625,-26.3671875,0.0
1734581530.4229019,-29.296875,-35.15625,-10.25390625,-32.2265625,0.0
1734581530.4266405,-29.296875,-35.15625,-49.31640625,-32.2265625,0.0
1734581530.4303794,-31.73828125,-28.3203125,-48.33984375,-31.73828125,0.0
1734581530.434118,-29.78515625,-27.83203125,-20.99609375,-32.2265625,0.0
1734581530.4378567,-29.78515625,-22.4609375,-20.01953125,-35.15625,0.0
1734581530.4415956,-29.296875,-15.625,-106.4453125,-32.71484375,0.0
1734581530.4453342,-31.73828125,-21.97265625,-95.703125,-31.25,0.0
1734581530.449073,-26.3671875,-25.87890625,12.6953125,-29.296875,0.0
1734581530.4528117,-23.4375,-26.3671875,-18.5546875,-30.76171875,0.0
1734581530.4565504,-31.73828125,-31.25,-49.31640625,-34.1796875,0.0
1734581530.4602892,-40.0390625,-40.0390625,-35.15625,-31.73828125,0.0
1734581530.464028,-48.828125,-42.96875,-18.5546875,-39.0625,0.0
1734581530.4700358,-42.48046875,-41.9921875,-30.2734375,-37.59765625,0.0
1734581530.4737797,-36.1328125,-35.64453125,-47.36328125,-34.1796875,0.0
1734581530.4775233,-37.109375,-26.85546875,-21.97265625,-38.57421875,0.0
1734581530.481267,-35.15625,-26.85546875,-11.23046875,-36.62109375,0.0
1734581530.4850106,-26.3671875,-28.3203125,-38.57421875,-30.2734375,0.0
1734581530.4887543,-27.34375,-29.78515625,-75.1953125,-31.25,0.0
1734581530.4924982,-34.66796875,-36.62109375,-48.33984375,-34.66796875,0.0
1734581530.4962418,-40.0390625,-41.015625,-13.671875,-33.203125,0.0
1734581530.4999855,-47.8515625,-32.2265625,-35.15625,-33.69140625,0.0
1734581530.503729,-46.875,-34.66796875,-60.546875,-32.71484375,0.0
1734581530.507473,-45.41015625,-39.55078125,8.7890625,-37.109375,0.0
1734581530.5112166,-42.96875,-33.203125,19.04296875,-41.9921875,0.0
1734581530.5171587,-43.9453125,-24.4140625,-35.15625,-36.62109375,0.0
1734581530.520907,-34.1796875,-16.11328125,-27.83203125,-31.25,0.0
1734581530.5246553,-22.94921875,-13.18359375,0.48828125,-30.76171875,0.0
1734581530.5284038,-31.73828125,-28.80859375,-22.94921875,-38.57421875,0.0
1734581530.5321522,-38.57421875,-35.15625,-60.05859375,-35.64453125,0.0
1734581530.5359006,-42.96875,-26.3671875,-68.359375,-23.92578125,0.0
1734581530.539649,-53.22265625,-29.78515625,-41.50390625,-29.78515625,0.0
1734581530.5433974,-47.36328125,-40.0390625,-9.27734375,-38.0859375,0.0
1734581530.5471458,-36.1328125,-37.109375,-97.65625,-25.390625,0.0
1734581530.5508943,-35.64453125,-23.92578125,-92.28515625,-20.5078125,0.0
1734581530.5546427,-33.203125,-25.87890625,26.3671875,-32.71484375,0.0
1734581530.558391,-35.64453125,-31.25,-3.90625,-32.2265625,0.0
1734581530.56413,-37.109375,-34.1796875,-32.71484375,-35.15625,0.0
1734581530.5678828,-32.71484375,-40.52734375,-22.4609375,-39.0625,0.0
1734581530.5716352,-25.87890625,-43.45703125,-8.7890625,-31.73828125,0.0
1734581530.5753877,-23.4375,-39.0625,-22.94921875,-26.3671875,0.0
1734581530.5791402,-32.71484375,-35.15625,-57.12890625,-32.71484375,0.0
1734581530.582893,-36.62109375,-36.1328125,-62.5,-38.57421875,0.0
1734581530.5866454,-28.3203125,-35.64453125,-50.78125,-35.64453125,0.0
1734581530.5903978,-23.4375,-35.64453125,-68.84765625,-34.1796875,0.0
1734581530.5941505,-23.4375,-30.76171875,-106.93359375,-28.80859375,0.0
1734581530.597903,-21.484375,-22.4609375,-12.6953125,-23.92578125,0.0
1734581530.6016555,-21.97265625,-20.5078125,32.2265625,-25.87890625,0.0
1734581530.6054082,-29.78515625,-28.80859375,-50.29296875,-27.34375,0.0
1734581530.6110108,-21.484375,-41.50390625,-50.78125,-26.85546875,0.0
1734581530.614767,-18.06640625,-43.45703125,1.953125,-25.390625,0.0
1734581530.6185234,-26.3671875,-33.69140625,-16.6015625,-20.5078125,0.0
1734581530.6222796,-28.80859375,-31.25,-52.24609375,-22.94921875,0.0
1734581530.626036,-31.73828125,-25.87890625,-47.8515625,-29.78515625,0.0
1734581530.6297922,-31.25,-22.4609375,-43.45703125,-31.25,0.0
1734581530.6335485,-31.25,-25.87890625,-35.15625,-30.2734375,0.0
1734581530.6373048,-29.296875,-26.85546875,-91.30859375,-19.04296875,0.0
1734581530.6410613,-30.2734375,-27.34375,-81.0546875,-21.484375,0.0
1734581530.6448176,-22.94921875,-29.78515625,37.109375,-28.3203125,0.0
1734581530.6485739,-9.765625,-33.69140625,0.0,-18.06640625,0.0
1734581530.6523302,-19.53125,-29.78515625,-28.3203125,-17.08984375,0.0
1734581530.6586208,0.0,-26.3671875,5.859375,-14.6484375,0.0
1734581530.6623821,0.0,-30.76171875,5.37109375,-18.06640625,0.0
1734581530.6661434,0.0,-31.25,-30.2734375,-20.01953125,0.0
1734581530.6699047,0.0,-23.92578125,-43.45703125,-15.13671875,0.0
1734581530.673666,0.0,-22.94921875,-13.671875,-10.7421875,0.0
1734581530.6774275,0.0,-29.78515625,-25.87890625,-14.16015625,0.0
1734581530.6811888,0.0,-38.0859375,-52.734375,-22.94921875,0.0
1734581530.68495,0.0,-34.66796875,-87.890625,-21.97265625,0.0
1734581530.6887114,0.0,-24.4140625,-15.13671875,-23.92578125,0.0
1734581530.6924727,0.0,-19.04296875,42.48046875,-29.78515625,0.0
1734581530.6962342,0.0,-20.01953125,-26.85546875,-34.66796875,0.0
1734581530.6999955,0.0,-30.2734375,-45.8984375,-34.1796875,0.0
1734581530.705291,-17.578125,-40.52734375,2.44140625,-34.1796875,0.0
1734581530.7090554,-14.6484375,-29.296875,-29.78515625,-33.69140625,0.0
1734581530.7128196,-13.671875,-22.4609375,-70.3125,-27.34375,0.0
1734581530.716584,-11.23046875,-33.69140625,-30.76171875,-27.34375,0.0
1734581530.7203484,-13.671875,-36.1328125,-14.6484375,-29.296875,0.0
1734581530.7241125,-12.6953125,-31.73828125,-57.12890625,-26.3671875,0.0
1734581530.727877,-14.16015625,-27.83203125,-89.84375,-26.3671875,0.0
1734581530.731641,-17.08984375,-19.53125,-42.48046875,-31.25,0.0
1734581530.7354054,-21.97265625,-19.53125,-4.39453125,-37.109375,0.0
1734581530.7391698,-32.2265625,-30.76171875,-16.6015625,-41.9921875,0.0
1734581530.742934,-32.2265625,-32.71484375,-109.86328125,-35.15625,0.0
1734581530.7466984,-34.1796875,-34.1796875,-96.19140625,-32.71484375,0.0
1734581530.7518628,-27.83203125,-31.25,19.04296875,-38.0859375,0.0
1734581530.7556298,-15.625,-28.3203125,-20.5078125,-29.296875,0.0
1734581530.7593966,-14.6484375,-37.59765625,-44.43359375,-24.90234375,0.0
1734581530.7631636,-21.97265625,-39.55078125,-17.578125,-29.78515625,0.0
1734581530.7669306,-20.01953125,-29.296875,-23.4375,-32.2265625,0.0
1734581530.7706976,-12.6953125,-26.3671875,-63.96484375,-27.34375,0.0
1734581530.7744644,-15.13671875,-27.83203125,-96.19140625,-20.01953125,0.0
1734581530.7782314,-21.97265625,-29.296875,-44.921875,-21.484375,0.0
1734581530.7819984,-31.25,-36.1328125,10.25390625,-32.71484375,0.0
1734581530.7857654,-34.1796875,-38.0859375,-30.2734375,-38.57421875,0.0
1734581530.7895322,-34.66796875,-32.71484375,-51.7578125,-39.0625,0.0
1734581530.7932992,-33.69140625,-28.80859375,-7.8125,-41.015625,0.0
1734581530.7983763,-24.90234375,-32.2265625,8.30078125,-41.50390625,0.0
1734581530.8021457,-24.90234375,-32.71484375,-43.45703125,-43.9453125,0.0
1734581530.805915,-29.296875,-42.48046875,-50.78125,-43.45703125,0.0
1734581530.8096845,-29.78515625,-37.109375,-7.32421875,-43.9453125,0.0
1734581530.8134537,-23.4375,-17.08984375,-23.4375,-42.48046875,0.0
1734581530.817223,-17.578125,-15.625,-108.3984375,-34.1796875,0.0
1734581530.8209925,-22.4609375,-25.390625,-90.33203125,-28.3203125,0.0
1734581530.8247619,-15.625,-25.87890625,-20.5078125,-26.85546875,0.0
1734581530.8285313,-15.625,-23.92578125,-49.8046875,-26.85546875,0.0
1734581530.8323007,-20.99609375,-23.4375,-69.82421875,-23.92578125,0.0
1734581530.83607,-25.390625,-25.87890625,-27.83203125,-23.92578125,0.0
1734581530.8398395,-29.296875,-25.390625,17.578125,-24.90234375,0.0
1734581530.8456073,-21.484375,-24.4140625,-17.08984375,-17.08984375,0.0
1734581530.8493803,-23.92578125,-30.2734375,-56.640625,-12.20703125,0.0
1734581530.8531532,-26.3671875,-19.53125,-30.2734375,-19.53125,0.0
1734581530.8569262,-21.484375,-10.7421875,-0.48828125,-20.99609375,0.0
1734581530.8606992,-26.3671875,-19.04296875,-43.45703125,-25.87890625,0.0
1734581530.8644724,-36.1328125,-35.15625,-84.9609375,-28.3203125,0.0
1734581530.8682454,-34.66796875,-42.48046875,-50.78125,-25.390625,0.0
1734581530.8720183,-38.0859375,-40.0390625,-27.83203125,-27.83203125,0.0
1734581530.8757913,-37.109375,-38.0859375,-43.45703125,-25.87890625,0.0
1734581530.8795643,-33.69140625,-31.73828125,-61.5234375,-20.99609375,0.0
1734581530.8833373,-32.2265625,-30.76171875,-10.25390625,-27.83203125,0.0
1734581530.8871102,-25.390625,-38.57421875,0.48828125,-29.78515625,0.0
1734581530.892689,-35.15625,-36.62109375,-31.25,-30.76171875,0.0
1734581530.896465,-48.33984375,-36.62109375,-31.73828125,-36.1328125,0.0
1734581530.9002414,-51.7578125,-40.52734375,-7.32421875,-40.0390625,0.0
1734581530.9040174,-43.45703125,-32.2265625,-11.23046875,-26.3671875,0.0
1734581530.9077938,-34.1796875,-39.55078125,-40.0390625,-20.99609375,0.0
1734581530.9115698,-47.8515625,-52.734375,-57.6171875,-31.73828125,0.0
1734581530.9153461,-57.12890625,-44.43359375,-14.16015625,-33.69140625,0.0
1734581530.9191222,-44.43359375,-37.59765625,9.27734375,-30.2734375,0.0
1734581530.9228985,-44.43359375,-33.203125,-65.91796875,-27.83203125,0.0
1734581530.9266748,-45.41015625,-37.109375,-48.33984375,-35.15625,0.0
1734581530.930451,-48.828125,-42.48046875,21.484375,-39.55078125,0.0
1734581530.9342272,-45.8984375,-37.59765625,-1.953125,-37.59765625,0.0
1734581530.9397037,-38.57421875,-41.015625,-70.3125,-29.78515625,0.0
1734581530.9434829,-39.0625,-44.921875,-46.875,-27.34375,0.0
1734581530.947262,-38.0859375,-42.96875,0.9765625,-30.2734375,0.0
1734581530.9510412,-27.34375,-32.2265625,-20.99609375,-18.06640625,0.0
1734581530.9548204,-23.92578125,-21.97265625,-44.43359375,-14.16015625,0.0
1734581530.9585996,-30.76171875,-24.90234375,-45.41015625,-19.04296875,0.0
1734581530.9623787,-33.69140625,-26.3671875,-32.71484375,-19.04296875,0.0
1734581530.9661577,-33.203125,-27.34375,-44.43359375,-19.04296875,0.0
1734581530.9699368,-24.90234375,-32.71484375,-68.359375,-17.578125,0.0
1734581530.973716,-24.4140625,-34.66796875,8.30078125,-20.99609375,0.0
1734581530.9774952,-36.62109375,-32.71484375,40.0390625,-29.296875,0.0
1734581530.9812744,-38.57421875,-40.52734375,-35.64453125,-35.64453125,0.0
1734581530.9866555,-35.64453125,-37.109375,-37.109375,-30.2734375,0.0
1734581530.9904373,-38.57421875,-25.87890625,2.9296875,-30.2734375,0.0
1734581530.994219,-38.57421875,-26.85546875,-16.6015625,-35.64453125,0.0
1734581530.998001,-28.3203125,-22.94921875,-46.875,-23.4375,0.0
1734581531.001783,-28.80859375,-24.90234375,-43.45703125,-20.99609375,0.0
1734581531.005565,-26.3671875,-30.76171875,-42.96875,-28.3203125,0.0
1734581531.0093467,-23.4375,-33.203125,-31.25,-31.73828125,0.0
1734581531.0131285,-21.484375,-33.203125,-84.9609375,-30.2734375,0.0
1734581531.0169106,-20.5078125,-29.78515625,-75.68359375,-23.92578125,0.0
1734581531.0206923,-26.3671875,-27.34375,22.4609375,-27.34375,0.0
1734581531.0244741,-28.80859375,-29.78515625,-11.71875,-26.85546875,0.0
1734581531.0282562,-25.87890625,-31.73828125,-26.3671875,-20.5078125,0.0
1734581531.0334706,-23.4375,-29.78515625,-9.27734375,-27.34375,0.0
1734581531.0372548,-30.2734375,-29.296875,-0.9765625,-30.76171875,0.0
1734581531.041039,-23.92578125,-31.73828125,-20.99609375,-26.85546875,0.0
1734581531.0448234,-19.04296875,-30.76171875,-39.55078125,-25.390625,0.0
1734581531.0486076,-20.99609375,-30.76171875,-24.4140625,-24.4140625,0.0
1734581531.0523918,-19.53125,-40.52734375,-42.96875,-27.34375,0.0
1734581531.0561762,-21.484375,-36.62109375,-61.03515625,-31.73828125,0.0
1734581531.0599604,-25.87890625,-28.80859375,-94.23828125,-26.85546875,0.0
1734581531.0637448,-35.64453125,-22.4609375,-43.9453125,-24.90234375,0.0
1734581531.067529,-39.55078125,-22.4609375,21.484375,-35.15625,0.0
1734581531.0713131,-37.59765625,-29.78515625,-24.4140625,-35.15625,0.0
1734581531.0750976,-27.83203125,-29.78515625,-42.48046875,-29.78515625,0.0
1734581531.0802524,-28.3203125,-27.83203125,-12.6953125,-28.3203125,0.0
1734581531.0840387,-34.1796875,-30.76171875,-11.23046875,-25.390625,0.0
1734581531.0878253,-27.83203125,-39.0625,-39.55078125,-24.90234375,0.0
1734581531.0916119,-30.2734375,-43.45703125,-38.0859375,-29.296875,0.0
1734581531.0953984,-29.296875,-35.15625,-13.18359375,-32.2265625,0.0
1734581531.0991848,-28.3203125,-29.296875,-39.0625,-35.64453125,0.0
1734581531.1029713,-34.66796875,-31.73828125,-115.72265625,-32.71484375,0.0
1734581531.1067579,-38.0859375,-32.71484375,-98.14453125,-35.64453125,0.0
1734581531.1105444,-38.0859375,-27.83203125,21.484375,-45.41015625,0.0
1734581531.1143308,-32.2265625,-29.78515625,-0.9765625,-42.48046875,0.0
1734581531.1181173,-28.80859375,-29.78515625,-34.66796875,-34.1796875,0.0
1734581531.121904,-29.78515625,-29.296875,-36.62109375,-32.2265625,0.0
1734581531.1269124,-27.34375,-35.15625,-17.08984375,-33.203125,0.0
1734581531.1307008,-19.53125,-28.80859375,-16.11328125,-29.296875,0.0
1734581531.1344893,-21.97265625,-22.94921875,-46.875,-30.76171875,0.0
1734581531.1382778,-26.85546875,-26.3671875,-22.4609375,-35.64453125,0.0
1734581531.1420662,-21.97265625,-21.484375,-19.04296875,-32.71484375,0.0
1734581531.1458547,-21.97265625,-16.11328125,-54.19921875,-31.25,0.0
1734581531.1496432,-20.5078125,-24.90234375,-100.5859375,-22.4609375,0.0
1734581531.1534317,-24.90234375,-30.76171875,-42.48046875,-24.4140625,0.0
1734581531.1572201,-31.25,-29.78515625,30.76171875,-32.2265625,0.0
1734581531.1610086,-28.3203125,-28.80859375,-13.671875,-29.78515625,0.0
1734581531.164797,-29.296875,-33.69140625,-27.34375,-34.1796875,0.0
1734581531.1685855,-32.2265625,-35.64453125,0.9765625,-36.1328125,0.0
1734581531.1734931,-34.66796875,-32.71484375,-11.23046875,-32.71484375,0.0
1734581531.1772833,-37.59765625,-30.2734375,-54.19921875,-30.76171875,0.0
1734581531.1810737,-34.66796875,-26.85546875,-71.2890625,-32.2265625,0.0
1734581531.1848638,-23.4375,-27.34375,-23.4375,-23.92578125,0.0
1734581531.188654,-12.6953125,-23.4375,0.48828125,-27.34375,0.0
1734581531.1924443,-20.5078125,-20.5078125,-100.5859375,-29.78515625,0.0
1734581531.1962345,-31.25,-21.484375,-93.26171875,-24.4140625,0.0
1734581531.2000246,-30.76171875,-17.08984375,32.71484375,-33.203125,0.0
1734581531.203815,-37.109375,-21.484375,11.23046875,-35.64453125,0.0
1734581531.2076051,-39.0625,-27.83203125,-30.76171875,-41.9921875,0.0
1734581531.2113953,-33.69140625,-30.2734375,-21.484375,-46.38671875,0.0
1734581531.2151856,-33.203125,-32.2265625,-11.71875,-42.96875,0.0
1734581531.2207682,-33.203125,-30.76171875,-25.390625,-38.0859375,0.0
1734581531.2245612,-30.2734375,-33.69140625,-49.31640625,-35.15625,0.0
1734581531.2283542,-32.2265625,-35.15625,-29.78515625,-36.62109375,0.0
1734581531.2321472,-35.64453125,-25.87890625,-17.08984375,-36.1328125,0.0
1734581531.2359402,-35.15625,-19.04296875,-52.24609375,-29.78515625,0.0
1734581531.2397332,-33.203125,-20.99609375,-90.33203125,-29.78515625,0.0
1734581531.2435262,-35.15625,-24.4140625,-66.89453125,-31.73828125,0.0
1734581531.2473192,-30.76171875,-29.296875,-47.8515625,-35.64453125,0.0
1734581531.2511122,-25.390625,-31.73828125,-67.87109375,-32.71484375,0.0
1734581531.2549052,-31.25,-37.109375,-67.3828125,-22.94921875,0.0
1734581531.2586982,-29.78515625,-36.62109375,1.46484375,-25.87890625,0.0
1734581531.2624912,-22.4609375,-29.296875,18.06640625,-25.390625,0.0
1734581531.2684891,-20.99609375,-28.3203125,-31.25,-23.4375,0.0
1734581531.2722855,-21.484375,-19.04296875,-27.83203125,-29.296875,0.0
1734581531.2760818,-26.85546875,-19.04296875,2.44140625,-29.78515625,0.0
1734581531.2798781,-25.390625,-25.87890625,-14.6484375,-31.25,0.0
1734581531.2836745,-19.04296875,-25.87890625,-51.26953125,-32.2265625,0.0
1734581531.2874708,-23.4375,-34.66796875,-77.1484375,-29.78515625,0.0
1734581531.2912672,-30.76171875,-41.50390625,-48.33984375,-26.85546875,0.0
1734581531.2950635,-27.83203125,-40.0390625,7.32421875,-28.80859375,0.0
1734581531.2988598,-22.4609375,-41.50390625,-86.9140625,-23.92578125,0.0
1734581531.3026562,-25.390625,-43.9453125,-108.88671875,-20.01953125,0.0
1734581531.3064525,-25.87890625,-38.57421875,28.3203125,-32.2265625,0.0
1734581531.3102489,-17.08984375,-31.73828125,4.8828125,-29.296875,0.0
1734581531.3154674,-9.27734375,-27.83203125,-32.71484375,-26.85546875,0.0
1734581531.3192656,-14.16015625,-27.34375,-15.13671875,-25.87890625,0.0
1734581531.323064,-25.390625,-28.80859375,-18.5546875,-24.90234375,0.0
1734581531.3268626,-26.85546875,-28.3203125,-39.0625,-29.78515625,0.0
1734581531.330661,-24.90234375,-28.80859375,-49.8046875,-29.296875,0.0
1734581531.3344595,-27.83203125,-24.90234375,-55.6640625,-29.78515625,0.0
1734581531.338258,-29.296875,-30.2734375,-47.8515625,-30.76171875,0.0
1734581531.3420565,-35.15625,-37.59765625,-54.6875,-29.78515625,0.0
1734581531.3458548,-40.0390625,-39.0625,-55.17578125,-40.0390625,0.0
1734581531.3496532,-34.1796875,-35.64453125,-13.18359375,-45.8984375,0.0
1734581531.3534517,-33.69140625,-28.3203125,-4.8828125,-44.43359375,0.0
1734581531.3572502,-28.3203125,-28.80859375,-61.03515625,-31.25,0.0
1734581531.3630207,-26.85546875,-22.94921875,-103.02734375,-18.06640625,0.0
1734581531.366822,-35.64453125,-22.94921875,-13.671875,-25.390625,0.0
1734581531.3706234,-32.2265625,-26.3671875,10.25390625,-30.76171875,0.0
1734581531.3744247,-29.296875,-25.87890625,-39.55078125,-31.25,0.0
1734581531.378226,-29.78515625,-27.34375,-36.62109375,-28.3203125,0.0
1734581531.3820274,-29.78515625,-27.34375,-48.33984375,-21.484375,0.0
1734581531.3858287,-39.0625,-34.66796875,-35.64453125,-31.73828125,0.0
1734581531.3896298,-34.1796875,-37.59765625,-75.1953125,-31.73828125,0.0
1734581531.3934312,-28.80859375,-33.203125,-90.33203125,-25.87890625,0.0
1734581531.3972325,-32.71484375,-28.3203125,5.37109375,-33.203125,0.0
1734581531.4010339,-26.3671875,-30.76171875,-15.13671875,-31.73828125,0.0
1734581531.4048352,-21.97265625,-31.73828125,-42.96875,-29.78515625,0.0
1734581531.4104466,-22.94921875,-31.25,-26.85546875,-30.2734375,0.0
1734581531.4142504,-21.484375,-32.71484375,-12.6953125,-30.2734375,0.0
1734581531.4180543,-27.83203125,-30.76171875,-32.71484375,-27.34375,0.0
1734581531.4218583,-20.99609375,-28.3203125,-33.203125,-23.92578125,0.0
1734581531.4256623,-12.6953125,-30.76171875,-55.17578125,-20.99609375,0.0
1734581531.4294662,-22.94921875,-33.69140625,-78.61328125,-29.78515625,0.0
1734581531.4332702,-30.76171875,-29.78515625,-37.59765625,-36.62109375,0.0
1734581531.4370742,-38.0859375,-28.3203125,0.0,-37.59765625,0.0
1734581531.440878,-41.50390625,-31.25,-53.7109375,-35.15625,0.0
1734581531.444682,-33.203125,-29.78515625,-93.26171875,-23.92578125,0.0
1734581531.4484859,-35.64453125,-32.71484375,-13.18359375,-30.76171875,0.0
1734581531.4522898,-34.1796875,-33.203125,3.90625,-35.15625,0.0
1734581531.4577322,-22.4609375,-31.25,-45.8984375,-29.78515625,0.0
1734581531.4615386,-20.5078125,-34.66796875,-51.7578125,-34.66796875,0.0
1734581531.465345,-28.80859375,-37.109375,-16.11328125,-36.1328125,0.0
1734581531.469151,-25.390625,-35.64453125,-26.3671875,-30.2734375,0.0
1734581531.4729574,-20.01953125,-31.73828125,-78.125,-29.78515625,0.0
1734581531.4767635,-17.578125,-27.83203125,-90.8203125,-22.4609375,0.0
1734581531.4805698,-11.71875,-30.2734375,-40.52734375,-11.71875,0.0
1734581531.484376,-22.4609375,-31.25,4.39453125,-22.94921875,0.0
1734581531.4881823,-39.55078125,-27.83203125,-90.8203125,-30.76171875,0.0
1734581531.4919887,-35.15625,-21.97265625,-79.1015625,-15.625,0.0
1734581531.4957948,-28.80859375,-30.76171875,35.64453125,-11.23046875,0.0
1734581531.4996011,-30.76171875,-37.59765625,-8.30078125,-22.4609375,0.0
1734581531.5049808,-20.99609375,-25.87890625,-37.59765625,-15.13671875,0.0
1734581531.5087893,-16.11328125,-23.92578125,-5.37109375,-8.30078125,0.0
1734581531.5125978,-19.04296875,-30.2734375,-5.859375,-21.484375,0.0
1734581531.5164063,-18.5546875,-37.109375,-51.26953125,-23.92578125,0.0
1734581531.5202146,-23.4375,-38.57421875,-58.59375,-20.99609375,0.0
1734581531.524023,-31.73828125,-29.78515625,-48.33984375,-23.92578125,0.0
1734581531.5278316,-27.83203125,-24.90234375,-20.5078125,-23.4375,0.0
1734581531.53164,-20.5078125,-27.83203125,-44.921875,-19.04296875,0.0
1734581531.5354483,-25.87890625,-30.2734375,-73.73046875,-19.04296875,0.0
1734581531.5392568,-27.83203125,-30.76171875,3.90625,-21.97265625,0.0
1734581531.5430653,-14.6484375,-27.83203125,23.92578125,-19.53125,0.0
1734581531.5468736,-13.671875,-28.3203125,-65.4296875,-13.18359375,0.0
1734581531.552182,0.0,-27.34375,-85.44921875,-11.71875,0.0
1734581531.5559924,0.0,-23.4375,5.37109375,-20.99609375,0.0
1734581531.5598028,0.0,-27.83203125,-10.25390625,-28.3203125,0.0
1734581531.5636132,0.0,-35.64453125,-43.9453125,-27.34375,0.0
1734581531.5674238,0.0,-38.0859375,-36.1328125,-28.3203125,0.0
1734581531.5712342,0.0,-24.90234375,-40.52734375,-25.87890625,0.0
1734581531.5750446,0.0,-19.04296875,-40.52734375,-21.484375,0.0
1734581531.5788553,0.0,-20.99609375,-89.35546875,-16.6015625,0.0
1734581531.5826657,0.0,-21.97265625,-62.01171875,-15.13671875,0.0
1734581531.586476,0.0,-26.3671875,41.015625,-20.5078125,0.0
1734581531.5902867,0.0,-33.203125,-18.06640625,-17.578125,0.0
1734581531.5940971,0.0,-32.2265625,-32.71484375,-21.97265625,0.0
1734581531.5992544,-27.34375,-26.3671875,4.39453125,-25.390625,0.0
1734581531.6030667,-20.99609375,-26.85546875,-0.9765625,-19.53125,0.0
1734581531.606879,-15.13671875,-29.296875,-42.48046875,-17.578125,0.0
1734581531.6106913,-13.18359375,-29.78515625,-72.75390625,-19.53125,0.0
1734581531.6145036,-17.08984375,-38.57421875,-33.69140625,-19.53125,0.0
1734581531.618316,-21.484375,-35.15625,-23.4375,-18.06640625,0.0
1734581531.6221282,-16.6015625,-17.578125,-51.26953125,-18.5546875,0.0
1734581531.6259406,-15.13671875,-18.06640625,-70.80078125,-13.18359375,0.0
1734581531.6297529,-17.08984375,-23.92578125,-7.32421875,-13.18359375,0.0
1734581531.6335652,-27.34375,-28.3203125,21.97265625,-25.87890625,0.0
1734581531.6373773,-28.80859375,-31.25,-36.62109375,-27.34375,0.0
1734581531.6411896,-27.83203125,-31.25,-33.69140625,-25.87890625,0.0
1734581531.6468422,-34.1796875,-29.78515625,16.11328125,-33.69140625,0.0
1734581531.650657,-25.87890625,-27.34375,-17.08984375,-34.1796875,0.0
1734581531.6544719,-23.92578125,-28.3203125,-54.6875,-30.76171875,0.0
1734581531.6582866,-29.296875,-28.3203125,-14.16015625,-27.83203125,0.0
1734581531.6621013,-37.109375,-23.92578125,-10.25390625,-35.15625,0.0
1734581531.665916,-33.69140625,-18.5546875,-43.9453125,-41.015625,0.0
1734581531.6697307,-32.2265625,-24.90234375,-100.5859375,-26.3671875,0.0
1734581531.6735454,-33.69140625,-27.34375,-80.078125,-22.4609375,0.0
1734581531.67736,-31.25,-15.625,24.90234375,-31.73828125,0.0
1734581531.6811748,-35.64453125,-23.92578125,-0.48828125,-29.78515625,0.0
1734581531.6849897,-37.109375,-30.2734375,-38.57421875,-32.2265625,0.0
1734581531.6888044,-31.73828125,-27.34375,-19.04296875,-31.25,0.0
1734581531.6937668,0.0,-26.3671875,0.9765625,-20.01953125,0.0
1734581531.6975832,0.0,-24.90234375,-26.85546875,-22.4609375,0.0
1734581531.7013993,0.0,-30.76171875,-48.33984375,-31.73828125,0.0
1734581531.7052157,0.0,-30.76171875,-46.38671875,-32.2265625,0.0
1734581531.7090318,0.0,-22.4609375,-46.38671875,-24.90234375,0.0
1734581531.712848,0.0,-20.5078125,-51.7578125,-18.5546875,0.0
1734581531.7166643,0.0,-28.3203125,-63.96484375,-21.484375,0.0
1734581531.7204804,0.0,-30.2734375,-5.37109375,-14.6484375,0.0
1734581531.7242968,0.0,-28.80859375,15.625,-15.13671875,0.0
1734581531.728113,0.0,-25.390625,-55.17578125,-19.04296875,0.0
1734581531.731929,0.0,-21.97265625,-87.890625,-11.71875,0.0
1734581531.7357454,0.0,-21.484375,5.859375,-15.13671875,0.0
1734581531.7405872,-26.85546875,-25.390625,15.13671875,-20.01953125,0.0
1734581531.7444048,-24.90234375,-32.71484375,-35.64453125,-20.5078125,0.0
1734581531.7482224,-28.3203125,-30.76171875,-31.73828125,-21.484375,0.0
1734581531.75204,-30.76171875,-22.94921875,-2.44140625,-20.99609375,0.0
1734581531.7558575,-23.92578125,-22.94921875,-15.13671875,-18.5546875,0.0
1734581531.759675,-21.97265625,-28.80859375,-101.5625,-14.16015625,0.0
1734581531.7634926,-26.85546875,-28.80859375,-74.21875,-13.671875,0.0
1734581531.7673101,-22.94921875,-24.4140625,-7.32421875,-18.5546875,0.0
1734581531.7711277,-24.4140625,-26.85546875,-45.8984375,-19.04296875,0.0
1734581531.774945,-25.390625,-28.3203125,-62.98828125,-11.71875,0.0
1734581531.7787626,-26.85546875,-27.34375,-27.34375,-19.53125,0.0
1734581531.7825801,-30.76171875,-32.71484375,-3.41796875,-23.92578125,0.0
1734581531.787928,-19.53125,-30.76171875,-32.2265625,-14.6484375,0.0
1734581531.7917476,-27.34375,-22.4609375,-38.57421875,-16.6015625,0.0
1734581531.795567,-45.8984375,-24.4140625,-20.5078125,-22.4609375,0.0
1734581531.7993865,-38.0859375,-28.3203125,-45.8984375,-22.4609375,0.0
1734581531.803206,-38.57421875,-28.3203125,-71.2890625,-25.390625,0.0
1734581531.8070254,-40.0390625,-30.2734375,-77.63671875,-32.2265625,0.0
1734581531.810845,-34.66796875,-28.80859375,-36.1328125,-29.296875,0.0
1734581531.8146644,-27.34375,-29.78515625,17.578125,-22.4609375,0.0
1734581531.8184838,-24.90234375,-33.203125,-32.71484375,-16.11328125,0.0
1734581531.8223033,-28.80859375,-30.76171875,-77.63671875,-18.5546875,0.0
1734581531.8261228,-26.85546875,-27.34375,-19.04296875,-26.3671875,0.0
1734581531.8299422,-28.80859375,-28.80859375,-9.765625,-27.34375,0.0
1734581531.835166,-33.69140625,-35.15625,-39.0625,-29.78515625,0.0
1734581531.838987,-24.90234375,-24.90234375,-37.109375,-24.90234375,0.0
1734581531.8428085,-19.04296875,-13.671875,-2.9296875,-16.6015625,0.0
1734581531.8466296,-29.78515625,-27.34375,-11.71875,-23.92578125,0.0
1734581531.8504508,-36.62109375,-36.1328125,-58.59375,-33.203125,0.0
1734581531.8542721,-28.80859375,-23.92578125,-69.3359375,-27.34375,0.0
1734581531.8580933,-26.85546875,-21.484375,-34.1796875,-23.92578125,0.0
1734581531.8619144,-32.2265625,-25.390625,-16.6015625,-26.85546875,0.0
1734581531.8657358,-23.92578125,-33.203125,-35.64453125,-26.3671875,0.0
1734581531.869557,-23.4375,-36.1328125,-23.92578125,-25.87890625,0.0
1734581531.873378,-31.25,-26.85546875,-1.46484375,-24.90234375,0.0
1734581531.8771994,-27.83203125,-23.4375,-26.3671875,-16.11328125,0.0
1734581531.8823378,-25.390625,-31.25,-98.14453125,-13.671875,0.0
1734581531.8861606,-26.3671875,-35.15625,-65.4296875,-23.92578125,0.0
1734581531.8899834,-32.2265625,-27.83203125,-5.37109375,-27.83203125,0.0
1734581531.8938062,-40.0390625,-32.2265625,-30.76171875,-29.78515625,0.0
1734581531.897629,-41.015625,-33.69140625,-31.73828125,-35.64453125,0.0
1734581531.9014518,-37.109375,-30.76171875,-35.64453125,-30.76171875,0.0
1734581531.9052746,-39.0625,-34.1796875,-21.484375,-29.78515625,0.0
1734581531.9090974,-36.1328125,-34.66796875,-35.15625,-28.3203125,0.0
1734581531.9129205,-36.1328125,-31.73828125,-83.49609375,-18.06640625,0.0
1734581531.9167433,-44.921875,-33.69140625,-12.6953125,-25.390625,0.0
1734581531.920566,-39.55078125,-34.1796875,13.671875,-29.296875,0.0
1734581531.924389,-33.69140625,-36.1328125,-43.45703125,-25.87890625,0.0
1734581531.9293966,-36.1328125,-37.59765625,-40.0390625,-26.3671875,0.0
1734581531.933221,-38.0859375,-36.1328125,-1.953125,-28.80859375,0.0
1734581531.9370453,-51.26953125,-34.1796875,-27.83203125,-38.57421875,0.0
1734581531.9408696,-54.6875,-33.69140625,-65.4296875,-42.48046875,0.0
1734581531.9446938,-49.8046875,-35.64453125,-43.45703125,-41.50390625,0.0
1734581531.948518,-46.38671875,-34.1796875,-40.52734375,-43.45703125,0.0
1734581531.9523423,-42.96875,-31.25,-56.640625,-43.45703125,0.0
1734581531.9561665,-41.50390625,-30.76171875,-104.98046875,-35.15625,0.0
1734581531.9599907,-47.36328125,-34.66796875,-87.890625,-31.25,0.0
1734581531.963815,-43.45703125,-42.96875,23.4375,-32.71484375,0.0
1734581531.9676394,-25.87890625,-34.1796875,8.30078125,-16.11328125,0.0
1734581531.9714637,-28.3203125,-13.18359375,-34.66796875,-23.4375,0.0
1734581531.9763937,-44.43359375,-11.71875,-20.5078125,-49.8046875,0.0
1734581531.9802191,-38.57421875,-21.484375,-6.8359375,-43.9453125,0.0
1734581531.9840448,-30.2734375,-26.85546875,-44.43359375,-28.3203125,0.0
1734581531.9878702,-41.015625,-27.83203125,-77.63671875,-28.80859375,0.0
1734581531.991696,-41.9921875,-32.71484375,-48.33984375,-25.87890625,0.0
1734581531.9955215,-43.45703125,-39.55078125,-37.59765625,-32.2265625,0.0
1734581531.999347,-46.875,-34.1796875,-64.94140625,-36.1328125,0.0
1734581532.0031726,-44.43359375,-25.390625,-114.2578125,-20.99609375,0.0
1734581532.0069983,-39.0625,-25.390625,-55.17578125,-25.390625,0.0
1734581532.0108237,-41.015625,-30.2734375,22.4609375,-34.66796875,0.0
1734581532.0146494,-33.203125,-28.80859375,-44.43359375,-24.4140625,0.0
1734581532.018475,-28.80859375,-34.1796875,-71.2890625,-21.484375,0.0
1734581532.0233018,-41.50390625,-37.109375,-13.671875,-32.2265625,0.0
1734581532.0271285,-41.50390625,-34.66796875,-29.296875,-36.62109375,0.0
1734581532.0309553,-35.15625,-38.0859375,-77.1484375,-32.2265625,0.0
1734581532.034782,-32.2265625,-48.33984375,-46.38671875,-26.3671875,0.0
1734581532.0386088,-33.203125,-49.31640625,-27.34375,-33.69140625,0.0
1734581532.0424354,-36.1328125,-36.62109375,-73.2421875,-41.50390625,0.0
1734581532.0462623,-32.2265625,-34.66796875,-128.90625,-36.1328125,0.0
1734581532.050089,-34.1796875,-34.1796875,-97.16796875,-31.25,0.0
1734581532.0539157,-30.2734375,-26.3671875,21.484375,-29.296875,0.0
1734581532.0577426,-30.76171875,-25.390625,-0.48828125,-24.4140625,0.0
1734581532.0615692,-34.66796875,-30.76171875,-77.63671875,-19.04296875,0.0
1734581532.065396,-35.15625,-36.62109375,-72.75390625,-26.85546875,0.0
1734581532.0706892,-40.52734375,-29.296875,-5.859375,-41.9921875,0.0
1734581532.0745177,-42.96875,-35.15625,-11.71875,-41.9921875,0.0
1734581532.078346,-26.85546875,-36.1328125,-41.015625,-34.66796875,0.0
1734581532.0821745,-22.94921875,-23.92578125,-45.8984375,-35.15625,0.0
1734581532.086003,-37.59765625,-22.94921875,-26.3671875,-38.0859375,0.0
1734581532.0898314,-34.1796875,-20.01953125,-44.921875,-36.62109375,0.0
1734581532.0936599,-37.109375,-21.97265625,-106.4453125,-36.62109375,0.0
1734581532.0974884,-45.41015625,-22.94921875,-21.484375,-39.55078125,0.0
1734581532.1013167,-47.8515625,-23.92578125,14.6484375,-41.015625,0.0
1734581532.1051452,-46.875,-22.94921875,-45.8984375,-43.45703125,0.0
1734581532.1089737,-44.43359375,-26.85546875,-38.0859375,-42.48046875,0.0
1734581532.112802,-45.41015625,-28.3203125,-9.27734375,-41.015625,0.0
1734581532.1174827,-42.96875,-22.4609375,-22.94921875,-34.1796875,0.0
1734581532.1213121,-41.50390625,-29.78515625,-57.6171875,-30.2734375,0.0
1734581532.1251416,-36.62109375,-35.64453125,-64.94140625,-31.73828125,0.0
1734581532.1289709,-45.41015625,-31.73828125,-35.15625,-33.69140625,0.0
1734581532.1328003,-53.22265625,-33.203125,-24.4140625,-36.62109375,0.0
1734581532.1366298,-45.41015625,-39.0625,-78.61328125,-32.2265625,0.0
1734581532.1404593,-45.41015625,-43.9453125,-63.4765625,-33.69140625,0.0
1734581532.1442885,-46.875,-40.0390625,-14.6484375,-40.52734375,0.0
1734581532.148118,-42.96875,-33.203125,-9.765625,-37.109375,0.0
1734581532.1519475,-40.52734375,-34.1796875,-103.02734375,-26.3671875,0.0
1734581532.155777,-42.96875,-36.1328125,-99.609375,-26.85546875,0.0
1734581532.1596062,-42.96875,-36.62109375,16.11328125,-34.66796875,0.0
1734581532.1647322,-44.921875,-34.66796875,-23.92578125,-38.0859375,0.0
1734581532.1685631,-48.828125,-35.15625,-43.9453125,-36.62109375,0.0
1734581532.172394,-47.36328125,-38.0859375,-10.25390625,-26.85546875,0.0
1734581532.176225,-43.45703125,-34.1796875,-34.1796875,-24.4140625,0.0
1734581532.1800556,-43.45703125,-31.73828125,-68.84765625,-24.4140625,0.0
1734581532.1838865,-49.31640625,-29.78515625,-65.91796875,-25.87890625,0.0
1734581532.1877174,-52.24609375,-27.34375,-43.9453125,-30.2734375,0.0
1734581532.1915483,-43.9453125,-29.296875,-4.8828125,-30.2734375,0.0
1734581532.1953793,-40.0390625,-26.3671875,-25.87890625,-23.92578125,0.0
1734581532.1992102,-47.36328125,-24.4140625,-84.47265625,-19.53125,0.0
1734581532.203041,-52.24609375,-29.78515625,-12.6953125,-28.80859375,0.0
1734581532.206872,-44.43359375,-31.73828125,17.578125,-31.73828125,0.0
1734581532.2119122,0.0,-34.66796875,-34.66796875,-26.85546875,0.0
1734581532.2157445,0.0,-39.0625,-35.64453125,-24.4140625,0.0
1734581532.2195766,0.0,-39.55078125,-18.06640625,-27.34375,0.0
1734581532.223409,0.0,-39.0625,-30.76171875,-25.390625,0.0
1734581532.227241,0.0,-37.109375,-49.31640625,-16.6015625,0.0
1734581532.2310734,0.0,-31.25,-60.05859375,-21.484375,0.0
1734581532.2349055,0.0,-24.4140625,-38.0859375,-21.484375,0.0
1734581532.2387378,0.0,-24.90234375,-2.44140625,-20.01953125,0.0
1734581532.24257,0.0,-29.78515625,-95.703125,-16.11328125,0.0
1734581532.2464023,0.0,-32.71484375,-96.6796875,-16.6015625,0.0
1734581532.2502344,0.0,-29.78515625,28.80859375,-31.25,0.0
1734581532.2540667,0.0,-33.69140625,-11.71875,-30.2734375,0.0
1734581532.259035,-27.83203125,-37.59765625,-49.31640625,-29.296875,0.0
1734581532.2628686,-36.62109375,-28.3203125,-22.94921875,-30.2734375,0.0
1734581532.266702,-36.62109375,-27.34375,-19.53125,-30.76171875,0.0
1734581532.2705355,-31.25,-34.1796875,-63.4765625,-29.78515625,0.0
1734581532.274369,-37.109375,-30.76171875,-71.77734375,-27.83203125,0.0
1734581532.2782025,-38.57421875,-24.90234375,-65.4296875,-24.4140625,0.0
1734581532.2820358,-38.57421875,-24.4140625,-40.52734375,-24.4140625,0.0
1734581532.2858694,-42.96875,-26.85546875,-41.015625,-28.3203125,0.0
1734581532.289703,-43.45703125,-34.66796875,-93.26171875,-25.87890625,0.0
1734581532.2935364,-50.29296875,-40.0390625,-12.6953125,-25.390625,0.0
1734581532.2973697,-50.29296875,-37.109375,20.99609375,-27.83203125,0.0
1734581532.3012033,-43.9453125,-32.71484375,-56.640625,-25.87890625,0.0
1734581532.306578,-39.0625,-26.85546875,-51.26953125,-20.01953125,0.0
1734581532.3104131,-36.1328125,-23.92578125,10.7421875,-17.578125,0.0
1734581532.314248,-34.1796875,-30.2734375,-1.46484375,-16.11328125,0.0
1734581532.3180833,-37.109375,-35.15625,-44.43359375,-18.5546875,0.0
1734581532.3219185,-45.41015625,-30.2734375,-39.55078125,-27.34375,0.0
1734581532.3257537,-42.96875,-22.4609375,-40.52734375,-31.73828125,0.0
1734581532.3295887,-36.1328125,-22.4609375,-40.0390625,-32.71484375,0.0
1734581532.3334239,-32.71484375,-29.78515625,-88.37890625,-25.390625,0.0
1734581532.337259,-42.48046875,-35.64453125,-86.42578125,-23.4375,0.0
1734581532.341094,-41.9921875,-32.71484375,9.27734375,-38.0859375,0.0
1734581532.3449292,-35.64453125,-33.69140625,-20.01953125,-43.45703125,0.0
1734581532.3487644,-41.50390625,-38.57421875,-41.9921875,-38.0859375,0.0
1734581532.3540688,-39.0625,-34.1796875,-14.6484375,-28.3203125,0.0
1734581532.3579054,-42.48046875,-33.203125,-16.6015625,-23.4375,0.0
1734581532.3617423,-41.015625,-26.85546875,-30.2734375,-28.80859375,0.0
1734581532.365579,-37.109375,-17.08984375,-49.31640625,-31.25,0.0
1734581532.3694155,-38.57421875,-24.4140625,-74.70703125,-26.85546875,0.0
1734581532.3732524,-29.78515625,-24.4140625,-53.7109375,-20.5078125,0.0
1734581532.377089,-21.97265625,-25.390625,-24.90234375,-23.4375,0.0
1734581532.3809257,-30.76171875,-25.87890625,-10.25390625,-31.25,0.0
1734581532.3847625,-25.87890625,-21.484375,-88.8671875,-20.99609375,0.0
1734581532.3885992,-21.97265625,-27.34375,-61.03515625,-19.04296875,0.0
1734581532.3924358,-28.80859375,-23.4375,6.8359375,-28.80859375,0.0
1734581532.3962727,-26.85546875,-27.83203125,-42.48046875,-32.2265625,0.0
1734581532.4014559,-30.2734375,-31.73828125,-55.17578125,-32.71484375,0.0
1734581532.4052942,-32.2265625,-23.92578125,-27.83203125,-30.2734375,0.0
1734581532.4091322,-26.3671875,-19.53125,-36.1328125,-32.71484375,0.0
1734581532.4129703,-37.109375,-25.390625,-66.40625,-34.1796875,0.0
1734581532.4168084,-52.24609375,-34.66796875,-69.82421875,-37.109375,0.0
1734581532.4206467,-50.78125,-34.66796875,-58.59375,-40.52734375,0.0
1734581532.4244847,-51.7578125,-38.57421875,-26.85546875,-42.48046875,0.0
1734581532.4283228,-52.734375,-41.9921875,-52.734375,-40.52734375,0.0
1734581532.432161,-50.29296875,-33.69140625,-140.625,-37.109375,0.0
1734581532.4359992,-48.828125,-28.80859375,-35.15625,-42.96875,0.0
1734581532.4398372,-44.921875,-30.76171875,10.7421875,-41.015625,0.0
1734581532.4436753,-41.50390625,-28.80859375,-45.41015625,-31.25,0.0
1734581532.448773,-40.52734375,-30.2734375,-54.6875,-27.83203125,0.0
1734581532.4526124,-33.203125,-26.85546875,-41.015625,-21.97265625,0.0
1734581532.456452,-33.203125,-20.01953125,-16.6015625,-22.4609375,0.0
1734581532.4602914,-38.57421875,-22.94921875,-34.66796875,-27.34375,0.0
1734581532.4641306,-36.1328125,-32.71484375,-23.4375,-20.99609375,0.0
1734581532.4679701,-35.15625,-39.0625,-41.9921875,-20.5078125,0.0
1734581532.4718096,-40.52734375,-36.62109375,-71.77734375,-35.64453125,0.0
1734581532.475649,-40.52734375,-32.71484375,-98.14453125,-34.66796875,0.0
1734581532.4794886,-43.45703125,-36.62109375,-50.29296875,-34.1796875,0.0
1734581532.4833279,-36.1328125,-30.2734375,26.85546875,-38.0859375,0.0
1734581532.4871674,-32.71484375,-25.390625,-14.6484375,-39.0625,0.0
1734581532.4910069,-39.55078125,-31.73828125,-41.9921875,-36.62109375,0.0
1734581532.496987,-26.3671875,-27.83203125,-1.46484375,-30.2734375,0.0
1734581532.5008287,-24.90234375,-28.80859375,2.9296875,-30.76171875,0.0
1734581532.5046704,-26.85546875,-40.52734375,-31.73828125,-25.390625,0.0
1734581532.508512,-20.99609375,-29.78515625,-41.9921875,-17.578125,0.0
1734581532.5123537,-24.90234375,-25.87890625,-16.11328125,-21.97265625,0.0
1734581532.5161953,-34.66796875,-32.2265625,-39.0625,-26.3671875,0.0
1734581532.520037,-31.25,-30.2734375,-74.70703125,-25.390625,0.0
1734581532.5238786,-27.34375,-29.296875,-109.375,-20.5078125,0.0
1734581532.5277202,-26.85546875,-33.69140625,-19.04296875,-22.4609375,0.0
1734581532.5315619,-21.97265625,-35.15625,2.9296875,-23.4375,0.0
1734581532.5354035,-24.90234375,-26.85546875,-51.7578125,-26.3671875,0.0
1734581532.5392451,-26.3671875,-23.4375,-11.71875,-31.73828125,0.0
1734581532.544179,-24.4140625,-35.64453125,4.8828125,-33.203125,0.0
1734581532.5480218,-20.01953125,-26.85546875,-39.55078125,-23.92578125,0.0
1734581532.5518646,-24.4140625,-22.94921875,-51.7578125,-19.53125,0.0
1734581532.5557072,-32.71484375,-30.76171875,-17.578125,-29.296875,0.0
1734581532.55955,-22.4609375,-26.85546875,-2.9296875,-29.78515625,0.0
1734581532.5633929,-11.23046875,-20.01953125,-52.24609375,-20.5078125,0.0
1734581532.5672355,-23.4375,-23.92578125,-90.33203125,-20.99609375,0.0
1734581532.5710783,-37.59765625,-34.66796875,-32.71484375,-35.15625,0.0
1734581532.5749211,-36.62109375,-30.2734375,-9.27734375,-41.50390625,0.0
1734581532.5787637,-36.1328125,-28.80859375,-44.43359375,-40.52734375,0.0
1734581532.5826066,-37.109375,-35.15625,-88.8671875,-33.203125,0.0
1734581532.5864494,-29.78515625,-28.80859375,-46.38671875,-23.92578125,0.0
1734581532.591271,-36.1328125,-28.80859375,-18.06640625,-23.4375,0.0
1734581532.5951147,-35.64453125,-30.76171875,-78.61328125,-28.80859375,0.0
1734581532.5989583,-19.04296875,-30.2734375,-142.578125,-27.34375,0.0
1734581532.602802,-24.90234375,-33.69140625,-46.875,-32.2265625,0.0
1734581532.6066458,-26.85546875,-32.71484375,21.97265625,-33.69140625,0.0
1734581532.6104896,-23.92578125,-39.0625,-58.59375,-22.4609375,0.0
1734581532.6143334,-30.76171875,-41.9921875,-120.60546875,-18.5546875,0.0
1734581532.618177,-44.921875,-28.80859375,-11.23046875,-34.1796875,0.0
1734581532.6220207,-43.9453125,-28.80859375,31.73828125,-33.69140625,0.0
1734581532.6258645,-35.15625,-34.66796875,-36.1328125,-27.83203125,0.0
1734581532.6297083,-37.59765625,-34.1796875,-44.43359375,-37.59765625,0.0
1734581532.633552,-41.9921875,-32.2265625,-10.7421875,-34.1796875,0.0
1734581532.6382866,-43.9453125,-31.25,-37.59765625,-40.0390625,0.0
1734581532.642131,-41.9921875,-34.66796875,-91.30859375,-45.41015625,0.0
1734581532.6459758,-42.96875,-36.62109375,-47.8515625,-39.55078125,0.0
1734581532.6498203,-43.45703125,-36.62109375,-10.25390625,-44.921875,0.0
1734581532.653665,-40.0390625,-33.69140625,-42.96875,-41.50390625,0.0
1734581532.6575096,-41.50390625,-37.59765625,-94.7265625,-30.76171875,0.0
1734581532.6613543,-35.15625,-39.55078125,-51.7578125,-31.73828125,0.0
1734581532.6651988,-31.73828125,-19.53125,15.13671875,-32.2265625,0.0
1734581532.6690435,-32.71484375,-18.5546875,-27.83203125,-32.71484375,0.0
1734581532.6728883,-36.62109375,-27.83203125,-95.703125,-34.66796875,0.0
1734581532.6767328,-46.38671875,-30.76171875,-39.0625,-33.203125,0.0
1734581532.6805775,-43.9453125,-29.296875,7.32421875,-24.4140625,0.0
1734581532.6857169,-35.15625,-31.25,-32.2265625,-18.06640625,0.0
1734581532.6895628,-28.80859375,-33.203125,-58.59375,-15.625,0.0
1734581532.6934087,-24.90234375,-28.3203125,-26.85546875,-13.671875,0.0
1734581532.6972547,-30.2734375,-26.85546875,-10.25390625,-20.99609375,0.0
1734581532.7011006,-27.34375,-29.78515625,-41.9921875,-21.97265625,0.0
1734581532.7049465,-21.484375,-33.69140625,-77.63671875,-17.08984375,0.0
1734581532.7087922,-36.62109375,-33.69140625,-58.59375,-20.01953125,0.0
1734581532.7126381,-39.55078125,-29.78515625,-23.92578125,-25.390625,0.0
1734581532.716484,-38.57421875,-31.73828125,-42.96875,-22.94921875,0.0
1734581532.72033,-42.48046875,-31.25,-71.77734375,-14.6484375,0.0
1734581532.724176,-40.0390625,-28.80859375,1.953125,-20.01953125,0.0
1734581532.7280219,-32.2265625,-31.25,-4.39453125,-21.97265625,0.0
1734581532.7330747,-32.2265625,-31.73828125,-59.5703125,-24.4140625,0.0
1734581532.7369218,-37.59765625,-29.296875,-50.29296875,-30.2734375,0.0
1734581532.740769,-34.1796875,-27.83203125,-3.90625,-27.83203125,0.0
1734581532.744616,-38.0859375,-32.71484375,-8.7890625,-26.3671875,0.0
1734581532.748463,-41.9921875,-37.59765625,-62.98828125,-29.78515625,0.0
1734581532.75231,-39.0625,-36.1328125,-75.68359375,-27.83203125,0.0
1734581532.7561572,-41.50390625,-27.83203125,-44.921875,-21.97265625,0.0
1734581532.7600043,-38.0859375,-21.97265625,-22.4609375,-24.4140625,0.0
1734581532.7638512,-35.64453125,-27.34375,-100.5859375,-18.06640625,0.0
1734581532.7676983,-39.0625,-32.71484375,-68.84765625,-17.08984375,0.0
1734581532.7715454,-38.57421875,-29.296875,-1.46484375,-21.97265625,0.0
1734581532.7753925,-44.43359375,-24.4140625,-24.4140625,-20.99609375,0.0
1734581532.78038,-44.921875,-30.2734375,-36.62109375,-23.4375,0.0
1734581532.784228,-42.48046875,-32.71484375,-17.578125,-29.296875,0.0
1734581532.7880764,-44.921875,-31.25,-18.06640625,-34.1796875,0.0
1734581532.7919245,-47.36328125,-38.0859375,-44.43359375,-35.15625,0.0
1734581532.7957726,-45.41015625,-31.25,-54.6875,-32.2265625,0.0
1734581532.7996209,-44.921875,-26.85546875,-69.3359375,-30.76171875,0.0
1734581532.803469,-44.921875,-36.1328125,-33.203125,-32.2265625,0.0
1734581532.807317,-37.59765625,-33.203125,-21.97265625,-26.85546875,0.0
1734581532.8111653,-41.015625,-29.78515625,-39.0625,-27.34375,0.0
1734581532.8150134,-45.8984375,-34.66796875,-7.8125,-31.73828125,0.0
1734581532.8188615,-37.59765625,-34.66796875,-14.16015625,-20.99609375,0.0
1734581532.8227098,-31.25,-30.2734375,-58.59375,-15.625,0.0
1734581532.827593,-34.1796875,-43.45703125,-76.66015625,-22.94921875,0.0
1734581532.831442,-35.64453125,-39.55078125,-32.71484375,-29.78515625,0.0
1734581532.8352911,-36.62109375,-25.390625,-40.52734375,-22.4609375,0.0
1734581532.8391404,-33.203125,-25.390625,-52.734375,-22.94921875,0.0
1734581532.8429894,-39.55078125,-26.3671875,-12.20703125,-30.2734375,0.0
1734581532.8468387,-41.015625,-24.4140625,-30.76171875,-32.71484375,0.0
1734581532.8506877,-35.64453125,-30.76171875,-49.8046875,-34.66796875,0.0
1734581532.854537,-35.64453125,-31.25,-78.61328125,-28.3203125,0.0
1734581532.858386,-41.50390625,-28.3203125,-52.24609375,-29.78515625,0.0
1734581532.862235,-42.96875,-28.3203125,19.53125,-36.1328125,0.0
1734581532.8660843,-41.015625,-27.83203125,-9.765625,-26.85546875,0.0
1734581532.8699334,-42.48046875,-28.3203125,-46.875,-20.5078125,0.0
1734581532.874742,-43.45703125,-31.25,-17.08984375,-24.90234375,0.0
1734581532.8785923,-40.0390625,-30.76171875,-15.13671875,-26.85546875,0.0
1734581532.8824422,-37.59765625,-27.34375,-54.6875,-27.34375,0.0
1734581532.8862922,-37.59765625,-23.4375,-54.19921875,-23.92578125,0.0
1734581532.8901422,-36.1328125,-24.4140625,-34.66796875,-21.97265625,0.0
1734581532.8939922,-38.57421875,-25.390625,-46.875,-25.390625,0.0
1734581532.8978424,-40.0390625,-27.34375,-79.1015625,-27.83203125,0.0
1734581532.9016924,-41.015625,-33.69140625,-119.62890625,-20.5078125,0.0
1734581532.9055424,-49.8046875,-41.015625,-13.671875,-28.3203125,0.0
1734581532.9093924,-47.8515625,-48.828125,17.578125,-35.64453125,0.0
1734581532.9132423,-49.8046875,-44.921875,-44.43359375,-34.66796875,0.0
1734581532.9170926,-56.15234375,-32.71484375,-31.25,-35.15625,0.0
1734581532.9222457,-51.7578125,-32.2265625,-13.671875,-39.0625,0.0
1734581532.926097,-45.41015625,-33.69140625,-53.7109375,-39.55078125,0.0
1734581532.929948,-38.57421875,-26.85546875,-60.546875,-39.0625,0.0
1734581532.9337993,-40.0390625,-27.34375,-12.20703125,-41.50390625,0.0
1734581532.9376507,-47.8515625,-31.73828125,-13.18359375,-42.48046875,0.0
1734581532.9415019,-41.50390625,-39.55078125,-73.73046875,-32.71484375,0.0
1734581532.945353,-30.76171875,-35.15625,-118.65234375,-24.90234375,0.0
1734581532.9492042,-46.875,-18.06640625,-80.56640625,-39.55078125,0.0
1734581532.9530556,-61.03515625,-25.87890625,0.48828125,-53.22265625,0.0
1734581532.9569068,-48.33984375,-31.25,-6.34765625,-37.109375,0.0
1734581532.960758,-41.015625,-23.92578125,-52.24609375,-30.76171875,0.0
1734581532.9646091,-41.9921875,-20.01953125,-22.4609375,-36.1328125,0.0
1734581532.9692435,-30.76171875,-22.4609375,-1.46484375,-33.69140625,0.0
1734581532.9730957,-21.97265625,-23.92578125,-35.64453125,-27.83203125,0.0
1734581532.9769475,-33.69140625,-27.83203125,-60.05859375,-28.80859375,0.0
1734581532.9807994,-40.52734375,-33.203125,-33.203125,-29.78515625,0.0
1734581532.9846513,-39.55078125,-33.203125,-20.99609375,-25.87890625,0.0
1734581532.9885035,-43.9453125,-32.2265625,-65.91796875,-30.76171875,0.0
1734581532.9923553,-44.921875,-28.3203125,-67.3828125,-31.25,0.0
1734581532.9962072,-44.43359375,-29.296875,-19.04296875,-24.90234375,0.0
1734581533.0000594,-43.45703125,-35.15625,-1.953125,-26.85546875,0.0
1734581533.0039113,-39.55078125,-37.109375,-55.17578125,-28.3203125,0.0
1734581533.0077631,-34.66796875,-34.1796875,-132.32421875,-23.4375,0.0
1734581533.011615,-37.59765625,-24.90234375,-31.73828125,-23.4375,0.0
1734581533.0162048,-39.55078125,-23.4375,0.48828125,-27.34375,0.0
1734581533.0200574,-42.96875,-33.69140625,-67.3828125,-28.3203125,0.0
1734581533.02391,-54.19921875,-35.64453125,-33.69140625,-32.2265625,0.0
1734581533.0277627,-53.22265625,-41.015625,1.46484375,-35.15625,0.0
1734581533.0316153,-40.0390625,-45.8984375,-17.578125,-36.1328125,0.0
1734581533.0354679,-44.921875,-45.8984375,-88.8671875,-33.203125,0.0
1734581533.0393205,-48.828125,-36.62109375,-78.125,-29.78515625,0.0
1734581533.0431733,-43.45703125,-29.78515625,-7.32421875,-29.78515625,0.0
1734581533.047026,-41.9921875,-31.73828125,-19.53125,-26.85546875,0.0
1734581533.0508785,-38.0859375,-28.80859375,-100.5859375,-15.13671875,0.0
1734581533.0547311,-39.55078125,-24.90234375,-58.59375,-18.06640625,0.0
1734581533.0585837,-41.9921875,-28.3203125,6.8359375,-26.85546875,0.0
1734581533.0635386,-37.109375,-31.25,-28.80859375,-27.83203125,0.0
1734581533.067392,-40.0390625,-26.3671875,-56.640625,-31.73828125,0.0
1734581533.0712457,-37.109375,-26.3671875,-26.85546875,-34.1796875,0.0
1734581533.0750992,-28.80859375,-26.85546875,7.32421875,-27.83203125,0.0
1734581533.078953,-35.64453125,-21.484375,-23.4375,-23.92578125,0.0
1734581533.0828066,-31.25,-24.4140625,-68.84765625,-22.4609375,0.0
1734581533.0866601,-27.34375,-22.4609375,-22.4609375,-14.6484375,0.0
1734581533.0905137,-28.3203125,-18.06640625,27.83203125,-19.04296875,0.0
1734581533.0943673,-29.296875,-21.484375,-44.921875,-17.08984375,0.0
1734581533.098221,-38.57421875,-26.3671875,-91.796875,-11.23046875,0.0
1734581533.1020746,-45.41015625,-30.2734375,6.34765625,-20.99609375,0.0
1734581533.1059282,-40.0390625,-33.203125,18.06640625,-22.4609375,0.0
1734581533.110808,-35.15625,-32.2265625,-37.109375,-20.01953125,0.0
1734581533.1146624,-30.2734375,-29.78515625,-41.015625,-16.6015625,0.0
1734581533.1185172,-32.71484375,-23.4375,-13.671875,-20.01953125,0.0
1734581533.1223717,-32.2265625,-20.99609375,-26.3671875,-21.97265625,0.0
1734581533.1262262,-25.87890625,-31.25,-70.80078125,-15.13671875,0.0
1734581533.1300807,-26.3671875,-32.2265625,-67.87109375,-14.6484375,0.0
1734581533.1339352,-34.1796875,-20.01953125,-41.9921875,-17.08984375,0.0
1734581533.1377897,-35.15625,-22.94921875,-47.36328125,-26.3671875,0.0
1734581533.1416442,-38.57421875,-31.25,-95.703125,-27.83203125,0.0
1734581533.1454988,-42.96875,-31.25,-49.31640625,-24.4140625,0.0
1734581533.1493533,-37.59765625,-36.1328125,32.71484375,-29.78515625,0.0
1734581533.1532078,-27.83203125,-32.2265625,0.0,-24.90234375,0.0
1734581533.158017,-25.390625,-24.4140625,-42.48046875,-18.5546875,0.0
1734581533.1618721,-29.78515625,-22.4609375,-24.90234375,-23.92578125,0.0
1734581533.1657276,-27.83203125,-21.484375,-9.765625,-23.92578125,0.0
1734581533.1695828,-34.1796875,-25.87890625,-33.203125,-23.92578125,0.0
1734581533.1734383,-36.1328125,-30.76171875,-49.8046875,-25.87890625,0.0
1734581533.1772935,-34.66796875,-33.69140625,-61.03515625,-27.34375,0.0
1734581533.181149,-35.64453125,-31.73828125,-50.78125,-28.3203125,0.0
1734581533.1850042,-23.4375,-24.4140625,-58.10546875,-17.578125,0.0
1734581533.1888597,-20.01953125,-23.92578125,-116.69921875,-5.859375,0.0
1734581533.192715,-31.25,-26.3671875,-20.99609375,-13.671875,0.0
1734581533.1965704,-35.64453125,-28.3203125,6.8359375,-19.53125,0.0
1734581533.2004259,-32.71484375,-28.3203125,-46.38671875,-24.4140625,0.0
1734581533.2055824,-30.76171875,-22.4609375,-49.8046875,-28.80859375,0.0
1734581533.2094388,-30.76171875,-25.87890625,-49.31640625,-25.87890625,0.0
1734581533.2132955,-33.69140625,-34.1796875,-34.66796875,-32.71484375,0.0
1734581533.2171519,-34.66796875,-33.69140625,-46.38671875,-34.1796875,0.0
1734581533.2210083,-30.2734375,-32.71484375,-44.43359375,-31.73828125,0.0
1734581533.2248647,-30.2734375,-35.15625,-52.734375,-32.2265625,0.0
1734581533.2287214,-28.80859375,-36.1328125,-41.50390625,-27.83203125,0.0
1734581533.2325778,-27.34375,-35.15625,-81.54296875,-21.97265625,0.0
1734581533.2364342,-31.25,-34.66796875,-56.15234375,-23.92578125,0.0
1734581533.2402909,-33.203125,-29.296875,33.69140625,-20.5078125,0.0
1734581533.2441473,-31.25,-23.4375,-1.46484375,-19.04296875,0.0
1734581533.2480037,-27.34375,-33.69140625,-53.7109375,-28.80859375,0.0
1734581533.252636,-31.25,-44.43359375,-22.94921875,-30.76171875,0.0
1734581533.256493,-32.2265625,-31.73828125,3.90625,-31.25,0.0
1734581533.2603502,-32.2265625,-25.390625,-33.69140625,-28.80859375,0.0
1734581533.2642074,-34.1796875,-26.85546875,-48.33984375,-26.85546875,0.0
1734581533.2680645,-39.0625,-27.34375,-16.6015625,-30.2734375,0.0
1734581533.2719216,-44.43359375,-34.1796875,-35.15625,-24.4140625,0.0
1734581533.2757788,-49.8046875,-38.57421875,-58.59375,-28.80859375,0.0
1734581533.279636,-55.17578125,-38.57421875,-44.43359375,-35.64453125,0.0
1734581533.283493,-46.875,-28.80859375,-17.578125,-31.25,0.0
1734581533.2873502,-35.64453125,-26.85546875,4.39453125,-30.2734375,0.0
1734581533.2912073,-35.64453125,-39.55078125,-51.26953125,-30.76171875,0.0
1734581533.2950644,-43.9453125,-40.52734375,-89.35546875,-29.78515625,0.0
1734581533.2996476,-42.48046875,-31.25,-17.578125,-29.296875,0.0
1734581533.3035054,-46.875,-33.203125,-48.33984375,-27.83203125,0.0
1734581533.307363,-41.015625,-31.25,-79.1015625,-30.2734375,0.0
1734581533.311221,-37.109375,-28.3203125,-16.11328125,-28.80859375,0.0
1734581533.3150787,-43.45703125,-37.109375,14.16015625,-27.34375,0.0
1734581533.3189363,-45.8984375,-37.59765625,-33.203125,-32.2265625,0.0
1734581533.3227942,-41.50390625,-29.78515625,-96.6796875,-29.78515625,0.0
1734581533.326652,-42.48046875,-31.25,-57.6171875,-27.83203125,0.0
1734581533.3305097,-42.96875,-35.15625,22.4609375,-33.69140625,0.0
1734581533.3343675,-34.1796875,-36.1328125,-7.32421875,-30.2734375,0.0
1734581533.3382254,-35.15625,-37.59765625,-51.26953125,-26.85546875,0.0
1734581533.342083,-41.9921875,-30.76171875,-32.71484375,-38.0859375,0.0
1734581533.3466122,-43.45703125,-28.3203125,-6.8359375,-43.9453125,0.0
1734581533.3504705,-37.109375,-34.1796875,-28.80859375,-35.64453125,0.0
1734581533.3543289,-33.69140625,-25.87890625,-48.33984375,-32.71484375,0.0
1734581533.3581872,-36.1328125,-22.4609375,-11.23046875,-36.62109375,0.0
1734581533.3620455,-36.1328125,-27.83203125,-18.5546875,-37.59765625,0.0
1734581533.3659039,-34.66796875,-29.296875,-74.70703125,-27.34375,0.0
1734581533.3697622,-31.25,-23.92578125,-77.63671875,-21.484375,0.0
1734581533.3736205,-34.66796875,-28.3203125,-10.7421875,-31.73828125,0.0
1734581533.3774788,-39.0625,-35.64453125,20.5078125,-34.1796875,0.0
1734581533.3813372,-38.0859375,-27.34375,-45.8984375,-25.390625,0.0
1734581533.3851955,-32.2265625,-29.296875,-75.68359375,-24.4140625,0.0
1734581533.3890538,-28.80859375,-29.296875,12.6953125,-35.64453125,0.0
1734581533.3935254,-30.2734375,-24.90234375,-16.6015625,-29.78515625,0.0
1734581533.3973844,-38.0859375,-30.2734375,-61.03515625,-22.4609375,0.0
1734581533.4012432,-34.1796875,-27.83203125,-18.5546875,-26.85546875,0.0
1734581533.405102,-37.109375,-27.83203125,-4.8828125,-29.296875,0.0
1734581533.4089608,-47.36328125,-32.2265625,-14.6484375,-29.78515625,0.0
1734581533.4128196,-45.41015625,-29.78515625,-68.359375,-23.92578125,0.0
1734581533.4166784,-47.8515625,-30.76171875,-65.4296875,-27.83203125,0.0
1734581533.4205375,-53.22265625,-32.71484375,-7.8125,-41.50390625,0.0
1734581533.4243963,-50.78125,-32.71484375,-45.41015625,-44.921875,0.0
1734581533.428255,-53.22265625,-33.69140625,-114.74609375,-32.2265625,0.0
1734581533.432114,-55.17578125,-45.41015625,-50.78125,-38.57421875,0.0
1734581533.4359727,-56.15234375,-43.9453125,12.6953125,-44.921875,0.0
1734581533.4407947,-54.19921875,-34.66796875,-35.15625,-37.109375,0.0
1734581533.4446542,-47.8515625,-35.64453125,-62.01171875,-32.71484375,0.0
1734581533.448514,-48.33984375,-36.62109375,-17.578125,-31.25,0.0
1734581533.4523735,-43.45703125,-31.73828125,7.32421875,-25.390625,0.0
1734581533.4562333,-40.0390625,-28.3203125,-25.87890625,-14.6484375,0.0
1734581533.4600928,-43.9453125,-31.73828125,-78.61328125,-26.3671875,0.0
1734581533.4639525,-39.0625,-26.85546875,-43.45703125,-35.15625,0.0
1734581533.467812,-40.52734375,-32.71484375,8.7890625,-33.69140625,0.0
1734581533.4716718,-42.48046875,-41.9921875,-44.921875,-26.3671875,0.0
1734581533.4755313,-41.50390625,-39.55078125,-97.65625,-16.11328125,0.0
1734581533.479391,-48.828125,-39.0625,-14.16015625,-23.4375,0.0
1734581533.4832506,-47.8515625,-36.1328125,-15.13671875,-23.92578125,0.0
1734581533.4880028,0.0,-36.62109375,0.0,-21.484375,0.0
1734581533.491863,0.0,-38.57421875,0.0,-27.34375,0.0
1734581533.4957235,0.0,-31.73828125,0.0,-30.76171875,0.0
1734581533.499584,0.0,-26.85546875,0.0,-25.87890625,0.0
1734581533.5034442,0.0,-27.83203125,0.0,-24.4140625,0.0
1734581533.5073047,0.0,-27.83203125,0.0,-28.80859375,0.0
1734581533.511165,0.0,-36.1328125,0.0,-29.296875,0.0
1734581533.5150254,0.0,-46.38671875,0.0,-29.78515625,0.0
1734581533.5188856,0.0,-40.0390625,0.0,-20.99609375,0.0
1734581533.522746,0.0,-30.2734375,0.0,-19.53125,0.0
1734581533.5266066,0.0,-34.66796875,0.0,-33.203125,0.0
1734581533.5304668,0.0,-41.50390625,0.0,-37.59765625,0.0
1734581533.5351555,-25.390625,-37.109375,-44.921875,-30.2734375,0.0
1734581533.5390165,-29.296875,-32.2265625,-12.20703125,-30.2734375,0.0
1734581533.5428777,-37.59765625,-30.76171875,-35.15625,-33.203125,0.0
1734581533.5467386,-35.15625,-32.71484375,-71.2890625,-25.87890625,0.0
1734581533.5505996,-33.69140625,-34.66796875,-37.59765625,-26.85546875,0.0
1734581533.5544608,-31.73828125,-35.15625,-41.9921875,-28.3203125,0.0
1734581533.5583217,-33.203125,-35.64453125,-39.55078125,-26.85546875,0.0
1734581533.5621827,-29.78515625,-34.1796875,-46.875,-26.85546875,0.0
1734581533.5660439,-30.76171875,-35.64453125,-110.83984375,-18.06640625,0.0
1734581533.5699048,-33.69140625,-31.73828125,-6.8359375,-20.99609375,0.0
1734581533.573766,-32.71484375,-26.85546875,27.83203125,-25.390625,0.0
1734581533.577627,-34.1796875,-32.2265625,-37.109375,-23.4375,0.0
1734581533.5822222,-37.109375,-36.62109375,-41.9921875,-30.76171875,0.0
1734581533.586084,-32.71484375,-33.69140625,-41.9921875,-32.71484375,0.0
1734581533.5899453,-38.0859375,-32.2265625,-27.34375,-27.34375,0.0
1734581533.593807,-44.921875,-37.109375,-44.921875,-29.78515625,0.0
1734581533.5976686,-40.52734375,-31.73828125,-43.45703125,-29.78515625,0.0
1734581533.6015303,-33.69140625,-21.484375,-58.59375,-26.3671875,0.0
1734581533.605392,-29.78515625,-18.06640625,-62.98828125,-25.390625,0.0
1734581533.6092536,-27.83203125,-15.13671875,-85.9375,-25.87890625,0.0
1734581533.613115,-27.83203125,-20.99609375,-47.36328125,-30.76171875,0.0
1734581533.6169767,-30.76171875,-25.390625,30.2734375,-37.59765625,0.0
1734581533.6208384,-27.34375,-27.34375,-11.71875,-35.15625,0.0
1734581533.6247,-28.3203125,-30.2734375,-48.828125,-36.1328125,0.0
1734581533.6292818,-35.15625,-38.0859375,-21.484375,-45.8984375,0.0
1734581533.633144,-38.0859375,-31.25,-9.27734375,-43.45703125,0.0
1734581533.637006,-34.66796875,-25.390625,-39.0625,-35.15625,0.0
1734581533.6408682,-36.1328125,-31.73828125,-57.12890625,-33.69140625,0.0
1734581533.6447306,-38.0859375,-30.76171875,-32.71484375,-36.62109375,0.0
1734581533.6485927,-35.15625,-23.92578125,-37.59765625,-32.2265625,0.0
1734581533.6524549,-30.76171875,-22.94921875,-64.453125,-28.3203125,0.0
1734581533.656317,-26.85546875,-27.83203125,-123.046875,-26.3671875,0.0
1734581533.6601794,-31.73828125,-23.92578125,-37.59765625,-31.73828125,0.0
1734581533.6640415,-36.1328125,-18.5546875,-12.6953125,-41.015625,0.0
1734581533.6679037,-37.109375,-21.97265625,-46.38671875,-39.0625,0.0
1734581533.6717658,-32.2265625,-32.2265625,0.0,-29.78515625,0.0
1734581533.6762733,0.0,-34.1796875,-12.20703125,-25.87890625,0.0
1734581533.680136,0.0,-30.2734375,-64.453125,-20.99609375,0.0
1734581533.6839986,0.0,-26.3671875,-53.7109375,-15.625,0.0
1734581533.6878614,0.0,-24.4140625,-16.11328125,-14.6484375,0.0
1734581533.691724,0.0,-26.3671875,-4.8828125,-22.4609375,0.0
1734581533.6955867,0.0,-28.80859375,-43.9453125,-32.71484375,0.0
1734581533.6994495,0.0,-31.25,-91.30859375,-17.578125,0.0
1734581533.7033122,0.0,-32.71484375,-31.73828125,-9.765625,0.0
1734581533.707175,0.0,-35.64453125,33.69140625,-18.5546875,0.0
1734581533.7110376,0.0,-34.66796875,-3.41796875,-18.06640625,0.0
1734581533.7149003,0.0,-34.66796875,-89.35546875,-7.8125,0.0
1734581533.718763,0.0,-39.55078125,-51.26953125,-13.18359375,0.0
1734581533.722109,-37.109375,-34.66796875,-17.578125,-33.69140625,0.0
1734581533.7259715,-35.15625,-33.69140625,-44.921875,-39.55078125,0.0
1734581533.7298336,-32.71484375,-28.3203125,-41.50390625,-25.390625,0.0
1734581533.733696,-40.0390625,-26.85546875,-15.13671875,-20.01953125,0.0
1734581533.7375584,-41.9921875,-33.203125,-10.7421875,-23.92578125,0.0
1734581533.7414205,-41.50390625,-30.2734375,-73.73046875,-20.5078125,0.0
1734581533.745283,-38.57421875,-27.83203125,-136.23046875,-13.18359375,0.0
1734581533.7491453,-33.203125,-28.80859375,-17.578125,-26.3671875,0.0
1734581533.7530074,-28.3203125,-27.83203125,23.92578125,-37.109375,0.0
1734581533.7568698,-38.0859375,-28.3203125,-43.9453125,-33.69140625,0.0
1734581533.7607322,-37.109375,-27.34375,-32.2265625,-24.4140625,0.0
1734581533.7645943,-38.0859375,-29.78515625,-24.4140625,-26.3671875,0.0
1734581533.7690227,-40.52734375,-31.73828125,-46.38671875,-35.15625,0.0
1734581533.7728853,-31.73828125,-31.25,-65.91796875,-29.296875,0.0
1734581533.7767482,-30.2734375,-20.01953125,-50.29296875,-22.4609375,0.0
1734581533.7806108,-34.1796875,-15.13671875,-47.8515625,-30.2734375,0.0
1734581533.7844737,-41.50390625,-28.80859375,-38.0859375,-40.52734375,0.0
1734581533.7883363,-43.9453125,-32.2265625,-74.70703125,-41.50390625,0.0
1734581533.7921991,-48.828125,-25.390625,-63.4765625,-47.36328125,0.0
1734581533.7960618,-52.24609375,-21.484375,1.46484375,-46.875,0.0
1734581533.7999246,-52.734375,-28.80859375,-22.4609375,-40.52734375,0.0
1734581533.8037872,-50.29296875,-32.2265625,-108.3984375,-36.1328125,0.0
1734581533.80765,-42.96875,-20.5078125,-58.59375,-30.2734375,0.0
1734581533.8115127,-43.45703125,-20.99609375,11.71875,-36.62109375,0.0
1734581533.816259,-45.41015625,-31.25,-34.1796875,0.0,0.0
1734581533.8201222,-49.31640625,-33.69140625,-59.08203125,0.0,0.0
1734581533.8239858,-53.7109375,-38.57421875,-37.109375,0.0,0.0
1734581533.8278491,-56.15234375,-43.45703125,-22.94921875,0.0,0.0
1734581533.8317125,-50.29296875,-34.1796875,-47.36328125,0.0,0.0
1734581533.835576,-42.96875,-29.78515625,-91.30859375,0.0,0.0
1734581533.8394394,-36.1328125,-26.85546875,-68.84765625,0.0,0.0
1734581533.8433027,-42.96875,-27.83203125,-20.01953125,0.0,0.0
1734581533.8471663,-47.8515625,-32.71484375,-41.015625,0.0,0.0
1734581533.8510296,-44.43359375,-31.73828125,-78.61328125,0.0,0.0
1734581533.854893,-47.36328125,-35.15625,-7.32421875,0.0,0.0
1734581533.8587565,-51.7578125,-44.43359375,3.90625,0.0,0.0
1734581533.8634405,-50.78125,-48.33984375,-39.55078125,-36.1328125,0.0
1734581533.8673046,-44.921875,-52.734375,-49.31640625,-37.59765625,0.0
1734581533.8711686,-46.38671875,-48.33984375,-11.71875,-40.0390625,0.0
1734581533.8750327,-44.43359375,-33.69140625,-14.16015625,-33.203125,0.0
1734581533.8788967,-40.0390625,-30.76171875,-54.6875,-27.34375,0.0
1734581533.8827608,-42.48046875,-33.203125,-65.4296875,-36.1328125,0.0
1734581533.8866248,-41.50390625,-36.62109375,-28.80859375,-39.0625,0.0
1734581533.8904889,-34.1796875,-37.59765625,7.8125,-41.50390625,0.0
1734581533.894353,-42.48046875,-31.73828125,-74.70703125,-39.0625,0.0
1734581533.898217,-52.734375,-33.69140625,-71.77734375,-30.76171875,0.0
1734581533.902081,-46.875,-40.0390625,15.625,-35.15625,0.0
1734581533.905945,-41.9921875,-44.921875,-4.39453125,-33.203125,0.0
1734581533.9105577,-41.50390625,-39.55078125,-39.0625,-31.73828125,0.0
1734581533.9144223,-43.45703125,-31.73828125,-8.7890625,-32.2265625,0.0
1734581533.918287,-41.015625,-33.203125,2.9296875,-27.83203125,0.0
1734581533.9221516,-36.62109375,-31.25,-21.97265625,-24.90234375,0.0
1734581533.926016,-40.52734375,-26.3671875,-50.78125,-28.3203125,0.0
1734581533.9298806,-35.64453125,-33.203125,-55.6640625,-28.80859375,0.0
1734581533.9337454,-28.80859375,-41.50390625,-12.20703125,-27.34375,0.0
1734581533.93761,-33.203125,-34.1796875,-31.73828125,-27.83203125,0.0
1734581533.9414744,-32.2265625,-25.87890625,-114.74609375,-17.08984375,0.0
1734581533.9453392,-36.62109375,-24.90234375,-20.01953125,-23.92578125,0.0
1734581533.9492037,-33.69140625,-33.203125,16.6015625,-29.78515625,0.0
1734581533.9530683,-27.34375,-35.15625,-31.73828125,-22.94921875,0.0
1734581533.9576392,-36.1328125,-24.90234375,-35.15625,-24.90234375,0.0
1734581533.9615045,-38.0859375,-24.4140625,-49.8046875,-31.73828125,0.0
1734581533.9653695,-38.57421875,-22.94921875,-54.6875,-33.69140625,0.0
1734581533.9692347,-40.0390625,-20.01953125,-37.109375,-33.203125,0.0
1734581533.9730997,-38.0859375,-29.78515625,-12.6953125,-27.83203125,0.0
1734581533.976965,-41.015625,-35.15625,-27.83203125,-25.87890625,0.0
1734581533.98083,-44.921875,-33.69140625,-38.0859375,-28.80859375,0.0
1734581533.9846952,-38.0859375,-31.73828125,-79.58984375,-21.97265625,0.0
1734581533.9885602,-30.76171875,-28.80859375,-41.015625,-14.16015625,0.0
1734581533.9924254,-29.296875,-33.203125,34.66796875,-15.13671875,0.0
1734581533.9962904,-28.80859375,-35.15625,-6.8359375,-14.6484375,0.0
1734581534.0001557,-21.484375,-28.80859375,-39.55078125,-10.7421875,0.0
1734581534.004643,-25.87890625,-30.2734375,-16.11328125,-11.23046875,0.0
1734581534.0085087,-27.83203125,-32.2265625,-10.25390625,-20.5078125,0.0
1734581534.0123742,-29.296875,-33.69140625,-29.296875,-24.4140625,0.0
1734581534.0162396,-33.69140625,-31.73828125,-52.24609375,-24.90234375,0.0
1734581534.0201054,-37.109375,-29.78515625,-38.0859375,-25.87890625,0.0
1734581534.0239708,-41.015625,-38.57421875,-37.59765625,-26.85546875,0.0
1734581534.0278366,-44.921875,-39.0625,-62.01171875,-32.2265625,0.0
1734581534.031702,-48.828125,-37.109375,-40.0390625,-33.203125,0.0
1734581534.0355678,-43.45703125,-40.52734375,-0.9765625,-25.87890625,0.0
1734581534.0394332,-42.96875,-32.2265625,3.90625,-19.04296875,0.0
1734581534.043299,-38.57421875,-29.78515625,-52.734375,-14.16015625,0.0
1734581534.0471644,-31.73828125,-34.66796875,-75.68359375,-15.625,0.0
1734581534.0516243,-32.71484375,-32.71484375,-13.671875,-24.4140625,0.0
1734581534.0554905,-26.3671875,-29.296875,-38.0859375,-23.92578125,0.0
1734581534.0593565,-21.97265625,-32.71484375,-43.45703125,-20.99609375,0.0
1734581534.0632224,-24.4140625,-31.73828125,-3.90625,-21.484375,0.0
1734581534.0670884,-34.1796875,-27.34375,-1.46484375,-26.3671875,0.0
1734581534.0709546,-33.69140625,-28.3203125,-32.71484375,-25.390625,0.0
1734581534.0748205,-29.296875,-29.78515625,-94.7265625,-18.06640625,0.0
1734581534.0786865,-30.2734375,-33.203125,-67.87109375,-11.71875,0.0
1734581534.0825524,-23.4375,-30.76171875,33.69140625,-11.71875,0.0
1734581534.0864186,-23.4375,-22.94921875,14.16015625,-12.20703125,0.0
1734581534.0902846,-24.4140625,-9.27734375,-28.3203125,-12.6953125,0.0
1734581534.0941505,-27.34375,-9.27734375,-11.23046875,-24.4140625,0.0
1734581534.098559,-37.59765625,-22.94921875,0.9765625,-33.69140625,0.0
1734581534.1024253,-32.2265625,-23.4375,-31.25,-27.83203125,0.0
1734581534.1062918,-29.78515625,-24.4140625,-52.24609375,-21.484375,0.0
1734581534.1101582,-40.0390625,-33.203125,-13.18359375,-23.4375,0.0
1734581534.1140246,-31.25,-38.0859375,-1.953125,-28.80859375,0.0
1734581534.1178908,-18.5546875,-29.78515625,-63.96484375,-27.83203125,0.0
1734581534.1217573,-27.83203125,-23.92578125,-126.46484375,-20.01953125,0.0
1734581534.1256237,-38.57421875,-28.80859375,-27.34375,-24.90234375,0.0
1734581534.1294901,-38.0859375,-31.73828125,21.484375,-30.76171875,0.0
1734581534.1333566,-38.0859375,-35.15625,-43.9453125,-26.85546875,0.0
1734581534.137223,-23.92578125,-26.85546875,-56.15234375,-20.5078125,0.0
1734581534.1410894,-24.90234375,-21.484375,-2.44140625,-21.97265625,0.0
1734581534.1454377,0.0,-28.3203125,-26.85546875,-38.0859375,0.0
1734581534.1493044,0.0,-30.76171875,-71.2890625,-45.8984375,0.0
1734581534.153171,0.0,-28.80859375,-28.80859375,-41.50390625,0.0
1734581534.157038,0.0,-29.296875,-2.9296875,-38.57421875,0.0
1734581534.1609046,0.0,-32.71484375,-21.97265625,-35.15625,0.0
1734581534.1647713,0.0,-30.76171875,-77.1484375,-30.2734375,0.0
1734581534.1686382,0.0,-27.34375,-67.3828125,-26.85546875,0.0
1734581534.172505,0.0,-23.92578125,-14.16015625,-22.4609375,0.0
1734581534.1763716,0.0,-32.2265625,-25.390625,-19.53125,0.0
1734581534.1802385,0.0,-37.59765625,-96.19140625,-20.99609375,0.0
1734581534.1841052,0.0,-30.2734375,-58.59375,-25.390625,0.0
1734581534.187972,0.0,-28.80859375,0.9765625,-30.2734375,0.0
1734581534.1926587,-41.50390625,-31.73828125,-37.109375,-35.64453125,0.0
1734581534.196526,-43.45703125,-42.96875,-71.2890625,-39.0625,0.0
1734581534.2003934,-36.62109375,-49.8046875,-22.94921875,-37.109375,0.0
1734581534.2042608,-34.1796875,-39.55078125,0.9765625,-38.0859375,0.0
1734581534.208128,-35.64453125,-33.203125,-39.55078125,-31.25,0.0
1734581534.2119954,-29.78515625,-35.64453125,-77.63671875,-27.34375,0.0
1734581534.2158628,-33.203125,-36.62109375,-39.0625,-32.71484375,0.0
1734581534.2197301,-40.52734375,-40.0390625,-5.859375,-34.66796875,0.0
1734581534.2235975,-34.66796875,-36.62109375,-48.33984375,-31.25,0.0
1734581534.227465,-29.296875,-29.78515625,-82.03125,-20.5078125,0.0
1734581534.231332,-33.69140625,-24.4140625,-3.41796875,-24.90234375,0.0
1734581534.2351995,-38.0859375,-22.4609375,8.7890625,-26.85546875,0.0
1734581534.239805,0.0,-34.66796875,-49.31640625,-26.3671875,0.0
1734581534.2436728,0.0,-41.015625,-51.26953125,-37.109375,0.0
1734581534.2475407,0.0,-38.57421875,-14.6484375,-41.9921875,0.0
1734581534.2514086,0.0,-38.0859375,-20.5078125,-35.64453125,0.0
1734581534.2552764,0.0,-39.55078125,-63.96484375,-34.1796875,0.0
1734581534.2591443,0.0,-38.0859375,-80.078125,-33.69140625,0.0
1734581534.2630122,0.0,-38.0859375,-47.8515625,-29.78515625,0.0
1734581534.26688,0.0,-36.1328125,-7.8125,-31.25,0.0
1734581534.270748,0.0,-26.85546875,-82.51953125,-28.80859375,0.0
1734581534.2746158,0.0,-26.3671875,-60.05859375,-28.80859375,0.0
1734581534.2784836,0.0,-28.80859375,25.87890625,-31.73828125,0.0
1734581534.2823515,0.0,-26.3671875,-29.78515625,-29.296875,0.0
1734581534.2868922,-49.8046875,-26.85546875,-65.4296875,-24.4140625,0.0
1734581534.2907605,-47.36328125,-30.76171875,-19.04296875,-23.92578125,0.0
1734581534.2946289,-34.66796875,-27.83203125,-1.46484375,-23.4375,0.0
1734581534.2984972,-33.203125,-29.78515625,-35.15625,-27.83203125,0.0
1734581534.3023655,-44.43359375,-39.0625,-63.96484375,-34.1796875,0.0
1734581534.306234,-41.015625,-35.15625,-65.91796875,-33.69140625,0.0
1734581534.3101022,-33.203125,-26.85546875,-16.11328125,-31.73828125,0.0
1734581534.3139706,-35.15625,-21.97265625,-29.296875,-27.83203125,0.0
1734581534.317839,-36.1328125,-21.97265625,-127.44140625,-18.5546875,0.0
1734581534.3217072,-32.2265625,-19.04296875,-30.2734375,-18.5546875,0.0
1734581534.3255756,-27.83203125,-18.5546875,12.6953125,-18.5546875,0.0
1734581534.3294437,-29.296875,-19.53125,-37.109375,-26.3671875,0.0
1734581534.3339405,-34.1796875,-22.94921875,-23.4375,-30.76171875,0.0
1734581534.3378093,-34.66796875,-25.390625,-35.15625,-28.80859375,0.0
1734581534.3416781,-40.52734375,-28.3203125,-30.76171875,-34.66796875,0.0
1734581534.345547,-34.66796875,-29.78515625,-50.29296875,-32.2265625,0.0
1734581534.3494158,-27.83203125,-25.87890625,-38.57421875,-30.2734375,0.0
1734581534.3532844,-28.80859375,-26.3671875,-28.3203125,-32.71484375,0.0
1734581534.3571532,-31.73828125,-30.2734375,-48.33984375,-41.50390625,0.0
1734581534.361022,-29.78515625,-31.73828125,-82.03125,-36.1328125,0.0
1734581534.3648908,-35.15625,-30.76171875,-49.31640625,-26.85546875,0.0
1734581534.3687596,-41.015625,-28.80859375,27.83203125,-32.71484375,0.0
1734581534.3726285,-37.109375,-32.71484375,-20.01953125,-30.2734375,0.0
1734581534.376497,-35.64453125,-32.71484375,-45.41015625,-27.83203125,0.0
1734581534.3809435,-38.0859375,-29.296875,-14.16015625,-29.296875,0.0
1734581534.3848128,-39.0625,-32.2265625,-19.53125,-23.4375,0.0
1734581534.388682,-37.59765625,-32.71484375,-52.24609375,-20.99609375,0.0
1734581534.3925512,-39.0625,-30.76171875,-57.12890625,-23.92578125,0.0
1734581534.3964202,-42.48046875,-36.1328125,-22.94921875,-32.2265625,0.0
1734581534.4002895,-43.9453125,-37.109375,-38.0859375,-34.66796875,0.0
1734581534.4041586,-41.50390625,-30.2734375,-71.77734375,-28.3203125,0.0
1734581534.408028,-36.1328125,-23.4375,-107.421875,-22.4609375,0.0
1734581534.411897,-35.64453125,-23.4375,5.859375,-25.87890625,0.0
1734581534.4157662,-32.2265625,-27.83203125,55.17578125,-23.4375,0.0
1734581534.4196353,-28.80859375,-26.85546875,-3.90625,-17.08984375,0.0
1734581534.4235046,-28.3203125,-32.2265625,-7.8125,-23.4375,0.0
1734581534.4279013,-22.94921875,-31.25,1.46484375,-21.484375,0.0
1734581534.4317708,-33.203125,-21.484375,-19.53125,-19.53125,0.0
1734581534.4356403,-34.1796875,-25.390625,-34.1796875,-23.92578125,0.0
1734581534.4395099,-26.3671875,-23.92578125,-0.48828125,-22.94921875,0.0
1734581534.4433794,-36.1328125,-17.578125,7.32421875,-30.76171875,0.0
1734581534.447249,-36.62109375,-23.92578125,-28.80859375,-33.203125,0.0
1734581534.4511185,-27.34375,-28.3203125,-79.58984375,-18.06640625,0.0
1734581534.454988,-31.25,-31.25,-50.29296875,-16.6015625,0.0
1734581534.4588575,-37.59765625,-32.71484375,36.1328125,-24.4140625,0.0
1734581534.462727,-29.296875,-28.80859375,7.32421875,-18.5546875,0.0
1734581534.4665966,-25.390625,-27.34375,-49.31640625,-19.53125,0.0
1734581534.4704661,-26.3671875,-26.85546875,-14.16015625,-24.4140625,0.0
1734581534.4748158,-23.4375,-31.73828125,20.99609375,-26.3671875,0.0
1734581534.4786856,-29.78515625,-35.15625,-18.06640625,-27.83203125,0.0
1734581534.4825556,-34.66796875,-29.78515625,-49.31640625,-30.76171875,0.0
1734581534.4864254,-33.203125,-24.4140625,-13.18359375,-27.83203125,0.0
1734581534.4902954,-24.4140625,-21.97265625,-6.34765625,-20.99609375,0.0
1734581534.4941652,-24.4140625,-31.25,-50.29296875,-22.4609375,0.0
1734581534.498035,-30.76171875,-36.1328125,-64.94140625,-22.4609375,0.0
1734581534.501905,-33.69140625,-32.2265625,17.08984375,-28.3203125,0.0
1734581534.5057747,-33.203125,-30.2734375,36.62109375,-35.15625,0.0
1734581534.5096445,-29.78515625,-40.0390625,-20.99609375,-21.484375,0.0
1734581534.5135145,-25.390625,-38.0859375,-24.4140625,-17.578125,0.0
1734581534.5173843,-29.78515625,-24.90234375,20.01953125,-32.2265625,0.0
1734581534.5216784,-34.1796875,-25.390625,-2.44140625,-33.69140625,0.0
1734581534.5255487,-38.0859375,-25.390625,-58.10546875,-33.69140625,0.0
1734581534.5294187,-36.62109375,-22.4609375,-18.5546875,-36.1328125,0.0
1734581534.533289,-34.1796875,-21.484375,38.57421875,-33.203125,0.0
1734581534.5371592,-34.66796875,-22.4609375,25.390625,-31.25,0.0
1734581534.5410292,-32.2265625,-25.390625,-45.41015625,-22.4609375,0.0
1734581534.5448995,-26.3671875,-24.4140625,-38.0859375,-19.04296875,0.0
1734581534.5487695,-31.25,-24.4140625,24.4140625,-27.83203125,0.0
1734581534.5526397,-39.55078125,-23.92578125,-16.6015625,-30.2734375,0.0
1734581534.5565097,-34.1796875,-28.3203125,-75.68359375,-24.4140625,0.0
1734581534.56038,-35.64453125,-32.2265625,-18.06640625,-32.2265625,0.0
1734581534.56425,-41.015625,-33.69140625,27.34375,-36.1328125,0.0
1734581534.5688386,-37.59765625,-38.0859375,-20.99609375,-31.25,0.0
1734581534.5727093,-33.69140625,-37.59765625,-36.62109375,-38.0859375,0.0
1734581534.5765798,-36.1328125,-38.0859375,-8.7890625,-41.015625,0.0
1734581534.5804505,-38.57421875,-36.62109375,-3.90625,-38.57421875,0.0
1734581534.584321,-32.2265625,-43.9453125,-36.1328125,-41.50390625,0.0
1734581534.5881917,-34.1796875,-52.24609375,-86.42578125,-43.9453125,0.0
1734581534.5920625,-38.57421875,-42.48046875,-41.9921875,-39.55078125,0.0
1734581534.595933,-30.76171875,-28.3203125,20.99609375,-34.66796875,0.0
1734581534.5998037,-24.90234375,-39.0625,-30.2734375,-27.34375,0.0
1734581534.6036742,-32.71484375,-43.45703125,-83.984375,-25.390625,0.0
1734581534.607545,-42.96875,-25.390625,-18.06640625,-37.59765625,0.0
1734581534.6114154,-38.57421875,-23.4375,-22.4609375,-37.59765625,0.0
1734581534.6159246,-33.203125,-25.390625,-57.12890625,-35.15625,0.0
1734581534.6197956,-33.69140625,-28.3203125,-45.8984375,-37.59765625,0.0
1734581534.6236668,-34.1796875,-37.109375,-2.9296875,-35.15625,0.0
1734581534.6275377,-33.69140625,-36.62109375,-7.32421875,-32.71484375,0.0
1734581534.6314087,-26.3671875,-23.4375,-52.734375,-28.3203125,0.0
1734581534.63528,-21.97265625,-18.5546875,-58.59375,-26.85546875,0.0
1734581534.6391509,-28.80859375,-35.15625,-22.4609375,-32.71484375,0.0
1734581534.6430218,-33.203125,-49.8046875,-13.18359375,-32.71484375,0.0
1734581534.6468928,-32.71484375,-35.15625,-98.14453125,-30.2734375,0.0
1734581534.650764,-40.0390625,-24.4140625,-60.546875,-35.15625,0.0
1734581534.654635,-38.57421875,-28.3203125,15.13671875,-35.64453125,0.0
1734581534.658506,-34.66796875,-31.25,-20.01953125,-27.34375,0.0
1734581534.6629937,-42.48046875,-30.76171875,-100.5859375,-27.83203125,0.0
1734581534.666865,-43.45703125,-27.34375,-60.546875,-37.59765625,0.0
1734581534.6707366,-36.62109375,-27.34375,-20.5078125,-41.9921875,0.0
1734581534.674608,-38.0859375,-31.73828125,-28.80859375,-45.8984375,0.0
1734581534.6784794,-37.109375,-31.73828125,-23.4375,-44.43359375,0.0
1734581534.6823509,-34.66796875,-36.1328125,-54.6875,-36.1328125,0.0
1734581534.6862226,-34.1796875,-47.36328125,-42.96875,-35.64453125,0.0
1734581534.690094,-37.59765625,-41.015625,-38.57421875,-29.78515625,0.0
1734581534.6939654,-38.0859375,-35.64453125,-113.76953125,-21.484375,0.0
1734581534.6978369,-35.15625,-42.48046875,-25.87890625,-28.3203125,0.0
1734581534.7017083,-35.64453125,-52.24609375,15.625,-34.1796875,0.0
1734581534.7055798,-33.203125,-37.109375,-48.828125,-34.66796875,0.0
1734581534.7100308,-33.69140625,-19.04296875,-49.31640625,-39.0625,0.0
1734581534.7139025,-39.55078125,-28.80859375,-38.0859375,-45.41015625,0.0
1734581534.7177744,-41.9921875,-28.80859375,-19.53125,-46.875,0.0
1734581534.721646,-39.0625,-27.34375,-45.8984375,-39.55078125,0.0
1734581534.725518,-35.15625,-39.0625,-48.828125,-36.62109375,0.0
1734581534.72939,-32.71484375,-40.52734375,-39.0625,-38.57421875,0.0
1734581534.7332616,-34.1796875,-26.85546875,-56.15234375,-44.921875,0.0
1734581534.7371335,-22.94921875,-16.11328125,-85.9375,-32.71484375,0.0
1734581534.7410052,-24.4140625,-21.484375,-46.875,-22.4609375,0.0
1734581534.744877,-30.76171875,-28.3203125,25.390625,-29.78515625,0.0
1734581534.748749,-32.2265625,-34.66796875,-10.7421875,-26.3671875,0.0
1734581534.7526207,-29.78515625,-33.69140625,-39.0625,-25.87890625,0.0
1734581534.7570353,0.0,-23.92578125,0.0,-28.80859375,0.0
1734581534.7609074,0.0,-28.80859375,0.0,-21.484375,0.0
1734581534.7647796,0.0,-34.66796875,0.0,-15.625,0.0
1734581534.7686517,0.0,-33.203125,0.0,-19.04296875,0.0
1734581534.7725239,0.0,-26.85546875,0.0,-23.92578125,0.0
1734581534.776396,0.0,-17.08984375,0.0,-24.4140625,0.0
1734581534.7802682,0.0,-18.5546875,0.0,-27.83203125,0.0
1734581534.7841403,0.0,-23.92578125,0.0,-35.15625,0.0
1734581534.7880125,0.0,-24.90234375,0.0,-40.0390625,0.0
1734581534.7918847,0.0,-27.83203125,0.0,-38.57421875,0.0
1734581534.7957568,0.0,-38.0859375,0.0,-38.0859375,0.0
1734581534.7996292,0.0,-41.015625,0.0,-36.1328125,0.0
1734581534.8039782,-39.55078125,-42.96875,-16.11328125,-32.71484375,0.0
1734581534.8078508,-35.64453125,-45.8984375,-48.33984375,-33.203125,0.0
1734581534.8117232,-38.57421875,-35.64453125,-48.33984375,-33.69140625,0.0
1734581534.8155956,-36.1328125,-25.390625,-12.20703125,-32.71484375,0.0
1734581534.8194683,-35.64453125,-24.4140625,-7.8125,-28.80859375,0.0
1734581534.8233407,-35.15625,-26.3671875,-50.78125,-24.90234375,0.0
1734581534.8272133,-36.1328125,-35.15625,-99.609375,-21.484375,0.0
1734581534.8310857,-35.15625,-37.109375,-62.5,-18.06640625,0.0
1734581534.834958,-30.2734375,-25.390625,25.390625,-16.11328125,0.0
1734581534.8388307,-27.83203125,-28.80859375,-7.8125,-20.99609375,0.0
1734581534.842703,-36.1328125,-35.64453125,-55.6640625,-27.34375,0.0
1734581534.8465755,-38.0859375,-32.71484375,-44.43359375,-27.34375,0.0
1734581534.8508775,-32.2265625,-35.64453125,-22.94921875,-30.2734375,0.0
1734581534.8547502,-43.9453125,-41.50390625,-22.4609375,-31.73828125,0.0
1734581534.858623,-49.8046875,-40.52734375,-36.62109375,-28.80859375,0.0
1734581534.8624957,-42.96875,-36.1328125,-10.25390625,-27.83203125,0.0
1734581534.8663685,-37.59765625,-33.203125,-11.71875,-34.66796875,0.0
1734581534.8702412,-37.109375,-25.87890625,-77.63671875,-32.2265625,0.0
1734581534.874114,-33.69140625,-18.5546875,-133.30078125,-19.53125,0.0
1734581534.8779867,-32.2265625,-22.94921875,-20.99609375,-24.90234375,0.0
1734581534.8818595,-28.80859375,-28.80859375,25.87890625,-29.296875,0.0
1734581534.8857322,-20.99609375,-26.3671875,-37.109375,-16.11328125,0.0
1734581534.889605,-27.34375,-28.80859375,-31.73828125,-19.53125,0.0
1734581534.8934777,-38.0859375,-26.85546875,10.25390625,-26.3671875,0.0
1734581534.8977416,-38.0859375,-29.296875,-21.484375,-25.390625,0.0
1734581534.9016147,-40.0390625,-34.66796875,-68.359375,-26.3671875,0.0
1734581534.9054875,-39.0625,-25.390625,-41.015625,-31.25,0.0
1734581534.9093606,-33.69140625,-15.625,-11.23046875,-35.15625,0.0
1734581534.9132338,-22.4609375,-21.97265625,-0.48828125,-31.25,0.0
1734581534.9171066,-31.73828125,-26.85546875,-54.19921875,-32.2265625,0.0
1734581534.9209797,-42.48046875,-24.4140625,-49.8046875,-28.3203125,0.0
1734581534.9248526,-38.0859375,-32.2265625,3.41796875,-30.76171875,0.0
1734581534.9287257,-37.59765625,-29.296875,-13.671875,-29.296875,0.0
1734581534.9325986,-40.0390625,-27.34375,-86.42578125,-22.4609375,0.0
1734581534.9364717,-44.43359375,-32.71484375,-42.96875,-34.66796875,0.0
1734581534.9403446,-47.36328125,-32.71484375,9.765625,-41.015625,0.0
1734581534.944874,-47.8515625,-26.85546875,-44.43359375,-35.64453125,0.0
1734581534.9487476,-48.828125,-25.87890625,-65.91796875,-40.0390625,0.0
1734581534.952621,-49.8046875,-29.78515625,-23.92578125,-41.50390625,0.0
1734581534.9564943,-41.50390625,-31.25,-1.953125,-32.2265625,0.0
1734581534.9603677,-31.25,-25.87890625,-38.57421875,-25.390625,0.0
1734581534.9642413,-36.1328125,-23.92578125,-85.9375,-25.390625,0.0
1734581534.9681146,-36.1328125,-33.69140625,-65.4296875,-23.92578125,0.0
1734581534.971988,-28.80859375,-27.83203125,-8.7890625,-20.01953125,0.0
1734581534.9758613,-28.80859375,-22.94921875,-31.73828125,-22.4609375,0.0
1734581534.979735,-33.203125,-30.76171875,-89.35546875,-23.4375,0.0
1734581534.9836082,-43.9453125,-31.73828125,-7.32421875,-26.85546875,0.0
1734581534.9874816,-41.50390625,-41.50390625,19.04296875,-30.2734375,0.0
1734581534.9919581,-39.55078125,-43.9453125,-32.2265625,-33.203125,0.0
1734581534.995832,-38.0859375,-31.73828125,-42.96875,-30.2734375,0.0
1734581534.9997058,-38.57421875,-29.78515625,-5.859375,-35.64453125,0.0
1734581535.0035796,-41.50390625,-27.34375,-14.6484375,-41.9921875,0.0
1734581535.0074534,-41.9921875,-24.4140625,-71.2890625,-34.66796875,0.0
1734581535.011327,-41.50390625,-24.90234375,-74.70703125,-34.66796875,0.0
1734581535.0152009,-38.57421875,-32.71484375,-25.390625,-33.69140625,0.0
1734581535.0190747,-39.0625,-38.0859375,0.48828125,-25.390625,0.0
1734581535.0229485,-39.55078125,-41.015625,-83.984375,-26.85546875,0.0
1734581535.0268223,-40.52734375,-37.59765625,-61.5234375,-31.25,0.0
1734581535.0306962,-34.1796875,-26.85546875,21.484375,-27.34375,0.0
1734581535.03457,-31.25,-20.01953125,-33.203125,-24.90234375,0.0
1734581535.039005,-29.296875,-20.99609375,-84.47265625,-17.08984375,0.0
1734581535.0428793,-25.390625,-29.296875,-24.90234375,-20.5078125,0.0
1734581535.0467534,-28.80859375,-33.203125,6.34765625,-32.2265625,0.0
1734581535.0506275,-27.34375,-33.69140625,-31.25,-29.78515625,0.0
1734581535.0545018,-25.390625,-34.1796875,-36.62109375,-29.296875,0.0
1734581535.0583758,-22.4609375,-26.3671875,-41.015625,-30.76171875,0.0
1734581535.06225,-24.4140625,-23.4375,-18.06640625,-23.92578125,0.0
1734581535.066124,-26.85546875,-24.90234375,-24.4140625,-11.71875,0.0
1734581535.0699983,-20.01953125,-31.25,-104.4921875,-5.859375,0.0
1734581535.0738723,-24.4140625,-35.64453125,1.46484375,-18.5546875,0.0
1734581535.0777464,-26.3671875,-25.87890625,51.7578125,-22.4609375,0.0
1734581535.0816207,-23.4375,-19.04296875,-22.4609375,-18.5546875,0.0
1734581535.0860307,-23.4375,-20.99609375,-48.33984375,-18.06640625,0.0
1734581535.0899053,-20.5078125,-23.92578125,-8.7890625,-19.53125,0.0
1734581535.0937798,-24.4140625,-28.80859375,27.34375,-25.390625,0.0
1734581535.097654,-30.76171875,-28.3203125,-6.8359375,-29.296875,0.0
1734581535.1015286,-26.3671875,-25.87890625,-8.7890625,-28.80859375,0.0
1734581535.1054032,-28.80859375,-33.69140625,-13.18359375,-25.390625,0.0
1734581535.1092775,-28.3203125,-35.15625,-28.3203125,-21.97265625,0.0
1734581535.113152,-19.04296875,-28.3203125,-48.828125,-18.5546875,0.0
1734581535.1170266,-15.625,-29.296875,-15.13671875,-15.13671875,0.0
1734581535.1209009,-23.92578125,-28.80859375,54.19921875,-15.13671875,0.0
1734581535.1247754,-30.2734375,-28.3203125,20.5078125,-16.11328125,0.0
1734581535.12865,-32.71484375,-28.80859375,-18.5546875,-17.578125,0.0
1734581535.1329827,-33.203125,-31.25,5.37109375,-23.4375,0.0
1734581535.1368575,-26.85546875,-34.66796875,20.5078125,-29.78515625,0.0
1734581535.1407323,-26.85546875,-33.203125,-16.6015625,-25.390625,0.0
1734581535.144607,-34.66796875,-38.0859375,-50.78125,-23.92578125,0.0
1734581535.1484818,-40.52734375,-38.57421875,-11.23046875,-33.69140625,0.0
1734581535.1523566,-36.1328125,-38.0859375,-25.390625,-34.66796875,0.0
1734581535.1562312,-35.64453125,-38.57421875,-65.4296875,-33.203125,0.0
1734581535.160106,-35.15625,-33.69140625,-104.4921875,-23.4375,0.0
1734581535.1639807,-37.109375,-28.80859375,10.7421875,-24.4140625,0.0
1734581535.1678555,-39.55078125,-26.85546875,54.19921875,-26.85546875,0.0
1734581535.1717303,-38.57421875,-33.69140625,-15.13671875,-26.3671875,0.0
1734581535.175605,-35.64453125,-32.71484375,0.48828125,-31.73828125,0.0
1734581535.1799092,-30.76171875,-27.83203125,0.0,-28.3203125,0.0
1734581535.1837842,-28.80859375,-31.25,-38.0859375,-24.4140625,0.0
1734581535.1876593,-31.73828125,-35.64453125,-37.109375,-29.296875,0.0
1734581535.1915343,-33.203125,-29.296875,4.8828125,-30.76171875,0.0
1734581535.1954093,-31.73828125,-32.2265625,18.06640625,-27.34375,0.0
1734581535.1992843,-31.73828125,-33.69140625,-29.78515625,-25.87890625,0.0
1734581535.2031593,-28.3203125,-24.4140625,-72.75390625,-17.578125,0.0
1734581535.2070343,-29.296875,-23.92578125,-40.52734375,-14.16015625,0.0
1734581535.2109094,-37.109375,-31.73828125,41.9921875,-30.76171875,0.0
1734581535.2147841,-41.015625,-36.62109375,19.53125,-33.69140625,0.0
1734581535.2186592,-36.1328125,-28.3203125,-42.96875,-24.90234375,0.0
1734581535.2225342,-33.69140625,-20.5078125,-14.6484375,-19.53125,0.0
1734581535.226792,-32.2265625,-24.90234375,4.8828125,-18.5546875,0.0
1734581535.2306674,-34.1796875,-29.78515625,-27.83203125,-18.5546875,0.0
1734581535.2345426,-30.2734375,-25.87890625,-45.41015625,-16.6015625,0.0
1734581535.2384179,-31.73828125,-23.4375,-21.97265625,-22.94921875,0.0
1734581535.2422931,-41.015625,-28.80859375,-7.8125,-29.296875,0.0
1734581535.2461681,-36.62109375,-35.64453125,-52.734375,-23.4375,0.0
1734581535.2500434,-34.66796875,-31.73828125,-120.60546875,-12.20703125,0.0
1734581535.2539186,-35.64453125,-24.4140625,-7.8125,-16.6015625,0.0
1734581535.257794,-30.2734375,-27.83203125,30.76171875,-23.4375,0.0
1734581535.2616692,-30.2734375,-36.1328125,-45.41015625,-27.34375,0.0
1734581535.2655444,-33.69140625,-44.43359375,-40.52734375,-31.73828125,0.0
1734581535.2694197,-26.3671875,-49.31640625,-12.6953125,-26.85546875,0.0
1734581535.2736409,-22.94921875,-43.9453125,-20.5078125,-23.4375,0.0
1734581535.2775164,-18.06640625,-36.62109375,-52.24609375,-25.390625,0.0
1734581535.2813916,-17.08984375,-36.1328125,-25.390625,-25.87890625,0.0
1734581535.285267,-20.99609375,-36.62109375,-0.48828125,-20.5078125,0.0
1734581535.2891426,-22.94921875,-39.0625,-26.85546875,-19.04296875,0.0
1734581535.293018,-30.2734375,-41.50390625,-78.61328125,-20.99609375,0.0
1734581535.2968934,-37.109375,-34.66796875,-60.05859375,-21.484375,0.0
1734581535.3007689,-44.43359375,-34.1796875,4.8828125,-25.390625,0.0
1734581535.3046443,-48.33984375,-42.96875,-13.18359375,-32.2265625,0.0
1734581535.3085198,-47.8515625,-42.96875,-100.09765625,-31.73828125,0.0
1734581535.312395,-47.8515625,-41.015625,-53.7109375,-30.2734375,0.0
1734581535.3162706,-37.109375,-40.52734375,20.5078125,-31.73828125,0.0
1734581535.3207698,-41.50390625,-25.390625,-29.78515625,-29.296875,0.0
1734581535.3246455,-55.6640625,-20.01953125,-51.26953125,-20.99609375,0.0
1734581535.3285215,-53.7109375,-27.83203125,-11.23046875,-14.16015625,0.0
1734581535.3323972,-44.43359375,-25.87890625,-2.44140625,-17.08984375,0.0
1734581535.336273,-37.59765625,-21.484375,-35.15625,-20.5078125,0.0
1734581535.340149,-34.66796875,-19.53125,-71.77734375,-15.625,0.0
1734581535.3440247,-38.0859375,-23.92578125,-36.62109375,-23.4375,0.0
1734581535.3479004,-39.55078125,-28.80859375,3.41796875,-32.2265625,0.0
1734581535.3517761,-40.52734375,-32.2265625,-48.33984375,-28.3203125,0.0
1734581535.355652,-40.0390625,-33.69140625,-96.19140625,-20.5078125,0.0
1734581535.3595278,-38.57421875,-28.80859375,-13.671875,-23.4375,0.0
1734581535.3634036,-33.69140625,-26.3671875,6.34765625,-25.390625,0.0
1734581535.3678484,-30.76171875,-22.4609375,-43.9453125,-26.85546875,0.0
1734581535.3717244,-37.109375,-22.4609375,-62.5,-31.73828125,0.0
1734581535.3756006,-41.015625,-24.90234375,-9.27734375,-36.1328125,0.0
1734581535.3794768,-40.0390625,-27.83203125,-14.6484375,-42.96875,0.0
1734581535.3833528,-43.45703125,-32.2265625,-62.01171875,-44.921875,0.0
1734581535.387229,-48.33984375,-31.73828125,-64.94140625,-42.96875,0.0
1734581535.3911052,-42.96875,-25.87890625,-44.43359375,-36.1328125,0.0
1734581535.3949811,-36.62109375,-33.69140625,-20.99609375,-32.71484375,0.0
1734581535.3988574,-28.80859375,-36.1328125,-83.0078125,-27.83203125,0.0
1734581535.4027336,-29.296875,-26.3671875,-62.5,-25.390625,0.0
1734581535.4066098,-37.109375,-22.4609375,14.6484375,-37.109375,0.0
1734581535.4104857,-34.66796875,-28.3203125,-14.16015625,-38.0859375,0.0
1734581535.414889,-34.1796875,-25.390625,-47.36328125,-36.62109375,0.0
1734581535.4187655,-40.0390625,-19.53125,-20.01953125,-41.9921875,0.0
1734581535.4226418,-31.73828125,-29.296875,-12.6953125,-38.0859375,0.0
1734581535.4265182,-32.2265625,-27.83203125,-41.50390625,-41.50390625,0.0
1734581535.4303946,-30.2734375,-11.71875,-57.12890625,-44.43359375,0.0
1734581535.434271,-21.97265625,-15.13671875,-52.734375,-39.0625,0.0
1734581535.4381475,-29.78515625,-22.94921875,-28.3203125,-37.59765625,0.0
1734581535.442024,-30.76171875,-21.97265625,-46.875,-36.62109375,0.0
