timestamps,TP9,AF7,AF8,TP10,Right AUX
1734413040.6071458,-38.0859375,192.3828125,-193.359375,-25.87890625,0.0
1734413040.6110184,-18.06640625,100.5859375,54.19921875,-17.578125,0.0
1734413040.6148908,-27.83203125,180.6640625,218.75,-26.3671875,0.0
1734413040.6193352,-40.0390625,231.93359375,89.84375,-39.0625,0.0
1734413040.623208,-47.8515625,62.98828125,-89.84375,-38.57421875,0.0
1734413040.6270807,-41.9921875,-169.921875,-360.83984375,3.90625,0.0
1734413040.6309533,-26.3671875,97.16796875,10.7421875,1.46484375,0.0
1734413040.6348262,-12.20703125,280.76171875,243.1640625,-25.390625,0.0
1734413040.6386988,-29.78515625,-83.984375,-169.43359375,-26.3671875,0.0
1734413040.6425714,-38.57421875,-695.80078125,-478.02734375,0.9765625,0.0
1734413040.646444,-38.57421875,-686.03515625,-458.0078125,4.8828125,0.0
1734413040.650317,-43.9453125,146.97265625,28.3203125,-36.1328125,0.0
1734413040.6541896,-14.6484375,261.71875,238.28125,-32.71484375,0.0
1734413040.6580622,-5.37109375,-178.7109375,-159.1796875,-4.8828125,0.0
1734413040.661935,-32.71484375,-225.5859375,-295.41015625,4.39453125,0.0
1734413040.6661007,-37.59765625,88.37890625,-215.33203125,-0.9765625,0.0
1734413040.6699736,-21.97265625,80.56640625,-36.1328125,-6.8359375,0.0
1734413040.6738465,-12.6953125,8.30078125,174.8046875,-11.23046875,0.0
1734413040.6777194,-22.4609375,196.77734375,148.92578125,-35.64453125,0.0
1734413040.681592,-45.8984375,116.69921875,-15.625,-41.015625,0.0
1734413040.6854649,-50.78125,-388.671875,-362.3046875,-0.9765625,0.0
1734413040.6893377,-35.64453125,-363.76953125,-178.22265625,-2.44140625,0.0
1734413040.6932106,-8.7890625,218.26171875,250.48828125,-27.83203125,0.0
1734413040.6970835,-24.90234375,352.05078125,196.77734375,-32.2265625,0.0
1734413040.7009563,-38.57421875,-367.67578125,-265.13671875,-13.18359375,0.0
1734413040.7048292,-47.8515625,-784.66796875,-546.38671875,-10.7421875,0.0
1734413040.708702,-48.33984375,16.6015625,-75.1953125,-34.1796875,0.0
1734413040.7130759,-10.25390625,314.453125,246.58203125,-22.94921875,0.0
1734413040.7169487,-16.6015625,-113.28125,-38.0859375,-17.578125,0.0
1734413040.7208219,-46.38671875,-314.453125,-307.6171875,-17.578125,0.0
1734413040.724695,-64.94140625,-73.2421875,-282.71484375,1.46484375,0.0
1734413040.728568,-44.921875,15.625,-269.53125,-9.27734375,0.0
1734413040.7324412,-16.11328125,-174.8046875,4.8828125,-32.71484375,0.0
1734413040.7363143,-20.5078125,-293.9453125,35.15625,-19.04296875,0.0
1734413040.7401874,-45.8984375,-224.609375,-216.30859375,-23.4375,0.0
1734413040.7440605,-51.26953125,-201.171875,-305.17578125,-7.8125,0.0
1734413040.7479336,-29.78515625,-518.5546875,-391.6015625,0.48828125,0.0
1734413040.7518065,-24.90234375,-170.8984375,33.69140625,-32.71484375,0.0
1734413040.7556796,-21.484375,336.9140625,273.92578125,-44.921875,0.0
1734413040.760031,-31.25,-25.87890625,-91.796875,-42.96875,0.0
1734413040.7639043,-53.7109375,-288.57421875,-364.74609375,-20.99609375,0.0
1734413040.7677777,-45.41015625,-16.11328125,-253.90625,-19.04296875,0.0
1734413040.7716508,-6.8359375,298.33984375,167.96875,-30.2734375,0.0
1734413040.7755241,2.44140625,76.66015625,146.484375,-22.4609375,0.0
1734413040.7793975,-14.6484375,-405.76171875,-289.55078125,-20.5078125,0.0
1734413040.7832708,-29.78515625,-468.26171875,-359.86328125,-25.87890625,0.0
1734413040.7871442,-38.0859375,-302.24609375,-324.21875,-33.69140625,0.0
1734413040.7910175,-3.90625,-469.7265625,-310.546875,-18.5546875,0.0
1734413040.7948909,4.8828125,-603.02734375,-131.34765625,-8.30078125,0.0
1734413040.798764,-25.390625,28.3203125,138.671875,-38.0859375,0.0
1734413040.8026373,-29.78515625,106.93359375,-43.9453125,-37.59765625,0.0
1734413040.8069372,-26.3671875,-200.68359375,-345.21484375,-8.7890625,0.0
1734413040.8108108,-19.04296875,39.55078125,-23.92578125,-23.92578125,0.0
1734413040.8146844,-19.04296875,360.3515625,294.43359375,-38.57421875,0.0
1734413040.8185577,-27.34375,218.26171875,103.02734375,-39.0625,0.0
1734413040.8224313,-40.0390625,-186.03515625,-227.5390625,-24.4140625,0.0
1734413040.826305,-39.0625,-448.2421875,-430.6640625,-16.11328125,0.0
1734413040.8301783,-25.87890625,-283.203125,-200.1953125,-22.94921875,0.0
1734413040.8340518,-19.04296875,-91.796875,128.90625,-28.80859375,0.0
1734413040.8379254,-9.765625,-542.96875,-145.99609375,-22.94921875,0.0
1734413040.8417988,-48.33984375,-480.46875,-278.80859375,-18.5546875,0.0
1734413040.8456724,-67.87109375,127.9296875,-164.0625,-21.484375,0.0
1734413040.849546,-26.3671875,72.75390625,-125.9765625,-17.578125,0.0
1734413040.8538163,4.8828125,46.38671875,131.8359375,-43.45703125,0.0
1734413040.8576899,-13.671875,268.5546875,187.01171875,-34.66796875,0.0
1734413040.8615637,-37.109375,234.375,106.93359375,-20.99609375,0.0
1734413040.8654373,-37.109375,-137.6953125,-205.56640625,-20.5078125,0.0
1734413040.8693109,-14.16015625,-191.40625,-288.57421875,-1.46484375,0.0
1734413040.8731847,7.32421875,-65.91796875,128.90625,-6.34765625,0.0
1734413040.8770583,-1.953125,-109.86328125,116.2109375,-35.15625,0.0
1734413040.880932,-19.53125,-477.5390625,-316.40625,-17.08984375,0.0
1734413040.8848057,-34.66796875,-753.41796875,-511.23046875,-0.48828125,0.0
1734413040.8886795,-20.99609375,-32.2265625,-154.78515625,-20.01953125,0.0
1734413040.892553,-5.37109375,340.33203125,227.5390625,-14.16015625,0.0
1734413040.896427,-11.71875,-82.51953125,12.20703125,-31.25,0.0
1734413040.9006686,-30.76171875,-187.01171875,-203.125,-45.41015625,0.0
1734413040.9045424,-52.734375,116.2109375,-101.07421875,-26.85546875,0.0
1734413040.9084163,-36.62109375,97.65625,-152.83203125,-28.3203125,0.0
1734413040.91229,0.0,-48.33984375,131.34765625,-16.11328125,0.0
1734413040.916164,-3.90625,13.18359375,208.0078125,-16.11328125,0.0
1734413040.920038,-41.015625,-133.30078125,-165.52734375,-24.4140625,0.0
1734413040.9239118,-53.7109375,-373.046875,-335.44921875,-12.6953125,0.0
1734413040.9277856,-33.203125,-778.3203125,-491.69921875,-3.90625,0.0
1734413040.9316595,-19.53125,-528.80859375,-151.3671875,-21.484375,0.0
1734413040.9355333,-26.3671875,333.0078125,312.01171875,-48.33984375,0.0
1734413040.9394073,-38.0859375,134.27734375,20.01953125,-38.57421875,0.0
1734413040.9432812,-50.78125,-164.55078125,-251.953125,-14.6484375,0.0
1734413040.947495,-41.50390625,31.73828125,-226.5625,6.34765625,0.0
1734413040.951369,-21.97265625,349.609375,166.9921875,-12.6953125,0.0
1734413040.955243,-17.578125,106.4453125,156.25,-35.15625,0.0
1734413040.9591172,-25.87890625,-192.87109375,-146.484375,-30.2734375,0.0
1734413040.9629912,-37.59765625,5.859375,-99.12109375,-36.62109375,0.0
1734413040.9668653,-38.0859375,-145.01953125,-279.296875,-12.20703125,0.0
1734413040.9707391,-23.4375,-478.515625,-297.8515625,-6.8359375,0.0
1734413040.9746132,-8.7890625,-601.5625,-98.14453125,-16.6015625,0.0
1734413040.9784873,-39.0625,1.953125,124.0234375,-46.875,0.0
1734413040.9823613,-57.12890625,136.23046875,42.48046875,-33.203125,0.0
1734413040.9862354,-42.96875,-227.05078125,-279.78515625,-13.18359375,0.0
1734413040.9901094,-23.92578125,-22.94921875,-56.15234375,-32.71484375,0.0
1734413040.9945202,-15.625,335.44921875,304.19921875,-34.66796875,0.0
1734413040.9983945,-20.01953125,103.02734375,2.44140625,-31.73828125,0.0
1734413041.0022688,-49.8046875,-283.69140625,-310.05859375,-31.73828125,0.0
1734413041.006143,-53.22265625,-153.3203125,-333.49609375,-23.4375,0.0
1734413041.0100174,-29.78515625,85.9375,-166.9921875,-5.859375,0.0
1734413041.0138917,-19.53125,-50.29296875,122.55859375,-17.08984375,0.0
1734413041.017766,-15.625,-592.28515625,-197.265625,-15.625,0.0
1734413041.0216403,-32.71484375,-827.63671875,-470.703125,-1.953125,0.0
1734413041.0255144,-46.38671875,-333.49609375,-305.17578125,-10.25390625,0.0
1734413041.0293887,-26.85546875,-80.56640625,-324.21875,-0.9765625,0.0
1734413041.033263,-23.92578125,-174.31640625,-60.546875,-20.01953125,0.0
1734413041.0371373,-37.59765625,80.56640625,155.2734375,-30.76171875,0.0
1734413041.041285,-42.96875,182.12890625,-68.84765625,-8.30078125,0.0
1734413041.0451596,-36.1328125,-212.40234375,-389.16015625,-12.6953125,0.0
1734413041.0490339,-32.2265625,-285.64453125,-394.04296875,-16.6015625,0.0
1734413041.0529082,-29.296875,133.7890625,97.16796875,-20.5078125,0.0
1734413041.0567827,-18.5546875,255.859375,170.41015625,-26.85546875,0.0
1734413041.060657,-32.71484375,-404.78515625,-338.37890625,-28.80859375,0.0
1734413041.0645316,-52.734375,-774.4140625,-540.52734375,-11.23046875,0.0
1734413041.0684059,-41.9921875,-133.30078125,-306.15234375,1.46484375,0.0
1734413041.0722804,-30.76171875,282.71484375,124.51171875,-35.15625,0.0
1734413041.0761547,-25.390625,-312.98828125,-101.5625,-59.5703125,0.0
1734413041.0800292,-45.41015625,-768.06640625,-506.34765625,-58.10546875,0.0
1734413041.0839036,-75.68359375,-157.2265625,-283.69140625,-57.12890625,0.0
1734413041.0882673,-63.96484375,16.11328125,-335.9375,-46.38671875,0.0
1734413041.092142,-41.50390625,-88.8671875,-162.59765625,-32.71484375,0.0
1734413041.0960166,-26.85546875,27.83203125,119.140625,-60.546875,0.0
1734413041.0998912,-49.31640625,147.4609375,8.30078125,-59.5703125,0.0
1734413041.103766,-57.12890625,-115.234375,-318.359375,-39.55078125,0.0
1734413041.1076405,-44.43359375,-516.6015625,-473.6328125,-47.8515625,0.0
1734413041.111515,-30.76171875,-479.4921875,-234.86328125,-47.8515625,0.0
1734413041.1153898,-23.92578125,-214.35546875,85.9375,-60.05859375,0.0
1734413041.1192644,-40.52734375,-84.9609375,-41.50390625,-32.71484375,0.0
1734413041.1231391,-59.5703125,-557.12890625,-375.48828125,-0.9765625,0.0
1734413041.1270137,-60.05859375,-420.41015625,-360.83984375,-16.11328125,0.0
1734413041.1308882,-33.69140625,235.83984375,17.08984375,-33.69140625,0.0
1734413041.1352167,-25.87890625,59.5703125,145.5078125,-21.97265625,0.0
1734413041.1390915,-40.52734375,-164.55078125,-158.203125,-41.9921875,0.0
1734413041.1429663,-61.5234375,6.34765625,-211.42578125,-36.1328125,0.0
1734413041.146841,-44.43359375,60.05859375,-284.66796875,10.7421875,0.0
1734413041.1507158,-19.04296875,-104.00390625,-272.94921875,4.39453125,0.0
1734413041.1545908,-19.53125,-325.68359375,-52.24609375,-21.484375,0.0
1734413041.1584656,-27.34375,-190.91796875,-48.828125,-26.3671875,0.0
1734413041.1623404,-35.15625,39.0625,-193.359375,-9.765625,0.0
1734413041.1662152,-36.1328125,-478.515625,-480.46875,10.25390625,0.0
1734413041.1700902,-25.390625,-796.38671875,-484.86328125,-0.9765625,0.0
1734413041.173965,-16.11328125,18.06640625,131.34765625,-10.7421875,0.0
1734413041.1778398,-19.04296875,283.69140625,187.01171875,-12.6953125,0.0
1734413041.1821203,-29.78515625,-119.62890625,-192.3828125,-20.01953125,0.0
1734413041.1859953,-33.69140625,-153.80859375,-338.8671875,1.46484375,0.0
1734413041.1898704,-25.87890625,167.48046875,-163.0859375,7.32421875,0.0
1734413041.1937454,9.765625,165.0390625,130.859375,4.8828125,0.0
1734413041.1976204,18.06640625,-98.6328125,-9.765625,1.953125,0.0
1734413041.2014954,-13.671875,-355.95703125,-326.66015625,-11.71875,0.0
1734413041.2053704,-30.76171875,-473.14453125,-379.39453125,5.37109375,0.0
1734413041.2092454,-17.578125,-357.421875,-336.42578125,29.78515625,0.0
1734413041.2131205,-1.46484375,-610.3515625,-237.3046875,11.23046875,0.0
1734413041.2169955,0.9765625,-343.75,5.37109375,-17.578125,0.0
1734413041.2208705,-8.30078125,251.953125,133.30078125,-11.71875,0.0
1734413041.2247455,-20.5078125,-103.02734375,-237.3046875,2.9296875,0.0
1734413041.2289932,-12.20703125,-259.27734375,-397.4609375,4.8828125,0.0
1734413041.2328684,-2.9296875,176.7578125,108.88671875,-4.39453125,0.0
1734413041.2367437,-2.44140625,356.4453125,259.27734375,-15.13671875,0.0
1734413041.240619,-22.4609375,-40.0390625,-119.62890625,-15.625,0.0
1734413041.244494,-31.73828125,-299.31640625,-394.04296875,-17.08984375,0.0
1734413041.2483692,-27.83203125,-250.0,-401.3671875,-0.9765625,0.0
1734413041.2522445,-15.625,-172.36328125,-19.53125,-1.46484375,0.0
1734413041.2561195,-1.953125,-373.046875,-21.484375,-23.92578125,0.0
1734413041.2599947,-16.11328125,-651.85546875,-377.9296875,-23.92578125,0.0
1734413041.26387,-54.19921875,-133.7890625,-197.75390625,-20.99609375,0.0
1734413041.2677453,-46.38671875,89.35546875,-232.91015625,-20.01953125,0.0
1734413041.2716203,4.8828125,-74.70703125,-108.88671875,-7.8125,0.0
1734413041.275857,7.32421875,100.5859375,173.33984375,-27.83203125,0.0
1734413041.2797322,-11.71875,314.94140625,160.15625,-25.87890625,0.0
1734413041.2836077,-15.13671875,54.19921875,-109.375,13.18359375,0.0
1734413041.287483,-27.83203125,-187.01171875,-374.0234375,-7.32421875,0.0
1734413041.2913582,-2.44140625,83.0078125,-43.9453125,-41.50390625,0.0
1734413041.2952337,17.578125,118.65234375,228.515625,-34.1796875,0.0
1734413041.299109,-3.90625,-137.20703125,-85.9375,-19.04296875,0.0
1734413041.3029845,-17.578125,-643.06640625,-415.0390625,-15.625,0.0
1734413041.3068597,-27.34375,-498.046875,-374.51171875,-29.78515625,0.0
1734413041.310735,-2.9296875,243.1640625,35.64453125,-33.69140625,0.0
1734413041.3146105,15.13671875,108.88671875,194.82421875,-34.1796875,0.0
1734413041.3184857,1.46484375,-41.9921875,17.08984375,-45.8984375,0.0
1734413041.322683,-21.97265625,107.421875,11.23046875,-28.3203125,0.0
1734413041.3265586,-20.5078125,152.83203125,-138.18359375,-19.53125,0.0
1734413041.330434,18.5546875,-22.4609375,-223.6328125,-20.99609375,0.0
1734413041.3343096,37.59765625,-10.7421875,104.00390625,-41.9921875,0.0
1734413041.338185,15.625,274.90234375,187.5,-64.453125,0.0
1734413041.3420606,0.48828125,-58.10546875,-173.828125,-37.109375,0.0
1734413041.345936,17.08984375,-671.38671875,-505.37109375,-19.04296875,0.0
1734413041.3498116,26.85546875,-751.953125,-436.5234375,-18.06640625,0.0
1734413041.353687,13.18359375,25.390625,144.04296875,-66.40625,0.0
1734413041.3575625,-8.30078125,329.58984375,223.6328125,-94.7265625,0.0
1734413041.361438,-9.27734375,-83.984375,-107.91015625,-81.0546875,0.0
1734413041.3653135,-4.8828125,-166.9921875,-279.296875,-58.59375,0.0
1734413041.3694906,16.11328125,187.01171875,-45.8984375,-62.5,0.0
1734413041.373366,34.1796875,178.7109375,234.86328125,-100.09765625,0.0
1734413041.3772418,25.390625,-42.96875,106.4453125,-96.19140625,0.0
1734413041.3811173,6.8359375,37.109375,61.5234375,-90.33203125,0.0
1734413041.384993,-0.48828125,54.19921875,-27.83203125,-66.40625,0.0
1734413041.3888688,30.2734375,-191.89453125,-284.1796875,-76.171875,0.0
1734413041.3927443,48.828125,-476.07421875,-157.2265625,-96.6796875,0.0
1734413041.39662,47.36328125,-316.40625,103.515625,-94.7265625,0.0
1734413041.4004955,40.0390625,161.1328125,179.6875,-104.98046875,0.0
1734413041.4043713,42.96875,48.33984375,-74.70703125,-103.515625,0.0
1734413041.4082468,66.89453125,-337.40234375,-336.9140625,-84.47265625,0.0
1734413041.4121225,80.078125,31.25,79.1015625,-91.30859375,0.0
1734413041.416257,81.54296875,480.95703125,342.7734375,-130.37109375,0.0
1734413041.4201326,72.265625,89.84375,8.30078125,-122.55859375,0.0
1734413041.4240084,66.89453125,-212.40234375,-223.6328125,-108.3984375,0.0
1734413041.427884,84.47265625,131.34765625,-72.75390625,-96.6796875,0.0
1734413041.4317598,99.12109375,230.46875,211.42578125,-78.61328125,0.0
1734413041.4356356,145.99609375,-131.34765625,124.0234375,-93.26171875,0.0
1734413041.4395113,120.1171875,-348.6328125,-178.22265625,-78.61328125,0.0
1734413041.443387,86.42578125,-8.7890625,0.48828125,-77.1484375,0.0
1734413041.4472628,125.9765625,195.80078125,81.54296875,-38.0859375,0.0
1734413041.4511385,147.94921875,-116.2109375,55.6640625,-46.875,0.0
1734413041.4550142,151.3671875,-29.78515625,218.26171875,-76.171875,0.0
1734413041.45889,143.06640625,333.49609375,206.0546875,-65.91796875,0.0
1734413041.4632306,134.765625,218.26171875,83.49609375,-85.44921875,0.0
1734413041.4671066,147.4609375,-475.5859375,-314.453125,-52.734375,0.0
1734413041.4709826,174.31640625,-454.1015625,-145.5078125,-42.96875,0.0
1734413041.4748583,182.12890625,384.765625,354.98046875,-75.68359375,0.0
1734413041.4787343,186.5234375,320.3125,180.17578125,-62.01171875,0.0
1734413041.4826102,161.1328125,-257.32421875,-174.8046875,-67.3828125,0.0
1734413041.4864862,160.15625,-450.1953125,-327.63671875,-54.19921875,0.0
1734413041.4903622,207.03125,-179.6875,-87.40234375,-39.55078125,0.0
1734413041.4942381,224.609375,14.16015625,221.6796875,-42.96875,0.0
1734413041.498114,220.21484375,-229.00390625,-0.48828125,-47.8515625,0.0
1734413041.50199,195.80078125,-144.53125,-72.75390625,-75.1953125,0.0
1734413041.505866,181.15234375,242.67578125,112.79296875,-31.25,0.0
1734413041.5101738,210.44921875,82.03125,54.19921875,-41.9921875,0.0
1734413041.5140498,248.53515625,86.42578125,212.890625,-84.47265625,0.0
1734413041.517926,217.28515625,357.421875,234.86328125,-91.796875,0.0
1734413041.5218022,180.17578125,299.8046875,146.97265625,-74.21875,0.0
1734413041.5256782,194.82421875,-104.4921875,-136.71875,-68.84765625,0.0
1734413041.5295544,203.61328125,-409.1796875,-348.14453125,-83.0078125,0.0
1734413041.5334306,236.328125,-52.24609375,124.0234375,-78.61328125,0.0
1734413041.5373068,257.8125,433.10546875,346.6796875,-83.984375,0.0
1734413041.5411828,229.4921875,-189.453125,-141.6015625,-60.546875,0.0
1734413041.545059,215.33203125,-729.98046875,-433.10546875,-42.96875,0.0
1734413041.5489352,224.12109375,-18.06640625,-94.23828125,-52.24609375,0.0
1734413041.5528111,235.3515625,133.7890625,183.10546875,-67.87109375,0.0
1734413041.5570927,243.65234375,22.94921875,219.7265625,-56.640625,0.0
1734413041.5609689,233.88671875,137.20703125,135.7421875,-50.78125,0.0
1734413041.564845,223.14453125,193.84765625,94.23828125,-90.33203125,0.0
1734413041.5687215,232.91015625,120.60546875,18.5546875,-72.265625,0.0
1734413041.5725977,286.1328125,57.12890625,172.8515625,-86.42578125,0.0
1734413041.5764742,304.6875,0.48828125,214.84375,-90.33203125,0.0
1734413041.5803504,272.94921875,-137.6953125,0.0,-75.1953125,0.0
1734413041.5842266,251.46484375,-243.65234375,-235.3515625,-120.1171875,0.0
1734413041.588103,271.97265625,-648.92578125,-415.52734375,-108.88671875,0.0
1734413041.5919793,298.33984375,-288.0859375,34.66796875,-134.27734375,0.0
1734413041.5958557,298.828125,518.5546875,374.0234375,-202.63671875,0.0
1734413041.599732,292.48046875,252.9296875,115.72265625,-227.5390625,0.0
1734413041.6039815,273.4375,-107.421875,-104.98046875,-238.76953125,0.0
1734413041.607858,274.4140625,90.8203125,-110.3515625,-198.2421875,0.0
1734413041.6117344,301.26953125,147.94921875,127.9296875,-191.89453125,0.0
1734413041.6156108,325.68359375,-14.16015625,184.5703125,-201.171875,0.0
1734413041.6194873,326.171875,43.45703125,81.0546875,-151.3671875,0.0
1734413041.6233637,308.10546875,-82.03125,-67.3828125,-133.7890625,0.0
1734413041.6272402,309.5703125,-291.015625,-318.84765625,-146.97265625,0.0
1734413041.6311166,365.72265625,-367.1875,-247.0703125,-149.90234375,0.0
1734413041.6349933,373.53515625,-66.40625,123.046875,-149.4140625,0.0
1734413041.6388698,368.1640625,346.6796875,232.421875,-125.9765625,0.0
1734413041.6427462,374.51171875,328.61328125,138.671875,-102.05078125,0.0
1734413041.6466227,346.6796875,-367.1875,-290.52734375,-53.7109375,0.0
1734413041.6508436,389.6484375,-492.1875,-216.30859375,31.73828125,0.0
1734413041.65472,434.08203125,411.62109375,361.328125,81.0546875,0.0
1734413041.6585968,406.73828125,387.20703125,187.5,97.16796875,0.0
1734413041.6624734,377.44140625,-6.8359375,-59.5703125,111.81640625,0.0
1734413041.6663501,395.5078125,-77.63671875,-183.59375,159.1796875,0.0
1734413041.6702266,435.546875,-90.8203125,-189.94140625,217.28515625,0.0
1734413041.6741033,455.56640625,-46.38671875,145.99609375,231.93359375,0.0
1734413041.67798,476.5625,-341.30859375,-24.90234375,210.44921875,0.0
1734413041.6818564,462.890625,-352.5390625,-192.3828125,205.56640625,0.0
1734413041.685733,474.609375,111.328125,4.8828125,220.703125,0.0
1734413041.6896098,515.625,67.87109375,-85.44921875,238.28125,0.0
1734413041.6934865,515.13671875,-72.75390625,93.26171875,282.71484375,0.0
1734413041.6976788,509.27734375,208.0078125,229.4921875,292.48046875,0.0
1734413041.7015555,509.27734375,359.86328125,182.12890625,290.52734375,0.0
1734413041.7054324,525.390625,-55.6640625,-110.3515625,305.6640625,0.0
1734413041.709309,551.26953125,-172.36328125,-267.578125,335.44921875,0.0
1734413041.7131858,562.5,283.203125,190.4296875,381.34765625,0.0
1734413041.7170627,592.28515625,208.984375,236.328125,384.765625,0.0
1734413041.7209394,583.0078125,-413.57421875,-237.3046875,391.11328125,0.0
1734413041.724816,559.08203125,-680.6640625,-453.125,460.44921875,0.0
1734413041.7286928,579.58984375,-137.6953125,-228.02734375,478.515625,0.0
1734413041.7325697,619.62890625,52.24609375,53.22265625,488.76953125,0.0
1734413041.7364464,650.390625,42.48046875,241.2109375,520.5078125,0.0
1734413041.740323,627.44140625,165.0390625,139.16015625,512.20703125,0.0
1734413041.7444735,608.3984375,210.9375,52.734375,523.92578125,0.0
1734413041.7483504,638.671875,121.09375,-132.32421875,551.7578125,0.0
1734413041.7522273,666.9921875,85.9375,52.24609375,559.5703125,0.0
1734413041.7561042,689.453125,277.34375,312.01171875,548.33984375,0.0
1734413041.759981,676.26953125,317.87109375,120.60546875,548.828125,0.0
1734413041.7638578,656.25,-133.7890625,-208.0078125,598.14453125,0.0
1734413041.7677348,695.80078125,-805.6640625,-527.83203125,632.32421875,0.0
1734413041.7716117,708.49609375,-531.25,-162.59765625,624.51171875,0.0
1734413041.7754884,712.40234375,371.09375,325.68359375,605.46875,0.0
1734413041.7793653,702.1484375,291.9921875,121.09375,595.703125,0.0
1734413041.7832422,698.73046875,-68.359375,-165.0390625,610.3515625,0.0
1734413041.7871192,706.0546875,42.48046875,-247.55859375,625.9765625,0.0
1734413041.791472,708.984375,50.29296875,-109.86328125,625.0,0.0
1734413041.7953491,750.9765625,-61.03515625,100.09765625,617.1875,0.0
1734413041.7992263,733.3984375,28.80859375,98.14453125,622.55859375,0.0
1734413041.8031032,697.265625,142.08984375,19.04296875,628.90625,0.0
1734413041.8069804,712.40234375,130.859375,-168.9453125,639.16015625,0.0
1734413041.8108573,749.51171875,-208.0078125,-342.7734375,650.390625,0.0
1734413041.8147345,762.6953125,-323.73046875,-69.82421875,656.25,0.0
1734413041.8186116,738.28125,218.26171875,203.61328125,651.85546875,0.0
1734413041.8224885,729.00390625,344.23828125,103.02734375,635.7421875,0.0
1734413041.8263657,719.7265625,-329.1015625,-284.1796875,644.04296875,0.0
1734413041.8302429,738.76953125,-399.4140625,-273.4375,652.83203125,0.0
1734413041.8341198,777.83203125,366.2109375,251.46484375,627.9296875,0.0
1734413041.8384516,755.37109375,380.37109375,202.63671875,638.18359375,0.0
1734413041.842329,751.46484375,-18.5546875,-106.4453125,624.51171875,0.0
1734413041.8462062,764.16015625,-92.7734375,-254.39453125,614.2578125,0.0
1734413041.8500836,785.15625,-55.6640625,-263.671875,608.88671875,0.0
1734413041.8539608,791.50390625,77.1484375,77.1484375,567.87109375,0.0
1734413041.857838,783.203125,-38.0859375,55.6640625,550.78125,0.0
1734413041.8617153,755.859375,-344.7265625,-291.015625,541.015625,0.0
1734413041.8655925,740.72265625,-317.3828125,-323.73046875,510.7421875,0.0
1734413041.86947,774.90234375,-47.36328125,-253.90625,530.76171875,0.0
1734413041.873347,803.7109375,-351.5625,-155.2734375,541.9921875,0.0
1734413041.8772242,799.31640625,-223.14453125,62.5,498.53515625,0.0
1734413041.8811016,767.08984375,395.01953125,184.5703125,487.79296875,0.0
1734413041.885387,744.62890625,-17.578125,-158.203125,484.86328125,0.0
1734413041.8892643,760.7421875,-222.16796875,-356.93359375,494.140625,0.0
1734413041.893142,763.671875,290.52734375,140.13671875,506.34765625,0.0
1734413041.8970194,748.53515625,511.71875,331.0546875,458.49609375,0.0
1734413041.9008968,762.6953125,119.140625,-77.1484375,463.37890625,0.0
1734413041.9047742,765.625,-460.9375,-418.9453125,464.35546875,0.0
1734413041.9086516,738.28125,-490.234375,-426.7578125,464.84375,0.0
1734413041.912529,742.1875,62.5,30.76171875,457.03125,0.0
1734413041.9164064,762.6953125,-41.9921875,84.9609375,441.89453125,0.0
1734413041.9202838,750.48828125,-625.0,-371.09375,429.19921875,0.0
1734413041.9241614,695.3125,-147.4609375,-241.2109375,405.76171875,0.0
1734413041.9280388,689.453125,140.13671875,-259.27734375,427.734375,0.0
1734413041.9322906,728.02734375,89.35546875,-96.19140625,458.49609375,0.0
1734413041.9361682,741.69921875,253.90625,192.87109375,405.76171875,0.0
1734413041.9400458,705.078125,364.74609375,164.0625,386.23046875,0.0
1734413041.9439235,684.08203125,105.95703125,-64.94140625,421.875,0.0
1734413041.9478009,684.08203125,-264.16015625,-384.765625,414.0625,0.0
1734413041.9516785,719.23828125,-248.046875,-267.08984375,414.0625,0.0
1734413041.9555562,727.5390625,-21.97265625,118.65234375,403.80859375,0.0
1734413041.9594338,695.80078125,-34.66796875,-4.39453125,365.234375,0.0
1734413041.9633114,679.19921875,-560.05859375,-362.79296875,357.421875,0.0
1734413041.9671888,687.01171875,-640.13671875,-409.66796875,402.34375,0.0
1734413041.9710665,725.5859375,34.66796875,-96.6796875,388.671875,0.0
1734413041.974944,746.58203125,256.8359375,208.984375,358.88671875,0.0
1734413041.9791694,725.09765625,115.234375,107.421875,333.0078125,0.0
1734413041.9830472,696.2890625,152.83203125,49.8046875,312.01171875,0.0
1734413041.986925,701.66015625,102.5390625,-169.921875,357.421875,0.0
1734413041.9908028,731.4453125,-31.25,-311.5234375,368.1640625,0.0
1734413041.9946804,734.375,56.15234375,62.5,355.95703125,0.0
1734413041.998558,719.23828125,68.359375,89.84375,364.74609375,0.0
1734413042.002436,698.2421875,-138.18359375,-212.890625,360.3515625,0.0
1734413042.0063136,699.21875,-567.87109375,-463.8671875,371.09375,0.0
1734413042.0101914,713.37890625,-674.8046875,-437.01171875,395.99609375,0.0
1734413042.014069,723.14453125,191.89453125,164.0625,368.65234375,0.0
1734413042.0179467,716.796875,466.30859375,224.12109375,360.83984375,0.0
1734413042.0218246,699.70703125,74.70703125,-122.0703125,384.765625,0.0
1734413042.0260324,695.80078125,-131.8359375,-336.42578125,422.36328125,0.0
1734413042.0299103,695.80078125,-1.953125,-315.91796875,418.45703125,0.0
1734413042.0337882,715.8203125,237.3046875,72.265625,403.3203125,0.0
1734413042.037666,712.890625,220.703125,193.84765625,395.5078125,0.0
1734413042.041544,694.82421875,92.28515625,1.953125,405.2734375,0.0
1734413042.0454218,695.80078125,-196.2890625,-299.8046875,460.9375,0.0
1734413042.0492997,699.21875,-252.9296875,-395.5078125,436.03515625,0.0
1734413042.0531776,720.21484375,-559.08203125,-319.82421875,452.63671875,0.0
1734413042.0570555,731.4453125,-350.09765625,-24.90234375,463.8671875,0.0
1734413042.0609334,724.12109375,352.05078125,133.30078125,427.734375,0.0
1734413042.0648112,687.5,4.8828125,-237.79296875,461.42578125,0.0
1734413042.068689,676.26953125,-193.84765625,-429.6875,482.91015625,0.0
1734413042.0728652,720.703125,229.4921875,-10.25390625,461.42578125,0.0
1734413042.0767431,709.47265625,444.82421875,266.11328125,443.84765625,0.0
1734413042.0806212,694.3359375,107.91015625,-115.72265625,412.59765625,0.0
1734413042.0844991,681.640625,-242.1875,-423.33984375,425.29296875,0.0
1734413042.0883772,653.3203125,-257.8125,-406.25,460.44921875,0.0
1734413042.092255,683.10546875,-144.53125,-194.82421875,433.59375,0.0
1734413042.0961332,712.890625,-321.77734375,-112.79296875,437.01171875,0.0
1734413042.100011,698.73046875,-603.515625,-372.55859375,433.10546875,0.0
1734413042.1038892,665.0390625,-110.3515625,-291.015625,407.71484375,0.0
1734413042.107767,654.296875,104.98046875,-324.70703125,438.4765625,0.0
1734413042.1116452,692.3828125,-47.8515625,-302.734375,424.31640625,0.0
1734413042.115523,677.734375,131.34765625,69.3359375,383.30078125,0.0
1734413042.119667,652.83203125,369.140625,154.296875,382.8125,0.0
1734413042.1235452,666.50390625,120.1171875,-206.0546875,402.83203125,0.0
1734413042.1274233,625.0,-255.859375,-466.30859375,437.98828125,0.0
1734413042.1313014,652.83203125,-17.578125,-240.234375,450.68359375,0.0
1734413042.1351795,668.45703125,283.69140625,119.62890625,416.015625,0.0
1734413042.1390576,641.6015625,8.30078125,-74.21875,366.2109375,0.0
1734413042.1429358,639.16015625,-616.2109375,-504.39453125,398.4375,0.0
1734413042.1468139,606.93359375,-780.2734375,-535.15625,416.015625,0.0
1734413042.150692,619.62890625,-134.27734375,-243.1640625,401.3671875,0.0
1734413042.15457,645.5078125,214.35546875,93.75,377.9296875,0.0
1734413042.1584482,622.55859375,0.0,-31.73828125,355.95703125,0.0
1734413042.162326,600.09765625,41.50390625,-229.4921875,379.39453125,0.0
1734413042.1664438,599.609375,141.6015625,-281.73828125,411.1328125,0.0
1734413042.1703222,615.72265625,10.7421875,-367.67578125,397.94921875,0.0
1734413042.1742003,633.7890625,37.59765625,-94.23828125,386.71875,0.0
1734413042.1780784,620.60546875,336.42578125,187.98828125,374.0234375,0.0
1734413042.1819568,599.609375,294.43359375,-50.29296875,359.86328125,0.0
1734413042.185835,597.65625,-417.96875,-486.81640625,386.71875,0.0
1734413042.189713,584.47265625,-639.16015625,-550.29296875,415.0390625,0.0
1734413042.1935914,598.6328125,132.8125,26.85546875,386.23046875,0.0
1734413042.1974695,638.671875,430.17578125,201.66015625,344.7265625,0.0
1734413042.2013476,604.98046875,-152.83203125,-256.34765625,367.1875,0.0
1734413042.205226,544.43359375,-630.37109375,-516.6015625,379.8828125,0.0
1734413042.209104,557.6171875,-174.8046875,-410.15625,405.76171875,0.0
1734413042.213406,581.0546875,244.62890625,-19.04296875,429.6875,0.0
1734413042.2172844,598.6328125,148.4375,115.234375,417.96875,0.0
1734413042.2211628,600.5859375,65.91796875,-175.78125,390.625,0.0
1734413042.2250412,543.45703125,68.84765625,-297.36328125,408.69140625,0.0
1734413042.2289195,554.19921875,-30.2734375,-397.4609375,444.82421875,0.0
1734413042.2327979,620.1171875,-231.4453125,-305.6640625,448.73046875,0.0
1734413042.2366762,601.5625,-261.23046875,-53.7109375,429.19921875,0.0
1734413042.2405548,554.6875,-134.765625,-200.1953125,384.27734375,0.0
1734413042.2444332,514.16015625,-132.32421875,-383.7890625,396.97265625,0.0
1734413042.2483115,512.6953125,-538.0859375,-485.83984375,397.4609375,0.0
1734413042.2521899,530.76171875,-236.328125,-176.26953125,380.859375,0.0
1734413042.2560682,528.80859375,422.8515625,231.93359375,362.79296875,0.0
1734413042.2603393,510.7421875,161.62109375,-96.6796875,340.8203125,0.0
1734413042.2642179,479.98046875,-326.171875,-465.8203125,354.98046875,0.0
1734413042.2680964,498.046875,-356.4453125,-436.5234375,398.4375,0.0
1734413042.2719748,485.83984375,91.796875,-151.3671875,370.60546875,0.0
1734413042.2758534,473.6328125,185.546875,87.890625,356.93359375,0.0
1734413042.279732,479.4921875,-262.6953125,-255.859375,361.328125,0.0
1734413042.2836103,451.66015625,-292.96875,-385.25390625,352.05078125,0.0
1734413042.287489,432.6171875,87.890625,-275.390625,371.09375,0.0
1734413042.2913675,463.37890625,-208.49609375,-415.0390625,379.39453125,0.0
1734413042.2952461,479.00390625,-534.1796875,-202.1484375,405.76171875,0.0
1734413042.2991245,461.42578125,146.484375,159.66796875,391.6015625,0.0
1734413042.303003,423.33984375,190.4296875,-173.33984375,361.328125,0.0
1734413042.3072467,412.59765625,-213.37890625,-428.7109375,373.046875,0.0
1734413042.3111253,424.8046875,-32.71484375,-260.25390625,403.3203125,0.0
1734413042.3150039,448.2421875,374.0234375,121.58203125,375.48828125,0.0
1734413042.3188827,447.75390625,315.4296875,117.67578125,367.1875,0.0
1734413042.3227613,414.0625,-98.14453125,-273.92578125,395.99609375,0.0
1734413042.32664,405.76171875,-381.8359375,-446.77734375,419.921875,0.0
1734413042.3305187,423.33984375,-348.6328125,-422.36328125,429.19921875,0.0
1734413042.3343973,431.640625,-205.078125,-117.1875,413.57421875,0.0
1734413042.3382761,430.6640625,-330.56640625,-124.51171875,411.62109375,0.0
1734413042.3421547,417.96875,-186.03515625,-309.5703125,392.08984375,0.0
1734413042.3460333,401.3671875,133.7890625,-271.97265625,401.85546875,0.0
1734413042.3499122,421.38671875,-0.48828125,-401.3671875,430.17578125,0.0
1734413042.3541381,431.640625,-157.71484375,-126.953125,436.03515625,0.0
1734413042.358017,411.1328125,208.49609375,209.47265625,369.62890625,0.0
1734413042.3618958,412.59765625,331.54296875,-16.6015625,360.3515625,0.0
1734413042.3657746,396.484375,-56.15234375,-328.125,391.6015625,0.0
1734413042.3696535,395.5078125,-186.5234375,-481.93359375,367.67578125,0.0
1734413042.373532,451.66015625,-73.73046875,-240.234375,378.90625,0.0
1734413042.377411,421.38671875,151.85546875,135.7421875,335.9375,0.0
1734413042.3812897,412.59765625,-161.1328125,-193.84765625,318.359375,0.0
1734413042.3851686,417.48046875,-807.6171875,-539.0625,336.42578125,0.0
1734413042.3890474,389.6484375,-162.109375,-303.22265625,309.5703125,0.0
1734413042.3929262,419.43359375,369.62890625,8.7890625,333.984375,0.0
1734413042.396805,441.40625,193.84765625,170.8984375,336.9140625,0.0
1734413042.4009972,413.57421875,120.60546875,-5.37109375,312.5,0.0
1734413042.4048762,359.86328125,167.48046875,-162.59765625,322.75390625,0.0
1734413042.408755,365.234375,88.8671875,-346.19140625,319.82421875,0.0
1734413042.4126341,415.52734375,41.015625,-226.07421875,332.51953125,0.0
1734413042.416513,410.64453125,199.70703125,145.99609375,323.73046875,0.0
1734413042.4203918,386.71875,-8.7890625,-75.1953125,320.3125,0.0
1734413042.4242709,368.1640625,-304.6875,-361.328125,335.44921875,0.0
1734413042.4281497,370.1171875,-684.08203125,-486.328125,374.0234375,0.0
1734413042.4320288,394.53125,-380.859375,-227.5390625,382.8125,0.0
1734413042.4359076,380.859375,451.171875,274.4140625,355.95703125,0.0
1734413042.4397867,373.53515625,261.71875,66.40625,323.73046875,0.0
1734413042.4436655,342.7734375,-256.8359375,-307.12890625,333.984375,0.0
1734413042.4480271,317.3828125,-133.30078125,-316.40625,361.81640625,0.0
1734413042.4519062,338.8671875,370.1171875,27.83203125,362.79296875,0.0
1734413042.4557855,356.4453125,257.32421875,185.546875,349.12109375,0.0
1734413042.4596646,347.16796875,78.61328125,78.125,302.734375,0.0
1734413042.4635437,312.01171875,158.69140625,45.41015625,292.96875,0.0
1734413042.4674227,290.0390625,-43.45703125,-190.4296875,320.80078125,0.0
1734413042.471302,311.03515625,-343.26171875,-418.9453125,377.44140625,0.0
1734413042.475181,342.7734375,-477.5390625,-128.41796875,377.9296875,0.0
1734413042.4790602,320.80078125,144.53125,238.76953125,318.359375,0.0
1734413042.4829392,285.64453125,370.60546875,128.90625,323.2421875,0.0
1734413042.4868186,279.78515625,-48.828125,-166.015625,354.98046875,0.0
1734413042.4906976,285.64453125,25.390625,-148.92578125,369.62890625,0.0
1734413042.494831,309.5703125,486.328125,266.6015625,373.046875,0.0
1734413042.4987104,297.8515625,519.53125,256.8359375,377.44140625,0.0
1734413042.5025895,294.43359375,-20.5078125,-95.703125,361.328125,0.0
1734413042.5064688,307.12890625,-202.1484375,-284.1796875,385.25390625,0.0
1734413042.510348,286.62109375,169.921875,-102.05078125,433.59375,0.0
1734413042.5142272,301.26953125,156.25,183.10546875,439.453125,0.0
1734413042.5181065,305.6640625,-86.9140625,134.765625,402.83203125,0.0
1734413042.5219858,252.44140625,-81.54296875,9.765625,376.46484375,0.0
1734413042.5258648,229.4921875,189.453125,90.33203125,409.1796875,0.0
1734413042.5297441,251.953125,222.16796875,37.109375,432.12890625,0.0
1734413042.5336235,262.6953125,-291.9921875,-88.37890625,409.1796875,0.0
1734413042.5375025,255.859375,-87.890625,97.16796875,407.2265625,0.0
1734413042.541614,231.4453125,461.9140625,228.515625,382.8125,0.0
1734413042.5454934,225.09765625,116.69921875,8.30078125,361.328125,0.0
1734413042.5493727,198.2421875,-61.03515625,-193.359375,375.9765625,0.0
1734413042.553252,189.94140625,360.3515625,152.83203125,378.41796875,0.0
1734413042.5571313,203.125,558.10546875,350.5859375,326.66015625,0.0
1734413042.5610106,172.8515625,-86.42578125,-130.37109375,288.57421875,0.0
1734413042.56489,145.5078125,-747.55859375,-475.5859375,316.40625,0.0
1734413042.5687692,141.6015625,-271.484375,-246.58203125,341.30859375,0.0
1734413042.5726485,159.66796875,385.25390625,145.99609375,317.87109375,0.0
1734413042.5765278,145.99609375,118.65234375,147.4609375,291.50390625,0.0
1734413042.5804071,139.6484375,-51.26953125,23.92578125,267.578125,0.0
1734413042.5842865,125.9765625,255.37109375,121.09375,270.99609375,0.0
1734413042.5885668,102.5390625,168.9453125,-21.97265625,284.1796875,0.0
1734413042.5924463,116.69921875,12.6953125,-75.1953125,275.390625,0.0
1734413042.5963259,156.73828125,212.890625,188.4765625,291.9921875,0.0
1734413042.6002054,138.18359375,421.875,252.44140625,299.31640625,0.0
1734413042.6040847,123.53515625,254.39453125,77.63671875,302.24609375,0.0
1734413042.6079643,141.11328125,-196.77734375,-245.1171875,317.3828125,0.0
1734413042.6118438,149.90234375,-280.76171875,-229.4921875,343.75,0.0
1734413042.6157231,176.26953125,110.3515625,215.8203125,345.21484375,0.0
1734413042.6196027,195.3125,233.88671875,206.0546875,339.35546875,0.0
1734413042.6234822,158.69140625,-331.0546875,-195.80078125,360.83984375,0.0
1734413042.6273615,160.15625,-235.83984375,-168.9453125,372.0703125,0.0
1734413042.631241,191.89453125,414.55078125,152.83203125,404.296875,0.0
1734413042.6355011,204.58984375,351.07421875,244.62890625,409.66796875,0.0
1734413042.6393807,211.9140625,160.15625,165.0390625,350.5859375,0.0
1734413042.6432602,199.21875,243.1640625,131.34765625,386.71875,0.0
1734413042.6471398,199.70703125,295.8984375,98.6328125,439.94140625,0.0
1734413042.6510196,233.88671875,76.66015625,-75.1953125,459.9609375,0.0
1734413042.6548991,277.34375,-125.48828125,21.484375,476.5625,0.0
1734413042.6587787,268.06640625,69.3359375,192.87109375,438.96484375,0.0
1734413042.6626585,235.83984375,364.74609375,198.73046875,439.94140625,0.0
1734413042.666538,256.8359375,-190.4296875,-176.7578125,472.16796875,0.0
1734413042.6704175,276.3671875,-652.34375,-412.109375,488.76953125,0.0
1734413042.6742973,290.52734375,246.09375,219.23828125,497.0703125,0.0
1734413042.6781769,307.12890625,580.56640625,330.078125,475.5859375,0.0
1734413042.6824186,273.4375,81.54296875,-2.44140625,467.7734375,0.0
1734413042.6862984,248.53515625,-125.9765625,-131.34765625,495.60546875,0.0
1734413042.6901782,262.20703125,186.03515625,20.5078125,511.23046875,0.0
1734413042.694058,271.97265625,432.6171875,250.9765625,504.8828125,0.0
1734413042.6979377,270.5078125,251.46484375,223.14453125,495.1171875,0.0
1734413042.7018175,256.8359375,-39.55078125,48.828125,474.609375,0.0
1734413042.7056973,237.3046875,-168.45703125,-138.18359375,500.0,0.0
1734413042.709577,242.1875,-145.01953125,-314.94140625,536.62109375,0.0
1734413042.7134569,268.5546875,-416.9921875,-246.09375,518.06640625,0.0
1734413042.7173364,257.32421875,-180.17578125,107.91015625,486.328125,0.0
1734413042.7212162,226.5625,456.0546875,246.58203125,463.37890625,0.0
1734413042.725096,242.67578125,171.38671875,38.57421875,481.4453125,0.0
1734413042.729302,230.46875,-67.3828125,-182.12890625,483.88671875,0.0
1734413042.733182,225.09765625,305.17578125,93.26171875,476.07421875,0.0
1734413042.7370617,248.53515625,597.16796875,357.421875,469.23828125,0.0
1734413042.7409418,251.46484375,250.48828125,95.21484375,457.51953125,0.0
1734413042.7448215,228.02734375,-73.2421875,-74.21875,449.70703125,0.0
1734413042.7487016,199.21875,-155.76171875,-231.4453125,463.8671875,0.0
1734413042.7525814,221.19140625,125.48828125,13.18359375,470.21484375,0.0
1734413042.7564611,235.3515625,93.26171875,153.3203125,451.66015625,0.0
1734413042.7603412,230.46875,-404.296875,-167.48046875,428.22265625,0.0
1734413042.764221,201.171875,107.91015625,72.265625,403.3203125,0.0
1734413042.768101,185.05859375,303.22265625,93.26171875,430.17578125,0.0
1734413042.7719808,206.54296875,107.91015625,41.50390625,422.36328125,0.0
1734413042.7761617,215.33203125,316.40625,249.0234375,416.9921875,0.0
1734413042.7800417,189.94140625,517.08984375,269.04296875,380.37109375,0.0
1734413042.7839217,175.29296875,286.62109375,108.3984375,359.86328125,0.0
1734413042.7878017,163.0859375,-22.94921875,-151.3671875,391.11328125,0.0
1734413042.7916818,168.45703125,139.16015625,-29.78515625,390.625,0.0
1734413042.7955618,202.1484375,190.4296875,261.23046875,385.25390625,0.0
1734413042.7994418,201.66015625,31.73828125,174.31640625,357.421875,0.0
1734413042.8033218,173.33984375,-528.80859375,-219.7265625,351.07421875,0.0
1734413042.8072019,133.30078125,-635.7421875,-356.4453125,377.44140625,0.0
1734413042.8110816,137.6953125,258.30078125,53.22265625,351.07421875,0.0
1734413042.8149617,184.5703125,422.8515625,277.83203125,327.63671875,0.0
1734413042.8188417,169.921875,232.91015625,229.4921875,323.2421875,0.0
1734413042.8229992,0.0,322.265625,177.24609375,290.52734375,0.0
1734413042.8268793,0.0,352.5390625,141.6015625,321.2890625,0.0
1734413042.8307595,0.0,96.6796875,-55.6640625,335.44921875,0.0
1734413042.8346395,0.0,118.1640625,97.65625,303.7109375,0.0
1734413042.8385196,0.0,422.36328125,288.57421875,288.57421875,0.0
1734413042.8423998,0.0,165.0390625,36.1328125,269.53125,0.0
1734413042.8462799,0.0,-414.55078125,-346.19140625,289.0625,0.0
1734413042.85016,0.0,-648.92578125,-461.9140625,307.6171875,0.0
1734413042.8540401,0.0,163.57421875,163.0859375,278.3203125,0.0
1734413042.8579202,0.0,544.43359375,353.515625,260.25390625,0.0
1734413042.8618002,0.0,80.56640625,-19.04296875,251.46484375,0.0
1734413042.8656805,0.0,-8.7890625,-114.2578125,248.046875,0.0
1734413042.8698168,67.3828125,257.8125,-31.25,250.9765625,0.0
1734413042.873697,104.98046875,371.58203125,150.87890625,270.99609375,0.0
1734413042.8775773,119.140625,195.3125,248.046875,254.8828125,0.0
1734413042.8814573,62.01171875,195.3125,156.25,229.98046875,0.0
1734413042.8853376,64.94140625,243.1640625,71.77734375,226.5625,0.0
1734413042.8892179,65.91796875,-10.7421875,-207.03125,229.00390625,0.0
1734413042.893098,80.078125,-539.55078125,-364.2578125,254.39453125,0.0
1734413042.8969781,88.8671875,-588.8671875,-63.96484375,208.984375,0.0
1734413042.9008584,68.84765625,201.171875,200.68359375,176.26953125,0.0
1734413042.9047387,55.17578125,234.375,66.89453125,199.21875,0.0
1734413042.908619,44.921875,-60.546875,-198.73046875,224.12109375,0.0
1734413042.912499,66.89453125,267.08984375,7.32421875,214.84375,0.0
1734413042.9168055,77.1484375,521.484375,318.359375,168.45703125,0.0
1734413042.9206858,48.33984375,143.5546875,10.25390625,139.16015625,0.0
1734413042.9245663,41.015625,-139.6484375,-238.76953125,108.3984375,0.0
1734413042.9284465,36.1328125,104.98046875,-184.5703125,127.44140625,0.0
1734413042.932327,46.875,302.24609375,-44.921875,160.64453125,0.0
1734413042.9362073,37.59765625,-93.75,14.6484375,132.32421875,0.0
1734413042.9400878,31.73828125,-459.47265625,-185.546875,109.86328125,0.0
1734413042.943968,20.01953125,61.5234375,-37.109375,88.8671875,0.0
1734413042.9478483,6.8359375,225.09765625,-140.13671875,139.6484375,0.0
1734413042.9517288,37.109375,-108.3984375,-302.24609375,160.64453125,0.0
1734413042.955609,49.31640625,-0.48828125,84.9609375,85.44921875,0.0
1734413042.9594896,40.52734375,371.58203125,230.46875,75.1953125,0.0
1734413042.963765,31.73828125,266.11328125,68.359375,106.4453125,0.0
1734413042.9676454,37.109375,-98.14453125,-214.84375,126.953125,0.0
1734413042.971526,46.38671875,-34.66796875,-286.1328125,130.859375,0.0
1734413042.9754064,58.10546875,357.421875,146.97265625,111.81640625,0.0
1734413042.979287,69.82421875,267.08984375,188.4765625,98.14453125,0.0
1734413042.9831676,50.78125,-180.17578125,-206.54296875,92.28515625,0.0
1734413042.9870481,12.6953125,-406.73828125,-376.46484375,108.88671875,0.0
1734413042.9909286,26.3671875,-314.94140625,-393.06640625,156.25,0.0
1734413042.9948092,60.546875,-9.765625,5.859375,112.3046875,0.0
1734413042.9986897,64.94140625,-456.54296875,-71.2890625,89.35546875,0.0
1734413043.0025702,62.5,-476.07421875,-321.77734375,115.72265625,0.0
1734413043.0064507,36.62109375,230.95703125,-123.53515625,131.34765625,0.0
1734413043.010693,35.15625,43.9453125,-347.16796875,134.27734375,0.0
1734413043.0145738,49.31640625,5.37109375,-112.3046875,129.39453125,0.0
1734413043.0184543,66.40625,319.82421875,230.95703125,100.09765625,0.0
1734413043.022335,53.22265625,384.765625,147.94921875,79.58984375,0.0
1734413043.0262158,48.828125,-25.87890625,-175.29296875,118.1640625,0.0
1734413043.0300963,42.48046875,-482.421875,-514.6484375,143.06640625,0.0
1734413043.033977,51.26953125,-108.3984375,-83.49609375,106.93359375,0.0
1734413043.0378575,54.6875,352.5390625,277.83203125,47.8515625,0.0
1734413043.0417383,33.69140625,-177.734375,-188.4765625,63.4765625,0.0
1734413043.045619,53.7109375,-759.765625,-507.8125,119.140625,0.0
1734413043.0494995,24.4140625,-129.39453125,-286.62109375,146.97265625,0.0
1734413043.0533803,43.45703125,361.81640625,14.6484375,100.5859375,0.0
1734413043.0577872,64.453125,182.6171875,229.4921875,73.73046875,0.0
1734413043.061668,58.59375,184.08203125,147.94921875,82.51953125,0.0
1734413043.065549,45.41015625,236.328125,-23.4375,86.42578125,0.0
1734413043.0694296,32.71484375,69.3359375,-306.640625,124.0234375,0.0
1734413043.0733106,42.96875,-13.18359375,-278.3203125,145.01953125,0.0
1734413043.0771914,41.9921875,-33.69140625,106.93359375,109.86328125,0.0
1734413043.081072,47.8515625,-85.9375,15.625,79.58984375,0.0
1734413043.084953,18.5546875,-191.89453125,-320.3125,77.63671875,0.0
1734413043.0888338,20.01953125,-670.41015625,-489.2578125,118.1640625,0.0
1734413043.0927148,35.15625,-408.203125,-288.0859375,126.46484375,0.0
1734413043.0965955,45.41015625,330.078125,198.73046875,104.4921875,0.0
1734413043.1004765,42.48046875,74.21875,26.85546875,84.47265625,0.0
1734413043.1046727,9.765625,-70.80078125,-243.65234375,72.265625,0.0
1734413043.1085536,-4.8828125,3.41796875,-258.7890625,111.328125,0.0
1734413043.1124346,9.765625,155.76171875,-197.265625,136.71875,0.0
1734413043.1163156,40.52734375,182.6171875,104.00390625,93.75,0.0
1734413043.1201966,32.71484375,55.6640625,122.55859375,82.51953125,0.0
1734413043.1240776,22.94921875,-67.87109375,-193.84765625,92.28515625,0.0
1734413043.1279585,2.44140625,-162.59765625,-333.49609375,98.14453125,0.0
1734413043.1318395,16.11328125,-168.45703125,-346.19140625,117.1875,0.0
1734413043.1357205,47.36328125,-38.0859375,-35.64453125,105.46875,0.0
1734413043.1396015,27.34375,329.1015625,209.9609375,55.6640625,0.0
1734413043.1434824,13.18359375,399.90234375,126.953125,65.91796875,0.0
1734413043.1473634,0.9765625,-329.1015625,-294.921875,91.30859375,0.0
1734413043.151538,14.16015625,-698.73046875,-512.6953125,110.3515625,0.0
1734413043.1554189,28.80859375,202.63671875,125.48828125,103.02734375,0.0
1734413043.1593,41.9921875,200.68359375,199.70703125,74.70703125,0.0
1734413043.163181,23.4375,-105.46875,-143.06640625,66.89453125,0.0
1734413043.167062,-1.953125,-17.578125,-261.23046875,93.26171875,0.0
1734413043.1709433,11.71875,-135.25390625,-363.28125,110.83984375,0.0
1734413043.1748242,39.0625,-91.30859375,-98.6328125,104.98046875,0.0
1734413043.1787052,42.96875,-444.82421875,-84.47265625,116.69921875,0.0
1734413043.1825864,8.30078125,-408.69140625,-248.53515625,74.21875,0.0
1734413043.1864674,-17.08984375,211.9140625,-82.03125,54.19921875,0.0
1734413043.1903486,-19.53125,77.1484375,-297.36328125,90.8203125,0.0
1734413043.1942296,7.32421875,29.296875,-106.4453125,83.0078125,0.0
1734413043.1983764,21.97265625,367.1875,271.484375,68.359375,0.0
1734413043.2022576,11.71875,471.6796875,189.453125,41.9921875,0.0
1734413043.2061388,-36.62109375,0.0,-143.06640625,43.45703125,0.0
1734413043.21002,-23.92578125,-201.171875,-402.83203125,76.66015625,0.0
1734413043.213901,23.4375,150.390625,-69.3359375,68.359375,0.0
1734413043.2177823,22.4609375,151.85546875,226.07421875,62.98828125,0.0
1734413043.2216635,24.4140625,-334.47265625,-180.6640625,45.8984375,0.0
1734413043.2255447,0.48828125,-737.3046875,-499.51171875,37.59765625,0.0
1734413043.229426,-32.71484375,-175.78125,-309.5703125,41.015625,0.0
1734413043.233307,-14.16015625,226.07421875,-83.984375,67.87109375,0.0
1734413043.237188,9.27734375,72.265625,186.5234375,41.015625,0.0
1734413043.2410693,11.23046875,155.76171875,134.27734375,14.16015625,0.0
1734413043.2451956,-2.9296875,270.5078125,66.89453125,19.53125,0.0
1734413043.2490768,-30.76171875,120.60546875,-164.0625,29.296875,0.0
1734413043.252958,-18.06640625,-41.9921875,-330.56640625,43.45703125,0.0
1734413043.2568395,13.18359375,160.64453125,105.95703125,24.90234375,0.0
1734413043.2607207,11.71875,389.16015625,219.7265625,20.5078125,0.0
1734413043.264602,-8.7890625,76.171875,-141.6015625,3.41796875,0.0
1734413043.2684832,-20.99609375,-675.78125,-512.20703125,20.01953125,0.0
1734413043.2723644,-12.6953125,-609.375,-390.13671875,52.734375,0.0
1734413043.2762456,8.7890625,189.453125,162.109375,21.97265625,0.0
1734413043.280127,8.30078125,62.01171875,114.74609375,-1.953125,0.0
1734413043.2840083,-2.9296875,-98.6328125,-151.85546875,5.37109375,0.0
1734413043.2878895,-38.57421875,43.9453125,-228.02734375,1.46484375,0.0
1734413043.2919815,-32.2265625,226.07421875,-170.8984375,17.08984375,0.0
1734413043.2958627,10.7421875,179.6875,101.07421875,18.5546875,0.0
1734413043.2997441,6.8359375,84.47265625,158.69140625,-27.83203125,0.0
1734413043.3036253,-22.94921875,250.48828125,92.7734375,-18.06640625,0.0
1734413043.3075068,-41.015625,207.03125,-49.8046875,-3.41796875,0.0
1734413043.311388,-13.671875,-361.81640625,-473.14453125,16.6015625,0.0
1734413043.3152695,7.32421875,-512.6953125,-206.54296875,20.01953125,0.0
1734413043.3191507,11.23046875,120.60546875,249.0234375,-28.80859375,0.0
1734413043.3230321,-1.953125,264.16015625,83.0078125,-33.69140625,0.0
1734413043.3269134,-32.2265625,-183.59375,-186.5234375,-8.30078125,0.0
1734413043.3307948,-23.4375,-223.6328125,-317.3828125,8.30078125,0.0
1734413043.334676,-0.48828125,252.44140625,32.71484375,-0.48828125,0.0
1734413043.3389351,6.8359375,117.1875,233.88671875,-0.9765625,0.0
1734413043.3428166,-37.59765625,-71.2890625,-21.97265625,-38.57421875,0.0
1734413043.346698,-103.515625,-6.8359375,-198.2421875,-94.7265625,0.0
1734413043.3505795,-82.51953125,148.4375,-217.28515625,-61.5234375,0.0
1734413043.3544612,-54.6875,252.44140625,28.3203125,-45.41015625,0.0
1734413043.3583426,-73.2421875,-25.390625,187.5,-64.94140625,0.0
1734413043.362224,-108.3984375,-259.765625,-56.15234375,-110.83984375,0.0
1734413043.3661056,-126.953125,-194.3359375,-246.09375,-123.046875,0.0
1734413043.369987,-123.046875,-81.54296875,-318.359375,-97.16796875,0.0
1734413043.3738685,-126.46484375,-369.62890625,-277.34375,-87.890625,0.0
1734413043.37775,-101.5625,-84.9609375,116.69921875,-90.8203125,0.0
1734413043.3816314,-106.4453125,441.89453125,245.1171875,-120.60546875,0.0
1734413043.3858693,-125.0,64.453125,-83.984375,-132.32421875,0.0
1734413043.3897507,-142.08984375,-198.73046875,-362.3046875,-66.89453125,0.0
1734413043.3936324,-148.4375,129.8828125,-139.16015625,-95.21484375,0.0
1734413043.3975139,-100.5859375,191.40625,208.984375,-111.328125,0.0
1734413043.4013956,-99.12109375,-65.91796875,-23.4375,-107.91015625,0.0
1734413043.4052773,-120.60546875,-366.2109375,-367.67578125,-107.91015625,0.0
1734413043.4091587,-131.8359375,-314.94140625,-374.51171875,-60.05859375,0.0
1734413043.4130404,-135.25390625,200.68359375,-159.1796875,-65.91796875,0.0
1734413043.4169219,-89.84375,-0.48828125,-24.4140625,-55.6640625,0.0
1734413043.4208035,-82.03125,-451.66015625,-203.61328125,-70.80078125,0.0
1734413043.4246852,-107.421875,65.4296875,-58.59375,-87.890625,0.0
1734413043.4285667,-109.86328125,189.94140625,-189.94140625,-64.94140625,0.0
1734413043.432769,-104.98046875,-81.54296875,-370.60546875,-53.22265625,0.0
1734413043.4366508,-62.01171875,152.34375,69.82421875,-44.921875,0.0
1734413043.4405324,-41.50390625,447.75390625,251.953125,-54.19921875,0.0
1734413043.4444141,-55.6640625,236.81640625,-24.90234375,-33.69140625,0.0
1734413043.4482958,-61.5234375,-129.39453125,-297.8515625,-2.44140625,0.0
1734413043.4521775,-26.3671875,-290.52734375,-434.08203125,17.578125,0.0
1734413043.4560592,-4.39453125,-149.4140625,-82.03125,11.71875,0.0
1734413043.459941,-5.37109375,23.92578125,155.2734375,-25.390625,0.0
1734413043.4638226,-17.08984375,-582.03125,-347.16796875,-25.390625,0.0
1734413043.4677043,-44.921875,-638.18359375,-460.44921875,-12.6953125,0.0
1734413043.471586,-7.8125,196.77734375,-236.81640625,32.71484375,0.0
1734413043.475468,16.6015625,272.4609375,52.24609375,36.1328125,0.0
1734413043.479656,-3.41796875,207.51953125,236.328125,-11.71875,0.0
1734413043.483538,15.13671875,324.21875,106.4453125,-14.16015625,0.0
1734413043.4874196,-8.7890625,295.8984375,-14.6484375,-16.11328125,0.0
1734413043.4913015,-28.80859375,-33.69140625,-364.2578125,11.71875,0.0
1734413043.4951835,13.671875,-56.15234375,-145.99609375,30.2734375,0.0
1734413043.4990652,51.26953125,77.63671875,195.80078125,26.3671875,0.0
1734413043.502947,25.87890625,123.53515625,33.69140625,12.20703125,0.0
1734413043.5068288,-2.44140625,-200.68359375,-301.26953125,9.27734375,0.0
1734413043.5107107,35.64453125,-680.6640625,-567.87109375,38.57421875,0.0
1734413043.5145924,28.80859375,-81.0546875,-82.03125,13.671875,0.0
1734413043.5184743,29.296875,155.2734375,223.14453125,-4.39453125,0.0
1734413043.522356,38.57421875,-3.41796875,-46.875,-24.90234375,0.0
1734413043.526512,-12.6953125,42.96875,-226.07421875,-25.87890625,0.0
1734413043.5303938,-21.97265625,72.265625,-292.96875,1.46484375,0.0
1734413043.5342758,20.99609375,148.4375,-122.55859375,20.5078125,0.0
1734413043.5381577,19.53125,225.09765625,235.83984375,-14.6484375,0.0
1734413043.5420396,4.39453125,238.76953125,153.80859375,-42.48046875,0.0
1734413043.5459216,-17.578125,-19.04296875,-190.91796875,-12.20703125,0.0
1734413043.5498035,-24.90234375,-293.9453125,-401.85546875,-0.48828125,0.0
1734413043.5536854,16.11328125,-677.24609375,-431.640625,0.0,0.0
1734413043.5575674,20.5078125,-364.74609375,-33.203125,-4.8828125,0.0
1734413043.5614493,16.11328125,451.66015625,241.2109375,-30.76171875,0.0
1734413043.5653312,0.0,183.59375,-86.9140625,-29.78515625,0.0
1734413043.5692132,-20.5078125,-107.421875,-343.26171875,-10.7421875,0.0
1734413043.5735316,3.90625,40.0390625,-267.578125,14.16015625,0.0
1734413043.5774138,26.3671875,259.27734375,140.13671875,16.11328125,0.0
1734413043.581296,16.6015625,123.53515625,68.359375,-34.66796875,0.0
1734413043.585178,14.6484375,-181.640625,-306.640625,-32.71484375,0.0
1734413043.58906,4.8828125,12.6953125,-285.64453125,-11.71875,0.0
1734413043.592942,-16.6015625,-32.71484375,-310.05859375,-10.25390625,0.0
1734413043.5968242,-4.8828125,-257.8125,-152.83203125,-22.4609375,0.0
1734413043.6007063,-15.625,-253.41796875,-94.7265625,-45.41015625,0.0
1734413043.6045883,-43.45703125,155.2734375,-30.2734375,-61.5234375,0.0
1734413043.6084704,-49.31640625,295.41015625,-139.16015625,-32.2265625,0.0
1734413043.6123526,-32.2265625,-294.43359375,-476.5625,11.23046875,0.0
1734413043.6162345,-5.859375,-425.29296875,-191.89453125,15.13671875,0.0
1734413043.6203494,-5.859375,362.3046875,261.71875,-32.71484375,0.0
1734413043.6242316,-27.34375,325.68359375,48.828125,-29.78515625,0.0
1734413043.6281137,-20.99609375,-66.40625,-235.3515625,2.44140625,0.0
1734413043.631996,-25.390625,-17.08984375,-358.3984375,13.18359375,0.0
1734413043.635878,-18.06640625,102.5390625,-35.15625,2.44140625,0.0
1734413043.6397603,-5.37109375,-1.46484375,124.51171875,-29.296875,0.0
1734413043.6436424,-32.71484375,-306.15234375,-236.81640625,-42.96875,0.0
1734413043.6475246,-43.45703125,-311.03515625,-334.9609375,-24.90234375,0.0
1734413043.6514068,-17.08984375,126.953125,-297.8515625,1.953125,0.0
1734413043.655289,20.5078125,334.9609375,16.11328125,9.765625,0.0
1734413043.6591709,29.78515625,-212.890625,21.484375,18.06640625,0.0
1734413043.663053,4.8828125,-216.796875,-147.94921875,4.39453125,0.0
1734413043.6671598,-9.765625,315.91796875,-61.03515625,24.4140625,0.0
1734413043.6710422,7.8125,-12.6953125,-354.4921875,51.26953125,0.0
1734413043.6749244,51.7578125,-40.0390625,-152.83203125,51.26953125,0.0
1734413043.6788065,66.40625,420.41015625,275.390625,53.22265625,0.0
1734413043.682689,45.8984375,443.84765625,145.5078125,25.390625,0.0
1734413043.6865711,40.52734375,-256.8359375,-322.265625,30.76171875,0.0
1734413043.6904533,42.48046875,-625.9765625,-533.203125,56.15234375,0.0
1734413043.6943355,63.96484375,-117.67578125,-227.5390625,68.359375,0.0
1734413043.6982179,81.54296875,276.85546875,160.64453125,59.08203125,0.0
1734413043.7021,53.22265625,105.95703125,30.76171875,29.78515625,0.0
1734413043.7059822,20.01953125,-96.19140625,-218.75,40.0390625,0.0
1734413043.7098646,0.48828125,150.390625,-205.56640625,42.96875,0.0
1734413043.7141137,24.90234375,216.796875,-157.2265625,28.80859375,0.0
1734413043.717996,50.29296875,163.57421875,182.12890625,31.73828125,0.0
1734413043.7218783,34.66796875,214.84375,181.640625,10.7421875,0.0
1734413043.7257607,23.4375,288.57421875,62.98828125,9.765625,0.0
1734413043.729643,5.37109375,105.46875,-158.203125,30.2734375,0.0
1734413043.7335255,15.625,-249.51171875,-411.1328125,45.8984375,0.0
1734413043.7374077,34.1796875,-220.21484375,-36.62109375,27.34375,0.0
1734413043.74129,23.4375,-16.11328125,138.671875,-12.6953125,0.0
1734413043.7451725,-1.46484375,-74.70703125,-148.4375,-12.6953125,0.0
1734413043.749055,-18.06640625,-474.12109375,-334.9609375,24.4140625,0.0
1734413043.7529373,-7.32421875,-420.8984375,-334.47265625,41.50390625,0.0
1734413043.7568197,6.8359375,217.28515625,101.5625,5.37109375,0.0
1734413043.7610488,16.11328125,283.203125,189.453125,-3.41796875,0.0
1734413043.7649314,-8.7890625,20.01953125,-112.79296875,-20.01953125,0.0
1734413043.7688138,-49.31640625,81.0546875,-51.26953125,-44.43359375,0.0
1734413043.7726963,-35.64453125,231.4453125,-9.27734375,-16.11328125,0.0
1734413043.776579,-11.23046875,229.98046875,144.53125,-2.44140625,0.0
1734413043.7804613,-41.015625,-109.86328125,91.30859375,-45.41015625,0.0
1734413043.7843437,-62.01171875,-63.96484375,18.5546875,-72.265625,0.0
1734413043.7882261,-70.80078125,221.6796875,84.47265625,-59.5703125,0.0
1734413043.7921088,-77.1484375,-260.7421875,-305.6640625,-19.53125,0.0
1734413043.7959912,-52.734375,-549.31640625,-163.57421875,-7.8125,0.0
1734413043.7998736,-51.26953125,223.6328125,319.3359375,-47.8515625,0.0
1734413043.8037562,-60.546875,364.74609375,157.71484375,-71.2890625,0.0
1734413043.8079517,-72.75390625,-41.9921875,-78.61328125,-52.24609375,0.0
1734413043.8118343,-79.58984375,-198.73046875,-305.17578125,-28.80859375,0.0
1734413043.815717,-50.29296875,55.17578125,14.6484375,-33.203125,0.0
1734413043.8195996,-35.64453125,358.3984375,315.4296875,-37.109375,0.0
1734413043.823482,-56.640625,169.921875,97.65625,-57.6171875,0.0
1734413043.8273647,-67.3828125,-174.8046875,-155.2734375,-62.01171875,0.0
1734413043.8312473,-50.29296875,-324.70703125,-354.98046875,-28.3203125,0.0
1734413043.83513,-41.9921875,-99.12109375,-103.515625,-29.296875,0.0
1734413043.8390124,-53.22265625,-351.07421875,6.8359375,-49.31640625,0.0
1734413043.842895,-69.3359375,-284.1796875,-5.37109375,-68.84765625,0.0
1734413043.8467777,-97.16796875,293.9453125,176.26953125,-78.125,0.0
1734413043.8506603,-102.05078125,43.45703125,-103.02734375,-39.0625,0.0
1734413043.8548384,-78.125,7.8125,-51.7578125,-43.45703125,0.0
1734413043.858721,-71.2890625,411.1328125,320.3125,-52.734375,0.0
1734413043.8626037,-70.80078125,504.8828125,244.140625,-70.3125,0.0
1734413043.8664863,-93.75,75.68359375,-0.9765625,-82.03125,0.0
1734413043.8703692,-113.76953125,-189.94140625,-228.515625,-55.17578125,0.0
1734413043.8742518,-76.66015625,-75.1953125,-176.7578125,-38.57421875,0.0
1734413043.8781345,-62.01171875,11.23046875,198.2421875,-50.29296875,0.0
1734413043.8820171,-65.4296875,-228.515625,21.97265625,-70.3125,0.0
1734413043.8858998,-69.3359375,-618.1640625,-345.703125,-58.10546875,0.0
1734413043.8897827,-91.796875,-126.46484375,-124.0234375,-45.8984375,0.0
1734413043.8936653,-80.078125,294.43359375,79.58984375,-44.43359375,0.0
1734413043.897548,-43.9453125,182.6171875,250.48828125,-49.8046875,0.0
1734413043.9017065,-57.6171875,213.37890625,221.6796875,-79.58984375,0.0
1734413043.9055893,-85.44921875,351.5625,155.76171875,-97.16796875,0.0
1734413043.909472,-75.1953125,119.140625,-19.53125,-56.640625,0.0
1734413043.9133549,-48.33984375,-62.98828125,-215.33203125,-22.94921875,0.0
1734413043.9172375,-49.31640625,174.31640625,125.0,-50.78125,0.0
1734413043.9211204,-39.0625,128.41796875,211.42578125,-81.54296875,0.0
1734413043.9250033,-60.546875,-152.34375,-156.73828125,-76.171875,0.0
1734413043.928886,-72.265625,-659.1796875,-468.75,-58.10546875,0.0
1734413043.9327688,-53.22265625,-705.078125,-445.80078125,-43.9453125,0.0
1734413043.9366515,-66.89453125,183.10546875,96.6796875,-63.4765625,0.0
1734413043.9405344,-47.8515625,303.22265625,188.96484375,-81.54296875,0.0
1734413043.9444172,-54.6875,-36.62109375,-162.109375,-95.21484375,0.0
1734413043.9485347,-97.65625,71.2890625,-219.23828125,-82.03125,0.0
1734413043.9524176,-82.03125,16.11328125,-338.8671875,-37.109375,0.0
1734413043.9563005,-52.24609375,-146.97265625,-166.9921875,-66.40625,0.0
1734413043.9601834,-45.41015625,57.12890625,177.734375,-88.8671875,0.0
1734413043.9640663,-56.640625,209.9609375,65.4296875,-75.1953125,0.0
1734413043.9679492,-85.44921875,-151.85546875,-229.4921875,-62.01171875,0.0
1734413043.971832,-70.80078125,-556.640625,-504.39453125,-20.99609375,0.0
1734413043.975715,-24.90234375,-578.61328125,-317.3828125,-6.8359375,0.0
1734413043.9795978,-37.109375,108.3984375,197.265625,-88.8671875,0.0
1734413043.9834807,-52.734375,389.16015625,152.34375,-112.3046875,0.0
1734413043.9873636,-62.01171875,-58.10546875,-144.53125,-51.26953125,0.0
1734413043.9912465,-70.3125,-309.08203125,-396.484375,-66.89453125,0.0
1734413043.9955297,-35.64453125,31.25,-126.46484375,-54.19921875,0.0
1734413043.9994125,-18.06640625,354.4921875,254.39453125,-53.7109375,0.0
1734413044.0032957,-34.66796875,117.1875,4.39453125,-83.49609375,0.0
1734413044.0071785,-52.734375,-17.578125,-219.23828125,-54.19921875,0.0
1734413044.0110617,-64.94140625,1.953125,-315.91796875,-51.26953125,0.0
1734413044.0149446,-45.41015625,-10.25390625,-199.21875,-63.4765625,0.0
1734413044.0188277,-41.9921875,-513.18359375,-156.25,-62.5,0.0
1734413044.0227106,-52.24609375,-552.24609375,-246.09375,-87.890625,0.0
1734413044.0265937,-66.40625,147.94921875,-41.50390625,-89.84375,0.0
1734413044.0304766,-76.171875,18.06640625,-249.51171875,-37.59765625,0.0
1734413044.0343597,-39.55078125,-20.5078125,-196.77734375,-27.83203125,0.0
1734413044.0382426,-30.2734375,370.60546875,231.93359375,-54.6875,0.0
1734413044.0424964,-57.6171875,524.90234375,252.44140625,-66.40625,0.0
1734413044.0463796,-56.640625,150.390625,-64.94140625,-77.63671875,0.0
1734413044.0502627,-58.59375,-324.70703125,-410.64453125,-46.38671875,0.0
1734413044.0541458,-56.15234375,-123.046875,-272.94921875,-31.25,0.0
1734413044.058029,-31.25,323.2421875,193.359375,-41.50390625,0.0
1734413044.061912,-32.2265625,16.11328125,85.9375,-66.40625,0.0
1734413044.0657952,-55.17578125,-242.67578125,-208.984375,-93.26171875,0.0
1734413044.0696783,-64.453125,-21.484375,-217.28515625,-52.24609375,0.0
1734413044.0735614,-45.41015625,198.2421875,-154.296875,-32.71484375,0.0
1734413044.0774446,-20.99609375,-93.75,-36.62109375,-44.43359375,0.0
1734413044.0813277,-27.34375,-508.7890625,-132.8125,-49.31640625,0.0
1734413044.0852108,-68.359375,37.59765625,29.78515625,-80.56640625,0.0
1734413044.0894363,-73.73046875,154.78515625,-35.15625,-80.078125,0.0
1734413044.0933197,-71.2890625,-77.1484375,-284.1796875,-34.1796875,0.0
1734413044.0972028,-45.41015625,138.671875,60.546875,-55.17578125,0.0
1734413044.1010861,-24.4140625,430.6640625,309.5703125,-75.68359375,0.0
1734413044.1049693,-46.875,259.765625,64.453125,-72.265625,0.0
1734413044.1088526,-62.01171875,-286.62109375,-272.94921875,-57.12890625,0.0
1734413044.1127357,-60.546875,-391.6015625,-391.6015625,-41.9921875,0.0
1734413044.116619,-53.22265625,-112.3046875,-46.38671875,-60.546875,0.0
1734413044.1205022,-45.41015625,99.12109375,249.51171875,-56.15234375,0.0
1734413044.1243856,-44.43359375,-405.2734375,-137.6953125,-85.44921875,0.0
1734413044.1282687,-76.66015625,-502.9296875,-295.8984375,-89.84375,0.0
1734413044.132152,-75.1953125,195.80078125,-97.65625,-64.94140625,0.0
1734413044.1363592,-56.15234375,236.328125,109.86328125,-72.75390625,0.0
1734413044.1402426,-47.36328125,161.1328125,249.51171875,-77.1484375,0.0
1734413044.144126,-44.921875,322.265625,156.25,-80.078125,0.0
1734413044.1480093,-63.4765625,261.23046875,97.16796875,-69.3359375,0.0
1734413044.1518927,-55.6640625,-41.015625,-201.171875,-45.41015625,0.0
1734413044.155776,-60.05859375,-270.99609375,-277.34375,-62.98828125,0.0
1734413044.1596594,-72.75390625,42.96875,174.8046875,-74.21875,0.0
1734413044.1635427,-41.9921875,309.08203125,212.890625,-65.91796875,0.0
1734413044.167426,-51.26953125,-330.078125,-267.578125,-68.359375,0.0
1734413044.1713095,-92.28515625,-771.97265625,-515.625,-55.6640625,0.0
1734413044.1751928,-70.3125,7.32421875,-22.4609375,-47.8515625,0.0
1734413044.1790762,-32.71484375,481.93359375,325.1953125,-42.48046875,0.0
1734413044.1832714,-29.78515625,177.24609375,59.08203125,-67.87109375,0.0
1734413044.1871548,-55.17578125,10.25390625,-99.609375,-77.1484375,0.0
1734413044.1910384,-70.80078125,126.953125,-117.1875,-50.78125,0.0
1734413044.1949217,-25.390625,237.3046875,-23.4375,-48.33984375,0.0
1734413044.1988053,-20.01953125,96.19140625,215.8203125,-38.0859375,0.0
1734413044.2026887,-51.26953125,-98.14453125,139.6484375,-28.3203125,0.0
1734413044.2065723,-46.38671875,-240.234375,-147.94921875,-59.08203125,0.0
1734413044.2104557,-60.05859375,-313.96484375,-336.42578125,-31.25,0.0
1734413044.214339,-46.38671875,-635.7421875,-422.36328125,-24.4140625,0.0
1734413044.2182226,-11.71875,-325.68359375,-9.27734375,-40.0390625,0.0
1734413044.222106,-20.01953125,494.62890625,315.91796875,-47.8515625,0.0
1734413044.2259896,-35.15625,205.078125,0.0,-53.22265625,0.0
1734413044.2301543,-65.91796875,-353.515625,-319.3359375,-59.08203125,0.0
1734413044.2340379,-65.91796875,-88.37890625,-212.40234375,-66.40625,0.0
1734413044.2379212,-36.62109375,435.05859375,221.6796875,-40.0390625,0.0
1734413044.2418048,-26.3671875,265.13671875,188.96484375,-49.31640625,0.0
1734413044.2456884,-21.97265625,-56.15234375,-133.7890625,-47.36328125,0.0
1734413044.249572,-37.109375,-232.421875,-315.4296875,-39.55078125,0.0
1734413044.2534556,-42.96875,-216.30859375,-361.81640625,-40.0390625,0.0
1734413044.2573392,-19.53125,-229.00390625,-159.66796875,-16.6015625,0.0
1734413044.2612226,-3.90625,-410.15625,-61.03515625,-47.8515625,0.0
1734413044.2651062,-41.50390625,40.52734375,43.45703125,-73.2421875,0.0
1734413044.2689898,-71.2890625,187.5,-20.01953125,-37.59765625,0.0
1734413044.2728734,-34.66796875,-99.609375,-273.92578125,-27.83203125,0.0
1734413044.277007,-21.97265625,98.6328125,4.8828125,-20.01953125,0.0
1734413044.2808907,-32.71484375,474.12109375,290.0390625,-29.296875,0.0
1734413044.2847743,-53.22265625,349.12109375,88.8671875,-40.52734375,0.0
1734413044.288658,-66.40625,-174.8046875,-212.40234375,-54.19921875,0.0
1734413044.2925417,-59.5703125,-274.4140625,-376.46484375,-40.52734375,0.0
1734413044.2964253,-29.78515625,-33.203125,-198.2421875,-40.52734375,0.0
1734413044.300309,-23.4375,-51.7578125,91.796875,-81.0546875,0.0
1734413044.3041925,-52.734375,-273.92578125,-101.5625,-77.63671875,0.0
1734413044.3080761,-61.03515625,-206.0546875,-275.87890625,-60.05859375,0.0
1734413044.3119597,-77.1484375,151.3671875,-246.58203125,-50.29296875,0.0
1734413044.3158436,-65.4296875,194.3359375,-117.67578125,-60.546875,0.0
1734413044.3197272,-49.31640625,-189.453125,9.765625,-47.8515625,0.0
1734413044.323847,0.0,-78.125,0.0,-69.82421875,0.0
1734413044.327731,0.0,213.37890625,0.0,-71.2890625,0.0
1734413044.3316145,0.0,-130.37109375,0.0,-19.04296875,0.0
1734413044.3354983,0.0,-136.71875,0.0,-54.19921875,0.0
1734413044.339382,0.0,238.76953125,0.0,-84.9609375,0.0
1734413044.3432658,0.0,49.8046875,0.0,-76.171875,0.0
1734413044.3471494,0.0,-517.08984375,0.0,-84.9609375,0.0
1734413044.3510332,0.0,-792.48046875,0.0,-60.546875,0.0
1734413044.3549168,0.0,-124.51171875,0.0,-35.64453125,0.0
1734413044.3588006,0.0,384.27734375,0.0,-58.10546875,0.0
1734413044.3626842,0.0,104.4921875,0.0,-61.5234375,0.0
1734413044.366568,0.0,-96.6796875,0.0,-72.265625,0.0
1734413044.3706686,-68.359375,85.9375,-286.62109375,-63.4765625,0.0
1734413044.3745525,-69.82421875,27.83203125,-324.21875,-41.9921875,0.0
1734413044.3784363,-36.1328125,-62.01171875,-51.7578125,-51.7578125,0.0
1734413044.3823202,-36.62109375,178.22265625,198.2421875,-60.05859375,0.0
1734413044.386204,-60.05859375,208.984375,-22.94921875,-53.7109375,0.0
1734413044.3900878,-63.96484375,-115.72265625,-313.4765625,-32.71484375,0.0
1734413044.3939714,-39.0625,-732.421875,-558.59375,-33.69140625,0.0
1734413044.3978553,-52.24609375,-595.703125,-183.10546875,-20.5078125,0.0
1734413044.4017391,-66.40625,289.0625,272.94921875,-43.9453125,0.0
1734413044.405623,-54.19921875,172.8515625,-58.10546875,-66.89453125,0.0
1734413044.4095068,-81.0546875,-272.4609375,-350.09765625,-54.19921875,0.0
1734413044.4133904,-81.0546875,-74.21875,-319.3359375,-36.1328125,0.0
1734413044.41747,-39.55078125,342.28515625,73.2421875,-17.08984375,0.0
1734413044.4213538,-45.8984375,243.1640625,182.12890625,-26.3671875,0.0
1734413044.4252377,-58.59375,-59.5703125,-183.10546875,-46.38671875,0.0
1734413044.4291215,-62.98828125,-1.46484375,-237.3046875,-44.43359375,0.0
1734413044.4330056,-66.89453125,118.65234375,-250.48828125,-29.296875,0.0
1734413044.4368894,-26.3671875,-186.03515625,-267.08984375,4.8828125,0.0
1734413044.4407732,4.8828125,-555.6640625,-172.8515625,7.32421875,0.0
1734413044.444657,-40.52734375,-73.73046875,49.8046875,-41.9921875,0.0
1734413044.448541,-58.10546875,204.1015625,66.40625,-62.5,0.0
1734413044.4524248,-42.48046875,-135.25390625,-238.76953125,-29.296875,0.0
1734413044.4563086,-19.04296875,-30.76171875,-62.5,-10.7421875,0.0
1734413044.4601924,-10.7421875,389.6484375,302.734375,-17.08984375,0.0
1734413044.4644172,-29.296875,304.19921875,140.625,-34.66796875,0.0
1734413044.468301,-52.24609375,-176.7578125,-173.33984375,-41.015625,0.0
1734413044.4721851,-66.89453125,-199.70703125,-301.7578125,-10.25390625,0.0
1734413044.476069,-38.57421875,229.98046875,-5.37109375,-4.39453125,0.0
1734413044.479953,-11.71875,346.6796875,269.53125,-12.6953125,0.0
1734413044.483837,0.0,-100.5859375,-28.3203125,-12.20703125,0.0
1734413044.487721,-14.16015625,-473.6328125,-334.9609375,-20.99609375,0.0
1734413044.491605,-42.96875,-333.0078125,-339.35546875,-8.7890625,0.0
1734413044.495489,-33.203125,-22.94921875,-128.41796875,8.30078125,0.0
1734413044.499373,-8.7890625,-197.265625,36.1328125,0.9765625,0.0
1734413044.5032568,-26.85546875,-109.86328125,79.1015625,-8.7890625,0.0
1734413044.5071409,-52.734375,262.6953125,134.27734375,-40.52734375,0.0
1734413044.5113356,-49.31640625,-11.23046875,-130.859375,-24.90234375,0.0
1734413044.5152197,-38.57421875,-104.98046875,-236.81640625,13.18359375,0.0
1734413044.5191038,-25.390625,304.19921875,197.265625,-17.578125,0.0
1734413044.5229878,-31.25,436.03515625,260.7421875,-36.1328125,0.0
1734413044.526872,-25.87890625,1.46484375,-84.47265625,-0.48828125,0.0
1734413044.530756,-41.9921875,-440.4296875,-368.1640625,-9.765625,0.0
1734413044.53464,-45.8984375,-353.02734375,-334.9609375,-8.30078125,0.0
1734413044.5385242,-23.92578125,244.62890625,187.01171875,-2.9296875,0.0
1734413044.5424082,-21.484375,21.484375,61.03515625,-24.90234375,0.0
1734413044.5462923,-20.99609375,-629.8828125,-370.60546875,-14.6484375,0.0
1734413044.5501764,-38.57421875,-95.21484375,-123.046875,-11.71875,0.0
1734413044.5540605,-39.55078125,184.5703125,-118.65234375,13.671875,0.0
1734413044.5582387,-17.578125,66.89453125,150.87890625,6.34765625,0.0
1734413044.562123,-17.578125,180.6640625,263.671875,-39.0625,0.0
1734413044.5660071,-43.9453125,281.25,122.55859375,-37.59765625,0.0
1734413044.5698912,-70.80078125,104.4921875,17.578125,-36.1328125,0.0
1734413044.5737755,-53.22265625,-138.671875,-269.04296875,0.0,0.0
1734413044.5776596,-22.4609375,-157.2265625,-39.55078125,7.8125,0.0
1734413044.5815437,-20.99609375,-81.0546875,186.03515625,-17.08984375,0.0
1734413044.585428,-19.04296875,-149.90234375,-101.07421875,-13.671875,0.0
1734413044.589312,-43.9453125,-643.5546875,-402.34375,6.8359375,0.0
1734413044.5931964,-67.3828125,-497.55859375,-338.8671875,-1.953125,0.0
1734413044.5970805,-56.15234375,371.09375,172.8515625,-13.671875,0.0
1734413044.6009645,-52.734375,353.02734375,269.53125,-10.25390625,0.0
1734413044.6051211,-64.94140625,39.0625,83.0078125,-41.015625,0.0
1734413044.6090055,-81.54296875,104.98046875,75.68359375,-24.4140625,0.0
1734413044.6128895,-78.61328125,172.36328125,-28.3203125,-4.39453125,0.0
1734413044.6167738,-49.8046875,96.19140625,53.7109375,-5.859375,0.0
1734413044.6206582,-38.57421875,35.15625,184.08203125,-20.01953125,0.0
1734413044.6245425,-41.50390625,-65.4296875,3.41796875,-43.9453125,0.0
1734413044.6284266,-62.01171875,-166.9921875,-170.41015625,-31.73828125,0.0
1734413044.6323109,-66.40625,-424.31640625,-425.29296875,16.11328125,0.0
1734413044.6361952,-38.0859375,-592.28515625,-316.40625,20.5078125,0.0
1734413044.6400795,-38.0859375,176.26953125,264.6484375,-25.87890625,0.0
1734413044.6439636,-28.3203125,416.50390625,236.328125,-25.390625,0.0
1734413044.647848,-37.109375,-120.60546875,-114.2578125,-10.7421875,0.0
1734413044.6519847,-57.6171875,-131.8359375,-186.5234375,0.0,0.0
1734413044.655869,-39.55078125,289.0625,115.234375,9.765625,0.0
1734413044.6597533,-17.578125,435.546875,315.91796875,-14.16015625,0.0
1734413044.6636376,-31.73828125,213.37890625,209.9609375,-25.87890625,0.0
1734413044.667522,-41.015625,76.171875,109.86328125,-24.4140625,0.0
1734413044.6714063,-57.12890625,-131.34765625,-160.15625,-20.99609375,0.0
1734413044.6752906,-57.12890625,-162.109375,-232.91015625,-10.25390625,0.0
1734413044.679175,-20.5078125,-467.7734375,-58.10546875,6.34765625,0.0
1734413044.6830592,-33.203125,-381.34765625,54.19921875,-22.4609375,0.0
1734413044.6869438,-66.89453125,317.3828125,205.078125,-75.68359375,0.0
1734413044.690828,-79.1015625,100.09765625,-13.671875,-40.52734375,0.0
1734413044.6947124,-65.91796875,-65.4296875,-132.32421875,-15.625,0.0
1734413044.6988177,-39.55078125,325.1953125,243.1640625,-30.76171875,0.0
1734413044.702702,-46.38671875,498.046875,330.56640625,-43.9453125,0.0
1734413044.7065866,-54.19921875,21.484375,36.1328125,-52.734375,0.0
1734413044.710471,-59.5703125,-221.19140625,-171.38671875,-29.296875,0.0
1734413044.7143555,-57.6171875,58.10546875,-83.984375,-12.6953125,0.0
1734413044.7182398,-25.87890625,91.796875,210.9375,-29.78515625,0.0
1734413044.722124,-25.390625,-208.0078125,106.4453125,-44.43359375,0.0
1734413044.7260087,-48.828125,-568.84765625,-247.0703125,-33.203125,0.0
1734413044.729893,-74.70703125,-132.32421875,-58.59375,-38.57421875,0.0
1734413044.7337775,-54.6875,225.5859375,78.61328125,-26.3671875,0.0
1734413044.7376618,-34.66796875,125.0,185.546875,-2.9296875,0.0
1734413044.7415462,-33.203125,203.125,253.41796875,-53.22265625,0.0
1734413044.7456276,-42.96875,362.3046875,193.359375,-54.19921875,0.0
1734413044.7495122,-74.21875,169.43359375,89.84375,-20.99609375,0.0
1734413044.7533965,-58.10546875,-144.53125,-217.7734375,3.90625,0.0
1734413044.757281,-39.55078125,107.91015625,28.80859375,-3.41796875,0.0
1734413044.7611656,-18.06640625,370.60546875,317.87109375,-39.55078125,0.0
1734413044.76505,-32.2265625,83.984375,82.03125,-24.90234375,0.0
1734413044.7689345,-56.640625,-546.875,-279.78515625,-20.5078125,0.0
1734413044.772819,-70.3125,-792.96875,-479.4921875,-2.44140625,0.0
1734413044.7767034,-62.5,-64.94140625,-15.13671875,-13.671875,0.0
1734413044.780588,-36.62109375,315.4296875,302.24609375,-34.66796875,0.0
1734413044.7844725,-42.48046875,-253.90625,-85.44921875,-26.85546875,0.0
1734413044.7883568,-67.3828125,-241.2109375,-112.79296875,-23.4375,0.0
1734413044.792426,-57.6171875,164.55078125,-37.109375,-21.97265625,0.0
1734413044.7963107,-33.203125,19.04296875,-81.54296875,-21.484375,0.0
1734413044.8001952,-38.0859375,34.66796875,179.19921875,-5.859375,0.0
1734413044.8040795,-40.0390625,294.43359375,232.421875,-15.13671875,0.0
1734413044.807964,-62.98828125,246.58203125,98.14453125,-35.64453125,0.0
1734413044.8118486,-48.828125,-326.171875,-345.21484375,-3.41796875,0.0
1734413044.8157332,-17.08984375,-691.40625,-433.59375,15.625,0.0
1734413044.8196177,-19.53125,92.7734375,213.8671875,-26.85546875,0.0
1734413044.8235023,-37.59765625,354.98046875,244.62890625,-41.9921875,0.0
1734413044.8273869,-55.6640625,-163.57421875,-99.609375,-43.45703125,0.0
1734413044.8312714,-79.1015625,-159.66796875,-245.1171875,-42.96875,0.0
1734413044.835156,-75.68359375,192.87109375,-78.61328125,-13.18359375,0.0
1734413044.8393652,-27.34375,376.953125,265.625,-17.08984375,0.0
1734413044.8432498,-24.90234375,132.32421875,173.828125,-51.26953125,0.0
1734413044.8471346,-62.01171875,25.390625,66.89453125,-49.31640625,0.0
1734413044.8510191,-80.56640625,62.01171875,-62.98828125,-18.5546875,0.0
1734413044.8549037,-71.2890625,43.45703125,-248.53515625,0.0,0.0
1734413044.8587885,-41.9921875,-117.1875,48.33984375,13.671875,0.0
1734413044.862673,-35.64453125,-249.0234375,177.24609375,-15.625,0.0
1734413044.8665576,-66.40625,-125.9765625,-2.9296875,-50.78125,0.0
1734413044.8704424,-91.796875,-91.30859375,-192.87109375,-28.3203125,0.0
1734413044.874327,-62.01171875,-498.53515625,-376.46484375,1.46484375,0.0
1734413044.8782115,-33.69140625,-175.78125,81.0546875,-6.34765625,0.0
1734413044.8820963,-40.0390625,390.13671875,316.89453125,-9.765625,0.0
1734413044.8862898,-28.3203125,-29.296875,-4.39453125,-25.390625,0.0
1734413044.8901746,-53.22265625,-195.80078125,-215.8203125,-30.76171875,0.0
1734413044.8940594,-76.66015625,58.10546875,-249.0234375,21.484375,0.0
1734413044.8979442,-52.24609375,324.21875,135.25390625,8.30078125,0.0
1734413044.9018288,-39.0625,210.44921875,246.58203125,-22.94921875,0.0
1734413044.9057136,-48.828125,-251.46484375,-144.53125,-30.2734375,0.0
1734413044.9095984,-67.87109375,-267.08984375,-275.87890625,-31.73828125,0.0
1734413044.9134831,-55.17578125,122.0703125,-222.16796875,-0.9765625,0.0
1734413044.9173677,-14.16015625,-97.65625,-164.55078125,13.18359375,0.0
1734413044.9212525,-8.7890625,-519.53125,13.18359375,0.0,0.0
1734413044.9251373,-55.17578125,60.546875,205.078125,-30.2734375,0.0
1734413044.9290218,-81.0546875,240.234375,72.75390625,-17.578125,0.0
1734413044.9331841,-68.84765625,-263.18359375,-283.203125,9.765625,0.0
1734413044.937069,-40.52734375,-80.078125,-54.19921875,21.484375,0.0
1734413044.940954,-29.296875,402.34375,330.56640625,14.6484375,0.0
1734413044.9448388,-34.66796875,131.34765625,106.93359375,11.71875,0.0
1734413044.9487236,-50.29296875,-239.2578125,-220.703125,8.30078125,0.0
1734413044.9526083,-75.68359375,-424.8046875,-421.875,16.11328125,0.0
1734413044.9564931,-54.6875,-287.109375,-241.69921875,28.3203125,0.0
1734413044.960378,-34.1796875,-1.46484375,189.453125,15.13671875,0.0
1734413044.9642627,-41.50390625,-466.796875,-81.54296875,7.32421875,0.0
1734413044.9681475,-62.5,-502.9296875,-276.3671875,1.46484375,0.0
1734413044.9720323,-77.63671875,115.72265625,-155.2734375,26.3671875,0.0
1734413044.9759173,-58.59375,121.58203125,-159.1796875,31.25,0.0
1734413044.98006,-43.9453125,106.4453125,166.9921875,6.34765625,0.0
1734413044.983945,-44.43359375,287.59765625,206.0546875,-5.37109375,0.0
1734413044.98783,-54.6875,304.19921875,90.8203125,-21.484375,0.0
1734413044.9917147,-73.73046875,-96.6796875,-233.88671875,-5.859375,0.0
1734413044.9955997,-48.33984375,-168.45703125,-340.33203125,23.4375,0.0
1734413044.9994845,-20.5078125,45.8984375,125.48828125,8.30078125,0.0
1734413045.0033696,-38.57421875,24.90234375,200.68359375,-9.765625,0.0
1734413045.0072544,-51.26953125,-344.23828125,-262.6953125,-7.8125,0.0
1734413045.0111394,-62.98828125,-739.2578125,-516.6015625,12.20703125,0.0
1734413045.0150242,-60.546875,-115.234375,-254.8828125,30.76171875,0.0
1734413045.0189092,-33.69140625,364.2578125,135.25390625,13.18359375,0.0
1734413045.022794,-21.97265625,146.97265625,204.58984375,-1.953125,0.0
1734413045.0269098,-45.8984375,37.59765625,12.6953125,-9.27734375,0.0
1734413045.0307949,-61.03515625,107.421875,-178.22265625,-26.3671875,0.0
1734413045.03468,-39.55078125,57.6171875,-382.32421875,5.859375,0.0
1734413045.0385647,-10.25390625,5.859375,-135.25390625,23.4375,0.0
1734413045.0424497,-10.7421875,95.21484375,140.625,-8.7890625,0.0
1734413045.0463347,-25.87890625,-45.8984375,-183.59375,-17.578125,0.0
1734413045.0502198,-43.45703125,-341.796875,-422.8515625,-4.39453125,0.0
1734413045.0541046,-48.828125,-769.53125,-572.265625,29.296875,0.0
1734413045.0579896,-8.7890625,-453.61328125,-196.77734375,28.3203125,0.0
1734413045.0618746,-17.578125,226.5625,244.62890625,6.8359375,0.0
1734413045.0657597,-44.43359375,-72.265625,-167.48046875,-5.37109375,0.0
1734413045.0696445,-44.43359375,-240.72265625,-387.6953125,-10.7421875,0.0
1734413045.0737517,-57.6171875,5.37109375,-353.02734375,16.11328125,0.0
1734413045.0776367,-30.2734375,331.54296875,-43.9453125,38.0859375,0.0
1734413045.0815217,-5.37109375,190.91796875,162.109375,29.296875,0.0
1734413045.0854068,-36.62109375,-11.71875,-75.68359375,11.23046875,0.0
1734413045.0892918,-53.22265625,-10.25390625,-271.484375,7.32421875,0.0
1734413045.0931768,-55.17578125,-280.76171875,-424.8046875,20.5078125,0.0
1734413045.0970619,-38.0859375,-462.40234375,-406.25,32.71484375,0.0
1734413045.100947,-4.8828125,-572.75390625,-210.44921875,54.19921875,0.0
1734413045.104832,-33.203125,13.671875,138.671875,22.94921875,0.0
1734413045.108717,-59.08203125,294.43359375,27.83203125,3.90625,0.0
1734413045.112602,-52.734375,-183.10546875,-316.40625,30.76171875,0.0
1734413045.116487,-36.1328125,-55.6640625,-175.78125,29.78515625,0.0
1734413045.1205778,-12.6953125,279.296875,177.24609375,17.08984375,0.0
1734413045.124463,-15.625,42.96875,77.63671875,14.16015625,0.0
1734413045.128348,-40.52734375,-189.453125,-194.3359375,29.296875,0.0
1734413045.1322331,-43.45703125,-109.375,-312.98828125,46.875,0.0
1734413045.1361184,-31.73828125,53.22265625,-250.0,37.109375,0.0
1734413045.1400034,-15.13671875,56.15234375,120.60546875,23.92578125,0.0
1734413045.1438885,-11.71875,-483.3984375,-88.37890625,17.578125,0.0
1734413045.1477737,-32.71484375,-713.8671875,-399.90234375,9.765625,0.0
1734413045.1516588,-48.33984375,-36.1328125,-224.12109375,22.94921875,0.0
1734413045.1555438,-25.87890625,80.078125,-264.6484375,32.71484375,0.0
1734413045.159429,-15.13671875,26.85546875,58.10546875,14.6484375,0.0
1734413045.163314,-17.578125,291.9921875,267.578125,-7.8125,0.0
1734413045.1673865,-39.55078125,416.015625,174.31640625,-14.16015625,0.0
1734413045.1712716,-58.59375,25.390625,-146.97265625,15.625,0.0
1734413045.1751568,-38.0859375,-162.109375,-341.796875,34.66796875,0.0
1734413045.179042,-20.5078125,231.93359375,152.83203125,38.0859375,0.0
1734413045.1829271,0.48828125,181.15234375,264.16015625,13.671875,0.0
1734413045.1868124,-17.578125,-298.33984375,-183.59375,-14.6484375,0.0
1734413045.1906974,-71.2890625,-720.21484375,-466.30859375,3.41796875,0.0
1734413045.1945827,-63.96484375,-201.171875,-242.67578125,23.4375,0.0
1734413045.1984677,-19.53125,362.3046875,182.12890625,30.76171875,0.0
1734413045.202353,-4.8828125,177.734375,208.49609375,3.90625,0.0
1734413045.206238,-38.57421875,71.2890625,67.87109375,-27.34375,0.0
1734413045.2101233,-63.4765625,157.71484375,35.64453125,-19.04296875,0.0
1734413045.2143402,-69.82421875,134.27734375,-183.59375,2.44140625,0.0
1734413045.2182255,-41.015625,17.08984375,-71.77734375,22.94921875,0.0
1734413045.2221107,-8.30078125,125.48828125,203.61328125,13.671875,0.0
1734413045.225996,-18.06640625,345.21484375,208.49609375,-15.13671875,0.0
1734413045.2298813,-57.6171875,124.51171875,-44.43359375,-0.48828125,0.0
1734413045.2337666,-53.7109375,-404.78515625,-403.80859375,22.94921875,0.0
1734413045.2376518,-16.6015625,-447.75390625,-238.28125,12.6953125,0.0
1734413045.241537,-16.6015625,-96.6796875,162.59765625,0.48828125,0.0
1734413045.2454224,-42.96875,-36.1328125,53.7109375,-11.71875,0.0
1734413045.2493076,-56.15234375,-499.51171875,-279.78515625,-20.5078125,0.0
1734413045.253193,-60.546875,-403.3203125,-330.56640625,-7.8125,0.0
1734413045.2570782,-45.41015625,248.046875,-8.7890625,0.9765625,0.0
1734413045.261256,-16.6015625,281.73828125,266.6015625,1.953125,0.0
1734413045.2651415,-20.99609375,161.1328125,188.4765625,-3.41796875,0.0
1734413045.2690268,-48.828125,142.578125,74.21875,-22.4609375,0.0
1734413045.2729123,-62.01171875,132.32421875,-122.55859375,-3.90625,0.0
1734413045.2767975,-40.0390625,-7.8125,-252.44140625,14.16015625,0.0
1734413045.2806828,-14.16015625,-179.19921875,4.8828125,-4.39453125,0.0
1734413045.2845683,-39.55078125,-39.0625,182.6171875,-29.78515625,0.0
1734413045.2884536,-63.4765625,209.47265625,128.90625,-27.34375,0.0
1734413045.2923388,-59.5703125,-230.46875,-286.62109375,-11.71875,0.0
1734413045.2962244,-42.48046875,-673.828125,-479.00390625,35.64453125,0.0
1734413045.3001096,-36.1328125,-62.98828125,125.0,17.578125,0.0
1734413045.303995,-46.875,222.16796875,236.328125,-23.92578125,0.0
1734413045.308158,-56.15234375,0.9765625,-70.80078125,-0.9765625,0.0
1734413045.3120434,-63.4765625,-74.21875,-252.44140625,-7.32421875,0.0
1734413045.3159287,-43.45703125,160.64453125,-184.5703125,16.11328125,0.0
1734413045.3198142,-20.99609375,315.91796875,161.1328125,8.30078125,0.0
1734413045.3236997,-33.203125,174.31640625,242.67578125,-19.53125,0.0
1734413045.3275852,-50.29296875,-134.765625,-45.8984375,-19.04296875,0.0
1734413045.3314705,-78.125,-315.4296875,-293.45703125,8.7890625,0.0
1734413045.335356,-65.91796875,-266.11328125,-351.5625,7.8125,0.0
1734413045.3392415,-30.2734375,-556.640625,-276.85546875,10.25390625,0.0
1734413045.3431268,-20.99609375,-347.16796875,30.76171875,7.8125,0.0
1734413045.3470123,-48.828125,306.15234375,202.63671875,-38.0859375,0.0
1734413045.3508978,-70.3125,14.6484375,-109.86328125,-28.80859375,0.0
1734413045.3550353,-46.875,-160.15625,-334.47265625,2.9296875,0.0
1734413045.3589208,-47.36328125,59.08203125,13.18359375,14.16015625,0.0
1734413045.3628063,-45.8984375,211.9140625,276.85546875,-6.8359375,0.0
1734413045.3666918,-43.45703125,107.91015625,23.4375,-44.921875,0.0
1734413045.3705773,-71.77734375,-156.73828125,-297.8515625,-29.296875,0.0
1734413045.374463,-63.4765625,-257.8125,-410.15625,2.44140625,0.0
1734413045.3783486,-33.203125,-187.5,-168.9453125,7.8125,0.0
1734413045.382234,-33.69140625,-202.63671875,18.06640625,3.90625,0.0
1734413045.3861196,-56.640625,-527.34375,-271.484375,-21.484375,0.0
1734413045.390005,-82.51953125,-114.2578125,-210.44921875,-31.25,0.0
1734413045.3938906,-75.68359375,168.9453125,-229.98046875,-29.78515625,0.0
1734413045.3977761,-54.19921875,-18.5546875,-225.09765625,-10.25390625,0.0
1734413045.4018931,-36.1328125,206.0546875,158.203125,-7.8125,0.0
1734413045.4057786,-42.48046875,474.609375,233.88671875,-34.66796875,0.0
1734413045.4096642,-71.77734375,193.84765625,5.859375,-27.83203125,0.0
1734413045.41355,-76.66015625,-149.4140625,-298.828125,-5.859375,0.0
1734413045.4174354,-55.17578125,-8.30078125,-218.26171875,2.9296875,0.0
1734413045.421321,-36.1328125,94.7265625,162.109375,-3.41796875,0.0
1734413045.4252067,-47.8515625,-7.8125,68.359375,-32.2265625,0.0
1734413045.4290922,-63.4765625,-560.05859375,-396.97265625,-19.04296875,0.0
1734413045.4329777,-71.2890625,-773.4375,-510.7421875,-5.37109375,0.0
1734413045.4368634,-66.89453125,18.5546875,-191.40625,-23.4375,0.0
1734413045.440749,-34.66796875,286.62109375,153.3203125,-36.1328125,0.0
1734413045.4446344,-37.109375,40.52734375,85.9375,-50.29296875,0.0
1734413045.4487379,-74.70703125,101.5625,8.30078125,-41.50390625,0.0
1734413045.4526236,-74.70703125,223.6328125,-90.33203125,-15.13671875,0.0
1734413045.456509,-53.22265625,-2.44140625,-345.21484375,-5.859375,0.0
1734413045.4603949,-32.2265625,29.296875,-33.203125,-13.18359375,0.0
1734413045.4642806,-35.64453125,378.90625,247.55859375,-28.3203125,0.0
1734413045.468166,-46.875,135.25390625,-26.85546875,-24.4140625,0.0
1734413045.4720519,-66.40625,-417.96875,-424.31640625,-3.90625,0.0
1734413045.4759374,-67.3828125,-650.390625,-503.41796875,11.23046875,0.0
1734413045.479823,-48.828125,-129.39453125,63.4765625,-15.625,0.0
1734413045.4837089,-55.6640625,347.16796875,279.78515625,-31.73828125,0.0
1734413045.4875944,-61.03515625,137.20703125,-21.97265625,-32.71484375,0.0
1734413045.49148,-69.82421875,-40.0390625,-220.21484375,-20.99609375,0.0
1734413045.4955616,-54.6875,210.44921875,-175.78125,3.41796875,0.0
1734413045.4994473,-33.203125,394.04296875,148.4375,0.48828125,0.0
1734413045.503333,-31.73828125,294.43359375,286.62109375,-27.83203125,0.0
1734413045.5072188,-52.24609375,227.5390625,145.5078125,-51.26953125,0.0
1734413045.5111043,-80.56640625,197.265625,48.828125,-29.78515625,0.0
1734413045.51499,-61.03515625,-106.4453125,-236.328125,8.30078125,0.0
1734413045.5188758,-25.87890625,-398.92578125,-230.46875,12.20703125,0.0
1734413045.5227616,-28.3203125,-178.7109375,171.875,-6.8359375,0.0
1734413045.5266473,-49.31640625,415.0390625,297.8515625,-31.73828125,0.0
1734413045.530533,-59.5703125,336.42578125,140.625,-14.6484375,0.0
1734413045.5344188,-50.29296875,-55.6640625,-34.66796875,22.4609375,0.0
1734413045.5383043,-39.0625,72.265625,168.9453125,16.11328125,0.0
1734413045.5423577,-31.73828125,513.18359375,410.64453125,-27.83203125,0.0
1734413045.5462437,-34.1796875,476.5625,275.87890625,-32.2265625,0.0
1734413045.5501294,-64.453125,148.92578125,143.06640625,-5.859375,0.0
1734413045.5540152,-86.42578125,234.375,126.46484375,1.953125,0.0
1734413045.557901,-58.59375,497.55859375,275.87890625,6.34765625,0.0
1734413045.5617867,-32.2265625,232.421875,246.58203125,-3.90625,0.0
1734413045.5656724,-44.921875,-256.8359375,64.94140625,-47.8515625,0.0
1734413045.5695581,-75.1953125,123.046875,153.3203125,-45.8984375,0.0
1734413045.573444,-62.01171875,329.58984375,110.83984375,-13.18359375,0.0
1734413045.5773296,-33.203125,34.1796875,41.015625,-16.6015625,0.0
1734413045.5812154,-44.921875,173.828125,247.55859375,-16.6015625,0.0
1734413045.5851011,-56.15234375,546.38671875,318.84765625,-34.66796875,0.0
1734413045.5893013,-61.5234375,367.1875,181.640625,-51.26953125,0.0
1734413045.593187,-78.125,6.8359375,-73.2421875,-41.015625,0.0
1734413045.597073,-71.2890625,-80.078125,-104.00390625,-20.5078125,0.0
1734413045.6009588,-48.828125,221.19140625,288.0859375,-32.71484375,0.0
1734413045.6048448,-38.57421875,429.6875,282.2265625,-53.7109375,0.0
1734413045.6087306,-62.5,-50.29296875,-48.828125,-44.43359375,0.0
1734413045.6126163,-86.9140625,-420.41015625,-316.40625,-29.78515625,0.0
1734413045.6165023,-79.1015625,-175.78125,-229.98046875,-18.06640625,0.0
1734413045.620388,-43.45703125,265.13671875,205.56640625,-7.8125,0.0
1734413045.624274,-25.390625,-54.6875,56.640625,-12.6953125,0.0
1734413045.6281598,-66.89453125,-129.39453125,-13.18359375,-37.59765625,0.0
1734413045.6320457,-79.58984375,246.09375,142.08984375,-29.78515625,0.0
1734413045.636218,-72.75390625,86.9140625,-1.46484375,-18.06640625,0.0
1734413045.640104,-45.41015625,37.109375,154.296875,-13.671875,0.0
1734413045.6439898,-35.64453125,342.28515625,298.828125,-16.6015625,0.0
1734413045.6478758,-65.91796875,456.54296875,204.58984375,-30.2734375,0.0
1734413045.6517618,-77.1484375,83.0078125,21.97265625,-7.32421875,0.0
1734413045.6556478,-60.546875,-251.953125,-229.4921875,3.90625,0.0
1734413045.6595337,-43.9453125,-113.28125,24.90234375,-20.99609375,0.0
1734413045.6634197,-41.9921875,262.20703125,339.35546875,-29.78515625,0.0
1734413045.6673055,-54.19921875,34.1796875,13.671875,-18.5546875,0.0
1734413045.6711915,-69.82421875,-572.75390625,-347.16796875,-13.671875,0.0
1734413045.6750774,-68.359375,-48.828125,-85.44921875,2.44140625,0.0
1734413045.6789634,-51.26953125,458.984375,246.58203125,-18.06640625,0.0
1734413045.6831164,-47.36328125,293.9453125,286.1328125,-56.15234375,0.0
1734413045.6870024,-65.4296875,237.79296875,178.7109375,-39.0625,0.0
1734413045.6908884,-81.0546875,286.1328125,118.65234375,-27.83203125,0.0
1734413045.6947744,-75.1953125,137.20703125,-79.58984375,-32.2265625,0.0
1734413045.6986606,-42.96875,39.55078125,-46.875,-20.99609375,0.0
1734413045.7025466,-28.3203125,2.44140625,186.03515625,-38.57421875,0.0
1734413045.7064326,-45.8984375,-54.6875,56.15234375,-36.62109375,0.0
1734413045.7103186,-62.5,-99.12109375,-190.91796875,-15.625,0.0
1734413045.7142045,-56.640625,-613.76953125,-485.83984375,-1.46484375,0.0
1734413045.7180905,-38.57421875,-574.21875,-310.546875,0.0,0.0
1734413045.7219768,-30.2734375,353.515625,227.05078125,-31.73828125,0.0
1734413045.7258627,-37.109375,349.609375,91.30859375,-70.80078125,0.0
1734413045.7300005,-63.96484375,-22.94921875,-252.44140625,-62.98828125,0.0
1734413045.7338867,-82.51953125,27.83203125,-344.7265625,-35.64453125,0.0
1734413045.7377727,-65.91796875,283.203125,-190.91796875,-36.62109375,0.0
1734413045.741659,-25.390625,219.7265625,55.17578125,-29.78515625,0.0
1734413045.745545,-40.0390625,30.76171875,-90.8203125,-37.59765625,0.0
1734413045.7494311,-79.1015625,-120.1171875,-349.609375,-61.5234375,0.0
1734413045.753317,-66.40625,-334.47265625,-409.1796875,-44.43359375,0.0
1734413045.7572033,-41.50390625,-420.8984375,-468.26171875,-27.83203125,0.0
1734413045.7610893,-43.9453125,-500.48828125,-275.87890625,-29.78515625,0.0
1734413045.7649755,-66.40625,113.28125,127.9296875,-66.89453125,0.0
1734413045.7688615,-74.70703125,398.4375,60.05859375,-67.87109375,0.0
1734413045.7727478,-67.87109375,-80.56640625,-256.8359375,-42.48046875,0.0
1734413045.7768655,-65.4296875,-275.87890625,-390.625,-59.08203125,0.0
1734413045.7807517,-51.7578125,190.91796875,45.41015625,-44.43359375,0.0
1734413045.784638,-47.36328125,425.78125,205.078125,-28.3203125,0.0
1734413045.788524,-65.91796875,122.0703125,-128.41796875,-60.546875,0.0
1734413045.7924101,-69.3359375,-51.26953125,-292.48046875,-48.828125,0.0
1734413045.7962964,-68.359375,-162.109375,-410.15625,-26.3671875,0.0
1734413045.8001826,-57.6171875,-13.18359375,-21.484375,-39.55078125,0.0
1734413045.8040688,-42.96875,-400.390625,-53.7109375,-32.71484375,0.0
1734413045.8079548,-67.3828125,-447.265625,-291.50390625,-41.015625,0.0
1734413045.811841,-91.30859375,231.4453125,40.0390625,-43.45703125,0.0
1734413045.8157272,-55.6640625,131.8359375,-128.90625,-20.99609375,0.0
1734413045.8196135,-42.48046875,121.58203125,24.90234375,-14.6484375,0.0
1734413045.8237062,-31.73828125,400.87890625,295.41015625,-36.62109375,0.0
1734413045.8275924,-40.52734375,482.421875,205.56640625,-58.10546875,0.0
1734413045.8314788,-79.1015625,125.9765625,-4.39453125,-33.203125,0.0
1734413045.835365,-76.66015625,-274.90234375,-360.3515625,-5.37109375,0.0
1734413045.8392513,-64.94140625,41.9921875,-38.57421875,-33.203125,0.0
1734413045.8431375,-61.03515625,240.234375,280.2734375,-46.875,0.0
1734413045.8470237,-63.4765625,-158.69140625,-33.203125,-67.87109375,0.0
1734413045.85091,-88.8671875,-614.2578125,-336.9140625,-63.4765625,0.0
1734413045.8547962,-105.46875,-171.875,-192.3828125,-28.3203125,0.0
1734413045.8586824,-67.87109375,445.3125,191.89453125,-18.5546875,0.0
1734413045.8625686,-55.6640625,304.6875,258.7890625,-47.36328125,0.0
1734413045.8664548,-84.47265625,241.69921875,157.71484375,-66.89453125,0.0
1734413045.8705323,-96.6796875,348.6328125,145.99609375,-64.94140625,0.0
1734413045.8744185,-87.40234375,184.08203125,-5.37109375,-36.1328125,0.0
1734413045.8783047,-72.265625,102.05078125,-1.953125,-17.08984375,0.0
1734413045.8821912,-58.59375,326.66015625,252.9296875,-35.64453125,0.0
1734413045.8860774,-73.73046875,426.26953125,222.16796875,-53.7109375,0.0
1734413045.8899636,-87.890625,15.625,-19.53125,-25.390625,0.0
1734413045.8938498,-93.26171875,-682.12890625,-400.87890625,-0.9765625,0.0
1734413045.8977363,-67.87109375,-713.8671875,-361.328125,-27.83203125,0.0
1734413045.9016225,-60.05859375,119.62890625,216.796875,-24.90234375,0.0
1734413045.9055088,-60.05859375,366.2109375,220.703125,-43.45703125,0.0
1734413045.909395,-59.5703125,116.2109375,43.9453125,-48.33984375,0.0
1734413045.9132814,-80.56640625,150.390625,82.51953125,-26.3671875,0.0
1734413045.9173403,0.0,363.76953125,146.484375,-42.48046875,0.0
1734413045.9212267,0.0,362.3046875,255.37109375,-36.62109375,0.0
1734413045.925113,0.0,238.28125,217.28515625,-43.9453125,0.0
1734413045.9289994,0.0,287.59765625,143.06640625,-62.98828125,0.0
1734413045.9328856,0.0,202.1484375,33.69140625,-43.45703125,0.0
1734413045.936772,0.0,-236.81640625,-351.5625,-11.23046875,0.0
1734413045.9406583,0.0,-401.3671875,-125.0,-24.90234375,0.0
1734413045.9445448,0.0,219.23828125,290.0390625,-65.91796875,0.0
1734413045.948431,0.0,439.94140625,178.22265625,-39.0625,0.0
1734413045.9523172,0.0,-134.27734375,-118.65234375,-25.390625,0.0
1734413045.9562037,0.0,-380.37109375,-339.35546875,-31.73828125,0.0
1734413045.96009,0.0,292.48046875,160.15625,-32.71484375,0.0
1734413045.9642818,-64.94140625,540.52734375,330.56640625,-44.43359375,0.0
1734413045.968168,-72.265625,109.375,15.13671875,-43.9453125,0.0
1734413045.9720545,-88.37890625,-83.0078125,-134.765625,-11.71875,0.0
1734413045.975941,-83.49609375,147.94921875,-80.56640625,-13.671875,0.0
1734413045.9798274,-62.98828125,310.05859375,155.2734375,-24.4140625,0.0
1734413045.9837139,-45.41015625,37.109375,205.078125,-21.97265625,0.0
1734413045.9876003,-67.87109375,-228.515625,6.8359375,-49.8046875,0.0
1734413045.9914865,-89.84375,-145.5078125,-116.69921875,-57.6171875,0.0
1734413045.995373,-87.890625,56.640625,-177.734375,-30.76171875,0.0
1734413045.9992595,-65.91796875,-208.49609375,-162.109375,-14.6484375,0.0
1734413046.003146,-54.19921875,-27.83203125,157.2265625,-39.55078125,0.0
1734413046.0070324,-64.94140625,508.7890625,285.64453125,-66.40625,0.0
1734413046.0112097,-83.0078125,137.6953125,-1.953125,-45.41015625,0.0
1734413046.0150962,-87.890625,-258.7890625,-283.69140625,-49.8046875,0.0
1734413046.0189826,-75.68359375,145.99609375,50.78125,-46.38671875,0.0
1734413046.022869,-62.01171875,538.0859375,354.4921875,-49.8046875,0.0
1734413046.0267558,-67.3828125,276.85546875,129.39453125,-68.84765625,0.0
1734413046.0306423,-82.03125,-284.66796875,-208.984375,-60.05859375,0.0
1734413046.0345287,-84.9609375,-275.390625,-329.1015625,-18.06640625,0.0
1734413046.0384152,-66.89453125,300.78125,33.203125,-12.6953125,0.0
1734413046.0423017,-34.1796875,144.04296875,140.13671875,-33.69140625,0.0
1734413046.0461884,-62.98828125,-421.875,-188.4765625,-57.6171875,0.0
1734413046.0500748,-95.703125,-24.90234375,21.97265625,-80.078125,0.0
1734413046.0539613,-86.42578125,188.4765625,44.921875,-41.015625,0.0
1734413046.0581155,0.0,34.66796875,0.0,-15.13671875,0.0
1734413046.062002,0.0,144.53125,0.0,-34.1796875,0.0
1734413046.0658886,0.0,399.4140625,0.0,-43.9453125,0.0
1734413046.069775,0.0,279.78515625,0.0,-59.5703125,0.0
1734413046.0736618,0.0,-236.328125,0.0,-72.265625,0.0
1734413046.0775483,0.0,-340.8203125,0.0,-39.0625,0.0
1734413046.081435,0.0,-53.22265625,0.0,-27.34375,0.0
1734413046.0853214,0.0,93.75,0.0,-56.640625,0.0
1734413046.0892081,0.0,-482.421875,0.0,-57.6171875,0.0
1734413046.0930946,0.0,-583.984375,0.0,-50.78125,0.0
1734413046.0969813,0.0,219.23828125,0.0,-50.29296875,0.0
1734413046.1008677,0.0,299.31640625,0.0,-29.78515625,0.0
