timestamps,TP9,AF7,AF8,TP10,Right AUX
1734412890.018523,-39.55078125,-110.83984375,-354.00390625,-29.78515625,0.0
1734412890.0224292,-12.6953125,81.54296875,-256.8359375,-18.5546875,0.0
1734412890.0263352,-2.44140625,-88.8671875,-119.140625,-30.2734375,0.0
1734412890.0302413,-21.484375,-257.8125,-355.46875,-32.71484375,0.0
1734412890.0341473,-27.34375,-442.87109375,-460.9375,-29.78515625,0.0
1734412890.0380533,-31.73828125,-509.765625,-450.68359375,-7.8125,0.0
1734412890.0419593,-14.16015625,-709.9609375,-570.80078125,-6.34765625,0.0
1734412890.0458653,-27.34375,-493.65234375,-195.80078125,-36.62109375,0.0
1734412890.0497713,-38.0859375,51.7578125,-64.453125,-63.96484375,0.0
1734412890.0536776,-29.78515625,-117.1875,-372.0703125,-58.59375,0.0
1734412890.0575836,-36.1328125,-394.04296875,-405.2734375,-34.1796875,0.0
1734412890.0614932,-23.92578125,-116.69921875,-318.84765625,-10.25390625,0.0
1734412890.0653992,-12.6953125,-115.72265625,-128.41796875,-13.18359375,0.0
1734412890.0693052,-25.87890625,-350.09765625,-266.11328125,-16.11328125,0.0
1734412890.0732112,-38.57421875,-301.7578125,-385.7421875,-23.4375,0.0
1734412890.0771174,-27.34375,-159.1796875,-358.88671875,-17.578125,0.0
1734412890.0810235,-16.6015625,-236.81640625,-384.765625,16.11328125,0.0
1734412890.0849295,-9.765625,-326.66015625,-199.70703125,-4.8828125,0.0
1734412890.0888355,12.6953125,-761.71875,-381.34765625,-22.4609375,0.0
1734412890.0927415,-6.34765625,-537.109375,-412.109375,-27.34375,0.0
1734412890.0966475,-35.64453125,-40.52734375,-301.26953125,-16.6015625,0.0
1734412890.1005535,-18.5546875,-117.1875,-333.984375,4.39453125,0.0
1734412890.1044598,4.8828125,33.69140625,20.99609375,-6.34765625,0.0
1734412890.1083689,-9.27734375,235.83984375,143.06640625,-25.390625,0.0
1734412890.112275,-27.34375,98.14453125,-168.9453125,-37.109375,0.0
1734412890.116181,-23.4375,-308.10546875,-439.453125,-18.5546875,0.0
1734412890.120087,-16.11328125,-176.7578125,-348.6328125,1.953125,0.0
1734412890.123993,-11.71875,205.56640625,62.5,-29.296875,0.0
1734412890.1278992,-23.92578125,-94.23828125,-15.625,-40.0390625,0.0
1734412890.1318052,-25.390625,-713.37890625,-545.8984375,-43.45703125,0.0
1734412890.1357112,-47.36328125,-666.9921875,-466.30859375,-35.64453125,0.0
1734412890.1396172,-44.43359375,-26.85546875,-255.37109375,-7.32421875,0.0
1734412890.1435232,-10.7421875,129.39453125,-45.41015625,-28.80859375,0.0
1734412890.1474292,-12.20703125,-280.2734375,-75.1953125,-59.5703125,0.0
1734412890.1513352,-36.62109375,-373.046875,-371.09375,-74.70703125,0.0
1734412890.1552477,-57.12890625,-179.19921875,-348.14453125,-54.19921875,0.0
1734412890.1591537,-43.9453125,-443.84765625,-426.26953125,-29.296875,0.0
1734412890.1630597,-25.390625,-510.7421875,-255.37109375,-39.55078125,0.0
1734412890.1669657,-20.99609375,5.859375,126.46484375,-27.83203125,0.0
1734412890.1708717,-37.109375,128.41796875,-55.17578125,-28.80859375,0.0
1734412890.1747777,-38.0859375,-384.27734375,-418.45703125,-13.18359375,0.0
1734412890.178684,-15.13671875,-887.20703125,-628.90625,39.0625,0.0
1734412890.18259,-17.578125,-235.83984375,-229.4921875,18.5546875,0.0
1734412890.186496,-8.30078125,286.62109375,186.03515625,-4.8828125,0.0
1734412890.190402,-4.39453125,-61.5234375,-143.06640625,-20.99609375,0.0
1734412890.194308,-33.69140625,-223.14453125,-354.4921875,-24.4140625,0.0
1734412890.198214,-37.109375,-69.82421875,-357.91015625,2.9296875,0.0
1734412890.2021263,-12.20703125,90.33203125,-229.00390625,11.23046875,0.0
1734412890.2060323,3.90625,-98.6328125,-14.6484375,2.44140625,0.0
1734412890.2099383,1.46484375,-348.14453125,-275.390625,-14.16015625,0.0
1734412890.2138443,-33.69140625,-186.5234375,-371.09375,-43.45703125,0.0
1734412890.2177503,-40.52734375,-102.5390625,-361.328125,-25.390625,0.0
1734412890.2216563,-6.8359375,-537.59765625,-540.52734375,12.20703125,0.0
1734412890.2255626,3.90625,-479.4921875,-163.57421875,-18.5546875,0.0
1734412890.2294686,-12.6953125,58.59375,53.7109375,-40.52734375,0.0
1734412890.2333746,-30.76171875,-9.765625,-273.92578125,-40.52734375,0.0
1734412890.2372806,-43.9453125,-745.60546875,-607.421875,-21.97265625,0.0
1734412890.2411866,-42.48046875,-541.9921875,-402.34375,-27.83203125,0.0
1734412890.2450926,-22.94921875,195.80078125,158.203125,-34.1796875,0.0
1734412890.2490041,-20.5078125,61.03515625,20.5078125,-29.296875,0.0
1734412890.2529101,-29.296875,-440.4296875,-394.04296875,-35.15625,0.0
1734412890.2568161,-62.5,-332.51953125,-384.765625,-20.5078125,0.0
1734412890.2607224,-39.55078125,51.26953125,-275.87890625,-26.3671875,0.0
1734412890.2646284,-0.48828125,-13.18359375,-58.59375,-20.5078125,0.0
1734412890.2685344,-6.8359375,-308.10546875,-141.11328125,-3.41796875,0.0
1734412890.2724404,-13.671875,-463.8671875,-401.3671875,-19.04296875,0.0
1734412890.2763464,-20.99609375,-344.7265625,-330.56640625,-3.41796875,0.0
1734412890.2802525,-9.27734375,-327.1484375,-398.92578125,28.3203125,0.0
1734412890.2841585,14.6484375,-706.54296875,-334.47265625,20.99609375,0.0
1734412890.2880645,3.90625,-123.046875,122.55859375,-11.71875,0.0
1734412890.2919707,-22.4609375,188.4765625,14.6484375,-20.01953125,0.0
1734412890.2958817,-35.64453125,-287.109375,-360.3515625,21.97265625,0.0
1734412890.2997878,-15.13671875,-208.984375,-334.9609375,30.76171875,0.0
1734412890.3036938,8.30078125,191.40625,55.6640625,-2.44140625,0.0
1734412890.3075998,-2.44140625,199.21875,197.75390625,-26.3671875,0.0
1734412890.3115058,-22.94921875,-250.48828125,-293.45703125,-13.671875,0.0
1734412890.3154118,-30.76171875,-607.91015625,-475.5859375,14.6484375,0.0
1734412890.319318,-19.53125,-370.1171875,-295.8984375,5.37109375,0.0
1734412890.323224,-11.23046875,113.28125,21.484375,0.9765625,0.0
1734412890.32713,-3.90625,-428.22265625,-100.5859375,-6.34765625,0.0
1734412890.331036,-23.4375,-599.12109375,-324.21875,-42.96875,0.0
1734412890.334942,-53.22265625,-21.97265625,-229.00390625,-47.8515625,0.0
1734412890.338848,-59.08203125,-33.69140625,-310.546875,6.8359375,0.0
1734412890.3427587,-39.55078125,-180.17578125,-202.63671875,5.859375,0.0
1734412890.3466647,-22.94921875,-140.13671875,108.88671875,-48.33984375,0.0
1734412890.3505707,-49.31640625,27.83203125,52.24609375,-65.91796875,0.0
1734412890.3544767,-76.66015625,-107.421875,-249.51171875,-61.03515625,0.0
1734412890.358383,-66.89453125,-313.4765625,-370.60546875,-28.3203125,0.0
1734412890.362289,-18.5546875,-327.1484375,-310.05859375,-20.5078125,0.0
1734412890.366195,-17.578125,-113.28125,75.1953125,-35.15625,0.0
1734412890.370101,-40.0390625,-135.25390625,-60.05859375,-37.59765625,0.0
1734412890.374007,-49.8046875,-785.15625,-528.80859375,-32.71484375,0.0
1734412890.377913,-59.5703125,-406.73828125,-401.3671875,-24.90234375,0.0
1734412890.381819,-48.33984375,121.58203125,-178.22265625,-25.87890625,0.0
1734412890.3857253,-23.4375,-155.76171875,37.59765625,-32.71484375,0.0
1734412890.3896353,-34.1796875,-323.2421875,-158.69140625,-41.50390625,0.0
1734412890.3935413,-68.359375,-62.5,-321.77734375,-48.828125,0.0
1734412890.3974473,-74.70703125,-76.171875,-350.09765625,-30.76171875,0.0
1734412890.4013534,-48.33984375,-287.109375,-405.76171875,0.9765625,0.0
1734412890.4052594,-16.11328125,-41.9921875,25.390625,-24.4140625,0.0
1734412890.4091656,-11.23046875,-87.890625,-4.39453125,-51.26953125,0.0
1734412890.4130716,-41.015625,-388.671875,-389.6484375,-30.76171875,0.0
1734412890.4169776,-40.52734375,-742.1875,-591.796875,-13.18359375,0.0
1734412890.4208837,-37.59765625,-551.26953125,-413.57421875,-13.18359375,0.0
1734412890.4247897,-14.16015625,167.48046875,106.93359375,-33.69140625,0.0
1734412890.4286957,12.20703125,145.5078125,106.93359375,-33.203125,0.0
1734412890.4326017,-20.01953125,-227.05078125,-254.39453125,-21.97265625,0.0
1734412890.4365115,-41.50390625,-232.91015625,-372.55859375,-20.99609375,0.0
1734412890.4404175,-24.4140625,-301.7578125,-395.99609375,-16.11328125,0.0
1734412890.4443235,5.859375,-329.58984375,-225.09765625,-7.32421875,0.0
1734412890.4482296,-6.34765625,-295.41015625,-138.18359375,-12.6953125,0.0
1734412890.4521356,-31.73828125,-104.00390625,-261.71875,-47.36328125,0.0
1734412890.4560418,-34.66796875,-241.69921875,-369.140625,-56.15234375,0.0
1734412890.4599478,-9.27734375,-506.34765625,-447.265625,-15.625,0.0
1734412890.4638538,10.25390625,-757.8125,-394.04296875,1.953125,0.0
1734412890.4677598,-20.5078125,-152.34375,97.65625,-39.55078125,0.0
1734412890.4716659,-39.0625,230.46875,32.71484375,-58.10546875,0.0
1734412890.4755719,-37.59765625,-219.7265625,-350.5859375,-39.55078125,0.0
1734412890.479478,-31.73828125,-190.4296875,-334.9609375,4.8828125,0.0
1734412890.4833872,-15.13671875,170.8984375,-26.3671875,-3.90625,0.0
1734412890.4872932,9.27734375,247.0703125,199.70703125,-32.71484375,0.0
1734412890.4911993,11.23046875,-124.0234375,-205.078125,-8.30078125,0.0
1734412890.4951055,-34.1796875,-230.46875,-357.421875,-6.8359375,0.0
1734412890.4990115,-56.15234375,-22.4609375,-294.43359375,-9.27734375,0.0
1734412890.5029175,-30.76171875,-144.53125,-231.93359375,1.46484375,0.0
1734412890.5068235,-7.32421875,-552.24609375,-124.51171875,2.9296875,0.0
1734412890.5107296,-24.4140625,-435.546875,-234.86328125,-22.4609375,0.0
1734412890.5146356,-53.7109375,13.671875,-234.375,-49.8046875,0.0
1734412890.5185416,-37.109375,-44.921875,-304.6875,-26.85546875,0.0
1734412890.5224478,-10.25390625,-379.39453125,-314.453125,3.90625,0.0
1734412890.5263538,-10.7421875,6.34765625,143.06640625,-16.11328125,0.0
1734412890.5302627,-26.3671875,266.6015625,134.27734375,-37.59765625,0.0
1734412890.5341687,-41.50390625,-331.0546875,-328.125,-38.0859375,0.0
1734412890.5380747,-56.15234375,-845.703125,-565.4296875,-20.99609375,0.0
1734412890.5419807,-42.48046875,-273.4375,-213.8671875,-14.6484375,0.0
1734412890.5458868,-19.53125,297.36328125,279.296875,-41.015625,0.0
1734412890.5497928,-12.6953125,-169.43359375,-49.31640625,-36.62109375,0.0
1734412890.553699,-25.87890625,-805.17578125,-495.1171875,-18.5546875,0.0
1734412890.557605,-50.78125,-355.95703125,-362.3046875,-32.71484375,0.0
1734412890.561511,-48.828125,158.69140625,-150.87890625,-25.390625,0.0
1734412890.565417,-18.06640625,-22.4609375,81.0546875,-25.87890625,0.0
1734412890.569323,-2.9296875,-134.765625,28.3203125,-30.76171875,0.0
1734412890.573229,-22.4609375,23.4375,-141.11328125,-25.87890625,0.0
1734412890.577141,-30.76171875,-51.26953125,-303.22265625,-11.71875,0.0
1734412890.581047,-19.04296875,-241.2109375,-353.02734375,-1.953125,0.0
1734412890.584953,-0.9765625,-54.6875,32.71484375,-2.9296875,0.0
1734412890.588859,-5.37109375,236.81640625,191.40625,-13.18359375,0.0
1734412890.592765,-20.99609375,82.03125,-140.625,-73.2421875,0.0
1734412890.596671,-28.3203125,-561.5234375,-504.39453125,-53.22265625,0.0
1734412890.6005774,-5.859375,-664.0625,-458.984375,-10.25390625,0.0
1734412890.6044834,12.20703125,-18.5546875,47.36328125,-31.25,0.0
1734412890.6083894,-2.44140625,166.015625,156.73828125,-40.0390625,0.0
1734412890.6122954,6.34765625,-566.40625,-443.84765625,-24.90234375,0.0
1734412890.6162014,-26.3671875,-544.43359375,-444.3359375,-22.4609375,0.0
1734412890.6201074,-33.203125,7.8125,-255.37109375,1.46484375,0.0
1734412890.6240191,-6.34765625,17.08984375,-61.5234375,-16.11328125,0.0
1734412890.6279252,-14.6484375,-293.45703125,27.83203125,-43.9453125,0.0
1734412890.6318312,-22.94921875,-391.6015625,-291.50390625,-40.0390625,0.0
1734412890.6357372,-44.43359375,-147.4609375,-333.49609375,-41.015625,0.0
1734412890.6396432,-24.4140625,-132.8125,-355.46875,-29.78515625,0.0
1734412890.6435492,1.46484375,-340.33203125,-223.6328125,-10.25390625,0.0
1734412890.6474552,-18.06640625,-206.0546875,90.8203125,-18.5546875,0.0
1734412890.6513612,-33.203125,134.27734375,56.640625,-38.57421875,0.0
1734412890.6552675,-49.8046875,-226.07421875,-317.87109375,-31.73828125,0.0
1734412890.6591735,-38.57421875,-801.7578125,-554.6875,-3.41796875,0.0
1734412890.6630795,-12.20703125,-170.41015625,-106.93359375,-4.8828125,0.0
1734412890.6669855,4.39453125,299.8046875,265.625,-0.48828125,0.0
1734412890.6708963,-10.7421875,-28.80859375,-16.6015625,-8.7890625,0.0
1734412890.6748023,-36.1328125,-170.41015625,-251.953125,-23.92578125,0.0
1734412890.6787086,-38.0859375,5.859375,-260.25390625,-21.97265625,0.0
1734412890.6826146,-9.765625,117.67578125,-72.75390625,-8.30078125,0.0
1734412890.6865206,-2.44140625,-116.2109375,152.83203125,10.25390625,0.0
1734412890.6904266,-18.5546875,-378.90625,-80.078125,-2.44140625,0.0
1734412890.6943326,-36.62109375,-328.125,-279.78515625,-20.01953125,0.0
1734412890.6982386,-30.2734375,-79.58984375,-253.90625,3.90625,0.0
1734412890.7021446,11.23046875,-559.5703125,-421.38671875,23.4375,0.0
1734412890.7060509,0.0,-565.91796875,-72.265625,-9.27734375,0.0
1734412890.709957,-28.80859375,197.75390625,229.98046875,-12.6953125,0.0
1734412890.713863,-41.50390625,76.66015625,-17.578125,-8.7890625,0.0
1734412890.717777,-46.875,-513.671875,-335.44921875,-3.41796875,0.0
1734412890.721683,-25.87890625,-408.69140625,-286.1328125,8.7890625,0.0
1734412890.725589,-19.53125,195.80078125,213.8671875,-22.94921875,0.0
1734412890.729495,-30.2734375,178.22265625,158.69140625,-42.48046875,0.0
1734412890.733401,-44.921875,-147.4609375,-172.8515625,-34.1796875,0.0
1734412890.7373073,-57.6171875,-360.83984375,-354.00390625,-23.92578125,0.0
1734412890.7412133,-43.45703125,-273.4375,-260.25390625,-14.16015625,0.0
1734412890.7451193,-31.73828125,-146.484375,83.984375,-17.578125,0.0
1734412890.7490253,-23.4375,-662.59765625,-227.05078125,-34.66796875,0.0
1734412890.7529314,-37.59765625,-263.671875,-232.91015625,-60.546875,0.0
1734412890.7568374,-59.5703125,58.59375,-146.484375,-24.90234375,0.0
1734412890.7607434,-35.64453125,-209.47265625,-287.59765625,18.06640625,0.0
1734412890.7646537,1.953125,-20.01953125,74.70703125,-8.30078125,0.0
1734412890.7685597,-11.23046875,296.38671875,272.4609375,-33.69140625,0.0
1734412890.7724657,-37.109375,146.484375,36.62109375,-37.109375,0.0
1734412890.776372,-38.0859375,-325.68359375,-325.68359375,-32.2265625,0.0
1734412890.780278,-34.1796875,-261.23046875,-367.67578125,-11.23046875,0.0
1734412890.784184,-14.6484375,-102.5390625,-44.43359375,-7.8125,0.0
1734412890.78809,-9.27734375,-239.74609375,80.078125,-28.3203125,0.0
1734412890.791996,-23.92578125,-458.0078125,-311.5234375,-44.921875,0.0
1734412890.795902,-55.6640625,-322.75390625,-376.953125,-36.62109375,0.0
1734412890.799808,-57.6171875,1.46484375,-250.9765625,-13.18359375,0.0
1734412890.8037143,-18.5546875,-42.96875,-90.33203125,-21.484375,0.0
1734412890.8076203,7.32421875,-608.3984375,-168.9453125,-21.97265625,0.0
1734412890.8115299,-27.83203125,-568.84765625,-309.5703125,-33.69140625,0.0
1734412890.815436,-69.3359375,-354.98046875,-334.47265625,-59.5703125,0.0
1734412890.819342,-57.12890625,-330.078125,-402.83203125,-43.9453125,0.0
1734412890.823248,-30.2734375,-153.80859375,-142.08984375,-27.83203125,0.0
1734412890.827154,-23.92578125,149.4140625,223.14453125,-36.1328125,0.0
1734412890.8310602,-44.921875,-58.59375,-50.78125,-53.22265625,0.0
1734412890.8349662,-57.6171875,-540.52734375,-406.25,-44.43359375,0.0
1734412890.8388722,-42.48046875,-845.21484375,-557.6171875,-15.625,0.0
1734412890.8427782,-35.15625,-207.51953125,-125.48828125,-25.87890625,0.0
1734412890.8466842,-35.15625,361.328125,302.24609375,-28.80859375,0.0
1734412890.8505902,-46.875,45.8984375,-12.6953125,-37.59765625,0.0
1734412890.8544962,-62.98828125,-160.64453125,-230.95703125,-43.45703125,0.0
1734412890.8584092,-61.5234375,-18.06640625,-280.76171875,-9.765625,0.0
1734412890.8623152,-29.78515625,45.41015625,-178.7109375,-2.9296875,0.0
1734412890.8662212,10.7421875,-122.55859375,142.578125,-17.578125,0.0
1734412890.8701272,-10.25390625,6.34765625,157.2265625,-28.3203125,0.0
1734412890.8740332,-36.62109375,39.0625,-62.5,-27.83203125,0.0
1734412890.8779395,-26.85546875,-351.07421875,-342.28515625,4.39453125,0.0
1734412890.8818455,-12.20703125,-744.62890625,-475.09765625,14.16015625,0.0
1734412890.8857515,-8.7890625,-459.47265625,-34.66796875,-2.9296875,0.0
1734412890.8896575,-4.8828125,201.66015625,216.30859375,-33.69140625,0.0
1734412890.8935635,-16.11328125,59.5703125,-17.578125,-40.0390625,0.0
1734412890.8974695,-24.4140625,-386.23046875,-292.96875,-16.6015625,0.0
1734412890.9013755,-4.8828125,-114.2578125,-208.49609375,-6.8359375,0.0
1734412890.9052844,7.8125,175.29296875,196.77734375,-1.953125,0.0
1734412890.9091904,-12.20703125,-132.8125,99.12109375,-31.73828125,0.0
1734412890.9130964,-38.0859375,-257.32421875,-200.68359375,-51.7578125,0.0
1734412890.9170027,-48.33984375,-60.05859375,-234.375,-41.015625,0.0
1734412890.9209087,-41.50390625,27.83203125,-172.36328125,-36.1328125,0.0
1734412890.9248147,-13.671875,-88.8671875,97.65625,-20.5078125,0.0
1734412890.9287207,-2.9296875,-318.84765625,104.98046875,-5.859375,0.0
1734412890.9326267,-16.11328125,-303.7109375,-177.734375,-38.57421875,0.0
1734412890.9365327,-50.29296875,-45.8984375,-203.125,-45.41015625,0.0
1734412890.9404387,-41.50390625,-301.26953125,-348.14453125,-16.6015625,0.0
1734412890.944345,-20.5078125,-702.1484375,-260.25390625,-37.59765625,0.0
1734412890.948251,-31.25,-22.94921875,209.47265625,-57.12890625,0.0
1734412890.9521663,-42.96875,185.05859375,73.2421875,-56.15234375,0.0
1734412890.9560723,-64.453125,-299.31640625,-322.75390625,-59.5703125,0.0
1734412890.9599783,-59.5703125,-244.62890625,-348.6328125,-41.015625,0.0
1734412890.9638844,-37.59765625,183.10546875,74.21875,-21.97265625,0.0
1734412890.9677904,-22.4609375,254.8828125,235.3515625,-34.1796875,0.0
1734412890.9716966,-9.765625,-363.28125,-288.0859375,-44.921875,0.0
1734412890.9756026,-37.59765625,-546.38671875,-373.53515625,-37.59765625,0.0
1734412890.9795086,-50.29296875,-126.953125,-285.15625,-25.390625,0.0
1734412890.9834146,-14.6484375,-154.296875,-244.62890625,-13.671875,0.0
1734412890.9873207,-0.9765625,-599.609375,-181.15234375,-18.5546875,0.0
1734412890.9912267,-18.06640625,-396.484375,-200.1953125,-46.875,0.0
1734412890.9951327,-43.9453125,14.6484375,-214.35546875,-37.59765625,0.0
1734412890.9990442,-33.203125,-237.79296875,-413.0859375,-11.23046875,0.0
1734412891.0029502,-11.71875,-372.55859375,-278.3203125,-4.8828125,0.0
1734412891.0068562,-27.83203125,49.31640625,172.36328125,-32.2265625,0.0
1734412891.0107622,-43.45703125,200.68359375,102.05078125,-68.359375,0.0
1734412891.0146682,-50.29296875,-118.1640625,-224.609375,-69.3359375,0.0
1734412891.0185742,-67.87109375,-562.01171875,-452.63671875,-42.96875,0.0
1734412891.0224802,-60.05859375,-462.890625,-327.1484375,-25.87890625,0.0
1734412891.0263865,-38.57421875,54.6875,164.0625,-39.0625,0.0
1734412891.0302925,-36.1328125,-46.38671875,-12.6953125,-59.5703125,0.0
1734412891.0341985,-45.41015625,-387.20703125,-344.23828125,-56.15234375,0.0
1734412891.0381045,-55.17578125,-185.05859375,-330.078125,-47.36328125,0.0
1734412891.0420105,-43.45703125,-37.59765625,-296.38671875,-51.26953125,0.0
1734412891.0459218,-17.08984375,-327.63671875,-90.33203125,-47.36328125,0.0
1734412891.0498278,-10.25390625,-645.5078125,-193.359375,-41.50390625,0.0
1734412891.0537338,-21.97265625,-196.77734375,-262.6953125,-35.64453125,0.0
1734412891.0576398,-58.10546875,-77.1484375,-318.359375,-16.11328125,0.0
1734412891.0615458,-51.7578125,-361.81640625,-402.34375,4.8828125,0.0
1734412891.0654519,-18.5546875,-325.68359375,-90.8203125,-8.30078125,0.0
1734412891.069358,-51.26953125,-104.98046875,127.44140625,-28.3203125,0.0
1734412891.0732641,-61.03515625,-23.4375,-55.6640625,-27.83203125,0.0
1734412891.0771701,-39.55078125,-644.04296875,-514.16015625,3.41796875,0.0
1734412891.0810761,-28.80859375,-496.09375,-367.1875,21.97265625,0.0
1734412891.0849822,-19.04296875,246.58203125,225.09765625,-28.3203125,0.0
1734412891.0888882,-30.76171875,219.7265625,198.2421875,-37.109375,0.0
1734412891.092799,-31.25,-658.203125,-407.2265625,5.37109375,0.0
1734412891.096705,-32.2265625,-726.5625,-437.98828125,11.71875,0.0
1734412891.100611,-43.9453125,-154.296875,-276.3671875,-10.25390625,0.0
1734412891.1045172,-24.90234375,-141.6015625,-52.24609375,-15.625,0.0
1734412891.1084232,-31.73828125,-73.73046875,185.05859375,-30.2734375,0.0
1734412891.1123292,-36.1328125,-268.5546875,-183.59375,-56.640625,0.0
1734412891.1162353,-50.29296875,-328.125,-289.0625,-39.0625,0.0
1734412891.1201413,-55.6640625,-322.265625,-347.65625,-16.11328125,0.0
1734412891.1240473,-21.484375,-732.91015625,-318.359375,-6.34765625,0.0
1734412891.1279533,-28.3203125,-98.14453125,169.921875,-29.296875,0.0
1734412891.1318595,-68.84765625,260.7421875,109.86328125,-79.1015625,0.0
1734412891.1357656,-74.70703125,-222.65625,-259.27734375,-61.03515625,0.0
1734412891.1396756,-46.38671875,-238.76953125,-297.8515625,4.39453125,0.0
1734412891.1435816,-29.78515625,191.89453125,53.7109375,-9.27734375,0.0
1734412891.1474879,-35.64453125,286.62109375,272.4609375,-40.0390625,0.0
1734412891.151394,-46.875,-121.58203125,-58.59375,-60.546875,0.0
1734412891.1553,-64.453125,-288.57421875,-316.40625,-54.19921875,0.0
1734412891.159206,-45.8984375,-417.48046875,-396.97265625,-18.06640625,0.0
1734412891.163112,-12.6953125,-357.91015625,-236.328125,-13.18359375,0.0
1734412891.167018,-14.16015625,-584.47265625,-110.83984375,-22.94921875,0.0
1734412891.170924,-24.4140625,-684.5703125,-270.99609375,-48.33984375,0.0
1734412891.17483,-46.38671875,-76.171875,-211.9140625,-54.19921875,0.0
1734412891.1787362,-46.875,-159.1796875,-349.12109375,-23.92578125,0.0
1734412891.1826422,-25.87890625,-286.62109375,-228.515625,-9.765625,0.0
1734412891.1865554,-21.97265625,18.06640625,192.3828125,-25.390625,0.0
1734412891.1904614,-35.64453125,-106.93359375,-20.01953125,-46.38671875,0.0
1734412891.1943674,-51.26953125,-274.90234375,-335.44921875,-31.25,0.0
1734412891.1982737,-40.52734375,-365.234375,-368.1640625,-2.9296875,0.0
1734412891.2021797,-33.203125,-102.05078125,-217.28515625,-27.34375,0.0
1734412891.2060857,-30.76171875,-33.203125,123.53515625,-36.62109375,0.0
1734412891.2099917,-24.4140625,-339.84375,-66.89453125,-35.15625,0.0
1734412891.2138977,-41.9921875,-802.734375,-514.16015625,-62.5,0.0
1734412891.2178037,-75.1953125,-498.046875,-404.78515625,-81.0546875,0.0
1734412891.2217097,-82.03125,-192.3828125,-303.7109375,-58.10546875,0.0
1734412891.2256157,-61.03515625,-216.796875,-66.40625,-57.12890625,0.0
1734412891.229522,-61.5234375,-71.2890625,141.11328125,-83.984375,0.0
1734412891.233431,-72.75390625,52.734375,-41.015625,-69.82421875,0.0
1734412891.237337,-88.37890625,-66.89453125,-324.70703125,-42.48046875,0.0
1734412891.2412431,-69.82421875,-395.99609375,-413.0859375,-34.1796875,0.0
1734412891.2451491,-32.71484375,-147.4609375,46.38671875,-49.8046875,0.0
1734412891.2490551,-41.9921875,232.91015625,201.171875,-87.890625,0.0
1734412891.2529614,-76.66015625,-250.48828125,-284.1796875,-87.890625,0.0
1734412891.2568674,-88.8671875,-711.42578125,-550.78125,-67.3828125,0.0
1734412891.2607734,-67.3828125,-300.29296875,-328.125,-41.9921875,0.0
1734412891.2646794,-49.8046875,243.65234375,177.734375,-56.640625,0.0
1734412891.2685854,-43.9453125,237.79296875,201.66015625,-55.6640625,0.0
1734412891.2724915,-57.12890625,-558.59375,-411.62109375,-51.26953125,0.0
1734412891.2763975,-82.51953125,-603.02734375,-412.59765625,-70.3125,0.0
1734412891.2803063,-62.01171875,-213.37890625,-310.05859375,-45.8984375,0.0
1734412891.2842124,-49.8046875,-329.58984375,-199.21875,-27.34375,0.0
1734412891.2881184,-70.3125,-195.80078125,162.59765625,-57.12890625,0.0
1734412891.2920244,-83.0078125,56.640625,76.171875,-99.609375,0.0
1734412891.2959304,-85.9375,2.44140625,-175.78125,-93.26171875,0.0
1734412891.2998366,-78.125,-446.2890625,-432.12890625,-53.22265625,0.0
1734412891.3037426,-58.59375,-694.3359375,-305.6640625,-29.296875,0.0
1734412891.3076487,-55.17578125,-34.1796875,205.56640625,-81.54296875,0.0
1734412891.3115547,-65.91796875,250.48828125,131.8359375,-123.046875,0.0
1734412891.3154607,-87.890625,-236.328125,-243.1640625,-99.12109375,0.0
1734412891.3193667,-110.83984375,-379.39453125,-318.359375,-66.40625,0.0
1734412891.3232727,-89.84375,94.23828125,-1.46484375,-57.12890625,0.0
1734412891.327185,-74.70703125,272.94921875,254.39453125,-79.1015625,0.0
1734412891.331091,-87.40234375,-95.21484375,-33.203125,-90.33203125,0.0
1734412891.334997,-108.88671875,-218.26171875,-264.6484375,-90.8203125,0.0
1734412891.338903,-104.98046875,-191.89453125,-345.703125,-66.40625,0.0
1734412891.342809,-73.73046875,-227.5390625,-229.4921875,-44.921875,0.0
1734412891.346715,-58.59375,-443.84765625,-6.34765625,-45.41015625,0.0
1734412891.350621,-59.5703125,-436.03515625,-117.67578125,-69.82421875,0.0
1734412891.3545272,-98.6328125,-23.4375,-151.3671875,-90.8203125,0.0
1734412891.3584332,-104.00390625,-116.69921875,-296.875,-68.84765625,0.0
1734412891.3623393,-64.94140625,-543.45703125,-432.12890625,-29.78515625,0.0
1734412891.3662453,-57.12890625,-196.2890625,77.1484375,-35.64453125,0.0
1734412891.3701513,-62.5,263.18359375,208.0078125,-82.03125,0.0
1734412891.37407,-72.265625,-111.328125,-192.87109375,-106.4453125,0.0
1734412891.377976,-101.07421875,-744.62890625,-457.03125,-65.91796875,0.0
1734412891.381882,-84.47265625,-298.33984375,-250.0,-36.62109375,0.0
1734412891.385788,-49.31640625,244.62890625,200.1953125,-79.1015625,0.0
1734412891.389694,-57.12890625,19.53125,22.94921875,-107.91015625,0.0
1734412891.3936,-72.265625,-475.09765625,-368.1640625,-101.07421875,0.0
1734412891.397506,-82.51953125,-664.0625,-422.8515625,-59.5703125,0.0
1734412891.4014122,-71.2890625,-296.38671875,-270.5078125,-19.53125,0.0
1734412891.4053183,-52.24609375,-160.15625,-6.34765625,-48.33984375,0.0
1734412891.4092243,-46.38671875,-689.94140625,-269.04296875,-75.1953125,0.0
1734412891.4131303,-64.453125,-300.29296875,-326.66015625,-84.9609375,0.0
1734412891.4170363,-74.70703125,-54.19921875,-300.29296875,-72.265625,0.0
1734412891.4209473,-55.17578125,-297.8515625,-389.6484375,-48.33984375,0.0
1734412891.4248533,-33.203125,-45.8984375,-6.34765625,-39.0625,0.0
1734412891.4287596,-28.3203125,240.72265625,226.5625,-47.36328125,0.0
1734412891.4326656,-41.9921875,75.68359375,-84.47265625,-60.546875,0.0
1734412891.4365716,-38.57421875,-455.078125,-444.82421875,-52.24609375,0.0
1734412891.4404776,-27.83203125,-614.74609375,-487.3046875,-12.20703125,0.0
1734412891.4443836,-23.4375,-294.43359375,-173.33984375,-9.27734375,0.0
1734412891.4482896,-32.71484375,-14.6484375,120.60546875,-37.59765625,0.0
1734412891.4521956,-36.1328125,-386.71875,-349.12109375,-40.0390625,0.0
1734412891.456102,-40.52734375,-485.3515625,-477.05078125,-37.109375,0.0
1734412891.460008,-38.0859375,-339.84375,-378.90625,-33.203125,0.0
1734412891.463914,-18.06640625,-144.04296875,-144.53125,-25.390625,0.0
1734412891.4678245,-11.71875,-376.46484375,-59.08203125,-38.0859375,0.0
1734412891.4717305,-26.85546875,-533.203125,-333.49609375,-54.19921875,0.0
1734412891.4756365,-45.8984375,-220.703125,-320.3125,-47.36328125,0.0
1734412891.4795425,-43.9453125,-264.16015625,-383.7890625,-22.4609375,0.0
1734412891.4834487,-1.46484375,-806.15234375,-442.87109375,5.859375,0.0
1734412891.4873548,-1.46484375,-617.1875,-31.25,-9.27734375,0.0
1734412891.4912608,-42.96875,-102.05078125,40.0390625,-59.08203125,0.0
1734412891.4951668,-59.5703125,-329.58984375,-354.4921875,-51.26953125,0.0
1734412891.4990728,-60.546875,-845.703125,-569.82421875,-11.71875,0.0
1734412891.5029788,-46.875,-195.3125,-115.72265625,-11.23046875,0.0
1734412891.5068848,-22.4609375,363.28125,298.33984375,-24.4140625,0.0
1734412891.510791,-26.3671875,0.0,-4.39453125,-2.44140625,0.0
1734412891.5147045,-49.31640625,-179.19921875,-263.671875,-3.41796875,0.0
1734412891.5186105,-69.3359375,-215.8203125,-349.609375,-20.01953125,0.0
1734412891.5225165,-40.0390625,-83.984375,-159.1796875,-24.4140625,0.0
1734412891.5264227,-15.13671875,-16.6015625,174.8046875,-22.94921875,0.0
1734412891.5303288,-26.3671875,-0.48828125,103.515625,-43.9453125,0.0
1734412891.5342348,-24.90234375,-219.7265625,-250.9765625,-33.203125,0.0
1734412891.5381408,-26.85546875,-490.234375,-398.4375,0.48828125,0.0
1734412891.5420468,-19.04296875,-684.08203125,-473.14453125,9.27734375,0.0
1734412891.5459528,-7.8125,-463.8671875,-82.03125,-6.8359375,0.0
1734412891.5498588,-21.97265625,200.1953125,220.21484375,-41.015625,0.0
1734412891.5537648,-36.62109375,18.06640625,-107.91015625,-46.38671875,0.0
1734412891.557671,-42.96875,-400.87890625,-312.98828125,-4.8828125,0.0
1734412891.561584,-29.78515625,-167.96875,-267.578125,1.953125,0.0
1734412891.56549,-2.9296875,-43.9453125,10.7421875,-11.71875,0.0
1734412891.569396,-13.18359375,-59.08203125,113.28125,-25.390625,0.0
1734412891.5733023,-30.2734375,-198.73046875,-226.07421875,-46.875,0.0
1734412891.5772083,-39.0625,-318.359375,-386.71875,-36.1328125,0.0
1734412891.5811143,-33.69140625,-380.859375,-372.0703125,-5.37109375,0.0
1734412891.5850203,-12.6953125,-362.79296875,-207.03125,-22.4609375,0.0
1734412891.5889263,-23.92578125,-229.00390625,1.953125,-67.87109375,0.0
1734412891.5928323,-46.875,-43.45703125,-64.94140625,-65.91796875,0.0
1734412891.5967383,-49.31640625,-24.4140625,-274.4140625,-23.4375,0.0
1734412891.6006446,-45.41015625,-322.265625,-405.76171875,-10.25390625,0.0
1734412891.6045506,-18.06640625,-675.29296875,-289.0625,-36.1328125,0.0
1734412891.60846,-26.3671875,-35.64453125,158.69140625,-31.73828125,0.0
1734412891.612366,-23.92578125,163.0859375,16.11328125,-28.80859375,0.0
1734412891.616272,-20.99609375,-395.99609375,-408.69140625,-22.94921875,0.0
1734412891.620178,-47.8515625,-311.03515625,-400.390625,-8.7890625,0.0
1734412891.624084,-21.484375,141.11328125,-37.59765625,-19.04296875,0.0
1734412891.62799,10.7421875,-39.55078125,91.796875,-10.7421875,0.0
1734412891.631896,9.27734375,-516.11328125,-392.578125,-2.9296875,0.0
1734412891.635802,-19.04296875,-520.99609375,-460.9375,-21.484375,0.0
1734412891.6397083,-17.08984375,-330.078125,-333.49609375,-7.8125,0.0
1734412891.6436143,30.2734375,13.18359375,-132.8125,2.44140625,0.0
1734412891.6475203,45.41015625,-484.375,-158.69140625,-7.32421875,0.0
1734412891.6514263,10.25390625,-540.0390625,-318.359375,-6.8359375,0.0
1734412891.6553352,4.39453125,-111.328125,-287.59765625,8.30078125,0.0
1734412891.6592412,28.3203125,-468.75,-440.4296875,43.45703125,0.0
1734412891.6631472,25.87890625,-352.5390625,-254.39453125,36.62109375,0.0
1734412891.6670532,16.11328125,166.9921875,204.58984375,1.46484375,0.0
1734412891.6709592,3.41796875,191.40625,96.6796875,-16.6015625,0.0
1734412891.6748652,15.13671875,-416.9921875,-374.0234375,-16.11328125,0.0
1734412891.6787715,5.859375,-914.0625,-639.6484375,35.15625,0.0
1734412891.6826775,0.48828125,-270.99609375,-225.09765625,38.0859375,0.0
1734412891.6865835,32.2265625,290.52734375,255.859375,-3.41796875,0.0
1734412891.6904895,21.484375,52.734375,14.6484375,3.90625,0.0
1734412891.6943955,3.41796875,-214.84375,-312.01171875,-14.6484375,0.0
1734412891.6983016,-13.671875,-352.5390625,-392.08984375,-3.90625,0.0
1734412891.7022135,-5.859375,-43.45703125,-153.80859375,32.2265625,0.0
1734412891.7061195,48.828125,59.5703125,179.6875,30.76171875,0.0
1734412891.7100255,65.4296875,-4.39453125,122.0703125,17.578125,0.0
1734412891.7139316,42.48046875,41.50390625,-107.91015625,29.78515625,0.0
1734412891.7178376,45.41015625,-44.43359375,-273.4375,46.38671875,0.0
1734412891.7217436,77.1484375,-392.08984375,-416.015625,85.44921875,0.0
1734412891.7256498,86.42578125,-348.6328125,-86.42578125,116.69921875,0.0
1734412891.7295558,98.6328125,166.015625,230.46875,90.33203125,0.0
1734412891.7334619,98.14453125,39.0625,-51.7578125,74.70703125,0.0
1734412891.7373679,97.16796875,-701.171875,-528.80859375,104.4921875,0.0
1734412891.7412739,121.09375,-460.9375,-333.984375,143.5546875,0.0
1734412891.74518,136.23046875,232.421875,206.54296875,166.50390625,0.0
1734412891.7490914,138.671875,183.10546875,162.59765625,127.9296875,0.0
1734412891.7529974,140.13671875,-395.5078125,-288.57421875,101.5625,0.0
1734412891.7569034,123.046875,-562.01171875,-388.671875,116.69921875,0.0
1734412891.7608094,138.671875,-93.26171875,-255.859375,173.33984375,0.0
1734412891.7647154,154.296875,76.171875,6.8359375,176.7578125,0.0
1734412891.7686217,159.1796875,-285.64453125,73.2421875,151.3671875,0.0
1734412891.7725277,161.1328125,-338.8671875,-242.67578125,145.5078125,0.0
1734412891.7764337,145.99609375,-36.62109375,-283.69140625,136.23046875,0.0
1734412891.7803397,150.390625,-239.74609375,-365.234375,167.48046875,0.0
1734412891.7842457,175.29296875,-631.8359375,-297.36328125,167.96875,0.0
1734412891.7881517,176.26953125,-35.15625,169.43359375,135.25390625,0.0
1734412891.7920578,154.78515625,222.65625,43.9453125,112.79296875,0.0
1734412891.795969,152.83203125,-312.5,-351.5625,125.0,0.0
1734412891.799875,131.8359375,-483.3984375,-400.87890625,113.76953125,0.0
1734412891.803781,137.6953125,40.52734375,-81.54296875,90.33203125,0.0
1734412891.807687,154.296875,286.62109375,225.5859375,97.16796875,0.0
1734412891.8115933,127.44140625,-265.13671875,-177.734375,109.375,0.0
1734412891.8154993,87.890625,-634.27734375,-414.55078125,106.4453125,0.0
1734412891.8194053,85.44921875,-500.0,-395.99609375,97.65625,0.0
1734412891.8233113,101.07421875,-304.6875,-282.2265625,87.40234375,0.0
1734412891.8272173,115.234375,-495.60546875,-121.09375,96.19140625,0.0
1734412891.8311234,114.2578125,-503.90625,-240.72265625,82.51953125,0.0
1734412891.8350294,87.40234375,-7.8125,-245.1171875,47.8515625,0.0
1734412891.8389356,89.35546875,-32.2265625,-311.5234375,65.91796875,0.0
1734412891.8428462,110.83984375,-263.671875,-267.578125,86.42578125,0.0
1734412891.8467522,119.140625,-211.9140625,49.8046875,42.96875,0.0
1734412891.8506582,103.02734375,56.15234375,111.81640625,36.62109375,0.0
1734412891.8545642,86.42578125,-61.03515625,-183.59375,49.31640625,0.0
1734412891.8584702,67.87109375,-357.421875,-358.3984375,30.2734375,0.0
1734412891.8623762,80.56640625,-352.5390625,-346.6796875,32.71484375,0.0
1734412891.8662822,110.3515625,-200.1953125,-5.37109375,54.19921875,0.0
1734412891.8701885,104.98046875,-235.3515625,-24.4140625,34.1796875,0.0
1734412891.8740945,73.2421875,-851.5625,-503.41796875,7.8125,0.0
1734412891.8780005,44.921875,-615.234375,-395.5078125,7.32421875,0.0
1734412891.8819065,48.828125,60.05859375,-156.25,12.20703125,0.0
1734412891.8858125,79.58984375,56.15234375,91.30859375,14.6484375,0.0
1734412891.8897226,59.08203125,32.2265625,165.0390625,13.671875,0.0
1734412891.8936286,38.57421875,91.796875,36.1328125,8.30078125,0.0
1734412891.8975346,54.6875,-25.390625,-170.8984375,11.23046875,0.0
1734412891.9014406,62.98828125,-218.75,-321.2890625,42.48046875,0.0
1734412891.9053466,60.546875,32.71484375,115.234375,28.80859375,0.0
1734412891.9092526,64.94140625,-7.32421875,187.98828125,-10.7421875,0.0
1734412891.9131587,61.03515625,-368.65234375,-258.7890625,6.34765625,0.0
1734412891.917065,38.0859375,-673.828125,-524.4140625,26.85546875,0.0
1734412891.920971,28.3203125,-407.71484375,-288.0859375,27.34375,0.0
1734412891.924877,48.828125,269.53125,226.5625,22.4609375,0.0
1734412891.928783,62.01171875,247.55859375,216.796875,13.18359375,0.0
1734412891.932689,44.921875,-434.08203125,-297.36328125,1.953125,0.0
1734412891.9365988,5.859375,-625.9765625,-413.57421875,-14.6484375,0.0
1734412891.940505,9.765625,-341.796875,-283.203125,-11.71875,0.0
1734412891.944411,18.06640625,-124.0234375,-35.15625,-9.27734375,0.0
1734412891.948317,42.48046875,-333.984375,77.63671875,-29.78515625,0.0
1734412891.952223,31.73828125,-160.15625,-24.90234375,-26.85546875,0.0
1734412891.956129,-4.39453125,-190.4296875,-247.55859375,-6.8359375,0.0
1734412891.960035,4.39453125,-516.6015625,-414.0625,-5.37109375,0.0
1734412891.963941,19.04296875,-775.390625,-385.25390625,15.625,0.0
1734412891.9678473,14.16015625,-160.15625,132.8125,-8.30078125,0.0
1734412891.9717534,20.01953125,193.359375,117.1875,-60.546875,0.0
1734412891.9756594,21.97265625,-237.79296875,-279.296875,-49.31640625,0.0
1734412891.9795654,13.671875,-254.8828125,-328.125,3.41796875,0.0
1734412891.9834747,24.4140625,138.671875,-27.34375,11.71875,0.0
1734412891.9873807,53.22265625,359.86328125,287.109375,-16.11328125,0.0
1734412891.991287,38.0859375,-57.6171875,-82.51953125,-35.15625,0.0
1734412891.995193,12.20703125,-400.87890625,-358.88671875,-51.26953125,0.0
1734412891.999099,19.04296875,-197.75390625,-319.82421875,-24.90234375,0.0
1734412892.003005,51.26953125,-164.55078125,-270.99609375,10.25390625,0.0
1734412892.006911,71.77734375,-491.69921875,-121.58203125,-6.34765625,0.0
1734412892.010817,55.17578125,-562.98828125,-236.328125,-8.30078125,0.0
1734412892.014723,48.828125,-14.6484375,-198.2421875,-7.8125,0.0
1734412892.0186293,37.109375,-26.85546875,-287.59765625,0.0,0.0
1734412892.0225353,34.1796875,-475.5859375,-412.109375,28.3203125,0.0
1734412892.0264413,43.45703125,-24.90234375,110.83984375,-6.34765625,0.0
1734412892.0303502,64.453125,208.0078125,107.421875,-23.92578125,0.0
1734412892.0342562,49.8046875,-368.1640625,-367.67578125,-1.953125,0.0
1734412892.0381622,32.2265625,-542.96875,-401.85546875,-6.8359375,0.0
1734412892.0420685,35.15625,-96.19140625,-256.34765625,0.48828125,0.0
1734412892.0459745,44.43359375,243.1640625,139.6484375,-1.953125,0.0
1734412892.0498805,66.40625,-143.5546875,-5.37109375,-3.90625,0.0
1734412892.0537865,62.5,-836.42578125,-495.1171875,-3.90625,0.0
1734412892.0576925,21.97265625,-537.109375,-364.2578125,-32.2265625,0.0
1734412892.0615985,24.90234375,-8.30078125,-277.83203125,2.44140625,0.0
1734412892.0655046,58.59375,-24.4140625,-55.6640625,19.04296875,0.0
1734412892.0694108,68.359375,-106.93359375,135.25390625,-17.578125,0.0
1734412892.0733168,51.7578125,-145.01953125,-184.08203125,-12.6953125,0.0
1734412892.0772288,21.97265625,-126.953125,-334.47265625,0.48828125,0.0
1734412892.0811348,46.875,-260.25390625,-365.234375,23.4375,0.0
1734412892.0850408,67.87109375,-55.6640625,-30.76171875,28.80859375,0.0
1734412892.088947,53.7109375,256.34765625,255.859375,0.0,0.0
1734412892.092853,47.36328125,80.56640625,-20.5078125,-8.30078125,0.0
1734412892.096759,27.83203125,-574.70703125,-458.0078125,-8.7890625,0.0
1734412892.100665,21.484375,-627.44140625,-410.15625,16.6015625,0.0
1734412892.104571,53.7109375,66.40625,51.26953125,17.08984375,0.0
1734412892.108477,55.6640625,192.87109375,190.91796875,-18.5546875,0.0
1734412892.1123831,42.96875,-573.2421875,-377.9296875,-23.4375,0.0
1734412892.1162894,35.15625,-618.65234375,-419.43359375,-50.29296875,0.0
1734412892.1201954,4.8828125,-9.765625,-198.2421875,-58.59375,0.0
1734412892.124107,17.08984375,5.859375,-65.4296875,-48.828125,0.0
1734412892.128013,64.94140625,-418.9453125,2.44140625,-43.9453125,0.0
1734412892.1319191,62.01171875,-229.98046875,-24.4140625,-80.56640625,0.0
1734412892.1358252,37.59765625,19.04296875,-128.90625,-98.14453125,0.0
1734412892.1397312,23.92578125,-182.6171875,-357.421875,-72.75390625,0.0
1734412892.1436372,29.78515625,-398.92578125,-292.96875,-48.828125,0.0
1734412892.1475432,61.03515625,-224.609375,111.328125,-67.3828125,0.0
1734412892.1514492,58.10546875,80.56640625,83.49609375,-73.73046875,0.0
1734412892.1553552,37.59765625,-262.6953125,-332.51953125,-50.29296875,0.0
1734412892.1592615,44.921875,-833.49609375,-584.47265625,-31.25,0.0
1734412892.1631675,56.15234375,-245.60546875,-188.4765625,-45.8984375,0.0
1734412892.1670735,52.734375,283.203125,255.859375,-57.6171875,0.0
1734412892.170988,59.5703125,-156.25,-65.4296875,-78.125,0.0
1734412892.174894,48.828125,-443.359375,-335.9375,-68.84765625,0.0
1734412892.1788003,20.01953125,-150.390625,-294.43359375,-51.26953125,0.0
1734412892.1827064,51.26953125,72.75390625,-199.21875,-50.78125,0.0
1734412892.1866124,83.984375,-120.60546875,70.80078125,-59.08203125,0.0
1734412892.1905184,85.44921875,-431.15234375,-58.10546875,-57.12890625,0.0
1734412892.1944244,90.33203125,-356.4453125,-310.546875,-44.921875,0.0
1734412892.1983304,59.5703125,-143.06640625,-320.80078125,-49.31640625,0.0
1734412892.2022364,76.171875,-568.84765625,-522.4609375,-33.69140625,0.0
1734412892.2061427,87.40234375,-503.41796875,-153.3203125,-49.31640625,0.0
1734412892.2100487,83.49609375,103.515625,175.29296875,-69.82421875,0.0
1734412892.2139547,96.6796875,8.30078125,-119.62890625,-68.359375,0.0
1734412892.2178652,69.3359375,-490.234375,-382.32421875,-40.52734375,0.0
1734412892.2217712,82.03125,-475.5859375,-377.9296875,-36.62109375,0.0
1734412892.2256773,99.609375,84.47265625,49.8046875,-57.6171875,0.0
1734412892.2295833,88.8671875,49.8046875,90.33203125,-67.3828125,0.0
1734412892.2334895,93.26171875,-405.76171875,-332.03125,-73.73046875,0.0
1734412892.2373955,85.44921875,-539.55078125,-434.08203125,-63.4765625,0.0
1734412892.2413015,85.44921875,-365.72265625,-361.328125,-39.55078125,0.0
1734412892.2452075,120.60546875,-129.39453125,-102.05078125,-27.83203125,0.0
1734412892.2491136,102.05078125,-164.55078125,98.6328125,-55.6640625,0.0
1734412892.2530196,79.1015625,-15.13671875,-20.01953125,-60.546875,0.0
1734412892.2569256,71.77734375,50.29296875,-231.93359375,-22.94921875,0.0
1734412892.2608318,88.37890625,-342.7734375,-401.85546875,5.37109375,0.0
1734412892.264742,130.859375,-675.78125,-283.69140625,15.625,0.0
1734412892.268648,145.5078125,-35.15625,167.48046875,-20.5078125,0.0
1734412892.272554,128.90625,141.11328125,47.36328125,-58.10546875,0.0
1734412892.27646,93.75,-332.51953125,-339.35546875,-53.22265625,0.0
1734412892.280366,99.609375,-294.921875,-375.9765625,-20.01953125,0.0
1734412892.2842722,132.8125,-231.93359375,-223.6328125,-8.7890625,0.0
1734412892.2881782,140.13671875,-267.578125,58.59375,-12.20703125,0.0
1734412892.2920842,121.09375,-611.81640625,-230.46875,26.85546875,0.0
1734412892.2959902,87.890625,-675.29296875,-399.90234375,37.59765625,0.0
1734412892.2998962,78.125,-67.3828125,-220.703125,22.94921875,0.0
1734412892.3038023,118.1640625,75.68359375,-81.54296875,44.921875,0.0
1734412892.3077083,151.85546875,-249.0234375,37.109375,42.96875,0.0
1734412892.311618,120.1171875,-177.734375,-17.578125,21.484375,0.0
1734412892.315524,94.23828125,-235.83984375,-272.4609375,36.62109375,0.0
1734412892.31943,99.609375,-301.26953125,-375.0,65.91796875,0.0
1734412892.3233361,118.1640625,-129.39453125,-137.6953125,69.3359375,0.0
1734412892.3272421,130.37109375,182.12890625,259.27734375,79.1015625,0.0
1734412892.3311481,123.046875,69.3359375,93.75,74.21875,0.0
1734412892.3350544,103.02734375,-386.71875,-327.1484375,55.6640625,0.0
1734412892.3389604,92.28515625,-834.9609375,-550.29296875,75.68359375,0.0
1734412892.3428664,114.74609375,-218.75,-122.0703125,82.03125,0.0
1734412892.3467724,125.0,376.953125,304.6875,95.703125,0.0
1734412892.3506784,125.0,34.66796875,26.85546875,89.35546875,0.0
1734412892.3545845,104.4921875,-156.25,-219.7265625,60.05859375,0.0
1734412892.3584936,113.76953125,-25.390625,-239.74609375,84.9609375,0.0
1734412892.3623996,151.85546875,106.4453125,-130.859375,111.328125,0.0
1734412892.3663058,139.16015625,7.8125,130.37109375,124.0234375,0.0
1734412892.3702118,116.69921875,26.85546875,179.6875,100.5859375,0.0
1734412892.3741179,113.76953125,28.80859375,-34.66796875,101.07421875,0.0
1734412892.3780239,107.91015625,-367.67578125,-336.9140625,129.8828125,0.0
1734412892.3819299,119.62890625,-739.74609375,-517.08984375,156.73828125,0.0
1734412892.385836,138.671875,-552.24609375,-165.52734375,149.90234375,0.0
1734412892.389742,149.4140625,101.07421875,235.83984375,124.51171875,0.0
1734412892.3936481,118.65234375,24.90234375,-53.22265625,102.5390625,0.0
1734412892.3975542,93.75,-650.390625,-477.5390625,143.5546875,0.0
1734412892.4014602,106.4453125,-315.4296875,-349.12109375,158.203125,0.0
1734412892.4053724,125.0,83.984375,30.76171875,156.25,0.0
1734412892.4092786,126.953125,-318.84765625,9.765625,156.25,0.0
1734412892.4131846,104.98046875,-453.61328125,-279.296875,115.234375,0.0
1734412892.4170907,87.890625,-220.21484375,-336.42578125,118.65234375,0.0
1734412892.4209967,87.890625,-44.43359375,-295.8984375,147.94921875,0.0
1734412892.4249027,117.67578125,-270.5078125,-275.390625,151.3671875,0.0
1734412892.4288087,148.4375,-827.1484375,-385.25390625,139.16015625,0.0
1734412892.4327147,105.95703125,-397.4609375,-278.3203125,124.0234375,0.0
1734412892.436621,83.984375,-31.25,-254.39453125,122.0703125,0.0
1734412892.440527,108.3984375,-279.78515625,-416.50390625,127.44140625,0.0
1734412892.444433,113.28125,-136.23046875,-149.4140625,132.8125,0.0
1734412892.448339,120.1171875,142.578125,207.51953125,124.51171875,0.0
1734412892.452251,118.65234375,105.46875,-10.25390625,102.5390625,0.0
1734412892.456157,82.51953125,-350.09765625,-356.4453125,91.30859375,0.0
1734412892.460063,77.63671875,-470.21484375,-407.71484375,104.00390625,0.0
1734412892.463969,111.328125,19.53125,-126.953125,125.48828125,0.0
1734412892.4678752,122.0703125,151.85546875,191.89453125,94.7265625,0.0
1734412892.4717813,104.98046875,-281.25,-173.828125,70.3125,0.0
1734412892.4756873,95.703125,-609.86328125,-445.80078125,80.078125,0.0
1734412892.4795933,80.078125,-429.6875,-363.28125,87.890625,0.0
1734412892.4834993,96.19140625,-72.75390625,-218.75,121.09375,0.0
1734412892.4874053,117.1875,-504.39453125,-146.97265625,109.86328125,0.0
1734412892.4913113,100.5859375,-575.68359375,-230.46875,77.1484375,0.0
1734412892.4952176,77.63671875,-151.3671875,-260.25390625,65.4296875,0.0
1734412892.499129,64.453125,-288.0859375,-398.92578125,58.59375,0.0
1734412892.503035,93.75,-445.3125,-315.91796875,91.796875,0.0
1734412892.506941,113.76953125,-31.25,157.71484375,70.3125,0.0
1734412892.510847,97.16796875,195.3125,169.43359375,43.45703125,0.0
1734412892.5147533,51.7578125,-95.703125,-192.3828125,75.1953125,0.0
1734412892.5186594,36.62109375,-611.81640625,-445.3125,58.59375,0.0
1734412892.5225654,55.6640625,-442.87109375,-299.8046875,50.29296875,0.0
1734412892.5264714,68.359375,133.7890625,171.875,55.17578125,0.0
1734412892.5303774,91.796875,-175.29296875,4.39453125,30.76171875,0.0
1734412892.5342834,73.2421875,-654.296875,-350.09765625,4.39453125,0.0
1734412892.5381894,44.43359375,-288.57421875,-312.5,21.484375,0.0
1734412892.5420957,68.359375,41.9921875,-227.05078125,49.8046875,0.0
1734412892.5460064,82.51953125,-116.69921875,34.66796875,41.50390625,0.0
1734412892.5499125,81.0546875,-187.01171875,144.04296875,27.83203125,0.0
1734412892.5538185,62.01171875,10.25390625,-46.38671875,14.6484375,0.0
1734412892.5577247,54.19921875,-56.15234375,-257.8125,24.90234375,0.0
1734412892.5616307,80.56640625,-421.875,-420.8984375,51.7578125,0.0
1734412892.5655367,87.40234375,-545.41015625,-229.00390625,25.87890625,0.0
1734412892.5694427,72.265625,-186.5234375,138.18359375,-4.39453125,0.0
1734412892.5733488,65.91796875,15.625,-44.43359375,-10.7421875,0.0
1734412892.5772548,59.08203125,-666.015625,-581.0546875,6.34765625,0.0
1734412892.5811608,36.62109375,-876.953125,-544.921875,31.73828125,0.0
1734412892.585067,62.5,-77.1484375,-25.87890625,14.16015625,0.0
1734412892.588973,92.28515625,-47.8515625,60.546875,14.16015625,0.0
1734412892.5928836,51.7578125,-496.58203125,-295.8984375,10.25390625,0.0
1734412892.5967896,35.64453125,-586.42578125,-428.7109375,-12.6953125,0.0
1734412892.6006956,19.04296875,-217.7734375,-350.5859375,-15.625,0.0
1734412892.6046016,36.62109375,-29.78515625,-193.359375,9.765625,0.0
1734412892.6085076,53.22265625,-156.25,-0.48828125,12.20703125,0.0
1734412892.6124136,35.64453125,-349.12109375,-257.32421875,-19.53125,0.0
1734412892.61632,36.62109375,-365.72265625,-367.1875,0.9765625,0.0
1734412892.620226,42.96875,-375.48828125,-436.03515625,54.6875,0.0
1734412892.624132,71.2890625,-719.7265625,-433.59375,69.3359375,0.0
1734412892.628038,68.359375,-169.43359375,114.2578125,-6.34765625,0.0
1734412892.631944,49.8046875,229.98046875,56.15234375,-58.10546875,0.0
1734412892.63585,40.52734375,-276.85546875,-350.09765625,-21.484375,0.0
1734412892.6397605,39.55078125,-551.7578125,-431.15234375,20.01953125,0.0
1734412892.6436665,42.96875,-30.76171875,-210.9375,5.859375,0.0
1734412892.6475725,54.19921875,93.75,114.2578125,-3.41796875,0.0
1734412892.6514788,55.6640625,-365.72265625,-174.31640625,-9.27734375,0.0
1734412892.6553848,27.34375,-414.0625,-397.94921875,3.90625,0.0
1734412892.6592908,24.4140625,-460.9375,-430.6640625,8.30078125,0.0
1734412892.6631968,54.19921875,-445.80078125,-375.0,0.9765625,0.0
1734412892.6671028,66.89453125,-592.28515625,-261.23046875,28.3203125,0.0
1734412892.6710088,36.62109375,-579.58984375,-265.13671875,-34.66796875,0.0
1734412892.6749148,20.01953125,-19.04296875,-230.95703125,-48.33984375,0.0
1734412892.678821,20.99609375,-133.7890625,-361.81640625,-19.04296875,0.0
1734412892.682727,32.2265625,-321.2890625,-324.70703125,-5.859375,0.0
1734412892.6866438,32.71484375,-3.41796875,118.1640625,-10.25390625,0.0
1734412892.6905499,30.76171875,-59.5703125,43.9453125,-11.23046875,0.0
1734412892.6944559,30.2734375,-278.3203125,-332.03125,-4.39453125,0.0
1734412892.698362,20.99609375,-401.85546875,-364.74609375,-3.41796875,0.0
1734412892.7022681,35.15625,-194.3359375,-325.1953125,-5.37109375,0.0
1734412892.7061741,61.03515625,-131.8359375,-80.56640625,-20.5078125,0.0
1734412892.7100801,55.6640625,-344.23828125,1.953125,-25.390625,0.0
1734412892.7139862,46.875,-825.68359375,-471.19140625,-23.4375,0.0
1734412892.7178922,18.5546875,-484.86328125,-403.80859375,-28.80859375,0.0
1734412892.7217982,16.6015625,36.62109375,-225.09765625,-7.32421875,0.0
1734412892.7257044,48.828125,-51.26953125,-36.1328125,18.06640625,0.0
1734412892.7296104,54.6875,10.7421875,201.66015625,-22.4609375,0.0
1734412892.7335234,34.1796875,92.28515625,7.32421875,-46.38671875,0.0
1734412892.7374294,22.94921875,-90.33203125,-289.55078125,-39.0625,0.0
1734412892.7413354,59.08203125,-341.796875,-403.80859375,-5.37109375,0.0
1734412892.7452414,69.82421875,-95.703125,-45.41015625,13.18359375,0.0
1734412892.7491474,38.0859375,229.98046875,233.3984375,-11.71875,0.0
1734412892.7530534,34.66796875,-227.05078125,-233.88671875,-41.9921875,0.0
1734412892.7569594,45.41015625,-671.875,-488.28125,-26.85546875,0.0
1734412892.7608657,51.26953125,-341.796875,-366.69921875,-4.8828125,0.0
1734412892.7647717,59.5703125,34.66796875,-81.54296875,-16.6015625,0.0
1734412892.7686777,69.3359375,-150.87890625,108.3984375,-25.87890625,0.0
1734412892.7725837,53.7109375,-584.9609375,-317.87109375,-30.76171875,0.0
1734412892.7764897,31.73828125,-346.19140625,-383.30078125,-33.203125,0.0
1734412892.7803986,51.7578125,-122.0703125,-303.22265625,-18.5546875,0.0
1734412892.7843046,85.9375,-379.39453125,-313.96484375,11.23046875,0.0
1734412892.7882106,97.16796875,-768.5546875,-234.375,10.25390625,0.0
1734412892.7921166,55.6640625,-385.25390625,-136.23046875,-31.25,0.0
1734412892.7960227,50.29296875,9.765625,-192.3828125,-43.45703125,0.0
1734412892.7999287,58.59375,-497.0703125,-466.30859375,-9.27734375,0.0
1734412892.8038347,66.89453125,-589.84375,-288.0859375,8.7890625,0.0
1734412892.807741,56.640625,34.66796875,197.75390625,-7.32421875,0.0
1734412892.811647,44.921875,270.01953125,153.3203125,-18.06640625,0.0
1734412892.815553,57.12890625,-203.61328125,-262.6953125,16.11328125,0.0
1734412892.819459,74.21875,-790.0390625,-545.41015625,33.69140625,0.0
1734412892.823365,54.19921875,-224.609375,-210.9375,1.953125,0.0
1734412892.8272767,55.6640625,51.26953125,161.1328125,-11.71875,0.0
1734412892.831183,52.24609375,-223.6328125,-18.06640625,-29.78515625,0.0
1734412892.835089,30.2734375,-169.921875,-255.37109375,-51.26953125,0.0
1734412892.838995,57.6171875,-43.45703125,-284.1796875,-22.4609375,0.0
1734412892.842901,83.0078125,61.5234375,-256.8359375,7.8125,0.0
1734412892.846807,70.3125,-248.046875,-117.67578125,0.0,0.0
1734412892.850713,68.359375,-383.7890625,-28.80859375,-1.953125,0.0
1734412892.854619,65.91796875,-39.0625,-114.2578125,22.4609375,0.0
1734412892.8585253,49.31640625,-94.23828125,-313.4765625,4.8828125,0.0
1734412892.8624313,66.40625,-512.20703125,-467.7734375,-17.578125,0.0
1734412892.8663373,96.19140625,-145.01953125,-2.44140625,-19.04296875,0.0
1734412892.8702433,80.078125,332.51953125,271.484375,-2.44140625,0.0
1734412892.8741581,81.0546875,-11.23046875,-58.59375,-15.625,0.0
1734412892.8780642,74.21875,-793.45703125,-534.66796875,14.6484375,0.0
1734412892.8819704,70.80078125,-450.1953125,-391.11328125,45.41015625,0.0
1734412892.8858764,110.3515625,81.54296875,79.1015625,18.5546875,0.0
1734412892.8897824,101.5625,-210.44921875,90.8203125,0.9765625,0.0
1734412892.8936884,83.984375,-621.58203125,-270.99609375,8.7890625,0.0
1734412892.8975945,76.171875,-503.41796875,-348.14453125,-5.859375,0.0
1734412892.9015005,86.42578125,12.6953125,-207.03125,22.94921875,0.0
1734412892.9054065,117.1875,-65.4296875,-45.8984375,31.25,0.0
1734412892.9093127,141.11328125,-654.296875,-120.1171875,28.3203125,0.0
1734412892.9132187,107.421875,-240.234375,-20.99609375,11.23046875,0.0
1734412892.9171247,79.1015625,-24.90234375,-125.9765625,12.6953125,0.0
1734412892.9210355,73.2421875,-338.37890625,-364.2578125,34.1796875,0.0
1734412892.9249415,105.95703125,-209.47265625,-62.01171875,8.30078125,0.0
1734412892.9288478,113.28125,251.46484375,288.0859375,-18.5546875,0.0
1734412892.9327538,86.9140625,208.49609375,110.3515625,-26.85546875,0.0
1734412892.9366598,94.23828125,-283.203125,-273.4375,-11.23046875,0.0
1734412892.9405658,96.19140625,-533.69140625,-428.22265625,33.69140625,0.0
1734412892.9444718,100.5859375,-315.91796875,-166.015625,16.11328125,0.0
1734412892.9483778,89.35546875,-125.48828125,181.640625,-15.625,0.0
1734412892.952284,93.75,-413.0859375,-135.7421875,-10.25390625,0.0
1734412892.95619,87.40234375,-304.19921875,-263.18359375,-22.94921875,0.0
1734412892.9600961,56.15234375,3.90625,-167.96875,-4.39453125,0.0
1734412892.9640021,75.68359375,59.5703125,-54.19921875,2.44140625,0.0
1734412892.9679124,136.23046875,-515.13671875,-88.37890625,-7.32421875,0.0
1734412892.9718187,125.48828125,-665.52734375,-253.41796875,-15.13671875,0.0
1734412892.9757247,89.84375,-86.42578125,-156.25,-36.62109375,0.0
1734412892.9796307,108.3984375,-115.234375,-263.671875,-2.44140625,0.0
1734412892.9835367,121.58203125,-203.61328125,-197.75390625,1.953125,0.0
1734412892.9874427,131.8359375,-157.71484375,141.11328125,-7.32421875,0.0
1734412892.9913487,129.8828125,-92.7734375,146.484375,6.8359375,0.0
1734412892.9952548,137.6953125,-211.42578125,-146.484375,-5.859375,0.0
1734412892.999161,135.25390625,-801.7578125,-547.8515625,21.484375,0.0
1734412893.003067,134.765625,-361.81640625,-270.99609375,41.50390625,0.0
1734412893.006973,140.625,0.48828125,172.8515625,40.52734375,0.0
1734412893.010879,140.13671875,-220.21484375,37.109375,27.34375,0.0
1734412893.0147893,128.41796875,-280.2734375,-247.55859375,-5.859375,0.0
1734412893.0186954,110.83984375,-82.03125,-299.8046875,36.1328125,0.0
1734412893.0226014,135.7421875,34.1796875,-248.53515625,63.4765625,0.0
1734412893.0265074,148.92578125,-24.4140625,109.375,51.7578125,0.0
1734412893.0304134,138.671875,94.23828125,211.42578125,44.921875,0.0
1734412893.0343194,136.23046875,-159.1796875,-221.19140625,13.18359375,0.0
1734412893.0382257,119.140625,-501.46484375,-422.8515625,28.3203125,0.0
1734412893.0421317,136.71875,-745.60546875,-540.52734375,82.03125,0.0
1734412893.0460377,139.16015625,-512.6953125,-180.6640625,49.31640625,0.0
1734412893.0499437,129.39453125,226.5625,262.20703125,-1.953125,0.0
1734412893.0538497,111.81640625,108.3984375,17.578125,4.8828125,0.0
1734412893.0577557,104.00390625,-346.19140625,-285.64453125,18.06640625,0.0
1734412893.061669,117.1875,-247.55859375,-351.5625,31.73828125,0.0
1734412893.0655754,128.41796875,-146.484375,-91.30859375,32.2265625,0.0
1734412893.0694814,130.859375,-248.53515625,91.30859375,39.0625,0.0
1734412893.0733874,118.65234375,-209.9609375,-140.13671875,36.1328125,0.0
1734412893.0772934,89.35546875,-107.91015625,-251.953125,25.87890625,0.0
1734412893.0811994,119.140625,-277.34375,-333.49609375,35.15625,0.0
1734412893.0851054,142.08984375,-374.0234375,-233.88671875,47.8515625,0.0
1734412893.0890117,137.6953125,-687.01171875,-205.56640625,40.52734375,0.0
1734412893.0929177,111.328125,-245.1171875,-11.23046875,2.9296875,0.0
1734412893.0968237,96.19140625,119.140625,8.30078125,15.625,0.0
1734412893.1007297,109.86328125,-232.91015625,-335.44921875,42.48046875,0.0
1734412893.1046357,142.08984375,-90.33203125,-76.66015625,46.875,0.0
1734412893.1085486,157.2265625,302.734375,297.8515625,36.62109375,0.0
1734412893.1124547,140.13671875,257.8125,116.69921875,18.06640625,0.0
1734412893.1163607,112.79296875,-272.94921875,-210.9375,20.5078125,0.0
1734412893.1202667,107.421875,-407.2265625,-333.49609375,42.48046875,0.0
1734412893.1241727,142.578125,-68.359375,-114.2578125,46.38671875,0.0
1734412893.1280787,144.04296875,-141.11328125,180.6640625,33.203125,0.0
1734412893.1319847,128.41796875,-397.94921875,-83.49609375,24.4140625,0.0
1734412893.135891,111.328125,-322.75390625,-290.52734375,6.8359375,0.0
1734412893.139797,96.19140625,-48.828125,-201.66015625,26.85546875,0.0
1734412893.143703,120.60546875,117.67578125,-24.4140625,53.22265625,0.0
1734412893.147609,148.92578125,-381.34765625,-10.25390625,38.57421875,0.0
1734412893.151515,118.65234375,-412.109375,-5.37109375,21.97265625,0.0
1734412893.1554308,97.16796875,-12.6953125,12.6953125,31.25,0.0
1734412893.159337,122.55859375,-443.84765625,-361.81640625,59.08203125,0.0
1734412893.163243,141.11328125,-395.01953125,-239.74609375,53.7109375,0.0
1734412893.167149,128.41796875,193.84765625,255.37109375,32.2265625,0.0
1734412893.171055,120.60546875,304.6875,225.09765625,23.4375,0.0
1734412893.174961,120.60546875,-284.66796875,-227.05078125,16.11328125,0.0
1734412893.178867,108.88671875,-632.8125,-354.4921875,46.38671875,0.0
1734412893.182773,113.76953125,-272.94921875,-223.14453125,58.10546875,0.0
1734412893.1866794,123.046875,47.36328125,99.12109375,31.73828125,0.0
1734412893.1905854,138.18359375,-32.71484375,106.93359375,9.765625,0.0
1734412893.1944914,116.69921875,-716.796875,-377.9296875,-0.48828125,0.0
1734412893.1983974,83.49609375,-391.11328125,-339.84375,-5.37109375,0.0
1734412893.2023094,89.84375,46.38671875,-193.84765625,17.578125,0.0
1734412893.2062154,150.87890625,-6.34765625,78.125,28.80859375,0.0
1734412893.2101214,173.828125,88.8671875,226.5625,24.90234375,0.0
1734412893.2140274,128.90625,149.4140625,45.8984375,18.06640625,0.0
1734412893.2179334,117.67578125,-42.48046875,-202.63671875,12.6953125,0.0
1734412893.2218394,127.9296875,-437.5,-422.8515625,23.4375,0.0
1734412893.2257457,132.32421875,-379.8828125,-157.71484375,23.4375,0.0
1734412893.2296517,153.3203125,118.1640625,225.5859375,20.01953125,0.0
1734412893.2335577,129.39453125,89.35546875,24.90234375,31.73828125,0.0
1734412893.2374637,110.83984375,-524.4140625,-441.89453125,27.83203125,0.0
1734412893.2413697,137.20703125,-450.68359375,-443.359375,25.87890625,0.0
1734412893.2452757,149.4140625,-95.703125,-142.578125,33.203125,0.0
1734412893.2491908,152.34375,18.5546875,120.60546875,28.3203125,0.0
1734412893.2530968,157.71484375,-637.6953125,-354.4921875,41.9921875,0.0
1734412893.2570028,123.53515625,-611.81640625,-448.73046875,31.73828125,0.0
1734412893.2609088,103.515625,-51.7578125,-267.578125,53.22265625,0.0
1734412893.2648149,140.625,-25.87890625,-181.640625,68.359375,0.0
1734412893.268721,185.546875,-340.8203125,-4.39453125,34.66796875,0.0
1734412893.272627,172.8515625,-291.50390625,-51.7578125,24.4140625,0.0
1734412893.2765331,127.9296875,-5.37109375,-182.12890625,13.671875,0.0
1734412893.2804391,116.2109375,-363.76953125,-447.75390625,50.29296875,0.0
1734412893.2843451,147.4609375,-829.1015625,-470.703125,83.49609375,0.0
1734412893.2882512,133.7890625,-157.71484375,135.7421875,43.45703125,0.0
1734412893.2921572,104.00390625,225.09765625,151.3671875,5.859375,0.0
1734412893.2960684,103.515625,-240.234375,-262.20703125,-11.71875,0.0
1734412893.2999744,91.30859375,-400.390625,-382.8125,7.32421875,0.0
1734412893.3038807,75.1953125,-227.5390625,-256.34765625,-1.46484375,0.0
1734412893.3077867,78.125,52.24609375,185.546875,-51.7578125,0.0
1734412893.3116927,76.66015625,-75.68359375,20.99609375,-47.8515625,0.0
1734412893.3155987,60.546875,-496.09375,-409.1796875,-37.109375,0.0
1734412893.3195047,35.15625,-541.9921875,-415.0390625,-46.875,0.0
1734412893.3234107,33.203125,-170.41015625,-213.8671875,-31.73828125,0.0
1734412893.3273168,57.6171875,-292.48046875,-20.99609375,-31.73828125,0.0
1734412893.331223,62.98828125,-150.390625,94.23828125,-77.1484375,0.0
1734412893.335129,31.25,44.921875,-84.9609375,-88.37890625,0.0
1734412893.339035,39.0625,-446.2890625,-392.08984375,-25.87890625,0.0
1734412893.3429492,65.4296875,-884.765625,-518.5546875,-0.48828125,0.0
1734412893.3468552,57.6171875,-569.3359375,-114.2578125,-28.80859375,0.0
1734412893.3507612,66.89453125,83.49609375,229.98046875,-37.59765625,0.0
1734412893.3546672,58.10546875,-4.8828125,-53.22265625,-47.8515625,0.0
1734412893.3585734,43.45703125,-389.6484375,-333.49609375,-37.109375,0.0
1734412893.3624794,62.98828125,-405.2734375,-383.7890625,-7.32421875,0.0
1734412893.3663855,90.33203125,-209.47265625,-64.453125,-6.8359375,0.0
1734412893.3702915,118.65234375,-246.09375,77.1484375,-18.06640625,0.0
1734412893.3741975,107.421875,-807.12890625,-423.828125,-30.76171875,0.0
1734412893.3781035,67.3828125,-512.20703125,-412.59765625,-0.48828125,0.0
1734412893.3820095,94.23828125,48.828125,-192.87109375,26.3671875,0.0
1734412893.3859158,123.53515625,8.30078125,38.0859375,6.34765625,0.0
1734412893.3898256,99.609375,27.34375,190.4296875,-4.39453125,0.0
1734412893.3937318,88.37890625,142.578125,34.66796875,-23.92578125,0.0
1734412893.3976378,64.453125,-47.36328125,-226.5625,-22.94921875,0.0
1734412893.4015439,71.2890625,-354.4921875,-429.6875,11.71875,0.0
1734412893.4054499,86.42578125,-114.74609375,-91.30859375,-3.90625,0.0
1734412893.4093559,90.8203125,-89.35546875,153.3203125,-28.3203125,0.0
1734412893.413262,109.86328125,-368.65234375,-247.0703125,-27.34375,0.0
1734412893.417168,83.49609375,-655.76171875,-535.64453125,-9.765625,0.0
1734412893.4210742,69.82421875,-645.99609375,-501.46484375,14.16015625,0.0
1734412893.4249802,102.05078125,-194.3359375,-167.48046875,2.44140625,0.0
1734412893.4288862,117.67578125,69.82421875,151.85546875,-14.6484375,0.0
1734412893.4327922,99.609375,-569.82421875,-392.08984375,5.859375,0.0
1734412893.436702,76.66015625,-702.63671875,-486.328125,-25.87890625,0.0
1734412893.440608,67.87109375,-444.3359375,-346.6796875,-17.08984375,0.0
1734412893.444514,78.125,-459.47265625,-365.72265625,8.30078125,0.0
1734412893.44842,96.19140625,-407.71484375,-62.5,6.8359375,0.0
1734412893.4523263,95.21484375,-84.9609375,0.48828125,-11.23046875,0.0
1734412893.4562323,62.98828125,-265.625,-323.73046875,-37.109375,0.0
1734412893.4601383,64.453125,-690.4296875,-520.99609375,-3.90625,0.0
1734412893.4640443,92.28515625,-864.74609375,-528.3203125,20.99609375,0.0
1734412893.4679503,79.58984375,-243.1640625,70.80078125,-2.9296875,0.0
1734412893.4718564,60.05859375,188.4765625,133.7890625,-30.76171875,0.0
1734412893.4757624,58.59375,-238.28125,-332.51953125,-28.3203125,0.0
1734412893.4796686,54.6875,-585.9375,-451.66015625,-20.01953125,0.0
1734412893.4835777,63.4765625,-354.4921875,-318.359375,0.48828125,0.0
1734412893.4874837,87.40234375,113.28125,144.04296875,-0.9765625,0.0
1734412893.4913898,90.8203125,-38.0859375,37.59765625,-1.46484375,0.0
1734412893.4952958,80.56640625,-191.40625,-317.3828125,-12.20703125,0.0
1734412893.4992018,54.6875,-213.8671875,-376.46484375,-26.3671875,0.0
1734412893.5031078,67.3828125,-350.5859375,-374.51171875,-22.94921875,0.0
1734412893.5070138,89.35546875,-604.98046875,-327.1484375,-11.71875,0.0
1734412893.51092,88.37890625,-704.1015625,-260.25390625,-11.71875,0.0
1734412893.514826,74.21875,-151.3671875,-218.75,-28.80859375,0.0
1734412893.518732,64.94140625,-180.6640625,-380.859375,-19.53125,0.0
1734412893.522638,80.56640625,-466.796875,-437.5,-0.9765625,0.0
1734412893.526544,86.9140625,7.32421875,2.44140625,-16.11328125,0.0
1734412893.530453,100.5859375,236.328125,182.6171875,-22.94921875,0.0
1734412893.534359,96.6796875,-308.59375,-290.0390625,-21.484375,0.0
1734412893.5382652,89.84375,-595.21484375,-423.828125,-23.92578125,0.0
1734412893.5421712,85.9375,-428.22265625,-392.578125,-9.765625,0.0
1734412893.5460773,98.14453125,-1.953125,-43.9453125,-11.71875,0.0
1734412893.5499833,123.046875,-140.625,70.3125,-1.46484375,0.0
1734412893.5538893,109.86328125,-854.00390625,-488.28125,-9.765625,0.0
1734412893.5577953,71.2890625,-594.7265625,-451.66015625,-25.390625,0.0
1734412893.5617013,79.58984375,-113.28125,-312.01171875,16.11328125,0.0
1734412893.5656075,111.328125,-98.14453125,-187.01171875,4.39453125,0.0
1734412893.5695136,107.421875,-33.203125,148.92578125,-29.296875,0.0
1734412893.5734196,101.5625,67.3828125,10.25390625,-25.390625,0.0
1734412893.5773387,77.1484375,-91.30859375,-312.98828125,-24.4140625,0.0
1734412893.5812447,75.1953125,-384.765625,-447.265625,-6.8359375,0.0
1734412893.5851507,92.7734375,-200.68359375,-190.4296875,2.9296875,0.0
1734412893.5890567,92.7734375,164.0625,216.30859375,-9.765625,0.0
1734412893.5929627,104.4921875,77.1484375,3.41796875,-30.2734375,0.0
1734412893.5968688,98.6328125,-566.89453125,-464.35546875,-8.7890625,0.0
1734412893.6007748,90.33203125,-843.26171875,-545.41015625,19.04296875,0.0
1734412893.604681,102.05078125,-346.19140625,-247.0703125,-1.953125,0.0
1734412893.608587,111.81640625,43.45703125,136.71875,-28.3203125,0.0
1734412893.612493,93.26171875,-404.296875,-258.30078125,-25.87890625,0.0
1734412893.616399,82.03125,-461.9140625,-459.47265625,-16.11328125,0.0
1734412893.620305,85.44921875,-135.7421875,-321.2890625,-20.01953125,0.0
1734412893.6242135,106.93359375,-140.625,-332.03125,10.7421875,0.0
1734412893.6281195,134.27734375,-585.9375,-264.6484375,30.2734375,0.0
1734412893.6320255,95.21484375,-307.6171875,-34.66796875,-10.25390625,0.0
1734412893.6359315,80.078125,-35.15625,-196.77734375,-1.953125,0.0
1734412893.6398375,96.6796875,-344.7265625,-453.125,4.8828125,0.0
1734412893.6437438,105.46875,-581.54296875,-427.734375,15.13671875,0.0
1734412893.6476498,131.8359375,-347.16796875,-57.12890625,25.87890625,0.0
1734412893.6515558,123.53515625,62.98828125,110.3515625,6.34765625,0.0
1734412893.6554618,99.12109375,-248.046875,-307.6171875,-10.7421875,0.0
1734412893.6593678,94.23828125,-827.1484375,-543.45703125,3.41796875,0.0
1734412893.6632738,87.40234375,-462.890625,-314.453125,23.92578125,0.0
1734412893.6671798,91.796875,138.671875,133.30078125,9.27734375,0.0
1734412893.671091,99.609375,-153.80859375,6.34765625,7.8125,0.0
1734412893.674997,89.84375,-604.4921875,-354.4921875,-8.7890625,0.0
1734412893.678903,66.89453125,-375.48828125,-361.328125,-7.32421875,0.0
1734412893.682809,61.5234375,-61.5234375,-294.43359375,-5.859375,0.0
1734412893.6867151,97.65625,-321.2890625,-238.28125,0.48828125,0.0
1734412893.6906211,101.07421875,-842.7734375,-335.9375,-4.8828125,0.0
1734412893.6945274,64.94140625,-453.125,-283.203125,-27.83203125,0.0
1734412893.6984334,46.875,-156.25,-313.96484375,-41.015625,0.0
1734412893.7023394,66.40625,-614.2578125,-539.0625,-14.16015625,0.0
1734412893.7062454,80.56640625,-352.5390625,-99.12109375,7.32421875,0.0
1734412893.7101514,79.58984375,268.5546875,291.50390625,-44.43359375,0.0
1734412893.7140574,83.984375,70.80078125,31.73828125,-37.109375,0.0
1734412893.7179718,74.70703125,-474.12109375,-283.203125,-11.23046875,0.0
1734412893.7218778,59.5703125,-560.05859375,-398.4375,-13.18359375,0.0
1734412893.7257838,53.7109375,-215.33203125,-107.91015625,-25.390625,0.0
1734412893.7296898,73.73046875,91.30859375,218.75,-9.765625,0.0
1734412893.7335958,64.453125,-42.96875,-0.9765625,-11.71875,0.0
1734412893.7375019,48.33984375,-416.9921875,-311.03515625,-22.4609375,0.0
1734412893.7414079,62.5,-424.8046875,-359.86328125,7.8125,0.0
1734412893.7453141,68.84765625,-274.90234375,-97.65625,17.578125,0.0
1734412893.7492201,83.984375,-651.3671875,-4.8828125,1.953125,0.0
1734412893.7531261,56.15234375,-191.89453125,96.6796875,-20.5078125,0.0
1734412893.7570322,31.73828125,88.8671875,45.41015625,-37.59765625,0.0
1734412893.7609382,51.26953125,-313.96484375,-270.5078125,-6.8359375,0.0
1734412893.7648485,55.17578125,-64.94140625,-19.04296875,35.15625,0.0
1734412893.7687545,49.8046875,315.4296875,331.0546875,-2.44140625,0.0
1734412893.7726605,57.6171875,278.80859375,208.984375,-25.390625,0.0
1734412893.7765665,53.22265625,-199.70703125,-100.5859375,-20.5078125,0.0
1734412893.7804725,37.59765625,-535.15625,-378.41796875,-13.671875,0.0
1734412893.7843788,45.8984375,-325.1953125,-229.4921875,1.953125,0.0
1734412893.7882848,58.10546875,-117.67578125,192.3828125,-1.953125,0.0
1734412893.7921908,55.6640625,-290.0390625,27.83203125,-25.87890625,0.0
1734412893.7960968,39.0625,-257.32421875,-162.109375,-32.2265625,0.0
1734412893.8000028,28.3203125,6.34765625,-108.88671875,-34.1796875,0.0
1734412893.8039088,41.9921875,92.28515625,-37.109375,-29.296875,0.0
1734412893.807815,70.3125,-371.58203125,24.90234375,0.48828125,0.0
1734412893.8117247,53.22265625,-479.98046875,57.6171875,-23.4375,0.0
1734412893.8156307,36.62109375,-270.99609375,-129.8828125,-31.73828125,0.0
1734412893.8195367,22.94921875,-291.015625,-311.03515625,-26.3671875,0.0
1734412893.8234427,40.0390625,-218.26171875,-200.1953125,-5.859375,0.0
1734412893.8273487,84.9609375,125.48828125,203.61328125,-5.859375,0.0
1734412893.831255,69.3359375,55.6640625,181.640625,-16.11328125,0.0
1734412893.835161,42.96875,-455.078125,-251.46484375,-38.57421875,0.0
1734412893.839067,29.296875,-791.50390625,-445.80078125,-27.83203125,0.0
1734412893.842973,53.22265625,-254.39453125,-192.87109375,-18.06640625,0.0
1734412893.846879,56.15234375,280.2734375,229.98046875,-31.73828125,0.0
1734412893.850785,24.4140625,64.453125,153.80859375,-43.45703125,0.0
1734412893.854691,38.57421875,-252.9296875,-182.6171875,-27.34375,0.0
1734412893.8586037,37.59765625,-145.99609375,-234.86328125,-24.90234375,0.0
1734412893.8625097,36.1328125,73.73046875,-170.8984375,-13.671875,0.0
1734412893.8664157,49.8046875,-90.33203125,45.41015625,-11.71875,0.0
1734412893.8703218,51.26953125,-119.140625,224.609375,-41.50390625,0.0
1734412893.8742278,23.92578125,82.51953125,92.7734375,-53.7109375,0.0
1734412893.878134,20.01953125,-263.18359375,-257.8125,-34.1796875,0.0
1734412893.88204,44.921875,-711.9140625,-494.62890625,2.44140625,0.0
1734412893.885946,60.05859375,-458.984375,-148.92578125,-4.8828125,0.0
1734412893.889852,54.6875,219.7265625,294.43359375,-38.0859375,0.0
1734412893.893758,43.45703125,169.43359375,71.77734375,-49.31640625,0.0
1734412893.897664,51.7578125,-613.28125,-437.5,-33.69140625,0.0
1734412893.90157,44.921875,-450.68359375,-366.69921875,-13.671875,0.0
1734412893.905479,48.828125,125.48828125,76.171875,-9.765625,0.0
1734412893.909385,78.125,-102.05078125,189.94140625,-18.06640625,0.0
1734412893.9132912,58.10546875,-236.81640625,34.66796875,-38.57421875,0.0
1734412893.9171972,42.96875,-35.64453125,16.6015625,-31.73828125,0.0
1734412893.9211032,53.22265625,26.3671875,-101.5625,-8.7890625,0.0
1734412893.9250093,63.4765625,-168.9453125,-117.67578125,-13.671875,0.0
1734412893.9289153,73.73046875,-174.8046875,190.91796875,-21.97265625,0.0
1734412893.9328213,55.17578125,48.33984375,155.76171875,-38.0859375,0.0
1734412893.9367273,29.78515625,83.984375,15.625,-32.71484375,0.0
1734412893.9406335,36.62109375,-242.67578125,-252.9296875,8.7890625,0.0
1734412893.9445395,62.98828125,-755.37109375,-381.34765625,15.13671875,0.0
1734412893.9484456,57.6171875,-75.68359375,214.84375,-7.8125,0.0
1734412893.9523609,55.6640625,327.63671875,227.5390625,-23.4375,0.0
1734412893.9562669,54.19921875,-246.09375,-212.40234375,-16.6015625,0.0
1734412893.960173,49.8046875,-367.67578125,-301.26953125,-2.44140625,0.0
1734412893.964079,68.359375,35.64453125,-32.2265625,6.8359375,0.0
1734412893.967985,77.63671875,305.17578125,330.078125,1.46484375,0.0
1734412893.971891,68.84765625,-278.80859375,-26.85546875,-4.8828125,0.0
1734412893.975797,61.03515625,-966.30859375,-519.04296875,20.5078125,0.0
1734412893.9797032,32.71484375,-355.46875,-281.73828125,-6.34765625,0.0
1734412893.9836092,46.875,56.640625,-76.171875,-23.92578125,0.0
1734412893.9875152,83.984375,-127.9296875,99.609375,-1.46484375,0.0
1734412893.9914212,70.3125,52.734375,209.47265625,-37.59765625,0.0
1734412893.9953272,38.0859375,114.74609375,41.50390625,-31.73828125,0.0
1734412893.9992385,49.8046875,-226.07421875,-271.97265625,-16.6015625,0.0
1734412894.0031445,52.734375,-505.859375,-328.61328125,-21.484375,0.0
1734412894.0070508,62.5,-40.52734375,137.20703125,-3.90625,0.0
1734412894.0109568,78.61328125,249.51171875,271.97265625,-10.25390625,0.0
1734412894.0148628,57.12890625,-107.421875,-76.66015625,-17.578125,0.0
1734412894.0187688,61.5234375,-617.1875,-390.625,-14.16015625,0.0
1734412894.0226748,68.84765625,-584.9609375,-398.4375,0.9765625,0.0
1734412894.0265808,60.05859375,-30.76171875,35.15625,-16.11328125,0.0
1734412894.030487,72.265625,8.7890625,152.34375,-18.06640625,0.0
1734412894.034393,34.1796875,-379.8828125,-243.1640625,-11.71875,0.0
1734412894.038299,16.11328125,-264.16015625,-328.61328125,-42.48046875,0.0
1734412894.042205,40.0390625,-19.04296875,-266.11328125,-3.41796875,0.0
1734412894.0461197,58.10546875,-231.93359375,-242.67578125,20.99609375,0.0
1734412894.0500257,60.05859375,-666.9921875,-185.546875,-14.6484375,0.0
1734412894.053932,41.9921875,-185.05859375,-41.015625,-35.15625,0.0
1734412894.057838,22.94921875,-11.71875,-196.77734375,-35.15625,0.0
1734412894.061744,44.921875,-365.72265625,-426.7578125,-15.13671875,0.0
1734412894.06565,57.6171875,-451.66015625,-301.7578125,1.46484375,0.0
1734412894.069556,50.78125,-214.35546875,108.3984375,-18.5546875,0.0
1734412894.073462,45.8984375,-25.390625,5.37109375,-20.01953125,0.0
1734412894.077368,36.1328125,-657.71484375,-520.01953125,-22.4609375,0.0
1734412894.0812743,31.73828125,-743.1640625,-495.60546875,-25.87890625,0.0
1734412894.0851803,35.64453125,15.625,-61.5234375,-10.25390625,0.0
1734412894.0890863,65.91796875,166.50390625,217.7734375,-11.71875,0.0
1734412894.0930002,70.80078125,-345.703125,-164.55078125,-19.53125,0.0
1734412894.0969062,28.3203125,-605.46875,-409.66796875,-2.44140625,0.0
1734412894.1008122,26.85546875,-330.078125,-348.6328125,-25.87890625,0.0
1734412894.1047182,45.41015625,-140.13671875,-276.3671875,-20.99609375,0.0
1734412894.1086245,49.8046875,-172.8515625,40.0390625,-9.27734375,0.0
1734412894.1125305,56.15234375,-391.6015625,-73.2421875,-33.203125,0.0
1734412894.1164365,29.296875,-447.75390625,-365.234375,-52.734375,0.0
1734412894.1203425,10.7421875,-447.265625,-454.1015625,-21.97265625,0.0
1734412894.1242485,35.64453125,-632.32421875,-335.9375,11.71875,0.0
1734412894.1281545,46.38671875,-46.875,180.17578125,-9.27734375,0.0
1734412894.1320608,54.19921875,249.0234375,150.390625,-17.08984375,0.0
1734412894.1359668,41.015625,-349.609375,-344.23828125,-36.1328125,0.0
1734412894.139884,38.0859375,-823.2421875,-540.0390625,-33.69140625,0.0
1734412894.14379,44.921875,-200.1953125,-225.09765625,-29.78515625,0.0
1734412894.147696,56.640625,229.00390625,192.3828125,-39.0625,0.0
1734412894.151602,63.96484375,-112.79296875,6.34765625,-34.66796875,0.0
1734412894.155508,43.45703125,-269.53125,-325.68359375,-32.71484375,0.0
1734412894.1594143,12.6953125,-446.2890625,-397.4609375,-49.8046875,0.0
1734412894.1633203,26.85546875,-532.71484375,-397.4609375,-37.109375,0.0
1734412894.1672263,49.31640625,-481.4453125,-245.1171875,-24.90234375,0.0
1734412894.1711323,38.57421875,-232.421875,33.69140625,-55.6640625,0.0
1734412894.1750383,4.8828125,-12.20703125,-113.76953125,-53.22265625,0.0
1734412894.1789443,5.859375,-218.26171875,-363.76953125,-25.390625,0.0
1734412894.1828504,35.64453125,-750.48828125,-570.80078125,-17.08984375,0.0
1734412894.1867602,30.2734375,-582.03125,-275.87890625,-17.08984375,0.0
1734412894.1906662,52.734375,-166.50390625,80.078125,-37.109375,0.0
1734412894.1945724,24.90234375,-316.89453125,-250.0,-65.4296875,0.0
1734412894.1984785,-7.8125,-503.90625,-393.5546875,-55.6640625,0.0
1734412894.2023845,7.32421875,-225.5859375,-339.35546875,-41.50390625,0.0
1734412894.2062905,21.484375,-188.96484375,-240.72265625,-45.41015625,0.0
1734412894.2101965,20.01953125,-410.64453125,-36.1328125,-53.22265625,0.0
1734412894.2141025,5.37109375,-522.4609375,-264.6484375,-67.3828125,0.0
1734412894.2180085,-2.44140625,-298.828125,-373.53515625,-58.59375,0.0
1734412894.2219148,7.32421875,-111.81640625,-342.28515625,-40.0390625,0.0
1734412894.2258208,31.73828125,-189.94140625,-301.7578125,-16.6015625,0.0
1734412894.2297268,43.45703125,-266.6015625,-47.36328125,-12.6953125,0.0
1734412894.233643,35.64453125,-126.46484375,-66.40625,-40.0390625,0.0
1734412894.237549,0.9765625,-74.21875,-301.7578125,-78.125,0.0
1734412894.2414553,-12.20703125,-514.16015625,-522.4609375,-50.29296875,0.0
1734412894.2453613,7.8125,-692.3828125,-345.21484375,-21.484375,0.0
1734412894.2492673,24.4140625,-77.63671875,142.578125,-64.94140625,0.0
1734412894.2531734,27.83203125,-229.00390625,-181.15234375,-80.078125,0.0
1734412894.2570794,20.99609375,-802.734375,-575.68359375,-62.01171875,0.0
1734412894.2609854,17.578125,-772.4609375,-504.8828125,-30.2734375,0.0
1734412894.2648914,23.92578125,-88.8671875,-207.51953125,-41.015625,0.0
1734412894.2687976,27.34375,136.23046875,123.046875,-56.15234375,0.0
1734412894.2727036,2.9296875,-307.6171875,-213.37890625,-65.4296875,0.0
1734412894.2766097,-14.6484375,-239.74609375,-406.25,-92.7734375,0.0
1734412894.2805185,0.48828125,-199.21875,-384.27734375,-69.82421875,0.0
1734412894.2844245,20.01953125,-513.671875,-471.19140625,-38.0859375,0.0
1734412894.2883306,35.15625,-392.08984375,-126.46484375,-68.84765625,0.0
1734412894.2922368,23.92578125,-49.8046875,4.8828125,-83.984375,0.0
1734412894.2961428,-5.859375,-97.65625,-325.1953125,-75.68359375,0.0
1734412894.3000488,-9.765625,-600.5859375,-519.53125,-60.05859375,0.0
1734412894.3039548,-3.41796875,-629.8828125,-435.546875,-41.9921875,0.0
1734412894.3078609,9.27734375,-42.96875,-8.7890625,-69.82421875,0.0
1734412894.3117669,26.3671875,69.3359375,33.69140625,-69.3359375,0.0
1734412894.3156729,9.27734375,-440.4296875,-404.78515625,-59.5703125,0.0
1734412894.3195791,-1.953125,-698.2421875,-479.98046875,-66.40625,0.0
1734412894.3234851,5.37109375,-294.43359375,-370.60546875,-33.203125,0.0
1734412894.3273935,20.01953125,108.88671875,-26.85546875,-52.24609375,0.0
1734412894.3312995,41.50390625,-232.421875,-39.0625,-59.08203125,0.0
1734412894.3352058,15.625,-773.4375,-435.05859375,-52.734375,0.0
1734412894.3391118,-18.06640625,-387.20703125,-377.44140625,-67.87109375,0.0
1734412894.3430178,15.13671875,-56.640625,-327.1484375,-47.36328125,0.0
1734412894.3469238,40.52734375,-428.7109375,-314.453125,-18.06640625,0.0
1734412894.3508298,28.3203125,-547.36328125,-87.40234375,-21.97265625,0.0
1734412894.3547359,4.8828125,-68.84765625,-91.30859375,-61.03515625,0.0
1734412894.3586419,-8.7890625,-99.12109375,-325.1953125,-63.96484375,0.0
1734412894.362548,16.11328125,-670.8984375,-571.2890625,-30.76171875,0.0
1734412894.3664541,25.390625,-334.9609375,-155.76171875,-30.76171875,0.0
1734412894.3703601,16.11328125,181.640625,213.37890625,-57.12890625,0.0
1734412894.3742716,10.7421875,-258.30078125,-243.65234375,-35.64453125,0.0
1734412894.3781776,10.7421875,-708.984375,-450.1953125,-11.71875,0.0
1734412894.3820837,5.859375,-410.15625,-356.4453125,-33.69140625,0.0
1734412894.3859897,3.90625,104.00390625,-65.4296875,-26.85546875,0.0
1734412894.3898957,15.13671875,-15.625,102.5390625,-17.578125,0.0
1734412894.393802,20.5078125,-571.2890625,-307.6171875,-43.45703125,0.0
1734412894.397708,-7.8125,-699.21875,-446.2890625,-39.55078125,0.0
1734412894.401614,-28.80859375,-300.78125,-329.1015625,-35.64453125,0.0
1734412894.40552,3.41796875,-234.86328125,-319.82421875,-13.18359375,0.0
1734412894.409426,21.484375,-623.046875,-172.8515625,-16.6015625,0.0
1734412894.413332,-10.25390625,-204.1015625,-23.4375,-52.24609375,0.0
1734412894.417238,-29.296875,-22.94921875,-241.69921875,-57.12890625,0.0
1734412894.4211493,-24.90234375,-416.015625,-450.1953125,-26.3671875,0.0
1734412894.4250553,-9.27734375,-279.78515625,-250.0,-3.90625,0.0
1734412894.4289613,16.11328125,106.4453125,203.125,-15.13671875,0.0
1734412894.4328673,4.8828125,-115.72265625,-20.5078125,-40.52734375,0.0
1734412894.4367733,-16.11328125,-566.40625,-434.5703125,-35.64453125,0.0
1734412894.4406793,-1.953125,-765.625,-501.46484375,-14.16015625,0.0
1734412894.4445853,8.30078125,-476.07421875,-294.921875,-19.04296875,0.0
1734412894.4484916,1.46484375,50.29296875,176.26953125,-37.109375,0.0
1734412894.4523976,5.37109375,-445.80078125,-124.51171875,-33.69140625,0.0
1734412894.4563036,-1.953125,-661.1328125,-389.6484375,-11.23046875,0.0
1734412894.4602096,-23.92578125,-208.49609375,-292.96875,-9.27734375,0.0
1734412894.4641156,-3.90625,-157.71484375,-330.56640625,-23.92578125,0.0
1734412894.4680264,29.78515625,-508.30078125,0.0,-6.34765625,0.0
1734412894.4719324,13.671875,-489.2578125,0.0,-8.30078125,0.0
1734412894.4758384,-20.01953125,-122.0703125,0.0,-43.45703125,0.0
1734412894.4797444,-32.71484375,-291.50390625,0.0,-45.8984375,0.0
1734412894.4836504,-2.9296875,-597.65625,0.0,-21.484375,0.0
1734412894.4875565,15.625,-411.62109375,0.0,3.41796875,0.0
1734412894.4914627,8.7890625,-291.015625,0.0,-41.50390625,0.0
1734412894.4953687,-11.71875,-463.37890625,0.0,-51.7578125,0.0
1734412894.4992747,-24.4140625,-822.265625,0.0,-10.7421875,0.0
1734412894.5031807,-22.94921875,-383.30078125,0.0,-14.16015625,0.0
1734412894.5070868,-20.01953125,209.47265625,0.0,-17.08984375,0.0
1734412894.5109928,2.44140625,-98.6328125,0.0,-21.484375,0.0
1734412894.5149033,7.32421875,-606.4453125,-264.6484375,-41.015625,0.0
1734412894.5188093,-17.578125,-277.83203125,-286.62109375,-53.7109375,0.0
1734412894.5227153,-2.44140625,-26.3671875,-294.921875,-34.66796875,0.0
1734412894.5266213,16.6015625,-238.76953125,-168.9453125,-23.4375,0.0
1734412894.5305274,-18.06640625,-212.40234375,134.27734375,-39.55078125,0.0
1734412894.5344334,-27.83203125,-246.09375,-118.1640625,-33.203125,0.0
1734412894.5383396,-19.53125,-488.76953125,-385.7421875,-22.94921875,0.0
1734412894.5422456,-0.48828125,-778.80859375,-522.4609375,-12.6953125,0.0
1734412894.5461516,7.8125,-621.09375,-222.65625,-14.16015625,0.0
1734412894.5500576,-1.953125,84.9609375,284.66796875,-25.390625,0.0
1734412894.5539637,-1.46484375,-132.8125,-25.390625,-28.80859375,0.0
1734412894.5578697,-33.69140625,-609.375,-409.66796875,-32.2265625,0.0
1734412894.5617828,-23.4375,-362.79296875,-362.79296875,-23.4375,0.0
1734412894.5656888,22.94921875,-142.578125,-135.25390625,0.9765625,0.0
1734412894.569595,17.08984375,-38.57421875,179.6875,5.859375,0.0
1734412894.573501,-15.625,-63.96484375,115.234375,-61.03515625,0.0
1734412894.5774071,-33.69140625,-68.84765625,-35.64453125,-72.265625,0.0
1734412894.5813131,-19.53125,-290.0390625,-287.109375,-24.90234375,0.0
1734412894.5852191,0.0,-426.26953125,-320.80078125,-5.37109375,0.0
1734412894.5891252,11.71875,-769.53125,-247.0703125,6.8359375,0.0
1734412894.5930312,-14.6484375,-349.12109375,35.15625,-11.23046875,0.0
1734412894.5969374,-20.5078125,125.48828125,95.21484375,-37.109375,0.0
1734412894.6008434,-29.78515625,-247.0703125,-294.43359375,-32.2265625,0.0
1734412894.6047494,-22.94921875,-185.546875,-209.9609375,-19.04296875,0.0
1734412894.6086621,-2.44140625,200.68359375,237.79296875,-14.16015625,0.0
1734412894.6125681,-14.6484375,-30.2734375,46.38671875,-24.90234375,0.0
1734412894.6164742,-27.34375,-360.3515625,-317.87109375,-47.36328125,0.0
1734412894.6203802,-20.5078125,-236.81640625,-325.1953125,-50.29296875,0.0
1734412894.6242864,-19.53125,52.24609375,-168.9453125,-32.71484375,0.0
1734412894.6281924,11.23046875,-92.28515625,108.3984375,-20.99609375,0.0
1734412894.6320984,21.97265625,-444.3359375,-66.40625,-1.46484375,0.0
1734412894.6360044,-27.83203125,-291.50390625,-249.0234375,-26.3671875,0.0
1734412894.6399105,-41.9921875,-67.87109375,-259.765625,-54.6875,0.0
1734412894.6438165,-21.484375,26.85546875,-256.8359375,-55.6640625,0.0
1734412894.6477225,1.46484375,-456.54296875,-240.234375,-39.0625,0.0
1734412894.6516287,-20.5078125,-456.54296875,13.671875,-44.921875,0.0
1734412894.6555374,-40.52734375,5.37109375,32.2265625,-73.73046875,0.0
1734412894.6594434,-29.78515625,-511.23046875,-412.59765625,-39.55078125,0.0
1734412894.6633494,-59.08203125,-541.50390625,-344.23828125,-14.6484375,0.0
1734412894.6672554,-47.36328125,70.80078125,125.9765625,-33.203125,0.0
1734412894.6711617,-35.64453125,63.96484375,163.57421875,-53.22265625,0.0
1734412894.6750677,-36.62109375,-393.06640625,-272.94921875,-52.734375,0.0
1734412894.6789737,-37.109375,-618.65234375,-431.640625,-37.109375,0.0
1734412894.6828797,-51.26953125,-282.2265625,-324.70703125,-30.2734375,0.0
1734412894.6867857,-50.29296875,175.78125,24.4140625,-33.69140625,0.0
1734412894.6906917,-27.83203125,-20.5078125,131.34765625,-63.4765625,0.0
1734412894.694598,-38.57421875,-740.72265625,-377.9296875,-72.75390625,0.0
1734412894.698504,-59.5703125,-437.5,-358.88671875,-76.171875,0.0
1734412894.7024121,-54.19921875,-25.390625,-271.97265625,-61.03515625,0.0
1734412894.7063181,-33.69140625,-134.27734375,-135.7421875,-57.12890625,0.0
1734412894.7102244,-15.625,-23.92578125,200.68359375,-81.0546875,0.0
1734412894.7141304,-47.8515625,122.0703125,117.1875,-82.51953125,0.0
1734412894.7180364,-59.5703125,-19.53125,-120.60546875,-59.5703125,0.0
1734412894.7219424,-41.50390625,-550.29296875,-452.1484375,-41.50390625,0.0
1734412894.7258484,-29.78515625,-528.80859375,-273.4375,-38.0859375,0.0
1734412894.7297544,-27.34375,-63.96484375,221.6796875,-47.8515625,0.0
1734412894.7336605,-13.18359375,-225.5859375,0.0,-37.59765625,0.0
1734412894.7375667,-22.94921875,-704.1015625,-475.5859375,-27.83203125,0.0
1734412894.7414727,-46.875,-553.22265625,-415.52734375,-46.38671875,0.0
1734412894.7453787,-34.1796875,62.98828125,-20.99609375,-56.15234375,0.0
1734412894.7492971,-18.5546875,110.3515625,244.140625,-41.50390625,0.0
1734412894.7532032,-24.4140625,-304.19921875,-43.45703125,-38.57421875,0.0
1734412894.7571092,-46.38671875,-247.0703125,-206.54296875,-58.59375,0.0
1734412894.7610152,-51.7578125,-33.69140625,-220.21484375,-70.3125,0.0
1734412894.7649212,-40.52734375,-112.3046875,-203.61328125,-59.08203125,0.0
1734412894.7688272,-30.2734375,-423.33984375,-32.2265625,-59.5703125,0.0
1734412894.7727334,-42.96875,-322.265625,81.0546875,-83.49609375,0.0
1734412894.7766395,-64.94140625,-9.765625,2.44140625,-109.86328125,0.0
1734412894.7805455,-82.51953125,-329.1015625,-358.88671875,-82.03125,0.0
1734412894.7844515,-107.91015625,-705.078125,-387.20703125,-75.1953125,0.0
1734412894.7883575,-120.1171875,-192.3828125,127.44140625,-136.23046875,0.0
1734412894.7922635,-116.69921875,-47.8515625,136.23046875,-153.3203125,0.0
1734412894.7961745,-111.81640625,-298.33984375,-142.578125,-134.765625,0.0
1734412894.8000805,-135.25390625,-337.890625,-325.68359375,-136.23046875,0.0
1734412894.8039865,-149.4140625,-79.1015625,-243.65234375,-120.1171875,0.0
1734412894.8078926,-121.58203125,116.69921875,163.57421875,-121.58203125,0.0
1734412894.8117986,-115.72265625,-85.9375,96.19140625,-117.1875,0.0
1734412894.8157048,-107.421875,-472.65625,-339.84375,-97.16796875,0.0
1734412894.8196108,-124.51171875,-580.56640625,-406.73828125,-88.8671875,0.0
1734412894.8235168,-114.74609375,-296.38671875,-324.21875,-69.3359375,0.0
1734412894.8274229,-55.17578125,-398.92578125,-255.859375,-66.89453125,0.0
1734412894.8313289,-79.58984375,-192.3828125,98.6328125,-68.84765625,0.0
1734412894.8352349,-79.58984375,171.875,124.51171875,-53.22265625,0.0
1734412894.839141,-69.82421875,-94.7265625,-203.125,-13.671875,0.0
1734412894.8430517,-52.24609375,-663.57421875,-494.62890625,-1.46484375,0.0
1734412894.8469577,-25.87890625,-637.20703125,-297.36328125,0.9765625,0.0
1734412894.8508637,-34.66796875,-202.1484375,137.6953125,-21.484375,0.0
1734412894.8547697,-22.4609375,-139.6484375,-12.6953125,-24.90234375,0.0
1734412894.8586757,-22.94921875,-772.94921875,-529.296875,16.11328125,0.0
1734412894.8625817,-39.55078125,-859.86328125,-528.80859375,20.99609375,0.0
1734412894.8664877,-29.78515625,-208.0078125,-100.09765625,20.99609375,0.0
1734412894.870394,-10.25390625,-32.71484375,137.20703125,-4.8828125,0.0
1734412894.8743,-2.44140625,-736.328125,-372.55859375,4.8828125,0.0
1734412894.878206,-14.16015625,-486.81640625,-393.06640625,14.6484375,0.0
1734412894.882112,-21.97265625,-7.8125,-275.390625,-0.48828125,0.0
1734412894.886018,7.8125,-142.578125,-239.74609375,9.27734375,0.0
1734412894.889932,18.5546875,6.8359375,172.8515625,32.2265625,0.0
1734412894.893838,-5.859375,210.9375,166.9921875,12.20703125,0.0
1734412894.897744,0.48828125,43.9453125,-74.21875,13.671875,0.0
1734412894.9016502,10.25390625,-297.8515625,-374.0234375,58.10546875,0.0
1734412894.9055562,15.13671875,-206.0546875,-234.375,47.36328125,0.0
1734412894.9094622,43.9453125,-74.21875,182.6171875,33.69140625,0.0
1734412894.9133682,43.9453125,-229.98046875,-17.578125,32.2265625,0.0
1734412894.9172742,20.99609375,-674.31640625,-452.1484375,23.4375,0.0
1734412894.9211802,12.6953125,-750.9765625,-441.40625,38.57421875,0.0
1734412894.9250865,24.90234375,-68.359375,-145.99609375,56.640625,0.0
1734412894.9289925,46.875,157.71484375,176.7578125,28.3203125,0.0
1734412894.9328985,45.41015625,-108.3984375,16.6015625,0.9765625,0.0
1734412894.936812,10.7421875,-186.03515625,-220.703125,13.18359375,0.0
1734412894.940718,0.9765625,-359.375,-341.30859375,29.78515625,0.0
1734412894.944624,29.78515625,-307.12890625,-335.9375,37.109375,0.0
1734412894.9485302,41.9921875,-152.34375,-23.4375,39.0625,0.0
1734412894.9524362,41.9921875,59.5703125,134.27734375,20.99609375,0.0
1734412894.9563422,18.5546875,-228.515625,-255.859375,20.99609375,0.0
1734412894.9602482,-14.16015625,-666.9921875,-487.79296875,22.94921875,0.0
1734412894.9641542,27.83203125,-548.828125,-313.96484375,49.31640625,0.0
1734412894.9680603,49.31640625,-165.0390625,103.515625,35.15625,0.0
1734412894.9719663,13.671875,4.8828125,208.49609375,7.32421875,0.0
1734412894.9758725,7.8125,-229.98046875,-157.71484375,10.7421875,0.0
1734412894.9797785,6.8359375,-807.6171875,-523.92578125,21.484375,0.0
1734412894.9836879,6.34765625,-341.30859375,-324.70703125,27.34375,0.0
1734412894.987594,0.0,157.2265625,59.08203125,16.6015625,0.0
1734412894.9915,8.7890625,-36.62109375,107.421875,-2.9296875,0.0
1734412894.995406,8.30078125,-109.375,-117.67578125,-28.3203125,0.0
1734412894.999312,-3.90625,-83.0078125,-271.97265625,-26.3671875,0.0
1734412895.0032182,4.8828125,-389.16015625,-426.26953125,-2.44140625,0.0
1734412895.0071242,41.015625,-479.98046875,-263.18359375,-5.859375,0.0
1734412895.0110302,34.66796875,-31.73828125,152.83203125,-13.671875,0.0
1734412895.0149362,-3.41796875,120.1171875,34.66796875,-17.578125,0.0
1734412895.0188422,-21.97265625,-83.0078125,-269.04296875,-14.6484375,0.0
1734412895.0227482,-10.7421875,-689.94140625,-578.61328125,-3.41796875,0.0
1734412895.0266545,-9.27734375,-672.36328125,-312.01171875,-1.46484375,0.0
1734412895.0305634,-18.06640625,-168.45703125,154.296875,-13.18359375,0.0
1734412895.0344694,-11.71875,-329.58984375,-158.69140625,-40.0390625,0.0
1734412895.0383754,-30.2734375,-503.41796875,-355.95703125,-36.1328125,0.0
1734412895.0422814,-30.2734375,-243.65234375,-354.98046875,-20.5078125,0.0
1734412895.0461876,-4.8828125,63.96484375,-170.41015625,-27.83203125,0.0
1734412895.0500937,4.8828125,-170.8984375,79.58984375,-10.25390625,0.0
1734412895.0539997,13.671875,-818.84765625,-378.90625,-5.37109375,0.0
1734412895.0579057,-25.87890625,-472.16796875,-401.3671875,-41.50390625,0.0
1734412895.0618117,-37.109375,-47.8515625,-306.15234375,-20.01953125,0.0
1734412895.0657177,-9.27734375,-143.5546875,-307.12890625,-2.44140625,0.0
1734412895.0696237,11.23046875,20.99609375,108.88671875,-1.953125,0.0
1734412895.07353,-0.9765625,194.3359375,150.87890625,-14.16015625,0.0
1734412895.0774384,1.46484375,55.17578125,-114.2578125,-25.87890625,0.0
1734412895.0813444,-7.8125,-259.27734375,-378.90625,1.46484375,0.0
1734412895.0852504,-11.23046875,-257.32421875,-321.2890625,9.27734375,0.0
1734412895.0891564,15.13671875,-100.5859375,81.0546875,0.48828125,0.0
1734412895.0930624,7.32421875,41.015625,117.67578125,-14.16015625,0.0
1734412895.0969684,-3.90625,-426.26953125,-345.21484375,0.0,0.0
1734412895.1008747,-12.20703125,-731.93359375,-482.91015625,3.41796875,0.0
1734412895.1047807,-12.20703125,-140.625,-240.234375,-24.4140625,0.0
1734412895.1086867,9.765625,173.33984375,152.34375,-2.9296875,0.0
1734412895.1125927,31.73828125,-305.6640625,-81.0546875,-1.953125,0.0
1734412895.1164987,7.32421875,-360.3515625,-290.52734375,-25.390625,0.0
1734412895.1204047,-19.04296875,-51.26953125,-257.8125,-17.08984375,0.0
1734412895.1243165,-8.7890625,-166.50390625,-354.98046875,-9.27734375,0.0
1734412895.1282225,9.27734375,-330.56640625,-127.9296875,-12.20703125,0.0
1734412895.1321285,13.671875,-46.875,183.10546875,-17.08984375,0.0
1734412895.1360345,9.27734375,125.48828125,20.99609375,-37.59765625,0.0
1734412895.1399405,-9.765625,-218.26171875,-330.56640625,-29.296875,0.0
1734412895.1438465,1.953125,-632.32421875,-411.62109375,3.41796875,0.0
1734412895.1477528,27.83203125,-449.21875,-86.42578125,-2.9296875,0.0
1734412895.1516588,8.30078125,-42.48046875,194.3359375,-11.23046875,0.0
1734412895.1555648,-2.44140625,-175.78125,-96.6796875,-11.71875,0.0
1734412895.1594708,-8.7890625,-724.12109375,-456.0546875,-19.53125,0.0
1734412895.1633768,-14.6484375,-319.3359375,-299.8046875,-32.71484375,0.0
1734412895.1672828,12.20703125,178.22265625,63.96484375,-3.90625,0.0
1734412895.1712043,19.04296875,17.578125,155.2734375,-0.48828125,0.0
1734412895.1751103,-0.48828125,-125.9765625,-41.015625,-25.87890625,0.0
1734412895.1790164,-20.01953125,-91.30859375,-201.66015625,-12.20703125,0.0
1734412895.1829226,-7.8125,-112.3046875,-325.1953125,1.953125,0.0
1734412895.1868286,32.71484375,-214.84375,-198.2421875,8.7890625,0.0
1734412895.1907346,21.484375,-332.03125,82.03125,10.7421875,0.0
1734412895.1946406,-9.27734375,-264.6484375,-19.53125,-27.83203125,0.0
1734412895.1985466,-19.04296875,-87.40234375,-180.17578125,-31.73828125,0.0
1734412895.2024527,4.39453125,-586.42578125,-510.25390625,13.18359375,0.0
1734412895.206359,22.4609375,-800.78125,-391.11328125,-2.9296875,0.0
1734412895.210265,20.5078125,-70.3125,196.2890625,-34.66796875,0.0
1734412895.214171,20.5078125,97.65625,106.93359375,-22.94921875,0.0
1734412895.218082,-6.8359375,-431.640625,-290.52734375,-15.13671875,0.0
1734412895.221988,-10.7421875,-631.8359375,-452.1484375,-22.94921875,0.0
1734412895.225894,-6.34765625,-171.875,-197.265625,-5.37109375,0.0
1734412895.2298,-8.30078125,97.65625,181.640625,2.44140625,0.0
1734412895.233706,-13.18359375,-187.98828125,-63.4765625,-11.71875,0.0
1734412895.237612,-14.16015625,-464.84375,-390.625,-12.6953125,0.0
1734412895.2415183,-7.8125,-611.328125,-420.41015625,0.48828125,0.0
1734412895.2454243,7.32421875,-554.19921875,-369.62890625,-1.953125,0.0
1734412895.2493303,20.5078125,-317.87109375,-83.0078125,-28.3203125,0.0
1734412895.2532363,-7.32421875,50.29296875,136.71875,-17.08984375,0.0
1734412895.2571423,-43.45703125,51.7578125,-100.09765625,-41.50390625,0.0
1734412895.2610483,-44.921875,-339.84375,-401.85546875,-28.80859375,0.0
1734412895.2649586,-17.578125,-552.24609375,-374.51171875,23.4375,0.0
1734412895.2688646,2.44140625,-193.359375,26.3671875,-3.41796875,0.0
1734412895.2727706,-16.11328125,98.6328125,150.87890625,-31.73828125,0.0
1734412895.2766767,-31.73828125,-287.59765625,-238.28125,-34.66796875,0.0
1734412895.280583,-21.484375,-481.93359375,-374.51171875,-48.33984375,0.0
1734412895.284489,-10.7421875,-422.8515625,-375.9765625,-32.71484375,0.0
1734412895.288395,-17.578125,-286.1328125,-98.6328125,-22.94921875,0.0
1734412895.292301,3.90625,-413.0859375,-61.03515625,-22.94921875,0.0
1734412895.296207,-12.20703125,-985.3515625,-551.26953125,-5.859375,0.0
1734412895.300113,-53.7109375,-584.9609375,-388.18359375,-24.90234375,0.0
1734412895.3040192,-24.4140625,-121.09375,-296.38671875,-18.06640625,0.0
1734412895.3079252,12.20703125,-111.81640625,-117.67578125,-9.27734375,0.0
1734412895.311835,-10.25390625,19.53125,168.9453125,-44.43359375,0.0
1734412895.315741,-34.66796875,-166.9921875,-159.1796875,-65.4296875,0.0
1734412895.319647,-28.80859375,-266.6015625,-308.59375,-53.22265625,0.0
1734412895.323553,-30.76171875,-366.69921875,-309.08203125,-10.7421875,0.0
1734412895.327459,-7.32421875,-203.61328125,-71.77734375,-43.9453125,0.0
1734412895.331365,25.87890625,-51.26953125,203.61328125,-53.22265625,0.0
1734412895.3352714,16.11328125,-324.70703125,-116.69921875,-44.43359375,0.0
1734412895.3391774,-15.625,-843.75,-544.43359375,-39.0625,0.0
1734412895.3430834,-24.90234375,-467.28515625,-344.23828125,-41.50390625,0.0
1734412895.3469894,-14.6484375,208.0078125,132.8125,-39.55078125,0.0
1734412895.3508954,14.16015625,145.99609375,232.91015625,-47.8515625,0.0
1734412895.3548014,16.11328125,-1.953125,116.2109375,-67.3828125,0.0
1734412895.358711,-11.23046875,9.27734375,23.92578125,-62.01171875,0.0
1734412895.362617,3.41796875,-42.48046875,-179.6875,-48.33984375,0.0
1734412895.366523,33.203125,-124.51171875,-109.86328125,-18.06640625,0.0
1734412895.370429,21.484375,72.75390625,242.1875,-22.94921875,0.0
1734412895.374335,28.80859375,166.015625,161.62109375,-49.31640625,0.0
1734412895.3782413,-2.9296875,-267.08984375,-195.80078125,-45.8984375,0.0
1734412895.3821473,-1.46484375,-777.83203125,-488.28125,-25.87890625,0.0
1734412895.3860533,32.71484375,-728.515625,-314.94140625,-15.13671875,0.0
1734412895.3899593,-1.46484375,80.56640625,275.390625,-32.71484375,0.0
1734412895.3938653,-16.11328125,218.26171875,191.89453125,-83.984375,0.0
1734412895.3977714,5.859375,-483.88671875,-376.953125,-87.40234375,0.0
1734412895.4016774,-16.11328125,-375.9765625,-385.25390625,-72.75390625,0.0
1734412895.4055898,-2.9296875,26.3671875,-77.1484375,-54.6875,0.0
1734412895.4094958,50.29296875,-144.53125,154.296875,-59.5703125,0.0
1734412895.4134018,3.90625,-321.2890625,-29.296875,-135.25390625,0.0
1734412895.4173079,-16.11328125,-126.953125,-137.20703125,-140.625,0.0
1734412895.421214,33.69140625,-39.55078125,-217.7734375,-109.86328125,0.0
1734412895.42512,-8.7890625,-387.6953125,-374.0234375,-104.00390625,0.0
1734412895.4290261,7.8125,-720.21484375,-234.375,-76.171875,0.0
1734412895.4329321,36.62109375,-160.15625,122.0703125,-95.703125,0.0
1734412895.4368382,8.30078125,112.3046875,56.640625,-146.97265625,0.0
1734412895.4407442,-11.23046875,-324.70703125,-342.7734375,-125.0,0.0
1734412895.4446502,-3.41796875,-591.30859375,-416.9921875,-106.93359375,0.0
1734412895.4485564,19.53125,-235.83984375,-15.625,-151.3671875,0.0
1734412895.4524682,17.08984375,142.08984375,192.3828125,-159.66796875,0.0
1734412895.4563742,-12.6953125,-138.18359375,-102.5390625,-153.3203125,0.0
1734412895.4602804,-29.296875,-375.9765625,-348.14453125,-167.96875,0.0
1734412895.4641864,21.484375,-133.7890625,-308.10546875,-173.33984375,0.0
1734412895.4680924,51.7578125,100.5859375,61.03515625,-160.64453125,0.0
1734412895.4719985,12.20703125,-237.79296875,57.6171875,-154.78515625,0.0
1734412895.4759045,-12.20703125,-459.47265625,-288.0859375,-161.1328125,0.0
1734412895.4798105,-0.9765625,-212.40234375,-306.640625,-180.6640625,0.0
1734412895.4837165,5.37109375,-96.6796875,-299.8046875,-181.15234375,0.0
1734412895.4876227,30.76171875,-528.3203125,-376.953125,-173.33984375,0.0
1734412895.4915287,37.59765625,-544.921875,-36.62109375,-166.9921875,0.0
1734412895.4954348,-0.9765625,20.99609375,63.96484375,-184.5703125,0.0
1734412895.4993463,-16.11328125,-238.28125,-330.56640625,-181.15234375,0.0
1734412895.5032523,19.04296875,-747.55859375,-474.12109375,-151.3671875,0.0
1734412895.5071583,34.1796875,-434.5703125,-186.5234375,-139.6484375,0.0
1734412895.5110645,12.6953125,128.90625,230.95703125,-119.140625,0.0
1734412895.5149705,7.32421875,-39.55078125,1.953125,-134.27734375,0.0
1734412895.5188766,17.08984375,-778.3203125,-409.1796875,-151.3671875,0.0
1734412895.5227826,18.06640625,-713.8671875,-409.1796875,-163.0859375,0.0
1734412895.5266886,25.390625,7.8125,-57.6171875,-173.828125,0.0
1734412895.5305946,39.55078125,-13.18359375,149.4140625,-134.27734375,0.0
1734412895.5345008,46.38671875,-760.7421875,-364.2578125,-101.07421875,0.0
1734412895.5384068,2.9296875,-505.859375,-358.88671875,-81.54296875,0.0
1734412895.5423129,15.625,-130.37109375,-267.578125,-47.36328125,0.0
1734412895.5462236,26.3671875,-291.50390625,-287.59765625,14.16015625,0.0
1734412895.5501297,15.625,-221.6796875,97.65625,23.92578125,0.0
1734412895.5540357,32.2265625,69.82421875,189.94140625,26.85546875,0.0
1734412895.5579417,-1.46484375,-26.3671875,-48.33984375,56.15234375,0.0
1734412895.561848,-3.41796875,-499.0234375,-386.71875,102.05078125,0.0
1734412895.565754,17.08984375,-567.87109375,-310.546875,152.34375,0.0
1734412895.56966,22.4609375,-263.671875,161.1328125,152.83203125,0.0
1734412895.573566,32.2265625,0.0,179.6875,136.23046875,0.0
1734412895.577472,-9.765625,-478.02734375,-307.6171875,143.06640625,0.0
1734412895.581378,-15.13671875,-811.5234375,-451.66015625,165.0390625,0.0
1734412895.5852842,22.4609375,-120.1171875,-133.7890625,205.078125,0.0
1734412895.5891902,8.30078125,179.6875,212.890625,204.58984375,0.0
1734412895.5931005,0.48828125,-257.8125,3.41796875,181.15234375,0.0
1734412895.5970066,23.4375,-506.34765625,-322.265625,203.61328125,0.0
1734412895.6009128,6.8359375,-243.1640625,-306.640625,230.46875,0.0
1734412895.6048188,18.5546875,-118.1640625,-279.78515625,271.484375,0.0
1734412895.6087248,43.45703125,-142.578125,0.9765625,271.484375,0.0
1734412895.6126308,15.13671875,-207.51953125,106.93359375,288.0859375,0.0
1734412895.6165369,-11.71875,-352.05078125,-225.5859375,283.69140625,0.0
1734412895.6204429,14.16015625,-461.42578125,-432.12890625,282.2265625,0.0
1734412895.624349,42.96875,-854.98046875,-550.29296875,329.1015625,0.0
1734412895.6282551,23.92578125,-296.38671875,-26.85546875,304.6875,0.0
1734412895.6321611,37.109375,237.3046875,264.6484375,309.5703125,0.0
1734412895.6360672,20.01953125,-153.3203125,-118.65234375,291.9921875,0.0
1734412895.6399775,-10.7421875,-376.46484375,-340.33203125,269.53125,0.0
1734412895.6438835,6.8359375,-109.86328125,-283.203125,302.24609375,0.0
1734412895.6477895,11.71875,100.09765625,13.18359375,298.828125,0.0
1734412895.6516955,11.71875,-49.8046875,174.31640625,267.578125,0.0
1734412895.6556015,20.01953125,-152.34375,3.90625,291.015625,0.0
1734412895.6595075,5.37109375,-513.671875,-355.95703125,321.2890625,0.0
1734412895.6634138,-7.8125,-637.6953125,-458.0078125,313.4765625,0.0
1734412895.6673198,23.92578125,-629.8828125,-383.30078125,297.8515625,0.0
1734412895.6712258,20.01953125,-624.0234375,-101.07421875,281.25,0.0
1734412895.6751318,0.48828125,-41.015625,96.19140625,270.5078125,0.0
1734412895.6790378,10.25390625,-116.2109375,-189.94140625,265.13671875,0.0
1734412895.6829438,14.16015625,-584.9609375,-455.56640625,246.58203125,0.0
1734412895.6868536,0.0,-366.2109375,-222.65625,244.62890625,0.0
1734412895.6907597,0.0,-135.25390625,154.296875,245.60546875,0.0
1734412895.6946657,0.0,-137.20703125,28.80859375,239.2578125,0.0
1734412895.6985717,0.0,-386.23046875,-290.0390625,236.81640625,0.0
1734412895.702478,0.0,-317.3828125,-369.62890625,251.46484375,0.0
1734412895.706384,0.0,-194.82421875,-201.66015625,253.41796875,0.0
1734412895.71029,0.0,-316.40625,85.9375,260.25390625,0.0
1734412895.714196,0.0,-775.87890625,-332.51953125,284.1796875,0.0
1734412895.718102,0.0,-519.53125,-366.2109375,273.92578125,0.0
1734412895.722008,0.0,-83.984375,-244.62890625,292.96875,0.0
1734412895.7259142,0.0,-155.2734375,-236.81640625,319.82421875,0.0
1734412895.7298203,0.0,-4.8828125,188.4765625,275.390625,0.0
1734412895.7337296,-1.953125,167.96875,228.02734375,229.98046875,0.0
1734412895.7376356,-3.90625,47.8515625,12.6953125,240.234375,0.0
1734412895.7415416,17.08984375,-399.90234375,-322.75390625,248.046875,0.0
1734412895.7454476,33.69140625,-354.98046875,-244.62890625,234.375,0.0
1734412895.7493536,15.13671875,147.94921875,250.0,223.14453125,0.0
1734412895.7532597,14.6484375,-58.10546875,134.27734375,229.98046875,0.0
1734412895.757166,15.13671875,-597.65625,-295.8984375,211.42578125,0.0
1734412895.761072,-10.7421875,-593.26171875,-367.67578125,205.078125,0.0
1734412895.764978,2.9296875,-21.484375,-55.6640625,212.890625,0.0
1734412895.768884,40.0390625,220.21484375,265.13671875,197.75390625,0.0
1734412895.77279,13.671875,-311.03515625,-30.2734375,186.03515625,0.0
1734412895.776696,-13.671875,-320.3125,-191.40625,171.38671875,0.0
1734412895.7806084,-20.99609375,-175.29296875,-212.40234375,183.59375,0.0
1734412895.7845144,-0.9765625,-466.30859375,-359.86328125,161.1328125,0.0
1734412895.7884204,7.8125,-279.78515625,-29.296875,157.2265625,0.0
1734412895.7923267,15.13671875,127.44140625,249.51171875,138.18359375,0.0
1734412895.7962327,-9.27734375,99.12109375,60.05859375,95.703125,0.0
1734412895.8001387,-22.94921875,-436.5234375,-319.82421875,134.27734375,0.0
1734412895.8040447,-0.9765625,-913.57421875,-527.34375,127.9296875,0.0
1734412895.8079507,9.27734375,-343.26171875,-23.92578125,83.0078125,0.0
1734412895.8118567,2.9296875,296.38671875,307.6171875,78.61328125,0.0
1734412895.8157628,-7.32421875,-0.9765625,-15.13671875,46.875,0.0
1734412895.819669,-26.85546875,-348.14453125,-295.8984375,28.80859375,0.0
1734412895.823575,-40.0390625,-110.3515625,-277.83203125,36.1328125,0.0
1734412895.8274834,-30.2734375,205.078125,55.17578125,31.25,0.0
1734412895.8313894,-20.99609375,24.4140625,175.29296875,1.953125,0.0
1734412895.8352954,-25.390625,-244.62890625,-139.16015625,-2.9296875,0.0
1734412895.8392017,-43.9453125,-158.69140625,-270.99609375,-27.34375,0.0
1734412895.8431077,-20.5078125,-81.54296875,-307.12890625,-26.85546875,0.0
1734412895.8470137,0.48828125,-346.19140625,-300.29296875,14.6484375,0.0
1734412895.8509197,-20.99609375,-312.5,56.15234375,0.48828125,0.0
1734412895.8548257,-32.2265625,87.890625,117.67578125,-17.578125,0.0
1734412895.8587317,-39.55078125,-14.6484375,-196.77734375,0.48828125,0.0
1734412895.862638,-38.57421875,-652.34375,-575.1953125,61.5234375,0.0
1734412895.866544,-30.76171875,-623.53515625,-323.2421875,75.1953125,0.0
1734412895.87045,-20.5078125,101.5625,258.30078125,82.51953125,0.0
1734412895.874365,-20.99609375,85.9375,54.6875,118.65234375,0.0
1734412895.878271,-43.45703125,-488.76953125,-361.81640625,142.08984375,0.0
1734412895.882177,-57.12890625,-309.08203125,-380.859375,186.5234375,0.0
1734412895.8860831,-40.52734375,158.203125,-160.15625,210.9375,0.0
1734412895.8899894,-0.9765625,157.2265625,181.15234375,241.69921875,0.0
1734412895.8938954,0.0,-351.07421875,-101.5625,250.0,0.0
1734412895.8978014,-32.71484375,-475.5859375,-361.328125,210.9375,0.0
1734412895.9017074,-25.87890625,-78.61328125,-282.71484375,220.703125,0.0
1734412895.9056134,-16.11328125,-138.671875,-353.515625,253.41796875,0.0
1734412895.9095194,-8.30078125,-579.1015625,-208.49609375,250.9765625,0.0
1734412895.9134257,-10.25390625,-75.68359375,142.08984375,249.0234375,0.0
1734412895.9173317,-34.1796875,105.46875,-16.6015625,282.2265625,0.0
1734412895.9212427,-49.31640625,-365.234375,-384.765625,322.75390625,0.0
1734412895.9251487,-20.99609375,-251.953125,-275.87890625,332.03125,0.0
1734412895.9290547,-8.7890625,207.51953125,201.171875,354.98046875,0.0
1734412895.9329607,-17.578125,291.50390625,228.02734375,346.6796875,0.0
1734412895.936867,-23.92578125,-312.01171875,-250.0,350.09765625,0.0
1734412895.940773,-46.875,-790.0390625,-485.83984375,350.5859375,0.0
1734412895.944679,-45.41015625,-419.921875,-301.7578125,357.421875,0.0
1734412895.948585,-25.87890625,115.234375,159.66796875,396.484375,0.0
1734412895.952491,-15.13671875,-186.5234375,38.0859375,399.90234375,0.0
1734412895.956397,-21.484375,-295.8984375,-219.7265625,376.46484375,0.0
1734412895.9603033,-31.25,-67.87109375,-221.6796875,377.9296875,0.0
1734412895.9642093,-15.625,-29.78515625,-254.8828125,417.96875,0.0
1734412895.9681199,10.7421875,-559.08203125,-325.1953125,460.9375,0.0
1734412895.9720259,-8.7890625,-633.7890625,-62.01171875,416.50390625,0.0
1734412895.9759321,-32.71484375,-45.8984375,11.71875,374.51171875,0.0
1734412895.9798381,-19.53125,-296.875,-332.03125,404.78515625,0.0
1734412895.9837441,-15.625,-479.00390625,-361.81640625,432.6171875,0.0
1734412895.9876502,-9.27734375,-316.89453125,-166.50390625,442.3828125,0.0
1734412895.9915562,-2.9296875,-34.66796875,194.82421875,426.7578125,0.0
1734412895.9954622,-13.671875,-29.296875,4.39453125,435.05859375,0.0
1734412895.9993684,-29.296875,-799.31640625,-530.76171875,457.51953125,0.0
1734412896.0032744,-25.87890625,-420.8984375,-346.6796875,447.265625,0.0
1734412896.0071805,16.6015625,235.3515625,54.19921875,447.265625,0.0
1734412896.0110865,11.23046875,85.9375,181.640625,461.9140625,0.0
1734412896.0149968,-22.94921875,-60.546875,45.41015625,437.98828125,0.0
1734412896.0189028,-29.78515625,-56.15234375,-150.390625,406.25,0.0
1734412896.0228088,-29.296875,-53.7109375,-304.6875,415.52734375,0.0
1734412896.0267148,-17.578125,-119.62890625,-257.8125,445.3125,0.0
1734412896.0306208,-8.7890625,32.71484375,166.9921875,431.15234375,0.0
1734412896.0345268,-14.6484375,-126.953125,5.37109375,415.0390625,0.0
1734412896.0384328,-26.3671875,-468.75,-366.2109375,422.8515625,0.0
1734412896.042339,-51.26953125,-770.01953125,-552.734375,400.87890625,0.0
1734412896.046245,-29.78515625,-669.43359375,-351.5625,399.90234375,0.0
1734412896.050151,-5.37109375,154.296875,224.609375,382.8125,0.0
1734412896.0540571,-13.18359375,190.91796875,110.3515625,374.0234375,0.0
1734412896.0579631,-19.53125,-313.4765625,-310.05859375,371.09375,0.0
1734412896.061873,-26.85546875,-333.984375,-423.33984375,372.55859375,0.0
1734412896.065779,-16.6015625,-237.79296875,-298.828125,370.1171875,0.0
1734412896.069685,5.859375,-52.24609375,110.3515625,333.0078125,0.0
1734412896.073591,2.9296875,-298.828125,-85.44921875,318.84765625,0.0
1734412896.077497,-14.6484375,-293.9453125,-373.046875,306.640625,0.0
1734412896.0814033,-21.97265625,-371.58203125,-389.6484375,307.6171875,0.0
1734412896.0853093,-16.11328125,-557.12890625,-417.96875,338.37890625,0.0
1734412896.0892153,26.3671875,-808.10546875,-329.1015625,340.8203125,0.0
1734412896.0931213,6.8359375,-277.34375,54.19921875,273.92578125,0.0
1734412896.0970273,-13.671875,51.26953125,-70.80078125,253.90625,0.0
1734412896.1009333,-5.37109375,-451.66015625,-443.359375,290.52734375,0.0
1734412896.1048393,-20.99609375,-296.875,-314.94140625,298.828125,0.0
1734412896.108749,0.0,209.47265625,125.0,281.25,0.0
1734412896.112655,0.0,281.73828125,238.28125,273.92578125,0.0
1734412896.116561,0.0,-156.25,-150.87890625,258.7890625,0.0
1734412896.1204672,0.0,-305.6640625,-328.61328125,239.74609375,0.0
1734412896.1243732,0.0,-89.35546875,-306.640625,273.92578125,0.0
1734412896.1282792,0.0,-72.75390625,-101.5625,285.15625,0.0
1734412896.1321852,0.0,-411.62109375,-9.27734375,257.32421875,0.0
1734412896.1360912,0.0,-679.6875,-284.66796875,246.58203125,0.0
1734412896.1399972,0.0,-194.3359375,-255.37109375,241.2109375,0.0
1734412896.1439035,0.0,-45.8984375,-303.22265625,247.0703125,0.0
1734412896.1478095,0.0,-215.8203125,-220.21484375,263.18359375,0.0
1734412896.1517155,0.0,101.07421875,208.0078125,248.53515625,0.0
1734412896.1556244,-9.765625,96.6796875,18.5546875,220.703125,0.0
1734412896.1595304,-20.5078125,-461.9140625,-373.53515625,247.55859375,0.0
1734412896.1634364,-12.20703125,-693.359375,-406.25,274.4140625,0.0
1734412896.1673424,-26.3671875,-125.48828125,-53.7109375,255.859375,0.0
1734412896.1712484,-20.5078125,289.55078125,302.734375,209.9609375,0.0
1734412896.1751544,-2.9296875,-259.765625,-98.14453125,223.6328125,0.0
1734412896.1790605,-11.23046875,-906.73828125,-547.8515625,244.62890625,0.0
1734412896.1829667,-42.96875,-447.75390625,-361.328125,230.46875,0.0
1734412896.1868727,-19.04296875,118.1640625,-5.37109375,266.6015625,0.0
1734412896.1907787,9.27734375,62.01171875,202.63671875,222.16796875,0.0
1734412896.1946847,-7.32421875,-86.9140625,102.05078125,187.5,0.0
1734412896.1985908,-39.55078125,-65.4296875,-29.78515625,171.875,0.0
1734412896.2025027,-41.9921875,-61.03515625,-249.0234375,174.8046875,0.0
1734412896.206409,-30.2734375,-146.484375,-227.5390625,221.19140625,0.0
1734412896.210315,-23.92578125,-3.90625,192.87109375,187.5,0.0
1734412896.214221,-26.85546875,85.9375,120.1171875,139.16015625,0.0
1734412896.218127,-41.015625,-235.83984375,-269.53125,157.2265625,0.0
1734412896.222033,-26.85546875,-685.546875,-489.2578125,177.734375,0.0
1734412896.225939,-17.08984375,-601.07421875,-322.265625,177.24609375,0.0
1734412896.229845,6.8359375,108.88671875,211.42578125,164.0625,0.0
1734412896.2337513,1.953125,215.33203125,153.80859375,157.2265625,0.0
1734412896.2376573,-33.69140625,-504.39453125,-407.2265625,122.55859375,0.0
1734412896.2415633,-22.4609375,-552.24609375,-447.265625,105.95703125,0.0
1734412896.2454693,-17.08984375,13.18359375,-203.61328125,120.60546875,0.0
1734412896.2493808,-9.27734375,87.890625,118.1640625,129.39453125,0.0
1734412896.2532868,-3.90625,-322.265625,-73.2421875,127.9296875,0.0
1734412896.2571929,-36.1328125,-314.94140625,-344.7265625,98.14453125,0.0
1734412896.2610989,-44.43359375,-112.3046875,-303.22265625,83.984375,0.0
1734412896.2650049,-33.69140625,-188.4765625,-376.46484375,100.09765625,0.0
1734412896.2689111,-19.04296875,-434.08203125,-215.8203125,104.98046875,0.0
1734412896.2728171,-3.90625,-281.25,55.17578125,100.5859375,0.0
1734412896.2767231,-15.625,-164.55078125,-185.546875,86.42578125,0.0
1734412896.2806292,-38.0859375,-542.48046875,-458.0078125,102.05078125,0.0
1734412896.2845352,-20.99609375,-875.0,-604.00390625,146.484375,0.0
1734412896.2884412,-13.671875,-276.85546875,-117.1875,120.1171875,0.0
1734412896.2923474,-20.01953125,106.93359375,204.1015625,75.68359375,0.0
1734412896.2962654,-32.71484375,-237.3046875,-217.28515625,72.75390625,0.0
1734412896.3001714,-42.48046875,-333.984375,-361.81640625,81.54296875,0.0
1734412896.3040774,-28.3203125,-136.71875,-351.5625,98.14453125,0.0
1734412896.3079836,-9.765625,81.54296875,-97.65625,102.5390625,0.0
1734412896.3118896,-18.06640625,-60.546875,129.39453125,88.37890625,0.0
1734412896.3157957,-12.20703125,-452.1484375,-274.4140625,101.5625,0.0
1734412896.3197017,-6.34765625,-516.6015625,-433.59375,94.7265625,0.0
1734412896.3236077,-24.90234375,-212.40234375,-328.61328125,110.3515625,0.0
1734412896.3275137,-12.6953125,-492.67578125,-397.4609375,134.765625,0.0
1734412896.3314197,-7.8125,-570.80078125,-77.1484375,121.58203125,0.0
1734412896.335326,-32.71484375,-37.59765625,47.8515625,82.51953125,0.0
1734412896.339232,-42.48046875,-290.0390625,-313.4765625,91.796875,0.0
1734412896.3431425,-39.0625,-593.26171875,-452.63671875,131.34765625,0.0
1734412896.3470485,-23.92578125,-375.0,-258.30078125,135.25390625,0.0
1734412896.3509545,-31.73828125,128.90625,203.61328125,107.91015625,0.0
1734412896.3548605,-40.52734375,58.59375,56.640625,111.81640625,0.0
1734412896.3587666,-50.29296875,-512.6953125,-325.68359375,124.51171875,0.0
1734412896.3626726,-51.7578125,-607.421875,-430.17578125,125.48828125,0.0
1734412896.3665788,-30.2734375,-223.14453125,-193.84765625,154.78515625,0.0
1734412896.3704848,-22.94921875,-3.41796875,156.25,136.71875,0.0
1734412896.3743908,-29.296875,-282.2265625,-117.1875,105.46875,0.0
1734412896.3782969,-43.9453125,-145.5078125,-250.0,103.02734375,0.0
1734412896.3822029,-39.55078125,-28.3203125,-266.6015625,100.5859375,0.0
1734412896.3861089,-24.4140625,-190.91796875,-321.77734375,97.65625,0.0
1734412896.3900192,0.0,-185.546875,8.30078125,120.1171875,0.0
1734412896.3939252,0.0,17.08984375,133.30078125,125.48828125,0.0
1734412896.3978312,0.0,-217.7734375,-245.60546875,108.88671875,0.0
1734412896.4017375,0.0,-606.4453125,-451.171875,115.234375,0.0
1734412896.4056435,0.0,-667.48046875,-351.5625,143.5546875,0.0
1734412896.4095495,0.0,-260.7421875,31.25,139.6484375,0.0
1734412896.4134555,0.0,-173.33984375,24.4140625,100.5859375,0.0
1734412896.4173615,0.0,-558.10546875,-416.9921875,94.7265625,0.0
1734412896.4212675,0.0,-728.02734375,-448.73046875,110.83984375,0.0
1734412896.4251738,0.0,-58.10546875,-186.5234375,113.76953125,0.0
1734412896.4290798,0.0,211.42578125,108.88671875,132.32421875,0.0
1734412896.4329858,0.0,-93.75,93.75,101.5625,0.0
1734412896.436899,47.36328125,-126.953125,-108.3984375,60.546875,0.0
1734412896.440805,29.78515625,-291.9921875,-318.359375,82.03125,0.0
1734412896.4447112,-9.765625,-286.62109375,-363.76953125,111.328125,0.0
1734412896.4486172,22.94921875,-127.44140625,-83.0078125,121.09375,0.0
1734412896.4525232,36.1328125,62.98828125,148.4375,107.91015625,0.0
1734412896.4564292,25.390625,-124.0234375,-174.31640625,81.0546875,0.0
1734412896.4603353,-2.44140625,-528.80859375,-447.75390625,59.08203125,0.0
1734412896.4642413,-4.39453125,-877.44140625,-593.26171875,70.80078125,0.0
1734412896.4681475,26.85546875,-266.11328125,-115.234375,69.3359375,0.0
1734412896.4720535,27.34375,303.22265625,270.99609375,53.7109375,0.0
1734412896.4759595,-12.6953125,-5.859375,-63.96484375,74.21875,0.0
1734412896.4798656,-20.01953125,-222.16796875,-297.36328125,49.8046875,0.0
1734412896.4837747,5.37109375,-63.96484375,-314.94140625,46.38671875,0.0
1734412896.4876807,2.44140625,156.73828125,-62.5,60.546875,0.0
1734412896.491587,-0.48828125,8.7890625,162.109375,62.01171875,0.0
1734412896.495493,-8.30078125,-105.95703125,13.671875,45.41015625,0.0
1734412896.499399,-28.80859375,-5.37109375,-133.7890625,17.08984375,0.0
1734412896.503305,-33.203125,-289.55078125,-367.1875,32.2265625,0.0
1734412896.507211,-20.5078125,-546.875,-346.19140625,57.12890625,0.0
1734412896.511117,-18.5546875,-142.578125,168.45703125,44.921875,0.0
1734412896.515023,0.0,37.109375,83.984375,21.484375,0.0
1734412896.5189292,-19.04296875,-249.51171875,-280.2734375,25.87890625,0.0
1734412896.5228353,-42.96875,-741.69921875,-556.15234375,47.8515625,0.0
1734412896.5267413,0.9765625,-640.625,-301.26953125,33.203125,0.0
1734412896.5306501,-12.20703125,130.859375,284.1796875,25.390625,0.0
1734412896.5345562,-28.3203125,-88.8671875,93.75,21.484375,0.0
1734412896.5384624,-11.71875,-319.3359375,-183.10546875,15.13671875,0.0
1734412896.5423684,-28.80859375,-83.984375,-204.1015625,20.99609375,0.0
1734412896.5462744,-25.87890625,182.12890625,15.625,53.22265625,0.0
1734412896.5501804,5.37109375,-69.3359375,193.84765625,62.01171875,0.0
1734412896.5540864,-3.90625,-766.11328125,-223.14453125,19.04296875,0.0
1734412896.5579925,-52.734375,-337.40234375,-171.875,-4.39453125,0.0
1734412896.5618985,-51.7578125,93.26171875,45.8984375,13.18359375,0.0
1734412896.5658047,-18.06640625,-91.796875,-30.76171875,30.76171875,0.0
1734412896.5697107,-11.23046875,13.18359375,194.3359375,14.6484375,0.0
1734412896.5736167,-15.13671875,120.1171875,210.9375,-22.4609375,0.0
1734412896.5775251,-39.55078125,-73.73046875,13.18359375,-31.73828125,0.0
1734412896.5814312,-70.3125,-226.5625,-104.4921875,-22.4609375,0.0
1734412896.5853372,-63.4765625,-114.74609375,-86.42578125,19.04296875,0.0
1734412896.5892434,-42.96875,241.2109375,262.20703125,32.71484375,0.0
1734412896.5931494,-59.08203125,297.8515625,260.7421875,-19.53125,0.0
1734412896.5970554,-60.546875,-354.4921875,-213.8671875,-41.9921875,0.0
1734412896.6009614,-62.5,-772.4609375,-375.48828125,-19.53125,0.0
1734412896.6048675,-54.6875,-114.2578125,-128.41796875,-22.94921875,0.0
1734412896.6087735,-32.71484375,194.82421875,172.8515625,-7.8125,0.0
1734412896.6126797,-43.45703125,-213.37890625,89.35546875,4.8828125,0.0
1734412896.6165857,-65.91796875,-168.9453125,9.765625,-41.9921875,0.0
1734412896.6204917,-80.078125,21.484375,6.34765625,-46.38671875,0.0
1734412896.6244032,-66.40625,-130.859375,-232.421875,-7.8125,0.0
1734412896.6283092,-24.90234375,-431.15234375,-241.69921875,-0.48828125,0.0
1734412896.6322153,-25.390625,-228.02734375,100.09765625,-18.06640625,0.0
1734412896.6361213,-49.8046875,-138.671875,-94.7265625,-31.25,0.0
1734412896.6400275,-70.3125,-281.25,-305.6640625,-32.71484375,0.0
1734412896.6439335,-61.03515625,-632.32421875,-384.765625,-9.27734375,0.0
1734412896.6478395,-15.625,-387.6953125,-162.109375,2.9296875,0.0
