timestamps,TP9,AF7,AF8,TP10,Right AUX
1734413051.6390023,-45.8984375,-264.6484375,-168.9453125,-62.01171875,0.0
1734413051.6428945,-43.9453125,-180.6640625,-275.390625,-22.4609375,0.0
1734413051.6467867,-18.5546875,142.578125,18.5546875,-29.78515625,0.0
1734413051.6506786,-1.46484375,126.46484375,238.28125,-60.05859375,0.0
1734413051.6545708,-22.94921875,-368.65234375,-141.6015625,-66.40625,0.0
1734413051.658463,-62.01171875,-382.32421875,-262.20703125,-63.96484375,0.0
1734413051.662355,-62.98828125,-70.3125,-182.6171875,-31.25,0.0
1734413051.6662471,-29.296875,-278.3203125,-245.60546875,-5.37109375,0.0
1734413051.6701393,-15.13671875,-463.8671875,-2.44140625,-34.66796875,0.0
1734413051.6740313,-37.109375,46.875,203.61328125,-80.56640625,0.0
1734413051.6779234,-52.734375,206.54296875,109.375,-65.4296875,0.0
1734413051.682008,-42.48046875,-273.4375,-144.04296875,-28.3203125,0.0
1734413051.6859002,-11.23046875,-255.859375,-105.46875,-20.99609375,0.0
1734413051.6897922,-8.7890625,240.72265625,274.4140625,-47.36328125,0.0
1734413051.6936843,-23.4375,291.9921875,246.09375,-68.359375,0.0
1734413051.6975765,-28.3203125,-181.15234375,-111.328125,-49.8046875,0.0
1734413051.7014687,-26.85546875,-589.84375,-362.79296875,-20.5078125,0.0
1734413051.705361,-24.90234375,-472.16796875,-301.26953125,-37.59765625,0.0
1734413051.709253,-25.390625,-135.25390625,137.6953125,-49.31640625,0.0
1734413051.713145,-12.20703125,-503.41796875,-47.8515625,-42.96875,0.0
1734413051.7170372,-20.01953125,-702.1484375,-362.79296875,-46.875,0.0
1734413051.7209294,-38.0859375,-44.43359375,-11.23046875,-30.76171875,0.0
1734413051.7248216,-20.01953125,-74.21875,-89.35546875,-16.11328125,0.0
1734413051.7288988,-0.48828125,-99.609375,125.48828125,-43.45703125,0.0
1734413051.732791,-0.9765625,203.125,284.1796875,-58.59375,0.0
1734413051.7366831,-31.25,256.8359375,174.8046875,-60.05859375,0.0
1734413051.7405753,-46.875,-87.40234375,-54.6875,-51.7578125,0.0
1734413051.7444675,-44.921875,-304.6875,-278.80859375,-33.69140625,0.0
1734413051.7483597,-28.80859375,-222.65625,20.01953125,-41.50390625,0.0
1734413051.7522519,-27.83203125,-47.8515625,260.7421875,-62.98828125,0.0
1734413051.756144,-62.98828125,-102.5390625,-49.8046875,-73.73046875,0.0
1734413051.7600362,-59.08203125,-763.18359375,-437.5,-51.7578125,0.0
1734413051.7639284,-65.91796875,-459.9609375,-282.2265625,-60.05859375,0.0
1734413051.7678206,-66.40625,218.75,131.34765625,-72.75390625,0.0
1734413051.7717128,-47.8515625,39.55078125,145.99609375,-84.9609375,0.0
1734413051.7757754,-72.75390625,-131.8359375,-7.8125,-111.328125,0.0
1734413051.7796676,-100.5859375,15.13671875,-12.20703125,-93.75,0.0
1734413051.7835598,-84.9609375,-240.72265625,-335.9375,-55.6640625,0.0
1734413051.7874522,-68.359375,-400.390625,-267.08984375,-55.6640625,0.0
1734413051.7913444,-66.89453125,-89.35546875,141.6015625,-71.2890625,0.0
1734413051.7952366,-75.68359375,-157.2265625,-56.640625,-99.12109375,0.0
1734413051.7991288,-78.61328125,-437.5,-331.54296875,-102.5390625,0.0
1734413051.803021,-59.08203125,-830.56640625,-532.2265625,-53.7109375,0.0
1734413051.8069131,-50.78125,-698.2421875,-332.51953125,-58.59375,0.0
1734413051.8108053,-65.91796875,122.55859375,249.51171875,-105.95703125,0.0
1734413051.8146975,-65.4296875,148.92578125,100.5859375,-119.140625,0.0
1734413051.81859,-96.6796875,-258.7890625,-239.74609375,-106.93359375,0.0
1734413051.822635,-104.98046875,-232.91015625,-333.0078125,-73.2421875,0.0
1734413051.826527,-82.51953125,115.234375,-83.984375,-85.44921875,0.0
1734413051.8304195,-84.9609375,102.5390625,159.66796875,-107.421875,0.0
1734413051.8343117,-89.35546875,-71.2890625,94.23828125,-99.12109375,0.0
1734413051.838204,-99.12109375,-113.76953125,-62.01171875,-99.609375,0.0
1734413051.842096,-103.515625,-386.71875,-332.51953125,-89.35546875,0.0
1734413051.8459885,-92.7734375,-484.86328125,-393.5546875,-75.1953125,0.0
1734413051.8498807,-95.21484375,-680.6640625,-231.93359375,-83.0078125,0.0
1734413051.8537729,-110.3515625,-273.92578125,59.5703125,-126.953125,0.0
1734413051.857665,-108.88671875,138.18359375,44.921875,-146.484375,0.0
1734413051.8615575,-106.93359375,-301.26953125,-301.26953125,-103.02734375,0.0
1734413051.8654497,-116.69921875,-304.6875,-334.47265625,-112.79296875,0.0
1734413051.8695834,-141.6015625,168.45703125,151.3671875,-157.71484375,0.0
1734413051.8734758,-134.765625,250.9765625,222.65625,-157.71484375,0.0
1734413051.877368,-134.765625,-181.640625,-151.85546875,-151.3671875,0.0
1734413051.8812604,-134.27734375,-344.7265625,-301.26953125,-150.87890625,0.0
1734413051.8851526,-123.53515625,-83.49609375,-295.8984375,-130.37109375,0.0
1734413051.889045,-122.55859375,-37.109375,41.015625,-125.0,0.0
1734413051.8929372,-93.26171875,-547.8515625,-72.265625,-126.953125,0.0
1734413051.8968296,-117.1875,-756.8359375,-392.578125,-135.25390625,0.0
1734413051.9007218,-140.625,-173.33984375,-166.9921875,-127.44140625,0.0
1734413051.9046142,-108.88671875,-222.16796875,-306.640625,-89.84375,0.0
1734413051.9085064,-89.35546875,-147.94921875,20.01953125,-120.60546875,0.0
1734413051.9123988,-81.54296875,196.2890625,312.01171875,-147.4609375,0.0
1734413051.9164155,-88.37890625,285.15625,173.33984375,-139.6484375,0.0
1734413051.9203079,-91.30859375,6.34765625,34.66796875,-123.53515625,0.0
1734413051.9242,-101.07421875,-178.7109375,-81.0546875,-100.5859375,0.0
1734413051.9280925,-93.26171875,224.609375,244.62890625,-116.2109375,0.0
1734413051.931985,-78.61328125,461.9140625,392.08984375,-134.765625,0.0
1734413051.935877,-85.44921875,4.8828125,141.6015625,-151.3671875,0.0
1734413051.9397695,-93.26171875,-340.33203125,60.05859375,-135.25390625,0.0
1734413051.9436617,-77.1484375,68.84765625,223.14453125,-106.4453125,0.0
1734413051.947554,-51.26953125,530.2734375,400.87890625,-139.16015625,0.0
1734413051.9514463,-33.69140625,334.9609375,351.07421875,-156.73828125,0.0
1734413051.9553387,-44.921875,-266.6015625,229.4921875,-143.5546875,0.0
1734413051.9592311,-80.56640625,65.4296875,320.80078125,-145.5078125,0.0
1734413051.963233,-62.01171875,219.23828125,276.85546875,-112.3046875,0.0
1734413051.9671254,-31.73828125,89.84375,333.49609375,-99.609375,0.0
1734413051.9710176,-32.71484375,521.97265625,531.73828125,-127.9296875,0.0
1734413051.97491,-27.34375,860.83984375,550.78125,-149.90234375,0.0
1734413051.9788024,-10.7421875,752.44140625,487.79296875,-114.74609375,0.0
1734413051.9826946,22.94921875,379.8828125,474.609375,-75.1953125,0.0
1734413051.986587,46.875,381.34765625,545.41015625,-87.40234375,0.0
1734413051.9904795,30.76171875,740.234375,640.625,-108.88671875,0.0
1734413051.9943717,-14.6484375,956.0546875,607.91015625,-100.5859375,0.0
1734413051.998264,-43.45703125,266.6015625,397.4609375,-69.3359375,0.0
1734413052.0021565,-59.08203125,55.6640625,381.8359375,-86.9140625,0.0
1734413052.0060487,-58.10546875,823.2421875,553.7109375,-105.95703125,0.0
1734413052.0101423,-65.4296875,886.23046875,595.21484375,-136.23046875,0.0
1734413052.0140347,-72.265625,675.29296875,532.2265625,-164.55078125,0.0
1734413052.0179272,-80.56640625,686.03515625,478.02734375,-153.80859375,0.0
1734413052.0218196,-96.6796875,479.00390625,399.90234375,-138.671875,0.0
1734413052.025712,-114.74609375,272.4609375,398.4375,-155.76171875,0.0
1734413052.0296042,-113.76953125,257.8125,503.41796875,-174.31640625,0.0
1734413052.0334966,-125.0,433.10546875,498.046875,-223.14453125,0.0
1734413052.037389,-134.765625,730.95703125,478.515625,-267.578125,0.0
1734413052.0412815,-124.0234375,369.62890625,354.4921875,-203.61328125,0.0
1734413052.045174,-111.328125,-44.43359375,303.22265625,-166.9921875,0.0
1734413052.0490663,-99.609375,554.19921875,547.36328125,-200.68359375,0.0
1734413052.0529585,-104.98046875,923.33984375,552.734375,-220.703125,0.0
1734413052.0570414,-125.48828125,463.8671875,321.77734375,-207.51953125,0.0
1734413052.0609338,-126.46484375,235.83984375,280.76171875,-182.12890625,0.0
1734413052.0648263,-106.93359375,523.92578125,380.859375,-166.015625,0.0
1734413052.0687187,-73.2421875,699.21875,480.46875,-164.55078125,0.0
1734413052.072611,-68.359375,473.6328125,449.70703125,-181.640625,0.0
1734413052.0765035,-117.67578125,47.8515625,261.71875,-184.5703125,0.0
1734413052.080396,-124.51171875,-69.3359375,186.5234375,-165.52734375,0.0
1734413052.0842884,-97.65625,75.1953125,218.75,-158.69140625,0.0
1734413052.0881808,-85.44921875,-279.296875,198.73046875,-160.15625,0.0
1734413052.0920732,-93.26171875,-234.86328125,302.734375,-162.109375,0.0
1734413052.0959656,-106.93359375,530.76171875,388.671875,-190.91796875,0.0
1734413052.099858,-87.890625,389.6484375,206.54296875,-181.640625,0.0
1734413052.1039338,-89.35546875,167.48046875,171.38671875,-155.76171875,0.0
1734413052.1078262,-92.7734375,454.58984375,361.81640625,-146.484375,0.0
1734413052.1117187,-89.35546875,747.0703125,466.30859375,-168.9453125,0.0
1734413052.115611,-87.890625,468.26171875,270.5078125,-202.63671875,0.0
1734413052.1195037,-98.6328125,38.57421875,131.34765625,-194.82421875,0.0
1734413052.1233962,-89.35546875,-85.9375,108.88671875,-143.06640625,0.0
1734413052.1272886,-50.29296875,74.21875,246.58203125,-115.234375,0.0
1734413052.131181,-58.10546875,256.34765625,382.8125,-151.85546875,0.0
1734413052.1350734,-67.3828125,-243.1640625,78.125,-166.50390625,0.0
1734413052.1389658,-71.2890625,-200.68359375,56.15234375,-153.80859375,0.0
1734413052.1428583,-74.21875,97.65625,151.85546875,-135.7421875,0.0
1734413052.146751,-57.6171875,82.51953125,151.3671875,-130.859375,0.0
1734413052.150806,-68.359375,238.76953125,302.734375,-151.3671875,0.0
1734413052.1546984,-98.14453125,463.8671875,322.265625,-153.80859375,0.0
1734413052.158591,-107.421875,294.921875,192.87109375,-144.04296875,0.0
1734413052.1624835,-102.5390625,-50.29296875,-9.765625,-140.625,0.0
1734413052.1663759,-100.09765625,6.34765625,18.06640625,-130.37109375,0.0
1734413052.1702685,-107.421875,107.91015625,277.34375,-138.671875,0.0
1734413052.174161,-124.51171875,-17.578125,208.0078125,-168.9453125,0.0
1734413052.1780534,-135.7421875,-575.1953125,-257.8125,-173.828125,0.0
1734413052.1819458,-140.13671875,-746.58203125,-437.5,-153.80859375,0.0
1734413052.1858385,-148.4375,65.4296875,-7.8125,-137.6953125,0.0
1734413052.189731,-145.01953125,266.6015625,236.81640625,-167.96875,0.0
1734413052.1936233,-145.99609375,43.45703125,170.41015625,-223.14453125,0.0
1734413052.1976614,-170.41015625,-51.26953125,-61.03515625,-207.03125,0.0
1734413052.2015538,-177.734375,-243.65234375,-300.78125,-188.4765625,0.0
1734413052.2054465,-157.2265625,-296.38671875,-390.625,-175.29296875,0.0
1734413052.209339,-157.2265625,-170.41015625,-80.56640625,-178.22265625,0.0
1734413052.2132316,-175.78125,2.44140625,138.18359375,-203.61328125,0.0
1734413052.217124,-189.94140625,-308.10546875,-296.875,-206.0546875,0.0
1734413052.2210164,-197.265625,-767.578125,-595.21484375,-194.3359375,0.0
1734413052.224909,-212.40234375,-907.71484375,-656.25,-192.3828125,0.0
1734413052.2288015,-212.890625,-441.89453125,-264.6484375,-195.3125,0.0
1734413052.2326941,-218.75,26.85546875,-84.47265625,-198.2421875,0.0
1734413052.2365866,-233.88671875,-431.640625,-487.3046875,-201.66015625,0.0
1734413052.2404792,-240.72265625,-754.8828125,-632.32421875,-193.359375,0.0
1734413052.2445092,-252.44140625,-462.40234375,-577.1484375,-178.7109375,0.0
1734413052.2484019,-235.3515625,-329.58984375,-483.3984375,-200.1953125,0.0
1734413052.2522945,-236.81640625,-571.77734375,-450.1953125,-232.91015625,0.0
1734413052.256187,-253.41796875,-710.44921875,-610.3515625,-236.81640625,0.0
1734413052.2600796,-267.08984375,-802.734375,-734.86328125,-230.95703125,0.0
1734413052.263972,-271.484375,-1000.0,-781.73828125,-211.42578125,0.0
1734413052.2678647,-260.7421875,-1000.0,-816.89453125,-188.4765625,0.0
1734413052.2717571,-248.53515625,-951.66015625,-757.32421875,-198.2421875,0.0
1734413052.2756498,-274.4140625,-756.8359375,-704.1015625,-239.2578125,0.0
1734413052.2795422,-291.015625,-845.703125,-838.8671875,-242.67578125,0.0
1734413052.2834349,-298.828125,-1000.0,-895.5078125,-220.21484375,0.0
1734413052.2873273,-316.40625,-882.32421875,-807.6171875,-224.609375,0.0
1734413052.2913427,-318.359375,-763.671875,-733.88671875,-255.37109375,0.0
1734413052.2952354,-330.078125,-897.4609375,-878.41796875,-263.671875,0.0
1734413052.299128,-338.37890625,-1000.0,-984.375,-258.7890625,0.0
1734413052.3030205,-334.9609375,-995.1171875,-971.19140625,-256.8359375,0.0
1734413052.3069131,-332.03125,-998.53515625,-969.7265625,-251.953125,0.0
1734413052.3108058,-315.4296875,-1000.0,-977.5390625,-261.71875,0.0
1734413052.3146982,-346.6796875,-1000.0,-999.51171875,-260.7421875,0.0
1734413052.3185909,-379.8828125,-1000.0,-996.58203125,-260.25390625,0.0
1734413052.3224833,-368.1640625,-1000.0,-998.046875,-246.09375,0.0
1734413052.326376,-347.65625,-1000.0,-993.65234375,-235.3515625,0.0
1734413052.3302686,-338.8671875,-1000.0,-952.1484375,-257.8125,0.0
1734413052.334161,-346.19140625,-1000.0,-955.56640625,-277.34375,0.0
1734413052.3382719,-350.09765625,-1000.0,-991.69921875,-285.64453125,0.0
1734413052.3421645,-346.6796875,-1000.0,-987.79296875,-259.765625,0.0
1734413052.3460572,-327.63671875,-1000.0,-979.4921875,-244.62890625,0.0
1734413052.3499496,-294.921875,-987.3046875,-886.71875,-243.65234375,0.0
1734413052.3538423,-307.6171875,-984.375,-888.671875,-264.6484375,0.0
1734413052.357735,-322.265625,-993.1640625,-963.8671875,-251.953125,0.0
1734413052.3616276,-309.08203125,-1000.0,-952.1484375,-243.65234375,0.0
1734413052.3655202,-292.96875,-983.88671875,-890.13671875,-245.60546875,0.0
1734413052.3694127,-270.5078125,-755.859375,-713.8671875,-241.69921875,0.0
1734413052.3733053,-270.5078125,-771.97265625,-719.23828125,-256.34765625,0.0
1734413052.377198,-258.7890625,-937.98828125,-791.50390625,-264.6484375,0.0
1734413052.3810906,-245.1171875,-886.71875,-771.97265625,-257.8125,0.0
1734413052.3851893,-245.1171875,-721.6796875,-749.0234375,-241.2109375,0.0
1734413052.389082,-222.16796875,-628.41796875,-533.69140625,-227.5390625,0.0
1734413052.3929746,-229.00390625,-368.65234375,-388.671875,-212.40234375,0.0
1734413052.3968673,-238.28125,-212.890625,-492.1875,-216.30859375,0.0
1734413052.40076,-226.5625,-396.484375,-543.9453125,-214.35546875,0.0
1734413052.4046526,-210.44921875,-707.03125,-624.0234375,-210.44921875,0.0
1734413052.4085453,-186.03515625,-471.6796875,-316.40625,-210.44921875,0.0
1734413052.412438,-202.63671875,120.1171875,161.62109375,-227.5390625,0.0
1734413052.4163306,-207.03125,-79.1015625,-140.625,-242.1875,0.0
1734413052.4202232,-188.4765625,-718.75,-501.953125,-207.03125,0.0
1734413052.424116,-178.7109375,-319.82421875,-239.2578125,-190.91796875,0.0
1734413052.4280086,-164.0625,282.71484375,150.87890625,-202.1484375,0.0
1734413052.4320898,-154.296875,194.82421875,271.97265625,-193.84765625,0.0
1734413052.4359825,-163.57421875,72.75390625,169.921875,-207.03125,0.0
1734413052.4398754,-178.22265625,66.89453125,211.42578125,-209.9609375,0.0
1734413052.443768,-176.7578125,227.5390625,231.4453125,-180.17578125,0.0
1734413052.4476607,-162.59765625,210.9375,289.0625,-165.0390625,0.0
1734413052.4515533,-145.99609375,71.2890625,386.71875,-191.40625,0.0
1734413052.455446,-149.90234375,130.37109375,342.7734375,-222.65625,0.0
1734413052.4593387,-166.50390625,178.7109375,307.6171875,-200.68359375,0.0
1734413052.4632313,-145.99609375,-293.45703125,133.7890625,-160.64453125,0.0
1734413052.467124,-130.859375,-281.25,221.19140625,-145.99609375,0.0
1734413052.471017,-132.32421875,700.68359375,576.66015625,-169.43359375,0.0
1734413052.4749095,-130.859375,694.3359375,453.125,-172.8515625,0.0
1734413052.478979,-153.3203125,330.56640625,345.21484375,-161.62109375,0.0
1734413052.4828718,-145.5078125,410.15625,383.30078125,-149.90234375,0.0
1734413052.4867647,-110.83984375,684.08203125,449.70703125,-136.23046875,0.0
1734413052.4906573,-104.4921875,700.1953125,531.73828125,-133.30078125,0.0
1734413052.49455,-120.60546875,504.39453125,485.3515625,-134.27734375,0.0
1734413052.4984426,-112.79296875,331.0546875,375.0,-128.90625,0.0
1734413052.5023355,-98.6328125,174.31640625,338.37890625,-113.28125,0.0
1734413052.5062282,-91.796875,160.64453125,348.14453125,-100.09765625,0.0
1734413052.5101209,-93.75,-4.39453125,469.23828125,-116.69921875,0.0
1734413052.5140135,-104.4921875,397.94921875,558.59375,-165.0390625,0.0
1734413052.5179064,-130.37109375,791.50390625,490.234375,-152.83203125,0.0
1734413052.521799,-135.7421875,414.0625,346.19140625,-121.09375,0.0
1734413052.5258543,-107.91015625,358.3984375,374.0234375,-112.3046875,0.0
1734413052.5297472,-105.95703125,816.89453125,590.33203125,-130.37109375,0.0
1734413052.53364,-119.140625,880.859375,574.70703125,-155.2734375,0.0
1734413052.5375326,-103.515625,514.16015625,439.94140625,-150.87890625,0.0
1734413052.5414255,-88.8671875,392.578125,409.1796875,-126.46484375,0.0
1734413052.5453181,-110.83984375,327.63671875,387.20703125,-143.06640625,0.0
1734413052.549211,-120.60546875,403.80859375,509.27734375,-151.85546875,0.0
1734413052.5531037,-153.80859375,45.8984375,415.0390625,-152.34375,0.0
1734413052.5569963,-203.61328125,-377.44140625,269.53125,-166.015625,0.0
1734413052.5608892,-225.09765625,297.36328125,399.90234375,-158.203125,0.0
1734413052.564782,-225.5859375,519.04296875,351.5625,-168.45703125,0.0
1734413052.5686748,-221.19140625,431.15234375,443.359375,-192.87109375,0.0
1734413052.5727155,-227.5390625,620.1171875,529.78515625,-195.80078125,0.0
1734413052.5766082,-241.2109375,678.7109375,419.43359375,-194.82421875,0.0
1734413052.580501,-252.44140625,368.65234375,263.18359375,-182.12890625,0.0
1734413052.5843937,-254.8828125,77.63671875,180.17578125,-165.0390625,0.0
1734413052.5882866,-261.71875,326.171875,333.0078125,-165.0390625,0.0
1734413052.5921793,-262.6953125,247.0703125,371.58203125,-184.08203125,0.0
1734413052.5960722,-283.203125,-155.2734375,175.29296875,-194.3359375,0.0
1734413052.5999649,-295.8984375,-623.046875,-164.0625,-195.3125,0.0
1734413052.6038578,-297.36328125,-403.3203125,-190.4296875,-213.8671875,0.0
1734413052.6077504,-302.24609375,203.61328125,121.09375,-205.078125,0.0
1734413052.6116433,-304.19921875,60.05859375,188.96484375,-199.70703125,0.0
1734413052.615536,-307.6171875,-252.44140625,-28.3203125,-215.8203125,0.0
1734413052.6195664,-327.1484375,-234.86328125,-202.1484375,-210.9375,0.0
1734413052.6234593,-321.2890625,-79.1015625,-277.34375,-189.453125,0.0
1734413052.627352,-281.73828125,-168.45703125,-248.046875,-175.29296875,0.0
1734413052.631245,-277.83203125,-49.8046875,127.9296875,-173.33984375,0.0
1734413052.6351378,-303.7109375,115.234375,182.6171875,-191.89453125,0.0
1734413052.6390305,-276.3671875,-209.47265625,-179.6875,-185.546875,0.0
1734413052.6429234,-244.140625,-775.390625,-503.90625,-155.2734375,0.0
1734413052.6468163,-266.11328125,-723.6328125,-361.328125,-152.83203125,0.0
1734413052.650709,-261.71875,141.6015625,278.3203125,-161.1328125,0.0
1734413052.6546018,-245.60546875,289.0625,273.92578125,-184.08203125,0.0
1734413052.6584947,-247.0703125,-20.5078125,104.00390625,-173.828125,0.0
1734413052.6623874,-237.79296875,4.8828125,149.4140625,-147.94921875,0.0
1734413052.6663954,-208.984375,282.2265625,234.375,-131.34765625,0.0
1734413052.6702883,-178.22265625,421.875,390.13671875,-119.140625,0.0
1734413052.674181,-185.546875,205.56640625,362.79296875,-135.25390625,0.0
1734413052.678074,-205.078125,151.85546875,326.171875,-134.765625,0.0
1734413052.6819668,-197.265625,369.140625,361.81640625,-134.765625,0.0
1734413052.6858594,-172.36328125,214.35546875,329.58984375,-109.375,0.0
1734413052.6897523,-137.6953125,-188.96484375,431.15234375,-76.66015625,0.0
1734413052.6936452,-136.23046875,262.6953125,572.75390625,-107.91015625,0.0
1734413052.6975381,-162.59765625,892.578125,584.9609375,-124.0234375,0.0
1734413052.7014308,-144.04296875,623.046875,494.140625,-77.1484375,0.0
1734413052.7053237,-109.86328125,562.5,517.08984375,-67.87109375,0.0
1734413052.7092166,-126.46484375,959.47265625,708.984375,-99.609375,0.0
1734413052.7133276,0.0,-996.58203125,751.46484375,-95.21484375,0.0
1734413052.7172203,0.0,765.13671875,597.16796875,-76.66015625,0.0
1734413052.7211132,0.0,729.4921875,590.8203125,-65.91796875,0.0
1734413052.725006,0.0,943.359375,639.16015625,-40.0390625,0.0
1734413052.728899,0.0,998.53515625,711.9140625,-37.59765625,0.0
1734413052.732792,0.0,568.84765625,653.80859375,-29.78515625,0.0
1734413052.7366848,0.0,339.84375,561.5234375,-48.33984375,0.0
1734413052.7405777,0.0,575.68359375,603.515625,-37.109375,0.0
1734413052.7444706,0.0,565.4296875,595.21484375,13.671875,0.0
1734413052.7483635,0.0,520.5078125,632.8125,-6.8359375,0.0
1734413052.7522564,0.0,760.7421875,758.7890625,-37.109375,0.0
1734413052.7561493,0.0,-981.4453125,721.19140625,-48.828125,0.0
1734413052.7602403,-62.01171875,882.32421875,596.19140625,-31.25,0.0
1734413052.7641332,-67.3828125,599.12109375,559.5703125,0.0,0.0
1734413052.768026,-41.50390625,762.6953125,638.18359375,-4.8828125,0.0
1734413052.771919,-54.19921875,-987.79296875,703.61328125,-22.4609375,0.0
1734413052.775812,-71.2890625,801.7578125,593.75,-29.296875,0.0
1734413052.7797048,-79.1015625,285.64453125,466.30859375,-2.9296875,0.0
1734413052.7835977,-85.9375,187.01171875,435.546875,24.4140625,0.0
1734413052.7874906,-68.84765625,633.30078125,510.7421875,11.23046875,0.0
1734413052.7913835,-59.5703125,560.05859375,528.80859375,1.953125,0.0
1734413052.7952764,-79.1015625,-309.5703125,349.609375,2.9296875,0.0
1734413052.7991693,-116.69921875,-104.00390625,351.5625,-11.23046875,0.0
1734413052.8030624,-111.328125,423.33984375,362.79296875,3.41796875,0.0
1734413052.807138,-89.35546875,158.69140625,233.3984375,40.52734375,0.0
1734413052.8110309,-91.30859375,57.12890625,340.33203125,19.53125,0.0
1734413052.8149238,-111.328125,248.046875,348.6328125,-63.96484375,0.0
1734413052.818817,-122.55859375,262.20703125,229.00390625,-75.68359375,0.0
1734413052.8227098,-117.1875,-200.68359375,-21.484375,-21.97265625,0.0
1734413052.8266027,-119.140625,-489.2578125,-308.59375,-10.25390625,0.0
1734413052.8304956,-116.69921875,-357.421875,-12.6953125,-11.23046875,0.0
1734413052.8343887,-123.046875,-303.7109375,117.67578125,-50.29296875,0.0
1734413052.8382816,-128.90625,-685.05859375,-420.8984375,-40.52734375,0.0
1734413052.8421745,-143.06640625,-833.984375,-565.4296875,-17.578125,0.0
1734413052.8460674,-152.34375,-275.390625,-356.4453125,-23.92578125,0.0
1734413052.8499603,-149.90234375,-127.44140625,-249.0234375,-24.4140625,0.0
1734413052.854026,-163.57421875,-515.13671875,-324.21875,-73.73046875,0.0
1734413052.8579192,-177.734375,-599.12109375,-518.5546875,-98.6328125,0.0
1734413052.861812,-200.68359375,-400.390625,-505.37109375,-98.14453125,0.0
1734413052.8657053,-203.61328125,-576.66015625,-609.375,-88.8671875,0.0
1734413052.8695982,-196.77734375,-680.6640625,-552.24609375,-93.26171875,0.0
1734413052.873491,-206.54296875,-656.25,-492.67578125,-94.7265625,0.0
1734413052.8773842,-228.02734375,-852.5390625,-653.80859375,-116.2109375,0.0
1734413052.881277,-249.0234375,-990.234375,-814.94140625,-123.53515625,0.0
1734413052.88517,-255.859375,-997.55859375,-907.71484375,-85.9375,0.0
1734413052.8890631,-250.0,-787.109375,-697.75390625,-60.05859375,0.0
1734413052.892956,-253.90625,-589.84375,-628.90625,-129.39453125,0.0
1734413052.896849,-258.7890625,-818.359375,-817.87109375,-190.91796875,0.0
1734413052.9009018,-271.484375,-1000.0,-887.6953125,-133.7890625,0.0
1734413052.9047947,-276.3671875,-987.79296875,-902.83203125,-123.53515625,0.0
1734413052.9086878,-275.87890625,-972.16796875,-879.39453125,-113.76953125,0.0
1734413052.9125807,-272.4609375,-985.83984375,-884.27734375,-131.34765625,0.0
1734413052.9164739,-290.52734375,-1000.0,-977.5390625,-194.82421875,0.0
1734413052.9203668,-323.2421875,-999.51171875,-993.65234375,-198.2421875,0.0
1734413052.92426,-331.54296875,-1000.0,-990.72265625,-172.8515625,0.0
1734413052.9281528,-323.73046875,-1000.0,-1000.0,-143.5546875,0.0
1734413052.932046,-324.21875,-1000.0,-993.1640625,-167.96875,0.0
1734413052.9359388,-345.703125,-1000.0,-986.81640625,-222.16796875,0.0
1734413052.939832,-377.44140625,-1000.0,-1000.0,-223.6328125,0.0
1734413052.9437249,-390.625,-1000.0,-1000.0,-209.47265625,0.0
1734413052.9478583,-353.02734375,-1000.0,-998.046875,-177.24609375,0.0
1734413052.9517515,-326.66015625,-1000.0,-982.91015625,-196.2890625,0.0
1734413052.9556444,-337.890625,-1000.0,-988.76953125,-203.125,0.0
1734413052.9595375,-339.35546875,-1000.0,-995.1171875,-204.58984375,0.0
1734413052.9634306,-341.30859375,-1000.0,-995.1171875,-190.4296875,0.0
1734413052.9673235,-312.01171875,-1000.0,-985.83984375,-141.11328125,0.0
1734413052.9712167,-277.83203125,-1000.0,-968.75,-161.1328125,0.0
1734413052.9751098,-269.53125,-995.1171875,-977.05078125,-196.2890625,0.0
1734413052.9790027,-287.109375,-995.1171875,-933.10546875,-194.82421875,0.0
1734413052.9828959,-280.2734375,-963.37890625,-889.6484375,-188.96484375,0.0
1734413052.986789,-232.421875,-982.421875,-916.9921875,-148.92578125,0.0
1734413052.9906821,-226.5625,-865.234375,-766.11328125,-110.3515625,0.0
1734413052.9948025,-227.05078125,-589.84375,-634.765625,-166.9921875,0.0
1734413052.9986956,-212.40234375,-582.51953125,-746.58203125,-198.2421875,0.0
1734413053.0025887,-212.40234375,-847.65625,-768.06640625,-135.7421875,0.0
1734413053.0064816,-188.4765625,-757.32421875,-692.3828125,-106.93359375,0.0
1734413053.0103748,-157.71484375,-450.68359375,-519.04296875,-124.0234375,0.0
1734413053.014268,-149.90234375,-563.96484375,-513.18359375,-147.4609375,0.0
1734413053.018161,-154.78515625,-803.7109375,-643.06640625,-156.73828125,0.0
1734413053.0220542,-170.41015625,-927.24609375,-617.67578125,-119.62890625,0.0
1734413053.0259473,-153.80859375,-611.328125,-550.29296875,-79.1015625,0.0
1734413053.0298405,-114.74609375,-123.046875,-317.87109375,-106.4453125,0.0
1734413053.0337334,-95.703125,-592.7734375,-411.1328125,-122.55859375,0.0
1734413053.0376265,-110.83984375,-749.0234375,-530.2734375,-124.51171875,0.0
1734413053.04164,-120.60546875,-123.046875,-306.640625,-105.46875,0.0
1734413053.0455332,-110.83984375,-136.23046875,-361.328125,-58.59375,0.0
1734413053.0494263,-71.77734375,-215.8203125,-217.7734375,-97.65625,0.0
1734413053.0533195,-61.03515625,111.81640625,171.875,-107.91015625,0.0
1734413053.0572126,-89.35546875,274.4140625,154.296875,-112.79296875,0.0
1734413053.0611057,-117.67578125,-198.73046875,-221.19140625,-130.859375,0.0
1734413053.0649989,-96.19140625,-438.4765625,-318.359375,-92.7734375,0.0
1734413053.068892,-79.1015625,42.96875,106.4453125,-80.078125,0.0
1734413053.0727851,-83.0078125,417.48046875,362.79296875,-119.140625,0.0
1734413053.0766783,-97.16796875,124.51171875,78.61328125,-130.859375,0.0
1734413053.0805714,-115.234375,-599.609375,-320.3125,-134.765625,0.0
1734413053.0844646,-123.53515625,-251.46484375,-116.2109375,-108.3984375,0.0
1734413053.0885608,-113.76953125,311.5234375,167.48046875,-77.63671875,0.0
1734413053.092454,-91.30859375,74.21875,171.38671875,-111.81640625,0.0
1734413053.0963473,-96.6796875,47.36328125,128.41796875,-113.28125,0.0
1734413053.1002405,-100.09765625,260.25390625,150.87890625,-91.796875,0.0
1734413053.1041336,-122.0703125,176.26953125,108.3984375,-102.5390625,0.0
1734413053.1080267,-86.9140625,-295.8984375,-165.52734375,-86.42578125,0.0
1734413053.1119199,-37.59765625,-404.296875,-19.04296875,-66.40625,0.0
1734413053.115813,-68.359375,18.06640625,222.65625,-87.890625,0.0
1734413053.1197062,-104.00390625,166.015625,138.18359375,-74.21875,0.0
1734413053.1235993,-109.375,-191.40625,-58.10546875,-68.84765625,0.0
1734413053.1274927,-94.23828125,-153.80859375,-31.25,-57.12890625,0.0
1734413053.1313858,-70.80078125,417.96875,331.54296875,-50.78125,0.0
1734413053.1354692,-82.51953125,371.09375,236.81640625,-115.234375,0.0
1734413053.1393626,-101.07421875,80.078125,90.33203125,-111.81640625,0.0
1734413053.1432557,-112.79296875,70.80078125,127.9296875,-78.61328125,0.0
1734413053.1471488,-104.98046875,239.2578125,136.23046875,-79.58984375,0.0
1734413053.151042,-82.03125,248.046875,270.5078125,-85.44921875,0.0
1734413053.1549354,-77.1484375,2.44140625,221.19140625,-102.05078125,0.0
1734413053.1588285,-113.28125,-171.38671875,62.5,-136.71875,0.0
1734413053.1627216,-138.18359375,57.12890625,168.45703125,-125.0,0.0
1734413053.166615,-114.2578125,70.3125,98.14453125,-82.03125,0.0
1734413053.1705081,-107.421875,-214.84375,108.3984375,-66.40625,0.0
1734413053.1744013,-117.67578125,230.95703125,339.84375,-134.765625,0.0
1734413053.1782944,-123.53515625,530.2734375,279.78515625,-163.0859375,0.0
1734413053.1823626,-134.27734375,-40.0390625,-9.27734375,-131.8359375,0.0
1734413053.1862557,-132.8125,-467.7734375,-112.79296875,-100.09765625,0.0
1734413053.190149,-104.4921875,207.03125,316.89453125,-92.28515625,0.0
1734413053.1940422,-99.12109375,558.10546875,395.01953125,-124.51171875,0.0
1734413053.1979353,-126.46484375,172.36328125,150.390625,-144.53125,0.0
1734413053.2018287,-133.30078125,-272.4609375,23.92578125,-112.3046875,0.0
1734413053.2057219,-116.69921875,-249.51171875,64.453125,-107.91015625,0.0
1734413053.2096152,-82.03125,18.5546875,249.51171875,-130.37109375,0.0
1734413053.2135084,-79.58984375,-357.91015625,134.765625,-112.79296875,0.0
1734413053.2174017,-118.65234375,-497.55859375,-20.99609375,-130.859375,0.0
1734413053.2212949,-144.53125,229.00390625,228.02734375,-139.16015625,0.0
1734413053.225188,-136.71875,241.69921875,150.390625,-119.62890625,0.0
1734413053.2292435,-108.88671875,98.14453125,194.82421875,-115.234375,0.0
1734413053.2331367,-105.46875,275.390625,386.71875,-139.16015625,0.0
1734413053.23703,-132.32421875,416.9921875,297.8515625,-166.50390625,0.0
1734413053.2409232,-144.53125,215.33203125,155.76171875,-132.32421875,0.0
1734413053.2448165,-144.04296875,-27.83203125,113.76953125,-99.609375,0.0
1734413053.2487097,-121.58203125,-45.8984375,165.52734375,-96.19140625,0.0
1734413053.252603,-102.5390625,109.375,332.51953125,-109.86328125,0.0
1734413053.2564962,-105.95703125,184.08203125,187.5,-127.9296875,0.0
1734413053.2603896,-126.953125,-466.30859375,-229.98046875,-128.41796875,0.0
1734413053.2642827,-142.08984375,-244.140625,-12.20703125,-121.09375,0.0
1734413053.268176,-125.0,353.02734375,211.9140625,-116.69921875,0.0
1734413053.2720695,-107.421875,65.91796875,184.5703125,-125.48828125,0.0
1734413053.2761223,-135.7421875,63.4765625,170.8984375,-135.7421875,0.0
1734413053.2800155,-156.25,263.18359375,126.46484375,-145.99609375,0.0
1734413053.2839088,-153.3203125,146.484375,62.5,-112.3046875,0.0
1734413053.2878022,-144.04296875,-124.51171875,-146.484375,-96.6796875,0.0
1734413053.2916954,-125.9765625,-54.6875,67.87109375,-102.5390625,0.0
1734413053.2955887,-122.0703125,-63.96484375,58.59375,-136.71875,0.0
1734413053.299482,-136.23046875,-330.078125,-312.01171875,-150.87890625,0.0
1734413053.3033752,-167.96875,-731.4453125,-504.8828125,-101.5625,0.0
1734413053.3072686,-178.7109375,-757.8125,-562.01171875,-88.8671875,0.0
1734413053.311162,-160.64453125,53.7109375,-16.6015625,-123.046875,0.0
1734413053.3150551,-142.578125,182.12890625,104.00390625,-133.7890625,0.0
1734413053.3189485,-163.57421875,-200.1953125,-319.3359375,-149.4140625,0.0
1734413053.3229814,-187.01171875,-206.0546875,-372.55859375,-135.25390625,0.0
1734413053.3268747,-160.15625,-34.66796875,-352.05078125,-88.37890625,0.0
1734413053.330768,-128.90625,-159.1796875,-294.43359375,-95.21484375,0.0
1734413053.3346612,-130.859375,-247.0703125,-202.63671875,-127.44140625,0.0
1734413053.3385546,-151.3671875,-114.74609375,-346.6796875,-137.20703125,0.0
1734413053.342448,-165.0390625,-386.23046875,-478.515625,-126.46484375,0.0
1734413053.3463414,-153.80859375,-631.8359375,-550.29296875,-76.171875,0.0
1734413053.3502347,-134.765625,-802.24609375,-480.95703125,-78.61328125,0.0
1734413053.354128,-135.7421875,-394.53125,-64.94140625,-143.5546875,0.0
1734413053.3580213,-139.16015625,121.09375,-179.19921875,-163.57421875,0.0
1734413053.3619146,-149.4140625,-254.8828125,-491.69921875,-132.32421875,0.0
1734413053.365808,-150.390625,-478.02734375,-524.4140625,-101.07421875,0.0
1734413053.3698313,-145.01953125,-127.9296875,-336.9140625,-109.375,0.0
1734413053.3737245,-133.30078125,86.9140625,-95.703125,-140.625,0.0
1734413053.3776178,-118.1640625,-219.23828125,-281.73828125,-137.20703125,0.0
1734413053.3815112,-157.2265625,-389.6484375,-438.96484375,-136.71875,0.0
1734413053.3854046,-175.29296875,-287.59765625,-453.125,-113.28125,0.0
1734413053.389298,-136.71875,-382.8125,-413.0859375,-93.26171875,0.0
1734413053.3931913,-111.328125,-660.15625,-425.29296875,-123.53515625,0.0
1734413053.3970847,-111.81640625,-920.8984375,-605.95703125,-146.97265625,0.0
1734413053.400978,-143.5546875,-502.9296875,-450.68359375,-129.39453125,0.0
1734413053.4048712,-155.2734375,-243.65234375,-446.2890625,-79.58984375,0.0
1734413053.4087646,-135.25390625,-352.05078125,-485.3515625,-96.19140625,0.0
1734413053.412658,-115.234375,-113.28125,-87.40234375,-147.94921875,0.0
1734413053.4166653,0.0,102.5390625,-129.8828125,-153.80859375,0.0
1734413053.4205587,0.0,-140.625,-450.1953125,-135.25390625,0.0
1734413053.424452,0.0,-459.47265625,-467.7734375,-101.07421875,0.0
1734413053.4283454,0.0,-267.08984375,-435.546875,-86.9140625,0.0
1734413053.4322388,0.0,44.921875,-186.03515625,-115.234375,0.0
1734413053.4361322,0.0,-279.296875,-365.72265625,-155.76171875,0.0
1734413053.4400256,0.0,-825.1953125,-666.50390625,-171.38671875,0.0
1734413053.443919,0.0,-662.59765625,-516.11328125,-154.296875,0.0
1734413053.4478123,0.0,-357.91015625,-514.16015625,-141.11328125,0.0
1734413053.4517057,0.0,-493.1640625,-500.9765625,-165.0390625,0.0
1734413053.455599,0.0,-421.38671875,-494.140625,-215.33203125,0.0
1734413053.4594924,0.0,-212.890625,-547.8515625,-236.328125,0.0
1734413053.4635828,-113.76953125,-278.80859375,-577.63671875,-195.3125,0.0
1734413053.4674761,-99.609375,-522.4609375,-612.3046875,-147.4609375,0.0
1734413053.4713695,-71.77734375,-388.671875,-424.8046875,-161.62109375,0.0
1734413053.4752629,-67.87109375,-2.9296875,-343.26171875,-212.890625,0.0
1734413053.4791563,-46.38671875,-150.390625,-548.33984375,-198.2421875,0.0
1734413053.4830496,-70.3125,-707.51953125,-690.91796875,-146.484375,0.0
1734413053.486943,-71.77734375,-911.62109375,-677.734375,-124.51171875,0.0
1734413053.4908366,-35.15625,-487.3046875,-370.60546875,-129.39453125,0.0
1734413053.49473,-44.921875,-105.46875,-268.06640625,-168.9453125,0.0
1734413053.4986234,-52.734375,-458.49609375,-520.5078125,-161.62109375,0.0
1734413053.5025167,-70.80078125,-506.8359375,-438.96484375,-115.72265625,0.0
1734413053.5064101,-83.49609375,-83.984375,-423.828125,-92.28515625,0.0
1734413053.5104945,-31.25,-233.88671875,-390.625,-83.984375,0.0
1734413053.5143878,-14.16015625,-238.28125,-213.37890625,-93.75,0.0
1734413053.5182815,-35.64453125,-36.1328125,-307.6171875,-103.515625,0.0
1734413053.5221748,-61.5234375,19.04296875,-353.02734375,-85.9375,0.0
1734413053.5260682,-69.3359375,-179.19921875,-410.15625,-43.45703125,0.0
1734413053.5299616,-40.0390625,-446.77734375,-432.6171875,-47.8515625,0.0
1734413053.5338552,-36.1328125,-305.17578125,-168.9453125,-60.546875,0.0
1734413053.5377486,-51.26953125,75.1953125,-124.51171875,-64.94140625,0.0
1734413053.541642,-69.3359375,-122.55859375,-390.13671875,-55.6640625,0.0
1734413053.5455356,-54.6875,-778.3203125,-555.17578125,-12.20703125,0.0
1734413053.549429,-52.734375,-329.1015625,-233.3984375,-29.78515625,0.0
1734413053.5533223,-62.01171875,324.21875,184.5703125,-60.546875,0.0
1734413053.5573912,-48.828125,-15.13671875,-67.3828125,-70.3125,0.0
1734413053.5612845,-59.08203125,-248.046875,-359.86328125,-52.734375,0.0
1734413053.5651782,-73.73046875,-51.7578125,-289.0625,-6.34765625,0.0
1734413053.5690715,-64.453125,-118.65234375,-292.48046875,-13.671875,0.0
1734413053.572965,-42.48046875,-271.484375,-87.40234375,-24.4140625,0.0
1734413053.5768585,-44.921875,-358.88671875,-190.4296875,-30.76171875,0.0
1734413053.580752,-69.82421875,-404.78515625,-387.6953125,-52.24609375,0.0
1734413053.5846455,-86.9140625,-415.52734375,-346.19140625,-26.3671875,0.0
1734413053.588539,-56.15234375,-750.0,-513.18359375,16.11328125,0.0
1734413053.5924325,-24.90234375,-620.1171875,-190.4296875,-8.30078125,0.0
1734413053.5963259,-55.6640625,155.76171875,171.875,-56.15234375,0.0
1734413053.6002192,-65.91796875,111.81640625,-176.7578125,-46.38671875,0.0
1734413053.6043773,-65.91796875,-233.88671875,-362.3046875,-3.41796875,0.0
1734413053.6082706,-64.453125,-98.14453125,-311.03515625,18.5546875,0.0
1734413053.6121643,-46.38671875,257.32421875,74.21875,-16.11328125,0.0
1734413053.6160576,-30.76171875,143.5546875,129.39453125,-49.8046875,0.0
1734413053.6199512,-62.01171875,-210.44921875,-288.57421875,-47.36328125,0.0
1734413053.6238449,-68.84765625,-463.37890625,-410.15625,-18.5546875,0.0
1734413053.6277382,-61.5234375,-452.1484375,-389.6484375,6.8359375,0.0
1734413053.6316319,-64.453125,-232.421875,-168.9453125,-6.34765625,0.0
1734413053.6355255,-40.52734375,-578.125,-187.01171875,-50.29296875,0.0
1734413053.6394188,-63.96484375,-367.67578125,-309.5703125,-72.75390625,0.0
1734413053.6433125,-94.7265625,59.08203125,-245.60546875,-27.34375,0.0
1734413053.6472058,-87.890625,-244.62890625,-405.2734375,-0.48828125,0.0
1734413053.6512508,-48.33984375,-147.4609375,-146.484375,-38.57421875,0.0
1734413053.6551445,-62.98828125,130.859375,210.9375,-67.87109375,0.0
1734413053.659038,-84.47265625,75.68359375,-86.42578125,-65.91796875,0.0
1734413053.6629314,-87.890625,-237.3046875,-311.5234375,-54.6875,0.0
1734413053.666825,-101.07421875,-355.95703125,-355.95703125,-12.20703125,0.0
1734413053.6707187,-65.91796875,-199.70703125,-256.8359375,-10.7421875,0.0
1734413053.674612,-49.31640625,-188.96484375,10.25390625,-48.33984375,0.0
1734413053.6785057,-38.57421875,-416.50390625,-212.890625,-69.82421875,0.0
1734413053.6823993,-65.91796875,-333.0078125,-338.37890625,-75.1953125,0.0
1734413053.686293,-85.9375,-148.4375,-345.703125,-53.22265625,0.0
1734413053.6901863,-78.61328125,-123.046875,-207.03125,-52.734375,0.0
1734413053.6940799,-68.359375,-500.0,-154.78515625,-59.08203125,0.0
1734413053.698109,-52.734375,-594.7265625,-352.05078125,-80.078125,0.0
1734413053.7020025,-80.078125,71.77734375,-202.1484375,-83.0078125,0.0
1734413053.7058961,-91.30859375,-62.98828125,-303.22265625,-44.921875,0.0
1734413053.7097898,-60.05859375,-112.3046875,-205.56640625,-50.78125,0.0
1734413053.7136834,-50.29296875,203.61328125,172.8515625,-87.40234375,0.0
1734413053.717577,-56.640625,35.64453125,-26.85546875,-83.0078125,0.0
1734413053.7214706,-62.01171875,-312.98828125,-354.4921875,-78.61328125,0.0
1734413053.725364,-83.0078125,-711.9140625,-449.70703125,-38.57421875,0.0
1734413053.7292576,-70.3125,-302.24609375,-109.375,-40.0390625,0.0
1734413053.7331512,-42.96875,434.08203125,307.12890625,-77.1484375,0.0
1734413053.7370448,-62.98828125,165.52734375,74.21875,-69.3359375,0.0
1734413053.7409384,-85.44921875,-100.5859375,-164.55078125,-75.68359375,0.0
1734413053.7449605,-86.42578125,73.73046875,-37.59765625,-46.875,0.0
1734413053.7488542,-76.171875,-8.7890625,-69.3359375,-35.15625,0.0
1734413053.7527478,-45.41015625,-104.98046875,83.0078125,-64.94140625,0.0
1734413053.7566414,-42.96875,116.2109375,201.171875,-73.2421875,0.0
1734413053.760535,-66.89453125,198.73046875,110.3515625,-87.40234375,0.0
1734413053.7644286,-77.63671875,-87.890625,8.7890625,-56.640625,0.0
1734413053.7683222,-44.921875,-617.1875,-322.265625,-18.06640625,0.0
1734413053.7722158,-48.33984375,-659.1796875,-108.3984375,-44.921875,0.0
1734413053.7761092,-78.125,216.30859375,348.14453125,-89.84375,0.0
1734413053.7800028,-75.1953125,361.81640625,185.546875,-76.66015625,0.0
1734413053.7838964,-84.47265625,-47.36328125,19.04296875,-41.015625,0.0
1734413053.78779,-71.77734375,45.41015625,69.82421875,-15.625,0.0
1734413053.7917945,-61.03515625,434.08203125,337.40234375,-41.50390625,0.0
1734413053.7956882,-62.5,355.46875,283.69140625,-62.01171875,0.0
1734413053.7995818,-58.10546875,36.62109375,106.4453125,-69.3359375,0.0
1734413053.8034754,-67.3828125,59.08203125,151.3671875,-60.05859375,0.0
1734413053.807369,-83.49609375,-14.16015625,96.19140625,-21.484375,0.0
1734413053.8112626,-60.546875,-86.9140625,210.9375,-10.25390625,0.0
1734413053.8151562,-40.52734375,-441.40625,108.3984375,-43.9453125,0.0
1734413053.8190498,-82.03125,-246.09375,65.4296875,-64.94140625,0.0
1734413053.8229434,-92.7734375,259.765625,212.40234375,-30.76171875,0.0
1734413053.826837,-67.87109375,-11.71875,66.40625,-10.7421875,0.0
1734413053.8307307,-57.6171875,22.4609375,193.359375,-15.13671875,0.0
1734413053.8346243,-73.73046875,396.97265625,339.84375,-62.01171875,0.0
1734413053.8386216,-78.125,388.18359375,210.9375,-90.8203125,0.0
1734413053.8425152,-87.890625,-93.26171875,0.0,-73.2421875,0.0
1734413053.8464088,-96.6796875,-243.1640625,-63.96484375,-35.64453125,0.0
1734413053.8503025,-67.87109375,165.0390625,170.8984375,-24.90234375,0.0
1734413053.854196,-44.43359375,288.57421875,271.484375,-70.3125,0.0
1734413053.8580897,-65.4296875,-325.1953125,-108.3984375,-91.30859375,0.0
1734413053.8619833,-113.28125,-781.25,-397.94921875,-67.87109375,0.0
1734413053.865877,-132.32421875,-506.8359375,-325.1953125,-55.6640625,0.0
1734413053.8697708,-118.65234375,-322.265625,-247.0703125,-48.828125,0.0
1734413053.8736644,-113.28125,-269.53125,45.8984375,-85.44921875,0.0
1734413053.877558,-97.16796875,-67.87109375,113.28125,-100.5859375,0.0
1734413053.8814516,-129.8828125,93.26171875,0.48828125,-95.703125,0.0
1734413053.8855352,-163.57421875,-97.16796875,-201.171875,-85.9375,0.0
1734413053.8894289,-145.5078125,-241.69921875,-301.26953125,-65.91796875,0.0
1734413053.8933225,-121.09375,5.37109375,87.890625,-104.98046875,0.0
1734413053.897216,-118.1640625,219.23828125,190.4296875,-133.7890625,0.0
1734413053.90111,-146.484375,-95.703125,-174.31640625,-104.4921875,0.0
1734413053.9050035,-149.90234375,-647.94921875,-427.24609375,-67.87109375,0.0
1734413053.9088972,-147.94921875,-467.28515625,-329.1015625,-89.35546875,0.0
1734413053.9127908,-137.20703125,148.92578125,145.99609375,-115.234375,0.0
1734413053.9166846,-126.46484375,-8.30078125,44.43359375,-127.44140625,0.0
1734413053.9205782,-134.27734375,-574.21875,-388.18359375,-118.65234375,0.0
1734413053.9244719,-139.16015625,-472.65625,-344.23828125,-77.63671875,0.0
1734413053.9283655,-125.0,-211.9140625,-322.265625,-55.6640625,0.0
1734413053.9324307,-107.91015625,-178.22265625,-82.03125,-85.44921875,0.0
1734413053.9363244,-124.51171875,-149.90234375,81.54296875,-136.71875,0.0
1734413053.9402182,-125.48828125,0.0,-145.5078125,-145.99609375,0.0
1734413053.9441118,-125.0,-117.67578125,-341.796875,-97.16796875,0.0
1734413053.9480054,-138.18359375,-366.69921875,-407.71484375,-76.66015625,0.0
1734413053.9518993,-117.67578125,-432.12890625,-223.14453125,-102.5390625,0.0
1734413053.955793,-116.2109375,-384.27734375,-148.4375,-129.39453125,0.0
1734413053.9596865,-131.34765625,-449.21875,-377.44140625,-152.83203125,0.0
1734413053.9635804,-126.953125,-791.015625,-560.546875,-100.5859375,0.0
1734413053.967474,-110.3515625,-791.9921875,-613.28125,-61.5234375,0.0
1734413053.9713678,-118.65234375,-64.453125,-184.08203125,-76.66015625,0.0
1734413053.9752614,-127.44140625,42.48046875,-7.8125,-115.72265625,0.0
1734413053.9793136,-142.08984375,-270.5078125,-325.1953125,-152.83203125,0.0
1734413053.9832072,-141.11328125,-376.46484375,-473.6328125,-107.91015625,0.0
1734413053.987101,-125.9765625,-447.265625,-506.34765625,-53.22265625,0.0
1734413053.9909947,-122.0703125,-333.0078125,-375.9765625,-51.7578125,0.0
1734413053.9948885,-108.3984375,-290.52734375,-308.10546875,-92.7734375,0.0
1734413053.9987822,-135.25390625,-536.1328125,-535.64453125,-139.6484375,0.0
1734413054.002676,-150.390625,-596.6796875,-505.37109375,-124.0234375,0.0
1734413054.0065696,-111.328125,-514.6484375,-545.41015625,-71.2890625,0.0
1734413054.0104635,-92.28515625,-818.359375,-601.07421875,-61.03515625,0.0
1734413054.014357,-102.5390625,-450.1953125,-264.6484375,-87.40234375,0.0
1734413054.018251,-104.4921875,-10.25390625,-344.23828125,-110.3515625,0.0
1734413054.0221446,-134.27734375,-458.49609375,-562.5,-68.84765625,0.0
1734413054.026188,-149.90234375,-655.76171875,-568.84765625,-43.45703125,0.0
1734413054.0300817,-123.046875,-246.09375,-435.546875,-59.5703125,0.0
1734413054.0339754,-109.375,-40.52734375,-281.25,-57.12890625,0.0
1734413054.0378692,-112.3046875,-303.7109375,-400.87890625,-86.42578125,0.0
1734413054.0417628,-127.44140625,-470.703125,-512.6953125,-101.07421875,0.0
1734413054.0456567,-128.41796875,-562.5,-559.5703125,-38.0859375,0.0
1734413054.0495505,-114.74609375,-586.9140625,-497.55859375,-45.8984375,0.0
1734413054.0534441,-74.21875,-731.4453125,-470.703125,-54.19921875,0.0
1734413054.057338,-68.84765625,-789.0625,-554.6875,-57.12890625,0.0
1734413054.0612319,-92.7734375,-270.5078125,-414.55078125,-84.9609375,0.0
1734413054.0651255,-108.3984375,-250.0,-437.5,-51.7578125,0.0
1734413054.0690193,-117.67578125,-370.1171875,-499.0234375,-41.015625,0.0
1734413054.0730445,-104.98046875,-91.796875,-130.37109375,-79.58984375,0.0
1734413054.0769382,-97.16796875,31.25,-77.63671875,-115.234375,0.0
1734413054.080832,-96.6796875,-305.6640625,-457.51953125,-110.83984375,0.0
1734413054.0847259,-110.3515625,-474.12109375,-448.2421875,-66.40625,0.0
1734413054.0886195,-108.88671875,-210.44921875,-399.90234375,-53.22265625,0.0
1734413054.0925133,-83.0078125,-184.08203125,-268.06640625,-78.125,0.0
1734413054.0964072,-70.3125,-341.796875,-267.578125,-103.515625,0.0
1734413054.100301,-78.125,-679.19921875,-519.04296875,-98.14453125,0.0
1734413054.1041946,-77.63671875,-677.24609375,-406.25,-71.2890625,0.0
1734413054.1080885,-86.42578125,-133.7890625,-317.87109375,-47.36328125,0.0
1734413054.1119823,-71.2890625,-27.83203125,-188.96484375,-36.62109375,0.0
1734413054.115876,-42.96875,-74.70703125,64.94140625,-91.30859375,0.0
1734413054.1198957,-68.84765625,98.6328125,-41.50390625,-99.609375,0.0
1734413054.1237895,-93.75,55.6640625,-244.62890625,-64.453125,0.0
1734413054.1276834,-72.265625,-218.26171875,-333.984375,-46.38671875,0.0
1734413054.131577,-32.71484375,-121.09375,-62.5,-41.015625,0.0
1734413054.1354709,-23.4375,248.53515625,235.3515625,-61.5234375,0.0
1734413054.1393647,-17.578125,-32.71484375,-83.984375,-61.03515625,0.0
1734413054.1432586,-30.76171875,-696.2890625,-482.91015625,-36.1328125,0.0
1734413054.1471524,-42.48046875,-806.640625,-511.71875,8.7890625,0.0
1734413054.1510463,-8.7890625,17.08984375,25.390625,-10.7421875,0.0
1734413054.15494,3.41796875,344.7265625,282.2265625,-65.91796875,0.0
1734413054.1588337,-18.06640625,81.0546875,27.34375,-78.125,0.0
1734413054.1627276,-18.06640625,-137.6953125,-85.44921875,-22.4609375,0.0
1734413054.1667368,-29.78515625,-102.5390625,-62.5,4.8828125,0.0
1734413054.1706307,-13.671875,141.6015625,104.00390625,-9.27734375,0.0
1734413054.1745245,13.671875,123.046875,239.2578125,-37.59765625,0.0
1734413054.1784184,-14.16015625,197.265625,197.265625,-65.91796875,0.0
1734413054.182312,-25.87890625,182.6171875,128.90625,-50.78125,0.0
1734413054.1862059,-12.6953125,-171.38671875,-39.0625,10.7421875,0.0
1734413054.1900997,-5.37109375,-533.203125,-171.875,6.34765625,0.0
1734413054.1939936,-4.39453125,-70.80078125,198.2421875,-50.29296875,0.0
1734413054.1978874,-6.34765625,464.84375,343.26171875,-77.1484375,0.0
1734413054.2017813,2.44140625,48.33984375,89.35546875,-48.33984375,0.0
1734413054.2056751,-2.9296875,-342.7734375,6.8359375,33.203125,0.0
1734413054.209569,-29.78515625,150.87890625,231.93359375,-10.25390625,0.0
1734413054.213561,0.48828125,542.48046875,400.390625,-78.125,0.0
1734413054.217455,0.9765625,297.8515625,253.41796875,-49.8046875,0.0
1734413054.2213488,-26.85546875,-57.12890625,111.328125,-45.41015625,0.0
1734413054.2252426,-31.73828125,-26.3671875,188.4765625,-16.6015625,0.0
1734413054.2291365,-26.85546875,316.40625,280.76171875,4.39453125,0.0
1734413054.2330303,11.23046875,3.41796875,224.12109375,-21.97265625,0.0
1734413054.2369242,10.25390625,-353.02734375,136.71875,-35.64453125,0.0
1734413054.240818,-21.484375,-73.73046875,198.2421875,-85.44921875,0.0
1734413054.2447119,-41.9921875,116.69921875,218.26171875,-77.1484375,0.0
1734413054.2486057,-31.25,-127.9296875,54.6875,-5.859375,0.0
1734413054.2524996,-9.765625,16.6015625,242.1875,-40.0390625,0.0
1734413054.2563934,-10.7421875,528.3203125,410.64453125,-81.54296875,0.0
1734413054.2604747,-19.53125,290.52734375,183.59375,-85.44921875,0.0
1734413054.2643685,-42.48046875,-21.97265625,143.06640625,-73.73046875,0.0
1734413054.2682624,-44.43359375,147.94921875,211.9140625,-42.96875,0.0
1734413054.2721562,-20.99609375,484.86328125,368.1640625,-41.50390625,0.0
1734413054.2760503,-12.6953125,408.203125,334.9609375,-62.5,0.0
1734413054.2799442,-9.27734375,-119.140625,94.7265625,-63.96484375,0.0
1734413054.283838,-42.96875,-271.97265625,113.28125,-78.125,0.0
1734413054.287732,-64.453125,-23.4375,189.453125,-58.59375,0.0
1734413054.2916257,-20.01953125,128.41796875,289.0625,-60.05859375,0.0
1734413054.2955196,-16.6015625,93.75,337.40234375,-96.6796875,0.0
1734413054.2994134,-54.6875,282.2265625,245.60546875,-99.609375,0.0
1734413054.3033073,-47.36328125,410.15625,255.37109375,-89.35546875,0.0
1734413054.307376,-37.109375,-10.25390625,43.45703125,-52.734375,0.0
1734413054.3112698,-47.36328125,-354.00390625,11.23046875,-36.62109375,0.0
1734413054.3151636,-29.78515625,288.57421875,393.5546875,-103.515625,0.0
1734413054.3190575,-30.2734375,465.8203125,281.25,-122.55859375,0.0
1734413054.3229516,-56.640625,-7.32421875,115.72265625,-83.984375,0.0
1734413054.3268454,-62.5,-260.25390625,92.7734375,-60.05859375,0.0
1734413054.3307393,-36.1328125,-144.04296875,186.03515625,-65.4296875,0.0
1734413054.334633,-38.57421875,128.41796875,373.53515625,-99.12109375,0.0
1734413054.3385272,-76.171875,-291.015625,-7.8125,-110.83984375,0.0
1734413054.342421,-79.1015625,-732.91015625,-208.0078125,-75.1953125,0.0
1734413054.346315,-67.87109375,44.921875,250.48828125,-57.6171875,0.0
1734413054.3502088,-48.33984375,431.640625,318.359375,-69.3359375,0.0
1734413054.354263,-28.3203125,377.44140625,395.5078125,-96.19140625,0.0
1734413054.358157,-41.9921875,492.67578125,403.80859375,-113.28125,0.0
1734413054.3620508,-56.15234375,544.43359375,359.86328125,-116.2109375,0.0
1734413054.3659449,-56.15234375,406.25,313.96484375,-60.05859375,0.0
1734413054.3698387,-34.1796875,253.41796875,300.78125,-36.1328125,0.0
1734413054.3737328,-36.62109375,194.3359375,394.04296875,-83.984375,0.0
1734413054.3776267,-62.01171875,235.83984375,344.23828125,-135.25390625,0.0
1734413054.3815205,-52.24609375,170.8984375,243.1640625,-125.0,0.0
1734413054.3854146,-59.5703125,-476.5625,-16.11328125,-68.359375,0.0
1734413054.3893085,-56.15234375,-166.015625,121.58203125,-60.546875,0.0
1734413054.3932023,-28.3203125,587.890625,465.8203125,-106.4453125,0.0
1734413054.3970964,-33.203125,341.796875,282.2265625,-120.60546875,0.0
1734413054.4011345,-60.05859375,-68.359375,129.39453125,-104.98046875,0.0
1734413054.4050283,-73.73046875,39.55078125,207.03125,-65.4296875,0.0
1734413054.4089224,-59.5703125,308.59375,221.6796875,-44.43359375,0.0
1734413054.4128163,-41.015625,222.16796875,293.45703125,-59.5703125,0.0
1734413054.4167104,-44.921875,170.8984375,275.390625,-84.47265625,0.0
1734413054.4206042,-54.6875,-9.27734375,108.88671875,-103.515625,0.0
1734413054.4244983,-55.17578125,-241.69921875,30.2734375,-83.49609375,0.0
1734413054.4283922,-52.734375,-671.875,-315.4296875,-49.8046875,0.0
1734413054.4322863,-51.7578125,-625.48828125,-118.65234375,-79.58984375,0.0
1734413054.43618,-58.10546875,256.8359375,367.67578125,-112.79296875,0.0
1734413054.4400742,-56.640625,261.71875,148.92578125,-121.58203125,0.0
1734413054.443968,-67.3828125,-89.35546875,-45.8984375,-96.6796875,0.0
1734413054.4479918,-64.453125,-40.0390625,-1.953125,-43.45703125,0.0
1734413054.451886,-29.296875,285.64453125,243.1640625,-83.0078125,0.0
1734413054.4557798,-22.4609375,279.78515625,268.5546875,-100.5859375,0.0
1734413054.459674,-31.25,-158.203125,-51.7578125,-80.078125,0.0
1734413054.4635677,-52.24609375,-273.4375,-208.984375,-91.30859375,0.0
1734413054.4674618,-65.91796875,-279.296875,-290.52734375,-59.5703125,0.0
1734413054.4713557,-40.52734375,-243.1640625,-157.2265625,-41.015625,0.0
1734413054.4752498,-40.52734375,-473.14453125,-16.6015625,-69.82421875,0.0
1734413054.4791439,-56.640625,-292.96875,-0.9765625,-91.796875,0.0
1734413054.4830377,-72.265625,142.578125,82.03125,-96.6796875,0.0
1734413054.4869318,-84.9609375,-172.8515625,-255.859375,-62.98828125,0.0
1734413054.4908257,-52.734375,-172.8515625,-261.71875,-43.45703125,0.0
1734413054.4948423,-38.57421875,241.2109375,239.74609375,-72.265625,0.0
1734413054.4987364,-56.640625,45.8984375,-13.18359375,-109.86328125,0.0
1734413054.5026305,-80.078125,-428.7109375,-375.48828125,-102.5390625,0.0
1734413054.5065243,-80.078125,-331.54296875,-324.21875,-57.12890625,0.0
1734413054.5104184,-62.98828125,9.27734375,-243.65234375,-38.0859375,0.0
1734413054.5143125,-56.15234375,-52.24609375,78.125,-76.66015625,0.0
1734413054.5182064,-45.8984375,-583.49609375,-186.03515625,-93.26171875,0.0
1734413054.5221004,-65.4296875,-912.59765625,-564.453125,-78.61328125,0.0
1734413054.5259945,-95.703125,-482.421875,-356.4453125,-85.9375,0.0
1734413054.5298884,-77.1484375,-82.03125,-280.2734375,-79.1015625,0.0
1734413054.5337825,-71.77734375,-39.55078125,19.53125,-88.8671875,0.0
1734413054.5376766,-80.078125,10.25390625,147.4609375,-104.98046875,0.0
1734413054.5416803,-83.49609375,70.80078125,-145.01953125,-105.46875,0.0
1734413054.5455744,-94.23828125,-150.390625,-348.14453125,-95.703125,0.0
1734413054.5494685,-81.0546875,-317.87109375,-390.13671875,-73.73046875,0.0
1734413054.5533624,-61.5234375,41.015625,23.92578125,-67.3828125,0.0
1734413054.5572565,-64.453125,137.20703125,143.5546875,-87.40234375,0.0
1734413054.5611506,-81.0546875,-357.421875,-345.21484375,-106.93359375,0.0
1734413054.5650446,-89.35546875,-819.3359375,-512.6953125,-71.2890625,0.0
1734413054.5689385,-97.65625,-485.3515625,-387.6953125,-46.38671875,0.0
1734413054.5728326,-68.359375,143.5546875,23.92578125,-90.8203125,0.0
1734413054.5767267,-59.08203125,-63.4765625,62.98828125,-104.4921875,0.0
1734413054.5806208,-89.84375,-514.6484375,-360.3515625,-80.56640625,0.0
1734413054.5845146,-98.6328125,-340.8203125,-339.84375,-74.21875,0.0
1734413054.5886016,-85.9375,-89.84375,-331.0546875,-64.453125,0.0
1734413054.5924957,-63.96484375,-166.50390625,-206.54296875,-77.1484375,0.0
1734413054.5963898,-65.4296875,-191.89453125,54.19921875,-87.40234375,0.0
1734413054.6002836,-72.75390625,-41.50390625,-28.3203125,-98.14453125,0.0
1734413054.6041777,-84.9609375,-63.96484375,-257.32421875,-99.609375,0.0
1734413054.6080718,-82.51953125,-586.9140625,-492.67578125,-49.31640625,0.0
1734413054.611966,-62.01171875,-790.52734375,-346.6796875,-46.38671875,0.0
1734413054.61586,-35.15625,-349.12109375,99.12109375,-85.9375,0.0
1734413054.619754,-50.29296875,-104.00390625,-2.44140625,-92.7734375,0.0
1734413054.6236482,-77.1484375,-448.2421875,-291.50390625,-70.80078125,0.0
1734413054.6275423,-77.63671875,-545.8984375,-367.1875,-42.96875,0.0
1734413054.6314363,-65.91796875,29.296875,-55.6640625,-45.41015625,0.0
1734413054.63552,-39.55078125,104.00390625,187.01171875,-48.33984375,0.0
1734413054.639414,-37.59765625,-303.22265625,-160.15625,-59.5703125,0.0
1734413054.6433082,-61.03515625,-339.35546875,-311.03515625,-61.03515625,0.0
1734413054.6472023,-77.63671875,-80.078125,-287.59765625,-35.15625,0.0
1734413054.6510963,-54.19921875,-64.453125,-229.00390625,-32.2265625,0.0
1734413054.6549904,-52.24609375,-379.39453125,-28.80859375,-46.875,0.0
1734413054.6588845,-71.2890625,-348.6328125,46.875,-62.98828125,0.0
1734413054.6627786,-83.984375,-6.34765625,-37.59765625,-70.80078125,0.0
1734413054.6666727,-79.1015625,-216.796875,-333.984375,-39.55078125,0.0
1734413054.6705668,-48.828125,-732.91015625,-461.42578125,-9.765625,0.0
1734413054.674461,-34.1796875,-322.265625,65.91796875,-35.15625,0.0
1734413054.678355,-58.10546875,189.94140625,204.58984375,-63.96484375,0.0
1734413054.6824114,-87.40234375,-200.1953125,-200.68359375,-71.77734375,0.0
1734413054.6863055,-85.44921875,-409.66796875,-383.30078125,-62.01171875,0.0
1734413054.6901996,-63.96484375,-39.0625,-248.53515625,-30.76171875,0.0
1734413054.6940937,-56.640625,223.14453125,163.0859375,-39.55078125,0.0
1734413054.6979878,-57.12890625,-103.515625,33.203125,-44.921875,0.0
1734413054.701882,-58.59375,-500.9765625,-372.0703125,-60.05859375,0.0
1734413054.705776,-72.75390625,-539.55078125,-362.79296875,-48.33984375,0.0
1734413054.7096703,-72.265625,-412.59765625,-307.12890625,-15.625,0.0
1734413054.7135644,-36.1328125,-666.50390625,-309.08203125,-7.32421875,0.0
1734413054.7174585,-43.9453125,-713.8671875,-199.70703125,-38.57421875,0.0
1734413054.7213526,-78.61328125,6.8359375,119.140625,-78.61328125,0.0
1734413054.7252467,-66.89453125,-25.390625,-75.68359375,-46.875,0.0
1734413054.7293007,-50.29296875,-274.4140625,-350.09765625,-2.9296875,0.0
1734413054.733195,-57.6171875,42.48046875,37.109375,-38.57421875,0.0
1734413054.7370892,-72.265625,293.9453125,277.83203125,-81.0546875,0.0
1734413054.7409832,-65.4296875,89.35546875,23.92578125,-75.68359375,0.0
1734413054.7448773,-68.359375,-282.2265625,-261.71875,-36.62109375,0.0
1734413054.7487717,-69.82421875,-495.60546875,-449.70703125,-20.01953125,0.0
1734413054.7526658,-56.640625,-178.22265625,-16.6015625,-39.0625,0.0
1734413054.7565598,-48.33984375,55.6640625,219.7265625,-52.24609375,0.0
1734413054.760454,-53.7109375,-598.6328125,-261.23046875,-63.4765625,0.0
1734413054.7643483,-77.63671875,-477.05078125,-254.8828125,-52.24609375,0.0
1734413054.7682424,-65.91796875,84.9609375,-167.96875,-31.25,0.0
1734413054.7721364,-47.8515625,-59.5703125,-65.91796875,-48.828125,0.0
1734413054.7761781,-63.96484375,-87.40234375,181.15234375,-70.3125,0.0
1734413054.7800722,-77.1484375,157.2265625,156.73828125,-81.54296875,0.0
1734413054.7839665,-81.0546875,80.078125,40.0390625,-92.7734375,0.0
1734413054.7878606,-75.68359375,-245.1171875,-213.37890625,-62.5,0.0
1734413054.791755,-43.45703125,-150.390625,-59.5703125,-24.4140625,0.0
1734413054.795649,-35.64453125,-16.6015625,232.91015625,-48.33984375,0.0
1734413054.7995431,-60.05859375,-187.01171875,22.94921875,-87.40234375,0.0
1734413054.8034375,-66.40625,-655.76171875,-380.37109375,-62.5,0.0
1734413054.8073316,-70.3125,-768.5546875,-476.5625,-25.390625,0.0
1734413054.811226,-81.0546875,52.734375,34.66796875,-34.66796875,0.0
1734413054.81512,-75.68359375,305.17578125,289.55078125,-56.15234375,0.0
1734413054.819014,-71.2890625,-15.625,91.796875,-91.30859375,0.0
1734413054.823046,-83.49609375,-14.6484375,58.10546875,-94.23828125,0.0
1734413054.82694,-78.61328125,115.72265625,85.44921875,-38.57421875,0.0
1734413054.8308344,-61.5234375,45.41015625,58.59375,-33.203125,0.0
1734413054.8347285,-52.734375,15.625,221.6796875,-43.9453125,0.0
1734413054.8386228,-53.22265625,137.6953125,212.890625,-48.33984375,0.0
1734413054.842517,-70.3125,-104.00390625,-49.8046875,-78.61328125,0.0
1734413054.8464112,-71.77734375,-423.828125,-296.875,-46.38671875,0.0
1734413054.8503053,-44.43359375,-689.94140625,-379.8828125,-5.37109375,0.0
1734413054.8541996,-45.8984375,-272.4609375,111.328125,-46.38671875,0.0
1734413054.8580937,-53.7109375,321.77734375,313.96484375,-74.21875,0.0
1734413054.861988,-65.91796875,-16.6015625,-1.953125,-62.5,0.0
1734413054.8658822,-81.54296875,-271.97265625,-203.61328125,-55.6640625,0.0
1734413054.8698993,-69.82421875,52.24609375,-8.30078125,-42.48046875,0.0
1734413054.8737936,-46.38671875,312.98828125,309.5703125,-42.48046875,0.0
1734413054.8776877,-52.24609375,19.04296875,132.8125,-67.87109375,0.0
1734413054.881582,-62.5,-166.015625,-24.4140625,-77.63671875,0.0
1734413054.8854764,-69.3359375,-24.4140625,58.59375,-35.64453125,0.0
1734413054.8893704,-68.359375,-154.78515625,-169.43359375,-12.20703125,0.0
1734413054.8932648,-49.31640625,-621.58203125,-296.875,-35.15625,0.0
1734413054.8971589,-22.94921875,-756.8359375,-81.54296875,-50.78125,0.0
1734413054.9010532,-53.22265625,1.953125,201.171875,-75.68359375,0.0
1734413054.9049473,-62.5,79.58984375,68.84765625,-75.1953125,0.0
1734413054.9088416,-57.12890625,-208.0078125,-194.82421875,-36.62109375,0.0
1734413054.912736,-62.01171875,16.11328125,78.61328125,-47.36328125,0.0
1734413054.916735,-68.359375,312.98828125,351.07421875,-67.87109375,0.0
1734413054.9206293,-67.87109375,121.58203125,140.13671875,-81.54296875,0.0
1734413054.9245236,-60.05859375,-231.4453125,-84.47265625,-83.0078125,0.0
1734413054.9284177,-80.078125,-54.6875,-98.6328125,-54.6875,0.0
1734413054.932312,-49.8046875,173.828125,135.7421875,-31.73828125,0.0
1734413054.9362063,-45.41015625,21.97265625,256.8359375,-46.875,0.0
1734413054.9401004,-60.05859375,-597.16796875,-139.6484375,-86.42578125,0.0
1734413054.9439948,-65.91796875,-564.453125,-241.69921875,-67.3828125,0.0
1734413054.947889,-89.84375,71.77734375,-23.4375,-37.109375,0.0
1734413054.9517832,-65.91796875,-28.3203125,59.5703125,-51.26953125,0.0
1734413054.9556775,-50.29296875,-72.265625,219.23828125,-53.7109375,0.0
1734413054.9595718,-66.40625,217.28515625,194.82421875,-84.9609375,0.0
1734413054.9635627,-74.70703125,152.34375,104.4921875,-97.16796875,0.0
1734413054.967457,-65.4296875,-225.09765625,-151.3671875,-49.8046875,0.0
1734413054.9713511,-41.50390625,-208.49609375,-112.79296875,-37.109375,0.0
1734413054.9752455,-32.71484375,197.265625,297.36328125,-78.125,0.0
1734413054.9791398,-49.8046875,272.4609375,249.0234375,-93.26171875,0.0
1734413054.9830341,-57.12890625,-382.32421875,-155.2734375,-60.546875,0.0
1734413054.9869282,-77.63671875,-861.81640625,-435.546875,-53.7109375,0.0
1734413054.9908226,-71.2890625,-326.171875,-164.55078125,-64.453125,0.0
1734413054.994717,-34.1796875,78.125,234.375,-61.5234375,0.0
1734413054.998611,-46.38671875,-254.8828125,57.12890625,-77.1484375,0.0
1734413055.0025053,-56.640625,-285.64453125,-39.0625,-74.21875,0.0
1734413055.0063996,-49.31640625,104.98046875,124.0234375,-62.5,0.0
1734413055.0104723,-46.38671875,63.96484375,68.359375,-51.26953125,0.0
1734413055.0143666,-53.7109375,-10.25390625,232.421875,-53.22265625,0.0
1734413055.018261,-64.94140625,160.64453125,286.62109375,-85.9375,0.0
1734413055.0221553,-67.3828125,221.6796875,178.7109375,-78.61328125,0.0
1734413055.0260496,-74.70703125,-54.6875,0.9765625,-43.9453125,0.0
1734413055.029944,-53.22265625,-459.47265625,-261.71875,-32.71484375,0.0
1734413055.033838,-22.4609375,-242.1875,91.796875,-61.03515625,0.0
1734413055.0377324,-40.0390625,294.921875,362.3046875,-94.23828125,0.0
1734413055.0416267,-57.6171875,65.91796875,71.2890625,-74.21875,0.0
1734413055.045521,-61.5234375,-595.21484375,-281.25,-38.0859375,0.0
1734413055.0494153,-71.77734375,-221.19140625,-109.86328125,-55.6640625,0.0
1734413055.0533097,-47.8515625,303.7109375,303.22265625,-75.68359375,0.0
1734413055.0573685,-29.296875,-24.4140625,200.68359375,-33.69140625,0.0
1734413055.0612628,-53.22265625,-122.0703125,69.82421875,-59.08203125,0.0
1734413055.0651572,-72.265625,64.94140625,96.19140625,-72.75390625,0.0
1734413055.0690515,-71.77734375,60.05859375,7.32421875,-48.33984375,0.0
1734413055.0729458,-49.8046875,-119.140625,95.21484375,-69.82421875,0.0
1734413055.0768402,-48.33984375,-286.1328125,173.33984375,-69.3359375,0.0
1734413055.0807345,-53.22265625,-315.91796875,-91.796875,-79.1015625,0.0
1734413055.0846288,-60.05859375,-356.4453125,-302.734375,-113.76953125,0.0
1734413055.0885231,-84.47265625,-727.5390625,-518.5546875,-73.73046875,0.0
1734413055.0924175,-78.125,-725.5859375,-304.19921875,-66.89453125,0.0
1734413055.0963118,-75.1953125,126.953125,280.2734375,-97.65625,0.0
1734413055.1002061,-84.47265625,246.58203125,170.8984375,-115.234375,0.0
1734413055.1042502,-83.984375,-142.08984375,-142.08984375,-101.07421875,0.0
1734413055.1081445,-84.47265625,-84.47265625,-170.8984375,-73.2421875,0.0
1734413055.1120389,-67.3828125,187.01171875,111.81640625,-77.63671875,0.0
1734413055.1159332,-64.453125,81.0546875,253.90625,-91.30859375,0.0
1734413055.1198275,-81.0546875,-95.21484375,139.16015625,-104.4921875,0.0
1734413055.1237218,-64.453125,-299.31640625,-71.2890625,-66.40625,0.0
1734413055.1276164,-58.59375,-262.20703125,-175.29296875,-49.8046875,0.0
1734413055.1315107,-84.47265625,-76.66015625,33.203125,-69.3359375,0.0
1734413055.135405,-53.7109375,-504.8828125,155.2734375,-80.56640625,0.0
1734413055.1392994,-55.17578125,-171.38671875,187.01171875,-120.1171875,0.0
1734413055.1431937,-99.12109375,302.734375,214.84375,-128.41796875,0.0
1734413055.147088,-93.26171875,-91.30859375,-69.3359375,-88.37890625,0.0
1734413055.1511266,-83.984375,-149.90234375,-88.37890625,-62.5,0.0
1734413055.155021,-71.77734375,323.73046875,347.65625,-72.265625,0.0
1734413055.1589155,-71.77734375,436.03515625,300.29296875,-113.76953125,0.0
1734413055.1628098,-82.51953125,26.85546875,72.265625,-107.91015625,0.0
1734413055.1667042,-83.0078125,-155.2734375,18.5546875,-74.70703125,0.0
1734413055.1705985,-72.265625,-145.01953125,-79.58984375,-62.5,0.0
1734413055.1744928,-54.6875,-69.82421875,193.84765625,-68.84765625,0.0
1734413055.1783874,-62.01171875,-424.8046875,61.5234375,-66.89453125,0.0
1734413055.1822817,-83.0078125,-713.37890625,-212.890625,-67.87109375,0.0
1734413055.186176,-98.14453125,-9.27734375,131.8359375,-72.265625,0.0
1734413055.1900704,-73.2421875,127.9296875,100.09765625,-55.6640625,0.0
1734413055.1939647,-33.69140625,40.0390625,241.69921875,-64.453125,0.0
1734413055.1979887,-55.17578125,285.15625,344.7265625,-73.2421875,0.0
1734413055.2018833,-87.890625,354.98046875,222.65625,-88.37890625,0.0
1734413055.2057776,-80.078125,37.109375,60.05859375,-64.94140625,0.0
1734413055.209672,-68.359375,-177.24609375,-100.09765625,-40.0390625,0.0
1734413055.2135665,-45.41015625,88.37890625,181.15234375,-56.640625,0.0
1734413055.2174609,-26.85546875,69.82421875,285.64453125,-52.24609375,0.0
1734413055.2213552,-55.6640625,-153.80859375,109.86328125,-61.5234375,0.0
1734413055.2252495,-71.77734375,-655.2734375,-215.8203125,-56.640625,0.0
1734413055.229144,-64.453125,-435.05859375,-128.41796875,-37.109375,0.0
1734413055.2330384,-50.29296875,169.921875,254.8828125,-49.31640625,0.0
1734413055.2369328,-30.2734375,-82.03125,206.0546875,-57.12890625,0.0
1734413055.2408273,-49.8046875,-62.98828125,128.41796875,-64.94140625,0.0
1734413055.2448387,-63.96484375,144.04296875,146.97265625,-60.05859375,0.0
1734413055.2487333,-68.84765625,165.52734375,110.3515625,-29.78515625,0.0
1734413055.2526276,-50.29296875,-32.2265625,105.46875,-37.59765625,0.0
1734413055.256522,-48.828125,60.546875,247.55859375,-42.48046875,0.0
1734413055.2604165,-54.6875,267.08984375,215.33203125,-51.7578125,0.0
1734413055.2643108,-56.640625,-95.703125,-46.38671875,-69.82421875,0.0
1734413055.2682052,-49.31640625,-725.09765625,-447.265625,-19.53125,0.0
1734413055.2720997,-32.2265625,-686.5234375,-233.3984375,-13.671875,0.0
1734413055.275994,-28.3203125,208.984375,366.2109375,-67.3828125,0.0
1734413055.2798886,-58.10546875,356.4453125,221.19140625,-69.3359375,0.0
1734413055.283783,-95.21484375,-79.58984375,-57.6171875,-63.96484375,0.0
1734413055.2876773,-76.66015625,-104.00390625,-133.7890625,-22.94921875,0.0
1734413055.291678,-51.26953125,139.16015625,56.640625,-10.25390625,0.0
1734413055.2955723,-26.3671875,31.25,237.3046875,-19.53125,0.0
1734413055.2994666,-26.3671875,-56.15234375,162.109375,-58.10546875,0.0
1734413055.3033612,-44.43359375,78.125,112.3046875,-82.03125,0.0
1734413055.3072555,-50.29296875,43.45703125,24.90234375,-36.62109375,0.0
1734413055.31115,-46.875,-217.28515625,-172.8515625,-14.16015625,0.0
1734413055.3150444,-20.01953125,-617.67578125,-118.1640625,-20.99609375,0.0
1734413055.318939,-43.9453125,-264.16015625,113.28125,-78.125,0.0
1734413055.3228333,-80.56640625,265.13671875,185.546875,-84.47265625,0.0
1734413055.3267279,-74.21875,-91.30859375,-101.5625,-49.31640625,0.0
1734413055.3306222,-58.59375,-238.28125,-250.0,-25.390625,0.0
1734413055.3345165,-35.64453125,195.3125,206.54296875,-44.921875,0.0
1734413055.3385074,0.0,351.5625,310.05859375,-67.87109375,0.0
1734413055.342402,0.0,-71.77734375,-46.875,-57.12890625,0.0
1734413055.3462963,0.0,-284.66796875,-235.3515625,-26.3671875,0.0
1734413055.3501909,0.0,-25.390625,-156.73828125,-6.34765625,0.0
1734413055.3540852,0.0,35.64453125,172.36328125,-45.8984375,0.0
1734413055.3579798,0.0,-430.6640625,50.78125,-58.59375,0.0
1734413055.361874,0.0,-825.1953125,-389.16015625,-42.48046875,0.0
1734413055.3657687,0.0,-389.16015625,-250.9765625,-29.78515625,0.0
1734413055.369663,0.0,-62.98828125,-181.15234375,-24.90234375,0.0
1734413055.3735576,0.0,-127.9296875,5.859375,-39.55078125,0.0
1734413055.377452,0.0,55.17578125,244.140625,-67.87109375,0.0
1734413055.3813465,0.0,272.94921875,174.31640625,-78.61328125,0.0
1734413055.385411,-72.265625,27.83203125,33.69140625,-59.5703125,0.0
1734413055.3893056,-72.265625,-257.32421875,-238.28125,-41.015625,0.0
1734413055.3932002,-59.5703125,-25.390625,-5.37109375,-45.41015625,0.0
1734413055.3970945,-48.33984375,333.984375,335.44921875,-61.5234375,0.0
1734413055.400989,-49.31640625,139.6484375,96.19140625,-80.078125,0.0
1734413055.4048834,-68.84765625,-502.44140625,-233.88671875,-50.29296875,0.0
1734413055.408778,-62.5,-480.95703125,-322.265625,-24.90234375,0.0
1734413055.4126725,-32.71484375,-66.40625,-50.29296875,-48.828125,0.0
1734413055.4165668,-35.64453125,-173.828125,174.31640625,-65.91796875,0.0
1734413055.4204614,-53.22265625,-453.125,-125.9765625,-77.1484375,0.0
1734413055.424356,-76.171875,-189.453125,-110.83984375,-91.30859375,0.0
1734413055.4282503,-63.96484375,84.9609375,-26.3671875,-58.59375,0.0
1734413055.4323928,-39.0625,-109.375,-108.88671875,-46.875,0.0
1734413055.4362874,-48.828125,-19.53125,166.015625,-63.4765625,0.0
1734413055.440182,-49.31640625,247.55859375,214.84375,-63.96484375,0.0
1734413055.4440765,-44.921875,177.734375,104.4921875,-77.63671875,0.0
1734413055.447971,-47.8515625,-250.48828125,-158.69140625,-64.94140625,0.0
1734413055.4518654,-38.0859375,-427.24609375,-271.484375,-54.19921875,0.0
1734413055.45576,-33.203125,-201.66015625,127.44140625,-53.7109375,0.0
1734413055.4596546,-60.05859375,-137.6953125,160.15625,-83.0078125,0.0
1734413055.4635491,-75.68359375,-592.7734375,-292.96875,-87.890625,0.0
1734413055.4674437,-55.17578125,-751.46484375,-437.98828125,-56.15234375,0.0
1734413055.471338,-58.10546875,-168.9453125,-150.390625,-61.5234375,0.0
1734413055.4752326,-49.31640625,-46.38671875,154.296875,-74.21875,0.0
1734413055.4792805,0.0,-26.3671875,0.0,-75.1953125,0.0
1734413055.483175,0.0,64.94140625,0.0,-66.40625,0.0
1734413055.4870696,0.0,93.75,0.0,-69.3359375,0.0
1734413055.4909642,0.0,-11.23046875,0.0,-60.05859375,0.0
1734413055.4948587,0.0,-32.2265625,0.0,-37.59765625,0.0
1734413055.4987533,0.0,-130.859375,0.0,-39.0625,0.0
1734413055.5026476,0.0,-137.6953125,0.0,-63.4765625,0.0
1734413055.5065422,0.0,-190.91796875,0.0,-78.61328125,0.0
1734413055.5104368,0.0,-414.55078125,0.0,-52.24609375,0.0
1734413055.5143313,0.0,20.5078125,0.0,-71.77734375,0.0
1734413055.518226,0.0,380.859375,0.0,-83.0078125,0.0
1734413055.5221205,0.0,-45.8984375,0.0,-52.734375,0.0
1734413055.5261505,-51.26953125,-700.68359375,-410.64453125,-33.69140625,0.0
1734413055.530045,-52.734375,-381.8359375,-296.38671875,-37.109375,0.0
1734413055.5339396,-28.80859375,41.9921875,55.17578125,-37.59765625,0.0
1734413055.5378342,-30.76171875,5.859375,203.125,-58.59375,0.0
1734413055.5417287,-38.57421875,-41.50390625,47.36328125,-83.984375,0.0
1734413055.5456233,-48.828125,-219.23828125,-187.01171875,-76.66015625,0.0
1734413055.5495179,-47.8515625,-365.234375,-340.8203125,-56.15234375,0.0
1734413055.5534124,-9.27734375,-607.421875,-289.55078125,-37.109375,0.0
1734413055.557307,-20.01953125,-604.98046875,-78.125,-44.43359375,0.0
1734413055.5612016,-62.5,156.73828125,217.28515625,-82.51953125,0.0
1734413055.5650961,-72.75390625,137.20703125,41.50390625,-89.35546875,0.0
1734413055.5689907,-55.17578125,-225.09765625,-259.27734375,-60.546875,0.0
1734413055.5730143,-36.62109375,34.1796875,-0.9765625,-63.4765625,0.0
1734413055.5769088,-41.015625,414.0625,343.26171875,-91.30859375,0.0
1734413055.5808034,-33.69140625,238.76953125,128.90625,-87.890625,0.0
1734413055.584698,-45.8984375,-149.90234375,-143.06640625,-73.2421875,0.0
1734413055.5885928,-59.5703125,-152.83203125,-274.90234375,-59.08203125,0.0
1734413055.5924873,-37.109375,-95.21484375,-183.10546875,-48.828125,0.0
1734413055.596382,-6.8359375,-102.5390625,161.1328125,-67.3828125,0.0
1734413055.6002765,-17.08984375,-531.73828125,-67.87109375,-104.98046875,0.0
1734413055.604171,-67.3828125,-404.78515625,-144.04296875,-112.3046875,0.0
1734413055.6080656,-73.73046875,79.1015625,-36.62109375,-97.65625,0.0
1734413055.6119602,-29.296875,-69.3359375,-122.0703125,-68.84765625,0.0
1734413055.6158547,-22.94921875,26.3671875,186.5234375,-91.30859375,0.0
1734413055.6198688,-48.33984375,277.34375,242.67578125,-146.97265625,0.0
1734413055.6237633,-61.5234375,211.42578125,120.1171875,-135.25390625,0.0
1734413055.627658,-66.40625,-225.5859375,-131.34765625,-89.84375,0.0
1734413055.6315527,-59.5703125,-230.46875,-126.953125,-71.77734375,0.0
1734413055.6354473,-49.8046875,239.2578125,285.64453125,-96.6796875,0.0
1734413055.6393418,-51.7578125,98.14453125,240.234375,-115.72265625,0.0
1734413055.6432364,-53.7109375,-579.58984375,-250.9765625,-87.890625,0.0
1734413055.647131,-51.26953125,-784.1796875,-461.42578125,-64.94140625,0.0
1734413055.6510255,-49.8046875,-240.234375,-165.52734375,-62.01171875,0.0
1734413055.6549203,-24.90234375,71.77734375,176.26953125,-73.73046875,0.0
1734413055.658815,-29.296875,118.65234375,284.66796875,-100.5859375,0.0
1734413055.6627095,-66.40625,106.93359375,158.69140625,-115.234375,0.0
1734413055.6667137,-64.94140625,96.6796875,77.1484375,-95.21484375,0.0
1734413055.6706083,-51.26953125,-25.87890625,-15.13671875,-65.91796875,0.0
1734413055.6745028,-41.50390625,30.76171875,209.47265625,-76.66015625,0.0
1734413055.6783974,-50.78125,290.0390625,324.21875,-104.00390625,0.0
1734413055.6822922,-47.36328125,277.83203125,172.8515625,-116.69921875,0.0
1734413055.6861868,-33.203125,-220.21484375,-140.13671875,-87.40234375,0.0
1734413055.6900814,-36.62109375,-752.9296875,-393.5546875,-42.48046875,0.0
1734413055.6939762,-48.33984375,-223.14453125,111.81640625,-63.96484375,0.0
1734413055.6978707,-54.6875,421.38671875,394.53125,-98.6328125,0.0
1734413055.7017653,-55.6640625,49.8046875,73.2421875,-93.75,0.0
1734413055.7056599,-58.10546875,-242.67578125,-136.71875,-86.42578125,0.0
1734413055.7095547,-54.6875,-213.8671875,-241.69921875,-85.44921875,0.0
1734413055.713545,-44.43359375,-11.71875,18.5546875,-76.171875,0.0
1734413055.7174397,-41.9921875,85.44921875,249.0234375,-86.9140625,0.0
1734413055.7213342,-41.9921875,-42.48046875,81.0546875,-81.0546875,0.0
1734413055.725229,-53.22265625,77.1484375,105.46875,-63.4765625,0.0
1734413055.7291236,-60.05859375,55.17578125,32.71484375,-70.80078125,0.0
1734413055.7330182,-26.3671875,-360.3515625,-151.3671875,-72.75390625,0.0
1734413055.736913,-9.27734375,-520.99609375,28.80859375,-62.5,0.0
1734413055.7408075,-33.203125,-149.4140625,167.96875,-96.6796875,0.0
1734413055.744702,-45.8984375,1.953125,62.01171875,-100.5859375,0.0
1734413055.748597,-40.0390625,-440.91796875,-203.125,-58.59375,0.0
1734413055.7524915,-27.34375,-361.328125,-60.546875,-72.265625,0.0
1734413055.756386,-33.203125,325.68359375,340.33203125,-84.9609375,0.0
1734413055.7604542,-44.43359375,221.19140625,173.33984375,-87.40234375,0.0
1734413055.7643487,-60.05859375,-147.94921875,-56.640625,-100.09765625,0.0
1734413055.7682433,-68.84765625,-296.38671875,-235.3515625,-72.75390625,0.0
1734413055.772138,-47.8515625,-112.79296875,-104.4921875,-76.66015625,0.0
1734413055.7760327,-25.87890625,147.94921875,267.08984375,-97.16796875,0.0
1734413055.7799275,-36.1328125,-218.26171875,80.56640625,-86.42578125,0.0
1734413055.783822,-57.6171875,-302.24609375,-24.90234375,-87.40234375,0.0
1734413055.7877169,-66.40625,61.5234375,107.91015625,-74.21875,0.0
1734413055.7916114,-35.15625,-16.6015625,34.1796875,-73.73046875,0.0
1734413055.7955062,-15.13671875,-341.796875,134.27734375,-57.6171875,0.0
1734413055.7994008,-36.62109375,7.32421875,267.578125,-71.2890625,0.0
1734413055.8032956,-66.40625,299.8046875,216.796875,-86.9140625,0.0
1734413055.8073542,-48.828125,-115.72265625,-68.84765625,-62.5,0.0
1734413055.811249,-14.6484375,-184.5703125,-125.9765625,-50.78125,0.0
1734413055.8151436,-14.16015625,269.04296875,314.94140625,-41.50390625,0.0
1734413055.8190384,-35.64453125,415.52734375,340.33203125,-55.6640625,0.0
1734413055.822933,-36.62109375,-4.8828125,70.3125,-63.96484375,0.0
1734413055.8268278,-21.484375,-473.14453125,-208.0078125,-38.0859375,0.0
1734413055.8307223,-10.25390625,-337.40234375,-230.46875,-38.57421875,0.0
1734413055.8346171,-6.34765625,-30.2734375,186.5234375,-38.0859375,0.0
1734413055.838512,-11.71875,-415.52734375,99.609375,-28.80859375,0.0
1734413055.8424065,-26.3671875,-616.69921875,-134.27734375,-60.546875,0.0
1734413055.8463013,-49.8046875,47.36328125,153.80859375,-64.94140625,0.0
1734413055.850196,-33.203125,118.65234375,80.078125,-26.3671875,0.0
1734413055.8542392,-12.20703125,85.9375,213.8671875,-37.109375,0.0
1734413055.858134,-16.6015625,321.77734375,366.2109375,-60.546875,0.0
1734413055.8620286,-25.87890625,408.203125,232.421875,-73.73046875,0.0
1734413055.8659234,-34.66796875,64.94140625,80.078125,-51.7578125,0.0
1734413055.8698182,-35.15625,-229.4921875,-133.30078125,-37.59765625,0.0
1734413055.873713,-12.20703125,-205.56640625,31.73828125,-47.36328125,0.0
1734413055.8776076,-3.90625,82.03125,326.171875,-53.7109375,0.0
1734413055.8815024,-20.99609375,217.7734375,208.984375,-60.05859375,0.0
1734413055.8853972,-28.3203125,-516.6015625,-185.05859375,-53.7109375,0.0
1734413055.8892918,-33.203125,-620.1171875,-275.390625,-36.62109375,0.0
1734413055.8931866,-23.92578125,194.82421875,170.41015625,-47.36328125,0.0
1734413055.8970814,-13.671875,199.70703125,271.484375,-63.96484375,0.0
1734413055.9011157,-35.15625,-104.00390625,105.95703125,-68.84765625,0.0
1734413055.9050102,-53.7109375,151.85546875,160.15625,-79.1015625,0.0
1734413055.908905,-37.59765625,172.8515625,106.93359375,-59.08203125,0.0
1734413055.9127998,-21.97265625,27.34375,113.28125,-45.8984375,0.0
1734413055.9166946,-32.71484375,117.67578125,256.8359375,-75.68359375,0.0
1734413055.9205894,-28.3203125,76.171875,197.265625,-92.7734375,0.0
1734413055.924484,-31.73828125,-223.6328125,63.96484375,-73.2421875,0.0
1734413055.9283788,-46.875,-699.70703125,-309.5703125,-32.71484375,0.0
1734413055.9322736,-24.4140625,-664.0625,-250.48828125,-25.87890625,0.0
1734413055.9361684,-10.25390625,280.2734375,373.53515625,-57.6171875,0.0
1734413055.940063,-26.3671875,414.55078125,291.9921875,-72.75390625,0.0
1734413055.9439578,-31.73828125,53.7109375,70.80078125,-62.98828125,0.0
1734413055.9479756,-37.59765625,-174.8046875,-95.21484375,-48.828125,0.0
1734413055.9518704,-40.0390625,2.9296875,-5.37109375,-58.59375,0.0
1734413055.9557652,-28.3203125,303.22265625,288.0859375,-51.7578125,0.0
1734413055.9596598,-38.0859375,187.01171875,236.328125,-55.6640625,0.0
1734413055.9635546,-36.1328125,84.9609375,119.140625,-73.73046875,0.0
1734413055.9674494,-31.25,-185.546875,-145.99609375,-29.296875,0.0
1734413055.9713442,-34.66796875,-273.4375,-278.80859375,-8.30078125,0.0
1734413055.975239,-41.50390625,-493.65234375,-79.58984375,-47.8515625,0.0
1734413055.9791338,-65.91796875,-151.85546875,190.91796875,-83.984375,0.0
1734413055.9830287,-73.73046875,395.99609375,244.62890625,-89.84375,0.0
1734413055.9869232,-71.77734375,-62.01171875,-43.45703125,-77.1484375,0.0
1734413055.990818,-51.7578125,-210.9375,-158.203125,-45.8984375,0.0
1734413055.994828,-45.41015625,285.64453125,259.765625,-42.96875,0.0
1734413055.9987228,-61.5234375,437.98828125,367.67578125,-95.703125,0.0
1734413056.0026176,-73.2421875,37.59765625,83.984375,-110.83984375,0.0
1734413056.0065124,-73.2421875,-349.609375,-167.96875,-59.5703125,0.0
1734413056.0104072,-43.9453125,-260.7421875,-245.1171875,-20.5078125,0.0
1734413056.0143018,-45.8984375,-19.04296875,100.5859375,-42.48046875,0.0
1734413056.0181966,-44.43359375,-381.8359375,90.33203125,-61.03515625,0.0
1734413056.0220914,-47.8515625,-642.08984375,-130.37109375,-60.05859375,0.0
1734413056.0259862,-72.265625,-24.4140625,114.74609375,-60.05859375,0.0
1734413056.029881,-60.05859375,121.58203125,65.4296875,-37.109375,0.0
1734413056.0337758,-45.41015625,14.16015625,175.78125,-51.7578125,0.0
1734413056.0376706,-53.7109375,211.42578125,322.265625,-79.1015625,0.0
1734413056.041672,-55.6640625,357.91015625,227.5390625,-60.546875,0.0
1734413056.0455668,-63.96484375,77.1484375,69.82421875,-55.17578125,0.0
1734413056.0494616,-53.22265625,-207.03125,-171.38671875,-45.41015625,0.0
1734413056.0533564,-27.83203125,46.38671875,28.80859375,-22.94921875,0.0
1734413056.0572512,-39.0625,326.171875,342.7734375,-25.87890625,0.0
1734413056.061146,-41.50390625,15.13671875,75.1953125,-30.76171875,0.0
1734413056.0650408,-39.55078125,-703.61328125,-319.82421875,-28.3203125,0.0
1734413056.0689356,-51.26953125,-682.6171875,-368.1640625,-46.38671875,0.0
1734413056.0728304,-40.52734375,62.01171875,3.41796875,-51.7578125,0.0
1734413056.0767252,-39.0625,108.3984375,229.00390625,-23.92578125,0.0
1734413056.08062,-54.19921875,-384.765625,-67.3828125,-36.62109375,0.0
1734413056.0845149,-74.21875,-213.37890625,-83.0078125,-48.33984375,0.0
1734413056.0885084,-62.5,87.890625,-44.43359375,-51.26953125,0.0
1734413056.0924032,-47.36328125,-250.0,-333.984375,-26.3671875,0.0
1734413056.0962982,-51.26953125,-323.73046875,-120.60546875,-15.625,0.0
1734413056.100193,-68.84765625,173.33984375,230.95703125,-59.08203125,0.0
1734413056.1040878,-91.796875,123.53515625,-39.55078125,-62.5,0.0
1734413056.1079826,-80.56640625,-530.2734375,-437.5,-28.3203125,0.0
1734413056.1118774,-67.3828125,-845.21484375,-535.64453125,-19.53125,0.0
1734413056.1157722,-84.47265625,-301.26953125,-1.953125,-49.8046875,0.0
1734413056.119667,-104.98046875,110.83984375,177.734375,-66.40625,0.0
1734413056.1235619,-107.421875,-368.1640625,-276.3671875,-55.6640625,0.0
1734413056.1274567,-94.23828125,-789.0625,-428.22265625,-55.6640625,0.0
1734413056.1313515,-81.54296875,-268.5546875,-366.69921875,-53.7109375,0.0
1734413056.135418,-97.16796875,38.57421875,-80.078125,-42.48046875,0.0
1734413056.1393127,-117.1875,-100.5859375,31.25,-72.75390625,0.0
1734413056.1432076,-116.69921875,-158.69140625,-266.11328125,-87.40234375,0.0
1734413056.1471024,-129.39453125,-144.04296875,-380.859375,-76.66015625,0.0
1734413056.1509972,-132.8125,-213.37890625,-446.77734375,-62.5,0.0
1734413056.1548922,-110.3515625,-541.015625,-366.2109375,-71.77734375,0.0
1734413056.158787,-120.1171875,-422.8515625,-183.10546875,-85.9375,0.0
1734413056.1626818,-135.25390625,-105.46875,-292.48046875,-92.7734375,0.0
1734413056.1665766,-136.71875,-460.44921875,-558.59375,-84.47265625,0.0
1734413056.1704714,-143.5546875,-855.95703125,-689.453125,-71.77734375,0.0
1734413056.1743665,-165.0390625,-436.03515625,-381.8359375,-88.37890625,0.0
1734413056.1782613,-184.5703125,-16.11328125,-210.9375,-114.74609375,0.0
1734413056.182316,-165.0390625,-350.5859375,-473.6328125,-91.796875,0.0
1734413056.186211,-137.20703125,-789.0625,-586.42578125,-72.75390625,0.0
1734413056.190106,-113.28125,-578.125,-514.6484375,-67.87109375,0.0
1734413056.1940007,-104.4921875,-71.2890625,-264.6484375,-63.96484375,0.0
1734413056.1978958,-88.8671875,-129.39453125,-30.2734375,-69.3359375,0.0
1734413056.2017906,-104.98046875,-508.30078125,-294.43359375,-74.70703125,0.0
1734413056.2056854,-105.95703125,-575.68359375,-408.69140625,-59.08203125,0.0
1734413056.2095802,-56.15234375,-401.3671875,-340.33203125,-54.19921875,0.0
1734413056.2134752,-32.71484375,-646.97265625,-421.38671875,-45.8984375,0.0
1734413056.21737,-37.109375,-613.28125,-94.23828125,-37.59765625,0.0
1734413056.2212648,-91.30859375,152.34375,240.234375,-58.10546875,0.0
1734413056.22516,-65.91796875,133.7890625,76.66015625,-53.22265625,0.0
