timestamps,TP9,AF7,AF8,TP10,Right AUX
1734413083.1872807,47.8515625,853.515625,710.9375,117.1875,0.0
1734413083.1911817,37.109375,879.39453125,712.890625,131.34765625,0.0
1734413083.1950827,29.296875,894.04296875,728.02734375,157.2265625,0.0
1734413083.1989837,46.875,909.66796875,770.5078125,158.69140625,0.0
1734413083.2028847,71.77734375,812.01171875,767.08984375,142.08984375,0.0
1734413083.2067857,54.19921875,625.9765625,661.62109375,127.9296875,0.0
1734413083.210687,31.25,758.7890625,733.88671875,135.25390625,0.0
1734413083.214588,30.2734375,934.5703125,799.31640625,175.29296875,0.0
1734413083.218489,56.640625,800.29296875,779.296875,192.3828125,0.0
1734413083.22239,62.5,871.09375,834.9609375,162.109375,0.0
1734413083.226291,49.8046875,-984.375,828.61328125,134.27734375,0.0
1734413083.2302604,29.296875,895.5078125,799.8046875,141.11328125,0.0
1734413083.2341614,27.34375,860.3515625,809.5703125,164.0625,0.0
1734413083.2380624,44.921875,953.125,827.1484375,160.15625,0.0
1734413083.2419634,50.29296875,997.0703125,839.84375,126.953125,0.0
1734413083.2458644,39.55078125,852.05078125,756.8359375,94.7265625,0.0
1734413083.2497654,22.4609375,566.40625,675.78125,92.28515625,0.0
1734413083.2536664,9.765625,580.078125,687.98828125,109.375,0.0
1734413083.2575676,5.37109375,935.05859375,774.4140625,115.234375,0.0
1734413083.2614686,21.97265625,701.171875,686.5234375,92.7734375,0.0
1734413083.2653697,14.6484375,216.30859375,569.82421875,49.8046875,0.0
1734413083.2692707,-9.27734375,648.92578125,621.09375,25.87890625,0.0
1734413083.2731717,-28.80859375,842.7734375,623.53515625,52.734375,0.0
1734413083.2771785,-13.18359375,678.22265625,626.953125,67.3828125,0.0
1734413083.2810795,9.27734375,765.625,656.25,41.9921875,0.0
1734413083.2849808,-13.671875,851.5625,585.9375,2.9296875,0.0
1734413083.2888818,-21.97265625,595.21484375,452.63671875,-0.9765625,0.0
1734413083.2927828,-34.1796875,221.6796875,432.6171875,20.01953125,0.0
1734413083.2966838,-39.55078125,98.6328125,437.01171875,7.32421875,0.0
1734413083.3005848,-6.8359375,206.0546875,469.23828125,-10.7421875,0.0
1734413083.3044858,-0.48828125,219.23828125,425.78125,-34.1796875,0.0
1734413083.3083868,-15.13671875,-380.859375,26.85546875,-26.3671875,0.0
1734413083.312288,-32.71484375,-550.29296875,46.38671875,0.9765625,0.0
1734413083.316189,-46.38671875,92.28515625,343.26171875,-17.08984375,0.0
1734413083.32009,-18.06640625,266.6015625,391.11328125,-32.2265625,0.0
1734413083.324051,-9.765625,124.51171875,321.2890625,-55.6640625,0.0
1734413083.327952,-42.48046875,123.53515625,145.5078125,-90.33203125,0.0
1734413083.331853,-62.5,95.703125,156.25,-81.54296875,0.0
1734413083.335754,-43.45703125,-73.2421875,120.60546875,-57.12890625,0.0
1734413083.3396552,-20.01953125,-112.79296875,154.296875,-77.1484375,0.0
1734413083.3435562,-34.1796875,-210.9375,116.69921875,-122.55859375,0.0
1734413083.3474572,-54.19921875,-273.92578125,-239.2578125,-128.90625,0.0
1734413083.3513582,-69.3359375,-502.9296875,-415.52734375,-114.2578125,0.0
1734413083.3552592,-67.3828125,-592.28515625,-398.92578125,-96.6796875,0.0
1734413083.3591602,-49.8046875,16.11328125,-28.3203125,-105.46875,0.0
1734413083.3630614,-48.33984375,142.08984375,121.09375,-145.01953125,0.0
1734413083.3669624,-55.17578125,-492.1875,-472.16796875,-156.73828125,0.0
1734413083.370919,-84.9609375,-914.0625,-717.7734375,-141.6015625,0.0
1734413083.37482,-99.609375,-558.10546875,-437.5,-111.328125,0.0
1734413083.378721,-59.5703125,-284.1796875,-388.18359375,-121.09375,0.0
1734413083.382622,-50.78125,-315.4296875,-364.74609375,-155.76171875,0.0
1734413083.386523,-76.66015625,-382.32421875,-513.671875,-161.1328125,0.0
1734413083.390424,-89.35546875,-659.1796875,-653.3203125,-152.83203125,0.0
1734413083.3943253,-92.7734375,-772.94921875,-560.546875,-125.0,0.0
1734413083.3982263,-76.171875,-843.75,-604.00390625,-112.3046875,0.0
1734413083.4021273,-77.63671875,-648.92578125,-477.05078125,-149.4140625,0.0
1734413083.4060283,-88.8671875,-175.78125,-466.796875,-184.5703125,0.0
1734413083.4099293,-100.5859375,-489.2578125,-659.1796875,-167.96875,0.0
1734413083.4138305,-106.4453125,-729.00390625,-623.53515625,-123.046875,0.0
1734413083.41778,-83.49609375,-324.70703125,-465.33203125,-98.6328125,0.0
1734413083.421681,-70.3125,-49.31640625,-337.890625,-119.140625,0.0
1734413083.425582,-72.265625,-390.625,-562.5,-141.11328125,0.0
1734413083.4294832,-98.6328125,-668.9453125,-723.14453125,-136.71875,0.0
1734413083.4333842,-117.67578125,-646.97265625,-618.1640625,-118.1640625,0.0
1734413083.4372852,-86.42578125,-667.48046875,-549.8046875,-84.9609375,0.0
1734413083.4411862,-53.7109375,-756.8359375,-538.0859375,-86.9140625,0.0
1734413083.4450872,-66.40625,-883.30078125,-693.84765625,-124.0234375,0.0
1734413083.4489884,-92.28515625,-570.3125,-633.30078125,-134.765625,0.0
1734413083.4528894,-93.75,-391.6015625,-567.87109375,-105.46875,0.0
1734413083.4567904,-67.3828125,-520.01953125,-551.26953125,-71.2890625,0.0
1734413083.4606915,-51.26953125,-355.95703125,-367.67578125,-93.75,0.0
1734413083.4646368,-57.12890625,-78.125,-381.34765625,-125.9765625,0.0
1734413083.4685378,-65.4296875,-324.70703125,-652.34375,-127.44140625,0.0
1734413083.4724388,-77.1484375,-686.03515625,-661.1328125,-92.7734375,0.0
1734413083.47634,-62.01171875,-435.05859375,-475.09765625,-49.31640625,0.0
1734413083.480241,-21.97265625,-55.6640625,-344.23828125,-57.6171875,0.0
1734413083.484142,-21.97265625,-319.82421875,-424.8046875,-84.47265625,0.0
1734413083.488043,-37.109375,-821.2890625,-748.046875,-83.984375,0.0
1734413083.491944,-48.828125,-959.47265625,-730.46875,-61.5234375,0.0
1734413083.4958453,-59.08203125,-452.1484375,-455.078125,-41.015625,0.0
1734413083.4997463,-33.203125,-68.84765625,-304.6875,-33.69140625,0.0
1734413083.5036473,-25.87890625,-147.94921875,-306.15234375,-57.6171875,0.0
1734413083.5075483,-45.41015625,-157.2265625,-502.44140625,-97.16796875,0.0
1734413083.5114882,-61.5234375,-152.83203125,-494.62890625,-66.89453125,0.0
1734413083.5153894,-56.640625,-261.71875,-469.7265625,-20.01953125,0.0
1734413083.5192904,-28.80859375,-239.2578125,-343.75,-45.8984375,0.0
1734413083.5231915,-24.4140625,79.58984375,-2.44140625,-67.3828125,0.0
1734413083.5270925,-47.36328125,57.6171875,-298.828125,-56.15234375,0.0
1734413083.5309937,-63.96484375,-576.171875,-674.31640625,-64.94140625,0.0
1734413083.5348947,-58.59375,-823.73046875,-580.56640625,-38.57421875,0.0
1734413083.5387957,-33.203125,-89.35546875,-151.3671875,-18.06640625,0.0
1734413083.5426967,-20.99609375,331.54296875,136.71875,-30.76171875,0.0
1734413083.546598,-33.203125,-275.87890625,-338.37890625,-60.05859375,0.0
1734413083.550499,-61.03515625,-800.78125,-640.625,-67.3828125,0.0
1734413083.5544,-61.5234375,-307.6171875,-351.5625,-14.16015625,0.0
1734413083.558375,-33.203125,137.20703125,-104.4921875,-11.71875,0.0
1734413083.5622761,-21.97265625,50.78125,82.03125,-42.96875,0.0
1734413083.5661771,-31.73828125,-62.5,-229.4921875,-54.6875,0.0
1734413083.5700781,-61.5234375,-59.5703125,-467.7734375,-62.01171875,0.0
1734413083.5739791,-63.96484375,-99.609375,-361.328125,-16.11328125,0.0
1734413083.5778804,-36.1328125,-271.97265625,-351.5625,12.20703125,0.0
1734413083.5817814,-26.3671875,-311.5234375,-82.51953125,-13.671875,0.0
1734413083.5856824,-37.109375,-204.58984375,-195.80078125,-58.59375,0.0
1734413083.5895834,-53.7109375,-269.53125,-536.1328125,-92.28515625,0.0
1734413083.5934846,-69.3359375,-638.18359375,-492.1875,-47.8515625,0.0
1734413083.5973856,-48.828125,-316.89453125,-232.421875,-18.5546875,0.0
1734413083.6012866,-15.13671875,325.1953125,167.48046875,-41.9921875,0.0
1734413083.6052556,-13.18359375,42.48046875,-127.9296875,-59.5703125,0.0
1734413083.6091566,-32.71484375,-558.10546875,-672.36328125,-66.40625,0.0
1734413083.6130576,-58.59375,-591.796875,-525.87890625,-42.48046875,0.0
1734413083.6169586,-50.29296875,-70.80078125,-282.2265625,-9.765625,0.0
1734413083.6208599,-20.5078125,26.3671875,-145.5078125,-5.37109375,0.0
1734413083.6247609,-32.2265625,-429.19921875,-365.234375,-43.9453125,0.0
1734413083.6286619,-66.89453125,-538.57421875,-604.4921875,-80.56640625,0.0
1734413083.6325629,-84.9609375,-199.70703125,-444.3359375,-71.77734375,0.0
1734413083.636464,-52.24609375,-409.66796875,-498.046875,-27.83203125,0.0
1734413083.6403651,-20.01953125,-688.4765625,-378.90625,-14.6484375,0.0
1734413083.6442661,-33.69140625,-88.37890625,-111.81640625,-59.5703125,0.0
1734413083.6481674,-59.08203125,-61.5234375,-503.41796875,-94.23828125,0.0
1734413083.6521308,-73.73046875,-604.00390625,-604.00390625,-75.68359375,0.0
1734413083.6560318,-61.03515625,-414.55078125,-401.85546875,-33.203125,0.0
1734413083.6599329,-38.0859375,178.22265625,-100.09765625,-37.109375,0.0
1734413083.663834,-33.203125,139.16015625,-97.16796875,-72.75390625,0.0
1734413083.667735,-58.10546875,-461.9140625,-614.74609375,-88.8671875,0.0
1734413083.671636,-82.51953125,-861.81640625,-684.08203125,-70.80078125,0.0
1734413083.6755373,-67.3828125,-632.32421875,-506.34765625,-47.36328125,0.0
1734413083.6794384,-42.48046875,-327.1484375,-333.984375,-30.76171875,0.0
1734413083.6833394,-37.59765625,-641.11328125,-396.484375,-56.15234375,0.0
1734413083.6872406,-67.87109375,-689.453125,-595.21484375,-105.46875,0.0
1734413083.6911416,-97.65625,-219.7265625,-516.6015625,-99.609375,0.0
1734413083.6950426,-82.51953125,-266.6015625,-479.4921875,-47.36328125,0.0
1734413083.699004,0.0,-323.73046875,-333.0078125,-29.296875,0.0
1734413083.702905,0.0,43.45703125,11.23046875,-59.08203125,0.0
1734413083.7068062,0.0,60.546875,-314.453125,-98.14453125,0.0
1734413083.7107072,0.0,-449.70703125,-703.125,-95.21484375,0.0
1734413083.7146082,0.0,-527.83203125,-583.0078125,-40.52734375,0.0
1734413083.7185094,0.0,-243.65234375,-373.53515625,-25.87890625,0.0
1734413083.7224104,0.0,-250.9765625,-289.0625,-31.73828125,0.0
1734413083.7263114,0.0,-574.21875,-604.98046875,-54.6875,0.0
1734413083.7302127,0.0,-986.81640625,-827.1484375,-74.21875,0.0
1734413083.7341137,0.0,-513.18359375,-521.97265625,-44.921875,0.0
1734413083.7380147,0.0,66.89453125,-355.95703125,-28.80859375,0.0
1734413083.741916,0.0,-65.4296875,-292.96875,-34.1796875,0.0
1734413083.7458675,-37.59765625,-249.51171875,-478.515625,-80.078125,0.0
1734413083.7497687,-76.66015625,-275.87890625,-673.33984375,-115.72265625,0.0
1734413083.7536697,-89.84375,-350.09765625,-620.1171875,-72.265625,0.0
1734413083.7575707,-60.546875,-348.14453125,-506.8359375,-24.90234375,0.0
1734413083.761472,-35.15625,-123.53515625,-335.9375,-34.66796875,0.0
1734413083.765373,-45.8984375,-348.6328125,-550.29296875,-74.21875,0.0
1734413083.769274,-71.77734375,-765.625,-787.109375,-110.83984375,0.0
1734413083.7731752,-77.63671875,-942.3828125,-788.57421875,-82.03125,0.0
1734413083.7770762,-56.640625,-620.60546875,-610.3515625,-27.34375,0.0
1734413083.7809772,-28.3203125,65.91796875,-303.22265625,-44.921875,0.0
1734413083.7848785,-37.109375,-58.10546875,-450.68359375,-84.47265625,0.0
1734413083.7887795,-72.265625,-719.23828125,-818.359375,-86.42578125,0.0
1734413083.7927294,-94.7265625,-743.1640625,-746.58203125,-79.58984375,0.0
1734413083.7966304,-91.30859375,-197.265625,-519.53125,-51.7578125,0.0
1734413083.8005316,-65.4296875,-122.55859375,-415.0390625,-35.64453125,0.0
1734413083.8044326,-60.546875,-297.8515625,-502.44140625,-64.94140625,0.0
1734413083.8083336,-86.42578125,-312.5,-719.23828125,-97.65625,0.0
1734413083.8122349,-96.6796875,-573.73046875,-744.140625,-85.9375,0.0
1734413083.816136,-63.96484375,-858.3984375,-736.81640625,-18.06640625,0.0
1734413083.820037,-35.15625,-803.7109375,-572.75390625,1.953125,0.0
1734413083.8239381,-49.8046875,-208.984375,-333.984375,-43.9453125,0.0
1734413083.8278391,-52.734375,-99.609375,-623.046875,-55.17578125,0.0
1734413083.8317401,-58.10546875,-578.125,-729.00390625,-45.41015625,0.0
1734413083.8356414,-57.12890625,-455.56640625,-535.15625,11.71875,0.0
1734413083.8395853,-15.625,98.14453125,-295.8984375,56.640625,0.0
1734413083.8434863,-1.46484375,189.94140625,-235.3515625,30.76171875,0.0
1734413083.8473876,-16.11328125,-361.81640625,-616.69921875,-18.5546875,0.0
1734413083.8512886,-23.92578125,-663.57421875,-696.77734375,-7.8125,0.0
1734413083.8551898,-24.90234375,-300.29296875,-492.67578125,51.26953125,0.0
1734413083.8590908,11.23046875,-125.9765625,-357.91015625,66.40625,0.0
1734413083.8629918,33.203125,-602.05078125,-401.3671875,51.7578125,0.0
1734413083.866893,0.9765625,-780.2734375,-604.00390625,4.8828125,0.0
1734413083.870794,-24.4140625,-211.42578125,-540.0390625,-19.53125,0.0
1734413083.874695,-18.5546875,-165.52734375,-467.7734375,40.52734375,0.0
1734413083.8785963,8.30078125,-108.88671875,-263.18359375,83.984375,0.0
1734413083.8824973,25.87890625,238.76953125,89.84375,55.6640625,0.0
1734413083.8864374,2.9296875,168.9453125,-217.7734375,15.625,0.0
1734413083.8903384,-34.1796875,-383.7890625,-697.75390625,2.9296875,0.0
1734413083.8942394,-42.48046875,-594.7265625,-618.1640625,27.83203125,0.0
1734413083.8981407,-18.5546875,-79.1015625,-351.07421875,45.41015625,0.0
1734413083.9020417,-3.41796875,198.73046875,-79.1015625,33.203125,0.0
1734413083.9059427,-7.32421875,-377.9296875,-439.453125,11.71875,0.0
1734413083.909844,-29.78515625,-1000.0,-905.76171875,-31.25,0.0
1734413083.913745,-52.734375,-815.91796875,-692.87109375,-30.76171875,0.0
1734413083.9176462,-34.66796875,-226.5625,-493.1640625,10.25390625,0.0
1734413083.9215472,-6.34765625,-428.22265625,-518.06640625,4.8828125,0.0
1734413083.9254482,-23.92578125,-830.56640625,-747.0703125,-49.8046875,0.0
1734413083.9293494,-67.3828125,-589.35546875,-849.609375,-90.33203125,0.0
1734413083.9333234,-85.9375,-666.50390625,-888.18359375,-78.125,0.0
1734413083.9372246,-65.4296875,-857.91015625,-880.859375,-37.59765625,0.0
1734413083.9411256,-42.96875,-574.21875,-674.31640625,-30.76171875,0.0
1734413083.9450266,-58.10546875,-354.00390625,-685.546875,-70.3125,0.0
1734413083.9489279,-77.63671875,-660.15625,-915.0390625,-107.421875,0.0
1734413083.952829,-88.37890625,-932.6171875,-923.828125,-96.19140625,0.0
1734413083.9567301,-78.61328125,-965.8203125,-857.421875,-48.33984375,0.0
1734413083.9606311,-46.875,-642.578125,-647.4609375,-35.15625,0.0
1734413083.9645321,-33.69140625,-421.875,-594.7265625,-60.05859375,0.0
1734413083.9684334,-54.6875,-782.2265625,-852.5390625,-66.40625,0.0
1734413083.9723344,-81.0546875,-796.38671875,-838.37890625,-72.75390625,0.0
1734413083.9762354,-71.2890625,-368.65234375,-699.21875,-51.7578125,0.0
1734413083.9802063,-36.1328125,-234.375,-537.109375,-24.4140625,0.0
1734413083.9841073,-23.4375,-337.890625,-519.53125,-48.828125,0.0
1734413083.9880085,-48.33984375,-313.96484375,-686.5234375,-69.3359375,0.0
1734413083.9919095,-75.1953125,-310.05859375,-688.4765625,-62.01171875,0.0
1734413083.9958107,-70.3125,-446.77734375,-676.26953125,-26.85546875,0.0
1734413083.9997118,-31.25,-531.25,-547.36328125,0.0,0.0
1734413084.0036128,-19.53125,-266.11328125,-322.265625,-27.34375,0.0
1734413084.007514,-40.0390625,-7.8125,-458.984375,-56.640625,0.0
1734413084.011415,-62.98828125,-499.51171875,-691.40625,-40.52734375,0.0
1734413084.0153162,-60.05859375,-814.453125,-673.828125,18.06640625,0.0
1734413084.0192173,-31.73828125,-0.9765625,-228.515625,29.78515625,0.0
1734413084.0231183,-11.71875,382.32421875,103.515625,12.20703125,0.0
1734413084.027083,-15.625,-139.6484375,-286.1328125,-4.39453125,0.0
1734413084.030984,-39.55078125,-475.09765625,-583.984375,-10.7421875,0.0
1734413084.034885,-51.26953125,-152.83203125,-395.99609375,28.80859375,0.0
1734413084.0387862,-18.5546875,187.5,-117.67578125,55.6640625,0.0
1734413084.0426872,16.11328125,117.1875,153.80859375,43.45703125,0.0
1734413084.0465884,6.8359375,-173.33984375,-172.8515625,13.18359375,0.0
1734413084.0504894,-15.13671875,-352.5390625,-475.5859375,12.6953125,0.0
1734413084.0543907,-16.6015625,-322.265625,-361.328125,50.29296875,0.0
1734413084.0582917,19.53125,-529.296875,-331.54296875,85.9375,0.0
1734413084.0621927,48.828125,-223.6328125,86.42578125,77.1484375,0.0
1734413084.066094,29.296875,465.33203125,260.25390625,31.73828125,0.0
1734413084.069995,6.8359375,119.140625,-229.4921875,17.578125,0.0
1734413084.073951,-6.8359375,-288.57421875,-319.82421875,34.66796875,0.0
1734413084.0778522,5.859375,130.859375,87.890625,70.80078125,0.0
1734413084.0817533,42.48046875,608.3984375,411.1328125,68.84765625,0.0
1734413084.0856545,47.8515625,249.0234375,162.109375,30.2734375,0.0
1734413084.0895555,9.27734375,-182.6171875,-297.8515625,4.39453125,0.0
1734413084.0934567,-20.01953125,-224.12109375,-356.4453125,36.1328125,0.0
1734413084.0973577,4.8828125,-98.14453125,-114.2578125,71.77734375,0.0
1734413084.101259,46.38671875,-53.22265625,139.16015625,69.82421875,0.0
1734413084.10516,41.50390625,-387.6953125,113.28125,41.50390625,0.0
1734413084.1090612,4.39453125,-20.5078125,-7.32421875,-15.13671875,0.0
1734413084.1129622,-14.16015625,204.1015625,-145.99609375,-6.34765625,0.0
1734413084.1168633,0.48828125,-2.44140625,-58.59375,41.9921875,0.0
1734413084.120817,28.3203125,264.16015625,254.39453125,37.59765625,0.0
1734413084.124718,35.15625,552.24609375,372.0703125,-2.9296875,0.0
1734413084.1286192,18.06640625,282.2265625,-0.48828125,-21.484375,0.0
1734413084.1325202,-0.48828125,-116.69921875,-314.94140625,-3.41796875,0.0
1734413084.1364214,9.765625,-53.7109375,-68.359375,25.390625,0.0
1734413084.1403224,50.78125,50.78125,226.5625,46.875,0.0
1734413084.1442237,47.8515625,16.11328125,258.7890625,32.2265625,0.0
1734413084.1481247,19.53125,-540.0390625,-236.328125,-19.04296875,0.0
1734413084.152026,-9.27734375,-718.26171875,-488.28125,-21.484375,0.0
1734413084.155927,-17.578125,86.42578125,-6.34765625,13.18359375,0.0
1734413084.1598282,15.13671875,291.015625,255.859375,36.62109375,0.0
1734413084.1637292,21.97265625,155.2734375,278.80859375,21.97265625,0.0
1734413084.1676798,-4.8828125,171.38671875,86.9140625,-20.5078125,0.0
1734413084.1715808,-29.78515625,182.12890625,-160.15625,-24.4140625,0.0
1734413084.175482,-23.92578125,-105.95703125,-297.36328125,5.37109375,0.0
1734413084.179383,12.20703125,-151.3671875,-58.59375,25.87890625,0.0
1734413084.183284,22.94921875,328.125,369.140625,5.37109375,0.0
1734413084.1871853,-2.44140625,118.65234375,15.13671875,-35.15625,0.0
1734413084.1910863,-27.34375,-527.83203125,-508.30078125,-35.64453125,0.0
1734413084.1949875,-31.25,-756.34765625,-497.0703125,0.0,0.0
1734413084.1988885,-14.6484375,20.99609375,79.1015625,8.30078125,0.0
1734413084.2027898,5.37109375,508.7890625,384.765625,-7.32421875,0.0
1734413084.2066908,-4.8828125,49.8046875,6.34765625,-34.66796875,0.0
1734413084.210592,-33.69140625,-157.71484375,-340.33203125,-53.22265625,0.0
1734413084.214537,-35.64453125,98.14453125,-198.2421875,-28.3203125,0.0
1734413084.2184381,-2.44140625,256.34765625,92.7734375,16.6015625,0.0
1734413084.2223392,20.01953125,169.921875,305.6640625,12.20703125,0.0
1734413084.2262404,9.765625,140.13671875,187.98828125,-27.34375,0.0
1734413084.2301414,-13.671875,62.5,-244.140625,-49.8046875,0.0
1734413084.2340426,-17.08984375,-236.81640625,-379.39453125,-26.3671875,0.0
1734413084.2379436,14.16015625,-695.80078125,-414.0625,19.53125,0.0
1734413084.241845,38.0859375,-638.18359375,-66.89453125,15.13671875,0.0
1734413084.245746,15.625,153.80859375,255.37109375,-30.76171875,0.0
1734413084.2496471,-12.20703125,75.68359375,-224.609375,-53.7109375,0.0
1734413084.2535481,-23.92578125,-282.71484375,-422.8515625,-36.1328125,0.0
1734413084.2574494,-8.30078125,36.62109375,-78.125,1.953125,0.0
1734413084.261429,31.73828125,438.4765625,312.98828125,7.8125,0.0
1734413084.2653303,30.2734375,185.05859375,168.9453125,-11.23046875,0.0
1734413084.2692313,6.34765625,-185.546875,-297.8515625,-39.0625,0.0
1734413084.2731326,-17.08984375,-40.0390625,-364.74609375,-20.5078125,0.0
1734413084.2770336,-16.11328125,189.94140625,-149.4140625,13.671875,0.0
1734413084.2809348,29.296875,-103.515625,6.8359375,21.484375,0.0
1734413084.2848358,41.9921875,-514.16015625,-63.96484375,-1.953125,0.0
1734413084.288737,10.7421875,-96.6796875,-231.93359375,-51.26953125,0.0
1734413084.292638,-11.71875,60.05859375,-357.91015625,-55.6640625,0.0
1734413084.2965393,-0.9765625,-285.64453125,-360.83984375,-8.30078125,0.0
1734413084.3004405,29.296875,-125.48828125,-35.15625,6.8359375,0.0
1734413084.3043416,34.66796875,320.3125,266.11328125,-29.78515625,0.0
1734413084.3083153,16.6015625,177.24609375,-129.8828125,-59.5703125,0.0
1734413084.3122165,-10.25390625,-278.3203125,-472.16796875,-57.12890625,0.0
1734413084.3161175,-1.46484375,-260.25390625,-358.88671875,-9.27734375,0.0
1734413084.3200188,33.203125,226.5625,1.953125,21.484375,0.0
1734413084.3239198,50.29296875,220.21484375,208.0078125,7.8125,0.0
1734413084.327821,32.71484375,-298.828125,-283.69140625,-33.69140625,0.0
1734413084.331722,1.953125,-632.32421875,-562.01171875,-49.31640625,0.0
1734413084.3356233,-1.46484375,-557.12890625,-455.078125,-5.37109375,0.0
1734413084.3395243,24.4140625,-215.33203125,-237.79296875,13.671875,0.0
1734413084.3434255,45.41015625,-503.41796875,-145.99609375,-5.859375,0.0
1734413084.3473268,18.06640625,-514.16015625,-361.81640625,-41.9921875,0.0
1734413084.3512278,-22.94921875,-8.30078125,-414.0625,-65.91796875,0.0
1734413084.3551989,-19.53125,-207.51953125,-429.19921875,-25.87890625,0.0
1734413084.3591,10.25390625,-189.453125,-275.390625,7.32421875,0.0
1734413084.363001,33.69140625,187.01171875,164.0625,-5.37109375,0.0
1734413084.3669024,22.4609375,222.65625,-27.83203125,-43.9453125,0.0
1734413084.3708034,-2.44140625,-234.375,-563.4765625,-61.03515625,0.0
1734413084.3747046,-16.6015625,-715.8203125,-591.30859375,-34.1796875,0.0
1734413084.3786056,1.46484375,-365.234375,-288.57421875,6.8359375,0.0
1734413084.3825068,30.2734375,248.046875,160.64453125,-2.9296875,0.0
1734413084.386408,28.3203125,-268.5546875,-173.33984375,-36.62109375,0.0
1734413084.390309,-1.953125,-833.0078125,-671.38671875,-63.4765625,0.0
1734413084.3942103,-30.2734375,-292.96875,-400.87890625,-59.08203125,0.0
1734413084.3981113,-11.23046875,83.0078125,-257.32421875,-6.34765625,0.0
1734413084.4020739,26.85546875,-5.859375,-24.90234375,-8.7890625,0.0
1734413084.4059749,26.85546875,18.06640625,48.33984375,-44.43359375,0.0
1734413084.409876,-0.48828125,73.2421875,-307.6171875,-65.91796875,0.0
1734413084.4137774,-17.578125,-99.12109375,-449.70703125,-54.19921875,0.0
1734413084.4176784,12.6953125,-267.578125,-428.7109375,-10.7421875,0.0
1734413084.4215796,46.38671875,-257.32421875,-154.296875,2.9296875,0.0
1734413084.4254806,36.62109375,-155.2734375,2.44140625,-28.80859375,0.0
1734413084.4293818,18.06640625,-274.90234375,-393.5546875,-64.453125,0.0
1734413084.433283,11.23046875,-757.8125,-620.1171875,-40.0390625,0.0
1734413084.437184,25.87890625,-529.296875,-410.15625,-2.44140625,0.0
1734413084.4410853,54.6875,258.7890625,105.95703125,-7.32421875,0.0
1734413084.4449863,69.82421875,95.21484375,135.25390625,-14.6484375,0.0
1734413084.4489443,43.9453125,-188.96484375,-331.54296875,-49.8046875,0.0
1734413084.4528456,1.46484375,-222.16796875,-449.21875,-69.3359375,0.0
1734413084.4567466,1.46484375,-19.04296875,-294.43359375,-20.99609375,0.0
1734413084.4606478,35.64453125,83.984375,-38.57421875,6.34765625,0.0
1734413084.4645488,41.9921875,6.34765625,151.85546875,-22.94921875,0.0
1734413084.46845,27.34375,-127.9296875,-250.48828125,-52.24609375,0.0
1734413084.4723513,6.8359375,-389.6484375,-491.2109375,-55.6640625,0.0
1734413084.4762523,15.625,-527.83203125,-466.30859375,-6.34765625,0.0
1734413084.4801536,55.17578125,-605.95703125,-329.58984375,25.390625,0.0
1734413084.4840546,66.40625,112.79296875,217.7734375,-8.7890625,0.0
1734413084.4879558,42.48046875,342.28515625,-38.0859375,-52.24609375,0.0
1734413084.491857,8.30078125,-195.80078125,-462.890625,-62.5,0.0
1734413084.4958127,0.0,-187.5,-340.8203125,-17.08984375,0.0
1734413084.499714,38.0859375,283.203125,8.30078125,17.578125,0.0
1734413084.503615,74.70703125,212.40234375,213.8671875,-0.48828125,0.0
1734413084.5075161,57.12890625,-123.53515625,-123.53515625,-39.55078125,0.0
1734413084.5114172,22.4609375,-179.19921875,-436.03515625,-55.17578125,0.0
1734413084.5153184,13.671875,-313.96484375,-436.03515625,-29.296875,0.0
1734413084.5192196,36.1328125,-235.3515625,-263.671875,1.953125,0.0
1734413084.5231206,62.98828125,-525.87890625,-183.10546875,6.34765625,0.0
1734413084.527022,42.96875,-518.5546875,-286.62109375,-35.64453125,0.0
1734413084.5309231,9.765625,73.2421875,-317.87109375,-59.5703125,0.0
1734413084.5348241,5.37109375,-77.1484375,-374.0234375,-21.97265625,0.0
1734413084.5387254,36.1328125,-153.80859375,-229.98046875,14.16015625,0.0
1734413084.542714,66.40625,252.9296875,221.19140625,6.8359375,0.0
1734413084.5466154,54.6875,440.91796875,219.7265625,-22.4609375,0.0
1734413084.5505166,28.80859375,-39.55078125,-327.63671875,-33.203125,0.0
1734413084.5544176,27.34375,-355.46875,-484.375,-13.671875,0.0
1734413084.5583189,50.29296875,-2.9296875,-170.8984375,20.5078125,0.0
1734413084.56222,76.66015625,103.515625,187.01171875,28.3203125,0.0
1734413084.566121,74.21875,-336.42578125,-85.9375,-9.765625,0.0
1734413084.5700223,41.015625,-665.52734375,-562.5,-41.50390625,0.0
1734413084.5739236,28.3203125,-200.68359375,-360.3515625,-19.53125,0.0
1734413084.5778246,54.19921875,172.8515625,-157.2265625,33.203125,0.0
1734413084.5817258,79.1015625,-65.4296875,39.0625,39.0625,0.0
1734413084.585627,86.9140625,-114.2578125,102.5390625,-0.9765625,0.0
1734413084.589572,67.3828125,102.5390625,-193.359375,-44.43359375,0.0
1734413084.593473,47.8515625,27.34375,-376.953125,-33.69140625,0.0
1734413084.5973742,75.1953125,-518.06640625,-456.0546875,42.96875,0.0
1734413084.6012754,95.21484375,-498.046875,-137.6953125,49.8046875,0.0
1734413084.6051764,87.40234375,211.9140625,239.74609375,-2.9296875,0.0
1734413084.6090777,77.63671875,-130.859375,-271.97265625,-25.87890625,0.0
1734413084.612979,54.19921875,-696.77734375,-536.62109375,-20.01953125,0.0
1734413084.61688,50.78125,-463.37890625,-298.828125,19.53125,0.0
1734413084.6207812,83.49609375,181.15234375,110.83984375,34.1796875,0.0
1734413084.6246824,105.95703125,175.78125,235.3515625,2.9296875,0.0
1734413084.6285834,89.35546875,-502.44140625,-254.39453125,-21.484375,0.0
1734413084.6324847,50.29296875,-562.98828125,-457.51953125,-20.5078125,0.0
1734413084.6364229,44.921875,81.0546875,-242.67578125,7.32421875,0.0
1734413084.640324,83.0078125,116.69921875,13.671875,25.390625,0.0
1734413084.6442254,103.515625,96.6796875,263.671875,6.34765625,0.0
1734413084.6481266,79.58984375,224.12109375,-8.7890625,-25.87890625,0.0
1734413084.6520276,57.12890625,119.62890625,-333.984375,-32.2265625,0.0
1734413084.6559289,63.96484375,-383.30078125,-494.62890625,27.83203125,0.0
1734413084.65983,79.58984375,-540.52734375,-307.6171875,58.10546875,0.0
1734413084.663731,96.6796875,67.3828125,240.72265625,21.484375,0.0
1734413084.6676323,81.54296875,301.26953125,100.5859375,-14.16015625,0.0
1734413084.6715336,48.828125,-314.94140625,-429.19921875,-20.99609375,0.0
1734413084.6754346,36.1328125,-590.33203125,-501.953125,3.90625,0.0
1734413084.6793358,55.6640625,110.3515625,-36.1328125,37.59765625,0.0
1734413084.6833105,84.47265625,140.625,242.67578125,26.3671875,0.0
1734413084.6872118,75.68359375,-128.41796875,-64.94140625,-19.53125,0.0
1734413084.691113,42.48046875,-130.37109375,-387.20703125,-27.34375,0.0
1734413084.695014,21.484375,7.32421875,-322.265625,-19.53125,0.0
1734413084.6989152,47.36328125,99.609375,-185.05859375,3.90625,0.0
1734413084.7028165,80.078125,-60.05859375,161.1328125,2.9296875,0.0
1734413084.7067175,70.3125,-267.08984375,23.92578125,-31.25,0.0
1734413084.7106187,44.43359375,-332.51953125,-397.94921875,-48.33984375,0.0
1734413084.71452,27.83203125,-195.3125,-351.5625,-28.3203125,0.0
1734413084.718421,54.19921875,-459.47265625,-335.44921875,19.53125,0.0
1734413084.7223222,74.21875,-145.99609375,126.953125,19.53125,0.0
1734413084.7262235,69.82421875,465.33203125,302.734375,-18.5546875,0.0
1734413084.7301915,53.22265625,70.3125,-229.00390625,-42.96875,0.0
1734413084.7340927,24.4140625,-264.16015625,-421.38671875,-24.90234375,0.0
1734413084.7379937,37.59765625,34.1796875,-176.7578125,9.765625,0.0
1734413084.741895,75.68359375,167.96875,180.17578125,25.87890625,0.0
1734413084.7457962,75.1953125,-55.17578125,130.37109375,-5.37109375,0.0
1734413084.7496974,43.45703125,-395.5078125,-361.328125,-56.15234375,0.0
1734413084.7535985,14.6484375,-413.0859375,-437.98828125,-46.875,0.0
1734413084.7574997,16.6015625,67.3828125,-170.41015625,-5.37109375,0.0
1734413084.761401,56.640625,-46.38671875,-24.90234375,20.01953125,0.0
1734413084.765302,72.265625,-450.68359375,28.3203125,10.7421875,0.0
1734413084.7692032,37.59765625,-33.203125,-75.68359375,-50.78125,0.0
1734413084.7731044,8.7890625,59.08203125,-358.3984375,-72.75390625,0.0
1734413084.7770681,23.92578125,-239.2578125,-343.26171875,-9.765625,0.0
1734413084.7809694,48.33984375,22.4609375,35.64453125,11.23046875,0.0
1734413084.7848706,64.453125,412.109375,335.44921875,-15.625,0.0
1734413084.7887716,54.6875,222.65625,-38.57421875,-53.22265625,0.0
1734413084.7926729,16.6015625,-249.0234375,-424.8046875,-68.84765625,0.0
1734413084.796574,12.20703125,-505.859375,-418.45703125,-16.11328125,0.0
1734413084.8004754,47.36328125,-264.6484375,-102.05078125,6.8359375,0.0
1734413084.8043764,68.359375,20.01953125,234.375,-16.11328125,0.0
1734413084.8082776,59.08203125,-531.25,-227.05078125,-39.55078125,0.0
1734413084.8121789,23.92578125,-640.625,-502.44140625,-60.05859375,0.0
1734413084.81608,9.765625,4.8828125,-256.34765625,-24.90234375,0.0
1734413084.819981,48.828125,71.77734375,-11.23046875,5.37109375,0.0
1734413084.8239381,76.171875,87.890625,284.1796875,-4.8828125,0.0
1734413084.8278394,61.03515625,206.0546875,126.953125,-25.87890625,0.0
1734413084.8317406,26.85546875,146.97265625,-213.8671875,-54.19921875,0.0
1734413084.8356419,21.484375,-166.015625,-400.87890625,-20.99609375,0.0
1734413084.8395429,57.12890625,-151.85546875,-160.64453125,12.6953125,0.0
1734413084.843444,75.1953125,89.84375,273.4375,-2.9296875,0.0
1734413084.8473454,61.03515625,-12.6953125,70.80078125,-33.203125,0.0
1734413084.8512466,43.45703125,-459.9609375,-478.02734375,-41.015625,0.0
1734413084.8551476,20.5078125,-738.28125,-528.3203125,-11.23046875,0.0
1734413084.8590488,40.52734375,-130.37109375,-75.1953125,7.8125,0.0
1734413084.86295,74.21875,116.2109375,226.5625,0.0,0.0
1734413084.8668513,68.359375,-45.8984375,110.3515625,-20.99609375,0.0
1734413084.8708034,31.73828125,-44.43359375,-253.90625,-45.8984375,0.0
1734413084.8747046,4.8828125,-46.875,-341.796875,-47.8515625,0.0
1734413084.8786056,32.71484375,-2.44140625,-127.9296875,-0.48828125,0.0
1734413084.8825068,64.453125,184.5703125,286.62109375,17.578125,0.0
1734413084.886408,57.12890625,240.234375,214.35546875,-20.99609375,0.0
1734413084.8903093,34.66796875,-113.28125,-325.68359375,-44.43359375,0.0
1734413084.8942103,14.16015625,-351.5625,-414.55078125,-35.15625,0.0
1734413084.8981116,24.90234375,-708.984375,-426.7578125,9.765625,0.0
1734413084.9020128,50.29296875,-380.37109375,-35.15625,11.71875,0.0
1734413084.905914,48.828125,497.0703125,366.2109375,-39.55078125,0.0
1734413084.9098153,29.78515625,181.640625,-101.5625,-62.98828125,0.0
1734413084.9137163,11.71875,-208.0078125,-407.2265625,-47.36328125,0.0
1734413084.9176633,25.390625,-18.06640625,-223.6328125,2.9296875,0.0
1734413084.9215646,69.3359375,174.31640625,161.1328125,14.16015625,0.0
1734413084.9254658,84.47265625,143.06640625,218.26171875,-19.53125,0.0
1734413084.929367,56.640625,-41.015625,-245.60546875,-47.36328125,0.0
1734413084.933268,19.04296875,-86.42578125,-421.875,-48.828125,0.0
1734413084.9371693,27.34375,-207.51953125,-345.703125,-8.30078125,0.0
1734413084.9410706,67.3828125,-354.00390625,-182.12890625,22.94921875,0.0
1734413084.9449718,70.3125,-489.74609375,-9.765625,-1.953125,0.0
1734413084.948873,43.9453125,-82.51953125,-53.7109375,-45.41015625,0.0
1734413084.952774,24.4140625,113.28125,-326.171875,-45.41015625,0.0
1734413084.9566753,26.3671875,-257.8125,-366.69921875,3.41796875,0.0
1734413084.9605765,51.26953125,-28.3203125,8.30078125,25.390625,0.0
1734413084.9645207,59.5703125,493.1640625,353.02734375,-14.16015625,0.0
1734413084.968422,45.41015625,338.37890625,10.25390625,-56.15234375,0.0
1734413084.9723232,17.08984375,-171.875,-415.0390625,-63.96484375,0.0
1734413084.9762242,6.34765625,-197.75390625,-334.9609375,-33.203125,0.0
1734413084.9801254,55.6640625,-14.16015625,-161.1328125,12.6953125,0.0
1734413084.9840267,89.35546875,49.31640625,175.78125,6.8359375,0.0
1734413084.987928,68.84765625,-505.859375,-204.1015625,-29.296875,0.0
1734413084.9918292,33.69140625,-762.20703125,-563.96484375,-56.15234375,0.0
1734413084.9957302,10.7421875,-43.45703125,-280.2734375,-34.66796875,0.0
1734413084.9996314,31.25,150.390625,-77.63671875,6.34765625,0.0
1734413085.0035326,64.94140625,202.63671875,257.8125,-14.6484375,0.0
1734413085.007434,58.10546875,296.875,178.22265625,-49.8046875,0.0
1734413085.011374,29.78515625,208.0078125,-212.890625,-61.5234375,0.0
1734413085.015275,20.99609375,-164.55078125,-419.921875,-20.99609375,0.0
1734413085.0191762,49.31640625,-216.30859375,-241.69921875,27.34375,0.0
1734413085.0230775,77.63671875,328.125,262.6953125,24.4140625,0.0
1734413085.0269787,70.80078125,463.37890625,254.8828125,-21.97265625,0.0
1734413085.03088,48.33984375,-228.02734375,-382.32421875,-42.48046875,0.0
1734413085.034781,29.78515625,-703.125,-583.984375,-13.18359375,0.0
1734413085.0386822,32.71484375,-236.328125,-244.140625,2.44140625,0.0
1734413085.0425835,56.640625,199.70703125,170.41015625,-7.32421875,0.0
1734413085.0464847,58.59375,104.98046875,145.5078125,-49.31640625,0.0
1734413085.050386,25.87890625,-148.4375,-319.82421875,-83.0078125,0.0
1734413085.0542872,-9.27734375,-41.50390625,-385.7421875,-75.1953125,0.0
1734413085.0583014,11.71875,61.03515625,-215.33203125,-39.0625,0.0
1734413085.0622027,61.03515625,90.8203125,146.97265625,-32.2265625,0.0
1734413085.066104,62.98828125,124.51171875,246.58203125,-73.2421875,0.0
1734413085.0700052,30.76171875,163.0859375,-121.09375,-108.88671875,0.0
1734413085.0739062,15.13671875,-80.56640625,-396.97265625,-100.09765625,0.0
1734413085.0778074,13.18359375,-430.17578125,-398.4375,-62.01171875,0.0
1734413085.0817087,23.4375,-302.24609375,-59.5703125,-55.17578125,0.0
1734413085.08561,29.296875,-39.0625,194.3359375,-80.078125,0.0
1734413085.0895112,4.8828125,-147.4609375,-234.86328125,-112.3046875,0.0
1734413085.0934124,-14.16015625,-581.54296875,-504.39453125,-103.515625,0.0
1734413085.0973136,-13.18359375,-530.2734375,-367.1875,-74.21875,0.0
1734413085.1012146,17.08984375,84.9609375,10.25390625,-66.40625,0.0
1734413085.105186,36.1328125,250.48828125,284.1796875,-82.03125,0.0
1734413085.1090872,15.625,12.6953125,-128.41796875,-115.72265625,0.0
1734413085.1129882,-9.27734375,-32.2265625,-412.109375,-111.81640625,0.0
1734413085.1168895,-9.765625,114.2578125,-232.91015625,-75.1953125,0.0
1734413085.1207907,23.92578125,119.140625,35.64453125,-58.59375,0.0
1734413085.124692,53.7109375,-142.08984375,168.45703125,-59.5703125,0.0
1734413085.1285932,38.57421875,-84.9609375,-22.4609375,-95.21484375,0.0
1734413085.1324944,19.04296875,35.15625,-324.70703125,-110.3515625,0.0
1734413085.1363957,14.16015625,-290.0390625,-409.1796875,-65.4296875,0.0
1734413085.140297,28.80859375,-169.43359375,-104.4921875,-37.109375,0.0
1734413085.144198,59.5703125,366.2109375,305.6640625,-39.55078125,0.0
1734413085.1480992,55.17578125,398.92578125,161.1328125,-60.546875,0.0
1734413085.1520624,22.4609375,-348.14453125,-408.203125,-87.40234375,0.0
1734413085.1559637,8.7890625,-813.96484375,-596.6796875,-69.82421875,0.0
1734413085.1598647,36.62109375,-150.87890625,-168.9453125,-38.0859375,0.0
1734413085.163766,53.7109375,312.01171875,261.71875,-36.62109375,0.0
1734413085.1676672,44.43359375,130.37109375,65.4296875,-54.19921875,0.0
1734413085.1715684,34.66796875,-318.359375,-415.52734375,-75.1953125,0.0
1734413085.1754696,16.6015625,-469.7265625,-410.15625,-58.10546875,0.0
1734413085.1793709,39.55078125,-187.01171875,-195.3125,-18.06640625,0.0
1734413085.1832721,77.63671875,-372.55859375,-57.12890625,-7.32421875,0.0
1734413085.1871734,58.10546875,-299.31640625,74.70703125,-41.015625,0.0
1734413085.1910746,30.2734375,266.6015625,-61.03515625,-64.453125,0.0
1734413085.1949756,32.2265625,-23.92578125,-392.578125,-40.0390625,0.0
1734413085.1989348,42.48046875,-98.6328125,-209.47265625,0.0,0.0
1734413085.202836,64.94140625,355.46875,242.1875,15.13671875,0.0
1734413085.2067373,71.2890625,511.71875,292.96875,-9.765625,0.0
1734413085.2106385,46.38671875,66.89453125,-191.40625,-52.734375,0.0
1734413085.2145398,20.99609375,-260.7421875,-444.82421875,-57.6171875,0.0
1734413085.218441,33.203125,-142.578125,-286.1328125,-21.484375,0.0
1734413085.2223423,67.87109375,40.52734375,103.515625,0.9765625,0.0
1734413085.2262435,70.80078125,-101.07421875,97.65625,-13.671875,0.0
1734413085.2301447,51.26953125,-555.17578125,-399.4140625,-41.9921875,0.0
1734413085.234046,22.4609375,-229.4921875,-363.76953125,-31.73828125,0.0
1734413085.237947,26.85546875,178.7109375,-145.01953125,-13.671875,0.0
1734413085.2418482,52.734375,169.43359375,141.11328125,-6.8359375,0.0
1734413085.2458017,60.546875,254.39453125,290.0390625,-14.6484375,0.0
1734413085.2497027,47.8515625,332.51953125,1.953125,-53.7109375,0.0
1734413085.253604,37.59765625,44.43359375,-366.2109375,-42.96875,0.0
1734413085.2575052,40.52734375,-166.015625,-366.2109375,-3.41796875,0.0
1734413085.2614064,53.7109375,122.0703125,26.3671875,11.23046875,0.0
1734413085.2653077,62.01171875,170.41015625,267.578125,-17.578125,0.0
1734413085.269209,42.48046875,-105.46875,-122.0703125,-52.734375,0.0
1734413085.2731102,25.390625,-629.39453125,-570.3125,-46.875,0.0
1734413085.2770114,13.18359375,-750.9765625,-484.375,-16.6015625,0.0
1734413085.2809126,42.48046875,98.14453125,38.0859375,-4.8828125,0.0
1734413085.284814,74.21875,403.3203125,302.734375,-14.6484375,0.0
1734413085.2887151,56.640625,88.37890625,-23.92578125,-39.0625,0.0
1734413085.2926633,30.76171875,26.3671875,-336.9140625,-58.10546875,0.0
1734413085.2965646,20.5078125,26.3671875,-318.84765625,-26.85546875,0.0
1734413085.3004656,52.24609375,20.99609375,-79.1015625,9.27734375,0.0
1734413085.3043668,66.89453125,178.22265625,261.71875,-1.46484375,0.0
1734413085.308268,56.15234375,310.05859375,130.859375,-34.66796875,0.0
1734413085.3121693,26.85546875,-82.03125,-320.3125,-61.03515625,0.0
1734413085.3160706,3.90625,-586.9140625,-521.484375,-10.7421875,0.0
1734413085.3199718,34.1796875,-650.87890625,-405.76171875,15.625,0.0
1734413085.323873,58.10546875,112.3046875,212.40234375,-30.2734375,0.0
1734413085.3277743,49.8046875,484.375,238.76953125,-43.45703125,0.0
1734413085.3316755,19.04296875,-57.6171875,-278.3203125,-64.453125,0.0
1734413085.3355768,10.25390625,-399.90234375,-425.29296875,-58.10546875,0.0
1734413085.3395193,29.78515625,-40.52734375,-175.29296875,-8.7890625,0.0
1734413085.3434205,52.734375,427.24609375,257.32421875,-3.90625,0.0
1734413085.3473217,51.26953125,252.9296875,199.21875,-37.59765625,0.0
1734413085.351223,20.5078125,19.53125,-241.69921875,-58.59375,0.0
1734413085.3551242,1.46484375,-37.109375,-403.3203125,-57.12890625,0.0
1734413085.3590255,19.04296875,-72.75390625,-293.9453125,-21.97265625,0.0
1734413085.3629267,42.48046875,-475.5859375,-250.48828125,4.39453125,0.0
1734413085.366828,36.62109375,-470.703125,-62.98828125,-31.25,0.0
1734413085.3707292,17.578125,171.875,-76.66015625,-70.3125,0.0
1734413085.3746305,0.48828125,-13.671875,-411.1328125,-44.43359375,0.0
1734413085.3785317,13.18359375,-119.140625,-247.0703125,-7.32421875,0.0
1734413085.382433,55.17578125,306.15234375,195.80078125,-7.32421875,0.0
1734413085.386372,53.7109375,534.66796875,313.4765625,-26.3671875,0.0
1734413085.3902733,28.3203125,166.9921875,-123.53515625,-50.78125,0.0
1734413085.3941746,15.13671875,-345.703125,-498.53515625,-47.36328125,0.0
1734413085.3980758,9.27734375,-249.51171875,-329.1015625,-15.625,0.0
1734413085.401977,23.92578125,270.5078125,135.25390625,3.90625,0.0
1734413085.4058783,52.24609375,25.390625,115.234375,-7.32421875,0.0
1734413085.4097795,39.55078125,-534.1796875,-353.515625,-39.0625,0.0
1734413085.4136808,-7.8125,-207.03125,-384.765625,-57.6171875,0.0
1734413085.417582,-10.25390625,145.99609375,-223.14453125,-26.3671875,0.0
1734413085.4214833,27.83203125,18.06640625,-59.5703125,8.7890625,0.0
1734413085.4253843,42.48046875,95.21484375,198.73046875,-16.11328125,0.0
1734413085.4292855,27.83203125,327.1484375,52.24609375,-45.8984375,0.0
1734413085.4332573,3.41796875,94.7265625,-348.14453125,-62.98828125,0.0
1734413085.4371586,-3.41796875,-205.56640625,-378.90625,-27.83203125,0.0
1734413085.4410598,21.484375,20.99609375,-26.3671875,11.71875,0.0
1734413085.444961,41.50390625,458.49609375,327.1484375,-1.953125,0.0
1734413085.4488623,33.69140625,346.19140625,66.89453125,-36.62109375,0.0
1734413085.4527636,4.39453125,-339.84375,-416.50390625,-47.8515625,0.0
1734413085.4566648,-12.6953125,-563.4765625,-397.94921875,-16.11328125,0.0
1734413085.460566,17.578125,-204.1015625,-188.96484375,9.765625,0.0
1734413085.4644673,42.96875,1.46484375,126.46484375,-13.18359375,0.0
1734413085.4683685,28.3203125,-344.23828125,-75.1953125,-46.38671875,0.0
1734413085.4722698,-10.25390625,-412.109375,-413.0859375,-66.89453125,0.0
1734413085.476171,-17.578125,61.5234375,-293.9453125,-51.7578125,0.0
1734413085.4801407,18.06640625,111.328125,-162.59765625,-2.9296875,0.0
1734413085.484042,35.15625,165.52734375,158.69140625,-1.953125,0.0
1734413085.4879432,11.23046875,331.0546875,202.63671875,-56.640625,0.0
1734413085.4918444,-17.08984375,202.1484375,-209.47265625,-90.33203125,0.0
1734413085.4957457,-45.41015625,-179.19921875,-444.3359375,-75.68359375,0.0
1734413085.499647,-32.2265625,-412.109375,-376.46484375,-45.8984375,0.0
1734413085.5035481,2.44140625,4.8828125,131.34765625,-34.66796875,0.0
1734413085.5074494,1.953125,260.25390625,249.51171875,-73.2421875,0.0
1734413085.5113506,-27.34375,-391.11328125,-394.53125,-101.07421875,0.0
1734413085.5152519,-69.82421875,-876.46484375,-622.55859375,-85.44921875,0.0
1734413085.519153,-77.63671875,-150.390625,-144.53125,-73.2421875,0.0
1734413085.5230544,-45.8984375,437.98828125,243.65234375,-76.66015625,0.0
1734413085.5270169,-45.41015625,175.29296875,207.51953125,-91.796875,0.0
1734413085.5309181,-59.08203125,-51.7578125,-187.5,-121.58203125,0.0
1734413085.5348194,-79.1015625,14.16015625,-369.62890625,-89.84375,0.0
1734413085.5387206,-68.359375,91.30859375,-209.47265625,-24.90234375,0.0
1734413085.5426219,-23.92578125,60.546875,107.421875,-37.59765625,0.0
1734413085.546523,-20.5078125,-74.21875,197.75390625,-62.01171875,0.0
1734413085.5504243,-35.64453125,-269.53125,-234.86328125,-83.0078125,0.0
1734413085.5543256,-54.19921875,-378.90625,-446.77734375,-87.890625,0.0
1734413085.5582268,-48.33984375,-693.84765625,-450.68359375,-44.43359375,0.0
1734413085.562128,-5.37109375,-389.6484375,-85.44921875,-22.94921875,0.0
1734413085.5660293,10.25390625,470.21484375,369.62890625,-50.78125,0.0
1734413085.5699306,-7.32421875,216.796875,-52.734375,-80.078125,0.0
1734413085.573888,-28.80859375,-411.1328125,-509.765625,-79.1015625,0.0
1734413085.5777893,-29.296875,-270.99609375,-337.890625,-35.64453125,0.0
1734413085.5816905,6.34765625,316.40625,109.86328125,-10.7421875,0.0
1734413085.585592,20.01953125,291.9921875,272.94921875,-18.5546875,0.0
1734413085.5894933,6.8359375,-60.05859375,-121.09375,-50.29296875,0.0
1734413085.5933945,-15.625,-282.71484375,-451.66015625,-77.63671875,0.0
1734413085.5972958,-34.1796875,-322.75390625,-363.28125,-39.55078125,0.0
1734413085.601197,-4.39453125,-299.8046875,-252.9296875,-7.8125,0.0
1734413085.6050982,20.01953125,-61.5234375,81.54296875,-20.99609375,0.0
1734413085.6089995,-7.8125,293.45703125,164.55078125,-57.12890625,0.0
1734413085.6129007,-31.73828125,203.125,-217.28515625,-75.1953125,0.0
1734413085.616802,-34.66796875,-446.2890625,-493.1640625,-35.64453125,0.0
1734413085.6207554,-16.11328125,-579.1015625,-270.5078125,1.46484375,0.0
1734413085.6246567,2.44140625,349.12109375,348.6328125,-21.97265625,0.0
1734413085.628558,-0.9765625,436.5234375,151.85546875,-45.8984375,0.0
1734413085.6324592,-22.4609375,-204.58984375,-368.65234375,-54.6875,0.0
1734413085.6363604,-37.109375,-408.203125,-413.0859375,-40.52734375,0.0
1734413085.6402617,-9.765625,-184.08203125,-271.97265625,-1.46484375,0.0
1734413085.644163,26.3671875,71.77734375,173.33984375,-0.48828125,0.0
1734413085.6480641,23.92578125,-436.5234375,-103.02734375,-24.90234375,0.0
1734413085.6519654,-7.8125,-737.3046875,-562.01171875,-52.734375,0.0
1734413085.6558666,-29.78515625,7.32421875,-276.3671875,-52.734375,0.0
1734413085.6597679,-16.11328125,112.79296875,-203.125,-21.484375,0.0
1734413085.663669,7.8125,123.53515625,104.98046875,-20.99609375,0.0
1734413085.6676552,10.25390625,355.46875,253.41796875,-44.921875,0.0
1734413085.6715565,-12.6953125,262.20703125,-148.92578125,-79.58984375,0.0
1734413085.6754577,-29.78515625,-126.46484375,-417.96875,-69.3359375,0.0
1734413085.6793592,-9.27734375,-165.52734375,-264.16015625,-20.01953125,0.0
1734413085.6832604,37.109375,271.484375,191.89453125,-7.8125,0.0
1734413085.6871617,37.109375,194.3359375,234.86328125,-41.50390625,0.0
1734413085.691063,5.37109375,-412.109375,-365.72265625,-89.35546875,0.0
1734413085.6949642,-12.6953125,-796.38671875,-617.67578125,-77.1484375,0.0
1734413085.6988654,-27.83203125,-194.3359375,-200.1953125,-31.73828125,0.0
1734413085.7027667,-3.41796875,393.5546875,191.40625,-4.39453125,0.0
1734413085.706668,14.16015625,177.24609375,192.87109375,-23.92578125,0.0
1734413085.7105691,-8.7890625,-71.77734375,-196.2890625,-62.98828125,0.0
1734413085.714513,-40.52734375,41.9921875,-346.6796875,-70.80078125,0.0
1734413085.7184143,-34.1796875,-57.6171875,-310.546875,-24.4140625,0.0
1734413085.7223155,8.7890625,-115.234375,-120.60546875,1.953125,0.0
1734413085.7262168,-0.9765625,225.09765625,251.953125,-38.0859375,0.0
1734413085.730118,-35.64453125,210.44921875,-29.296875,-66.89453125,0.0
1734413085.7340193,-42.96875,-249.0234375,-473.14453125,-57.6171875,0.0
1734413085.7379205,-39.55078125,-583.49609375,-440.4296875,-25.390625,0.0
1734413085.741822,-18.06640625,-298.828125,-110.83984375,-13.18359375,0.0
1734413085.7457232,7.8125,332.51953125,314.453125,-27.83203125,0.0
1734413085.7496245,-10.25390625,289.0625,16.11328125,-53.22265625,0.0
1734413085.7535257,-38.0859375,-551.26953125,-503.90625,-54.19921875,0.0
1734413085.757427,-39.0625,-545.41015625,-375.48828125,-15.625,0.0
1734413085.761364,-22.4609375,271.484375,41.9921875,4.8828125,0.0
1734413085.7652652,10.25390625,320.80078125,276.3671875,-16.11328125,0.0
1734413085.7691665,1.953125,18.5546875,55.17578125,-50.29296875,0.0
1734413085.773068,-29.78515625,-13.18359375,-276.3671875,-63.96484375,0.0
1734413085.7769692,-37.59765625,41.015625,-310.05859375,-31.25,0.0
1734413085.7808704,-5.37109375,-227.5390625,-336.42578125,2.44140625,0.0
1734413085.7847717,25.390625,-529.78515625,-104.98046875,3.90625,0.0
1734413085.788673,16.6015625,-56.15234375,149.90234375,-33.69140625,0.0
1734413085.7925742,-21.97265625,170.8984375,-207.51953125,-68.359375,0.0
1734413085.7964754,-52.24609375,-220.21484375,-399.90234375,-51.7578125,0.0
1734413085.8003767,-36.1328125,-83.984375,-96.19140625,-20.5078125,0.0
1734413085.804278,-11.23046875,453.61328125,335.44921875,-19.53125,0.0
1734413085.8082507,-17.08984375,416.015625,211.42578125,-39.55078125,0.0
1734413085.812152,-34.66796875,-199.70703125,-299.8046875,-74.70703125,0.0
1734413085.8160532,-33.203125,-348.6328125,-397.94921875,-66.40625,0.0
1734413085.8199544,-1.46484375,127.9296875,-125.0,2.9296875,0.0
1734413085.8238556,20.01953125,370.1171875,258.30078125,0.9765625,0.0
1734413085.827757,-9.765625,-36.1328125,75.1953125,-64.94140625,0.0
1734413085.8316584,-55.6640625,-471.6796875,-403.80859375,-88.37890625,0.0
1734413085.8355596,-79.1015625,-388.671875,-396.484375,-79.58984375,0.0
1734413085.8394608,-77.1484375,-87.890625,-193.84765625,-51.7578125,0.0
1734413085.843362,-44.43359375,-138.18359375,6.8359375,-26.85546875,0.0
1734413085.8472633,-24.4140625,-30.76171875,176.26953125,-40.0390625,0.0
1734413085.8511646,-55.6640625,239.2578125,-51.7578125,-87.40234375,0.0
1734413085.8551323,-77.1484375,-101.5625,-413.57421875,-78.61328125,0.0
1734413085.8590336,-59.5703125,-285.15625,-307.12890625,-8.30078125,0.0
1734413085.862935,-42.48046875,189.94140625,164.0625,9.765625,0.0
1734413085.8668363,-23.4375,494.140625,338.8671875,-21.97265625,0.0
1734413085.8707376,-35.15625,41.015625,-139.6484375,-47.8515625,0.0
1734413085.8746388,-46.875,-548.828125,-520.99609375,-32.71484375,0.0
1734413085.87854,-33.203125,-480.95703125,-380.859375,19.04296875,0.0
1734413085.8824413,-16.6015625,192.87109375,104.4921875,18.06640625,0.0
1734413085.8863425,11.23046875,107.421875,129.8828125,3.90625,0.0
1734413085.890244,3.90625,-618.65234375,-400.390625,-10.7421875,0.0
1734413085.8941453,-46.38671875,-251.953125,-366.69921875,-48.33984375,0.0
1734413085.8980465,-49.31640625,55.6640625,-265.625,-13.18359375,0.0
1734413085.9020104,-8.7890625,-0.9765625,-107.421875,19.53125,0.0
1734413085.9059117,3.90625,232.91015625,232.91015625,0.0,0.0
1734413085.909813,-0.48828125,323.73046875,88.37890625,-28.3203125,0.0
1734413085.9137144,-7.8125,39.55078125,-330.078125,-35.15625,0.0
1734413085.9176157,-28.80859375,-302.24609375,-418.45703125,-5.37109375,0.0
1734413085.921517,-12.6953125,-312.01171875,-233.3984375,18.06640625,0.0
1734413085.9254181,24.90234375,-63.96484375,145.01953125,16.6015625,0.0
1734413085.9293194,22.94921875,-140.13671875,-42.48046875,-16.6015625,0.0
1734413085.9332206,-15.625,-689.453125,-553.7109375,-18.5546875,0.0
1734413085.937122,-44.43359375,-624.0234375,-461.42578125,7.8125,0.0
1734413085.9410233,-22.94921875,204.1015625,-3.41796875,23.92578125,0.0
1734413085.9449246,5.37109375,342.28515625,277.34375,24.90234375,0.0
1734413085.9488838,1.953125,81.0546875,135.25390625,-14.6484375,0.0
1734413085.952785,-21.97265625,24.90234375,-214.35546875,-44.43359375,0.0
1734413085.9566863,-37.109375,51.26953125,-317.3828125,-17.08984375,0.0
1734413085.9605875,-19.53125,7.8125,-207.03125,23.92578125,0.0
1734413085.964489,22.4609375,47.8515625,110.3515625,18.06640625,0.0
1734413085.9683902,32.2265625,-75.68359375,148.4375,-2.9296875,0.0
1734413085.9722915,-2.9296875,-149.90234375,-229.4921875,-37.109375,0.0
1734413085.9761927,-27.34375,-320.3125,-470.21484375,-17.578125,0.0
1734413085.980094,-10.7421875,-670.8984375,-451.66015625,28.80859375,0.0
1734413085.9839954,11.71875,97.16796875,179.6875,11.23046875,0.0
1734413085.9878967,17.08984375,462.40234375,274.4140625,-16.6015625,0.0
1734413085.991798,-10.25390625,-137.20703125,-250.48828125,-43.9453125,0.0
1734413085.9957502,-38.57421875,-249.0234375,-384.765625,-45.41015625,0.0
1734413085.9996514,-31.73828125,160.64453125,-128.41796875,-16.11328125,0.0
1734413086.0035527,0.48828125,376.953125,203.125,-4.39453125,0.0
1734413086.007454,12.6953125,181.640625,272.94921875,-16.11328125,0.0
1734413086.0113554,-14.6484375,0.0,-114.2578125,-47.8515625,0.0
1734413086.0152566,-20.99609375,-247.0703125,-433.10546875,-50.29296875,0.0
1734413086.019158,-18.06640625,-312.98828125,-316.89453125,-10.7421875,0.0
1734413086.0230591,-2.9296875,-540.0390625,-273.4375,20.01953125,0.0
1734413086.0269604,16.11328125,-424.8046875,25.87890625,8.30078125,0.0
1734413086.0308619,-3.90625,207.51953125,20.01953125,-48.828125,0.0
1734413086.034763,-42.96875,-44.921875,-393.06640625,-44.921875,0.0
1734413086.0386643,-44.921875,-201.66015625,-279.296875,-2.44140625,0.0
1734413086.0426133,-4.39453125,215.33203125,124.0234375,6.34765625,0.0
1734413086.0465147,8.30078125,481.93359375,350.5859375,-6.8359375,0.0
1734413086.050416,-5.37109375,41.015625,-83.49609375,-35.64453125,0.0
1734413086.0543172,-33.69140625,-312.98828125,-459.47265625,-54.6875,0.0
1734413086.0582185,-37.59765625,-63.4765625,-287.59765625,-18.06640625,0.0
1734413086.0621197,-6.34765625,3.90625,-80.56640625,16.6015625,0.0
1734413086.0660212,20.99609375,-196.2890625,65.4296875,9.27734375,0.0
1734413086.0699224,9.27734375,-581.54296875,-253.90625,-37.59765625,0.0
1734413086.0738237,-43.45703125,-260.7421875,-376.46484375,-65.91796875,0.0
1734413086.077725,-53.22265625,103.02734375,-261.23046875,-30.2734375,0.0
1734413086.0816264,-15.13671875,-27.34375,-119.62890625,0.0,0.0
1734413086.0855277,13.18359375,121.09375,198.2421875,-4.8828125,0.0
1734413086.0894709,-2.9296875,352.05078125,195.3125,-32.2265625,0.0
1734413086.0933723,-33.69140625,134.27734375,-237.3046875,-44.43359375,0.0
1734413086.0972736,-45.41015625,-245.60546875,-414.55078125,-25.390625,0.0
1734413086.1011748,-25.390625,-47.36328125,-60.05859375,13.18359375,0.0
1734413086.105076,-0.9765625,363.76953125,320.80078125,13.671875,0.0
1734413086.1089776,2.9296875,142.08984375,88.37890625,-26.85546875,0.0
1734413086.1128788,-18.5546875,-585.9375,-501.953125,-48.828125,0.0
1734413086.11678,-41.015625,-879.39453125,-585.9375,-36.62109375,0.0
1734413086.1206813,-33.69140625,-177.734375,-155.76171875,1.953125,0.0
1734413086.1245825,-9.765625,251.46484375,214.35546875,11.71875,0.0
1734413086.128484,-19.53125,90.8203125,161.1328125,-31.25,0.0
1734413086.1323853,-47.36328125,62.98828125,-181.15234375,-70.80078125,0.0
1734413086.136323,-55.17578125,104.98046875,-316.89453125,-54.6875,0.0
1734413086.1402245,-37.109375,-11.71875,-250.0,7.8125,0.0
1734413086.1441257,-2.9296875,17.08984375,46.875,19.53125,0.0
1734413086.148027,-13.18359375,298.33984375,270.01953125,-25.87890625,0.0
1734413086.1519282,-43.45703125,212.40234375,-111.81640625,-60.05859375,0.0
1734413086.1558297,-62.5,-414.0625,-541.9921875,-45.8984375,0.0
1734413086.159731,-47.8515625,-788.0859375,-479.4921875,5.37109375,0.0
1734413086.1636322,-11.71875,18.06640625,145.99609375,13.671875,0.0
1734413086.1675334,-2.9296875,442.3828125,285.64453125,-16.6015625,0.0
1734413086.1714349,-26.85546875,-125.9765625,-202.1484375,-56.640625,0.0
1734413086.1753361,-62.01171875,-257.32421875,-383.30078125,-58.10546875,0.0
1734413086.1792374,-55.17578125,101.07421875,-209.47265625,-30.76171875,0.0
1734413086.1832092,-20.99609375,360.83984375,153.3203125,-11.71875,0.0
1734413086.1871107,-16.11328125,-10.25390625,193.84765625,-29.78515625,0.0
1734413086.191012,-35.64453125,-187.98828125,-126.46484375,-67.87109375,0.0
1734413086.1949131,-55.17578125,57.6171875,-314.453125,-62.98828125,0.0
1734413086.1988144,-54.6875,-6.8359375,-311.5234375,-28.80859375,0.0
1734413086.2027159,-21.484375,-170.8984375,-195.3125,-16.6015625,0.0
1734413086.206617,-0.48828125,-220.703125,99.609375,-32.2265625,0.0
1734413086.2105184,-20.01953125,-123.53515625,-43.45703125,-49.31640625,0.0
1734413086.2144196,-45.41015625,-116.69921875,-405.2734375,-55.6640625,0.0
1734413086.218321,-53.7109375,-543.45703125,-426.7578125,-35.64453125,0.0
1734413086.2222223,-36.1328125,-249.51171875,-42.96875,-1.953125,0.0
1734413086.2261236,-2.9296875,431.640625,346.6796875,-18.5546875,0.0
1734413086.230094,-6.8359375,39.55078125,-48.828125,-56.15234375,0.0
1734413086.2339952,-39.55078125,-258.7890625,-429.6875,-66.89453125,0.0
1734413086.2378967,-60.05859375,-61.5234375,-328.125,-42.96875,0.0
1734413086.241798,-43.9453125,278.80859375,-11.23046875,-17.08984375,0.0
1734413086.2456992,-12.20703125,276.3671875,258.30078125,-23.92578125,0.0
1734413086.2496004,-23.4375,-215.33203125,-89.84375,-58.10546875,0.0
1734413086.253502,-59.08203125,-322.75390625,-422.8515625,-76.66015625,0.0
1734413086.2574031,-77.63671875,22.4609375,-269.53125,-70.3125,0.0
1734413086.2613044,-53.22265625,-117.1875,-312.01171875,-32.2265625,0.0
1734413086.2652059,-11.71875,-469.7265625,-125.0,-14.16015625,0.0
1734413086.269107,-26.3671875,88.8671875,220.703125,-51.7578125,0.0
1734413086.2730083,-57.6171875,221.6796875,-189.453125,-82.03125,0.0
1734413086.2770114,-64.94140625,-274.4140625,-436.5234375,-55.6640625,0.0
1734413086.2809126,-50.78125,-116.69921875,-152.83203125,-19.04296875,0.0
1734413086.2848141,-20.01953125,387.20703125,271.484375,-25.87890625,0.0
1734413086.2887154,-9.765625,165.52734375,170.41015625,-48.33984375,0.0
1734413086.2926166,-39.55078125,-279.296875,-333.984375,-64.94140625,0.0
1734413086.296518,-71.77734375,-448.2421875,-455.56640625,-66.40625,0.0
1734413086.3004193,-64.453125,-394.53125,-382.32421875,-42.48046875,0.0
1734413086.3043206,-12.6953125,-64.453125,32.71484375,-22.94921875,0.0
1734413086.308222,2.9296875,-466.30859375,-56.15234375,-39.0625,0.0
1734413086.3121233,-33.69140625,-716.796875,-520.99609375,-68.359375,0.0
1734413086.3160245,-68.84765625,-27.83203125,-320.80078125,-79.58984375,0.0
1734413086.319926,-54.19921875,56.15234375,-240.234375,-49.31640625,0.0
1734413086.3238838,-15.625,54.19921875,20.01953125,-28.3203125,0.0
1734413086.327785,-27.34375,333.0078125,293.45703125,-49.8046875,0.0
1734413086.3316865,-55.17578125,338.8671875,-29.78515625,-80.078125,0.0
1734413086.3355877,-77.63671875,-104.98046875,-441.89453125,-76.66015625,0.0
1734413086.339489,-76.66015625,-280.76171875,-395.5078125,-38.0859375,0.0
1734413086.3433905,-44.921875,-99.12109375,-90.33203125,-13.671875,0.0
1734413086.3472917,-34.66796875,-0.48828125,188.96484375,-40.0390625,0.0
1734413086.351193,-43.9453125,-285.15625,-203.61328125,-78.125,0.0
1734413086.3550944,-70.80078125,-433.59375,-526.3671875,-88.37890625,0.0
1734413086.3589957,-83.49609375,44.43359375,-232.91015625,-43.9453125,0.0
1734413086.362897,-42.48046875,421.38671875,145.01953125,-7.8125,0.0
1734413086.3667984,-22.94921875,23.92578125,119.140625,-27.34375,0.0
1734413086.3707495,-55.17578125,-551.7578125,-334.9609375,-69.3359375,0.0
1734413086.3746507,-88.8671875,-97.16796875,-351.5625,-90.33203125,0.0
1734413086.378552,-88.8671875,88.8671875,-273.92578125,-44.921875,0.0
1734413086.3824534,-48.828125,-9.27734375,-160.64453125,-16.6015625,0.0
1734413086.3863547,-30.76171875,210.9375,210.9375,-32.2265625,0.0
1734413086.390256,-45.41015625,97.65625,-4.8828125,-58.10546875,0.0
1734413086.3941574,-63.96484375,-290.52734375,-454.58984375,-78.61328125,0.0
1734413086.3980587,-67.87109375,-759.765625,-551.26953125,-39.0625,0.0
1734413086.4019601,-53.22265625,-507.8125,-250.0,-14.6484375,0.0
1734413086.4058614,-63.96484375,281.73828125,264.6484375,-64.94140625,0.0
1734413086.4097626,-84.9609375,5.859375,-26.3671875,-107.421875,0.0
1734413086.413664,-130.37109375,-266.11328125,-395.99609375,-141.6015625,0.0
1734413086.4176133,-192.87109375,-94.7265625,-345.703125,-177.24609375,0.0
1734413086.4215145,-187.01171875,197.75390625,-140.625,-168.9453125,0.0
1734413086.425416,-158.203125,173.828125,166.50390625,-162.109375,0.0
1734413086.4293172,-172.36328125,44.43359375,168.45703125,-207.51953125,0.0
1734413086.4332187,-209.9609375,51.26953125,-252.9296875,-255.37109375,0.0
1734413086.43712,-243.65234375,-251.46484375,-435.546875,-227.05078125,0.0
1734413086.4410212,-218.26171875,-432.12890625,-418.9453125,-185.546875,0.0
1734413086.4449227,-179.19921875,-517.578125,-211.42578125,-179.6875,0.0
1734413086.448824,-187.5,4.8828125,187.98828125,-225.09765625,0.0
1734413086.4527252,-204.1015625,247.55859375,-158.203125,-255.859375,0.0
1734413086.4566267,-228.02734375,-223.14453125,-437.5,-228.515625,0.0
1734413086.460528,-231.93359375,-114.2578125,-200.68359375,-198.2421875,0.0
1734413086.4644701,-187.98828125,344.23828125,194.3359375,-182.6171875,0.0
1734413086.4683714,-170.8984375,153.3203125,187.01171875,-187.98828125,0.0
1734413086.4722729,-191.40625,-216.796875,-271.97265625,-218.26171875,0.0
1734413086.476174,-212.40234375,-206.54296875,-389.6484375,-218.75,0.0
1734413086.4800756,-205.56640625,22.94921875,-269.53125,-177.24609375,0.0
1734413086.4839768,-168.45703125,107.91015625,65.91796875,-153.80859375,0.0
1734413086.487878,-145.01953125,-466.30859375,-40.0390625,-155.2734375,0.0
1734413086.4917796,-156.25,-787.109375,-497.0703125,-170.41015625,0.0
1734413086.4956808,-182.6171875,-138.671875,-353.515625,-196.2890625,0.0
1734413086.499582,-178.22265625,30.76171875,-312.01171875,-157.71484375,0.0
1734413086.5034835,-144.04296875,40.52734375,-35.64453125,-121.58203125,0.0
1734413086.5073848,-115.72265625,357.421875,323.73046875,-142.578125,0.0
1734413086.511323,-136.71875,388.18359375,49.31640625,-174.31640625,0.0
1734413086.5152242,-165.52734375,-71.2890625,-395.5078125,-177.734375,0.0
1734413086.5191255,-162.109375,-262.20703125,-385.25390625,-136.23046875,0.0
1734413086.523027,-137.6953125,175.78125,27.83203125,-101.07421875,0.0
1734413086.5269282,-115.72265625,278.3203125,296.38671875,-126.46484375,0.0
1734413086.5308294,-122.0703125,-211.9140625,-168.45703125,-167.48046875,0.0
1734413086.534731,-141.6015625,-788.57421875,-609.86328125,-163.0859375,0.0
1734413086.5386322,-150.87890625,-348.6328125,-325.1953125,-133.30078125,0.0
1734413086.5425336,-113.76953125,278.3203125,21.484375,-97.16796875,0.0
1734413086.5464349,-77.1484375,169.921875,216.30859375,-97.65625,0.0
1734413086.5503361,-95.21484375,87.890625,66.40625,-125.9765625,0.0
1734413086.5542376,-127.44140625,152.83203125,-226.07421875,-153.80859375,0.0
1734413086.5582137,-133.7890625,73.73046875,-327.63671875,-118.65234375,0.0
1734413086.5621152,-98.6328125,-86.9140625,-245.60546875,-55.17578125,0.0
1734413086.5660164,-62.5,126.953125,155.2734375,-50.78125,0.0
1734413086.569918,-76.171875,401.3671875,235.3515625,-103.515625,0.0
1734413086.5738192,-110.3515625,112.3046875,-263.18359375,-133.30078125,0.0
1734413086.5777204,-111.81640625,-398.92578125,-454.1015625,-87.40234375,0.0
1734413086.581622,-90.8203125,-468.75,-330.078125,-42.48046875,0.0
1734413086.5855231,-58.59375,-82.03125,69.82421875,-37.109375,0.0
1734413086.5894246,-50.29296875,17.08984375,175.78125,-62.01171875,0.0
1734413086.5933259,-84.47265625,-449.70703125,-316.89453125,-95.703125,0.0
1734413086.5972273,-110.83984375,-392.578125,-395.01953125,-90.33203125,0.0
1734413086.6011286,-86.42578125,169.43359375,-111.81640625,-42.96875,0.0
1734413086.6050954,-46.875,253.41796875,212.40234375,-15.625,0.0
1734413086.6089969,-46.875,-54.6875,180.6640625,-60.05859375,0.0
1734413086.612898,-79.1015625,-81.0546875,-185.546875,-112.3046875,0.0
1734413086.6167994,-93.75,76.171875,-323.2421875,-91.796875,0.0
1734413086.6207008,-74.70703125,-73.2421875,-311.03515625,-41.015625,0.0
1734413086.624602,-46.38671875,-218.75,-92.7734375,-23.92578125,0.0
1734413086.6285036,-48.33984375,40.0390625,234.86328125,-56.640625,0.0
1734413086.6324048,-67.3828125,284.66796875,-12.6953125,-93.75,0.0
1734413086.6363063,-87.890625,-254.8828125,-476.5625,-80.56640625,0.0
1734413086.6402075,-97.16796875,-702.1484375,-494.62890625,-42.96875,0.0
1734413086.6441088,-56.15234375,-29.296875,49.8046875,-44.43359375,0.0
1734413086.6480103,-33.69140625,169.921875,251.953125,-52.24609375,0.0
1734413086.6519718,-62.01171875,-135.7421875,-120.60546875,-84.9609375,0.0
1734413086.6558733,-88.37890625,-118.65234375,-365.234375,-96.6796875,0.0
1734413086.6597745,-80.078125,110.3515625,-229.00390625,-39.55078125,0.0
1734413086.663676,-34.66796875,276.3671875,96.6796875,-12.6953125,0.0
1734413086.6675773,-29.78515625,200.68359375,299.31640625,-40.0390625,0.0
1734413086.6714787,-59.08203125,-170.8984375,-116.69921875,-76.171875,0.0
1734413086.67538,-80.56640625,-440.91796875,-477.05078125,-80.56640625,0.0
1734413086.6792812,-94.23828125,-357.91015625,-344.7265625,-54.19921875,0.0
1734413086.6831827,-69.3359375,-627.9296875,-348.6328125,-33.203125,0.0
1734413086.687084,-33.69140625,-392.578125,20.5078125,-40.0390625,0.0
1734413086.6909854,-42.48046875,369.62890625,207.51953125,-65.4296875,0.0
1734413086.6948867,-74.70703125,26.85546875,-301.7578125,-85.44921875,0.0
1734413086.6988454,-76.66015625,-231.4453125,-363.28125,-61.5234375,0.0
1734413086.7027466,-52.734375,32.71484375,-27.34375,-19.04296875,0.0
1734413086.706648,-20.99609375,246.09375,282.71484375,-36.62109375,0.0
1734413086.7105494,-42.48046875,136.71875,53.22265625,-82.03125,0.0
1734413086.7144508,-79.58984375,-221.19140625,-431.15234375,-96.19140625,0.0
1734413086.718352,-86.9140625,-401.85546875,-458.0078125,-60.546875,0.0
1734413086.7222536,-54.6875,-76.66015625,-107.91015625,-16.11328125,0.0
1734413086.7261548,-16.6015625,170.41015625,201.66015625,-27.83203125,0.0
1734413086.7300563,-21.97265625,-354.98046875,-156.73828125,-53.7109375,0.0
1734413086.7339575,-55.17578125,-128.90625,-332.03125,-83.984375,0.0
1734413086.737859,-83.0078125,161.1328125,-278.80859375,-83.49609375,0.0
1734413086.7417603,-63.4765625,-76.171875,-255.37109375,-34.1796875,0.0
1734413086.7457147,-29.296875,136.23046875,153.3203125,-23.92578125,0.0
1734413086.7496161,-22.94921875,467.7734375,294.921875,-47.8515625,0.0
1734413086.7535174,-50.29296875,207.03125,-192.87109375,-72.265625,0.0
1734413086.7574189,-68.359375,-201.66015625,-421.38671875,-62.98828125,0.0
1734413086.76132,-51.26953125,-97.16796875,-206.0546875,-30.2734375,0.0
1734413086.7652216,-27.83203125,84.9609375,153.3203125,-23.92578125,0.0
1734413086.7691228,-25.390625,28.3203125,221.19140625,-30.2734375,0.0
1734413086.7730243,-41.015625,-539.55078125,-379.39453125,-55.17578125,0.0
1734413086.7769256,-70.80078125,-857.91015625,-592.28515625,-81.54296875,0.0
1734413086.780827,-72.75390625,-75.68359375,-143.5546875,-65.91796875,0.0
1734413086.7847283,-46.875,294.43359375,171.875,-37.109375,0.0
1734413086.7886295,-45.8984375,207.03125,257.32421875,-51.7578125,0.0
1734413086.7925792,-73.73046875,209.47265625,-2.44140625,-74.70703125,0.0
1734413086.7964807,-96.19140625,161.1328125,-265.13671875,-75.68359375,0.0
1734413086.800382,-72.265625,-96.19140625,-348.6328125,-40.0390625,0.0
1734413086.8042834,-36.62109375,-16.6015625,-26.85546875,-31.73828125,0.0
1734413086.8081846,-35.15625,362.3046875,304.19921875,-72.265625,0.0
1734413086.812086,-57.12890625,66.89453125,-97.16796875,-88.8671875,0.0
1734413086.8159873,-78.125,-466.796875,-536.1328125,-82.03125,0.0
1734413086.8198888,-77.1484375,-709.9609375,-519.53125,-43.9453125,0.0
1734413086.82379,-46.875,-226.07421875,-2.44140625,-23.4375,0.0
1734413086.8276916,-38.0859375,333.984375,335.9375,-39.0625,0.0
1734413086.8315928,-47.8515625,121.09375,-8.7890625,-58.59375,0.0
1734413086.8354943,-43.45703125,-160.64453125,-362.79296875,-67.3828125,0.0
1734413086.839439,0.0,58.10546875,-262.20703125,-40.0390625,0.0
1734413086.8433404,0.0,277.83203125,48.828125,-12.20703125,0.0
1734413086.8472416,0.0,219.7265625,312.01171875,-12.6953125,0.0
1734413086.8511431,0.0,165.0390625,163.0859375,-48.828125,0.0
1734413086.8550444,0.0,114.74609375,-227.5390625,-55.6640625,0.0
1734413086.8589458,0.0,-207.51953125,-369.62890625,-6.34765625,0.0
1734413086.862847,0.0,-729.98046875,-426.7578125,13.671875,0.0
1734413086.8667486,0.0,-595.21484375,-59.08203125,-14.6484375,0.0
1734413086.8706498,0.0,256.8359375,271.484375,-81.54296875,0.0
1734413086.8745513,0.0,129.8828125,-210.9375,-102.05078125,0.0
1734413086.8784525,0.0,-200.68359375,-379.39453125,-59.08203125,0.0
1734413086.882354,0.0,-69.3359375,-132.8125,-8.30078125,0.0
1734413086.886294,-25.87890625,269.53125,274.90234375,-10.7421875,0.0
1734413086.8901954,-37.59765625,316.40625,216.796875,-57.12890625,0.0
1734413086.8940966,-60.05859375,-49.8046875,-258.7890625,-77.1484375,0.0
1734413086.897998,-76.171875,-52.734375,-347.16796875,-57.12890625,0.0
1734413086.9018993,-62.5,155.76171875,-67.3828125,-27.34375,0.0
1734413086.9058008,-35.64453125,39.55078125,208.984375,-26.85546875,0.0
1734413086.909702,-32.2265625,-445.3125,13.18359375,-46.875,0.0
1734413086.9136035,-62.98828125,-172.8515625,-224.12109375,-86.42578125,0.0
1734413086.9175048,-82.51953125,163.57421875,-263.18359375,-87.40234375,0.0
1734413086.9214063,-66.89453125,-73.73046875,-247.55859375,-36.62109375,0.0
1734413086.9253078,-36.62109375,124.51171875,141.11328125,-19.04296875,0.0
1734413086.929209,-33.69140625,521.484375,374.0234375,-41.50390625,0.0
1734413086.93318,0.0,325.68359375,-58.10546875,-64.94140625,0.0
1734413086.9370813,0.0,-103.02734375,-352.5390625,-59.08203125,0.0
1734413086.9409828,0.0,-205.078125,-250.0,-18.5546875,0.0
1734413086.9448843,0.0,131.34765625,125.48828125,-17.08984375,0.0
1734413086.9487855,0.0,421.38671875,348.6328125,-52.734375,0.0
1734413086.952687,0.0,-43.9453125,-115.234375,-73.2421875,0.0
1734413086.9565883,0.0,-545.8984375,-460.44921875,-75.68359375,0.0
1734413086.9604897,0.0,-361.81640625,-294.43359375,-43.9453125,0.0
1734413086.964391,0.0,141.6015625,103.515625,-19.53125,0.0
1734413086.9682925,0.0,-108.3984375,145.01953125,-39.55078125,0.0
1734413086.9721937,0.0,-191.40625,-72.265625,-84.9609375,0.0
1734413086.9760952,0.0,137.6953125,-229.98046875,-91.30859375,0.0
1734413086.9799514,-58.10546875,-61.5234375,-346.19140625,-43.45703125,0.0
1734413086.9838529,-73.73046875,-99.12109375,-97.16796875,-32.2265625,0.0
1734413086.987754,-62.01171875,273.92578125,295.8984375,-58.10546875,0.0
1734413086.9916556,-35.64453125,421.875,184.08203125,-78.125,0.0
1734413086.9955568,-22.94921875,-24.90234375,-297.8515625,-81.0546875,0.0
1734413086.9994583,-31.25,-439.94140625,-454.1015625,-49.8046875,0.0
1734413087.0033596,-43.45703125,-210.44921875,-47.36328125,-22.94921875,0.0
1734413087.007261,-61.03515625,307.6171875,375.9765625,-31.25,0.0
1734413087.0111623,-35.64453125,92.28515625,-13.18359375,-58.10546875,0.0
1734413087.0150638,-9.27734375,-645.99609375,-535.15625,-58.59375,0.0
1734413087.018965,-27.83203125,-215.33203125,-261.23046875,-38.57421875,0.0
1734413087.0228665,-58.10546875,339.84375,72.265625,-17.578125,0.0
1734413087.0268276,-13.18359375,289.0625,306.15234375,-5.859375,0.0
1734413087.0307288,-14.6484375,219.7265625,178.22265625,-29.296875,0.0
1734413087.0346303,-49.31640625,206.54296875,-172.36328125,-57.12890625,0.0
1734413087.0385315,-64.94140625,39.55078125,-326.171875,-39.0625,0.0
1734413087.042433,-56.15234375,-59.08203125,-199.70703125,-15.625,0.0
1734413087.0463345,-24.90234375,12.20703125,190.91796875,-7.8125,0.0
1734413087.0502357,-15.13671875,-61.03515625,157.71484375,-13.671875,0.0
1734413087.0541372,-56.15234375,-214.35546875,-296.38671875,-54.19921875,0.0
1734413087.0580385,-87.40234375,-661.1328125,-531.73828125,-74.21875,0.0
1734413087.06194,-82.03125,-687.01171875,-366.2109375,-51.26953125,0.0
1734413087.0658412,-47.8515625,266.11328125,250.48828125,-45.41015625,0.0
1734413087.0697427,-41.9921875,419.921875,275.390625,-52.734375,0.0
1734413087.0737424,0.0,-3.41796875,-212.890625,-77.1484375,0.0
1734413087.0776439,0.0,-21.484375,-354.00390625,-78.125,0.0
1734413087.0815454,0.0,194.3359375,-124.51171875,-33.203125,0.0
1734413087.0854466,0.0,286.62109375,237.79296875,-21.97265625,0.0
1734413087.089348,0.0,178.22265625,232.91015625,-43.45703125,0.0
1734413087.0932493,0.0,-113.28125,-236.328125,-68.359375,0.0
1734413087.0971508,0.0,-187.5,-353.515625,-69.3359375,0.0
1734413087.101052,0.0,-169.921875,-319.82421875,-31.73828125,0.0
1734413087.1049535,0.0,-388.671875,-147.94921875,-16.11328125,0.0
1734413087.108855,0.0,211.42578125,318.84765625,-53.22265625,0.0
1734413087.1127563,0.0,453.125,73.2421875,-77.63671875,0.0
1734413087.1166577,0.0,-75.1953125,-299.31640625,-63.96484375,0.0
1734413087.1206098,-48.33984375,-245.60546875,-245.60546875,-25.390625,0.0
1734413087.1245112,-18.06640625,205.56640625,137.20703125,7.32421875,0.0
1734413087.1284127,-4.39453125,522.4609375,375.9765625,-13.671875,0.0
1734413087.132314,-24.4140625,187.01171875,-5.37109375,-62.01171875,0.0
1734413087.1362154,-68.84765625,-45.8984375,-345.703125,-79.58984375,0.0
1734413087.1401167,-56.15234375,-62.98828125,-275.87890625,-37.59765625,0.0
1734413087.1440182,0.9765625,-2.44140625,60.546875,11.71875,0.0
1734413087.1479194,8.7890625,12.6953125,312.5,0.0,0.0
1734413087.151821,-33.203125,159.1796875,195.3125,-71.2890625,0.0
1734413087.1557224,-70.80078125,253.41796875,-75.1953125,-104.98046875,0.0
1734413087.1596236,-65.91796875,155.2734375,-125.0,-67.87109375,0.0
1734413087.163525,-14.6484375,-292.48046875,-94.23828125,2.9296875,0.0
1734413087.1674743,5.859375,-95.21484375,177.734375,4.39453125,0.0
1734413087.1713758,-26.3671875,550.29296875,312.98828125,-57.12890625,0.0
1734413087.175277,-52.734375,157.2265625,-145.5078125,-84.9609375,0.0
1734413087.1791785,-58.10546875,-237.3046875,-329.58984375,-70.3125,0.0
1734413087.18308,-27.34375,49.31640625,40.52734375,-22.4609375,0.0
1734413087.1869812,-5.37109375,310.546875,362.79296875,-12.6953125,0.0
1734413087.1908827,-36.1328125,15.625,112.79296875,-54.19921875,0.0
1734413087.194784,-59.08203125,-555.6640625,-373.53515625,-72.265625,0.0
1734413087.1986854,-66.40625,-183.59375,-167.48046875,-46.38671875,0.0
1734413087.202587,-37.109375,475.5859375,235.83984375,-5.859375,0.0
1734413087.2064881,-2.9296875,397.4609375,297.36328125,9.765625,0.0
1734413087.2103896,-4.8828125,324.70703125,238.28125,-23.4375,0.0
1734413087.2143333,-34.66796875,356.93359375,23.92578125,-48.828125,0.0
1734413087.2182348,-56.640625,177.734375,-154.296875,-20.99609375,0.0
1734413087.222136,-34.1796875,68.359375,-41.50390625,20.01953125,0.0
1734413087.2260375,-11.23046875,373.53515625,317.87109375,7.32421875,0.0
1734413087.229939,-15.625,558.10546875,312.01171875,-20.5078125,0.0
1734413087.2338402,-37.109375,92.28515625,-188.4765625,-39.0625,0.0
1734413087.2377417,-52.734375,-661.62109375,-527.83203125,-37.59765625,0.0
1734413087.2416432,-35.64453125,-753.90625,-354.98046875,-2.44140625,0.0
1734413087.2455444,-25.390625,133.30078125,235.3515625,-9.765625,0.0
1734413087.249446,-36.1328125,485.3515625,342.7734375,-30.76171875,0.0
1734413087.2533472,-62.01171875,159.1796875,-66.40625,-72.265625,0.0
1734413087.2572486,-73.2421875,37.59765625,-286.62109375,-65.4296875,0.0
1734413087.2611878,-57.6171875,266.6015625,-0.9765625,-18.06640625,0.0
1734413087.2650893,-36.62109375,362.3046875,278.80859375,-13.671875,0.0
1734413087.2689905,-28.80859375,277.83203125,314.453125,-28.3203125,0.0
1734413087.272892,-51.26953125,291.015625,53.22265625,-44.921875,0.0
1734413087.2767935,-68.84765625,169.921875,-253.90625,-42.96875,0.0
1734413087.2806947,-56.15234375,-208.0078125,-345.703125,-19.04296875,0.0
1734413087.2845962,-37.59765625,-373.046875,-63.4765625,-23.4375,0.0
1734413087.2884977,-43.9453125,230.46875,356.93359375,-58.59375,0.0
1734413087.292399,-47.36328125,492.1875,180.17578125,-71.77734375,0.0
1734413087.2963004,-53.22265625,-219.23828125,-331.0546875,-56.640625,0.0
1734413087.3002017,-57.6171875,-587.890625,-408.69140625,-18.5546875,0.0
1734413087.3041031,-21.97265625,217.28515625,172.36328125,12.6953125,0.0
1734413087.3080757,-2.9296875,595.703125,399.90234375,-5.859375,0.0
1734413087.3119771,-36.1328125,67.3828125,-7.8125,-45.8984375,0.0
1734413087.3158784,-60.546875,-223.14453125,-360.3515625,-57.12890625,0.0
1734413087.3197799,-58.59375,94.23828125,-143.5546875,-42.48046875,0.0
1734413087.3236814,-34.1796875,331.0546875,171.38671875,-8.7890625,0.0
1734413087.3275826,-7.8125,84.47265625,292.48046875,-8.7890625,0.0
1734413087.331484,-25.390625,-242.67578125,28.80859375,-33.203125,0.0
1734413087.3353856,-73.73046875,-285.15625,-328.125,-58.10546875,0.0
1734413087.3392868,-69.3359375,-108.3984375,-258.7890625,-47.8515625,0.0
1734413087.3431883,-38.57421875,-270.99609375,-186.03515625,-13.18359375,0.0
1734413087.3470898,-45.8984375,-27.34375,177.734375,-16.6015625,0.0
1734413087.350991,-65.4296875,487.79296875,290.0390625,-40.52734375,0.0
1734413087.3549578,-77.63671875,98.6328125,-209.9609375,-66.89453125,0.0
1734413087.3588593,-82.03125,-390.625,-417.48046875,-48.33984375,0.0
1734413087.3627605,-70.80078125,-9.27734375,-15.13671875,-11.23046875,0.0
1734413087.366662,-50.78125,561.03515625,386.23046875,-10.25390625,0.0
1734413087.3705635,-48.33984375,306.15234375,160.64453125,-35.64453125,0.0
1734413087.3744648,-66.40625,-384.27734375,-389.16015625,-60.546875,0.0
1734413087.3783662,-58.10546875,-435.05859375,-410.15625,-48.828125,0.0
1734413087.3822677,-50.78125,227.05078125,41.015625,-6.8359375,0.0
1734413087.386169,-24.90234375,151.3671875,166.015625,6.8359375,0.0
1734413087.3900704,-20.5078125,-363.28125,51.7578125,-35.64453125,0.0
1734413087.393972,-57.12890625,-55.17578125,-97.65625,-54.19921875,0.0
1734413087.3978732,-76.171875,97.16796875,-320.80078125,-44.921875,0.0
1734413087.401834,-53.22265625,-187.98828125,-288.0859375,-14.16015625,0.0
1734413087.4057355,-17.578125,-99.609375,36.1328125,9.765625,0.0
1734413087.4096367,-26.3671875,411.62109375,336.9140625,-15.625,0.0
1734413087.4135382,-40.0390625,340.8203125,-51.7578125,-36.1328125,0.0
1734413087.4174397,-58.10546875,-286.62109375,-431.640625,-48.33984375,0.0
1734413087.421341,-54.19921875,-454.1015625,-333.0078125,-34.66796875,0.0
1734413087.4252424,-28.80859375,-97.65625,20.99609375,2.44140625,0.0
1734413087.429144,-36.62109375,61.5234375,244.140625,-13.18359375,0.0
1734413087.4330451,-54.6875,-509.27734375,-273.4375,-44.921875,0.0
1734413087.4369466,-78.125,-692.87109375,-538.57421875,-42.48046875,0.0
1734413087.440848,-74.21875,77.63671875,-129.8828125,-13.18359375,0.0
1734413087.4447494,-43.45703125,291.50390625,149.90234375,3.90625,0.0
1734413087.4487107,-32.2265625,228.02734375,273.4375,-36.1328125,0.0
1734413087.4526122,-61.03515625,246.09375,98.6328125,-68.84765625,0.0
1734413087.4565134,-83.0078125,139.16015625,-233.88671875,-58.10546875,0.0
1734413087.460415,-64.94140625,-53.7109375,-315.4296875,-17.08984375,0.0
1734413087.4643164,-38.0859375,-3.41796875,-52.24609375,-7.8125,0.0
1734413087.4682178,-33.203125,50.29296875,243.1640625,-25.390625,0.0
1734413087.472119,-55.6640625,53.22265625,69.82421875,-55.6640625,0.0
1734413087.4760206,-70.3125,-250.9765625,-418.9453125,-71.77734375,0.0
1734413087.479922,-66.40625,-737.79296875,-525.390625,-35.64453125,0.0
1734413087.4838233,-50.78125,-12.6953125,34.1796875,1.46484375,0.0
1734413087.4877248,-31.73828125,546.38671875,369.140625,-5.859375,0.0
1734413087.4916263,-39.55078125,131.8359375,28.80859375,-37.109375,0.0
1734413087.495581,-60.05859375,-139.6484375,-373.046875,-72.75390625,0.0
1734413087.4994824,-78.61328125,61.03515625,-252.9296875,-53.7109375,0.0
1734413087.5033836,-66.40625,236.81640625,60.05859375,-8.7890625,0.0
1734413087.507285,-41.9921875,241.69921875,330.56640625,-8.30078125,0.0
1734413087.5111866,-41.9921875,208.0078125,209.47265625,-32.2265625,0.0
1734413087.515088,-62.01171875,-89.35546875,-277.83203125,-45.41015625,0.0
1734413087.5189893,-70.80078125,-285.15625,-358.3984375,-43.9453125,0.0
1734413087.5228908,-49.8046875,-618.1640625,-378.90625,-32.2265625,0.0
1734413087.5267923,-32.71484375,-392.578125,-33.69140625,-9.27734375,0.0
1734413087.5306935,-38.57421875,412.109375,304.19921875,-26.3671875,0.0
1734413087.534595,-57.12890625,93.75,-219.7265625,-63.96484375,0.0
1734413087.5384965,-83.0078125,-316.40625,-413.0859375,-74.21875,0.0
1734413087.5424435,-59.08203125,33.69140625,-34.66796875,-38.57421875,0.0
1734413087.546345,-23.4375,512.6953125,347.65625,1.953125,0.0
1734413087.5502465,-25.390625,322.75390625,224.609375,-18.5546875,0.0
1734413087.5541477,-50.29296875,-128.90625,-250.0,-66.89453125,0.0
1734413087.5580492,-67.3828125,-111.328125,-358.88671875,-58.10546875,0.0
1734413087.5619507,-37.109375,-119.62890625,-282.71484375,-14.6484375,0.0
1734413087.5658522,-20.5078125,-161.62109375,-12.20703125,3.90625,0.0
1734413087.5697534,-24.90234375,-353.515625,145.5078125,-4.39453125,0.0
1734413087.573655,-35.64453125,-117.67578125,-85.9375,-46.875,0.0
1734413087.5775564,-51.7578125,151.85546875,-279.296875,-43.9453125,0.0
1734413087.5814579,-49.8046875,-51.26953125,-224.12109375,-5.37109375,0.0
1734413087.585359,-25.87890625,130.859375,118.1640625,-0.48828125,0.0
1734413087.5893016,-25.390625,488.28125,363.76953125,-38.57421875,0.0
1734413087.593203,-55.6640625,312.01171875,-3.90625,-83.0078125,0.0
1734413087.5971043,-75.1953125,-247.0703125,-405.76171875,-70.80078125,0.0
1734413087.6010058,-65.91796875,-211.9140625,-197.75390625,-31.73828125,0.0
1734413087.6049073,-41.015625,285.15625,162.109375,-13.18359375,0.0
1734413087.6088088,-44.921875,216.30859375,292.48046875,-34.1796875,0.0
1734413087.61271,-55.6640625,-479.98046875,-220.21484375,-53.7109375,0.0
1734413087.6166115,-80.078125,-902.34375,-617.67578125,-68.359375,0.0
1734413087.620513,-85.9375,-190.91796875,-186.03515625,-51.26953125,0.0
1734413087.6244144,-36.1328125,274.4140625,135.7421875,-14.6484375,0.0
1734413087.6283157,-30.76171875,232.421875,266.11328125,-40.0390625,0.0
1734413087.6322172,-59.08203125,239.2578125,141.6015625,-76.66015625,0.0
1734413087.636194,-76.66015625,128.41796875,-216.30859375,-80.078125,0.0
1734413087.6400955,-71.77734375,-38.0859375,-302.734375,-55.17578125,0.0
1734413087.643997,-35.64453125,-15.625,-43.9453125,-22.94921875,0.0
1734413087.6478984,-26.3671875,338.37890625,335.44921875,-24.90234375,0.0
1734413087.6518,-39.0625,335.9375,179.6875,-41.9921875,0.0
1734413087.6557012,-57.6171875,-287.109375,-400.390625,-47.8515625,0.0
1734413087.6596026,-62.01171875,-796.38671875,-544.43359375,-37.109375,0.0
1734413087.6635041,-29.296875,-238.28125,-57.12890625,-9.765625,0.0
1734413087.6674056,-0.9765625,534.1796875,403.80859375,7.32421875,0.0
1734413087.6713068,-12.6953125,140.13671875,87.40234375,-28.3203125,0.0
1734413087.6752083,-50.29296875,-281.73828125,-412.59765625,-64.94140625,0.0
1734413087.6791098,-70.3125,48.828125,-258.30078125,-48.33984375,0.0
1734413087.6830816,0.0,281.25,88.8671875,-20.5078125,0.0
1734413087.6869829,0.0,208.49609375,289.0625,-12.6953125,0.0
1734413087.6908844,0.0,153.3203125,210.44921875,-32.2265625,0.0
1734413087.6947858,0.0,152.83203125,-145.5078125,-64.94140625,0.0
1734413087.6986873,0.0,47.36328125,-312.98828125,-53.7109375,0.0
1734413087.7025888,0.0,-221.19140625,-283.69140625,-8.30078125,0.0
1734413087.70649,0.0,-237.3046875,32.2265625,-2.9296875,0.0
1734413087.7103915,0.0,21.484375,250.9765625,-39.55078125,0.0
1734413087.714293,0.0,41.50390625,-112.3046875,-66.89453125,0.0
1734413087.7181945,0.0,-602.05078125,-516.11328125,-53.22265625,0.0
1734413087.722096,0.0,-539.0625,-272.94921875,-22.94921875,0.0
1734413087.7259972,0.0,415.0390625,297.8515625,-9.765625,0.0
1734413087.7299647,-57.6171875,363.76953125,267.08984375,-30.76171875,0.0
1734413087.7338662,-81.0546875,-89.35546875,-196.2890625,-78.61328125,0.0
1734413087.7377675,-103.515625,-49.8046875,-353.02734375,-84.9609375,0.0
1734413087.741669,-81.54296875,189.453125,-60.05859375,-41.9921875,0.0
1734413087.7455704,-34.66796875,217.7734375,202.1484375,-12.6953125,0.0
1734413087.749472,-25.87890625,-98.14453125,186.03515625,-25.390625,0.0
1734413087.7533734,-48.828125,-195.80078125,-112.79296875,-44.43359375,0.0
1734413087.7572746,-81.54296875,62.5,-270.99609375,-62.98828125,0.0
1734413087.761176,-67.87109375,-210.44921875,-362.3046875,-34.66796875,0.0
1734413087.7650776,-36.1328125,-418.45703125,-178.22265625,2.44140625,0.0
1734413087.768979,-30.76171875,281.73828125,344.23828125,-4.39453125,0.0
1734413087.7728806,-41.9921875,380.859375,133.30078125,-30.76171875,0.0
1734413087.776881,-79.58984375,-448.73046875,-417.48046875,-73.2421875,0.0
1734413087.7807822,-76.66015625,-557.12890625,-375.48828125,-59.08203125,0.0
1734413087.7846837,-41.50390625,247.0703125,162.109375,-4.39453125,0.0
1734413087.7885852,-30.76171875,429.19921875,334.9609375,-14.6484375,0.0
1734413087.7924867,-43.45703125,62.98828125,-8.30078125,-62.5,0.0
1734413087.7963881,-67.3828125,-366.69921875,-419.921875,-72.75390625,0.0
1734413087.8002896,-62.5,-447.75390625,-391.11328125,-50.29296875,0.0
1734413087.8041909,-37.59765625,-125.0,-79.1015625,-10.25390625,0.0
1734413087.8080924,-43.45703125,-318.359375,77.63671875,-9.765625,0.0
1734413087.8119938,-67.87109375,-351.5625,11.23046875,-56.15234375,0.0
1734413087.8158953,-81.54296875,132.32421875,-149.4140625,-88.37890625,0.0
1734413087.8197968,-83.984375,-2.9296875,-328.61328125,-63.4765625,0.0
1734413087.8237526,-70.80078125,-127.44140625,-134.27734375,-24.4140625,0.0
1734413087.8276541,-53.22265625,158.203125,276.3671875,-20.99609375,0.0
1734413087.8315556,-49.8046875,359.375,259.765625,-53.22265625,0.0
1734413087.835457,-62.01171875,-87.890625,-260.7421875,-65.91796875,0.0
1734413087.8393583,-72.75390625,-411.1328125,-424.8046875,-45.8984375,0.0
1734413087.8432598,-47.36328125,-228.02734375,-228.02734375,-4.39453125,0.0
1734413087.8471613,-21.484375,182.6171875,218.26171875,5.859375,0.0
1734413087.8510628,-24.4140625,99.609375,146.97265625,-24.4140625,0.0
1734413087.8549643,-34.1796875,-454.58984375,-405.76171875,-45.41015625,0.0
1734413087.8588657,-48.33984375,-145.99609375,-328.125,-39.0625,0.0
1734413087.8627672,-52.734375,290.52734375,34.66796875,-33.203125,0.0
1734413087.8666685,-28.3203125,67.87109375,125.9765625,-12.6953125,0.0
1734413087.870621,-8.7890625,-367.67578125,42.96875,-2.9296875,0.0
1734413087.8745224,-48.828125,49.8046875,-17.578125,-40.52734375,0.0
1734413087.8784237,-80.56640625,120.60546875,-298.33984375,-57.12890625,0.0
1734413087.8823252,-57.6171875,-64.94140625,-250.0,-35.15625,0.0
1734413087.8862267,-41.9921875,238.28125,156.73828125,-11.71875,0.0
1734413087.8901281,-48.33984375,196.77734375,256.8359375,-29.78515625,0.0
1734413087.8940296,-67.3828125,-101.5625,-140.13671875,-63.4765625,0.0
1734413087.897931,-69.82421875,-633.7890625,-541.50390625,-55.6640625,0.0
1734413087.9018326,-70.3125,-645.99609375,-332.03125,-28.80859375,0.0
1734413087.905734,-67.87109375,373.53515625,277.83203125,-19.04296875,0.0
1734413087.9096353,-43.45703125,462.890625,283.69140625,-20.01953125,0.0
1734413087.9135368,-54.6875,55.6640625,-91.796875,-67.3828125,0.0
1734413087.917484,-87.40234375,47.8515625,-307.6171875,-81.0546875,0.0
1734413087.9213855,-91.796875,203.125,-136.71875,-46.38671875,0.0
1734413087.9252868,-59.5703125,220.703125,154.78515625,-19.04296875,0.0
1734413087.9291883,-46.38671875,158.203125,282.71484375,-21.97265625,0.0
1734413087.9330897,-61.03515625,178.7109375,62.5,-45.8984375,0.0
1734413087.9369912,-76.171875,-149.4140625,-321.77734375,-50.78125,0.0
1734413087.9408927,-60.05859375,-437.98828125,-412.59765625,-21.484375,0.0
1734413087.9447942,-26.3671875,-519.53125,-265.625,22.4609375,0.0
1734413087.9486957,-23.92578125,142.578125,268.06640625,9.765625,0.0
1734413087.9525971,-34.1796875,326.66015625,169.43359375,-43.45703125,0.0
1734413087.9564984,-48.33984375,-273.4375,-340.33203125,-53.7109375,0.0
1734413087.9603999,-49.8046875,-147.94921875,-229.00390625,-34.66796875,0.0
1734413087.9643433,-38.57421875,398.92578125,165.52734375,-21.484375,0.0
1734413087.9682448,-27.34375,562.5,368.65234375,-18.06640625,0.0
1734413087.9721463,-26.3671875,156.73828125,107.421875,-47.36328125,0.0
1734413087.9760478,-63.4765625,-15.625,-259.765625,-86.9140625,0.0
1734413087.9799492,-87.890625,84.47265625,-254.39453125,-71.77734375,0.0
1734413087.9838505,-55.17578125,80.56640625,-40.52734375,-21.484375,0.0
1734413087.987752,-13.18359375,-393.5546875,38.57421875,3.90625,0.0
1734413087.9916534,-31.73828125,-588.8671875,-8.7890625,-29.296875,0.0
1734413087.995555,-89.35546875,107.91015625,-48.828125,-82.03125,0.0
1734413087.9994564,-99.12109375,102.05078125,-245.1171875,-61.5234375,0.0
1734413088.003358,-59.08203125,-32.2265625,-75.1953125,-12.6953125,0.0
1734413088.0072594,-31.25,376.953125,330.56640625,-17.578125,0.0
1734413088.0111988,-40.0390625,468.26171875,272.94921875,-42.96875,0.0
1734413088.0151,-60.05859375,-57.12890625,-249.51171875,-56.640625,0.0
1734413088.0190015,-73.73046875,-251.953125,-366.69921875,-58.10546875,0.0
1734413088.022903,-59.08203125,153.3203125,38.57421875,-26.3671875,0.0
1734413088.0268044,-32.71484375,487.3046875,338.8671875,-16.6015625,0.0
1734413088.030706,-2.9296875,72.265625,161.62109375,-20.99609375,0.0
1734413088.0346074,-14.6484375,-474.12109375,-291.015625,-30.2734375,0.0
1734413088.038509,-54.19921875,-270.01953125,-359.375,-53.7109375,0.0
1734413088.0424104,-53.7109375,142.578125,-16.11328125,-25.390625,0.0
1734413088.0463119,-38.0859375,160.64453125,183.10546875,-8.7890625,0.0
1734413088.0502133,-25.87890625,103.02734375,217.28515625,-21.484375,0.0
1734413088.0541148,-47.36328125,287.59765625,64.453125,-55.6640625,0.0
1734413088.058048,-87.890625,154.296875,-266.6015625,-80.56640625,0.0
1734413088.0619495,-74.70703125,-110.83984375,-270.01953125,-38.57421875,0.0
1734413088.065851,-38.0859375,106.4453125,95.703125,-3.90625,0.0
1734413088.0697525,-26.3671875,443.84765625,372.0703125,-22.4609375,0.0
1734413088.073654,-36.62109375,97.65625,-65.4296875,-47.8515625,0.0
1734413088.0775554,-67.87109375,-562.01171875,-484.86328125,-59.08203125,0.0
1734413088.0814567,-78.125,-661.62109375,-361.81640625,-30.76171875,0.0
1734413088.0853581,-47.8515625,-102.05078125,2.9296875,1.953125,0.0
1734413088.0892596,-42.48046875,262.20703125,314.453125,-11.71875,0.0
1734413088.093161,-65.4296875,-117.67578125,-57.12890625,-63.4765625,0.0
1734413088.0970626,-91.796875,-245.1171875,-370.60546875,-96.19140625,0.0
1734413088.100964,-99.609375,140.625,-175.78125,-62.01171875,0.0
1734413088.1049318,-69.3359375,197.75390625,110.3515625,-18.5546875,0.0
1734413088.1088333,-38.57421875,138.18359375,277.34375,-3.90625,0.0
1734413088.1127348,-47.8515625,216.30859375,149.4140625,-42.48046875,0.0
1734413088.116636,-76.66015625,165.52734375,-180.17578125,-84.47265625,0.0
1734413088.1205375,-62.01171875,-146.484375,-384.765625,-42.48046875,0.0
1734413088.124439,-30.76171875,-405.76171875,-290.0390625,8.7890625,0.0
1734413088.1283405,-19.04296875,-13.18359375,185.05859375,-15.625,0.0
1734413088.132242,-23.92578125,177.24609375,145.01953125,-52.24609375,0.0
1734413088.1361434,-36.1328125,-375.0,-426.7578125,-55.6640625,0.0
1734413088.140045,-43.45703125,-625.48828125,-487.79296875,-35.15625,0.0
1734413088.1439464,-35.64453125,64.453125,40.0390625,-26.3671875,0.0
1734413088.147848,-6.34765625,455.078125,325.1953125,-2.44140625,0.0
1734413088.1518114,-12.20703125,139.16015625,160.64453125,4.39453125,0.0
1734413088.1557128,-44.921875,-76.66015625,-237.3046875,-42.96875,0.0
1734413088.1596143,-68.84765625,16.6015625,-332.51953125,-62.5,0.0
1734413088.1635158,-46.875,176.7578125,-41.015625,-18.06640625,0.0
1734413088.1674173,-21.484375,99.12109375,251.46484375,-0.9765625,0.0
1734413088.1713188,-42.48046875,-113.76953125,177.24609375,-26.3671875,0.0
1734413088.17522,-65.91796875,-288.57421875,-268.5546875,-51.26953125,0.0
1734413088.1791215,-76.171875,-353.515625,-402.83203125,-53.22265625,0.0
1734413088.183023,-54.6875,-671.875,-397.94921875,0.9765625,0.0
1734413088.1869245,-28.80859375,-403.80859375,-45.8984375,2.9296875,0.0
1734413088.190826,-27.83203125,283.203125,302.734375,-36.62109375,0.0
1734413088.1947274,-62.98828125,-107.91015625,-203.125,-69.3359375,0.0
1734413088.198688,-92.28515625,-256.34765625,-411.1328125,-87.890625,0.0
1734413088.2025895,-61.5234375,100.5859375,-67.87109375,-24.90234375,0.0
1734413088.206491,-23.4375,449.70703125,274.90234375,-0.9765625,0.0
1734413088.2103925,-31.25,341.30859375,269.04296875,-33.69140625,0.0
1734413088.214294,-56.15234375,-8.30078125,-151.3671875,-56.640625,0.0
1734413088.2181954,-84.47265625,-305.6640625,-463.37890625,-70.3125,0.0
1734413088.222097,-85.44921875,-138.671875,-222.16796875,-44.921875,0.0
1734413088.2259984,-36.62109375,43.45703125,40.52734375,9.27734375,0.0
1734413088.2299,-9.27734375,-380.37109375,58.59375,16.6015625,0.0
1734413088.2338014,-47.8515625,-39.55078125,41.50390625,-47.8515625,0.0
1734413088.2377028,-77.1484375,188.4765625,-243.65234375,-83.0078125,0.0
1734413088.2416043,-64.94140625,-143.06640625,-328.61328125,-44.43359375,0.0
1734413088.2455564,-50.29296875,64.94140625,20.5078125,-7.32421875,0.0
1734413088.2494578,-44.921875,346.6796875,323.73046875,-36.62109375,0.0
1734413088.2533593,-47.8515625,-30.76171875,-66.89453125,-69.3359375,0.0
1734413088.2572608,-68.84765625,-336.9140625,-442.3828125,-80.56640625,0.0
1734413088.2611623,-86.9140625,-155.2734375,-305.17578125,-64.94140625,0.0
1734413088.2650638,-67.87109375,-41.015625,-185.546875,-35.64453125,0.0
1734413088.2689652,-38.0859375,41.015625,196.77734375,-15.13671875,0.0
1734413088.2728667,-29.78515625,-442.3828125,-126.953125,-21.484375,0.0
1734413088.2767682,-56.15234375,-710.44921875,-568.84765625,-57.12890625,0.0
1734413088.2806697,-71.2890625,11.71875,-264.16015625,-60.546875,0.0
1734413088.2845712,-56.640625,199.70703125,-52.734375,-21.484375,0.0
1734413088.2884727,-37.59765625,136.71875,223.6328125,-7.32421875,0.0
1734413088.2924192,-51.26953125,273.92578125,212.40234375,-33.203125,0.0
1734413088.2963207,-87.890625,298.33984375,-172.36328125,-63.4765625,0.0
1734413088.3002222,-89.84375,-10.7421875,-388.671875,-53.22265625,0.0
1734413088.3041236,-75.1953125,-62.98828125,-184.5703125,-19.04296875,0.0
1734413088.3080251,-59.08203125,345.703125,250.9765625,-28.80859375,0.0
1734413088.3119266,-56.15234375,193.84765625,169.921875,-58.10546875,0.0
1734413088.315828,-79.1015625,-438.96484375,-446.2890625,-73.73046875,0.0
1734413088.3197296,-82.51953125,-819.82421875,-627.9296875,-51.7578125,0.0
1734413088.323631,-66.89453125,-209.47265625,-172.36328125,-13.18359375,0.0
1734413088.3275325,-44.921875,408.203125,229.98046875,-9.27734375,0.0
1734413088.331434,-43.45703125,144.04296875,140.13671875,-24.90234375,0.0
1734413088.3353355,-74.21875,-111.81640625,-289.0625,-55.6640625,0.0
1734413088.3393164,-98.6328125,5.37109375,-365.72265625,-92.7734375,0.0
1734413088.3432178,-79.1015625,125.0,-214.35546875,-45.8984375,0.0
1734413088.3471193,-28.3203125,31.25,-24.90234375,3.90625,0.0
1734413088.3510208,-22.4609375,98.14453125,197.75390625,-38.0859375,0.0
1734413088.3549223,-61.03515625,92.28515625,-145.99609375,-86.9140625,0.0
1734413088.3588238,-83.984375,-292.96875,-476.5625,-77.1484375,0.0
1734413088.3627253,-53.7109375,-772.4609375,-529.296875,-20.01953125,0.0
1734413088.3666267,-21.97265625,-638.18359375,-241.69921875,7.32421875,0.0
1734413088.3705282,-41.015625,61.03515625,267.08984375,-4.39453125,0.0
1734413088.3744297,-70.3125,8.7890625,-110.3515625,-53.7109375,0.0
1734413088.3783312,-71.77734375,-362.3046875,-473.14453125,-74.70703125,0.0
1734413088.3822327,-55.17578125,-167.48046875,-252.44140625,-12.6953125,0.0
1734413088.3861718,0.0,328.61328125,143.5546875,15.13671875,0.0
1734413088.3900733,0.0,277.34375,255.859375,-11.71875,0.0
1734413088.3939748,0.0,4.39453125,-139.16015625,-47.8515625,0.0
1734413088.3978763,0.0,-5.37109375,-372.55859375,-64.94140625,0.0
1734413088.4017777,0.0,102.5390625,-241.2109375,-32.71484375,0.0
1734413088.4056792,0.0,-78.61328125,-158.69140625,21.97265625,0.0
1734413088.4095807,0.0,-115.72265625,142.08984375,10.7421875,0.0
1734413088.4134822,0.0,157.2265625,135.25390625,-42.48046875,0.0
1734413088.4173837,0.0,165.52734375,-226.5625,-76.171875,0.0
1734413088.4212852,0.0,-300.29296875,-438.4765625,-44.921875,0.0
1734413088.4251866,0.0,-626.46484375,-370.60546875,9.765625,0.0
1734413088.429088,0.0,-57.12890625,179.6875,-20.5078125,0.0
1734413088.4330583,-67.3828125,178.7109375,187.5,-66.89453125,0.0
1734413088.4369597,-77.1484375,-127.9296875,-266.11328125,-62.5,0.0
1734413088.4408612,-82.51953125,-187.5,-318.84765625,-49.31640625,0.0
1734413088.4447627,-66.40625,210.44921875,10.7421875,-32.2265625,0.0
1734413088.4486642,-34.66796875,407.2265625,326.66015625,-23.92578125,0.0
1734413088.4525657,-39.55078125,-7.8125,43.9453125,-44.921875,0.0
1734413088.4564674,-67.3828125,-431.15234375,-424.8046875,-71.77734375,0.0
1734413088.4603689,-81.54296875,-410.64453125,-401.3671875,-43.45703125,0.0
1734413088.4642704,-54.19921875,-39.0625,-76.66015625,16.11328125,0.0
1734413088.4681718,-20.5078125,-155.2734375,102.5390625,3.41796875,0.0
1734413088.4720733,-35.15625,-134.27734375,120.1171875,-43.45703125,0.0
1734413088.4759748,-48.828125,238.28125,-85.9375,-52.734375,0.0
1734413088.479943,-47.8515625,-64.94140625,-406.73828125,-30.2734375,0.0
1734413088.4838445,-36.1328125,-115.72265625,-197.75390625,-5.37109375,0.0
1734413088.487746,-21.484375,146.97265625,192.3828125,3.90625,0.0
1734413088.4916475,-28.3203125,208.984375,259.765625,-18.5546875,0.0
1734413088.495549,-42.96875,3.90625,-159.1796875,-54.19921875,0.0
1734413088.4994504,-61.5234375,-493.1640625,-518.06640625,-49.31640625,0.0
1734413088.503352,-47.36328125,-308.59375,-260.25390625,-17.578125,0.0
1734413088.5072534,-20.5078125,369.62890625,247.0703125,10.7421875,0.0
1734413088.5111551,-20.99609375,189.453125,173.33984375,-13.18359375,0.0
1734413088.5150566,-40.52734375,-577.1484375,-383.7890625,-62.98828125,0.0
1734413088.518958,-85.9375,-283.203125,-383.30078125,-70.80078125,0.0
1734413088.5228596,-88.37890625,186.03515625,-169.921875,-45.41015625,0.0
1734413088.526822,-62.5,71.2890625,58.10546875,-21.484375,0.0
1734413088.5307236,-56.640625,162.59765625,246.58203125,-33.203125,0.0
1734413088.534625,-66.89453125,256.34765625,-44.43359375,-61.03515625,0.0
1734413088.5385265,-81.0546875,59.5703125,-389.16015625,-66.89453125,0.0
1734413088.542428,-80.56640625,-245.1171875,-383.7890625,-37.59765625,0.0
1734413088.5463297,-50.78125,-296.875,-197.265625,-1.46484375,0.0
1734413088.5502312,-27.83203125,-30.2734375,150.390625,-12.20703125,0.0
1734413088.5541327,-54.6875,-111.81640625,-91.796875,-52.24609375,0.0
1734413088.5580342,-76.66015625,-695.3125,-621.09375,-65.4296875,0.0
1734413088.5619357,-75.68359375,-649.4140625,-495.60546875,-39.0625,0.0
1734413088.5658371,-55.17578125,208.0078125,27.34375,7.8125,0.0
1734413088.5697386,-24.90234375,339.35546875,245.1171875,-10.25390625,0.0
1734413088.5736964,-45.8984375,42.48046875,-77.1484375,-79.1015625,0.0
1734413088.5775979,-80.56640625,-22.94921875,-384.765625,-83.49609375,0.0
1734413088.5814996,-81.0546875,71.2890625,-317.3828125,-42.48046875,0.0
1734413088.585401,-42.96875,47.36328125,-204.1015625,-11.23046875,0.0
1734413088.5893025,-12.20703125,95.703125,119.62890625,-13.671875,0.0
1734413088.593204,-44.43359375,24.4140625,6.34765625,-42.48046875,0.0
1734413088.5971055,-75.1953125,-301.7578125,-442.3828125,-63.4765625,0.0
1734413088.601007,-73.2421875,-492.67578125,-507.32421875,-30.76171875,0.0
1734413088.6049085,-47.8515625,-678.22265625,-469.23828125,0.48828125,0.0
1734413088.60881,-25.390625,-193.84765625,95.21484375,-17.578125,0.0
1734413088.6127114,-31.25,292.48046875,208.0078125,-41.50390625,0.0
1734413088.6166131,-68.84765625,-82.51953125,-300.78125,-60.546875,0.0
1734413088.6205637,-94.23828125,-277.34375,-413.0859375,-56.640625,0.0
1734413088.6244652,-73.73046875,126.953125,-181.640625,-22.4609375,0.0
1734413088.6283667,-43.9453125,370.1171875,186.03515625,-3.90625,0.0
1734413088.6322682,-55.6640625,206.54296875,201.66015625,-44.921875,0.0
1734413088.6361697,-93.75,-16.6015625,-251.46484375,-82.03125,0.0
1734413088.6400712,-97.16796875,-223.14453125,-431.640625,-76.66015625,0.0
1734413088.6439729,-67.87109375,-295.8984375,-306.640625,-32.2265625,0.0
1734413088.6478744,-39.0625,-338.37890625,-126.953125,-5.37109375,0.0
1734413088.6517758,-37.109375,-34.1796875,181.15234375,-38.57421875,0.0
1734413088.6556773,-68.84765625,350.5859375,36.62109375,-86.42578125,0.0
1734413088.6595788,-84.9609375,118.1640625,-319.3359375,-72.265625,0.0
1734413088.6634803,-62.01171875,-189.453125,-262.6953125,-4.8828125,0.0
1734413088.667428,-31.25,-44.43359375,103.515625,-7.8125,0.0
1734413088.6713295,-32.2265625,276.3671875,346.19140625,-44.43359375,0.0
1734413088.675231,-50.29296875,144.53125,-16.6015625,-62.98828125,0.0
1734413088.6791325,-61.5234375,-86.9140625,-359.375,-62.5,0.0
1734413088.683034,-51.26953125,125.48828125,-52.24609375,-33.203125,0.0
1734413088.6869354,-25.87890625,276.3671875,251.46484375,-2.9296875,0.0
1734413088.6908371,-0.9765625,95.21484375,220.703125,-4.8828125,0.0
1734413088.6947386,-18.06640625,-424.31640625,-193.359375,-47.36328125,0.0
1734413088.69864,-57.12890625,-202.1484375,-321.2890625,-71.77734375,0.0
1734413088.7025416,-59.5703125,311.5234375,13.18359375,-22.4609375,0.0
1734413088.706443,-19.53125,95.21484375,121.09375,14.6484375,0.0
1734413088.7103446,0.48828125,107.91015625,213.8671875,-7.32421875,0.0
1734413088.7142878,-41.50390625,465.8203125,236.328125,-55.17578125,0.0
1734413088.7181895,-72.265625,255.859375,-158.69140625,-83.0078125,0.0
1734413088.722091,-58.10546875,-64.94140625,-288.57421875,-36.62109375,0.0
1734413088.7259924,-27.83203125,8.7890625,38.57421875,11.71875,0.0
1734413088.729894,-34.66796875,259.765625,340.33203125,-25.87890625,0.0
1734413088.7337954,-61.5234375,175.29296875,131.8359375,-69.82421875,0.0
1734413088.737697,-70.3125,-560.546875,-465.8203125,-67.3828125,0.0
1734413088.7415986,-83.0078125,-742.67578125,-444.3359375,-52.734375,0.0
1734413088.7455,-75.1953125,206.54296875,161.1328125,-23.92578125,0.0
1734413088.7494016,-36.62109375,530.2734375,353.02734375,-12.20703125,0.0
1734413088.753303,-41.9921875,227.05078125,169.921875,-42.96875,0.0
1734413088.7572045,-83.984375,97.16796875,-177.734375,-62.01171875,0.0
1734413088.7611797,-75.68359375,173.33984375,-267.578125,-50.78125,0.0
1734413088.7650812,-31.73828125,151.3671875,-14.16015625,-1.953125,0.0
1734413088.768983,-23.92578125,196.77734375,264.6484375,-7.32421875,0.0
1734413088.7728844,-37.109375,384.765625,259.27734375,-55.6640625,0.0
1734413088.7767859,-57.6171875,250.9765625,-121.09375,-74.21875,0.0
1734413088.7806873,-68.84765625,-237.3046875,-462.890625,-72.265625,0.0
1734413088.7845888,-42.48046875,-765.625,-488.76953125,-5.859375,0.0
1734413088.7884903,-18.5546875,-222.65625,55.17578125,11.23046875,0.0
1734413088.792392,-30.2734375,484.86328125,327.1484375,-43.45703125,0.0
1734413088.7962935,-50.29296875,53.7109375,-183.10546875,-58.59375,0.0
1734413088.800195,-50.78125,-220.703125,-434.08203125,-55.17578125,0.0
1734413088.8040965,-51.26953125,123.046875,-151.3671875,-29.78515625,0.0
1734413088.8080683,-38.57421875,399.90234375,214.35546875,3.90625,0.0
1734413088.8119698,-26.85546875,210.44921875,236.81640625,-30.2734375,0.0
1734413088.8158712,-50.78125,-10.7421875,-131.34765625,-71.77734375,0.0
1734413088.819773,-68.359375,62.98828125,-352.05078125,-59.08203125,0.0
1734413088.8236744,-46.38671875,111.81640625,-231.4453125,-22.4609375,0.0
1734413088.827576,-25.390625,41.50390625,8.7890625,7.8125,0.0
1734413088.8314774,-34.66796875,-120.60546875,139.16015625,-18.06640625,0.0
1734413088.835379,-58.10546875,-227.05078125,-203.61328125,-70.80078125,0.0
1734413088.8392804,-78.125,-128.90625,-397.94921875,-74.21875,0.0
1734413088.843182,-62.01171875,-605.46875,-483.3984375,-19.53125,0.0
1734413088.8470836,-40.52734375,-616.2109375,-200.1953125,14.16015625,0.0
1734413088.850985,-33.69140625,339.35546875,351.5625,-0.48828125,0.0
1734413088.85495,-47.8515625,187.01171875,-65.91796875,-41.50390625,0.0
1734413088.8588514,-90.33203125,-282.2265625,-484.375,-85.9375,0.0
1734413088.862753,-84.47265625,-104.00390625,-329.1015625,-75.68359375,0.0
1734413088.8666544,-50.29296875,295.8984375,21.484375,-29.78515625,0.0
1734413088.8705559,-23.4375,294.43359375,237.3046875,-20.5078125,0.0
1734413088.8744576,-31.25,-240.72265625,-218.75,-49.8046875,0.0
1734413088.878359,-64.94140625,-340.33203125,-476.5625,-80.56640625,0.0
1734413088.8822606,-73.2421875,-173.33984375,-323.73046875,-79.58984375,0.0
1734413088.886162,-46.875,-299.8046875,-333.49609375,-47.36328125,0.0
1734413088.8900635,-20.01953125,-407.2265625,-89.84375,-12.20703125,0.0
1734413088.8939652,-27.83203125,51.7578125,143.06640625,-34.1796875,0.0
1734413088.8978667,-66.40625,207.03125,-250.0,-76.66015625,0.0
1734413088.9018278,-58.59375,-217.28515625,-404.296875,-45.41015625,0.0
1734413088.9057293,-18.06640625,-289.55078125,-265.625,15.625,0.0
1734413088.9096308,-19.04296875,211.9140625,148.92578125,0.0,0.0
1734413088.9135325,-44.43359375,369.62890625,185.05859375,-58.59375,0.0
1734413088.917434,-59.08203125,-163.57421875,-375.48828125,-70.80078125,0.0
1734413088.9213355,-62.98828125,-558.10546875,-496.58203125,-46.875,0.0
1734413088.925237,-63.4765625,-402.34375,-332.51953125,-18.06640625,0.0
1734413088.9291384,-48.33984375,34.1796875,95.703125,-22.4609375,0.0
1734413088.9330401,-33.203125,-392.578125,-72.75390625,-43.45703125,0.0
1734413088.9369416,-64.94140625,-668.9453125,-552.734375,-64.94140625,0.0
1734413088.940843,-85.9375,-17.08984375,-351.07421875,-71.77734375,0.0
1734413088.9447446,-62.98828125,95.703125,-210.9375,-27.34375,0.0
1734413088.948702,-41.9921875,191.89453125,132.32421875,0.0,0.0
1734413088.9526036,-45.41015625,363.28125,257.32421875,-29.78515625,0.0
1734413088.9565053,-66.40625,253.90625,-164.0625,-64.453125,0.0
1734413088.9604068,-74.70703125,-105.46875,-439.94140625,-70.80078125,0.0
1734413088.9643083,-67.87109375,-330.56640625,-416.50390625,-33.203125,0.0
1734413088.9682097,-46.875,-118.1640625,-47.36328125,-10.25390625,0.0
1734413088.9721115,-30.2734375,68.84765625,247.55859375,-39.0625,0.0
1734413088.976013,-59.5703125,-192.87109375,-281.73828125,-82.51953125,0.0
1734413088.9799144,-94.23828125,-729.4921875,-645.01953125,-100.09765625,0.0
1734413088.983816,-84.9609375,-236.81640625,-212.890625,-66.89453125,0.0
1734413088.9877174,-43.45703125,475.5859375,195.80078125,-22.94921875,0.0
1734413088.991619,-35.15625,295.41015625,214.35546875,-29.296875,0.0
1734413088.9955719,-66.40625,78.61328125,-110.83984375,-81.0546875,0.0
1734413088.9994733,-86.9140625,129.8828125,-332.03125,-107.91015625,0.0
1734413089.0033748,-86.9140625,122.55859375,-255.37109375,-59.5703125,0.0
1734413089.0072765,-67.87109375,154.296875,12.6953125,-12.6953125,0.0
1734413089.011178,-48.33984375,283.203125,236.328125,-44.921875,0.0
1734413089.0150795,-59.5703125,29.78515625,-118.65234375,-78.61328125,0.0
1734413089.018981,-82.51953125,-304.19921875,-456.0546875,-78.125,0.0
1734413089.0228827,-74.70703125,-750.9765625,-544.921875,-37.109375,0.0
1734413089.0267842,-55.6640625,-565.4296875,-217.28515625,-21.484375,0.0
1734413089.0306857,-44.43359375,441.40625,355.46875,-46.38671875,0.0
1734413089.0345871,-43.9453125,368.65234375,91.796875,-77.63671875,0.0
1734413089.0384889,-72.75390625,-90.8203125,-328.61328125,-109.86328125,0.0
1734413089.0424366,-84.47265625,-21.97265625,-298.33984375,-83.0078125,0.0
1734413089.046338,-51.7578125,358.3984375,48.828125,-48.33984375,0.0
1734413089.0502398,-43.9453125,388.671875,304.6875,-51.26953125,0.0
1734413089.0541413,-66.89453125,149.4140625,148.4375,-85.44921875,0.0
1734413089.0580428,-77.1484375,77.1484375,-267.08984375,-108.88671875,0.0
1734413089.0619445,-88.37890625,-163.57421875,-388.18359375,-88.37890625,0.0
1734413089.065846,-65.4296875,-267.08984375,-254.39453125,-67.3828125,0.0
1734413089.0697474,-36.62109375,-368.1640625,-50.78125,-53.7109375,0.0
1734413089.073649,-49.31640625,17.08984375,151.3671875,-68.84765625,0.0
1734413089.0775506,-68.84765625,319.82421875,-153.3203125,-101.5625,0.0
1734413089.0814521,-78.125,-147.4609375,-406.73828125,-93.75,0.0
1734413089.0853536,-65.4296875,-269.04296875,-235.83984375,-50.78125,0.0
1734413089.0892951,-46.875,358.88671875,248.53515625,-43.9453125,0.0
1734413089.0931969,-37.59765625,381.34765625,212.40234375,-54.6875,0.0
1734413089.0970984,-58.10546875,-138.18359375,-279.296875,-75.1953125,0.0
1734413089.1009998,-79.58984375,-106.93359375,-348.14453125,-81.0546875,0.0
1734413089.1049013,-60.546875,156.25,-104.4921875,-22.4609375,0.0
1734413089.108803,-24.4140625,237.3046875,242.67578125,8.30078125,0.0
1734413089.1127045,-13.18359375,-384.765625,-55.17578125,-16.11328125,0.0
1734413089.116606,-36.1328125,-684.08203125,-499.0234375,-55.17578125,0.0
1734413089.1205077,-62.01171875,6.8359375,-313.4765625,-60.05859375,0.0
1734413089.1244092,-52.24609375,161.1328125,-164.55078125,-21.97265625,0.0
1734413089.1283107,-18.06640625,208.0078125,136.23046875,-4.8828125,0.0
1734413089.1322122,-13.671875,437.01171875,330.56640625,-31.73828125,0.0
1734413089.1361496,-40.0390625,423.828125,1.953125,-71.77734375,0.0
1734413089.1400514,-59.08203125,15.625,-373.53515625,-78.125,0.0
1734413089.1439528,-51.26953125,-303.22265625,-342.28515625,-46.875,0.0
1734413089.1478543,-26.85546875,177.24609375,113.28125,-23.92578125,0.0
1734413089.151756,-33.203125,551.7578125,345.703125,-54.6875,0.0
1734413089.1556575,-50.29296875,0.0,-207.51953125,-98.14453125,0.0
1734413089.159559,-62.98828125,-755.859375,-608.88671875,-94.7265625,0.0
1734413089.1634605,-66.40625,-341.796875,-276.85546875,-41.50390625,0.0
1734413089.1673622,-40.0390625,443.84765625,145.01953125,-14.16015625,0.0
1734413089.1712637,-25.390625,300.78125,209.47265625,-41.015625,0.0
1734413089.1751652,-37.109375,59.08203125,-99.12109375,-69.82421875,0.0
1734413089.179067,-68.84765625,83.984375,-350.5859375,-94.7265625,0.0
1734413089.183035,-85.9375,73.73046875,-308.59375,-64.453125,0.0
1734413089.1869364,-40.52734375,44.43359375,-178.22265625,-15.625,0.0
1734413089.1908379,-27.34375,171.38671875,154.296875,-15.13671875,0.0
1734413089.1947396,-62.01171875,313.96484375,69.82421875,-57.12890625,0.0
1734413089.198641,-64.453125,1.953125,-430.6640625,-70.3125,0.0
1734413089.2025425,-53.22265625,-474.12109375,-490.234375,-40.52734375,0.0
1734413089.2064443,-33.203125,-429.19921875,-334.9609375,-6.8359375,0.0
1734413089.2103457,-12.6953125,-71.2890625,75.68359375,-5.859375,0.0
1734413089.2142472,-28.3203125,-53.7109375,-30.76171875,-54.6875,0.0
1734413089.218149,-41.015625,-561.03515625,-551.7578125,-80.078125,0.0
1734413089.2220504,-56.15234375,-534.1796875,-437.01171875,-57.12890625,0.0
1734413089.225952,-39.0625,223.6328125,-124.0234375,-18.5546875,0.0
1734413089.229918,7.32421875,362.79296875,195.3125,-8.7890625,0.0
1734413089.2338195,-7.8125,142.08984375,101.5625,-30.2734375,0.0
1734413089.237721,-54.6875,38.57421875,-325.68359375,-65.91796875,0.0
1734413089.2416227,-69.3359375,29.296875,-391.11328125,-60.05859375,0.0
1734413089.2455242,-40.0390625,2.9296875,-333.984375,-23.92578125,0.0
1734413089.2494256,-15.625,-164.0625,-147.94921875,-12.20703125,0.0
1734413089.2533274,-20.5078125,-38.0859375,100.5859375,-22.4609375,0.0
1734413089.2572289,-44.921875,188.4765625,-225.09765625,-63.4765625,0.0
1734413089.2611303,-60.05859375,-278.80859375,-580.56640625,-57.12890625,0.0
1734413089.265032,-43.9453125,-728.02734375,-548.33984375,-4.8828125,0.0
1734413089.2689335,-36.1328125,26.85546875,47.36328125,-3.90625,0.0
1734413089.272835,-36.1328125,462.890625,230.95703125,-29.296875,0.0
1734413089.2767994,0.0,-87.40234375,-298.828125,-52.734375,0.0
1734413089.280701,0.0,-326.66015625,-482.91015625,-60.546875,0.0
1734413089.2846026,0.0,33.203125,-336.9140625,-25.390625,0.0
1734413089.2885041,0.0,298.33984375,9.27734375,7.8125,0.0
1734413089.2924056,0.0,106.4453125,116.69921875,-18.06640625,0.0
1734413089.2963073,0.0,-353.02734375,-402.83203125,-53.22265625,0.0
1734413089.3002088,0.0,-539.0625,-540.52734375,-60.05859375,0.0
1734413089.3041103,0.0,-327.1484375,-353.515625,-31.25,0.0
1734413089.308012,0.0,-555.6640625,-421.875,14.16015625,0.0
1734413089.3119135,0.0,-451.66015625,-107.91015625,3.41796875,0.0
1734413089.315815,0.0,221.19140625,-53.7109375,-40.52734375,0.0
1734413089.3197167,0.0,-69.3359375,-496.58203125,-44.43359375,0.0
1734413089.323674,-41.9921875,-322.75390625,-445.3125,-25.390625,0.0
1734413089.3275754,-1.46484375,111.81640625,-85.44921875,-7.32421875,0.0
1734413089.3314772,1.953125,455.078125,257.8125,-15.13671875,0.0
1734413089.3353786,-18.06640625,136.71875,-116.69921875,-19.04296875,0.0
1734413089.3392801,-38.0859375,-291.9921875,-545.8984375,-33.203125,0.0
1734413089.3431818,-52.734375,-410.15625,-478.02734375,-33.69140625,0.0
1734413089.3470833,-41.015625,-159.66796875,-250.9765625,-2.9296875,0.0
1734413089.3509848,-16.6015625,41.50390625,36.62109375,-0.48828125,0.0
1734413089.3548865,-29.78515625,-506.8359375,-291.50390625,-23.4375,0.0
1734413089.358788,-68.84765625,-373.53515625,-485.83984375,-61.03515625,0.0
1734413089.3626895,-75.68359375,55.17578125,-338.8671875,-66.40625,0.0
1734413089.3665912,-47.8515625,1.46484375,-270.99609375,-18.06640625,0.0
1734413089.3705442,-19.53125,133.7890625,83.49609375,6.34765625,0.0
1734413089.3744457,-25.390625,367.1875,164.0625,-26.85546875,0.0
1734413089.3783472,-38.57421875,107.91015625,-325.68359375,-55.6640625,0.0
1734413089.3822489,-46.875,-297.8515625,-462.890625,-35.64453125,0.0
1734413089.3861504,-42.48046875,-110.83984375,-247.0703125,-2.9296875,0.0
1734413089.3900518,-16.11328125,67.87109375,76.66015625,-7.8125,0.0
1734413089.3939536,-9.765625,-48.33984375,29.78515625,-48.828125,0.0
1734413089.397855,-24.4140625,-607.91015625,-583.0078125,-61.03515625,0.0
1734413089.4017568,-46.38671875,-741.2109375,-616.69921875,-48.828125,0.0
1734413089.4056582,-45.41015625,83.984375,-196.77734375,-34.66796875,0.0
1734413089.4095597,9.765625,291.50390625,105.95703125,-7.32421875,0.0
1734413089.4134614,14.6484375,112.3046875,125.0,-19.04296875,0.0
1734413089.41741,-31.73828125,44.921875,-284.1796875,-42.48046875,0.0
1734413089.4213114,-57.6171875,43.45703125,-402.34375,-48.33984375,0.0
1734413089.425213,-41.015625,2.44140625,-347.16796875,-39.55078125,0.0
1734413089.4291146,-6.34765625,44.921875,-66.89453125,-16.11328125,0.0
1734413089.433016,-7.32421875,267.578125,193.359375,-26.3671875,0.0
1734413089.4369178,-30.76171875,-66.40625,-291.50390625,-57.12890625,0.0
1734413089.4408193,-53.22265625,-596.19140625,-609.86328125,-52.734375,0.0
1734413089.444721,-51.26953125,-761.23046875,-523.4375,-18.5546875,0.0
1734413089.4486225,-27.83203125,-53.7109375,0.48828125,-3.41796875,0.0
1734413089.452524,-8.30078125,557.6171875,303.22265625,-6.34765625,0.0
1734413089.4564257,-31.73828125,38.57421875,-166.9921875,-42.48046875,0.0
1734413089.4603271,-68.84765625,-297.36328125,-482.421875,-43.45703125,0.0
1734413089.4642713,-43.45703125,104.00390625,-265.625,-10.25390625,0.0
1734413089.4681728,-12.6953125,354.4921875,60.05859375,-12.6953125,0.0
1734413089.4720745,-28.3203125,207.03125,239.74609375,-19.53125,0.0
1734413089.475976,-37.59765625,59.5703125,-90.33203125,-54.19921875,0.0
1734413089.4798775,-41.015625,-64.94140625,-464.35546875,-60.546875,0.0
1734413089.4837792,-49.31640625,-166.9921875,-367.1875,-35.15625,0.0
1734413089.4876807,-29.78515625,-556.15234375,-407.71484375,-5.37109375,0.0
1734413089.4915824,-5.859375,-542.96875,-120.60546875,5.37109375,0.0
1734413089.4954839,-22.4609375,225.5859375,71.2890625,-39.0625,0.0
1734413089.4993854,-44.43359375,-3.90625,-402.83203125,-65.91796875,0.0
1734413089.503287,-46.875,-289.55078125,-405.2734375,-56.15234375,0.0
1734413089.5071886,-27.83203125,140.625,-35.15625,-26.85546875,0.0
1734413089.5111268,5.859375,536.1328125,335.44921875,-20.01953125,0.0
1734413089.5150285,1.953125,220.703125,-10.25390625,-54.6875,0.0
1734413089.51893,-41.015625,-267.578125,-471.6796875,-78.61328125,0.0
1734413089.5228317,-43.9453125,-80.078125,-360.3515625,-51.7578125,0.0
1734413089.5267332,-8.30078125,253.41796875,-81.0546875,-7.32421875,0.0
1734413089.5306346,22.4609375,93.26171875,160.64453125,0.0,0.0
1734413089.5345364,15.625,-518.06640625,-176.26953125,-15.13671875,0.0
1734413089.5384378,-33.69140625,-347.16796875,-425.78125,-63.4765625,0.0
1734413089.5423396,-53.7109375,113.28125,-312.01171875,-75.1953125,0.0
1734413089.546241,-20.5078125,27.34375,-252.44140625,-25.87890625,0.0
1734413089.5501428,5.859375,151.3671875,97.16796875,3.90625,0.0
1734413089.5540442,-21.97265625,459.9609375,258.30078125,-41.9921875,0.0
1734413089.5579774,-40.0390625,182.6171875,-262.6953125,-79.58984375,0.0
1734413089.5618792,-45.8984375,-309.5703125,-481.4453125,-57.12890625,0.0
1734413089.5657806,-42.96875,-106.4453125,-187.98828125,-17.578125,0.0
1734413089.5696824,3.41796875,420.8984375,230.95703125,12.20703125,0.0
1734413089.5735838,7.8125,408.203125,183.10546875,-15.13671875,0.0
1734413089.5774853,-41.9921875,-363.28125,-376.953125,-58.10546875,0.0
1734413089.581387,-50.78125,-716.796875,-482.421875,-53.22265625,0.0
1734413089.5852885,-24.90234375,-260.25390625,-291.9921875,-17.578125,0.0
1734413089.5891902,5.859375,192.87109375,69.82421875,3.41796875,0.0
1734413089.5930917,12.6953125,36.1328125,123.046875,-7.32421875,0.0
1734413089.5969934,-25.390625,-102.5390625,-248.046875,-61.03515625,0.0
1734413089.600895,-51.26953125,82.03125,-360.3515625,-82.03125,0.0
1734413089.6048613,-27.34375,3.41796875,-333.0078125,-27.34375,0.0
1734413089.608763,15.13671875,50.78125,-48.33984375,5.859375,0.0
1734413089.6126645,19.53125,363.76953125,308.10546875,-5.859375,0.0
1734413089.616566,-7.8125,293.9453125,-83.0078125,-34.66796875,0.0
1734413089.6204677,-25.87890625,-265.13671875,-515.13671875,-73.73046875,0.0
1734413089.6243691,-33.203125,-571.2890625,-470.703125,-49.8046875,0.0
1734413089.6282709,-22.94921875,-122.0703125,-79.58984375,-21.97265625,0.0
1734413089.6321723,-14.6484375,484.375,342.7734375,-35.15625,0.0
1734413089.636074,-17.08984375,21.97265625,-166.50390625,-49.31640625,0.0
1734413089.6399755,-37.59765625,-658.69140625,-629.39453125,-60.546875,0.0
1734413089.6438773,-53.22265625,-144.53125,-294.43359375,-53.22265625,0.0
1734413089.6477787,-20.5078125,356.4453125,37.59765625,-21.484375,0.0
1734413089.6517398,-10.7421875,215.8203125,214.35546875,-19.04296875,0.0
1734413089.6556416,-27.34375,19.53125,-67.87109375,-44.43359375,0.0
1734413089.659543,-54.6875,28.3203125,-362.79296875,-66.89453125,0.0
1734413089.6634448,-70.80078125,34.66796875,-321.2890625,-41.9921875,0.0
1734413089.6673462,-34.1796875,-60.05859375,-272.94921875,26.85546875,0.0
1734413089.671248,5.37109375,-129.39453125,34.1796875,41.015625,0.0
1734413089.6751494,-9.27734375,-142.08984375,-18.5546875,-16.11328125,0.0
1734413089.679051,-38.57421875,-301.26953125,-477.05078125,-44.43359375,0.0
1734413089.6829526,-30.76171875,-616.69921875,-468.75,-6.34765625,0.0
1734413089.6868541,-12.6953125,-246.58203125,-66.89453125,7.32421875,0.0
1734413089.6907558,-3.41796875,549.8046875,359.86328125,-13.671875,0.0
1734413089.6946573,-7.8125,398.4375,149.90234375,-27.34375,0.0
1734413089.6986113,-13.671875,-288.0859375,-356.4453125,-50.29296875,0.0
1734413089.702513,-21.484375,-227.5390625,-376.46484375,-56.15234375,0.0
1734413089.7064145,-7.8125,276.85546875,-66.40625,-27.83203125,0.0
1734413089.7103162,2.9296875,316.40625,251.46484375,-12.20703125,0.0
1734413089.7142177,-12.20703125,72.75390625,144.53125,-55.6640625,0.0
1734413089.7181194,-44.921875,-260.7421875,-376.46484375,-91.30859375,0.0
1734413089.7220209,-62.01171875,-325.1953125,-438.4765625,-70.3125,0.0
1734413089.7259226,-34.1796875,-205.078125,-341.30859375,-1.46484375,0.0
1734413089.729824,-22.94921875,-429.6875,-242.67578125,27.83203125,0.0
1734413089.7337258,-29.296875,39.55078125,162.109375,-53.7109375,0.0
1734413089.7376273,-46.38671875,128.90625,-187.98828125,-104.4921875,0.0
1734413089.741529,-73.73046875,-397.94921875,-498.53515625,-74.21875,0.0
1734413089.7454813,-54.6875,-103.515625,-182.12890625,-23.4375,0.0
1734413089.7493827,-17.08984375,473.14453125,219.23828125,0.48828125,0.0
1734413089.7532845,-18.5546875,487.79296875,258.7890625,-11.23046875,0.0
1734413089.757186,-39.0625,20.5078125,-193.359375,-39.0625,0.0
1734413089.7610877,-49.8046875,-136.23046875,-406.25,-54.19921875,0.0
1734413089.7649891,-30.76171875,-119.62890625,-359.86328125,-13.18359375,0.0
1734413089.7688909,-6.8359375,5.859375,-37.109375,22.94921875,0.0
1734413089.7727923,11.23046875,-392.578125,-55.6640625,25.87890625,0.0
1734413089.776694,-3.41796875,-629.39453125,-466.30859375,-19.04296875,0.0
1734413089.7805955,-43.45703125,56.15234375,-348.6328125,-47.36328125,0.0
1734413089.7844973,-29.296875,87.890625,-320.3125,-10.25390625,0.0
1734413089.7883987,4.8828125,64.453125,-100.5859375,11.71875,0.0
1734413089.792348,6.8359375,336.42578125,233.3984375,-8.30078125,0.0
1734413089.7962494,-12.6953125,217.7734375,-106.93359375,-48.828125,0.0
1734413089.800151,-30.2734375,-317.87109375,-509.27734375,-66.89453125,0.0
1734413089.8040526,-40.0390625,-337.890625,-386.71875,-42.96875,0.0
1734413089.8079543,-17.578125,125.9765625,-34.66796875,-1.46484375,0.0
1734413089.8118558,4.39453125,113.28125,229.00390625,-5.37109375,0.0
1734413089.8157575,5.859375,-261.71875,-173.828125,-26.85546875,0.0
1734413089.819659,-15.13671875,-713.37890625,-582.51953125,-31.73828125,0.0
1734413089.8235607,-42.48046875,-367.67578125,-337.890625,-42.96875,0.0
1734413089.8274622,-28.3203125,297.8515625,-5.37109375,-28.3203125,0.0
