timestamps,TP9,AF7,AF8,TP10,Right AUX
1734581129.205057,-20.99609375,887.6953125,305.17578125,-28.3203125,0.0
1734581129.208963,-19.53125,932.6171875,348.14453125,-26.85546875,0.0
1734581129.2128692,-34.1796875,947.75390625,326.66015625,-27.83203125,0.0
1734581129.2167754,-23.92578125,888.18359375,262.20703125,-31.25,0.0
1734581129.2206817,-27.83203125,719.23828125,227.5390625,-29.78515625,0.0
1734581129.2245877,-37.109375,776.85546875,280.76171875,-10.25390625,0.0
1734581129.228494,-28.3203125,978.515625,362.3046875,-24.4140625,0.0
1734581129.2324002,-31.25,977.05078125,327.63671875,-35.64453125,0.0
1734581129.2363064,-25.87890625,378.41796875,112.79296875,-12.20703125,0.0
1734581129.2402127,-19.04296875,479.00390625,185.546875,-25.87890625,0.0
1734581129.2441187,-28.3203125,-953.61328125,380.859375,-42.48046875,0.0
1734581129.248062,-35.64453125,838.37890625,285.15625,-28.80859375,0.0
1734581129.2519681,-35.64453125,778.80859375,276.85546875,-36.1328125,0.0
1734581129.2558744,-31.73828125,949.21875,374.0234375,-40.52734375,0.0
1734581129.2597804,-22.94921875,995.1171875,379.39453125,-15.625,0.0
1734581129.2636867,-11.71875,783.69140625,260.25390625,-12.20703125,0.0
1734581129.267593,-23.4375,579.58984375,206.54296875,-23.4375,0.0
1734581129.2714992,-36.1328125,722.16796875,277.83203125,-18.5546875,0.0
1734581129.2754052,-38.57421875,861.328125,310.546875,-25.87890625,0.0
1734581129.2793114,-32.71484375,625.0,181.640625,-36.62109375,0.0
1734581129.2832177,-22.94921875,666.9921875,231.4453125,-32.71484375,0.0
1734581129.287124,-25.390625,993.1640625,408.69140625,-35.64453125,0.0
1734581129.29103,-34.66796875,974.12109375,354.98046875,-31.73828125,0.0
1734581129.2949293,-37.109375,728.515625,327.1484375,-41.50390625,0.0
1734581129.2988355,-29.78515625,773.92578125,356.93359375,-47.8515625,0.0
1734581129.3027415,-22.94921875,971.19140625,373.53515625,-32.2265625,0.0
1734581129.3066478,-17.08984375,-994.62890625,358.3984375,-26.3671875,0.0
1734581129.310554,-20.5078125,327.1484375,146.97265625,-15.625,0.0
1734581129.3144603,-29.296875,33.69140625,134.27734375,-20.99609375,0.0
1734581129.3183663,-22.94921875,814.453125,371.09375,-43.9453125,0.0
1734581129.3222725,-31.73828125,-997.0703125,360.3515625,-44.921875,0.0
1734581129.3261788,-34.66796875,407.71484375,190.91796875,-34.66796875,0.0
1734581129.330085,-28.80859375,469.23828125,236.328125,-25.87890625,0.0
1734581129.333991,-23.92578125,-997.55859375,379.8828125,-35.64453125,0.0
1734581129.3378973,-24.4140625,889.6484375,350.09765625,-43.45703125,0.0
1734581129.3429635,-35.64453125,850.5859375,332.51953125,-31.25,0.0
1734581129.3468697,-31.73828125,940.4296875,375.9765625,-42.48046875,0.0
1734581129.350776,-28.3203125,988.76953125,392.578125,-45.41015625,0.0
1734581129.3546822,-18.5546875,827.63671875,291.50390625,-27.34375,0.0
1734581129.3585882,-20.01953125,636.71875,238.28125,-32.2265625,0.0
1734581129.3624945,-20.5078125,743.65234375,308.10546875,-30.2734375,0.0
1734581129.3664007,-9.27734375,902.34375,358.88671875,-23.4375,0.0
1734581129.370307,-8.7890625,470.21484375,143.06640625,-17.08984375,0.0
1734581129.3742132,-13.671875,179.6875,106.4453125,-20.01953125,0.0
1734581129.3781192,-20.99609375,885.25390625,400.390625,-27.34375,0.0
1734581129.3820255,-41.50390625,-998.53515625,391.6015625,-43.45703125,0.0
1734581129.3859317,-45.41015625,853.515625,376.46484375,-44.43359375,0.0
1734581129.3897102,-34.66796875,883.7890625,355.46875,-31.73828125,0.0
1734581129.3936164,-26.85546875,912.59765625,355.95703125,-33.203125,0.0
1734581129.3975224,-13.671875,922.8515625,354.00390625,-29.296875,0.0
1734581129.4014287,-17.08984375,901.3671875,349.609375,-24.4140625,0.0
1734581129.405335,-26.85546875,901.3671875,363.76953125,-30.76171875,0.0
1734581129.4092412,-24.90234375,782.2265625,316.40625,-33.69140625,0.0
1734581129.4131474,-22.94921875,735.3515625,307.6171875,-27.34375,0.0
1734581129.4170535,-32.71484375,729.00390625,297.8515625,-36.62109375,0.0
1734581129.4209597,-35.64453125,868.65234375,374.0234375,-47.8515625,0.0
1734581129.424866,-32.71484375,-1000.0,419.43359375,-31.25,0.0
1734581129.4287722,-23.4375,923.33984375,348.6328125,-20.99609375,0.0
1734581129.4326782,-27.83203125,361.328125,267.578125,-22.4609375,0.0
1734581129.4363446,-25.390625,583.984375,367.1875,-17.08984375,0.0
1734581129.4402509,-26.3671875,-938.4765625,426.7578125,-12.6953125,0.0
1734581129.4441571,-39.55078125,817.87109375,319.3359375,-19.53125,0.0
1734581129.4480634,-38.0859375,809.5703125,307.6171875,-28.80859375,0.0
1734581129.4519694,-42.48046875,859.86328125,345.21484375,-36.62109375,0.0
1734581129.4558756,-46.875,854.00390625,354.4921875,-36.62109375,0.0
1734581129.459782,-52.24609375,498.046875,171.875,-20.01953125,0.0
1734581129.4636881,-49.8046875,211.42578125,136.23046875,-16.6015625,0.0
1734581129.4675944,-37.59765625,866.69921875,415.52734375,-31.73828125,0.0
1734581129.4715004,-42.48046875,-985.83984375,416.9921875,-35.15625,0.0
1734581129.4754066,-36.1328125,764.6484375,344.23828125,-35.15625,0.0
1734581129.479313,-39.55078125,849.609375,373.53515625,-28.3203125,0.0
1734581129.4829504,-48.33984375,989.74609375,428.22265625,-32.2265625,0.0
1734581129.4868567,-39.0625,936.5234375,392.08984375,-32.71484375,0.0
1734581129.4907627,-43.45703125,911.62109375,377.44140625,-38.57421875,0.0
1734581129.494669,-34.1796875,937.01171875,408.203125,-45.41015625,0.0
1734581129.4985752,-6.34765625,931.15234375,394.04296875,-38.57421875,0.0
1734581129.5024815,-20.99609375,898.92578125,353.02734375,-31.73828125,0.0
1734581129.5063877,-35.64453125,231.4453125,173.33984375,-25.390625,0.0
1734581129.5102937,-30.76171875,193.359375,223.6328125,-36.1328125,0.0
1734581129.5142,-23.92578125,971.19140625,437.5,-41.9921875,0.0
1734581129.5181062,-22.4609375,941.40625,395.99609375,-37.59765625,0.0
1734581129.5220125,-30.2734375,867.67578125,391.11328125,-41.015625,0.0
1734581129.5259185,-27.34375,930.6640625,417.48046875,-47.8515625,0.0
1734581129.52949,-24.90234375,-989.74609375,435.546875,-34.1796875,0.0
1734581129.533396,-28.3203125,809.5703125,340.33203125,-25.390625,0.0
1734581129.5373023,-36.1328125,648.92578125,319.3359375,-35.64453125,0.0
1734581129.5412085,-38.57421875,957.51953125,424.31640625,-38.57421875,0.0
1734581129.5451148,-32.2265625,891.11328125,371.58203125,-21.484375,0.0
1734581129.5490208,-20.99609375,519.53125,231.93359375,-8.7890625,0.0
1734581129.552927,-19.04296875,517.578125,259.765625,-23.4375,0.0
1734581129.5568333,-24.4140625,887.6953125,419.43359375,-27.34375,0.0
1734581129.5607395,-26.85546875,-926.7578125,465.33203125,-35.64453125,0.0
1734581129.5646455,-33.69140625,536.1328125,222.65625,-36.62109375,0.0
1734581129.5685518,-42.48046875,222.16796875,185.05859375,-30.2734375,0.0
1734581129.572458,-43.45703125,912.59765625,451.171875,-42.48046875,0.0
1734581129.576917,-42.48046875,990.234375,428.7109375,-45.41015625,0.0
1734581129.5808232,-39.55078125,888.671875,420.41015625,-37.59765625,0.0
1734581129.5847292,-30.2734375,933.10546875,434.08203125,-29.78515625,0.0
1734581129.5886354,-35.64453125,966.30859375,444.3359375,-39.0625,0.0
1734581129.5925417,-34.1796875,952.1484375,416.50390625,-40.52734375,0.0
1734581129.596448,-36.1328125,711.9140625,348.14453125,-39.0625,0.0
1734581129.6003542,-53.7109375,748.046875,395.01953125,-54.19921875,0.0
1734581129.6042602,-50.29296875,989.74609375,464.35546875,-54.6875,0.0
1734581129.6081665,-37.109375,951.171875,417.96875,-55.6640625,0.0
1734581129.6120727,-37.59765625,621.58203125,378.41796875,-43.45703125,0.0
1734581129.615979,-44.921875,758.30078125,451.66015625,-37.59765625,0.0
1734581129.619885,-46.38671875,-964.84375,472.16796875,-42.48046875,0.0
1734581129.6237862,-37.109375,852.05078125,398.92578125,-28.3203125,0.0
1734581129.6276925,-43.45703125,741.2109375,368.1640625,-39.55078125,0.0
1734581129.6315987,-46.38671875,887.6953125,433.59375,-47.8515625,0.0
1734581129.6355047,-40.52734375,-967.7734375,488.76953125,-45.8984375,0.0
1734581129.639411,-44.43359375,711.9140625,312.5,-58.59375,0.0
1734581129.6433172,-35.15625,413.57421875,260.25390625,-54.19921875,0.0
1734581129.6472235,-40.52734375,796.875,437.98828125,-44.921875,0.0
1734581129.6511295,-50.29296875,-984.375,486.81640625,-56.640625,0.0
1734581129.6550357,-52.24609375,722.65625,324.21875,-60.05859375,0.0
1734581129.658942,-50.29296875,737.79296875,358.3984375,-57.12890625,0.0
1734581129.6628482,-42.48046875,944.82421875,484.375,-51.26953125,0.0
1734581129.6667545,-36.62109375,-979.4921875,478.515625,-33.203125,0.0
1734581129.670644,-34.1796875,538.0859375,319.82421875,-38.57421875,0.0
1734581129.6745503,-40.0390625,350.09765625,316.89453125,-48.33984375,0.0
1734581129.6784565,-44.921875,998.53515625,532.2265625,-54.6875,0.0
1734581129.6823628,-38.57421875,965.33203125,473.6328125,-41.9921875,0.0
1734581129.6862688,-32.71484375,791.9921875,424.8046875,-39.55078125,0.0
1734581129.690175,-31.25,826.171875,415.52734375,-46.875,0.0
1734581129.6940813,-29.78515625,964.35546875,470.21484375,-32.2265625,0.0
1734581129.6979876,-30.2734375,938.96484375,476.07421875,-32.2265625,0.0
1734581129.7018936,-26.3671875,871.58203125,426.7578125,-37.59765625,0.0
1734581129.7057998,-25.87890625,928.22265625,510.7421875,-36.62109375,0.0
1734581129.709706,-38.57421875,989.74609375,536.62109375,-38.57421875,0.0
1734581129.7136123,-29.78515625,921.875,483.3984375,-34.1796875,0.0
1734581129.7174363,-31.25,792.96875,461.42578125,-37.59765625,0.0
1734581129.7213426,-41.9921875,907.71484375,517.578125,-34.66796875,0.0
1734581129.7252488,-38.57421875,-974.609375,557.6171875,-24.4140625,0.0
1734581129.7291548,-36.1328125,820.80078125,461.42578125,-27.83203125,0.0
1734581129.733061,-34.1796875,665.0390625,413.57421875,-40.52734375,0.0
1734581129.7369673,-45.41015625,895.99609375,480.46875,-50.78125,0.0
1734581129.7408736,-51.26953125,-971.19140625,505.37109375,-51.26953125,0.0
1734581129.7447798,-43.45703125,677.24609375,342.28515625,-39.0625,0.0
1734581129.7486858,-34.1796875,454.58984375,351.5625,-31.25,0.0
1734581129.752592,-35.64453125,957.03125,580.56640625,-33.203125,0.0
1734581129.7564983,-36.62109375,997.0703125,563.4765625,-29.78515625,0.0
1734581129.7604046,-26.85546875,814.453125,491.69921875,-22.4609375,0.0
1734581129.7641678,-29.296875,882.32421875,518.06640625,-30.76171875,0.0
1734581129.768074,-48.33984375,988.76953125,582.03125,-32.71484375,0.0
1734581129.7719803,-54.6875,952.63671875,532.2265625,-30.76171875,0.0
1734581129.7758865,-50.29296875,897.94921875,538.57421875,-40.0390625,0.0
1734581129.7797925,-46.875,921.875,552.734375,-39.55078125,0.0
1734581129.7836988,-31.25,954.58984375,508.30078125,-33.203125,0.0
1734581129.787605,-24.4140625,995.1171875,537.109375,-29.78515625,0.0
1734581129.7915113,-31.25,582.51953125,403.3203125,-33.69140625,0.0
1734581129.7954173,-34.1796875,645.5078125,467.28515625,-38.0859375,0.0
1734581129.7993236,-36.62109375,-968.26171875,616.2109375,-41.50390625,0.0
1734581129.8032298,-39.0625,936.03515625,546.875,-47.36328125,0.0
1734581129.807136,-41.50390625,937.01171875,550.29296875,-48.828125,0.0
1734581129.811785,-40.0390625,944.82421875,585.44921875,-54.6875,0.0
1734581129.8156912,-45.8984375,995.60546875,598.14453125,-53.22265625,0.0
1734581129.8195972,-56.640625,866.69921875,527.34375,-43.9453125,0.0
1734581129.8235035,-67.87109375,780.76171875,535.64453125,-58.10546875,0.0
1734581129.8274097,-78.125,928.22265625,561.03515625,-83.984375,0.0
1734581129.831316,-84.47265625,-981.93359375,560.546875,-83.49609375,0.0
1734581129.8352222,-87.40234375,744.62890625,434.08203125,-84.9609375,0.0
1734581129.8391283,-98.6328125,569.82421875,419.43359375,-101.5625,0.0
1734581129.8430345,-108.3984375,966.796875,629.8828125,-112.79296875,0.0
1734581129.8469408,-120.60546875,979.00390625,613.28125,-130.859375,0.0
1734581129.850847,-132.8125,938.4765625,583.0078125,-141.11328125,0.0
1734581129.8547533,-141.11328125,963.37890625,599.609375,-146.97265625,0.0
1734581129.8583944,-155.2734375,964.35546875,607.91015625,-149.4140625,0.0
1734581129.8623006,-139.16015625,961.9140625,599.609375,-149.4140625,0.0
1734581129.8662066,-127.9296875,961.42578125,585.44921875,-145.99609375,0.0
1734581129.870113,-157.71484375,960.44921875,608.88671875,-149.90234375,0.0
1734581129.8740191,-163.0859375,971.19140625,621.09375,-162.109375,0.0
1734581129.8779254,-150.87890625,953.61328125,568.84765625,-150.87890625,0.0
1734581129.8818316,-146.97265625,872.55859375,540.52734375,-149.4140625,0.0
1734581129.8857377,-153.80859375,930.17578125,604.98046875,-149.4140625,0.0
1734581129.889644,-155.2734375,988.28125,636.71875,-147.4609375,0.0
1734581129.8935502,-159.66796875,942.87109375,595.703125,-155.2734375,0.0
1734581129.8974564,-150.390625,877.9296875,551.26953125,-158.203125,0.0
1734581129.9013624,-140.625,933.59375,605.95703125,-158.69140625,0.0
1734581129.904919,0.0,994.140625,638.18359375,-152.83203125,0.0
1734581129.9088252,0.0,936.5234375,642.08984375,-142.578125,0.0
1734581129.9127314,0.0,708.984375,656.25,-134.27734375,0.0
1734581129.9166374,0.0,858.88671875,670.41015625,-125.0,0.0
1734581129.9205437,0.0,-963.37890625,651.85546875,-116.2109375,0.0
1734581129.92445,0.0,809.5703125,598.6328125,-115.234375,0.0
1734581129.9283562,0.0,710.9375,627.9296875,-104.98046875,0.0
1734581129.9322624,0.0,960.9375,681.15234375,-104.4921875,0.0
1734581129.9361684,0.0,999.51171875,629.8828125,-104.98046875,0.0
1734581129.9400747,0.0,828.61328125,598.14453125,-80.078125,0.0
1734581129.943981,0.0,851.5625,675.78125,-70.80078125,0.0
1734581129.9478872,0.0,992.1875,698.73046875,-78.125,0.0
1734581129.9519951,-60.546875,959.47265625,0.0,-78.61328125,0.0
1734581129.9559014,-46.875,965.33203125,0.0,-70.80078125,0.0
1734581129.9598076,-46.38671875,964.35546875,0.0,-65.4296875,0.0
1734581129.963714,-57.6171875,969.7265625,0.0,-66.89453125,0.0
1734581129.96762,-45.8984375,963.8671875,0.0,-56.640625,0.0
1734581129.9715261,-40.0390625,937.01171875,0.0,-49.8046875,0.0
1734581129.9754324,-30.2734375,952.1484375,0.0,-48.33984375,0.0
1734581129.9793386,-17.08984375,973.6328125,0.0,-41.9921875,0.0
1734581129.983245,-24.4140625,956.0546875,0.0,-41.015625,0.0
1734581129.987151,-21.484375,922.36328125,0.0,-35.64453125,0.0
1734581129.9910572,3.41796875,955.56640625,0.0,-20.5078125,0.0
1734581129.9949634,3.41796875,982.421875,0.0,-15.13671875,0.0
1734581129.9989524,0.0,945.3125,0.0,0.0,0.0
1734581130.0028586,0.0,917.48046875,0.0,0.0,0.0
1734581130.006765,0.0,960.44921875,0.0,0.0,0.0
1734581130.0106711,0.0,992.1875,0.0,0.0,0.0
1734581130.0145772,0.0,875.9765625,0.0,0.0,0.0
1734581130.0184834,0.0,858.88671875,0.0,0.0,0.0
1734581130.0223897,0.0,959.9609375,0.0,0.0,0.0
1734581130.026296,0.0,-994.62890625,0.0,0.0,0.0
1734581130.030202,0.0,841.30859375,0.0,0.0,0.0
1734581130.0341082,0.0,568.359375,0.0,0.0,0.0
1734581130.0380144,0.0,873.046875,0.0,0.0,0.0
1734581130.0419207,0.0,-997.55859375,0.0,0.0,0.0
1734581130.0462809,-0.48828125,946.2890625,673.828125,-2.9296875,0.0
1734581130.050187,7.32421875,973.6328125,713.37890625,5.37109375,0.0
1734581130.0540934,3.90625,969.7265625,704.1015625,0.0,0.0
1734581130.0579996,2.9296875,966.796875,686.5234375,0.48828125,0.0
1734581130.0619056,6.34765625,958.984375,665.52734375,4.8828125,0.0
1734581130.0658119,2.9296875,955.078125,643.5546875,-1.46484375,0.0
1734581130.0697181,-2.44140625,969.23828125,678.7109375,-6.34765625,0.0
1734581130.0736244,-10.25390625,975.5859375,701.171875,2.44140625,0.0
1734581130.0775306,1.46484375,827.1484375,558.59375,14.16015625,0.0
1734581130.0814366,16.6015625,890.625,653.80859375,6.8359375,0.0
1734581130.085343,6.8359375,993.65234375,734.86328125,-7.32421875,0.0
1734581130.0892491,-4.8828125,957.03125,670.8984375,-0.48828125,0.0
1734581130.0930498,0.9765625,971.19140625,711.9140625,0.9765625,0.0
1734581130.096956,2.44140625,969.7265625,734.86328125,1.953125,0.0
1734581130.1008623,0.0,968.26171875,698.73046875,-5.37109375,0.0
1734581130.1047685,10.7421875,964.35546875,657.2265625,-14.6484375,0.0
1734581130.1086748,11.23046875,962.40234375,658.69140625,-1.46484375,0.0
1734581130.1125808,14.16015625,965.8203125,680.17578125,3.90625,0.0
1734581130.116487,9.765625,972.16796875,678.22265625,-2.9296875,0.0
1734581130.1203933,-2.9296875,913.0859375,581.54296875,5.859375,0.0
1734581130.1242995,-2.9296875,928.7109375,660.15625,-2.9296875,0.0
1734581130.1282055,-2.9296875,971.19140625,763.18359375,-16.6015625,0.0
1734581130.1321118,1.46484375,992.67578125,746.58203125,-10.25390625,0.0
1734581130.136018,9.765625,859.86328125,596.19140625,-1.46484375,0.0
1734581130.1397796,5.37109375,812.98828125,601.07421875,-0.48828125,0.0
1734581130.1436856,0.48828125,981.93359375,775.87890625,-1.953125,0.0
1734581130.1475918,-4.39453125,970.21484375,728.515625,-11.71875,0.0
1734581130.151498,-13.18359375,965.33203125,723.14453125,-11.23046875,0.0
1734581130.1554043,-2.9296875,966.796875,733.3984375,6.34765625,0.0
1734581130.1593103,4.8828125,966.796875,691.89453125,17.08984375,0.0
1734581130.1632166,6.8359375,969.23828125,670.8984375,14.6484375,0.0
1734581130.1671228,8.30078125,882.32421875,566.40625,14.16015625,0.0
1734581130.171029,3.90625,922.36328125,661.62109375,6.34765625,0.0
1734581130.1749353,8.7890625,984.86328125,753.90625,7.8125,0.0
1734581130.1788414,10.25390625,962.40234375,697.265625,14.16015625,0.0
1734581130.1827476,-4.39453125,970.21484375,707.51953125,1.46484375,0.0
1734581130.1865366,0.0,969.23828125,0.0,0.0,0.0
1734581130.1904428,0.0,969.23828125,0.0,0.0,0.0
1734581130.194349,0.0,967.7734375,0.0,0.0,0.0
1734581130.198255,0.0,969.23828125,0.0,0.0,0.0
1734581130.2021613,0.0,963.37890625,0.0,0.0,0.0
1734581130.2060676,0.0,976.07421875,0.0,0.0,0.0
1734581130.2099738,0.0,925.78125,0.0,0.0,0.0
1734581130.21388,0.0,887.20703125,0.0,0.0,0.0
1734581130.217786,0.0,966.30859375,0.0,0.0,0.0
1734581130.2216923,0.0,973.14453125,0.0,0.0,0.0
1734581130.2255986,0.0,944.82421875,0.0,0.0,0.0
1734581130.2295048,0.0,959.47265625,0.0,0.0,0.0
1734581130.2331438,-14.16015625,973.6328125,716.796875,-33.69140625,0.0
1734581130.23705,-31.25,967.28515625,689.94140625,-25.390625,0.0
1734581130.2409563,-30.76171875,968.75,671.38671875,-30.2734375,0.0
1734581130.2448623,-38.0859375,966.30859375,686.5234375,-38.0859375,0.0
1734581130.2487686,-35.15625,970.21484375,684.08203125,-36.1328125,0.0
1734581130.2526748,-30.2734375,972.16796875,640.13671875,-29.78515625,0.0
1734581130.256581,-29.296875,868.1640625,503.41796875,-23.4375,0.0
1734581130.260487,-27.83203125,906.25,589.35546875,-33.203125,0.0
1734581130.2643933,-25.390625,987.3046875,720.703125,-41.9921875,0.0
1734581130.2682996,-26.3671875,961.9140625,649.90234375,-41.015625,0.0
1734581130.2722058,-22.4609375,970.21484375,648.92578125,-33.69140625,0.0
1734581130.276112,-23.4375,969.7265625,667.96875,-35.64453125,0.0
1734581130.279678,-34.1796875,969.7265625,648.92578125,-39.55078125,0.0
1734581130.2835844,-30.2734375,968.26171875,636.23046875,-31.25,0.0
1734581130.2874904,-31.73828125,968.26171875,640.625,-32.2265625,0.0
1734581130.2913966,-28.3203125,968.75,655.76171875,-36.1328125,0.0
1734581130.2953029,-28.3203125,970.21484375,624.0234375,-27.34375,0.0
1734581130.299209,-34.66796875,941.40625,532.71484375,-34.1796875,0.0
1734581130.3031151,-31.73828125,945.3125,523.92578125,-41.50390625,0.0
1734581130.3070214,-29.296875,967.28515625,615.72265625,-33.69140625,0.0
1734581130.3109276,-30.2734375,982.421875,659.66796875,-33.203125,0.0
1734581130.3148339,-22.4609375,899.90234375,503.41796875,-30.76171875,0.0
1734581130.3187401,-20.99609375,894.04296875,528.3203125,-20.99609375,0.0
1734581130.3226461,-22.4609375,982.91015625,660.64453125,-17.578125,0.0
1734581130.3266168,-16.11328125,966.30859375,608.3984375,-27.83203125,0.0
1734581130.330523,-22.94921875,961.9140625,598.14453125,-31.25,0.0
1734581130.3344293,-36.62109375,965.8203125,595.703125,-28.3203125,0.0
1734581130.3383355,-32.71484375,969.7265625,581.0546875,-34.1796875,0.0
1734581130.3422415,-23.92578125,964.84375,575.68359375,-33.69140625,0.0
1734581130.3461478,-31.25,948.73046875,524.90234375,-36.1328125,0.0
1734581130.350054,-31.73828125,958.49609375,546.38671875,-42.48046875,0.0
1734581130.3539603,-26.85546875,976.07421875,610.3515625,-35.15625,0.0
1734581130.3578665,-34.66796875,961.9140625,569.82421875,-32.2265625,0.0
1734581130.3617725,-20.99609375,921.875,512.6953125,-30.2734375,0.0
1734581130.3656788,-18.5546875,958.984375,571.77734375,-28.3203125,0.0
1734581130.369585,-28.3203125,976.07421875,606.93359375,-30.2734375,0.0
1734581130.3734808,-23.92578125,962.890625,540.52734375,-22.4609375,0.0
1734581130.377387,-35.15625,962.890625,519.04296875,-26.3671875,0.0
1734581130.3812933,-54.19921875,964.35546875,582.03125,-40.0390625,0.0
1734581130.3851995,-43.9453125,980.95703125,595.703125,-30.76171875,0.0
1734581130.3891056,-28.3203125,924.8046875,469.7265625,-19.04296875,0.0
1734581130.3930118,-36.62109375,898.4375,425.78125,-23.4375,0.0
1734581130.396918,-49.8046875,954.58984375,499.51171875,-37.109375,0.0
1734581130.4008243,-41.015625,996.58203125,537.59765625,-41.50390625,0.0
1734581130.4047306,-25.390625,860.3515625,386.71875,-27.83203125,0.0
1734581130.4086366,-27.34375,778.80859375,366.2109375,-17.578125,0.0
1734581130.4125428,-35.15625,971.19140625,576.66015625,-23.92578125,0.0
1734581130.416449,-39.55078125,976.07421875,559.08203125,-26.85546875,0.0
1734581130.4203653,-18.06640625,958.984375,539.55078125,-25.87890625,0.0
1734581130.4242713,-19.04296875,969.7265625,553.7109375,-16.6015625,0.0
1734581130.4281776,-31.73828125,970.21484375,555.6640625,-21.484375,0.0
1734581130.4320838,-31.73828125,965.8203125,515.625,-38.57421875,0.0
1734581130.43599,-19.53125,961.9140625,506.34765625,-30.76171875,0.0
1734581130.4398963,-17.08984375,960.9375,503.41796875,-27.83203125,0.0
1734581130.4438024,-25.87890625,969.7265625,530.2734375,-38.57421875,0.0
1734581130.4477086,-21.97265625,977.5390625,538.57421875,-34.66796875,0.0
1734581130.4516149,-24.4140625,812.01171875,356.4453125,-28.80859375,0.0
1734581130.455521,-20.99609375,872.55859375,393.06640625,-27.83203125,0.0
1734581130.459427,-26.3671875,996.09375,544.43359375,-24.90234375,0.0
1734581130.4633334,-35.64453125,958.0078125,521.484375,-36.62109375,0.0
1734581130.4676452,-33.69140625,971.19140625,0.0,-32.2265625,0.0
1734581130.4715514,-35.15625,965.8203125,0.0,-30.2734375,0.0
1734581130.4754577,-26.85546875,979.00390625,0.0,-37.59765625,0.0
1734581130.4793637,-26.3671875,933.10546875,0.0,-35.64453125,0.0
1734581130.48327,-25.390625,914.0625,0.0,-34.66796875,0.0
1734581130.4871762,-12.6953125,954.58984375,0.0,-28.80859375,0.0
1734581130.4910824,-15.13671875,995.60546875,0.0,-31.25,0.0
1734581130.4949884,-25.390625,847.16796875,0.0,-34.1796875,0.0
1734581130.4988947,-20.5078125,755.37109375,0.0,-33.69140625,0.0
1734581130.502801,-21.484375,971.19140625,0.0,-44.43359375,0.0
1734581130.5067072,-29.78515625,974.12109375,0.0,-38.0859375,0.0
1734581130.5106134,-24.4140625,956.54296875,0.0,-28.3203125,0.0
1734581130.5153534,-28.80859375,969.23828125,488.76953125,-35.15625,0.0
1734581130.5192595,-23.92578125,967.28515625,494.62890625,-44.43359375,0.0
1734581130.5231657,-17.08984375,965.33203125,490.72265625,-32.2265625,0.0
1734581130.527072,-36.1328125,964.35546875,476.07421875,-38.57421875,0.0
1734581130.5309782,-40.52734375,964.84375,484.375,-53.22265625,0.0
1734581130.5348845,-36.1328125,969.7265625,458.49609375,-52.24609375,0.0
1734581130.5387905,-37.59765625,958.0078125,444.82421875,-49.31640625,0.0
1734581130.5426967,-40.52734375,926.26953125,443.359375,-46.875,0.0
1734581130.546603,-49.8046875,950.1953125,499.0234375,-44.921875,0.0
1734581130.5505092,-42.96875,980.46875,533.69140625,-44.921875,0.0
1734581130.5544155,-23.4375,963.8671875,501.46484375,-36.62109375,0.0
1734581130.5583215,-27.83203125,786.62109375,365.234375,-37.59765625,0.0
1734581130.5619612,-36.62109375,889.6484375,446.2890625,-42.48046875,0.0
1734581130.5658674,-34.1796875,999.51171875,552.734375,-38.57421875,0.0
1734581130.5697737,-40.52734375,946.2890625,447.265625,-47.36328125,0.0
1734581130.5736797,-38.57421875,962.890625,425.78125,-55.17578125,0.0
1734581130.577586,-26.85546875,956.54296875,455.56640625,-34.66796875,0.0
1734581130.5814922,-20.5078125,980.95703125,459.47265625,-28.80859375,0.0
1734581130.5853984,-23.92578125,844.23828125,319.82421875,-29.296875,0.0
1734581130.5893044,-32.2265625,843.26171875,354.4921875,-24.4140625,0.0
1734581130.5932107,-38.0859375,990.72265625,529.78515625,-34.66796875,0.0
1734581130.597117,-28.3203125,969.7265625,508.7890625,-34.66796875,0.0
1734581130.6010232,-21.484375,871.58203125,393.06640625,-23.92578125,0.0
1734581130.6049294,-24.90234375,907.71484375,416.9921875,-30.76171875,0.0
1734581130.6085408,0.0,965.8203125,517.08984375,-37.109375,0.0
1734581130.612447,0.0,-986.81640625,524.4140625,-31.73828125,0.0
1734581130.616353,0.0,710.44921875,325.1953125,-28.3203125,0.0
1734581130.6202593,0.0,642.578125,355.95703125,-28.80859375,0.0
1734581130.6241655,0.0,990.72265625,542.48046875,-28.80859375,0.0
1734581130.6280718,0.0,-995.60546875,453.125,-28.80859375,0.0
1734581130.631978,0.0,639.16015625,293.9453125,-20.99609375,0.0
1734581130.635884,0.0,659.1796875,372.0703125,-19.53125,0.0
1734581130.6397903,0.0,-981.4453125,548.33984375,-29.296875,0.0
1734581130.6436965,0.0,950.1953125,484.375,-32.71484375,0.0
1734581130.6476028,0.0,950.1953125,485.83984375,-17.578125,0.0
1734581130.651509,0.0,963.8671875,524.90234375,-16.6015625,0.0
1734581130.6555202,-18.5546875,966.30859375,540.0390625,-30.2734375,0.0
1734581130.6594265,-23.92578125,960.9375,486.81640625,-25.390625,0.0
1734581130.6633327,-31.73828125,963.37890625,492.67578125,-20.99609375,0.0
1734581130.667239,-37.109375,960.44921875,540.52734375,-29.296875,0.0
1734581130.671145,-26.3671875,971.6796875,502.44140625,-25.390625,0.0
1734581130.6750512,-22.94921875,890.13671875,405.2734375,-14.16015625,0.0
1734581130.6789575,-17.578125,890.625,419.43359375,-10.25390625,0.0
1734581130.6828637,-19.04296875,961.42578125,548.828125,-16.6015625,0.0
1734581130.68677,-17.578125,-986.81640625,583.49609375,-22.4609375,0.0
1734581130.690676,-27.34375,773.4375,387.6953125,-25.390625,0.0
1734581130.6945822,-30.76171875,672.36328125,409.1796875,-21.97265625,0.0
1734581130.6984885,-27.34375,987.3046875,601.5625,-21.484375,0.0
1734581130.7029865,-42.48046875,971.6796875,549.8046875,-46.38671875,0.0
1734581130.7068927,-42.96875,914.0625,535.15625,-57.12890625,0.0
1734581130.710799,-39.0625,946.77734375,557.12890625,-46.38671875,0.0
1734581130.7147052,-31.73828125,978.02734375,574.70703125,-46.38671875,0.0
1734581130.7186115,-30.76171875,958.0078125,538.57421875,-33.69140625,0.0
1734581130.7225175,-27.83203125,890.13671875,464.84375,-17.578125,0.0
1734581130.7264237,-36.1328125,923.33984375,495.1171875,-34.1796875,0.0
1734581130.73033,-36.62109375,981.93359375,582.03125,-38.0859375,0.0
1734581130.7342362,-24.4140625,976.07421875,553.22265625,-30.2734375,0.0
1734581130.7381425,-28.3203125,711.42578125,394.53125,-19.04296875,0.0
1734581130.7420485,-33.203125,804.6875,483.88671875,-27.83203125,0.0
1734581130.7459548,-21.484375,-977.5390625,605.46875,-35.64453125,0.0
1734581130.7508373,-17.578125,923.33984375,543.45703125,-35.15625,0.0
1734581130.7547436,-29.78515625,873.53515625,536.1328125,-31.73828125,0.0
1734581130.7586498,-29.296875,954.1015625,575.68359375,-38.0859375,0.0
1734581130.7625558,-35.15625,981.93359375,584.9609375,-39.0625,0.0
1734581130.766462,-38.0859375,922.36328125,492.67578125,-27.83203125,0.0
1734581130.7703683,-36.1328125,922.8515625,468.26171875,-27.83203125,0.0
1734581130.7742746,-30.2734375,961.9140625,540.52734375,-24.90234375,0.0
1734581130.7781808,-21.484375,984.375,593.26171875,-25.390625,0.0
1734581130.7820868,-23.92578125,847.16796875,431.15234375,-31.73828125,0.0
1734581130.785993,-28.3203125,866.2109375,462.890625,-27.83203125,0.0
1734581130.7898993,-28.3203125,971.6796875,611.328125,-32.71484375,0.0
1734581130.7938056,-24.4140625,-988.76953125,599.12109375,-45.8984375,0.0
1734581130.7975857,-29.78515625,752.44140625,447.265625,-44.921875,0.0
1734581130.801492,-42.96875,650.390625,437.5,-41.015625,0.0
1734581130.805398,-41.015625,987.79296875,623.046875,-46.38671875,0.0
1734581130.8093042,-35.15625,968.75,572.75390625,-42.48046875,0.0
1734581130.8132105,-40.52734375,947.75390625,549.31640625,-37.59765625,0.0
1734581130.8171167,-44.921875,954.58984375,531.73828125,-36.1328125,0.0
1734581130.821023,-32.2265625,968.26171875,561.03515625,-39.0625,0.0
1734581130.824929,-35.64453125,957.03125,560.546875,-37.59765625,0.0
1734581130.8288352,-40.52734375,905.2734375,497.55859375,-35.64453125,0.0
1734581130.8327415,-28.80859375,948.2421875,570.80078125,-40.52734375,0.0
1734581130.8366477,-30.2734375,983.3984375,602.05078125,-35.15625,0.0
1734581130.840554,-25.390625,945.80078125,558.59375,-36.1328125,0.0
1734581130.8443265,-25.390625,894.53125,533.203125,-32.71484375,0.0
1734581130.8482327,-42.48046875,942.3828125,578.125,-30.76171875,0.0
1734581130.852139,-39.55078125,997.55859375,615.234375,-24.90234375,0.0
1734581130.8560452,-43.45703125,913.57421875,528.80859375,-22.94921875,0.0
1734581130.8599515,-45.8984375,761.23046875,455.56640625,-29.296875,0.0
1734581130.8638575,-46.38671875,907.2265625,532.2265625,-40.0390625,0.0
1734581130.8677638,-43.9453125,-984.86328125,547.8515625,-40.0390625,0.0
1734581130.87167,-28.80859375,818.359375,409.66796875,-31.25,0.0
1734581130.8755763,-31.73828125,724.609375,430.17578125,-35.64453125,0.0
1734581130.8794825,-37.109375,970.21484375,616.2109375,-50.29296875,0.0
1734581130.8833885,-45.8984375,978.02734375,596.6796875,-55.6640625,0.0
1734581130.8872948,-57.6171875,929.19921875,541.9921875,-60.05859375,0.0
1734581130.8909895,-50.29296875,956.0546875,563.96484375,-73.73046875,0.0
1734581130.8948958,-58.10546875,970.703125,600.5859375,-70.3125,0.0
1734581130.898802,-56.640625,962.890625,570.3125,-55.17578125,0.0
1734581130.902708,-50.78125,964.35546875,564.453125,-44.921875,0.0
1734581130.9066143,-55.6640625,960.9375,566.89453125,-40.52734375,0.0
1734581130.9105206,-38.0859375,956.54296875,536.62109375,-28.3203125,0.0
1734581130.9144268,-29.78515625,-995.60546875,549.8046875,-24.90234375,0.0
1734581130.918333,-44.43359375,700.1953125,411.62109375,-35.64453125,0.0
1734581130.922239,-45.8984375,714.84375,462.40234375,-32.2265625,0.0
1734581130.9261453,-37.109375,-986.81640625,625.0,-35.15625,0.0
1734581130.9300516,-38.57421875,954.1015625,557.12890625,-34.66796875,0.0
1734581130.9339578,-37.109375,958.984375,543.9453125,-27.34375,0.0
1734581130.9376073,-25.390625,960.44921875,580.078125,-17.08984375,0.0
1734581130.9415133,-21.97265625,982.421875,588.37890625,-24.90234375,0.0
1734581130.9454195,-25.87890625,923.828125,522.4609375,-34.1796875,0.0
1734581130.9493258,-26.3671875,887.6953125,524.90234375,-29.296875,0.0
1734581130.953232,-34.66796875,949.21875,538.57421875,-30.2734375,0.0
1734581130.9571383,-30.76171875,998.53515625,538.0859375,-35.15625,0.0
1734581130.9610443,-25.87890625,841.796875,431.15234375,-36.62109375,0.0
1734581130.9649506,-42.48046875,730.95703125,411.1328125,-35.64453125,0.0
1734581130.9688568,-47.8515625,966.30859375,602.5390625,-34.66796875,0.0
1734581130.972763,-44.43359375,978.02734375,587.40234375,-41.9921875,0.0
1734581130.9766693,-41.015625,952.1484375,541.50390625,-47.8515625,0.0
1734581130.9805753,-38.0859375,966.796875,565.4296875,-51.26953125,0.0
1734581130.9846542,-35.15625,967.7734375,586.42578125,0.0,0.0
1734581130.9885604,-32.71484375,965.8203125,550.29296875,0.0,0.0
1734581130.9924664,-32.71484375,965.8203125,554.6875,0.0,0.0
1734581130.9963727,-31.73828125,963.8671875,586.42578125,0.0,0.0
1734581131.000279,-36.62109375,963.8671875,580.078125,0.0,0.0
1734581131.0041852,-37.59765625,993.65234375,548.33984375,0.0,0.0
1734581131.0080914,-46.875,725.09765625,386.23046875,0.0,0.0
1734581131.0119975,-47.8515625,771.484375,458.49609375,0.0,0.0
1734581131.0159037,-44.921875,-987.3046875,616.69921875,0.0,0.0
1734581131.01981,-46.875,951.171875,545.8984375,0.0,0.0
1734581131.0237162,-30.76171875,958.49609375,528.3203125,0.0,0.0
1734581131.0276225,-35.64453125,964.84375,567.3828125,0.0,0.0
1734581131.031148,0.0,967.28515625,573.2421875,-37.109375,0.0
1734581131.035054,0.0,964.35546875,539.0625,-25.87890625,0.0
1734581131.0389602,0.0,965.33203125,544.43359375,-26.85546875,0.0
1734581131.0428665,0.0,964.84375,574.21875,-33.203125,0.0
1734581131.0467727,0.0,965.33203125,533.203125,-31.25,0.0
1734581131.050679,0.0,923.33984375,444.82421875,-37.59765625,0.0
1734581131.054585,0.0,932.6171875,450.68359375,-41.015625,0.0
1734581131.0584912,0.0,953.125,547.8515625,-33.203125,0.0
1734581131.0623975,0.0,-985.3515625,605.95703125,-40.52734375,0.0
1734581131.0663037,0.0,788.57421875,406.25,-40.52734375,0.0
1734581131.07021,0.0,654.296875,382.8125,-43.9453125,0.0
1734581131.074116,0.0,974.12109375,591.30859375,-50.78125,0.0
1734581131.0781589,-35.64453125,977.5390625,564.94140625,-53.22265625,0.0
1734581131.082065,-44.921875,953.125,555.17578125,-64.453125,0.0
1734581131.0859714,-46.875,967.7734375,560.05859375,-63.96484375,0.0
1734581131.0898776,-53.22265625,969.23828125,573.73046875,-58.10546875,0.0
1734581131.0937836,-47.8515625,963.37890625,555.6640625,-46.875,0.0
1734581131.0976899,-38.57421875,946.77734375,486.328125,-44.921875,0.0
1734581131.101596,-49.31640625,952.1484375,520.5078125,-56.15234375,0.0
1734581131.1055024,-48.828125,972.65625,566.40625,-62.98828125,0.0
1734581131.1094086,-43.45703125,956.54296875,517.578125,-60.05859375,0.0
1734581131.1133146,-48.33984375,851.5625,494.140625,-47.8515625,0.0
1734581131.1172209,-43.9453125,927.24609375,564.453125,-46.875,0.0
1734581131.1211271,-42.96875,984.86328125,574.70703125,-46.875,0.0
1734581131.1250503,-42.96875,954.58984375,534.66796875,-44.43359375,0.0
1734581131.1289566,-40.0390625,967.7734375,553.7109375,-47.36328125,0.0
1734581131.1328626,-38.0859375,965.8203125,556.15234375,-51.7578125,0.0
1734581131.1367688,-42.96875,972.65625,568.359375,-38.57421875,0.0
1734581131.140675,-42.48046875,930.6640625,486.328125,-30.76171875,0.0
1734581131.1445813,-38.0859375,932.12890625,456.0546875,-38.0859375,0.0
1734581131.1484876,-26.85546875,950.68359375,518.06640625,-26.85546875,0.0
1734581131.1523936,-14.6484375,-991.2109375,558.10546875,-23.4375,0.0
1734581131.1562998,-11.71875,792.96875,391.6015625,-34.1796875,0.0
1734581131.160206,-16.11328125,654.78515625,370.60546875,-33.203125,0.0
1734581131.1641123,-31.25,970.21484375,583.0078125,-39.55078125,0.0
1734581131.1680186,-38.57421875,975.5859375,520.5078125,-41.50390625,0.0
1734581131.1721244,-32.2265625,944.82421875,530.76171875,-35.64453125,0.0
1734581131.1760306,-27.83203125,966.796875,572.75390625,-30.2734375,0.0
1734581131.179937,-31.25,968.75,574.21875,-46.38671875,0.0
1734581131.183843,-27.83203125,966.796875,547.8515625,-52.24609375,0.0
1734581131.1877491,-17.08984375,956.0546875,522.4609375,-44.43359375,0.0
1734581131.1916554,-14.6484375,948.2421875,498.046875,-36.62109375,0.0
1734581131.1955616,-13.18359375,964.84375,520.01953125,-33.203125,0.0
1734581131.199468,-20.99609375,988.76953125,540.52734375,-46.875,0.0
1734581131.2033741,-26.85546875,701.171875,367.67578125,-41.50390625,0.0
1734581131.2072802,-21.484375,787.59765625,454.1015625,-39.0625,0.0
1734581131.2111864,-22.94921875,-985.3515625,594.23828125,-37.109375,0.0
1734581131.2150927,-28.3203125,947.75390625,524.90234375,-23.4375,0.0
1734581131.2188754,-11.23046875,970.21484375,539.55078125,-23.4375,0.0
1734581131.2227817,-0.9765625,966.30859375,549.31640625,-32.2265625,0.0
1734581131.2266877,-14.6484375,963.37890625,513.671875,-31.25,0.0
1734581131.230594,-20.01953125,953.61328125,472.65625,-34.66796875,0.0
1734581131.2345002,-23.92578125,954.58984375,459.47265625,-34.66796875,0.0
1734581131.2384064,-29.78515625,950.1953125,500.0,-41.50390625,0.0
1734581131.2423127,-27.83203125,992.1875,516.6015625,-43.45703125,0.0
1734581131.2462187,-35.15625,848.14453125,390.13671875,-35.64453125,0.0
1734581131.250125,-37.109375,743.1640625,398.4375,-37.59765625,0.0
1734581131.2540312,-35.64453125,966.796875,587.40234375,-47.36328125,0.0
1734581131.2579374,-35.64453125,977.5390625,569.82421875,-46.38671875,0.0
1734581131.2618437,-31.25,954.58984375,531.73828125,-30.2734375,0.0
1734581131.2660394,-30.76171875,968.26171875,542.48046875,-27.83203125,0.0
1734581131.2699454,-32.71484375,967.7734375,556.640625,-43.45703125,0.0
1734581131.2738516,-37.109375,965.8203125,536.62109375,-46.38671875,0.0
1734581131.277758,-41.015625,963.8671875,541.50390625,-45.41015625,0.0
1734581131.2816641,-45.8984375,957.51953125,537.59765625,-43.45703125,0.0
1734581131.2855704,-39.0625,961.9140625,506.8359375,-25.87890625,0.0
1734581131.2894766,-22.94921875,990.234375,502.44140625,-28.80859375,0.0
1734581131.2933826,-26.3671875,727.5390625,353.02734375,-27.83203125,0.0
1734581131.297289,-37.59765625,782.71484375,436.03515625,-26.85546875,0.0
1734581131.3011951,-34.1796875,-982.91015625,596.6796875,-41.50390625,0.0
1734581131.3051014,-25.87890625,940.91796875,510.7421875,-41.50390625,0.0
1734581131.3090076,-26.3671875,901.85546875,486.328125,-41.9921875,0.0
1734581131.3126366,-19.04296875,955.078125,551.7578125,-35.64453125,0.0
1734581131.3165429,-12.6953125,975.09765625,563.96484375,-36.1328125,0.0
1734581131.3204489,-26.3671875,956.0546875,495.1171875,-46.875,0.0
1734581131.3243551,-28.80859375,961.9140625,501.953125,-41.015625,0.0
1734581131.3282614,-32.2265625,956.0546875,515.625,-40.52734375,0.0
1734581131.3321676,-30.76171875,980.46875,494.140625,-45.41015625,0.0
1734581131.3360739,-26.85546875,868.65234375,388.18359375,-43.45703125,0.0
1734581131.33998,-31.25,868.65234375,435.05859375,-41.9921875,0.0
1734581131.3438861,-32.71484375,958.49609375,526.85546875,-43.9453125,0.0
1734581131.3477924,-37.109375,-986.328125,549.8046875,-50.29296875,0.0
1734581131.3516986,-37.109375,777.83203125,384.765625,-45.8984375,0.0
1734581131.355605,-39.55078125,639.6484375,345.703125,-39.0625,0.0
1734581131.359696,-48.33984375,975.09765625,579.58984375,-55.17578125,0.0
1734581131.3636022,-37.109375,976.07421875,546.38671875,-54.19921875,0.0
1734581131.3675084,-36.62109375,953.61328125,535.15625,-44.921875,0.0
1734581131.3714144,-40.0390625,965.8203125,545.41015625,-53.7109375,0.0
1734581131.3753207,-44.43359375,963.8671875,550.78125,-65.4296875,0.0
1734581131.379227,-42.48046875,997.0703125,507.32421875,-52.24609375,0.0
1734581131.3831332,-21.484375,701.171875,338.8671875,-27.34375,0.0
1734581131.3870394,-16.11328125,747.0703125,428.7109375,-23.92578125,0.0
1734581131.3909454,-39.0625,-982.91015625,593.75,-39.55078125,0.0
1734581131.3948517,-59.08203125,949.21875,512.6953125,-47.8515625,0.0
1734581131.398758,-60.05859375,956.54296875,511.23046875,-51.26953125,0.0
1734581131.4026642,-53.7109375,961.9140625,520.99609375,-47.36328125,0.0
1734581131.4061854,-60.05859375,963.37890625,506.34765625,-41.9921875,0.0
1734581131.4100916,-51.26953125,961.9140625,502.9296875,-37.59765625,0.0
1734581131.4139977,-29.78515625,966.796875,515.625,-34.1796875,0.0
1734581131.417904,-47.36328125,955.078125,535.64453125,-42.48046875,0.0
1734581131.4218102,-62.5,987.79296875,501.953125,-50.78125,0.0
1734581131.4257164,-46.875,850.09765625,359.375,-35.64453125,0.0
1734581131.4296227,-44.921875,815.4296875,393.5546875,-21.484375,0.0
1734581131.4335287,-44.43359375,983.3984375,562.01171875,-32.71484375,0.0
1734581131.437435,-40.52734375,976.5625,548.828125,-32.71484375,0.0
1734581131.4413412,-52.24609375,875.9765625,396.97265625,-24.4140625,0.0
1734581131.4452474,-48.33984375,897.94921875,418.9453125,-23.4375,0.0
1734581131.4491537,-43.9453125,972.65625,546.38671875,-28.3203125,0.0
1734581131.4541118,-42.96875,-997.0703125,540.0390625,-27.83203125,0.0
1734581131.4580178,-31.73828125,752.44140625,347.16796875,-22.4609375,0.0
1734581131.461924,-28.80859375,732.421875,323.2421875,-30.2734375,0.0
1734581131.4658303,-31.25,-996.58203125,521.97265625,-34.1796875,0.0
1734581131.4697366,-33.203125,953.61328125,486.81640625,-32.2265625,0.0
1734581131.4736428,-37.109375,926.7578125,419.43359375,-23.92578125,0.0
1734581131.477549,-30.76171875,944.82421875,450.68359375,-20.99609375,0.0
1734581131.481455,-27.34375,974.609375,522.4609375,-28.80859375,0.0
1734581131.4853613,-36.62109375,952.1484375,467.28515625,-31.73828125,0.0
1734581131.4892676,-31.25,894.04296875,411.1328125,-21.97265625,0.0
1734581131.4931738,-26.3671875,943.359375,488.28125,-15.625,0.0
1734581131.49708,-28.3203125,984.375,518.06640625,-28.3203125,0.0
1734581131.5009396,-27.83203125,944.82421875,468.26171875,-27.83203125,0.0
1734581131.5048459,-41.015625,868.1640625,439.94140625,-25.87890625,0.0
1734581131.508752,-41.50390625,943.84765625,507.32421875,-31.25,0.0
1734581131.5126584,-35.64453125,981.4453125,526.85546875,-28.80859375,0.0
1734581131.5165646,-34.1796875,932.6171875,437.5,-23.92578125,0.0
1734581131.5204706,-30.76171875,940.4296875,414.0625,-22.4609375,0.0
1734581131.5243769,-36.1328125,960.9375,441.40625,-21.97265625,0.0
1734581131.528283,-42.48046875,977.5390625,458.0078125,-31.25,0.0
1734581131.5321894,-42.96875,845.703125,329.58984375,-30.76171875,0.0
1734581131.5360956,-47.8515625,859.375,368.1640625,-20.01953125,0.0
1734581131.5400019,-41.9921875,990.72265625,534.1796875,-28.3203125,0.0
1734581131.5439079,-40.0390625,966.30859375,488.76953125,-35.15625,0.0
1734581131.547715,-42.48046875,868.1640625,407.2265625,-37.59765625,0.0
1734581131.5516212,-27.34375,908.69140625,423.33984375,-30.76171875,0.0
1734581131.5555274,-28.3203125,960.9375,494.62890625,-29.296875,0.0
1734581131.5594335,-33.203125,-971.19140625,495.60546875,-27.83203125,0.0
1734581131.5633397,-31.25,628.41796875,291.015625,-16.6015625,0.0
1734581131.567246,-35.15625,529.296875,259.27734375,-16.6015625,0.0
1734581131.5711522,-42.96875,997.0703125,464.84375,-38.57421875,0.0
1734581131.5750585,-43.45703125,-988.28125,471.6796875,-47.36328125,0.0
1734581131.5789645,-37.59765625,593.75,261.71875,-35.15625,0.0
1734581131.5828707,-48.828125,623.046875,316.89453125,-27.34375,0.0
1734581131.586777,-50.78125,-970.21484375,511.23046875,-35.15625,0.0
1734581131.5906832,-41.9921875,931.15234375,407.71484375,-38.57421875,0.0
1734581131.5949304,-35.64453125,872.55859375,386.71875,-41.9921875,0.0
1734581131.5988367,-28.3203125,950.68359375,470.703125,-45.8984375,0.0
1734581131.602743,-36.62109375,978.515625,483.88671875,-39.55078125,0.0
1734581131.606649,-37.59765625,935.546875,404.78515625,-43.45703125,0.0
1734581131.6105552,-27.83203125,939.453125,375.0,-34.1796875,0.0
1734581131.6144614,-24.4140625,938.4765625,408.203125,-25.87890625,0.0
1734581131.6183677,-25.87890625,-996.58203125,428.22265625,-38.57421875,0.0
1734581131.622274,-34.1796875,806.640625,291.9921875,-44.921875,0.0
1734581131.6261802,-28.3203125,651.3671875,280.2734375,-36.1328125,0.0
1734581131.6300862,-23.92578125,964.35546875,490.72265625,-23.92578125,0.0
1734581131.6339924,-27.83203125,980.46875,474.12109375,-40.0390625,0.0
1734581131.6378987,-20.99609375,931.640625,425.78125,-38.57421875,0.0
1734581131.6420655,-27.34375,957.03125,423.33984375,-27.83203125,0.0
1734581131.6459718,-31.73828125,969.23828125,454.58984375,-33.203125,0.0
1734581131.649878,-31.25,962.40234375,433.59375,-28.80859375,0.0
1734581131.653784,-36.1328125,916.50390625,420.8984375,-35.64453125,0.0
1734581131.6576903,-38.0859375,940.4296875,446.77734375,-39.0625,0.0
1734581131.6615965,-35.64453125,971.19140625,400.390625,-39.0625,0.0
1734581131.6655028,-29.78515625,948.2421875,367.1875,-40.0390625,0.0
1734581131.669409,-39.55078125,920.8984375,389.6484375,-37.109375,0.0
1734581131.6733153,-39.0625,941.89453125,435.05859375,-35.15625,0.0
1734581131.6772213,-26.85546875,974.12109375,449.21875,-30.2734375,0.0
1734581131.6811275,-37.109375,972.65625,407.2265625,-32.2265625,0.0
1734581131.6850338,-40.52734375,663.57421875,276.85546875,-38.57421875,0.0
1734581131.6886117,-38.0859375,781.25,359.375,-44.43359375,0.0
1734581131.6925178,-34.1796875,-963.37890625,472.65625,-36.62109375,0.0
1734581131.696424,-35.15625,886.71875,356.93359375,-35.64453125,0.0
1734581131.7003303,-37.109375,826.66015625,319.82421875,-41.015625,0.0
1734581131.7042365,-31.25,942.3828125,385.7421875,-38.0859375,0.0
1734581131.7081428,-35.15625,988.76953125,395.01953125,-33.203125,0.0
1734581131.712049,-41.50390625,817.3828125,252.44140625,-28.3203125,0.0
1734581131.715955,-47.8515625,810.05859375,279.78515625,-31.73828125,0.0
1734581131.7198613,-40.52734375,962.890625,447.75390625,-30.2734375,0.0
1734581131.7237675,-30.2734375,-972.65625,471.19140625,-32.71484375,0.0
1734581131.7276738,-36.1328125,711.9140625,231.93359375,-35.15625,0.0
1734581131.73158,-38.57421875,542.48046875,176.7578125,-36.62109375,0.0
1734581131.7356343,-29.296875,976.5625,455.078125,-34.66796875,0.0
1734581131.7395403,-21.97265625,976.07421875,412.59765625,-29.78515625,0.0
1734581131.7434466,-24.4140625,943.359375,382.32421875,-21.484375,0.0
1734581131.7473528,-27.83203125,960.9375,399.90234375,-22.94921875,0.0
1734581131.751259,-21.97265625,938.96484375,379.39453125,-25.390625,0.0
1734581131.7551653,-19.04296875,-984.86328125,337.40234375,-29.296875,0.0
1734581131.7590716,-17.578125,505.37109375,151.85546875,-21.484375,0.0
1734581131.7629776,-19.04296875,463.8671875,221.19140625,-2.44140625,0.0
1734581131.7668839,-23.4375,-966.796875,446.2890625,-18.5546875,0.0
1734581131.77079,-29.78515625,937.01171875,359.375,-39.0625,0.0
1734581131.7746964,-37.109375,858.3984375,269.04296875,-34.1796875,0.0
1734581131.7786026,-40.0390625,933.10546875,341.796875,-33.69140625,0.0
1734581131.782119,-31.25,999.0234375,417.96875,-29.296875,0.0
1734581131.7860253,-33.203125,892.578125,314.453125,-29.296875,0.0
1734581131.7899315,-33.203125,798.828125,299.8046875,-33.203125,0.0
1734581131.7938375,-35.64453125,931.640625,375.9765625,-27.34375,0.0
1734581131.7977438,-26.85546875,-999.0234375,327.63671875,-27.34375,0.0
1734581131.80165,-22.4609375,756.8359375,156.25,-28.3203125,0.0
1734581131.8055563,-39.55078125,641.11328125,152.34375,-29.78515625,0.0
1734581131.8094625,-36.1328125,925.78125,340.8203125,-28.3203125,0.0
1734581131.8133686,-28.80859375,-940.91796875,430.17578125,-28.3203125,0.0
1734581131.8172748,-26.85546875,633.30078125,139.16015625,-22.4609375,0.0
1734581131.821181,-23.4375,396.484375,35.64453125,-15.13671875,0.0
1734581131.8250873,-18.06640625,963.37890625,391.11328125,-17.578125,0.0
1734581131.829088,0.0,983.3984375,363.76953125,0.0,0.0
1734581131.8329942,0.0,916.015625,331.0546875,0.0,0.0
1734581131.8369005,0.0,950.68359375,346.6796875,0.0,0.0
1734581131.8408067,0.0,966.30859375,367.1875,0.0,0.0
1734581131.8447127,0.0,956.54296875,322.265625,0.0,0.0
1734581131.848619,0.0,819.3359375,236.328125,0.0,0.0
1734581131.8525252,0.0,839.35546875,269.53125,0.0,0.0
1734581131.8564315,0.0,981.93359375,354.98046875,0.0,0.0
1734581131.8603377,0.0,962.890625,317.87109375,0.0,0.0
1734581131.8642437,0.0,650.87890625,133.30078125,0.0,0.0
1734581131.86815,0.0,774.90234375,239.2578125,0.0,0.0
1734581131.8720562,0.0,-973.14453125,371.09375,0.0,0.0
1734581131.8745759,-23.4375,886.71875,0.0,-20.01953125,0.0
1734581131.8784819,-27.34375,854.00390625,0.0,-21.484375,0.0
1734581131.882388,-26.85546875,927.24609375,0.0,-20.99609375,0.0
1734581131.8862944,-29.78515625,-974.609375,0.0,-27.34375,0.0
1734581131.8902006,-28.3203125,732.91015625,0.0,-27.83203125,0.0
1734581131.8941069,-29.78515625,443.84765625,0.0,-35.15625,0.0
1734581131.8980129,-32.71484375,777.34375,0.0,-41.015625,0.0
1734581131.9019191,-7.8125,-960.44921875,0.0,-34.66796875,0.0
1734581131.9058254,8.30078125,666.50390625,0.0,-29.78515625,0.0
1734581131.9097316,-3.90625,338.8671875,0.0,-20.01953125,0.0
1734581131.9136379,-14.16015625,911.62109375,0.0,-16.6015625,0.0
1734581131.917544,-27.83203125,998.53515625,0.0,-28.3203125,0.0
1734581131.9214296,-45.41015625,864.74609375,275.87890625,-37.59765625,0.0
1734581131.925336,-41.015625,925.29296875,270.01953125,-24.90234375,0.0
1734581131.9292421,-30.2734375,968.75,277.34375,-21.484375,0.0
1734581131.9331484,-36.62109375,915.52734375,245.60546875,-28.3203125,0.0
1734581131.9370544,-47.36328125,852.5390625,212.890625,-34.66796875,0.0
1734581131.9409606,-43.9453125,766.11328125,187.98828125,-37.59765625,0.0
1734581131.944867,-39.0625,839.84375,215.33203125,-20.5078125,0.0
1734581131.9487731,-37.109375,999.0234375,261.23046875,-20.99609375,0.0
1734581131.9526794,-37.109375,301.26953125,-60.05859375,-25.87890625,0.0
1734581131.9565854,-46.38671875,375.0,47.8515625,-16.6015625,0.0
1734581131.9604917,-42.96875,-947.75390625,309.5703125,-30.2734375,0.0
1734581131.964398,-33.203125,905.76171875,215.8203125,-45.8984375,0.0
1734581131.9681957,-45.41015625,873.046875,242.1875,-40.52734375,0.0
1734581131.972102,-52.24609375,935.546875,268.5546875,-24.4140625,0.0
1734581131.9760082,-43.9453125,993.1640625,283.69140625,-17.08984375,0.0
1734581131.9799144,-39.0625,835.9375,174.31640625,-28.3203125,0.0
1734581131.9838204,-30.2734375,586.42578125,98.6328125,-32.2265625,0.0
1734581131.9877267,-15.625,629.39453125,137.20703125,-20.01953125,0.0
1734581131.991633,-8.30078125,747.55859375,203.61328125,-14.16015625,0.0
1734581131.9955392,-13.18359375,396.484375,-16.11328125,-21.97265625,0.0
1734581131.9994454,-23.4375,118.1640625,-103.02734375,-24.4140625,0.0
1734581132.0033514,-27.83203125,813.96484375,249.51171875,-30.76171875,0.0
1734581132.0072577,-30.76171875,-982.421875,240.234375,-27.34375,0.0
1734581132.011164,-28.80859375,760.7421875,192.3828125,-8.30078125,0.0
1734581132.014886,-32.71484375,844.23828125,206.0546875,-6.8359375,0.0
1734581132.0187922,-23.4375,982.91015625,223.6328125,-11.71875,0.0
1734581132.0226984,-9.765625,935.546875,205.078125,-12.6953125,0.0
1734581132.0266044,-21.97265625,822.75390625,181.640625,-8.7890625,0.0
1734581132.0305107,-23.4375,888.671875,201.66015625,-9.27734375,0.0
1734581132.034417,-12.6953125,810.546875,151.85546875,-6.34765625,0.0
1734581132.0383232,-11.71875,734.375,164.0625,-8.30078125,0.0
1734581132.0422292,-13.671875,176.26953125,-90.8203125,-19.53125,0.0
1734581132.0461354,-3.90625,235.83984375,-36.1328125,-11.23046875,0.0
1734581132.0500417,-12.20703125,-969.23828125,245.1171875,-16.6015625,0.0
1734581132.053948,-28.3203125,762.6953125,116.69921875,-19.53125,0.0
1734581132.0578542,-16.11328125,695.80078125,143.06640625,-22.94921875,0.0
1734581132.06208,0.0,936.03515625,0.0,-31.73828125,0.0
1734581132.0659862,0.0,994.62890625,0.0,-20.99609375,0.0
1734581132.0698924,0.0,749.51171875,0.0,-24.4140625,0.0
1734581132.0737984,0.0,687.98828125,0.0,-28.80859375,0.0
1734581132.0777047,0.0,759.27734375,0.0,-23.92578125,0.0
1734581132.081611,0.0,602.5390625,0.0,-26.3671875,0.0
1734581132.0855172,0.0,276.85546875,0.0,-18.5546875,0.0
1734581132.0894232,0.0,-108.88671875,0.0,-16.6015625,0.0
1734581132.0933294,0.0,621.58203125,0.0,-27.34375,0.0
1734581132.0972357,0.0,-961.42578125,0.0,-33.203125,0.0
1734581132.101142,0.0,702.1484375,0.0,-30.2734375,0.0
1734581132.1050482,0.0,752.44140625,0.0,-29.296875,0.0
1734581132.109145,-22.94921875,970.703125,181.640625,-37.59765625,0.0
1734581132.113051,-16.11328125,696.77734375,87.40234375,-29.78515625,0.0
1734581132.1169572,-2.44140625,495.1171875,32.71484375,-22.4609375,0.0
1734581132.1208634,-10.25390625,778.80859375,125.9765625,-30.76171875,0.0
1734581132.1247697,-26.85546875,931.640625,136.23046875,-35.15625,0.0
1734581132.128676,-40.0390625,544.921875,10.25390625,-44.921875,0.0
1734581132.132582,-37.59765625,266.6015625,-86.42578125,-40.52734375,0.0
1734581132.1364882,-24.4140625,607.421875,31.25,-25.87890625,0.0
1734581132.1403944,-23.4375,923.33984375,159.66796875,-33.203125,0.0
1734581132.1443007,-23.4375,862.79296875,81.54296875,-29.78515625,0.0
1734581132.148207,-24.90234375,-10.25390625,-170.41015625,-18.5546875,0.0
1734581132.152113,-21.97265625,57.12890625,-29.78515625,-33.203125,0.0
1734581132.1561606,-12.6953125,933.10546875,186.5234375,-29.296875,0.0
1734581132.1600668,-16.6015625,673.828125,10.25390625,-20.5078125,0.0
1734581132.163973,-29.78515625,491.2109375,-32.71484375,-27.83203125,0.0
1734581132.167879,-25.87890625,812.5,118.1640625,-26.3671875,0.0
1734581132.1717854,-27.34375,625.48828125,66.89453125,-16.11328125,0.0
1734581132.1756916,-20.5078125,150.87890625,-184.08203125,-26.3671875,0.0
1734581132.1795979,-20.01953125,35.64453125,-289.0625,-22.94921875,0.0
1734581132.183504,-23.4375,259.765625,-167.96875,-15.625,0.0
1734581132.18741,-15.625,698.73046875,76.66015625,-24.4140625,0.0
1734581132.1913164,-24.90234375,254.8828125,-149.4140625,-29.296875,0.0
1734581132.1952226,-25.390625,-353.02734375,-365.234375,-29.296875,0.0
1734581132.1991289,-27.34375,359.86328125,26.85546875,-28.80859375,0.0
1734581132.203095,-30.76171875,769.04296875,98.14453125,-20.99609375,0.0
1734581132.2070012,-18.06640625,435.546875,-83.0078125,-24.4140625,0.0
1734581132.2109075,-25.87890625,448.73046875,-55.6640625,-28.80859375,0.0
1734581132.2148135,-32.71484375,762.20703125,81.0546875,-21.97265625,0.0
1734581132.2187197,-29.296875,735.3515625,33.203125,-28.3203125,0.0
1734581132.222626,-36.1328125,130.859375,-224.609375,-35.64453125,0.0
1734581132.2265322,-33.203125,59.5703125,-168.9453125,-34.66796875,0.0
1734581132.2304385,-26.3671875,414.55078125,5.37109375,-34.1796875,0.0
1734581132.2343445,-21.97265625,395.99609375,-102.05078125,-37.109375,0.0
1734581132.2382507,-18.06640625,-281.73828125,-341.30859375,-33.69140625,0.0
1734581132.242157,-13.671875,-264.16015625,-230.95703125,-32.2265625,0.0
1734581132.2460632,-12.20703125,709.9609375,122.0703125,-31.73828125,0.0
1734581132.2500877,-18.5546875,500.9765625,-34.66796875,-22.94921875,0.0
1734581132.2539937,-5.37109375,178.7109375,-157.71484375,-24.4140625,0.0
1734581132.2579,-12.6953125,525.87890625,12.6953125,-26.85546875,0.0
1734581132.2618062,-24.4140625,780.2734375,98.6328125,-29.296875,0.0
1734581132.2657125,-14.16015625,243.65234375,-222.65625,-31.25,0.0
1734581132.2696187,-15.625,-303.22265625,-467.28515625,-24.4140625,0.0
1734581132.2735248,-7.32421875,0.0,-258.30078125,-14.6484375,0.0
1734581132.277431,-14.16015625,569.3359375,3.90625,-16.6015625,0.0
1734581132.2813373,-31.25,267.578125,-188.96484375,-19.04296875,0.0
1734581132.2852435,-28.80859375,-508.7890625,-456.0546875,-18.06640625,0.0
1734581132.2891498,-27.34375,-26.85546875,-194.3359375,-25.87890625,0.0
1734581132.2930558,-32.71484375,429.19921875,-91.796875,-28.3203125,0.0
1734581132.297366,-25.390625,363.76953125,-106.4453125,-32.71484375,0.0
1734581132.3012722,-18.06640625,438.96484375,-100.09765625,-30.76171875,0.0
1734581132.3051784,-26.3671875,661.1328125,53.22265625,-34.1796875,0.0
1734581132.3090844,-23.92578125,577.63671875,15.13671875,-20.01953125,0.0
1734581132.3129907,-26.85546875,319.82421875,-187.98828125,-14.16015625,0.0
1734581132.316897,-25.87890625,63.4765625,-320.80078125,-20.01953125,0.0
1734581132.3208032,-20.5078125,247.0703125,-127.44140625,-20.5078125,0.0
1734581132.3247094,-20.99609375,612.3046875,31.25,-26.85546875,0.0
1734581132.3286157,-12.20703125,-346.19140625,-401.3671875,-6.34765625,0.0
1734581132.3325217,-9.27734375,-662.109375,-459.47265625,1.953125,0.0
1734581132.336428,-14.16015625,476.5625,30.2734375,-21.97265625,0.0
1734581132.3403342,-17.578125,452.1484375,-49.31640625,-16.6015625,0.0
1734581132.3440316,-18.5546875,157.71484375,-204.1015625,-12.6953125,0.0
1734581132.3479378,-13.671875,220.703125,-191.89453125,-25.390625,0.0
1734581132.3518438,-16.11328125,321.77734375,-179.6875,-27.34375,0.0
1734581132.35575,-25.87890625,238.28125,-286.62109375,-23.92578125,0.0
1734581132.3596563,-7.32421875,-188.96484375,-442.87109375,-15.13671875,0.0
1734581132.3635626,-9.765625,-94.23828125,-309.08203125,-15.625,0.0
1734581132.3674688,-31.25,43.9453125,-294.43359375,-22.94921875,0.0
1734581132.3713748,-34.1796875,-200.68359375,-381.8359375,-19.53125,0.0
1734581132.375281,-27.83203125,-144.53125,-377.44140625,-23.4375,0.0
1734581132.3791873,-20.99609375,419.43359375,-194.82421875,-20.01953125,0.0
1734581132.3830936,-18.06640625,643.06640625,-73.73046875,-17.08984375,0.0
1734581132.3869998,-19.04296875,-138.671875,-364.74609375,-11.23046875,0.0
1734581132.3906677,-17.08984375,-589.84375,-483.3984375,-12.20703125,0.0
1734581132.394574,-13.671875,344.7265625,-125.9765625,-30.76171875,0.0
1734581132.3984802,-14.16015625,522.4609375,-131.34765625,-13.18359375,0.0
1734581132.4023864,-24.4140625,207.51953125,-230.95703125,-3.41796875,0.0
1734581132.4062924,-25.87890625,185.546875,-260.7421875,-11.23046875,0.0
1734581132.4101987,-20.99609375,72.265625,-305.6640625,-12.20703125,0.0
1734581132.414105,-18.5546875,-24.4140625,-309.5703125,-20.5078125,0.0
1734581132.4180112,-17.578125,-539.55078125,-453.125,-15.13671875,0.0
1734581132.4219174,-38.57421875,-449.70703125,-397.4609375,-22.94921875,0.0
1734581132.4258235,-36.1328125,409.1796875,-162.59765625,-29.78515625,0.0
1734581132.4297297,-31.25,316.40625,-237.79296875,-23.92578125,0.0
1734581132.433636,-31.73828125,93.26171875,-296.38671875,-25.87890625,0.0
1734581132.4377465,-27.83203125,316.89453125,-247.55859375,-27.83203125,0.0
1734581132.4416528,-26.3671875,480.95703125,-231.93359375,-34.1796875,0.0
1734581132.445559,-17.08984375,149.90234375,-324.21875,-30.2734375,0.0
1734581132.4494653,-31.25,-32.2265625,-389.16015625,-27.83203125,0.0
1734581132.4533715,-27.34375,36.1328125,-313.96484375,-17.08984375,0.0
1734581132.4572778,-24.90234375,-111.328125,-306.640625,-20.99609375,0.0
1734581132.4611838,-26.85546875,-419.43359375,-463.8671875,-30.76171875,0.0
1734581132.46509,-32.71484375,-727.05078125,-564.94140625,-35.15625,0.0
1734581132.4689963,-42.96875,-236.81640625,-314.94140625,-37.59765625,0.0
1734581132.4729025,-42.96875,322.265625,-256.34765625,-26.3671875,0.0
1734581132.4768088,-34.66796875,-65.91796875,-334.9609375,-28.3203125,0.0
1734581132.4807148,-16.6015625,-203.61328125,-300.29296875,-31.73828125,0.0
1734581132.4848802,0.0,305.6640625,-239.74609375,0.0,0.0
1734581132.4887865,0.0,356.93359375,-275.87890625,0.0,0.0
1734581132.4926927,0.0,-117.1875,-376.46484375,0.0,0.0
1734581132.496599,0.0,-105.95703125,-290.52734375,0.0,0.0
1734581132.5005052,0.0,360.3515625,-263.18359375,0.0,0.0
1734581132.5044115,0.0,-4.39453125,-382.8125,0.0,0.0
1734581132.5083175,0.0,-322.75390625,-366.2109375,0.0,0.0
1734581132.5122237,0.0,21.484375,-293.9453125,0.0,0.0
1734581132.51613,0.0,311.5234375,-270.01953125,0.0,0.0
1734581132.5200362,0.0,222.65625,-301.26953125,0.0,0.0
1734581132.5239425,0.0,-506.34765625,-458.984375,0.0,0.0
1734581132.5278485,0.0,-661.1328125,-409.66796875,0.0,0.0
1734581132.5323224,-23.4375,94.23828125,-258.7890625,-35.64453125,0.0
1734581132.5362284,-22.4609375,75.1953125,-337.890625,-32.2265625,0.0
1734581132.5401347,-23.4375,-139.16015625,-402.34375,-26.85546875,0.0
1734581132.544041,-36.62109375,99.609375,-330.56640625,-36.62109375,0.0
1734581132.5479472,-25.390625,-24.4140625,-322.265625,-36.1328125,0.0
1734581132.5518534,-20.01953125,-508.30078125,-499.0234375,-30.76171875,0.0
1734581132.5557597,-39.0625,-657.71484375,-552.734375,-29.296875,0.0
1734581132.5596657,-27.83203125,-105.46875,-329.58984375,-18.5546875,0.0
1734581132.563572,-16.6015625,279.78515625,-259.27734375,-22.94921875,0.0
1734581132.5674782,-24.90234375,-296.875,-462.40234375,-28.80859375,0.0
1734581132.5713844,-27.34375,-734.86328125,-559.08203125,-24.90234375,0.0
1734581132.5752907,-26.85546875,-28.80859375,-296.38671875,-24.4140625,0.0
1734581132.579702,-34.66796875,187.98828125,-325.68359375,-30.2734375,0.0
1734581132.5836082,-37.109375,-173.33984375,-407.71484375,-37.109375,0.0
1734581132.5875144,-31.25,-366.69921875,-368.1640625,-36.62109375,0.0
1734581132.5914204,-28.3203125,-33.69140625,-304.6875,-24.90234375,0.0
1734581132.5953267,-30.76171875,132.32421875,-354.4921875,-25.87890625,0.0
1734581132.599233,-23.92578125,-470.703125,-487.79296875,-28.3203125,0.0
1734581132.6031392,-16.11328125,-599.609375,-398.4375,-24.4140625,0.0
1734581132.6070454,-29.296875,14.6484375,-307.12890625,-37.59765625,0.0
1734581132.6109517,-35.64453125,-31.25,-397.4609375,-32.71484375,0.0
1734581132.6148577,-16.6015625,-418.45703125,-426.26953125,-27.34375,0.0
1734581132.618764,-14.16015625,-258.30078125,-393.06640625,-31.73828125,0.0
1734581132.6226702,-33.69140625,-130.859375,-378.90625,-31.25,0.0
1734581132.62653,-28.80859375,-250.9765625,-425.29296875,-13.671875,0.0
1734581132.6304362,-15.625,-704.58984375,-547.8515625,2.9296875,0.0
1734581132.6343424,-15.13671875,-469.23828125,-392.578125,-15.625,0.0
1734581132.6382487,-20.99609375,78.61328125,-310.05859375,-37.59765625,0.0
1734581132.6421547,-26.3671875,-344.23828125,-474.609375,-39.55078125,0.0
1734581132.646061,-20.5078125,-737.3046875,-549.8046875,-39.0625,0.0
1734581132.6499672,-4.8828125,-556.640625,-450.68359375,-39.0625,0.0
1734581132.6538734,-1.953125,-490.234375,-429.6875,-46.38671875,0.0
1734581132.6577797,-22.4609375,-682.6171875,-477.5390625,-48.33984375,0.0
1734581132.661686,-36.62109375,-591.30859375,-458.0078125,-52.24609375,0.0
1734581132.665592,-41.50390625,-101.07421875,-361.81640625,-61.03515625,0.0
1734581132.6694982,-36.62109375,99.609375,-329.58984375,-62.5,0.0
1734581132.6732635,-22.4609375,-500.48828125,-550.29296875,-51.7578125,0.0
1734581132.6771698,-22.94921875,-775.390625,-609.375,-45.41015625,0.0
1734581132.681076,-39.55078125,-135.25390625,-329.58984375,-57.12890625,0.0
1734581132.6849823,-34.1796875,-78.61328125,-387.20703125,-61.03515625,0.0
1734581132.6888885,-18.06640625,-342.7734375,-469.7265625,-36.62109375,0.0
1734581132.6927946,-18.06640625,-623.53515625,-479.4921875,-33.203125,0.0
1734581132.6967008,-21.97265625,-453.125,-420.8984375,-48.828125,0.0
1734581132.700607,-23.4375,-213.37890625,-403.80859375,-33.203125,0.0
1734581132.7045133,-17.578125,-761.23046875,-585.9375,-21.484375,0.0
1734581132.7084196,-19.53125,-740.234375,-525.390625,-34.1796875,0.0
1734581132.7123258,-25.390625,-77.1484375,-347.16796875,-34.66796875,0.0
1734581132.7162318,-20.5078125,-208.49609375,-444.3359375,-16.6015625,0.0
1734581132.7199283,-20.5078125,-587.890625,-484.86328125,-26.85546875,0.0
1734581132.7238345,-18.5546875,-357.421875,-394.04296875,-40.0390625,0.0
1734581132.7277408,-14.6484375,-68.84765625,-356.93359375,-37.59765625,0.0
1734581132.731647,-23.92578125,-392.08984375,-520.99609375,-39.0625,0.0
1734581132.7355533,-27.34375,-870.1171875,-656.73828125,-32.2265625,0.0
1734581132.7394595,-18.06640625,-835.9375,-510.25390625,-27.34375,0.0
1734581132.7433655,-18.5546875,-715.33203125,-435.546875,-37.109375,0.0
1734581132.7472718,-18.06640625,-806.640625,-558.59375,-29.78515625,0.0
1734581132.751178,-15.625,-848.14453125,-626.953125,-26.85546875,0.0
1734581132.7550843,-14.6484375,-358.88671875,-398.4375,-40.0390625,0.0
1734581132.7589905,-9.765625,-118.1640625,-401.3671875,-40.0390625,0.0
1734581132.7628968,-23.4375,-570.80078125,-493.1640625,-41.9921875,0.0
1734581132.7670472,-27.83203125,-673.33984375,-479.4921875,-39.0625,0.0
1734581132.7709534,-18.5546875,-198.73046875,-395.5078125,-25.87890625,0.0
1734581132.7748597,-18.06640625,-192.3828125,-436.5234375,-28.3203125,0.0
1734581132.7787657,-18.06640625,-490.72265625,-466.30859375,-35.15625,0.0
1734581132.782672,-17.578125,-425.29296875,-409.66796875,-29.78515625,0.0
1734581132.7865782,-16.11328125,-470.21484375,-475.09765625,-28.80859375,0.0
1734581132.7904844,-17.578125,-662.59765625,-483.3984375,-37.59765625,0.0
1734581132.7943907,-26.85546875,-842.7734375,-596.6796875,-32.71484375,0.0
1734581132.798297,-30.2734375,-718.75,-540.0390625,-38.57421875,0.0
1734581132.802203,-21.97265625,-206.54296875,-353.02734375,-39.0625,0.0
1734581132.8061092,-21.484375,-313.96484375,-456.54296875,-26.85546875,0.0
1734581132.8100154,-21.484375,-543.45703125,-483.3984375,-24.90234375,0.0
1734581132.813598,-22.4609375,-342.7734375,-426.26953125,-31.25,0.0
1734581132.8175042,-31.25,-156.25,-387.6953125,-28.3203125,0.0
1734581132.8214102,-29.296875,-467.7734375,-489.2578125,-19.53125,0.0
1734581132.8253164,-16.11328125,-716.30859375,-558.10546875,-20.99609375,0.0
1734581132.8292227,-9.765625,-598.14453125,-487.3046875,-20.5078125,0.0
1734581132.833129,-16.11328125,-694.3359375,-469.7265625,-24.4140625,0.0
1734581132.8370352,-22.94921875,-870.1171875,-594.7265625,-32.2265625,0.0
1734581132.8409414,-22.94921875,-795.41015625,-623.53515625,-32.2265625,0.0
1734581132.8448474,-27.34375,-350.09765625,-433.59375,-27.34375,0.0
1734581132.8487537,-35.64453125,-157.71484375,-400.390625,-29.78515625,0.0
1734581132.85266,-32.2265625,-610.83984375,-597.65625,-22.4609375,0.0
1734581132.8565662,-19.04296875,-860.83984375,-659.1796875,-30.76171875,0.0
1734581132.8601077,-17.578125,-372.0703125,-401.3671875,-42.48046875,0.0
1734581132.864014,-24.4140625,-238.28125,-438.96484375,-27.34375,0.0
1734581132.8679202,-28.80859375,-559.5703125,-514.6484375,-24.90234375,0.0
1734581132.8718264,-32.2265625,-500.9765625,-438.96484375,-46.38671875,0.0
1734581132.8757324,-35.15625,-323.2421875,-478.515625,-47.8515625,0.0
1734581132.8796387,-40.52734375,-715.8203125,-547.8515625,-42.96875,0.0
1734581132.883545,-43.9453125,-1000.0,-660.15625,-45.8984375,0.0
1734581132.8874512,-38.57421875,-803.22265625,-621.09375,-44.43359375,0.0
1734581132.8913574,-33.203125,-313.4765625,-401.3671875,-51.26953125,0.0
1734581132.8952634,-32.2265625,-378.41796875,-471.6796875,-48.828125,0.0
1734581132.8991697,-35.15625,-634.27734375,-500.9765625,-36.1328125,0.0
1734581132.903076,-29.296875,-457.03125,-454.58984375,-34.66796875,0.0
1734581132.906549,-20.5078125,-279.78515625,-447.265625,-34.66796875,0.0
1734581132.9104552,-31.25,-529.296875,-527.83203125,-26.3671875,0.0
1734581132.9143615,-40.0390625,-748.53515625,-558.59375,-27.34375,0.0
1734581132.9182675,-36.1328125,-543.9453125,-497.0703125,-22.4609375,0.0
1734581132.9221737,-27.34375,-726.5625,-512.20703125,-30.76171875,0.0
1734581132.92608,-26.85546875,-977.05078125,-644.04296875,-31.73828125,0.0
1734581132.9299862,-29.78515625,-921.875,-680.6640625,-19.04296875,0.0
1734581132.9338925,-32.71484375,-542.96875,-438.4765625,-29.78515625,0.0
1734581132.9377985,-38.0859375,-374.51171875,-424.31640625,-28.80859375,0.0
1734581132.9417048,-40.0390625,-808.59375,-645.99609375,-22.94921875,0.0
1734581132.945611,-34.1796875,-865.234375,-687.5,-22.94921875,0.0
1734581132.9495173,-25.390625,-422.8515625,-429.6875,-30.76171875,0.0
1734581132.9534383,-33.69140625,-322.265625,-440.91796875,-32.2265625,0.0
1734581132.9573445,-41.015625,-661.62109375,-514.6484375,-36.1328125,0.0
1734581132.9612505,-31.73828125,-686.03515625,-479.00390625,-43.45703125,0.0
1734581132.9651568,-32.2265625,-413.57421875,-452.63671875,-41.50390625,0.0
1734581132.969063,-32.2265625,-486.81640625,-495.60546875,-26.85546875,0.0
1734581132.9729693,-32.2265625,-826.66015625,-587.40234375,-31.25,0.0
1734581132.9768755,-41.9921875,-882.32421875,-524.90234375,-39.0625,0.0
1734581132.9807816,-42.96875,-528.80859375,-439.94140625,-36.62109375,0.0
1734581132.9846878,-28.80859375,-544.921875,-502.44140625,-38.0859375,0.0
1734581132.988594,-30.2734375,-857.91015625,-581.0546875,-29.296875,0.0
1734581132.9925003,-44.43359375,-692.3828125,-479.98046875,-34.1796875,0.0
1734581132.9964066,-43.45703125,-458.49609375,-441.40625,-47.36328125,0.0
1734581133.0007906,-40.0390625,-770.99609375,-545.8984375,-46.38671875,0.0
1734581133.0046968,-33.203125,-892.578125,-568.84765625,-39.55078125,0.0
1734581133.008603,-39.0625,-573.2421875,-488.76953125,-43.9453125,0.0
1734581133.0125093,-40.0390625,-488.76953125,-449.70703125,-36.62109375,0.0
1734581133.0164156,-36.1328125,-783.69140625,-642.578125,-30.2734375,0.0
1734581133.0203216,-30.2734375,-1000.0,-733.88671875,-45.41015625,0.0
1734581133.0242279,-38.0859375,-979.00390625,-541.015625,-37.59765625,0.0
1734581133.028134,-49.31640625,-698.2421875,-442.3828125,-34.1796875,0.0
1734581133.0320404,-41.9921875,-739.74609375,-594.23828125,-33.203125,0.0
1734581133.0359466,-49.31640625,-966.30859375,-687.01171875,-30.2734375,0.0
1734581133.0398526,-43.9453125,-702.63671875,-479.4921875,-40.0390625,0.0
1734581133.0437589,-32.71484375,-657.2265625,-524.90234375,-35.64453125,0.0
1734581133.0475492,-39.0625,-800.78125,-536.1328125,-27.83203125,0.0
1734581133.0514555,-46.875,-710.9375,-472.16796875,-37.59765625,0.0
1734581133.0553617,-44.921875,-507.8125,-440.91796875,-28.80859375,0.0
1734581133.059268,-46.875,-758.30078125,-497.55859375,-20.99609375,0.0
1734581133.063174,-44.43359375,-928.7109375,-535.15625,-23.4375,0.0
1734581133.0670803,-32.71484375,-937.98828125,-541.50390625,-20.99609375,0.0
1734581133.0709865,-34.1796875,-889.16015625,-500.9765625,-27.34375,0.0
1734581133.0748928,-43.45703125,-729.4921875,-495.1171875,-44.921875,0.0
1734581133.078799,-48.33984375,-843.75,-542.96875,-44.43359375,0.0
1734581133.082705,-50.29296875,-658.203125,-467.28515625,-35.64453125,0.0
1734581133.0866113,-34.66796875,-441.89453125,-450.1953125,-40.0390625,0.0
1734581133.0905175,-34.1796875,-651.3671875,-531.25,-37.59765625,0.0
1734581133.0942552,-46.875,-963.8671875,-620.1171875,-27.83203125,0.0
1734581133.0981612,-47.36328125,-773.92578125,-503.90625,-35.64453125,0.0
1734581133.1020675,-43.9453125,-482.91015625,-417.48046875,-42.96875,0.0
1734581133.1059737,-51.7578125,-703.125,-601.07421875,-41.015625,0.0
1734581133.10988,-44.43359375,-999.0234375,-716.30859375,-43.9453125,0.0
1734581133.1137862,-34.66796875,-978.02734375,-555.6640625,-42.96875,0.0
1734581133.1176922,-40.52734375,-947.75390625,-501.953125,-37.59765625,0.0
1734581133.1215985,-43.45703125,-990.72265625,-635.25390625,-45.41015625,0.0
1734581133.1255047,-35.15625,-942.87109375,-693.84765625,-48.828125,0.0
1734581133.129411,-28.80859375,-596.19140625,-449.21875,-38.57421875,0.0
1734581133.1333172,-36.62109375,-428.7109375,-452.1484375,-39.55078125,0.0
1734581133.1372232,-35.64453125,-728.02734375,-513.18359375,-42.96875,0.0
1734581133.1414206,-26.85546875,-725.5859375,-493.1640625,-39.55078125,0.0
1734581133.1453269,-32.2265625,-471.19140625,-459.47265625,-36.62109375,0.0
1734581133.149233,-46.38671875,-534.66796875,-492.67578125,-30.2734375,0.0
1734581133.153139,-46.875,-806.15234375,-555.6640625,-29.296875,0.0
1734581133.1570454,-49.8046875,-800.78125,-503.90625,-46.38671875,0.0
1734581133.1609516,-41.50390625,-859.86328125,-567.87109375,-45.8984375,0.0
1734581133.1648579,-31.25,-993.65234375,-544.43359375,-38.57421875,0.0
1734581133.168764,-30.2734375,-986.328125,-637.6953125,-32.71484375,0.0
1734581133.1726701,-33.69140625,-856.4453125,-608.88671875,-27.34375,0.0
1734581133.1765764,-39.55078125,-748.046875,-479.98046875,-40.52734375,0.0
1734581133.1804826,-40.52734375,-959.9609375,-565.4296875,-54.19921875,0.0
1734581133.1843889,-49.31640625,-846.6796875,-519.04296875,-42.96875,0.0
1734581133.1889966,-58.59375,-579.58984375,-469.23828125,-45.8984375,0.0
1734581133.1929028,-57.6171875,-524.90234375,-444.3359375,-70.3125,0.0
1734581133.196809,-63.4765625,-776.85546875,-562.01171875,-79.58984375,0.0
1734581133.2007153,-75.68359375,-862.79296875,-649.4140625,-76.171875,0.0
1734581133.2046216,-82.03125,-802.734375,-530.2734375,-72.75390625,0.0
1734581133.2085278,-83.0078125,-979.98046875,-526.85546875,-76.66015625,0.0
1734581133.2124338,-82.03125,-1000.0,-647.4609375,-71.2890625,0.0
1734581133.21634,-85.9375,-897.94921875,-662.109375,-87.40234375,0.0
1734581133.2202463,-86.42578125,-632.8125,-476.5625,-99.609375,0.0
1734581133.2241526,-103.515625,-490.234375,-429.6875,-103.515625,0.0
1734581133.2280588,-106.93359375,-779.296875,-629.39453125,-107.91015625,0.0
1734581133.231965,-110.3515625,-921.875,-691.89453125,-92.28515625,0.0
1734581133.235477,-126.953125,-781.25,-481.4453125,-106.4453125,0.0
1734581133.2393832,-123.53515625,-928.22265625,-532.71484375,-123.53515625,0.0
1734581133.2432895,-124.51171875,-940.4296875,-535.15625,-126.46484375,0.0
1734581133.2471957,-139.16015625,-685.546875,-457.51953125,-126.46484375,0.0
1734581133.251102,-147.4609375,-602.5390625,-490.72265625,-119.140625,0.0
1734581133.255008,-145.5078125,-929.6875,-604.00390625,-121.09375,0.0
1734581133.2589142,-153.3203125,-995.60546875,-601.07421875,-139.16015625,0.0
1734581133.2628205,-155.76171875,-742.1875,-502.44140625,-147.4609375,0.0
1734581133.2667267,-148.92578125,-538.0859375,-454.1015625,-149.90234375,0.0
1734581133.270633,-138.18359375,-669.43359375,-514.16015625,-141.6015625,0.0
1734581133.274539,-146.484375,-879.8828125,-557.12890625,-153.3203125,0.0
1734581133.2784452,-150.87890625,-698.2421875,-496.58203125,-168.9453125,0.0
1734581133.2819154,-148.4375,-538.57421875,-458.49609375,-162.109375,0.0
1734581133.2858217,-171.38671875,-765.625,-580.078125,-173.33984375,0.0
1734581133.2897277,-173.828125,-980.46875,-672.36328125,-166.50390625,0.0
1734581133.293634,-163.57421875,-836.9140625,-529.78515625,-166.015625,0.0
1734581133.2975402,-168.45703125,-909.66796875,-544.921875,-173.33984375,0.0
1734581133.3014464,-177.24609375,-1000.0,-648.4375,-164.55078125,0.0
1734581133.3053527,-174.31640625,-1000.0,-700.1953125,-161.1328125,0.0
1734581133.3092587,-166.015625,-873.046875,-541.9921875,-168.9453125,0.0
1734581133.313165,-171.38671875,-597.65625,-467.28515625,-165.0390625,0.0
1734581133.3170712,-167.48046875,-798.33984375,-573.73046875,-151.3671875,0.0
1734581133.3209774,-147.94921875,-865.72265625,-579.58984375,-138.671875,0.0
1734581133.3248837,-145.5078125,-622.0703125,-512.20703125,-135.25390625,0.0
1734581133.3287919,-137.6953125,-595.21484375,-509.27734375,-134.27734375,0.0
1734581133.332698,-126.953125,-859.86328125,-685.546875,-135.25390625,0.0
1734581133.3366044,-133.30078125,-928.7109375,-687.98828125,-136.71875,0.0
1734581133.3405106,-128.90625,-617.67578125,-477.05078125,-130.859375,0.0
1734581133.3444169,-116.2109375,-641.11328125,-542.48046875,-115.234375,0.0
1734581133.3483229,-102.05078125,-917.48046875,-638.671875,-122.0703125,0.0
1734581133.352229,-99.609375,-969.7265625,-602.05078125,-118.65234375,0.0
1734581133.3561354,-93.26171875,-877.44140625,-547.8515625,-108.88671875,0.0
1734581133.3600416,-82.51953125,-851.07421875,-557.12890625,-116.2109375,0.0
1734581133.3639479,-80.56640625,-933.59375,-625.48828125,-96.6796875,0.0
1734581133.367854,-67.3828125,-810.546875,-550.29296875,-78.61328125,0.0
1734581133.3717601,-60.05859375,-632.8125,-503.41796875,-79.58984375,0.0
1734581133.3756163,-62.98828125,-798.33984375,-575.1953125,-79.1015625,0.0
1734581133.3795226,-55.6640625,-900.87890625,-632.8125,-68.84765625,0.0
1734581133.3834288,-41.015625,-699.21875,-533.69140625,-57.6171875,0.0
1734581133.387335,-40.0390625,-693.84765625,-516.6015625,-55.6640625,0.0
1734581133.391241,-33.69140625,-899.4140625,-679.6875,-44.921875,0.0
1734581133.3951473,-43.45703125,-1000.0,-717.28515625,-40.52734375,0.0
1734581133.3990536,-47.8515625,-983.3984375,-591.796875,-30.2734375,0.0
1734581133.4029598,-34.1796875,-765.13671875,-496.09375,-23.92578125,0.0
1734581133.406866,-34.66796875,-806.15234375,-628.41796875,-27.83203125,0.0
1734581133.4107723,-31.25,-1000.0,-753.41796875,-17.578125,0.0
1734581133.4146783,-20.01953125,-950.68359375,-581.0546875,-23.92578125,0.0
1734581133.4185846,-22.4609375,-793.9453125,-562.98828125,-27.34375,0.0
1734581133.4223804,-27.83203125,-848.14453125,-615.72265625,-12.20703125,0.0
1734581133.4262867,-17.578125,-858.88671875,-561.03515625,-8.7890625,0.0
1734581133.4301927,-3.41796875,-704.1015625,-505.859375,-11.23046875,0.0
1734581133.434099,0.48828125,-736.81640625,-555.17578125,-14.6484375,0.0
1734581133.4380052,13.18359375,-904.296875,-674.8046875,-13.671875,0.0
1734581133.4419115,20.99609375,-1000.0,-671.875,8.30078125,0.0
1734581133.4458177,11.71875,-913.0859375,-584.9609375,8.30078125,0.0
1734581133.449724,23.92578125,-837.890625,-553.22265625,10.25390625,0.0
1734581133.45363,24.90234375,-1000.0,-697.75390625,22.94921875,0.0
1734581133.4575362,22.94921875,-922.36328125,-655.76171875,19.53125,0.0
1734581133.4614425,24.4140625,-766.11328125,-537.109375,16.11328125,0.0
1734581133.4653487,21.97265625,-944.82421875,-628.90625,17.578125,0.0
1734581133.4716482,28.3203125,-963.37890625,-631.34765625,15.625,0.0
1734581133.4755545,19.04296875,-927.24609375,-588.8671875,17.578125,0.0
1734581133.4794605,15.625,-873.046875,-558.59375,7.32421875,0.0
1734581133.4833667,12.6953125,-858.88671875,-638.671875,3.90625,0.0
1734581133.487273,8.30078125,-1000.0,-728.02734375,20.5078125,0.0
1734581133.4911792,-5.37109375,-1000.0,-656.73828125,12.6953125,0.0
1734581133.4950855,-14.6484375,-991.2109375,-629.39453125,10.7421875,0.0
1734581133.4989917,6.8359375,-1000.0,-732.91015625,13.18359375,0.0
1734581133.502898,5.37109375,-982.421875,-769.04296875,-2.9296875,0.0
1734581133.506804,19.53125,-811.5234375,-560.546875,8.7890625,0.0
1734581133.5107102,34.66796875,-738.28125,-556.640625,16.11328125,0.0
1734581133.5146165,15.625,-898.4375,-626.953125,20.5078125,0.0
1734581133.519334,12.20703125,-873.53515625,-598.6328125,22.94921875,0.0
1734581133.5232403,21.97265625,-751.46484375,-566.40625,22.94921875,0.0
1734581133.5271466,34.1796875,-820.80078125,-618.65234375,34.1796875,0.0
1734581133.5310526,33.203125,-938.4765625,-655.76171875,31.25,0.0
1734581133.5349588,38.0859375,-968.26171875,-640.13671875,27.83203125,0.0
1734581133.538865,43.9453125,-990.72265625,-666.015625,28.80859375,0.0
1734581133.5427713,30.76171875,-1000.0,-684.5703125,32.2265625,0.0
1734581133.5466776,18.5546875,-973.14453125,-661.62109375,27.83203125,0.0
1734581133.5505838,16.11328125,-892.578125,-593.75,11.71875,0.0
1734581133.55449,17.08984375,-826.171875,-592.28515625,9.27734375,0.0
1734581133.5583963,2.44140625,-885.25390625,-653.80859375,13.671875,0.0
1734581133.5623024,-9.27734375,-986.81640625,-692.3828125,12.6953125,0.0
1734581133.5657904,3.90625,-886.71875,-650.87890625,20.99609375,0.0
1734581133.5696967,0.0,-884.765625,-609.86328125,16.6015625,0.0
1734581133.573603,4.8828125,-986.81640625,-724.609375,9.27734375,0.0
1734581133.577509,5.859375,-971.19140625,-793.45703125,10.25390625,0.0
1734581133.5814152,0.9765625,-964.35546875,-694.82421875,4.8828125,0.0
1734581133.5853214,18.06640625,-1000.0,-704.58984375,13.671875,0.0
1734581133.5892277,24.90234375,-995.60546875,-797.8515625,17.578125,0.0
1734581133.593134,17.578125,-1000.0,-850.09765625,15.13671875,0.0
1734581133.5970402,10.25390625,-958.0078125,-694.82421875,0.9765625,0.0
1734581133.6009464,7.32421875,-903.80859375,-655.76171875,8.30078125,0.0
1734581133.6048527,15.625,-976.07421875,-727.05078125,17.578125,0.0
1734581133.6087587,20.01953125,-994.140625,-718.26171875,14.16015625,0.0
1734581133.6132472,13.18359375,-949.70703125,-666.9921875,23.4375,0.0
1734581133.6171534,13.18359375,-945.3125,-656.73828125,14.16015625,0.0
1734581133.6210597,17.08984375,-999.51171875,-834.47265625,4.8828125,0.0
1734581133.624966,25.390625,-1000.0,-902.34375,14.6484375,0.0
1734581133.6288722,19.53125,-976.5625,-705.56640625,9.27734375,0.0
1734581133.6327784,5.859375,-991.2109375,-717.7734375,-3.41796875,0.0
1734581133.6366847,9.765625,-1000.0,-845.703125,9.27734375,0.0
1734581133.640591,11.71875,-955.078125,-805.17578125,11.71875,0.0
1734581133.644497,-6.8359375,-863.76953125,-661.1328125,-6.8359375,0.0
1734581133.6484032,-3.90625,-927.734375,-719.7265625,4.8828125,0.0
1734581133.6523094,-7.32421875,-1000.0,-773.92578125,25.87890625,0.0
1734581133.6562157,1.46484375,-978.02734375,-746.58203125,20.01953125,0.0
1734581133.6596053,12.20703125,-935.05859375,-682.12890625,8.7890625,0.0
1734581133.6635115,1.953125,-969.23828125,-779.78515625,2.9296875,0.0
1734581133.6674178,12.20703125,-1000.0,-819.3359375,-0.48828125,0.0
1734581133.671324,-2.9296875,-994.140625,-721.6796875,6.34765625,0.0
1734581133.67523,-3.90625,-998.53515625,-759.27734375,9.27734375,0.0
1734581133.6791363,0.9765625,-1000.0,-861.328125,-8.30078125,0.0
1734581133.6830425,3.41796875,-999.51171875,-887.20703125,-10.7421875,0.0
1734581133.6869488,7.8125,-996.09375,-733.3984375,4.8828125,0.0
1734581133.690855,1.46484375,-988.28125,-708.0078125,3.41796875,0.0
1734581133.6947613,-2.44140625,-990.72265625,-775.390625,0.0,0.0
1734581133.6986675,-5.859375,-992.67578125,-779.78515625,7.8125,0.0
1734581133.7025738,-12.6953125,-987.79296875,-728.515625,-8.7890625,0.0
1734581133.70691,-17.578125,-998.53515625,-732.421875,-29.78515625,0.0
1734581133.7108161,-10.25390625,-1000.0,-879.39453125,-17.578125,0.0
1734581133.7147224,-2.44140625,-999.51171875,-895.5078125,-10.7421875,0.0
1734581133.7186286,-11.23046875,-998.53515625,-734.375,-20.5078125,0.0
1734581133.7225347,-17.578125,-999.0234375,-768.5546875,-18.06640625,0.0
1734581133.726441,-12.20703125,-1000.0,-837.890625,-3.41796875,0.0
1734581133.7303472,-19.53125,-997.0703125,-803.22265625,-5.859375,0.0
1734581133.7342534,-20.99609375,-992.1875,-737.79296875,-26.3671875,0.0
1734581133.7381597,-21.484375,-999.0234375,-762.20703125,-24.90234375,0.0
1734581133.742066,-30.2734375,-1000.0,-797.8515625,-16.6015625,0.0
1734581133.7459722,-32.2265625,-1000.0,-765.625,-26.85546875,0.0
1734581133.7498784,-24.90234375,-1000.0,-723.6328125,-31.73828125,0.0
1734581133.753626,-12.20703125,-1000.0,-794.921875,-17.08984375,0.0
1734581133.7575324,-8.30078125,-1000.0,-849.609375,-7.32421875,0.0
1734581133.7614384,-18.06640625,-1000.0,-755.859375,-19.53125,0.0
1734581133.7653446,-24.90234375,-1000.0,-721.19140625,-27.34375,0.0
1734581133.7692509,-31.73828125,-1000.0,-819.3359375,-20.5078125,0.0
1734581133.7731571,-30.76171875,-1000.0,-850.5859375,-19.53125,0.0
1734581133.7770634,-29.296875,-1000.0,-793.45703125,-13.671875,0.0
1734581133.7809696,-27.83203125,-1000.0,-811.5234375,-14.6484375,0.0
1734581133.7848759,-25.390625,-1000.0,-822.265625,-27.34375,0.0
1734581133.7887821,-26.3671875,-1000.0,-805.17578125,-23.92578125,0.0
1734581133.7926881,-29.78515625,-1000.0,-768.06640625,-27.83203125,0.0
1734581133.7965944,-21.97265625,-1000.0,-741.69921875,-28.80859375,0.0
1734581133.8008058,0.0,-1000.0,-854.98046875,-18.06640625,0.0
1734581133.804712,0.0,-1000.0,-890.625,-20.5078125,0.0
1734581133.8086183,0.0,-1000.0,-739.74609375,-15.625,0.0
1734581133.8125243,0.0,-1000.0,-779.296875,-20.01953125,0.0
1734581133.8164306,0.0,-1000.0,-849.609375,-38.57421875,0.0
1734581133.8203368,0.0,-1000.0,-833.49609375,-39.55078125,0.0
1734581133.824243,0.0,-1000.0,-766.6015625,-40.0390625,0.0
1734581133.8281493,0.0,-1000.0,-760.7421875,-31.25,0.0
1734581133.8320556,0.0,-1000.0,-843.75,-26.3671875,0.0
1734581133.8359618,0.0,-1000.0,-795.41015625,-24.4140625,0.0
1734581133.839868,0.0,-1000.0,-708.0078125,-15.13671875,0.0
1734581133.843774,0.0,-1000.0,-752.9296875,-21.97265625,0.0
1734581133.8473973,-28.80859375,-1000.0,-764.6484375,-24.90234375,0.0
1734581133.8513033,-25.390625,-1000.0,-732.421875,-22.4609375,0.0
1734581133.8552096,-30.76171875,-1000.0,-721.19140625,-31.73828125,0.0
1734581133.8591158,-34.1796875,-1000.0,-785.64453125,-41.50390625,0.0
1734581133.863022,-27.34375,-1000.0,-858.3984375,-34.66796875,0.0
1734581133.8669283,-25.87890625,-1000.0,-794.43359375,-27.83203125,0.0
1734581133.8708346,-29.296875,-1000.0,-767.08984375,-37.109375,0.0
1734581133.8747408,-28.3203125,-1000.0,-823.73046875,-32.71484375,0.0
1734581133.878647,-24.4140625,-1000.0,-822.265625,-27.34375,0.0
1734581133.882553,-25.390625,-1000.0,-707.51953125,-30.2734375,0.0
1734581133.8864594,-18.06640625,-1000.0,-693.84765625,-14.6484375,0.0
1734581133.8903656,-7.8125,-1000.0,-850.09765625,-4.39453125,0.0
1734581133.8939493,-24.4140625,-1000.0,-852.05078125,-17.08984375,0.0
1734581133.8978555,-31.73828125,-1000.0,-665.52734375,-23.4375,0.0
1734581133.9017618,-20.99609375,-1000.0,-716.796875,-26.3671875,0.0
1734581133.905668,-12.20703125,-1000.0,-775.390625,-18.5546875,0.0
1734581133.9095743,-1.46484375,-1000.0,-712.890625,-12.20703125,0.0
1734581133.9134805,-13.671875,-1000.0,-746.09375,-18.06640625,0.0
1734581133.9173868,-25.87890625,-1000.0,-736.81640625,-26.85546875,0.0
1734581133.921293,-19.53125,-1000.0,-806.640625,-26.85546875,0.0
1734581133.925199,-25.87890625,-1000.0,-787.59765625,-20.99609375,0.0
1734581133.9291053,-33.69140625,-1000.0,-641.11328125,-22.94921875,0.0
1734581133.9330115,-33.69140625,-1000.0,-701.171875,-27.34375,0.0
1734581133.9369178,-41.50390625,-1000.0,-724.609375,-33.203125,0.0
1734581133.9414487,-51.26953125,-1000.0,-674.8046875,-40.52734375,0.0
1734581133.945355,-37.59765625,-1000.0,-649.4140625,-26.85546875,0.0
1734581133.9492612,-20.01953125,-1000.0,-727.5390625,-12.20703125,0.0
1734581133.9531674,-23.92578125,-1000.0,-769.53125,-30.2734375,0.0
1734581133.9570737,-38.57421875,-1000.0,-732.91015625,-48.828125,0.0
1734581133.96098,-40.52734375,-1000.0,-734.375,-40.0390625,0.0
1734581133.9648862,-47.8515625,-1000.0,-817.3828125,-38.57421875,0.0
1734581133.9687924,-56.15234375,-1000.0,-862.79296875,-37.59765625,0.0
1734581133.9726985,-48.33984375,-1000.0,-666.015625,-42.96875,0.0
1734581133.9766047,-40.0390625,-1000.0,-650.390625,-50.29296875,0.0
1734581133.980511,-40.0390625,-1000.0,-699.70703125,-46.38671875,0.0
1734581133.9844172,-45.41015625,-1000.0,-687.01171875,-38.0859375,0.0
1734581133.9878483,-39.0625,-1000.0,-658.203125,-36.1328125,0.0
1734581133.9917545,-25.87890625,-1000.0,-687.5,-33.69140625,0.0
1734581133.9956608,-30.2734375,-1000.0,-734.375,-37.109375,0.0
1734581133.999567,-30.2734375,-1000.0,-671.38671875,-37.109375,0.0
1734581134.003473,-22.4609375,-1000.0,-684.5703125,-30.76171875,0.0
1734581134.0073793,-29.78515625,-1000.0,-778.80859375,-39.55078125,0.0
1734581134.0112855,-37.109375,-1000.0,-796.875,-43.9453125,0.0
1734581134.0151918,-34.66796875,-1000.0,-731.93359375,-29.296875,0.0
1734581134.019098,-33.69140625,-1000.0,-680.6640625,-22.94921875,0.0
1734581134.0230043,-27.34375,-1000.0,-726.07421875,-33.69140625,0.0
1734581134.0269105,-24.90234375,-1000.0,-749.51171875,-35.15625,0.0
1734581134.0308166,-34.66796875,-1000.0,-703.61328125,-35.64453125,0.0
1734581134.0341828,-21.97265625,-1000.0,-675.29296875,-34.1796875,0.0
1734581134.038089,-14.6484375,-1000.0,-756.8359375,-35.64453125,0.0
1734581134.0419953,-40.0390625,-1000.0,-831.0546875,-33.69140625,0.0
1734581134.0459015,-32.2265625,-1000.0,-731.4453125,-31.73828125,0.0
1734581134.0498078,-18.06640625,-1000.0,-730.46875,-24.90234375,0.0
1734581134.053714,-34.1796875,-1000.0,-842.28515625,-34.66796875,0.0
1734581134.0576203,-41.015625,-1000.0,-856.4453125,-38.0859375,0.0
1734581134.0615263,-30.76171875,-1000.0,-696.77734375,-25.390625,0.0
1734581134.0654325,-27.34375,-1000.0,-693.359375,-37.59765625,0.0
1734581134.0693388,-30.2734375,-1000.0,-823.73046875,-36.1328125,0.0
1734581134.073245,-30.2734375,-1000.0,-819.3359375,-34.1796875,0.0
1734581134.0771513,-27.34375,-1000.0,-678.7109375,-38.57421875,0.0
1734581134.0809777,-36.62109375,-1000.0,-715.33203125,-35.64453125,0.0
1734581134.084884,-36.62109375,-1000.0,-768.5546875,-29.296875,0.0
1734581134.08879,-24.4140625,-1000.0,-726.5625,-20.99609375,0.0
1734581134.0926962,-35.64453125,-1000.0,-683.59375,-37.59765625,0.0
1734581134.0966024,-50.29296875,-1000.0,-706.0546875,-52.24609375,0.0
1734581134.1005087,-47.8515625,-1000.0,-800.29296875,-40.0390625,0.0
1734581134.104415,-40.52734375,-1000.0,-786.62109375,-34.66796875,0.0
1734581134.1083212,-28.80859375,-1000.0,-705.56640625,-34.1796875,0.0
1734581134.1122274,-21.484375,-1000.0,-737.3046875,-23.4375,0.0
1734581134.1161335,-15.13671875,-1000.0,-789.55078125,-29.296875,0.0
1734581134.1200397,-25.390625,-1000.0,-707.03125,-28.80859375,0.0
1734581134.123946,-26.3671875,-1000.0,-715.8203125,-29.78515625,0.0
1734581134.1277268,-16.11328125,-1000.0,-802.24609375,-34.1796875,0.0
1734581134.131633,-22.94921875,-1000.0,-777.34375,-28.3203125,0.0
1734581134.1355393,-29.296875,-1000.0,-725.5859375,-27.34375,0.0
1734581134.1394453,-27.34375,-1000.0,-676.26953125,-21.484375,0.0
1734581134.1433516,-32.71484375,-1000.0,-794.43359375,-24.90234375,0.0
1734581134.1472578,-26.3671875,-1000.0,-906.73828125,-41.015625,0.0
1734581134.151164,-25.87890625,-1000.0,-768.06640625,-27.83203125,0.0
1734581134.1550703,-40.52734375,-1000.0,-674.8046875,-24.4140625,0.0
1734581134.1589766,-35.15625,-1000.0,-788.0859375,-26.85546875,0.0
1734581134.1628828,-22.94921875,-1000.0,-860.83984375,-22.94921875,0.0
1734581134.1667888,-24.90234375,-1000.0,-684.08203125,-35.64453125,0.0
1734581134.170695,-38.57421875,-1000.0,-682.12890625,-43.9453125,0.0
1734581134.1743994,-38.57421875,-1000.0,-727.5390625,-29.296875,0.0
1734581134.1783056,-29.296875,-1000.0,-680.6640625,-19.04296875,0.0
1734581134.1822119,-25.87890625,-1000.0,-684.08203125,-30.2734375,0.0
1734581134.1861181,-37.59765625,-1000.0,-747.55859375,-30.2734375,0.0
1734581134.1900244,-47.8515625,-1000.0,-762.6953125,-30.2734375,0.0
1734581134.1939306,-38.0859375,-1000.0,-758.30078125,-34.66796875,0.0
1734581134.1978369,-40.0390625,-1000.0,-705.078125,-37.109375,0.0
1734581134.201743,-43.45703125,-1000.0,-673.828125,-38.0859375,0.0
1734581134.2056491,-42.48046875,-1000.0,-780.76171875,-39.55078125,0.0
1734581134.2095554,-41.9921875,-1000.0,-753.90625,-42.48046875,0.0
1734581134.2134616,-32.2265625,-1000.0,-627.44140625,-40.0390625,0.0
1734581134.217368,-30.76171875,-1000.0,-708.0078125,-33.203125,0.0
1734581134.2210362,-34.1796875,-1000.0,-739.2578125,-38.57421875,0.0
1734581134.2249424,-42.48046875,-1000.0,-676.26953125,-45.41015625,0.0
1734581134.2288485,-41.50390625,-1000.0,-653.3203125,-31.73828125,0.0
1734581134.2327547,-37.109375,-1000.0,-735.3515625,-25.390625,0.0
1734581134.236661,-31.73828125,-1000.0,-820.80078125,-19.04296875,0.0
1734581134.2405672,-19.53125,-1000.0,-739.74609375,-16.6015625,0.0
1734581134.2444735,-17.08984375,-1000.0,-677.734375,-14.6484375,0.0
1734581134.2483797,-22.94921875,-1000.0,-797.36328125,-16.11328125,0.0
1734581134.2522857,-28.80859375,-1000.0,-807.12890625,-24.4140625,0.0
1734581134.256192,-34.66796875,-1000.0,-621.58203125,-32.71484375,0.0
1734581134.2600982,-30.76171875,-1000.0,-660.64453125,-29.78515625,0.0
1734581134.2640045,-27.83203125,-1000.0,-711.42578125,-26.3671875,0.0
1734581134.2681274,-25.87890625,-1000.0,-687.5,-24.90234375,0.0
1734581134.2720337,-26.85546875,-1000.0,-631.8359375,-22.94921875,0.0
1734581134.27594,-41.50390625,-1000.0,-653.3203125,-41.015625,0.0
1734581134.2798462,-45.8984375,-1000.0,-731.4453125,-41.50390625,0.0
1734581134.2837522,-40.0390625,-1000.0,-679.19921875,-29.296875,0.0
1734581134.2876585,-37.109375,-1000.0,-712.40234375,-32.2265625,0.0
1734581134.2915647,-31.25,-1000.0,-709.47265625,-39.55078125,0.0
1734581134.295471,-27.83203125,-1000.0,-781.25,-27.83203125,0.0
1734581134.2993772,-34.66796875,-1000.0,-762.6953125,-20.99609375,0.0
1734581134.3032835,-43.9453125,-1000.0,-636.71875,-38.0859375,0.0
1734581134.3071897,-42.96875,-1000.0,-683.59375,-37.59765625,0.0
1734581134.3110957,-32.71484375,-1000.0,-694.82421875,-30.2734375,0.0
1734581134.3151658,-35.15625,-1000.0,-649.4140625,-32.2265625,0.0
1734581134.3190718,-44.43359375,-1000.0,-622.0703125,-30.2734375,0.0
1734581134.322978,-40.52734375,-1000.0,-688.96484375,-24.90234375,0.0
1734581134.3268843,-27.34375,-1000.0,-762.20703125,-27.83203125,0.0
1734581134.3307905,-24.90234375,-1000.0,-718.26171875,-26.85546875,0.0
1734581134.3346968,-25.87890625,-1000.0,-686.5234375,-33.203125,0.0
1734581134.338603,-24.90234375,-1000.0,-788.57421875,-35.15625,0.0
1734581134.3425093,-33.203125,-1000.0,-791.015625,-36.62109375,0.0
1734581134.3464153,-39.55078125,-1000.0,-631.8359375,-42.48046875,0.0
1734581134.3503215,-29.296875,-1000.0,-620.1171875,-36.1328125,0.0
1734581134.3542278,-20.99609375,-1000.0,-761.71875,-20.99609375,0.0
1734581134.358134,-28.80859375,-1000.0,-816.40625,-25.390625,0.0
1734581134.3621278,-24.90234375,-1000.0,-649.4140625,-29.296875,0.0
1734581134.366034,-13.671875,-1000.0,-658.69140625,-25.87890625,0.0
1734581134.3699403,-27.83203125,-1000.0,-727.05078125,-33.203125,0.0
1734581134.3738465,-38.57421875,-1000.0,-654.78515625,-35.64453125,0.0
1734581134.3777525,-29.78515625,-1000.0,-639.6484375,-29.296875,0.0
1734581134.3816588,-20.01953125,-1000.0,-745.1171875,-30.2734375,0.0
1734581134.385565,-20.99609375,-1000.0,-733.3984375,-35.64453125,0.0
1734581134.3894713,-25.390625,-1000.0,-656.73828125,-30.2734375,0.0
1734581134.3933775,-28.3203125,-1000.0,-635.25390625,-34.1796875,0.0
1734581134.3972838,-30.76171875,-1000.0,-695.3125,-41.50390625,0.0
1734581134.40119,-36.1328125,-1000.0,-771.97265625,-34.1796875,0.0
1734581134.405096,-38.57421875,-1000.0,-695.3125,-38.0859375,0.0
1734581134.4085114,0.0,-1000.0,-637.6953125,-41.9921875,0.0
1734581134.4124177,0.0,-1000.0,-706.0546875,-31.25,0.0
1734581134.416324,0.0,-1000.0,-717.28515625,-33.69140625,0.0
1734581134.4202302,0.0,-1000.0,-705.56640625,-35.15625,0.0
1734581134.4241364,0.0,-1000.0,-732.91015625,-33.203125,0.0
1734581134.4280427,0.0,-1000.0,-818.84765625,-38.0859375,0.0
1734581134.4319487,0.0,-1000.0,-850.5859375,-37.109375,0.0
1734581134.435855,0.0,-1000.0,-660.64453125,-27.83203125,0.0
1734581134.4397612,0.0,-1000.0,-640.625,-26.85546875,0.0
1734581134.4436674,0.0,-1000.0,-787.109375,-20.01953125,0.0
1734581134.4475737,0.0,-1000.0,-841.796875,-20.99609375,0.0
1734581134.45148,0.0,-1000.0,-674.31640625,-35.15625,0.0
1734581134.454938,-29.296875,-1000.0,-664.55078125,-43.45703125,0.0
1734581134.458844,-20.99609375,-1000.0,-820.3125,-41.50390625,0.0
1734581134.4627502,-29.78515625,-1000.0,-838.37890625,-34.66796875,0.0
1734581134.4666564,-31.73828125,-1000.0,-676.7578125,-29.296875,0.0
1734581134.4705627,-25.87890625,-1000.0,-698.2421875,-24.90234375,0.0
1734581134.474469,-29.78515625,-1000.0,-790.0390625,-24.90234375,0.0
1734581134.4783752,-32.2265625,-1000.0,-788.57421875,-16.6015625,0.0
1734581134.4822814,-18.5546875,-1000.0,-725.5859375,-28.3203125,0.0
1734581134.4861875,-12.6953125,-1000.0,-718.75,-34.66796875,0.0
1734581134.4900937,-17.578125,-1000.0,-745.60546875,-38.0859375,0.0
1734581134.494,-18.06640625,-1000.0,-707.51953125,-38.57421875,0.0
1734581134.4979062,-24.4140625,-1000.0,-691.89453125,-37.109375,0.0
1734581134.5017586,-22.94921875,-1000.0,-758.7890625,-41.9921875,0.0
1734581134.5056648,-28.3203125,-1000.0,-787.109375,-43.9453125,0.0
1734581134.509571,-37.109375,-1000.0,-726.5625,-41.50390625,0.0
1734581134.5134773,-45.8984375,-1000.0,-729.4921875,-35.64453125,0.0
1734581134.5173833,-40.0390625,-1000.0,-854.98046875,-36.62109375,0.0
1734581134.5212896,-37.109375,-1000.0,-902.83203125,-39.55078125,0.0
1734581134.5251958,-33.203125,-1000.0,-792.96875,-39.0625,0.0
1734581134.529102,-21.484375,-1000.0,-738.28125,-39.0625,0.0
1734581134.5330083,-25.390625,-1000.0,-811.5234375,-21.97265625,0.0
1734581134.5369146,-35.64453125,-1000.0,-891.6015625,-38.0859375,0.0
1734581134.5408206,-26.85546875,-1000.0,-772.4609375,-58.10546875,0.0
1734581134.5447268,-13.18359375,-1000.0,-724.12109375,-48.828125,0.0
1734581134.5495152,0.0,-1000.0,0.0,-38.0859375,0.0
1734581134.5534213,0.0,-1000.0,0.0,-35.64453125,0.0
1734581134.5573275,0.0,-1000.0,0.0,-42.48046875,0.0
1734581134.5612338,0.0,-1000.0,0.0,-40.52734375,0.0
1734581134.56514,0.0,-1000.0,0.0,-36.1328125,0.0
1734581134.5690463,0.0,-1000.0,0.0,-38.57421875,0.0
1734581134.5729525,0.0,-1000.0,0.0,-36.1328125,0.0
1734581134.5768585,0.0,-1000.0,0.0,-34.66796875,0.0
1734581134.5807648,0.0,-1000.0,0.0,-23.4375,0.0
1734581134.584671,0.0,-1000.0,0.0,-30.2734375,0.0
1734581134.5885773,0.0,-1000.0,0.0,-45.41015625,0.0
1734581134.5924835,0.0,-1000.0,0.0,-38.57421875,0.0
1734581134.59616,-27.83203125,-1000.0,-821.77734375,-34.1796875,0.0
1734581134.6000662,-24.90234375,-1000.0,-799.8046875,-38.57421875,0.0
1734581134.6039724,-19.53125,-1000.0,-732.91015625,-37.109375,0.0
1734581134.6078784,-31.73828125,-1000.0,-830.078125,-27.34375,0.0
1734581134.6117847,-29.78515625,-1000.0,-911.1328125,-19.04296875,0.0
1734581134.615691,-5.859375,-1000.0,-803.22265625,-14.16015625,0.0
1734581134.6195972,-14.16015625,-1000.0,-776.3671875,-18.5546875,0.0
1734581134.6235034,-46.38671875,-1000.0,-840.33203125,-37.59765625,0.0
1734581134.6274097,-32.2265625,-1000.0,-844.7265625,-42.96875,0.0
1734581134.631316,-16.11328125,-1000.0,-748.53515625,-36.1328125,0.0
1734581134.635222,-35.64453125,-1000.0,-770.5078125,-43.45703125,0.0
1734581134.6391282,-36.62109375,-1000.0,-796.875,-42.96875,0.0
1734581134.6427262,-29.296875,-1000.0,-784.66796875,-39.55078125,0.0
1734581134.6466324,-30.2734375,-1000.0,-755.37109375,-38.0859375,0.0
1734581134.6505387,-29.296875,-1000.0,-743.1640625,-51.7578125,0.0
1734581134.6544447,-33.203125,-1000.0,-889.6484375,-43.45703125,0.0
1734581134.658351,-36.62109375,-1000.0,-920.41015625,-27.83203125,0.0
1734581134.6622572,-24.90234375,-1000.0,-804.6875,-31.73828125,0.0
1734581134.6661634,-21.484375,-1000.0,-788.0859375,-40.52734375,0.0
1734581134.6700697,-29.78515625,-1000.0,-866.2109375,-36.62109375,0.0
1734581134.673976,-34.1796875,-1000.0,-852.05078125,-28.3203125,0.0
1734581134.677882,-35.15625,-1000.0,-738.28125,-36.62109375,0.0
1734581134.6817882,-31.25,-1000.0,-786.62109375,-32.71484375,0.0
1734581134.6856945,-24.4140625,-1000.0,-790.52734375,-33.203125,0.0
1734581134.6892958,-20.5078125,-1000.0,-750.0,-34.66796875,0.0
1734581134.693202,-28.80859375,-1000.0,-752.44140625,-34.1796875,0.0
1734581134.6971083,-22.4609375,-1000.0,-817.3828125,-23.4375,0.0
1734581134.7010143,-21.97265625,-1000.0,-833.49609375,-27.34375,0.0
1734581134.7049205,-27.34375,-1000.0,-797.8515625,-37.109375,0.0
1734581134.7088268,-8.30078125,-1000.0,-812.01171875,-21.97265625,0.0
1734581134.712733,-11.23046875,-1000.0,-881.8359375,-17.08984375,0.0
1734581134.7166393,-27.34375,-1000.0,-906.25,-19.53125,0.0
1734581134.7205455,-21.484375,-1000.0,-755.37109375,-22.4609375,0.0
1734581134.7244518,-18.06640625,-1000.0,-733.3984375,-22.94921875,0.0
1734581134.7283578,-20.01953125,-1000.0,-795.41015625,-25.390625,0.0
1734581134.732264,-20.01953125,-1000.0,-812.5,-21.97265625,0.0
1734581134.7357855,-15.625,-1000.0,-756.34765625,-20.99609375,0.0
1734581134.7396917,-4.8828125,-1000.0,-775.87890625,-14.6484375,0.0
1734581134.743598,-4.8828125,-1000.0,-807.6171875,-13.18359375,0.0
1734581134.7475042,-12.6953125,-1000.0,-761.71875,-24.4140625,0.0
1734581134.7514105,-29.78515625,-1000.0,-775.390625,-21.97265625,0.0
1734581134.7553165,-25.87890625,-1000.0,-828.61328125,-21.97265625,0.0
1734581134.7592227,-21.484375,-1000.0,-903.80859375,-11.23046875,0.0
1734581134.763129,-27.34375,-1000.0,-872.55859375,-7.8125,0.0
1734581134.7670352,-14.6484375,-1000.0,-749.0234375,-13.18359375,0.0
1734581134.7709415,-26.85546875,-1000.0,-789.55078125,-16.6015625,0.0
1734581134.7748477,-32.2265625,-1000.0,-815.91796875,-26.85546875,0.0
1734581134.7787538,-16.11328125,-1000.0,-786.1328125,-25.390625,0.0
1734581134.782712,-29.78515625,-1000.0,-761.71875,-22.94921875,0.0
1734581134.7866182,-30.2734375,-1000.0,-824.21875,-20.01953125,0.0
1734581134.7905245,-18.06640625,-1000.0,-843.26171875,-11.23046875,0.0
1734581134.7944307,-20.99609375,-1000.0,-783.203125,-14.6484375,0.0
1734581134.798337,-23.92578125,-1000.0,-802.734375,-14.16015625,0.0
1734581134.802243,-22.4609375,-1000.0,-891.6015625,-11.71875,0.0
1734581134.8061492,-24.4140625,-1000.0,-903.80859375,-20.01953125,0.0
1734581134.8100555,-27.83203125,-1000.0,-764.16015625,-24.90234375,0.0
1734581134.8139617,-29.296875,-1000.0,-744.140625,-19.53125,0.0
1734581134.817868,-26.3671875,-1000.0,-847.16796875,-12.6953125,0.0
1734581134.8217742,-21.484375,-1000.0,-889.16015625,-10.25390625,0.0
1734581134.8256803,-17.578125,-1000.0,-763.671875,-19.53125,0.0
1734581134.829599,-20.01953125,-1000.0,-756.8359375,-20.5078125,0.0
1734581134.8335052,-33.69140625,-1000.0,-794.43359375,-10.7421875,0.0
1734581134.8374114,-32.2265625,-1000.0,-763.671875,-14.16015625,0.0
1734581134.8413174,-20.01953125,-1000.0,-729.4921875,-4.39453125,0.0
1734581134.8452237,-6.34765625,-1000.0,-757.32421875,4.39453125,0.0
1734581134.84913,-4.8828125,-1000.0,-844.7265625,-6.8359375,0.0
1734581134.8530362,-21.484375,-1000.0,-811.5234375,-11.23046875,0.0
1734581134.8569424,-25.390625,-1000.0,-745.60546875,-11.23046875,0.0
1734581134.8608487,-21.97265625,-1000.0,-762.20703125,-20.99609375,0.0
1734581134.8647547,-32.71484375,-1000.0,-834.9609375,-14.6484375,0.0
1734581134.868661,-23.4375,-1000.0,-798.33984375,-8.30078125,0.0
1734581134.8725672,-17.578125,-1000.0,-709.47265625,-16.6015625,0.0
1734581134.8764272,-19.53125,-1000.0,-767.578125,-17.578125,0.0
1734581134.8803334,-5.859375,-1000.0,-804.19921875,-17.08984375,0.0
1734581134.8842397,-2.44140625,-1000.0,-741.69921875,-11.71875,0.0
1734581134.888146,-12.6953125,-1000.0,-733.88671875,-13.18359375,0.0
1734581134.8920522,-17.08984375,-1000.0,-838.8671875,-2.44140625,0.0
1734581134.8959582,-10.25390625,-1000.0,-854.98046875,0.0,0.0
1734581134.8998644,-11.71875,-1000.0,-791.015625,-17.578125,0.0
1734581134.9037707,-6.34765625,-1000.0,-772.4609375,-20.99609375,0.0
1734581134.907677,-4.39453125,-1000.0,-843.26171875,-14.6484375,0.0
1734581134.9115832,-10.25390625,-1000.0,-861.328125,-7.8125,0.0
1734581134.9154894,-0.9765625,-1000.0,-690.91796875,-7.8125,0.0
1734581134.9193954,-8.7890625,-1000.0,-715.8203125,-13.671875,0.0
1734581134.9231746,-12.20703125,-1000.0,-752.9296875,-22.94921875,0.0
1734581134.9270809,-1.46484375,-1000.0,-701.171875,-14.6484375,0.0
1734581134.9309871,-12.20703125,-1000.0,-679.19921875,-13.671875,0.0
1734581134.9348931,-16.11328125,-1000.0,-712.890625,-17.578125,0.0
1734581134.9387994,-9.27734375,-1000.0,-778.3203125,-11.71875,0.0
1734581134.9427056,-7.8125,-1000.0,-787.59765625,-19.04296875,0.0
1734581134.946612,-0.9765625,-1000.0,-724.609375,-12.6953125,0.0
1734581134.9505181,16.11328125,-1000.0,-717.28515625,2.9296875,0.0
1734581134.9544244,-2.9296875,-1000.0,-764.16015625,-2.9296875,0.0
1734581134.9583304,-6.34765625,-1000.0,-699.70703125,-5.859375,0.0
1734581134.9622366,10.25390625,-1000.0,-660.15625,-3.90625,0.0
1734581134.966143,-3.90625,-1000.0,-711.9140625,-14.6484375,0.0
1734581134.9698942,0.0,-1000.0,-752.9296875,-11.23046875,0.0
1734581134.9738004,0.0,-1000.0,-667.48046875,-12.20703125,0.0
1734581134.9777064,0.0,-1000.0,-640.13671875,-10.25390625,0.0
1734581134.9816127,0.0,-1000.0,-737.79296875,3.41796875,0.0
1734581134.985519,0.0,-1000.0,-795.8984375,-3.41796875,0.0
1734581134.9894252,0.0,-1000.0,-745.60546875,-20.01953125,0.0
1734581134.9933314,0.0,-1000.0,-699.21875,-11.71875,0.0
1734581134.9972377,0.0,-1000.0,-783.203125,-4.39453125,0.0
1734581135.0011437,0.0,-1000.0,-847.65625,-10.7421875,0.0
1734581135.00505,0.0,-1000.0,-644.53125,-15.625,0.0
1734581135.0089562,0.0,-1000.0,-661.62109375,-8.7890625,0.0
1734581135.0128624,0.0,-1000.0,-731.93359375,-8.7890625,0.0
1734581135.017073,-3.90625,-1000.0,-666.015625,-4.39453125,0.0
1734581135.0209792,-10.25390625,-1000.0,-634.27734375,-4.39453125,0.0
1734581135.0248852,-2.44140625,-1000.0,-662.109375,-19.04296875,0.0
1734581135.0287914,-3.90625,-1000.0,-716.796875,-12.20703125,0.0
1734581135.0326977,-1.46484375,-1000.0,-690.4296875,-7.32421875,0.0
1734581135.036604,2.9296875,-1000.0,-723.6328125,-4.8828125,0.0
1734581135.0405102,6.34765625,-1000.0,-694.3359375,6.34765625,0.0
1734581135.0444164,15.13671875,-1000.0,-786.62109375,10.7421875,0.0
1734581135.0483224,8.7890625,-1000.0,-763.671875,-6.8359375,0.0
1734581135.0522287,0.48828125,-1000.0,-587.890625,-6.8359375,0.0
1734581135.056135,3.41796875,-1000.0,-657.2265625,8.30078125,0.0
1734581135.0600412,-1.46484375,-1000.0,-680.6640625,1.953125,0.0
1734581135.0636494,12.20703125,-1000.0,-618.65234375,3.41796875,0.0
1734581135.0675557,22.94921875,-1000.0,-630.37109375,2.9296875,0.0
1734581135.071462,0.0,-1000.0,-728.02734375,-2.44140625,0.0
1734581135.0753682,2.44140625,-1000.0,-723.6328125,1.46484375,0.0
1734581135.0792742,10.7421875,-1000.0,-665.0390625,5.859375,0.0
1734581135.0831804,9.27734375,-1000.0,-665.52734375,9.27734375,0.0
1734581135.0870867,15.13671875,-1000.0,-775.390625,9.765625,0.0
1734581135.090993,3.41796875,-1000.0,-772.94921875,2.44140625,0.0
1734581135.0948992,1.46484375,-1000.0,-601.07421875,12.6953125,0.0
1734581135.0988054,14.16015625,-1000.0,-561.03515625,11.71875,0.0
1734581135.1027114,12.20703125,-1000.0,-713.37890625,4.8828125,0.0
1734581135.1066177,6.8359375,-1000.0,-777.83203125,11.23046875,0.0
1734581135.1101635,0.0,-1000.0,-569.3359375,12.6953125,0.0
1734581135.1140697,0.0,-1000.0,-589.84375,20.01953125,0.0
1734581135.117976,0.0,-1000.0,-635.7421875,13.18359375,0.0
1734581135.121882,0.0,-1000.0,-576.171875,9.27734375,0.0
1734581135.1257882,0.0,-1000.0,-588.8671875,16.11328125,0.0
1734581135.1296945,0.0,-1000.0,-640.625,17.08984375,0.0
1734581135.1336007,0.0,-1000.0,-773.92578125,21.484375,0.0
1734581135.137507,0.0,-1000.0,-729.4921875,19.53125,0.0
1734581135.1414132,0.0,-1000.0,-531.25,16.6015625,0.0
1734581135.1453192,0.0,-1000.0,-571.77734375,15.13671875,0.0
1734581135.1492255,0.0,-1000.0,-603.515625,19.53125,0.0
1734581135.1531317,0.0,-1000.0,-584.47265625,17.578125,0.0
1734581135.1566248,30.76171875,-1000.0,-513.18359375,9.765625,0.0
1734581135.160531,9.765625,-1000.0,-578.61328125,10.7421875,0.0
1734581135.1644373,8.7890625,-1000.0,-602.5390625,9.27734375,0.0
1734581135.1683435,16.6015625,-1000.0,-540.52734375,17.578125,0.0
1734581135.1722496,19.53125,-1000.0,-571.2890625,22.4609375,0.0
1734581135.1761558,11.71875,-1000.0,-705.078125,14.16015625,0.0
1734581135.180062,8.7890625,-999.0234375,-720.703125,20.01953125,0.0
1734581135.1839683,19.04296875,-997.55859375,-497.55859375,18.5546875,0.0
1734581135.1878746,16.6015625,-1000.0,-514.16015625,13.671875,0.0
1734581135.1917808,12.6953125,-1000.0,-653.3203125,11.23046875,0.0
1734581135.1956868,9.765625,-999.51171875,-656.25,18.06640625,0.0
1734581135.199593,6.8359375,-998.046875,-459.9609375,8.30078125,0.0
1734581135.2036283,8.7890625,-1000.0,-472.65625,-10.7421875,0.0
1734581135.2075343,6.8359375,-1000.0,-561.03515625,-17.08984375,0.0
1734581135.2114406,5.37109375,-999.51171875,-505.859375,-21.97265625,0.0
1734581135.2153468,4.39453125,-997.0703125,-445.80078125,-20.99609375,0.0
1734581135.219253,11.71875,-999.0234375,-503.41796875,-15.625,0.0
1734581135.2231593,4.8828125,-1000.0,-604.4921875,-14.16015625,0.0
1734581135.2270653,-12.20703125,-1000.0,-542.96875,-22.4609375,0.0
1734581135.2309716,-14.16015625,-999.51171875,-448.2421875,-26.3671875,0.0
1734581135.2348778,-20.99609375,-1000.0,-489.2578125,-28.3203125,0.0
1734581135.238784,-20.01953125,-999.51171875,-555.6640625,-20.01953125,0.0
1734581135.2426903,-6.8359375,-998.046875,-463.37890625,-10.25390625,0.0
1734581135.2465963,-13.671875,-999.0234375,-470.21484375,-27.83203125,0.0
1734581135.2510037,-31.73828125,-1000.0,-551.7578125,-52.24609375,0.0
1734581135.25491,-46.875,-995.1171875,-505.859375,-66.40625,0.0
1734581135.2588162,-60.05859375,-974.609375,-437.5,-64.94140625,0.0
1734581135.2627225,-65.4296875,-981.93359375,-410.64453125,-70.80078125,0.0
1734581135.2666287,-65.4296875,-1000.0,-513.18359375,-75.68359375,0.0
1734581135.2705348,-67.3828125,-999.0234375,-588.8671875,-77.1484375,0.0
1734581135.274441,-70.80078125,-1000.0,-533.203125,-84.47265625,0.0
1734581135.2783473,-70.80078125,-983.88671875,-401.85546875,-87.890625,0.0
1734581135.2822535,-67.3828125,-978.02734375,-541.50390625,-89.35546875,0.0
1734581135.2861598,-81.0546875,-1000.0,-670.41015625,-87.40234375,0.0
1734581135.2900658,-99.609375,-924.31640625,-378.90625,-92.28515625,0.0
1734581135.293972,-90.8203125,-903.80859375,-382.32421875,-96.6796875,0.0
1734581135.298293,0.0,-964.35546875,-463.37890625,0.0,0.0
1734581135.3021994,0.0,-946.77734375,-410.15625,0.0,0.0
1734581135.3061054,0.0,-971.19140625,-410.64453125,0.0,0.0
1734581135.3100116,0.0,-992.67578125,-449.21875,0.0,0.0
1734581135.3139179,0.0,-992.1875,-494.62890625,0.0,0.0
1734581135.3178241,0.0,-1000.0,-492.67578125,0.0,0.0
1734581135.3217304,0.0,-978.02734375,-392.578125,0.0,0.0
1734581135.3256364,0.0,-962.40234375,-387.6953125,0.0,0.0
1734581135.3295426,0.0,-985.83984375,-453.61328125,0.0,0.0
1734581135.333449,0.0,-929.19921875,-406.25,0.0,0.0
1734581135.3373551,0.0,-873.046875,-356.93359375,0.0,0.0
1734581135.3412614,0.0,-931.15234375,-441.89453125,0.0,0.0
1734581135.3440151,-82.51953125,-1000.0,-559.5703125,-4.8828125,0.0
1734581135.3479214,-88.37890625,-948.2421875,-433.59375,4.39453125,0.0
1734581135.3518276,-91.796875,-836.42578125,-354.00390625,8.7890625,0.0
1734581135.3557339,-78.61328125,-895.01953125,-463.37890625,22.4609375,0.0
1734581135.3596401,-69.82421875,-1000.0,-548.33984375,38.0859375,0.0
1734581135.3635461,-63.96484375,-999.0234375,-476.5625,62.5,0.0
1734581135.3674524,-48.828125,-990.72265625,-409.66796875,85.9375,0.0
1734581135.3713586,-45.41015625,-1000.0,-545.41015625,73.73046875,0.0
1734581135.375265,-46.875,-932.6171875,-557.12890625,72.265625,0.0
1734581135.3791711,-27.83203125,-815.91796875,-354.98046875,90.8203125,0.0
1734581135.3830771,-10.25390625,-802.734375,-333.984375,80.56640625,0.0
1734581135.3869834,-9.27734375,-908.69140625,-538.0859375,90.8203125,0.0
1734581135.3906848,126.953125,-959.47265625,-594.23828125,103.515625,0.0
1734581135.394591,128.90625,-757.8125,-327.1484375,88.8671875,0.0
1734581135.3984973,128.90625,-740.234375,-392.08984375,90.8203125,0.0
1734581135.4024036,137.20703125,-893.06640625,-438.4765625,108.3984375,0.0
1734581135.4063098,149.4140625,-867.1875,-385.25390625,107.91015625,0.0
1734581135.4102159,148.4375,-933.59375,-444.3359375,103.515625,0.0
1734581135.414122,144.53125,-1000.0,-429.19921875,103.02734375,0.0
1734581135.4180284,151.85546875,-984.86328125,-571.77734375,117.1875,0.0
1734581135.4219346,148.4375,-1000.0,-598.14453125,114.74609375,0.0
1734581135.4258409,130.859375,-900.390625,-375.48828125,104.98046875,0.0
1734581135.4297469,128.41796875,-827.63671875,-388.18359375,108.88671875,0.0
1734581135.433653,137.6953125,-915.0390625,-421.875,103.02734375,0.0
1734581135.4373085,134.765625,-753.90625,-348.14453125,101.5625,0.0
1734581135.4412148,130.859375,-629.8828125,-303.7109375,104.98046875,0.0
1734581135.445121,136.23046875,-783.69140625,-409.1796875,107.421875,0.0
1734581135.4490273,130.859375,-928.22265625,-501.953125,104.98046875,0.0
1734581135.4529335,127.9296875,-934.5703125,-447.75390625,104.98046875,0.0
1734581135.4568396,112.79296875,-997.0703125,-401.3671875,104.00390625,0.0
1734581135.4607458,104.4921875,-1000.0,-561.5234375,98.14453125,0.0
1734581135.464652,107.91015625,-978.515625,-624.0234375,97.65625,0.0
1734581135.4685583,111.81640625,-760.25390625,-335.9375,95.703125,0.0
1734581135.4724646,112.79296875,-591.30859375,-330.56640625,84.9609375,0.0
1734581135.4763706,90.8203125,-772.4609375,-372.0703125,78.125,0.0
1734581135.4802768,83.49609375,-920.41015625,-394.53125,75.68359375,0.0
1734581135.4849122,89.84375,-912.109375,-402.34375,71.2890625,0.0
1734581135.4888184,92.28515625,-773.4375,-352.5390625,74.21875,0.0
1734581135.4927247,84.47265625,-816.40625,-391.11328125,77.63671875,0.0
1734581135.496631,59.08203125,-761.71875,-338.8671875,59.08203125,0.0
1734581135.5005372,46.875,-666.9921875,-357.91015625,30.2734375,0.0
1734581135.5044432,60.546875,-917.48046875,-415.0390625,32.2265625,0.0
1734581135.5083494,47.8515625,-1000.0,-580.56640625,31.73828125,0.0
1734581135.5122557,12.6953125,-888.18359375,-546.38671875,14.16015625,0.0
1734581135.516162,-15.13671875,-610.83984375,-292.96875,-24.90234375,0.0
1734581135.5200682,-24.4140625,-733.88671875,-345.703125,-46.38671875,0.0
1734581135.5239744,-13.671875,-894.53125,-386.71875,-44.43359375,0.0
1734581135.5278804,-25.87890625,-683.10546875,-327.63671875,-55.17578125,0.0
1734581135.5313818,-45.41015625,-555.6640625,-295.41015625,-70.80078125,0.0
1734581135.535288,-63.96484375,-734.375,-353.02734375,-80.56640625,0.0
1734581135.5391943,-84.9609375,-939.453125,-420.8984375,-92.7734375,0.0
1734581135.5431006,-91.30859375,-911.1328125,-393.06640625,-102.5390625,0.0
1734581135.5470066,-88.8671875,-917.48046875,-313.96484375,-109.86328125,0.0
1734581135.5509129,-109.86328125,-1000.0,-496.58203125,-113.28125,0.0
1734581135.554819,-119.62890625,-973.14453125,-563.96484375,-106.93359375,0.0
1734581135.5587254,-106.93359375,-755.859375,-296.38671875,-118.1640625,0.0
1734581135.5626316,-108.88671875,-555.17578125,-255.859375,-120.1171875,0.0
1734581135.5665376,-114.74609375,-760.7421875,-404.296875,-104.4921875,0.0
1734581135.5704439,-107.421875,-925.78125,-461.42578125,-99.12109375,0.0
1734581135.57435,-88.8671875,-742.67578125,-325.68359375,-87.40234375,0.0
1734581135.5783293,-78.125,-605.46875,-240.72265625,-71.2890625,0.0
1734581135.5822356,-82.51953125,-847.16796875,-465.33203125,-70.3125,0.0
1734581135.5861416,-78.125,-921.875,-536.62109375,-69.3359375,0.0
1734581135.5900478,-54.19921875,-559.08203125,-234.86328125,-42.48046875,0.0
1734581135.593954,-34.66796875,-558.59375,-285.15625,-17.578125,0.0
1734581135.5978603,-32.71484375,-845.21484375,-401.85546875,-18.06640625,0.0
1734581135.6017666,-16.6015625,-999.51171875,-356.4453125,-19.53125,0.0
1734581135.6056726,18.5546875,-813.4765625,-277.34375,-12.6953125,0.0
1734581135.6095788,17.578125,-607.91015625,-269.53125,6.34765625,0.0
1734581135.613485,8.30078125,-838.8671875,-366.69921875,18.06640625,0.0
1734581135.6173913,22.94921875,-768.5546875,-260.25390625,17.08984375,0.0
1734581135.6212976,27.83203125,-438.4765625,-147.94921875,19.53125,0.0
1734581135.6252122,0.0,-545.41015625,-237.3046875,28.3203125,0.0
1734581135.6291184,0.0,-770.5078125,-291.015625,39.55078125,0.0
1734581135.6330245,0.0,-559.08203125,-192.3828125,46.875,0.0
1734581135.6369307,0.0,-444.82421875,-137.6953125,51.26953125,0.0
1734581135.640837,0.0,-739.2578125,-277.34375,60.546875,0.0
1734581135.6447432,0.0,-996.58203125,-391.6015625,72.265625,0.0
1734581135.6486495,0.0,-957.03125,-303.7109375,72.75390625,0.0
1734581135.6525555,0.0,-593.26171875,-107.421875,70.3125,0.0
1734581135.6564617,0.0,-627.9296875,-251.46484375,68.84765625,0.0
1734581135.660368,0.0,-1000.0,-500.48828125,73.73046875,0.0
1734581135.6642742,0.0,-599.609375,-78.61328125,62.98828125,0.0
1734581135.6681805,0.0,-251.46484375,91.30859375,54.19921875,0.0
1734581135.672023,58.10546875,-642.08984375,-155.76171875,62.01171875,0.0
1734581135.6759293,72.75390625,-734.375,-121.09375,79.1015625,0.0
1734581135.6798356,64.94140625,-339.84375,96.6796875,75.68359375,0.0
1734581135.6837418,50.29296875,-262.6953125,70.3125,56.15234375,0.0
1734581135.6876478,51.26953125,-628.41796875,-113.76953125,54.6875,0.0
1734581135.691554,67.87109375,-934.5703125,-268.06640625,70.3125,0.0
1734581135.6954603,74.70703125,-712.890625,-97.16796875,68.84765625,0.0
1734581135.6993666,72.265625,-415.0390625,92.28515625,73.2421875,0.0
1734581135.7032728,66.89453125,-770.5078125,-265.13671875,78.61328125,0.0
1734581135.7071788,58.59375,-795.41015625,-263.18359375,72.75390625,0.0
1734581135.711085,60.546875,-231.93359375,142.578125,69.82421875,0.0
1734581135.7149913,61.03515625,-352.5390625,38.0859375,68.359375,0.0
1734581135.7192948,69.3359375,-795.8984375,-145.99609375,62.5,0.0
1734581135.7232008,71.2890625,-533.203125,4.8828125,60.546875,0.0
1734581135.727107,67.3828125,-129.39453125,172.36328125,63.4765625,0.0
1734581135.7310133,72.265625,-355.95703125,68.84765625,71.77734375,0.0
1734581135.7349195,68.359375,-802.734375,-125.9765625,63.4765625,0.0
1734581135.7388258,77.63671875,-814.94140625,-58.10546875,66.40625,0.0
1734581135.7427318,82.51953125,-617.67578125,97.16796875,72.75390625,0.0
1734581135.746638,68.359375,-746.58203125,-53.22265625,68.359375,0.0
1734581135.7505443,58.59375,-862.3046875,-212.40234375,65.91796875,0.0
1734581135.7544506,59.08203125,-384.765625,96.6796875,53.22265625,0.0
1734581135.7583568,58.10546875,-94.23828125,189.453125,60.05859375,0.0
1734581135.762263,72.265625,-379.8828125,51.7578125,74.70703125,0.0
1734581135.7659316,81.0546875,-399.90234375,108.3984375,69.82421875,0.0
1734581135.7698379,56.15234375,-63.4765625,208.984375,53.22265625,0.0
1734581135.773744,40.0390625,-47.36328125,186.5234375,53.22265625,0.0
1734581135.7776504,45.41015625,-470.703125,121.09375,53.7109375,0.0
1734581135.7815564,47.36328125,-576.171875,93.75,45.8984375,0.0
1734581135.7854626,28.80859375,-480.46875,106.93359375,34.1796875,0.0
1734581135.7893689,22.4609375,-575.1953125,111.81640625,30.76171875,0.0
1734581135.793275,29.296875,-650.87890625,77.1484375,38.0859375,0.0
1734581135.7971814,29.78515625,-437.5,144.04296875,29.78515625,0.0
1734581135.8010874,35.15625,0.0,246.58203125,34.1796875,0.0
1734581135.8049936,27.83203125,-31.73828125,206.0546875,43.9453125,0.0
1734581135.8088999,24.4140625,-651.3671875,-74.21875,43.45703125,0.0
1734581135.8125124,22.94921875,-540.52734375,55.6640625,46.875,0.0
1734581135.8164186,38.0859375,73.2421875,301.7578125,37.59765625,0.0
1734581135.820325,35.64453125,-133.7890625,174.31640625,31.25,0.0
1734581135.8242311,7.8125,-292.96875,206.0546875,8.30078125,0.0
1734581135.8281374,-1.46484375,-236.328125,214.35546875,5.859375,0.0
1734581135.8320434,-8.30078125,-367.67578125,190.4296875,15.625,0.0
1734581135.8359497,-4.8828125,-609.86328125,94.7265625,10.25390625,0.0
1734581135.839856,-20.01953125,-846.19140625,-40.52734375,-2.9296875,0.0
1734581135.8437622,-24.90234375,-247.0703125,228.515625,-6.8359375,0.0
1734581135.8476684,-29.78515625,272.4609375,354.00390625,-23.92578125,0.0
1734581135.8515744,-51.7578125,-76.171875,184.08203125,-39.55078125,0.0
1734581135.8554807,-48.33984375,-168.45703125,221.6796875,-44.921875,0.0
1734581135.859052,-38.57421875,226.07421875,340.8203125,-43.45703125,0.0
1734581135.8629582,-38.0859375,269.53125,313.4765625,-42.48046875,0.0
1734581135.8668644,-55.6640625,-51.7578125,296.38671875,-45.8984375,0.0
1734581135.8707705,-62.98828125,-19.04296875,320.80078125,-39.0625,0.0
1734581135.8746767,-66.40625,146.97265625,302.24609375,-43.45703125,0.0
1734581135.878583,-76.171875,-56.15234375,283.69140625,-64.94140625,0.0
1734581135.8824892,-67.3828125,-640.625,104.00390625,-50.78125,0.0
1734581135.8863955,-48.828125,-604.98046875,137.6953125,-22.4609375,0.0
1734581135.8903015,-37.109375,290.52734375,409.66796875,-24.4140625,0.0
1734581135.8942077,-41.015625,259.765625,322.265625,-24.4140625,0.0
1734581135.898114,-33.69140625,-14.6484375,289.55078125,-15.625,0.0
1734581135.9020202,-22.4609375,240.72265625,377.9296875,-15.13671875,0.0
1734581135.9055598,-24.90234375,488.28125,401.85546875,-4.39453125,0.0
1734581135.909466,-25.87890625,248.046875,341.796875,8.7890625,0.0
1734581135.9133723,-20.5078125,-155.76171875,300.78125,-1.46484375,0.0
1734581135.9172785,-17.08984375,153.80859375,385.7421875,-18.06640625,0.0
1734581135.9211845,-23.92578125,243.1640625,383.7890625,-16.11328125,0.0
1734581135.9250908,-21.484375,-210.44921875,270.99609375,-3.41796875,0.0
1734581135.928997,-27.34375,-436.03515625,270.99609375,-4.8828125,0.0
1734581135.9329033,-27.34375,58.59375,410.15625,-12.20703125,0.0
1734581135.9368095,-12.20703125,553.7109375,443.84765625,-5.859375,0.0
1734581135.9407156,-1.953125,125.0,261.23046875,3.90625,0.0
1734581135.9446218,3.90625,-198.2421875,269.04296875,8.30078125,0.0
1734581135.948528,10.7421875,442.87109375,466.30859375,14.16015625,0.0
1734581135.9535797,6.8359375,548.33984375,0.0,11.71875,0.0
1734581135.9574857,1.953125,145.5078125,0.0,5.37109375,0.0
1734581135.961392,7.8125,235.83984375,0.0,16.6015625,0.0
1734581135.9652982,19.04296875,612.79296875,0.0,22.4609375,0.0
1734581135.9692044,17.08984375,636.23046875,0.0,25.390625,0.0
1734581135.9731107,10.7421875,119.62890625,0.0,15.625,0.0
1734581135.9770167,16.6015625,48.33984375,0.0,8.7890625,0.0
1734581135.980923,9.765625,591.30859375,0.0,18.06640625,0.0
1734581135.9848292,-14.6484375,650.390625,0.0,-20.5078125,0.0
1734581135.9887354,-20.01953125,-15.13671875,0.0,-37.109375,0.0
1734581135.9926417,-20.5078125,-48.828125,0.0,-13.18359375,0.0
1734581135.996548,-41.50390625,555.6640625,0.0,-47.36328125,0.0
1734581136.0000064,-63.96484375,568.84765625,436.03515625,-69.82421875,0.0
1734581136.0039124,-58.59375,431.640625,395.01953125,-48.33984375,0.0
1734581136.0078187,-73.73046875,666.50390625,424.31640625,-78.61328125,0.0
1734581136.011725,-103.02734375,804.6875,465.8203125,-118.1640625,0.0
1734581136.0156312,-93.75,424.8046875,448.2421875,-117.67578125,0.0
1734581136.0195374,-117.67578125,190.91796875,391.11328125,-140.13671875,0.0
1734581136.0234437,-154.78515625,248.046875,429.6875,-174.31640625,0.0
