timestamps,TP9,AF7,AF8,TP10,Right AUX
1734580753.7530315,127.44140625,245.1171875,182.12890625,135.25390625,0.0
1734580753.7569375,138.18359375,594.23828125,223.14453125,131.34765625,0.0
1734580753.7608435,159.1796875,531.25,137.6953125,142.578125,0.0
1734580753.7647493,155.76171875,343.26171875,143.06640625,151.3671875,0.0
1734580753.7686553,159.1796875,548.828125,179.19921875,142.08984375,0.0
1734580753.7725613,168.45703125,383.30078125,144.04296875,133.7890625,0.0
1734580753.776467,159.66796875,-31.25,-2.9296875,136.71875,0.0
1734580753.780373,148.4375,-401.85546875,-31.25,148.92578125,0.0
1734580753.784279,149.90234375,220.21484375,250.48828125,139.16015625,0.0
1734580753.788185,141.6015625,713.8671875,247.55859375,120.60546875,0.0
1734580753.792091,125.48828125,374.0234375,117.1875,140.13671875,0.0
1734580753.795997,129.39453125,377.44140625,134.765625,139.6484375,0.0
1734580753.7998488,125.9765625,669.921875,199.21875,127.9296875,0.0
1734580753.8037548,132.8125,676.7578125,170.41015625,135.25390625,0.0
1734580753.8076606,145.01953125,358.88671875,109.86328125,139.6484375,0.0
1734580753.8115666,135.7421875,133.30078125,89.84375,141.6015625,0.0
1734580753.8154726,139.16015625,283.69140625,111.328125,131.8359375,0.0
1734580753.8193784,144.53125,300.78125,135.25390625,127.9296875,0.0
1734580753.8232844,152.83203125,-445.80078125,-134.765625,153.3203125,0.0
1734580753.8271902,139.6484375,-572.265625,-89.35546875,162.59765625,0.0
1734580753.8310962,132.32421875,430.17578125,274.90234375,150.390625,0.0
1734580753.8350022,147.4609375,489.2578125,130.37109375,150.87890625,0.0
1734580753.838908,149.4140625,249.0234375,104.98046875,153.80859375,0.0
1734580753.842814,165.0390625,443.84765625,180.17578125,162.59765625,0.0
1734580753.8466504,150.87890625,604.00390625,192.3828125,162.59765625,0.0
1734580753.8505561,140.13671875,343.26171875,105.95703125,148.92578125,0.0
1734580753.8544621,140.625,5.37109375,47.36328125,145.5078125,0.0
1734580753.8583682,157.2265625,307.6171875,165.52734375,140.625,0.0
1734580753.862274,165.52734375,531.73828125,187.01171875,135.7421875,0.0
1734580753.86618,151.3671875,-2.44140625,-16.11328125,152.34375,0.0
1734580753.8700857,144.04296875,-771.484375,-198.2421875,150.87890625,0.0
1734580753.8739917,132.8125,-273.92578125,118.65234375,137.20703125,0.0
1734580753.8778977,124.51171875,460.44921875,258.30078125,137.20703125,0.0
1734580753.8818035,137.6953125,206.0546875,88.37890625,141.11328125,0.0
1734580753.8857095,138.671875,66.40625,107.421875,139.16015625,0.0
1734580753.8896155,117.67578125,348.6328125,203.61328125,136.23046875,0.0
1734580753.8935747,112.3046875,412.109375,158.203125,130.37109375,0.0
1734580753.8974805,109.375,101.07421875,102.05078125,131.34765625,0.0
1734580753.9013865,113.76953125,96.6796875,136.23046875,133.30078125,0.0
1734580753.9052923,116.2109375,342.28515625,188.4765625,123.046875,0.0
1734580753.9091983,121.58203125,243.65234375,119.62890625,124.51171875,0.0
1734580753.9131043,123.53515625,-178.22265625,-17.08984375,133.7890625,0.0
1734580753.91701,117.67578125,-382.8125,30.2734375,120.60546875,0.0
1734580753.920916,111.81640625,-89.35546875,188.96484375,108.3984375,0.0
1734580753.924822,125.9765625,177.734375,149.4140625,117.67578125,0.0
1734580753.9287279,124.51171875,-409.1796875,-77.63671875,133.30078125,0.0
1734580753.9326339,118.65234375,-361.81640625,75.1953125,142.578125,0.0
1734580753.93654,134.27734375,393.5546875,249.51171875,153.80859375,0.0
1734580753.9406295,135.7421875,248.046875,106.93359375,166.9921875,0.0
1734580753.9445355,156.73828125,-56.640625,71.2890625,152.34375,0.0
1734580753.9484415,174.31640625,111.328125,149.90234375,147.94921875,0.0
1734580753.9523473,154.296875,367.67578125,196.77734375,142.08984375,0.0
1734580753.9562533,134.765625,146.97265625,89.35546875,128.90625,0.0
1734580753.9601593,132.32421875,-314.453125,-34.66796875,127.9296875,0.0
1734580753.964065,142.08984375,-337.890625,85.44921875,131.34765625,0.0
1734580753.967971,141.11328125,116.69921875,221.6796875,123.53515625,0.0
1734580753.971877,131.8359375,-86.9140625,-45.41015625,121.58203125,0.0
1734580753.9757829,137.6953125,-651.85546875,-120.1171875,124.51171875,0.0
1734580753.979689,139.16015625,-9.765625,259.765625,110.83984375,0.0
1734580753.9835947,127.9296875,346.6796875,211.42578125,112.79296875,0.0
1734580753.9876728,122.55859375,-146.484375,79.58984375,115.234375,0.0
1734580753.9915788,118.65234375,-174.31640625,125.0,122.0703125,0.0
1734580753.9954846,130.859375,308.59375,209.9609375,123.046875,0.0
1734580753.9993906,135.7421875,325.1953125,144.04296875,129.8828125,0.0
1734580754.0032966,120.60546875,14.6484375,114.74609375,116.2109375,0.0
1734580754.0072024,127.9296875,-217.7734375,115.72265625,111.328125,0.0
1734580754.0111084,143.06640625,-163.57421875,123.046875,130.37109375,0.0
1734580754.0150144,149.4140625,-165.52734375,114.74609375,130.859375,0.0
1734580754.0189202,150.390625,-221.6796875,138.18359375,145.99609375,0.0
1734580754.0228262,144.04296875,33.203125,201.66015625,139.16015625,0.0
1734580754.026732,139.6484375,359.86328125,210.9375,125.48828125,0.0
1734580754.030638,141.6015625,329.58984375,164.0625,139.6484375,0.0
1734580754.0345447,149.4140625,-403.3203125,-46.38671875,145.5078125,0.0
1734580754.0384507,147.94921875,-283.203125,82.51953125,141.11328125,0.0
1734580754.0423565,148.92578125,494.140625,276.85546875,139.6484375,0.0
1734580754.0462625,151.85546875,169.921875,63.4765625,140.13671875,0.0
1734580754.0501685,139.16015625,-221.19140625,-40.52734375,131.34765625,0.0
1734580754.0540743,141.6015625,-123.046875,97.16796875,134.27734375,0.0
1734580754.0579803,149.90234375,180.17578125,208.0078125,138.671875,0.0
1734580754.0618863,148.4375,40.52734375,12.20703125,139.6484375,0.0
1734580754.065792,139.6484375,-196.2890625,-60.546875,134.27734375,0.0
1734580754.069698,133.30078125,344.7265625,191.89453125,122.0703125,0.0
1734580754.073604,134.765625,618.1640625,246.09375,131.34765625,0.0
1734580754.0775099,129.39453125,-50.78125,-64.94140625,135.7421875,0.0
1734580754.0813916,135.7421875,-596.19140625,-156.25,127.9296875,0.0
1734580754.0852976,118.65234375,209.9609375,243.65234375,106.93359375,0.0
1734580754.0892034,92.28515625,468.75,177.734375,108.3984375,0.0
1734580754.0931094,126.953125,180.6640625,144.04296875,120.1171875,0.0
1734580754.0970154,133.7890625,267.08984375,165.0390625,120.1171875,0.0
1734580754.1009212,119.62890625,198.73046875,86.42578125,120.1171875,0.0
1734580754.1048272,142.578125,28.80859375,108.88671875,123.046875,0.0
1734580754.1087332,141.6015625,-498.046875,-140.625,134.765625,0.0
1734580754.112639,145.5078125,-550.78125,-96.6796875,139.16015625,0.0
1734580754.116545,132.8125,441.89453125,273.4375,132.32421875,0.0
1734580754.120451,124.51171875,480.95703125,141.6015625,125.9765625,0.0
1734580754.1243567,123.046875,171.38671875,89.35546875,124.0234375,0.0
1734580754.1282294,0.0,374.51171875,160.15625,125.48828125,0.0
1734580754.1321354,0.0,645.99609375,180.17578125,128.90625,0.0
1734580754.1360412,0.0,331.54296875,22.94921875,130.37109375,0.0
1734580754.1399472,0.0,-43.45703125,-22.94921875,144.04296875,0.0
1734580754.1438532,0.0,252.9296875,130.859375,148.4375,0.0
1734580754.147759,0.0,183.10546875,95.21484375,143.06640625,0.0
1734580754.151665,0.0,-223.6328125,-66.40625,135.25390625,0.0
1734580754.155571,0.0,-548.33984375,-153.80859375,145.5078125,0.0
1734580754.1594768,0.0,79.58984375,155.76171875,150.87890625,0.0
1734580754.1633828,0.0,612.79296875,225.5859375,126.953125,0.0
1734580754.1672888,0.0,-68.84765625,-71.77734375,122.0703125,0.0
1734580754.1711946,0.0,-177.734375,-67.87109375,130.37109375,0.0
1734580754.1750505,132.8125,534.66796875,201.171875,134.27734375,0.0
1734580754.1789565,129.39453125,572.75390625,134.765625,135.7421875,0.0
1734580754.1828625,131.34765625,197.265625,1.46484375,130.37109375,0.0
1734580754.1867683,123.046875,270.99609375,62.98828125,123.046875,0.0
1734580754.1906743,117.67578125,496.09375,104.4921875,131.34765625,0.0
1734580754.1945803,127.44140625,281.73828125,52.24609375,135.7421875,0.0
1734580754.198486,130.37109375,-473.14453125,-218.26171875,146.484375,0.0
1734580754.202392,127.9296875,-627.44140625,-167.48046875,149.4140625,0.0
1734580754.2062979,143.5546875,387.20703125,248.046875,141.6015625,0.0
1734580754.210204,157.2265625,519.53125,131.34765625,139.6484375,0.0
1734580754.21411,147.4609375,236.328125,59.5703125,143.06640625,0.0
1734580754.2180157,137.6953125,456.0546875,165.0390625,147.94921875,0.0
1734580754.2218509,0.0,596.19140625,153.3203125,130.37109375,0.0
1734580754.225757,0.0,203.61328125,37.59765625,140.625,0.0
1734580754.2296627,0.0,71.77734375,45.41015625,145.01953125,0.0
1734580754.2335687,0.0,450.68359375,161.62109375,137.20703125,0.0
1734580754.2374747,0.0,569.3359375,147.94921875,135.25390625,0.0
1734580754.2413805,0.0,-18.5546875,-92.28515625,133.7890625,0.0
1734580754.2452865,0.0,-436.5234375,-86.9140625,141.6015625,0.0
1734580754.2491925,0.0,230.95703125,215.33203125,131.8359375,0.0
1734580754.2530982,0.0,664.0625,211.9140625,141.6015625,0.0
1734580754.2570043,0.0,221.6796875,9.765625,146.484375,0.0
1734580754.2609103,0.0,42.96875,27.34375,135.7421875,0.0
1734580754.264816,0.0,506.34765625,204.58984375,119.140625,0.0
1734580754.2687783,115.72265625,643.06640625,170.41015625,110.83984375,0.0
1734580754.272684,104.00390625,99.12109375,10.7421875,119.140625,0.0
1734580754.27659,110.83984375,30.2734375,40.52734375,137.6953125,0.0
1734580754.2804961,122.0703125,501.953125,173.828125,127.44140625,0.0
1734580754.284402,127.44140625,230.46875,84.47265625,128.41796875,0.0
1734580754.288308,139.16015625,-190.91796875,-42.96875,143.06640625,0.0
1734580754.292214,155.76171875,-262.20703125,0.9765625,134.765625,0.0
1734580754.2961197,147.4609375,19.04296875,169.43359375,120.60546875,0.0
1734580754.3000257,121.09375,192.3828125,116.2109375,118.65234375,0.0
1734580754.3039315,114.74609375,-13.671875,34.1796875,125.0,0.0
1734580754.3078375,124.51171875,165.0390625,145.01953125,122.55859375,0.0
1734580754.3117435,130.859375,508.7890625,196.2890625,126.46484375,0.0
1734580754.316131,133.7890625,375.48828125,111.328125,131.34765625,0.0
1734580754.3200371,132.8125,-257.32421875,-59.08203125,122.0703125,0.0
1734580754.323943,122.0703125,-39.55078125,101.5625,123.046875,0.0
1734580754.327849,124.0234375,559.5703125,244.140625,129.39453125,0.0
1734580754.331755,130.859375,303.22265625,65.4296875,119.62890625,0.0
1734580754.3356607,118.65234375,-154.296875,-16.11328125,129.39453125,0.0
1734580754.3395667,108.3984375,8.7890625,127.44140625,126.46484375,0.0
1734580754.3434727,118.65234375,258.30078125,181.640625,109.375,0.0
1734580754.3473785,99.12109375,-181.640625,-94.23828125,107.91015625,0.0
1734580754.3512845,102.05078125,-537.59765625,-129.39453125,109.86328125,0.0
1734580754.3551905,109.86328125,173.33984375,222.65625,112.3046875,0.0
1734580754.3590963,104.98046875,573.73046875,195.80078125,98.14453125,0.0
1734580754.3631353,93.26171875,245.60546875,104.98046875,104.4921875,0.0
1734580754.3670413,81.54296875,296.875,110.83984375,110.83984375,0.0
1734580754.3709471,98.14453125,560.05859375,142.08984375,107.91015625,0.0
1734580754.3748531,104.98046875,574.70703125,119.62890625,109.375,0.0
1734580754.3787591,114.2578125,33.69140625,-78.125,104.4921875,0.0
1734580754.382665,118.65234375,-276.85546875,-78.125,110.83984375,0.0
1734580754.386571,119.140625,40.0390625,99.12109375,119.140625,0.0
1734580754.390477,109.375,-5.859375,70.3125,119.62890625,0.0
1734580754.3943827,116.2109375,-148.4375,21.484375,114.74609375,0.0
1734580754.3982887,122.55859375,201.66015625,129.8828125,114.74609375,0.0
1734580754.4021947,122.55859375,364.74609375,152.83203125,125.0,0.0
1734580754.4061005,129.39453125,44.921875,53.7109375,129.39453125,0.0
1734580754.4101436,126.46484375,-51.26953125,92.28515625,124.0234375,0.0
1734580754.4140496,126.953125,279.78515625,156.73828125,131.34765625,0.0
1734580754.4179554,132.32421875,575.1953125,197.265625,134.765625,0.0
1734580754.4218614,121.09375,243.1640625,53.7109375,134.27734375,0.0
1734580754.4257674,109.375,-111.328125,-47.8515625,131.34765625,0.0
1734580754.4296732,123.046875,-34.66796875,98.14453125,125.48828125,0.0
1734580754.4335792,108.3984375,117.1875,181.15234375,117.1875,0.0
1734580754.4374852,117.67578125,80.56640625,36.1328125,119.62890625,0.0
1734580754.441391,120.1171875,-877.44140625,-397.94921875,128.41796875,0.0
1734580754.445297,88.8671875,-646.97265625,-84.9609375,118.1640625,0.0
1734580754.449203,97.16796875,441.89453125,298.828125,103.515625,0.0
1734580754.453109,108.88671875,260.7421875,126.953125,108.88671875,0.0
1734580754.4569767,118.65234375,205.56640625,142.08984375,118.1640625,0.0
1734580754.4608824,128.41796875,378.41796875,163.57421875,118.65234375,0.0
1734580754.4647884,135.7421875,157.2265625,103.515625,120.60546875,0.0
1734580754.4686944,115.72265625,-104.4921875,23.4375,116.2109375,0.0
1734580754.4726002,94.23828125,41.50390625,67.3828125,112.3046875,0.0
1734580754.4765062,111.81640625,129.8828125,113.76953125,110.83984375,0.0
1734580754.4804122,119.62890625,-113.28125,41.50390625,105.46875,0.0
1734580754.484318,118.65234375,-187.98828125,50.78125,128.90625,0.0
1734580754.488224,118.65234375,96.19140625,144.04296875,125.48828125,0.0
1734580754.49213,118.1640625,498.53515625,204.58984375,107.421875,0.0
1734580754.4960358,120.60546875,418.45703125,108.3984375,115.234375,0.0
1734580754.4999418,117.1875,-429.6875,-144.53125,134.765625,0.0
1734580754.5041037,0.0,-325.1953125,23.4375,144.04296875,0.0
1734580754.5080097,0.0,523.4375,248.53515625,131.8359375,0.0
1734580754.5119154,0.0,284.1796875,75.68359375,121.58203125,0.0
1734580754.5158215,0.0,70.3125,37.59765625,109.86328125,0.0
1734580754.5197275,0.0,187.98828125,77.1484375,107.421875,0.0
1734580754.5236335,0.0,62.5,54.19921875,100.5859375,0.0
1734580754.5275393,0.0,-271.97265625,-70.3125,104.98046875,0.0
1734580754.5314453,0.0,-637.6953125,-191.40625,111.81640625,0.0
1734580754.5353513,0.0,-12.20703125,129.8828125,113.28125,0.0
1734580754.539257,0.0,448.2421875,193.359375,119.140625,0.0
1734580754.543163,0.0,63.4765625,-0.9765625,112.79296875,0.0
1734580754.547069,0.0,55.17578125,50.29296875,109.86328125,0.0
1734580754.5510652,98.6328125,418.45703125,0.0,0.0,0.0
1734580754.554971,94.7265625,421.875,0.0,0.0,0.0
1734580754.558877,95.703125,49.31640625,0.0,0.0,0.0
1734580754.562783,90.8203125,75.68359375,0.0,0.0,0.0
1734580754.5666888,104.00390625,313.96484375,0.0,0.0,0.0
1734580754.5705948,114.2578125,-25.87890625,0.0,0.0,0.0
1734580754.5745008,104.98046875,-473.6328125,0.0,0.0,0.0
1734580754.5784068,107.91015625,-421.875,0.0,0.0,0.0
1734580754.5823126,125.9765625,-37.59765625,0.0,0.0,0.0
1734580754.5862186,132.32421875,134.27734375,0.0,0.0,0.0
1734580754.5901246,106.93359375,-200.68359375,0.0,0.0,0.0
1734580754.5940304,107.421875,-179.6875,0.0,0.0,0.0
1734580754.5978568,126.46484375,292.48046875,212.40234375,118.1640625,0.0
1734580754.6017625,126.953125,190.91796875,87.890625,129.39453125,0.0
1734580754.6056685,132.32421875,-523.4375,-139.16015625,110.3515625,0.0
1734580754.6095746,128.90625,-280.2734375,62.98828125,99.12109375,0.0
1734580754.6134803,114.74609375,362.3046875,219.23828125,121.58203125,0.0
1734580754.6173863,120.1171875,-229.4921875,-48.33984375,125.0,0.0
1734580754.6212924,128.41796875,-474.12109375,-51.26953125,106.4453125,0.0
1734580754.6251981,114.74609375,145.01953125,178.22265625,99.12109375,0.0
1734580754.6291041,110.3515625,451.66015625,232.91015625,104.00390625,0.0
1734580754.6330101,121.09375,-49.31640625,-67.87109375,115.72265625,0.0
1734580754.636916,118.65234375,-700.1953125,-201.171875,117.67578125,0.0
1734580754.640822,119.62890625,-241.69921875,201.66015625,130.37109375,0.0
1734580754.644766,108.88671875,250.48828125,212.40234375,120.60546875,0.0
1734580754.648672,95.703125,103.02734375,157.2265625,105.46875,0.0
1734580754.652578,99.12109375,95.703125,147.94921875,95.21484375,0.0
1734580754.656484,107.91015625,327.1484375,152.83203125,101.07421875,0.0
1734580754.66039,126.953125,324.21875,138.671875,112.3046875,0.0
1734580754.664296,126.46484375,-109.86328125,-62.5,112.79296875,0.0
1734580754.6682017,114.74609375,-413.57421875,-57.6171875,116.2109375,0.0
1734580754.6721077,106.4453125,-162.109375,141.11328125,118.1640625,0.0
1734580754.6760137,98.14453125,140.13671875,162.59765625,118.65234375,0.0
1734580754.6799195,124.51171875,-435.05859375,-117.67578125,116.69921875,0.0
1734580754.6838255,120.60546875,-470.21484375,0.48828125,112.79296875,0.0
1734580754.6877315,111.328125,406.25,260.7421875,116.69921875,0.0
1734580754.6916647,0.0,290.0390625,123.53515625,115.234375,0.0
1734580754.6955707,0.0,-71.2890625,119.140625,110.83984375,0.0
1734580754.6994767,0.0,-68.84765625,133.7890625,102.05078125,0.0
1734580754.7033825,0.0,210.9375,162.109375,82.03125,0.0
1734580754.7072885,0.0,208.49609375,81.0546875,74.70703125,0.0
1734580754.7111945,0.0,-226.5625,-52.24609375,83.984375,0.0
1734580754.7151003,0.0,-152.34375,81.54296875,93.26171875,0.0
1734580754.7190063,0.0,303.22265625,222.16796875,96.19140625,0.0
1734580754.7229123,0.0,-24.90234375,-46.38671875,103.515625,0.0
1734580754.726818,0.0,-647.94921875,-167.48046875,111.81640625,0.0
1734580754.730724,0.0,10.25390625,204.1015625,106.93359375,0.0
1734580754.73463,0.0,380.37109375,198.2421875,90.33203125,0.0
1734580754.7385368,104.00390625,-0.9765625,93.26171875,91.796875,0.0
1734580754.7424426,101.07421875,79.1015625,133.30078125,108.88671875,0.0
1734580754.7463486,109.375,400.87890625,172.36328125,104.00390625,0.0
1734580754.7502546,121.09375,426.7578125,152.34375,100.09765625,0.0
1734580754.7541604,111.328125,-104.4921875,-39.55078125,112.3046875,0.0
1734580754.7580664,123.53515625,-402.83203125,-26.85546875,124.51171875,0.0
1734580754.7619724,120.1171875,-148.92578125,128.90625,114.74609375,0.0
1734580754.7658782,107.421875,-110.83984375,123.046875,103.515625,0.0
1734580754.7697842,118.65234375,-594.7265625,-109.86328125,123.046875,0.0
1734580754.7736902,130.37109375,-555.17578125,-29.296875,126.46484375,0.0
1734580754.7775962,127.9296875,316.40625,278.80859375,119.62890625,0.0
1734580754.781502,107.91015625,280.2734375,123.53515625,115.72265625,0.0
1734580754.7853944,98.6328125,-136.71875,92.28515625,115.234375,0.0
1734580754.7893002,88.8671875,165.52734375,190.4296875,109.375,0.0
1734580754.7932062,82.51953125,442.3828125,188.96484375,99.609375,0.0
1734580754.7971122,89.35546875,131.34765625,76.171875,105.46875,0.0
1734580754.8010182,88.37890625,-60.546875,-4.8828125,95.21484375,0.0
1734580754.804924,96.19140625,-118.1640625,54.19921875,82.03125,0.0
1734580754.80883,99.609375,-134.27734375,133.7890625,88.37890625,0.0
1734580754.812736,86.9140625,-283.69140625,-14.16015625,95.21484375,0.0
1734580754.8166418,83.0078125,-772.4609375,-185.05859375,94.7265625,0.0
1734580754.8205478,86.9140625,-233.3984375,144.53125,91.796875,0.0
1734580754.8244538,91.796875,431.640625,248.53515625,97.16796875,0.0
1734580754.8283596,95.21484375,160.64453125,102.5390625,86.9140625,0.0
1734580754.832235,86.9140625,76.171875,110.83984375,89.84375,0.0
1734580754.836141,92.28515625,373.046875,188.96484375,97.65625,0.0
1734580754.8400471,119.140625,431.15234375,164.55078125,97.65625,0.0
1734580754.843953,121.58203125,179.19921875,91.796875,106.4453125,0.0
1734580754.847859,108.3984375,134.765625,95.21484375,116.2109375,0.0
1734580754.851765,108.3984375,3.41796875,66.40625,102.05078125,0.0
1734580754.8556707,108.88671875,-107.421875,88.37890625,98.14453125,0.0
1734580754.8595767,121.09375,-553.7109375,-132.8125,124.0234375,0.0
1734580754.8634827,114.2578125,-524.4140625,-71.2890625,118.1640625,0.0
1734580754.8673887,106.4453125,392.578125,269.53125,103.02734375,0.0
1734580754.8712945,112.79296875,359.375,107.421875,104.4921875,0.0
1734580754.8752005,107.91015625,-147.4609375,17.578125,88.8671875,0.0
1734580754.879056,101.07421875,-48.828125,130.37109375,91.30859375,0.0
1734580754.882962,104.00390625,446.2890625,222.65625,92.28515625,0.0
1734580754.886868,107.421875,270.99609375,113.76953125,103.515625,0.0
1734580754.890774,110.3515625,22.94921875,81.0546875,108.3984375,0.0
1734580754.8946798,114.2578125,221.19140625,140.625,100.09765625,0.0
1734580754.8985858,116.2109375,102.05078125,109.375,95.21484375,0.0
1734580754.9024918,112.3046875,-266.6015625,-5.859375,92.7734375,0.0
1734580754.9063976,117.1875,-241.2109375,-29.78515625,95.21484375,0.0
1734580754.9103036,112.79296875,267.578125,175.29296875,92.28515625,0.0
1734580754.9142096,101.07421875,567.87109375,253.41796875,117.67578125,0.0
1734580754.9181154,126.46484375,20.99609375,-86.9140625,140.13671875,0.0
1734580754.9220214,125.48828125,-494.62890625,-191.89453125,139.16015625,0.0
1734580754.9258456,122.55859375,200.1953125,199.70703125,133.7890625,0.0
1734580754.9297516,138.671875,446.2890625,168.9453125,121.58203125,0.0
1734580754.9336576,149.4140625,-32.71484375,6.34765625,134.765625,0.0
1734580754.9375634,148.92578125,-108.88671875,62.01171875,141.6015625,0.0
1734580754.9414694,136.71875,307.12890625,167.96875,125.0,0.0
1734580754.9453754,149.4140625,167.96875,124.51171875,124.0234375,0.0
1734580754.9492812,147.4609375,-580.078125,-182.6171875,133.7890625,0.0
1734580754.9531872,138.18359375,-643.06640625,-152.83203125,136.23046875,0.0
1734580754.9570932,152.34375,345.21484375,287.59765625,117.67578125,0.0
1734580754.960999,141.6015625,453.61328125,145.5078125,104.4921875,0.0
1734580754.964905,111.81640625,171.38671875,92.7734375,98.6328125,0.0
1734580754.968811,102.05078125,338.8671875,180.17578125,98.6328125,0.0
1734580754.9726558,112.3046875,514.16015625,168.9453125,104.4921875,0.0
1734580754.9765618,127.44140625,326.66015625,101.5625,101.07421875,0.0
1734580754.9804676,113.76953125,136.23046875,81.0546875,102.5390625,0.0
1734580754.9843736,97.65625,378.90625,157.2265625,105.46875,0.0
1734580754.9882796,101.5625,529.78515625,169.43359375,84.9609375,0.0
1734580754.9921854,112.3046875,58.10546875,0.48828125,96.6796875,0.0
1734580754.9960914,129.8828125,-481.4453125,-71.77734375,118.1640625,0.0
1734580754.9999974,125.9765625,-51.26953125,140.13671875,109.375,0.0
1734580755.0039032,122.55859375,537.109375,242.67578125,114.74609375,0.0
1734580755.0078092,127.9296875,92.28515625,-38.0859375,123.046875,0.0
1734580755.0117152,136.71875,-355.95703125,-131.34765625,125.48828125,0.0
1734580755.015621,136.71875,205.078125,220.21484375,110.83984375,0.0
1734580755.019582,0.0,506.34765625,204.58984375,0.0,0.0
1734580755.023488,0.0,220.703125,125.48828125,0.0,0.0
1734580755.0273938,0.0,214.35546875,160.64453125,0.0,0.0
1734580755.0312998,0.0,479.00390625,184.5703125,0.0,0.0
1734580755.0352058,0.0,426.26953125,136.23046875,0.0,0.0
1734580755.0391116,0.0,-12.6953125,-18.06640625,0.0,0.0
1734580755.0430176,0.0,-245.1171875,7.8125,0.0,0.0
1734580755.0469236,0.0,31.25,187.5,0.0,0.0
1734580755.0508294,0.0,232.91015625,146.484375,0.0,0.0
1734580755.0547354,0.0,-299.31640625,-35.64453125,0.0,0.0
1734580755.0586414,0.0,-145.99609375,115.234375,0.0,0.0
1734580755.0625472,0.0,633.7890625,262.20703125,0.0,0.0
1734580755.0667794,106.4453125,493.65234375,145.5078125,99.609375,0.0
1734580755.0706854,105.95703125,213.37890625,110.3515625,111.81640625,0.0
1734580755.0745912,83.49609375,412.59765625,154.296875,85.9375,0.0
1734580755.0784972,79.58984375,626.953125,188.4765625,60.546875,0.0
1734580755.0824032,76.171875,369.62890625,70.3125,83.0078125,0.0
1734580755.086309,72.75390625,-109.86328125,-37.59765625,97.65625,0.0
1734580755.090215,105.46875,11.23046875,114.2578125,89.35546875,0.0
1734580755.094121,126.953125,522.94921875,237.3046875,98.6328125,0.0
1734580755.0980268,115.234375,205.078125,-12.6953125,114.2578125,0.0
1734580755.1019328,125.48828125,-488.76953125,-162.109375,118.1640625,0.0
1734580755.1058388,134.27734375,179.6875,198.73046875,120.60546875,0.0
1734580755.1097445,142.08984375,598.6328125,197.265625,118.1640625,0.0
1734580755.1136703,0.0,163.57421875,86.9140625,119.140625,0.0
1734580755.1175764,0.0,249.0234375,131.8359375,117.67578125,0.0
1734580755.1214821,0.0,571.77734375,175.29296875,130.859375,0.0
1734580755.1253881,0.0,577.63671875,147.4609375,132.32421875,0.0
1734580755.1292942,0.0,54.6875,-31.25,125.9765625,0.0
1734580755.1332002,0.0,-232.91015625,-3.41796875,125.48828125,0.0
1734580755.137106,0.0,66.89453125,134.27734375,109.86328125,0.0
1734580755.141012,0.0,99.609375,109.375,108.3984375,0.0
1734580755.144918,0.0,32.2265625,99.609375,120.60546875,0.0
1734580755.1488237,0.0,289.55078125,169.921875,115.234375,0.0
1734580755.1527297,0.0,674.31640625,212.890625,95.21484375,0.0
1734580755.1566358,0.0,584.47265625,114.2578125,95.21484375,0.0
1734580755.16052,105.46875,204.1015625,72.265625,84.9609375,0.0
1734580755.164426,75.68359375,437.01171875,171.38671875,68.359375,0.0
1734580755.168332,95.703125,770.5078125,219.23828125,73.73046875,0.0
1734580755.172238,107.421875,355.46875,34.66796875,84.9609375,0.0
1734580755.176144,100.09765625,-116.2109375,-12.20703125,102.05078125,0.0
1734580755.18005,111.328125,3.90625,148.92578125,102.5390625,0.0
1734580755.183956,115.234375,430.6640625,239.74609375,90.8203125,0.0
1734580755.1878617,123.046875,432.12890625,99.12109375,100.09765625,0.0
1734580755.1917677,124.0234375,-601.5625,-226.5625,125.48828125,0.0
1734580755.1956737,123.53515625,-121.58203125,147.4609375,128.41796875,0.0
1734580755.1995795,117.67578125,898.4375,343.26171875,121.09375,0.0
1734580755.2034855,127.44140625,585.44921875,138.671875,118.1640625,0.0
1734580755.2073565,138.671875,518.5546875,168.45703125,114.2578125,0.0
1734580755.2112625,129.8828125,841.796875,240.234375,114.2578125,0.0
1734580755.2151682,133.7890625,884.27734375,177.24609375,125.9765625,0.0
1734580755.2190742,131.34765625,609.86328125,173.33984375,122.55859375,0.0
1734580755.2229803,126.953125,581.0546875,172.36328125,111.328125,0.0
1734580755.226886,110.3515625,429.19921875,95.703125,107.91015625,0.0
1734580755.230792,87.890625,353.02734375,151.3671875,89.35546875,0.0
1734580755.234698,104.98046875,-194.3359375,-92.7734375,95.21484375,0.0
1734580755.2386038,105.46875,-424.31640625,-70.80078125,104.98046875,0.0
1734580755.2425098,84.9609375,644.53125,309.08203125,95.703125,0.0
1734580755.2464159,90.8203125,772.4609375,178.7109375,90.33203125,0.0
1734580755.2503216,97.16796875,506.34765625,120.60546875,84.9609375,0.0
1734580755.2541726,87.40234375,765.625,211.9140625,78.125,0.0
1734580755.2580786,101.5625,975.09765625,216.30859375,78.61328125,0.0
1734580755.2619846,113.28125,750.48828125,117.67578125,84.9609375,0.0
1734580755.2658904,122.0703125,519.53125,84.9609375,90.8203125,0.0
1734580755.2697964,120.60546875,669.43359375,124.51171875,101.5625,0.0
1734580755.2737024,104.00390625,548.33984375,109.86328125,104.98046875,0.0
1734580755.2776082,104.00390625,218.75,0.0,103.515625,0.0
1734580755.2815142,126.953125,-198.73046875,-130.37109375,115.72265625,0.0
1734580755.2854202,133.7890625,348.14453125,166.50390625,114.74609375,0.0
1734580755.2893262,109.375,699.21875,206.0546875,99.12109375,0.0
1734580755.293232,108.3984375,281.25,40.0390625,111.328125,0.0
1734580755.297138,107.91015625,518.5546875,133.30078125,122.0703125,0.0
1734580755.3009675,108.88671875,892.578125,214.35546875,106.93359375,0.0
1734580755.3048735,112.79296875,872.55859375,166.50390625,108.3984375,0.0
1734580755.3087792,118.1640625,528.80859375,67.3828125,111.328125,0.0
1734580755.3126853,126.46484375,570.3125,116.69921875,110.3515625,0.0
1734580755.3165913,115.72265625,824.21875,165.52734375,122.0703125,0.0
1734580755.320497,91.796875,663.57421875,136.71875,109.375,0.0
1734580755.324403,91.796875,-219.23828125,-170.8984375,110.3515625,0.0
1734580755.328309,96.6796875,-458.984375,-140.625,111.328125,0.0
1734580755.3322148,101.07421875,654.78515625,291.50390625,103.02734375,0.0
1734580755.3361208,102.05078125,836.42578125,158.203125,100.09765625,0.0
1734580755.3400269,97.65625,424.31640625,92.7734375,79.1015625,0.0
1734580755.3439326,85.44921875,583.0078125,187.01171875,70.3125,0.0
1734580755.3479042,80.56640625,706.0546875,131.8359375,69.3359375,0.0
1734580755.3518102,84.47265625,380.37109375,55.17578125,82.03125,0.0
1734580755.355716,89.84375,395.5078125,124.51171875,78.125,0.0
1734580755.359622,111.81640625,718.26171875,181.640625,84.47265625,0.0
1734580755.363528,111.81640625,767.578125,150.390625,99.609375,0.0
1734580755.3674338,96.19140625,323.2421875,-13.671875,102.05078125,0.0
1734580755.3713398,103.02734375,-454.58984375,-181.15234375,114.2578125,0.0
1734580755.3752458,110.3515625,37.59765625,129.8828125,102.5390625,0.0
1734580755.3791518,116.2109375,887.20703125,270.01953125,106.93359375,0.0
1734580755.3830576,101.5625,531.25,50.78125,122.0703125,0.0
1734580755.3869636,97.65625,413.0859375,72.75390625,119.62890625,0.0
1734580755.3908696,113.76953125,778.3203125,183.10546875,121.58203125,0.0
1734580755.394836,0.0,842.28515625,161.1328125,106.93359375,0.0
1734580755.398742,0.0,498.53515625,91.796875,96.19140625,0.0
1734580755.402648,0.0,475.09765625,113.28125,103.515625,0.0
1734580755.406554,0.0,610.83984375,119.140625,105.95703125,0.0
1734580755.4104598,0.0,367.67578125,65.91796875,105.46875,0.0
1734580755.4143658,0.0,161.62109375,35.64453125,96.19140625,0.0
1734580755.4182718,0.0,91.796875,55.6640625,90.33203125,0.0
1734580755.4221776,0.0,290.0390625,180.17578125,92.28515625,0.0
1734580755.4260836,0.0,639.6484375,194.82421875,81.0546875,0.0
1734580755.4299896,0.0,-63.96484375,-117.67578125,95.21484375,0.0
1734580755.4338953,0.0,-285.64453125,-44.921875,105.46875,0.0
1734580755.4378014,0.0,621.09375,248.046875,98.6328125,0.0
1734580755.441874,129.8828125,648.92578125,157.71484375,102.05078125,0.0
1734580755.44578,125.0,441.89453125,130.37109375,95.703125,0.0
1734580755.449686,110.83984375,663.57421875,167.96875,107.91015625,0.0
1734580755.453592,109.86328125,836.42578125,180.6640625,124.51171875,0.0
1734580755.4574978,106.93359375,589.35546875,71.77734375,112.3046875,0.0
1734580755.4614038,117.1875,116.2109375,-41.9921875,109.86328125,0.0
1734580755.4653099,121.58203125,170.41015625,69.82421875,114.2578125,0.0
1734580755.4692156,127.44140625,358.3984375,152.83203125,112.3046875,0.0
1734580755.4731216,117.1875,43.9453125,-56.15234375,108.3984375,0.0
1734580755.4770277,139.16015625,-340.33203125,-117.67578125,114.2578125,0.0
1734580755.4809334,146.484375,300.29296875,208.984375,122.0703125,0.0
1734580755.4848394,126.46484375,789.0625,231.4453125,108.88671875,0.0
1734580755.4887435,112.79296875,242.1875,17.08984375,92.7734375,0.0
1734580755.4926496,96.19140625,166.015625,41.9921875,98.6328125,0.0
1734580755.4965556,99.12109375,735.3515625,217.7734375,95.703125,0.0
1734580755.5004613,94.7265625,736.81640625,154.296875,86.42578125,0.0
1734580755.5043674,92.28515625,352.05078125,24.90234375,89.84375,0.0
1734580755.5082734,95.703125,110.83984375,25.87890625,97.16796875,0.0
1734580755.5121791,112.79296875,170.8984375,104.00390625,92.28515625,0.0
1734580755.5160851,114.74609375,154.296875,81.0546875,90.8203125,0.0
1734580755.5199912,96.6796875,104.4921875,66.89453125,98.6328125,0.0
1734580755.5238972,94.23828125,315.4296875,111.328125,94.23828125,0.0
1734580755.527803,104.98046875,411.62109375,162.59765625,95.703125,0.0
1734580755.531709,111.81640625,485.3515625,136.71875,92.7734375,0.0
1734580755.535597,102.5390625,-203.125,-94.23828125,98.6328125,0.0
1734580755.539503,104.4921875,-188.96484375,50.29296875,108.88671875,0.0
1734580755.543409,109.375,657.71484375,239.2578125,104.00390625,0.0
1734580755.547315,102.05078125,455.56640625,83.984375,112.3046875,0.0
1734580755.551221,111.81640625,246.58203125,23.92578125,116.69921875,0.0
1734580755.555127,133.30078125,133.7890625,46.875,117.1875,0.0
1734580755.5590327,125.48828125,300.78125,153.3203125,113.28125,0.0
1734580755.5629387,99.609375,187.98828125,0.0,101.5625,0.0
1734580755.5668447,100.09765625,-482.91015625,-183.10546875,105.46875,0.0
1734580755.5707505,102.5390625,98.6328125,154.78515625,109.86328125,0.0
1734580755.5746565,102.5390625,632.32421875,215.33203125,113.76953125,0.0
1734580755.5785625,98.6328125,278.3203125,50.78125,86.9140625,0.0
1734580755.5825799,98.6328125,216.30859375,55.17578125,76.171875,0.0
1734580755.5864859,113.76953125,257.32421875,104.00390625,100.09765625,0.0
1734580755.5903919,114.2578125,249.51171875,98.14453125,98.14453125,0.0
1734580755.5942976,109.375,214.84375,59.5703125,87.890625,0.0
1734580755.5982037,110.3515625,164.55078125,52.734375,84.47265625,0.0
1734580755.6021097,87.40234375,25.390625,48.828125,94.7265625,0.0
1734580755.6060157,80.56640625,-40.0390625,86.9140625,88.8671875,0.0
1734580755.6099215,92.28515625,-509.765625,-147.4609375,85.9375,0.0
1734580755.6138275,105.46875,-542.96875,-102.05078125,85.9375,0.0
1734580755.6177335,98.6328125,416.015625,272.94921875,79.58984375,0.0
1734580755.6216393,99.12109375,334.9609375,107.91015625,90.33203125,0.0
1734580755.6255453,99.12109375,39.0625,55.6640625,93.26171875,0.0
1734580755.6294072,120.1171875,280.76171875,161.1328125,98.14453125,0.0
1734580755.6333132,128.90625,532.71484375,190.91796875,91.30859375,0.0
1734580755.637219,84.9609375,279.78515625,75.68359375,81.0546875,0.0
1734580755.641125,86.9140625,-155.76171875,8.30078125,90.33203125,0.0
1734580755.645031,99.609375,-70.3125,101.07421875,98.6328125,0.0
1734580755.6489367,92.28515625,-44.921875,102.5390625,97.16796875,0.0
1734580755.6528428,100.09765625,-385.25390625,-34.66796875,104.00390625,0.0
1734580755.6567488,112.3046875,-352.05078125,-28.80859375,111.81640625,0.0
1734580755.6606548,99.609375,218.75,195.3125,99.12109375,0.0
1734580755.6645606,90.8203125,473.14453125,231.93359375,85.44921875,0.0
1734580755.6684666,99.12109375,-39.0625,-85.9375,91.796875,0.0
1734580755.6723726,82.51953125,-611.328125,-161.62109375,94.23828125,0.0
1734580755.6763573,62.98828125,129.8828125,243.1640625,79.58984375,0.0
1734580755.680263,63.96484375,415.52734375,190.91796875,81.54296875,0.0
1734580755.684169,79.58984375,10.25390625,77.1484375,82.51953125,0.0
1734580755.688075,84.9609375,110.83984375,129.39453125,79.1015625,0.0
1734580755.6919808,78.125,311.5234375,126.953125,75.68359375,0.0
1734580755.6958869,81.0546875,64.453125,104.98046875,75.1953125,0.0
1734580755.6997929,100.09765625,-549.31640625,-173.828125,90.33203125,0.0
1734580755.7036989,118.65234375,-818.359375,-210.44921875,106.93359375,0.0
1734580755.7076046,123.53515625,-44.921875,237.3046875,108.3984375,0.0
1734580755.7115107,130.859375,284.66796875,167.48046875,113.28125,0.0
1734580755.7154167,120.60546875,72.75390625,112.79296875,118.1640625,0.0
1734580755.7193224,116.2109375,203.125,197.75390625,115.72265625,0.0
1734580755.7231407,123.53515625,416.9921875,193.84765625,119.140625,0.0
1734580755.7270467,112.3046875,236.81640625,101.5625,111.81640625,0.0
1734580755.7309527,102.05078125,-166.50390625,49.8046875,115.234375,0.0
1734580755.7348585,108.88671875,98.14453125,150.390625,113.76953125,0.0
1734580755.7387645,124.0234375,399.90234375,185.546875,110.83984375,0.0
1734580755.7426705,122.0703125,-149.4140625,-18.5546875,125.9765625,0.0
1734580755.7465765,108.88671875,-500.0,-56.640625,104.00390625,0.0
1734580755.7504823,96.6796875,68.84765625,199.70703125,86.9140625,0.0
1734580755.7543883,94.7265625,435.05859375,237.3046875,99.12109375,0.0
1734580755.7582943,74.21875,-63.4765625,-74.21875,99.609375,0.0
1734580755.7622,76.171875,-812.01171875,-261.71875,98.14453125,0.0
1734580755.7661061,84.47265625,-243.1640625,159.1796875,76.66015625,0.0
1734580755.7706516,71.2890625,365.72265625,224.609375,92.28515625,0.0
1734580755.7745576,79.1015625,98.6328125,129.8828125,86.9140625,0.0
1734580755.7784634,77.1484375,26.85546875,137.6953125,104.00390625,0.0
1734580755.7823694,79.1015625,289.0625,157.71484375,105.95703125,0.0
1734580755.7862754,80.078125,291.9921875,118.65234375,97.16796875,0.0
1734580755.7901814,85.9375,-194.82421875,-53.22265625,101.07421875,0.0
1734580755.7940872,92.28515625,-421.875,-26.85546875,96.6796875,0.0
1734580755.7979932,76.171875,-160.15625,159.1796875,96.19140625,0.0
1734580755.8018992,88.37890625,108.3984375,164.0625,110.3515625,0.0
1734580755.805805,107.421875,-334.47265625,-38.57421875,99.12109375,0.0
1734580755.809711,101.5625,-299.31640625,65.4296875,83.984375,0.0
1734580755.813617,104.98046875,385.25390625,222.65625,87.40234375,0.0
1734580755.8177302,0.0,236.81640625,0.0,0.0,0.0
1734580755.8216362,0.0,-83.49609375,0.0,0.0,0.0
1734580755.825542,0.0,-8.7890625,0.0,0.0,0.0
1734580755.829448,0.0,330.078125,0.0,0.0,0.0
1734580755.833354,0.0,241.69921875,0.0,0.0,0.0
1734580755.8372598,0.0,-243.65234375,0.0,0.0,0.0
1734580755.8411658,0.0,-141.11328125,0.0,0.0,0.0
1734580755.8450718,0.0,367.67578125,0.0,0.0,0.0
1734580755.8489778,0.0,29.296875,0.0,0.0,0.0
1734580755.8528836,0.0,-201.171875,0.0,0.0,0.0
1734580755.8567896,0.0,277.83203125,0.0,0.0,0.0
1734580755.8606956,0.0,259.27734375,0.0,0.0,0.0
1734580755.8645985,100.09765625,-157.71484375,-9.27734375,77.63671875,0.0
1734580755.8685043,66.89453125,-181.15234375,9.765625,66.40625,0.0
1734580755.8724103,69.3359375,362.3046875,184.08203125,73.73046875,0.0
1734580755.8763163,91.796875,445.3125,145.5078125,69.3359375,0.0
1734580755.8802223,94.23828125,-154.78515625,-66.40625,79.1015625,0.0
1734580755.884128,93.75,-433.10546875,-43.45703125,90.33203125,0.0
1734580755.888034,108.3984375,-89.35546875,128.41796875,80.078125,0.0
1734580755.89194,101.07421875,-104.4921875,88.37890625,93.26171875,0.0
1734580755.895846,102.05078125,-256.34765625,17.578125,104.4921875,0.0
1734580755.899752,102.05078125,40.52734375,126.46484375,101.5625,0.0
1734580755.903658,100.5859375,439.94140625,180.17578125,100.09765625,0.0
1734580755.907564,104.98046875,464.35546875,147.4609375,87.890625,0.0
1734580755.9114444,116.69921875,-431.15234375,-203.125,100.09765625,0.0
1734580755.9153504,122.55859375,-886.23046875,-219.7265625,104.00390625,0.0
1734580755.9192564,110.83984375,97.16796875,246.09375,101.07421875,0.0
1734580755.9231622,104.00390625,323.73046875,161.62109375,98.14453125,0.0
1734580755.9270682,96.19140625,149.4140625,93.75,88.8671875,0.0
1734580755.9309742,103.515625,90.8203125,90.33203125,79.1015625,0.0
1734580755.9348803,108.3984375,235.3515625,163.57421875,73.73046875,0.0
1734580755.938786,107.421875,151.3671875,39.55078125,86.42578125,0.0
1734580755.942692,97.16796875,-495.1171875,-142.08984375,101.5625,0.0
1734580755.946598,83.0078125,97.16796875,162.109375,87.40234375,0.0
1734580755.9505038,87.40234375,686.5234375,224.609375,78.61328125,0.0
1734580755.9544098,95.703125,325.68359375,50.29296875,94.7265625,0.0
1734580755.9582703,89.84375,222.16796875,66.40625,89.35546875,0.0
1734580755.9621763,77.63671875,568.359375,179.6875,77.63671875,0.0
1734580755.9660823,70.3125,621.09375,126.953125,84.47265625,0.0
1734580755.969988,85.9375,293.45703125,29.296875,97.16796875,0.0
1734580755.9738941,97.65625,296.38671875,79.1015625,102.5390625,0.0
1734580755.9778001,86.42578125,233.3984375,65.4296875,103.02734375,0.0
1734580755.9817061,97.16796875,105.95703125,94.7265625,98.6328125,0.0
1734580755.985612,105.46875,-456.54296875,-136.71875,101.5625,0.0
1734580755.989518,97.65625,-494.140625,-96.19140625,105.46875,0.0
1734580755.993424,100.09765625,528.3203125,289.0625,95.21484375,0.0
1734580755.9973297,104.98046875,508.7890625,138.671875,99.609375,0.0
1734580756.0012357,104.4921875,166.9921875,96.6796875,101.07421875,0.0
1734580756.005074,99.609375,393.06640625,190.91796875,102.05078125,0.0
1734580756.00898,116.69921875,680.6640625,209.47265625,104.4921875,0.0
1734580756.0128858,106.93359375,413.57421875,93.75,103.515625,0.0
1734580756.0167918,72.75390625,144.04296875,45.41015625,101.5625,0.0
1734580756.0206978,105.46875,318.84765625,117.67578125,91.30859375,0.0
1734580756.0246036,118.65234375,188.96484375,104.98046875,96.19140625,0.0
1734580756.0285096,97.16796875,-139.6484375,-8.30078125,95.703125,0.0
1734580756.0324156,92.7734375,-525.87890625,-113.76953125,92.7734375,0.0
1734580756.0363216,86.42578125,-39.55078125,159.1796875,81.0546875,0.0
1734580756.0402274,80.56640625,555.6640625,238.28125,60.546875,0.0
1734580756.0441334,75.68359375,284.1796875,65.91796875,64.94140625,0.0
1734580756.0480394,80.56640625,198.73046875,70.3125,57.6171875,0.0
1734580756.0518713,81.54296875,531.73828125,167.48046875,58.59375,0.0
1734580756.055777,80.56640625,550.29296875,148.92578125,74.21875,0.0
1734580756.059683,73.73046875,177.24609375,37.109375,83.0078125,0.0
1734580756.063589,76.171875,221.6796875,62.01171875,94.7265625,0.0
1734580756.067495,91.30859375,516.6015625,129.8828125,99.12109375,0.0
1734580756.071401,96.6796875,289.55078125,97.16796875,109.375,0.0
1734580756.075307,102.5390625,-483.88671875,-214.84375,114.74609375,0.0
1734580756.079213,91.796875,-747.0703125,-218.26171875,110.83984375,0.0
1734580756.0831187,95.21484375,136.23046875,234.375,103.515625,0.0
1734580756.0870247,101.07421875,447.75390625,152.34375,108.88671875,0.0
1734580756.0909307,100.09765625,229.4921875,73.2421875,107.91015625,0.0
1734580756.0948367,106.93359375,352.05078125,147.94921875,113.28125,0.0
1734580756.0986624,89.84375,544.921875,160.64453125,102.05078125,0.0
1734580756.1025684,89.84375,407.2265625,80.56640625,93.75,0.0
1734580756.1064744,112.3046875,151.85546875,18.5546875,104.00390625,0.0
1734580756.1103802,125.48828125,414.0625,140.625,102.05078125,0.0
1734580756.1142862,114.2578125,538.0859375,135.7421875,106.93359375,0.0
1734580756.1181922,88.8671875,69.3359375,-40.52734375,97.65625,0.0
1734580756.1220982,105.46875,-523.4375,-150.390625,95.21484375,0.0
1734580756.126004,106.4453125,-134.765625,102.05078125,83.0078125,0.0
1734580756.12991,99.609375,578.125,239.2578125,81.54296875,0.0
1734580756.133816,111.81640625,188.96484375,-18.5546875,90.33203125,0.0
1734580756.1377218,111.81640625,-40.52734375,-28.80859375,89.84375,0.0
1734580756.1416278,101.5625,480.46875,186.5234375,97.16796875,0.0
1734580756.1457164,95.703125,555.6640625,145.01953125,105.46875,0.0
1734580756.1496224,100.09765625,241.2109375,63.96484375,107.91015625,0.0
1734580756.1535282,104.00390625,185.546875,97.65625,113.28125,0.0
1734580756.1574342,104.4921875,442.3828125,163.0859375,104.4921875,0.0
1734580756.1613402,113.28125,502.9296875,145.99609375,91.30859375,0.0
1734580756.1652462,99.12109375,43.45703125,-4.39453125,99.609375,0.0
1734580756.169152,98.14453125,-254.8828125,-13.18359375,99.12109375,0.0
1734580756.173058,117.1875,-14.6484375,171.875,87.890625,0.0
1734580756.176964,104.98046875,151.85546875,172.36328125,86.42578125,0.0
1734580756.1808698,103.02734375,-324.21875,-8.7890625,93.75,0.0
1734580756.1847758,105.46875,-179.19921875,105.46875,96.6796875,0.0
1734580756.1886818,104.98046875,577.63671875,259.27734375,93.26171875,0.0
1734580756.192599,96.6796875,405.76171875,107.421875,104.4921875,0.0
1734580756.196505,94.23828125,142.578125,92.7734375,98.14453125,0.0
1734580756.200411,92.28515625,392.08984375,187.5,83.984375,0.0
1734580756.2043169,89.84375,606.93359375,198.73046875,74.21875,0.0
1734580756.2082229,106.93359375,372.0703125,87.890625,70.3125,0.0
1734580756.2121289,112.3046875,-141.6015625,-23.4375,86.42578125,0.0
1734580756.216035,95.703125,0.48828125,118.65234375,89.35546875,0.0
1734580756.2199407,103.02734375,547.8515625,242.67578125,91.796875,0.0
1734580756.2238467,94.7265625,174.8046875,-21.484375,90.8203125,0.0
1734580756.2277527,95.703125,-166.50390625,-98.6328125,102.5390625,0.0
1734580756.2316585,115.72265625,357.91015625,181.15234375,114.2578125,0.0
1734580756.2355645,125.0,435.05859375,169.921875,107.91015625,0.0
1734580756.2394874,126.46484375,-258.30078125,0.0,109.375,0.0
1734580756.2433932,108.88671875,-588.37890625,0.0,103.02734375,0.0
1734580756.2472992,108.88671875,252.44140625,0.0,104.98046875,0.0
1734580756.2512052,121.58203125,544.921875,0.0,103.02734375,0.0
1734580756.2551112,112.3046875,-44.43359375,0.0,97.16796875,0.0
1734580756.259017,107.91015625,-291.9921875,0.0,113.76953125,0.0
1734580756.262923,120.1171875,-35.64453125,0.0,123.046875,0.0
1734580756.266829,104.98046875,122.55859375,0.0,108.88671875,0.0
1734580756.2707348,120.1171875,-437.5,0.0,113.76953125,0.0
1734580756.2746408,132.32421875,-473.14453125,0.0,109.86328125,0.0
1734580756.2785468,92.7734375,487.3046875,0.0,88.37890625,0.0
1734580756.2824528,94.23828125,291.50390625,0.0,93.75,0.0
1734580756.2859368,102.5390625,91.30859375,-132.8125,105.46875,0.0
1734580756.2898428,89.84375,442.87109375,-151.85546875,108.3984375,0.0
1734580756.2937489,86.9140625,434.5703125,237.79296875,92.7734375,0.0
1734580756.2976546,98.6328125,57.12890625,192.3828125,84.9609375,0.0
1734580756.3015606,95.21484375,32.71484375,-17.578125,94.7265625,0.0
1734580756.3054667,89.84375,19.53125,10.25390625,99.12109375,0.0
1734580756.3093727,87.40234375,156.73828125,135.7421875,99.609375,0.0
1734580756.3132784,90.8203125,116.2109375,161.62109375,100.5859375,0.0
1734580756.3171844,100.09765625,-513.671875,-108.3984375,97.65625,0.0
1734580756.3210905,94.23828125,14.6484375,-66.89453125,90.33203125,0.0
1734580756.3249962,77.63671875,575.68359375,262.20703125,88.8671875,0.0
1734580756.3289022,92.28515625,191.40625,115.234375,91.30859375,0.0
1734580756.3327699,103.515625,116.2109375,58.59375,83.984375,0.0
1734580756.3366756,93.75,478.02734375,173.33984375,72.265625,0.0
1734580756.3405817,92.28515625,503.90625,125.9765625,73.73046875,0.0
1734580756.3444877,88.37890625,195.3125,46.38671875,88.8671875,0.0
1734580756.3483934,115.234375,140.13671875,48.828125,90.8203125,0.0
1734580756.3522995,137.20703125,17.578125,33.203125,80.078125,0.0
1734580756.3562055,125.48828125,-20.01953125,97.65625,78.125,0.0
1734580756.3601115,122.0703125,-501.953125,-164.55078125,94.7265625,0.0
1734580756.3640172,99.609375,-655.76171875,-157.2265625,83.0078125,0.0
1734580756.3679233,87.40234375,275.87890625,250.0,67.3828125,0.0
1734580756.3718293,105.46875,302.24609375,116.2109375,65.4296875,0.0
1734580756.375735,93.26171875,41.9921875,66.89453125,52.734375,0.0
1734580756.3795922,81.54296875,228.515625,0.0,63.96484375,0.0
1734580756.3834982,94.23828125,439.94140625,0.0,67.3828125,0.0
1734580756.3874042,84.9609375,234.86328125,0.0,58.10546875,0.0
1734580756.39131,70.3125,-59.5703125,0.0,61.5234375,0.0
1734580756.395216,69.3359375,150.390625,0.0,69.82421875,0.0
1734580756.399122,80.56640625,70.80078125,0.0,67.3828125,0.0
1734580756.4030278,86.9140625,-324.21875,0.0,71.77734375,0.0
1734580756.4069338,74.21875,-666.9921875,0.0,77.1484375,0.0
1734580756.4108398,78.61328125,-189.453125,0.0,67.3828125,0.0
1734580756.4147456,93.75,47.36328125,0.0,71.2890625,0.0
1734580756.4186516,112.79296875,-276.85546875,0.0,80.56640625,0.0
1734580756.4225576,114.74609375,-64.94140625,0.0,82.51953125,0.0
1734580756.4263883,102.5390625,298.828125,164.0625,78.125,0.0
1734580756.4302943,118.65234375,265.13671875,128.90625,66.89453125,0.0
1734580756.4342003,136.71875,-57.12890625,34.1796875,75.68359375,0.0
1734580756.438106,130.859375,20.99609375,74.70703125,97.16796875,0.0
1734580756.442012,120.60546875,209.47265625,100.5859375,101.5625,0.0
1734580756.445918,110.83984375,-39.55078125,62.5,97.16796875,0.0
1734580756.4498239,121.09375,-637.6953125,-214.35546875,118.1640625,0.0
1734580756.4537299,120.1171875,-761.71875,-186.03515625,116.69921875,0.0
1734580756.4576359,109.86328125,82.03125,259.27734375,82.51953125,0.0
1734580756.4615417,111.81640625,259.765625,137.6953125,96.19140625,0.0
1734580756.4654477,114.74609375,-29.296875,75.68359375,97.16796875,0.0
1734580756.4693537,89.35546875,103.02734375,159.1796875,78.61328125,0.0
1734580756.4731727,77.63671875,17.578125,83.984375,74.70703125,0.0
1734580756.4770787,81.0546875,-282.71484375,12.20703125,86.42578125,0.0
1734580756.4809847,73.2421875,-230.46875,59.5703125,77.1484375,0.0
1734580756.4848905,82.03125,55.6640625,125.9765625,64.453125,0.0
1734580756.4887965,75.1953125,156.25,125.48828125,69.3359375,0.0
1734580756.4927025,63.4765625,-261.71875,-22.94921875,64.94140625,0.0
1734580756.4966085,70.3125,-758.7890625,-186.5234375,64.94140625,0.0
1734580756.5005143,75.1953125,-316.40625,72.75390625,72.265625,0.0
1734580756.5044203,70.3125,288.0859375,236.81640625,78.125,0.0
1734580756.5083263,83.984375,-152.34375,-49.31640625,66.89453125,0.0
1734580756.512232,78.125,-370.60546875,-88.8671875,61.5234375,0.0
1734580756.516138,64.94140625,121.09375,147.94921875,67.87109375,0.0
1734580756.5205226,82.03125,207.51953125,117.1875,70.80078125,0.0
1734580756.5244286,99.609375,-119.140625,-26.3671875,69.3359375,0.0
1734580756.5283346,115.72265625,-178.7109375,26.85546875,82.51953125,0.0
1734580756.5322404,119.140625,-105.95703125,100.09765625,97.65625,0.0
1734580756.5361464,105.95703125,-103.515625,43.45703125,86.9140625,0.0
1734580756.5400524,91.30859375,-434.08203125,-82.51953125,94.23828125,0.0
1734580756.5439584,80.56640625,-686.03515625,-43.9453125,91.796875,0.0
1734580756.5478642,90.8203125,-384.27734375,126.46484375,90.33203125,0.0
1734580756.5517702,104.00390625,-149.90234375,116.2109375,95.703125,0.0
1734580756.5556762,104.98046875,-398.4375,-51.7578125,77.63671875,0.0
1734580756.559582,102.05078125,-330.078125,35.64453125,90.33203125,0.0
1734580756.563488,110.3515625,163.0859375,172.8515625,99.609375,0.0
1734580756.5674412,110.3515625,-55.17578125,27.83203125,96.19140625,0.0
1734580756.5713472,98.6328125,-297.8515625,14.6484375,98.14453125,0.0
1734580756.5752532,103.02734375,-7.8125,145.01953125,93.75,0.0
1734580756.579159,113.76953125,199.21875,151.3671875,99.12109375,0.0
1734580756.583065,106.4453125,-61.5234375,24.4140625,99.609375,0.0
1734580756.586971,111.81640625,-541.9921875,-165.0390625,92.7734375,0.0
1734580756.590877,118.65234375,-583.0078125,-68.359375,106.93359375,0.0
1734580756.5947828,107.421875,-187.98828125,160.64453125,108.88671875,0.0
1734580756.5986888,103.515625,-298.828125,-18.5546875,78.125,0.0
1734580756.6025949,94.7265625,-500.48828125,-104.00390625,72.265625,0.0
1734580756.6065006,100.5859375,-19.53125,169.921875,89.35546875,0.0
1734580756.6104066,109.86328125,166.9921875,166.9921875,96.19140625,0.0
1734580756.614309,106.4453125,-301.7578125,-34.1796875,108.88671875,0.0
1734580756.6182148,98.14453125,-478.02734375,-44.43359375,104.00390625,0.0
1734580756.6221209,102.05078125,39.0625,156.25,104.98046875,0.0
1734580756.6260269,118.1640625,111.81640625,122.0703125,109.375,0.0
1734580756.6299329,126.953125,-453.61328125,-95.21484375,100.09765625,0.0
1734580756.6338387,110.83984375,-738.76953125,-85.9375,107.421875,0.0
1734580756.6377447,95.21484375,-455.56640625,91.796875,106.93359375,0.0
1734580756.6416507,101.5625,-337.40234375,130.37109375,103.02734375,0.0
1734580756.6455564,128.90625,-616.69921875,-159.66796875,110.83984375,0.0
1734580756.6494625,132.32421875,-1000.0,-348.6328125,128.41796875,0.0
1734580756.6533685,109.86328125,-368.1640625,174.8046875,120.60546875,0.0
1734580756.6572745,118.1640625,104.4921875,217.7734375,115.72265625,0.0
1734580756.6611724,118.1640625,-83.49609375,89.84375,117.1875,0.0
1734580756.6650784,99.609375,80.078125,166.50390625,97.16796875,0.0
1734580756.6689842,107.421875,227.5390625,164.55078125,92.7734375,0.0
1734580756.6728902,120.1171875,75.1953125,73.73046875,106.4453125,0.0
1734580756.6767962,105.95703125,-176.26953125,-21.484375,104.00390625,0.0
1734580756.680702,90.8203125,-296.875,20.99609375,99.12109375,0.0
1734580756.684608,89.84375,-125.0,136.71875,92.7734375,0.0
1734580756.688514,109.375,-192.87109375,12.20703125,92.7734375,0.0
1734580756.69242,116.2109375,-720.703125,-188.4765625,92.7734375,0.0
1734580756.6963258,94.7265625,-174.8046875,137.6953125,95.703125,0.0
1734580756.7002318,105.46875,239.2578125,185.546875,97.65625,0.0
1734580756.7041378,119.62890625,-175.29296875,22.4609375,99.609375,0.0
1734580756.7079954,124.51171875,-255.37109375,22.94921875,106.4453125,0.0
1734580756.7119012,117.1875,-94.23828125,109.375,103.515625,0.0
1734580756.7158072,98.6328125,81.54296875,160.15625,94.7265625,0.0
1734580756.7197132,105.95703125,-28.3203125,48.828125,89.84375,0.0
1734580756.723619,92.7734375,-87.890625,47.36328125,96.6796875,0.0
1734580756.727525,90.33203125,-125.0,85.9375,85.44921875,0.0
1734580756.731431,111.328125,-272.4609375,93.75,83.984375,0.0
1734580756.735337,106.93359375,-709.9609375,-183.10546875,98.14453125,0.0
1734580756.7392428,101.5625,-669.921875,-158.203125,103.02734375,0.0
1734580756.7431488,100.5859375,115.72265625,235.3515625,91.30859375,0.0
1734580756.7470548,92.7734375,85.9375,104.98046875,95.21484375,0.0
1734580756.7509606,95.703125,-161.1328125,47.36328125,90.33203125,0.0
1734580756.7548296,0.0,54.19921875,157.2265625,87.40234375,0.0
1734580756.7587354,0.0,262.6953125,160.64453125,88.37890625,0.0
1734580756.7626414,0.0,44.43359375,46.38671875,89.35546875,0.0
1734580756.7665474,0.0,-256.8359375,-30.76171875,91.30859375,0.0
1734580756.7704535,0.0,-287.59765625,30.76171875,84.47265625,0.0
1734580756.7743592,0.0,-337.890625,64.94140625,88.37890625,0.0
1734580756.7782652,0.0,-488.76953125,-29.78515625,82.51953125,0.0
1734580756.7821712,0.0,-773.92578125,-191.40625,87.40234375,0.0
1734580756.786077,0.0,-328.125,89.35546875,78.61328125,0.0
1734580756.789983,0.0,187.5,208.49609375,65.4296875,0.0
1734580756.793889,0.0,-122.55859375,25.87890625,97.16796875,0.0
1734580756.797795,0.0,-188.96484375,45.8984375,95.21484375,0.0
1734580756.8016274,82.03125,151.85546875,161.62109375,83.0078125,0.0
1734580756.8055334,75.68359375,147.4609375,132.32421875,86.42578125,0.0
1734580756.8094392,80.078125,-148.92578125,4.8828125,89.35546875,0.0
1734580756.8133452,101.07421875,-113.76953125,40.52734375,110.83984375,0.0
1734580756.8172512,91.796875,97.65625,97.65625,105.46875,0.0
1734580756.8211572,74.70703125,-174.8046875,37.59765625,76.66015625,0.0
1734580756.825063,78.61328125,-693.359375,-236.328125,85.9375,0.0
1734580756.828969,81.0546875,-883.7890625,-217.28515625,93.26171875,0.0
1734580756.832875,81.54296875,-252.44140625,209.9609375,85.44921875,0.0
1734580756.8367808,87.890625,89.35546875,158.69140625,83.49609375,0.0
1734580756.8406868,99.609375,-100.09765625,97.65625,87.890625,0.0
1734580756.8445928,92.28515625,-13.671875,155.2734375,84.9609375,0.0
1734580756.8484132,89.84375,209.47265625,162.59765625,87.890625,0.0
1734580756.8523192,89.35546875,77.63671875,86.9140625,96.6796875,0.0
1734580756.856225,94.23828125,-172.36328125,41.015625,92.7734375,0.0
1734580756.860131,103.02734375,65.4296875,136.23046875,90.33203125,0.0
1734580756.864037,93.26171875,170.41015625,130.859375,86.9140625,0.0
1734580756.867943,106.4453125,-287.109375,-44.921875,80.56640625,0.0
1734580756.8718488,99.609375,-793.9453125,-218.75,86.42578125,0.0
1734580756.8757548,84.47265625,-304.19921875,81.54296875,92.7734375,0.0
1734580756.8796608,90.33203125,289.55078125,220.21484375,88.37890625,0.0
1734580756.8835666,92.7734375,-85.44921875,-3.90625,88.37890625,0.0
1734580756.8874726,96.6796875,-424.8046875,-8.30078125,90.8203125,0.0
1734580756.8913786,87.40234375,-10.7421875,152.34375,99.12109375,0.0
1734580756.895325,91.796875,265.13671875,153.3203125,89.35546875,0.0
1734580756.899231,99.609375,-41.015625,50.29296875,85.9375,0.0
1734580756.9031367,96.6796875,-119.140625,77.1484375,97.16796875,0.0
1734580756.9070427,100.5859375,195.80078125,160.64453125,93.26171875,0.0
1734580756.9109488,94.7265625,256.8359375,102.05078125,103.515625,0.0
1734580756.9148545,98.14453125,-232.91015625,-69.82421875,92.7734375,0.0
1734580756.9187605,99.609375,-451.66015625,-27.83203125,85.9375,0.0
1734580756.9226665,101.5625,-278.80859375,102.05078125,93.26171875,0.0
1734580756.9265726,113.76953125,-238.28125,92.28515625,89.35546875,0.0
1734580756.9304783,99.12109375,-225.09765625,64.453125,96.6796875,0.0
1734580756.9343843,87.40234375,14.6484375,113.76953125,92.7734375,0.0
1734580756.9382904,100.09765625,396.484375,184.08203125,90.8203125,0.0
1734580756.9422266,103.02734375,236.81640625,71.77734375,104.98046875,0.0
1734580756.9461327,99.609375,-468.26171875,-100.5859375,98.14453125,0.0
1734580756.9500384,95.703125,-230.46875,76.66015625,84.47265625,0.0
1734580756.9539444,93.75,461.42578125,240.234375,84.9609375,0.0
1734580756.9578505,101.5625,244.62890625,56.640625,93.26171875,0.0
1734580756.9617562,107.91015625,-444.3359375,-129.39453125,98.6328125,0.0
1734580756.9656622,94.23828125,-250.48828125,82.51953125,89.35546875,0.0
1734580756.9695683,101.5625,448.2421875,244.140625,89.84375,0.0
1734580756.9734743,120.60546875,127.44140625,-18.06640625,110.83984375,0.0
1734580756.97738,119.62890625,-544.921875,-168.45703125,122.0703125,0.0
1734580756.981286,96.19140625,-2.9296875,166.50390625,108.3984375,0.0
1734580756.985192,69.3359375,567.87109375,227.05078125,73.73046875,0.0
1734580756.9891107,71.77734375,85.44921875,-31.73828125,68.359375,0.0
1734580756.9930167,83.0078125,-41.015625,-5.37109375,87.40234375,0.0
1734580756.9969225,66.40625,512.20703125,191.40625,84.47265625,0.0
1734580757.0008285,61.03515625,506.8359375,135.7421875,74.70703125,0.0
1734580757.0047345,53.7109375,84.47265625,-20.5078125,73.73046875,0.0
1734580757.0086403,58.59375,-115.234375,-17.08984375,73.73046875,0.0
1734580757.0125463,60.05859375,-31.73828125,74.21875,73.2421875,0.0
1734580757.0164523,58.10546875,101.5625,117.1875,64.453125,0.0
1734580757.0203583,73.2421875,-416.015625,-137.6953125,77.63671875,0.0
1734580757.024264,62.98828125,-460.9375,-114.74609375,96.19140625,0.0
1734580757.02817,87.890625,555.17578125,257.32421875,76.171875,0.0
1734580757.0320761,82.51953125,534.66796875,97.16796875,76.66015625,0.0
1734580757.0359812,67.3828125,276.85546875,71.77734375,97.65625,0.0
1734580757.0398872,88.37890625,466.30859375,170.8984375,87.890625,0.0
1734580757.0437932,107.91015625,644.53125,158.203125,84.9609375,0.0
1734580757.047699,108.3984375,448.73046875,62.01171875,94.7265625,0.0
1734580757.051605,104.98046875,254.8828125,14.6484375,99.12109375,0.0
1734580757.055511,98.14453125,177.24609375,41.9921875,100.5859375,0.0
1734580757.059417,88.37890625,181.15234375,144.04296875,74.21875,0.0
1734580757.0633228,96.6796875,118.65234375,34.66796875,84.9609375,0.0
1734580757.0672288,91.796875,-437.5,-192.3828125,89.35546875,0.0
1734580757.0711348,90.33203125,111.328125,119.62890625,65.91796875,0.0
1734580757.0750406,77.1484375,738.28125,213.37890625,77.1484375,0.0
1734580757.0789466,73.73046875,354.00390625,29.296875,80.078125,0.0
1734580757.0828197,81.54296875,255.37109375,56.640625,80.078125,0.0
1734580757.0867255,65.4296875,613.28125,163.57421875,71.2890625,0.0
1734580757.0906315,59.5703125,599.609375,130.37109375,72.265625,0.0
1734580757.0945375,82.51953125,325.68359375,52.24609375,88.37890625,0.0
1734580757.0984433,86.42578125,264.6484375,46.875,73.73046875,0.0
1734580757.1023493,71.77734375,124.0234375,53.7109375,67.3828125,0.0
1734580757.1062553,80.56640625,149.90234375,105.95703125,64.94140625,0.0
1734580757.1101613,73.2421875,-395.01953125,-165.52734375,76.66015625,0.0
1734580757.114067,65.4296875,-498.046875,-134.765625,88.8671875,0.0
1734580757.117973,82.51953125,510.7421875,249.0234375,74.70703125,0.0
1734580757.121879,82.03125,461.9140625,101.5625,84.47265625,0.0
1734580757.1257849,79.1015625,-12.6953125,-25.87890625,95.703125,0.0
1734580757.129634,90.33203125,249.0234375,98.14453125,87.890625,0.0
1734580757.1335397,91.796875,721.6796875,200.1953125,88.8671875,0.0
1734580757.1374457,104.98046875,456.54296875,68.84765625,91.796875,0.0
1734580757.1413517,99.12109375,188.96484375,44.43359375,93.75,0.0
1734580757.1452577,95.703125,457.03125,125.9765625,89.84375,0.0
1734580757.1491635,105.95703125,333.0078125,92.28515625,83.49609375,0.0
1734580757.1530695,94.7265625,-38.57421875,-1.953125,95.703125,0.0
1734580757.1569755,89.35546875,-473.14453125,-147.94921875,97.65625,0.0
1734580757.1608813,98.14453125,-17.578125,110.3515625,83.49609375,0.0
1734580757.1647873,87.890625,626.953125,237.3046875,80.56640625,0.0
1734580757.1686933,83.984375,306.15234375,43.45703125,85.9375,0.0
1734580757.172599,91.30859375,213.37890625,48.33984375,82.51953125,0.0
1734580757.1764417,0.0,549.8046875,170.8984375,75.1953125,0.0
1734580757.1803477,0.0,435.546875,79.1015625,72.265625,0.0
1734580757.1842535,0.0,59.08203125,3.41796875,83.49609375,0.0
1734580757.1881595,0.0,239.74609375,114.74609375,87.890625,0.0
1734580757.1920655,0.0,459.47265625,110.83984375,89.84375,0.0
1734580757.1959713,0.0,212.40234375,84.9609375,96.19140625,0.0
1734580757.1998773,0.0,-504.39453125,-186.5234375,96.19140625,0.0
1734580757.2037833,0.0,-718.75,-173.33984375,100.09765625,0.0
1734580757.207689,0.0,241.69921875,244.62890625,93.26171875,0.0
1734580757.211595,0.0,454.1015625,136.23046875,96.6796875,0.0
1734580757.215501,0.0,187.98828125,91.30859375,113.28125,0.0
1734580757.219407,0.0,263.671875,147.4609375,119.140625,0.0
1734580757.223231,114.74609375,482.91015625,162.109375,121.58203125,0.0
1734580757.2271369,112.3046875,369.140625,88.37890625,115.234375,0.0
1734580757.2310429,113.28125,105.46875,45.41015625,125.0,0.0
1734580757.2349489,104.4921875,306.640625,129.39453125,125.9765625,0.0
1734580757.2388546,113.28125,420.41015625,128.90625,101.07421875,0.0
1734580757.2427607,117.67578125,-18.06640625,-26.3671875,99.609375,0.0
1734580757.2466667,104.98046875,-443.84765625,-113.76953125,96.6796875,0.0
1734580757.2505727,96.6796875,-125.48828125,85.9375,89.35546875,0.0
1734580757.2544785,97.65625,434.5703125,212.890625,96.6796875,0.0
1734580757.2583845,105.95703125,11.23046875,-44.43359375,94.7265625,0.0
1734580757.2622905,87.40234375,-523.92578125,-131.34765625,99.609375,0.0
1734580757.2661963,66.40625,147.4609375,201.171875,86.42578125,0.0
1734580757.2705703,79.1015625,453.125,178.22265625,58.10546875,0.0
1734580757.274476,83.984375,79.1015625,51.26953125,65.4296875,0.0
1734580757.278382,59.5703125,39.0625,76.66015625,66.89453125,0.0
1734580757.282288,59.08203125,369.62890625,166.015625,60.546875,0.0
1734580757.286194,62.01171875,367.1875,104.98046875,64.94140625,0.0
1734580757.2900999,63.4765625,-242.67578125,-82.51953125,75.1953125,0.0
1734580757.2940059,72.265625,-500.9765625,-36.62109375,78.125,0.0
1734580757.297912,83.984375,-233.88671875,113.76953125,76.171875,0.0
1734580757.3018177,84.9609375,-67.87109375,172.36328125,81.0546875,0.0
1734580757.3057237,93.26171875,-549.31640625,-146.97265625,82.51953125,0.0
1734580757.3096297,107.421875,-730.46875,-145.99609375,98.14453125,0.0
1734580757.3135357,103.515625,208.0078125,268.5546875,107.91015625,0.0
1734580757.3175912,109.375,277.34375,124.0234375,110.3515625,0.0
1734580757.3214972,121.58203125,-50.29296875,72.265625,116.2109375,0.0
1734580757.3254032,110.3515625,166.9921875,146.484375,108.3984375,0.0
1734580757.329309,113.76953125,443.84765625,178.22265625,115.72265625,0.0
1734580757.333215,111.81640625,206.54296875,53.22265625,102.5390625,0.0
1734580757.337121,101.07421875,-442.3828125,-97.65625,91.796875,0.0
1734580757.341027,105.46875,-361.81640625,64.453125,91.796875,0.0
1734580757.3449328,101.07421875,225.09765625,201.171875,77.63671875,0.0
1734580757.3488388,82.03125,-19.04296875,-29.296875,83.49609375,0.0
1734580757.3527448,64.453125,-346.19140625,-126.46484375,81.54296875,0.0
1734580757.3566506,60.05859375,183.10546875,164.55078125,62.5,0.0
1734580757.3605566,70.80078125,118.1640625,112.3046875,64.453125,0.0
1734580757.3644557,70.80078125,-460.9375,-93.26171875,56.640625,0.0
1734580757.3683617,53.7109375,-346.19140625,-9.27734375,36.1328125,0.0
1734580757.3722675,50.78125,265.625,200.1953125,45.8984375,0.0
1734580757.3761735,58.59375,278.80859375,128.41796875,56.15234375,0.0
1734580757.3800795,62.01171875,-301.7578125,-45.41015625,69.3359375,0.0
1734580757.3839855,68.84765625,-570.80078125,-19.04296875,82.03125,0.0
1734580757.3878913,74.70703125,-357.421875,93.26171875,79.1015625,0.0
1734580757.3917973,107.421875,-190.91796875,158.69140625,76.66015625,0.0
1734580757.3957033,92.28515625,-587.40234375,-146.97265625,88.8671875,0.0
1734580757.399609,64.453125,-718.26171875,-162.59765625,100.5859375,0.0
1734580757.403515,92.7734375,164.55078125,270.99609375,97.16796875,0.0
1734580757.407421,105.46875,338.8671875,151.3671875,100.09765625,0.0
1734580757.4113061,0.0,-474.12109375,-137.20703125,103.515625,0.0
1734580757.4152122,0.0,-408.69140625,32.2265625,104.00390625,0.0
1734580757.419118,0.0,131.34765625,207.51953125,94.7265625,0.0
1734580757.423024,0.0,-140.13671875,54.6875,90.8203125,0.0
1734580757.42693,0.0,-67.87109375,87.40234375,74.70703125,0.0
1734580757.4308357,0.0,-90.8203125,73.2421875,78.125,0.0
1734580757.4347417,0.0,40.52734375,159.1796875,93.26171875,0.0
1734580757.4386477,0.0,63.96484375,57.6171875,81.54296875,0.0
1734580757.4425538,0.0,-557.12890625,-173.33984375,79.58984375,0.0
1734580757.4464595,0.0,-101.5625,128.90625,86.42578125,0.0
1734580757.4503655,0.0,524.4140625,238.28125,82.03125,0.0
1734580757.4542716,0.0,135.25390625,39.55078125,66.40625,0.0
1734580757.457728,95.21484375,33.203125,56.640625,57.12890625,0.0
1734580757.461634,92.28515625,392.08984375,153.3203125,51.7578125,0.0
1734580757.46554,96.19140625,416.9921875,124.0234375,63.96484375,0.0
1734580757.469446,109.86328125,137.20703125,31.25,67.3828125,0.0
1734580757.4733517,101.07421875,103.515625,53.7109375,57.12890625,0.0
1734580757.4772577,83.49609375,67.3828125,50.78125,63.4765625,0.0
1734580757.4811637,91.30859375,3.41796875,87.890625,76.171875,0.0
1734580757.4850695,91.30859375,-516.11328125,-174.8046875,91.30859375,0.0
1734580757.4889755,92.28515625,-643.06640625,-182.12890625,89.35546875,0.0
1734580757.4928815,107.421875,329.1015625,255.859375,82.51953125,0.0
1734580757.4967875,79.58984375,431.15234375,120.60546875,98.14453125,0.0
1734580757.5006933,57.12890625,169.43359375,63.96484375,85.44921875,0.0
1734580757.5047026,113.76953125,289.0625,129.39453125,92.28515625,0.0
1734580757.5086083,92.7734375,519.04296875,143.06640625,92.7734375,0.0
1734580757.5125144,92.7734375,306.640625,43.9453125,83.984375,0.0
1734580757.5164204,102.05078125,79.58984375,2.9296875,95.21484375,0.0
1734580757.5203261,99.12109375,315.91796875,93.75,100.5859375,0.0
1734580757.5242321,103.515625,159.66796875,58.10546875,85.9375,0.0
1734580757.5281382,87.890625,-190.91796875,-43.9453125,74.70703125,0.0
1734580757.5320442,80.078125,-288.57421875,-20.99609375,72.75390625,0.0
1734580757.53595,85.9375,-33.69140625,102.05078125,48.828125,0.0
1734580757.539856,80.56640625,285.64453125,153.3203125,55.17578125,0.0
1734580757.543762,72.265625,69.3359375,-26.85546875,69.82421875,0.0
1734580757.5476677,65.4296875,-213.37890625,-129.39453125,63.4765625,0.0
1734580757.5515,64.94140625,407.2265625,201.171875,68.359375,0.0
1734580757.555406,75.68359375,552.734375,183.10546875,81.0546875,0.0
1734580757.5593119,87.40234375,174.31640625,13.671875,71.77734375,0.0
1734580757.5632179,88.8671875,169.43359375,29.296875,82.51953125,0.0
1734580757.567124,99.12109375,453.125,126.953125,95.21484375,0.0
1734580757.5710297,97.16796875,126.46484375,35.64453125,80.56640625,0.0
1734580757.5749357,68.359375,-254.39453125,-42.96875,74.21875,0.0
1734580757.5788417,79.58984375,-152.83203125,64.453125,67.87109375,0.0
1734580757.5827477,100.5859375,274.90234375,180.6640625,76.171875,0.0
1734580757.5866535,98.6328125,506.34765625,141.6015625,91.30859375,0.0
1734580757.5905595,98.14453125,-307.6171875,-166.9921875,93.75,0.0
1734580757.5944655,96.19140625,-558.59375,-145.5078125,83.49609375,0.0
1734580757.598305,89.35546875,175.78125,198.73046875,76.66015625,0.0
1734580757.6022108,86.9140625,236.81640625,129.8828125,84.9609375,0.0
1734580757.6061168,104.00390625,121.09375,93.75,78.125,0.0
1734580757.6100228,104.4921875,338.8671875,161.62109375,89.35546875,0.0
1734580757.6139288,84.47265625,429.19921875,135.7421875,97.16796875,0.0
1734580757.6178346,92.28515625,-4.8828125,-31.73828125,87.40234375,0.0
1734580757.6217406,83.0078125,-640.13671875,-189.453125,93.26171875,0.0
1734580757.6256466,87.40234375,-173.33984375,86.9140625,93.75,0.0
1734580757.6295524,92.7734375,474.12109375,226.07421875,90.8203125,0.0
1734580757.6334584,84.47265625,110.3515625,42.96875,95.21484375,0.0
1734580757.6373644,82.03125,-1.46484375,44.43359375,85.9375,0.0
1734580757.6412702,76.171875,348.6328125,145.01953125,82.51953125,0.0
1734580757.6450624,83.49609375,437.5,137.6953125,84.47265625,0.0
1734580757.6489685,87.890625,144.04296875,52.734375,81.0546875,0.0
1734580757.6528745,85.9375,-28.3203125,5.859375,93.75,0.0
1734580757.6567805,102.5390625,75.1953125,104.98046875,100.09765625,0.0
1734580757.6606863,113.76953125,270.5078125,148.92578125,95.703125,0.0
1734580757.6645923,95.703125,-220.21484375,-51.7578125,98.6328125,0.0
1734580757.6684983,89.84375,-596.6796875,-39.0625,93.26171875,0.0
1734580757.672404,107.421875,-149.4140625,150.87890625,86.9140625,0.0
1734580757.67631,99.609375,163.0859375,144.53125,84.9609375,0.0
1734580757.680216,91.796875,-145.5078125,-18.5546875,88.37890625,0.0
1734580757.6841218,109.375,-107.91015625,65.91796875,85.9375,0.0
1734580757.6880279,111.81640625,383.30078125,210.9375,87.40234375,0.0
1734580757.6919625,0.0,170.41015625,66.40625,86.9140625,0.0
1734580757.6958685,0.0,-194.82421875,29.296875,93.26171875,0.0
1734580757.6997745,0.0,40.52734375,136.71875,101.5625,0.0
1734580757.7036803,0.0,363.28125,177.734375,92.7734375,0.0
1734580757.7075863,0.0,124.0234375,48.33984375,80.078125,0.0
1734580757.7114923,0.0,-374.51171875,-133.7890625,79.58984375,0.0
1734580757.7153983,0.0,-395.99609375,1.953125,78.61328125,0.0
1734580757.719304,0.0,16.6015625,179.19921875,77.1484375,0.0
1734580757.72321,0.0,-82.03125,-7.8125,72.75390625,0.0
1734580757.727116,0.0,-360.83984375,-102.5390625,62.01171875,0.0
1734580757.731022,0.0,82.03125,152.83203125,83.984375,0.0
1734580757.734928,0.0,380.859375,192.87109375,79.1015625,0.0
1734580757.7384243,114.2578125,-184.08203125,-111.81640625,79.58984375,0.0
1734580757.74233,107.421875,-630.37109375,-198.73046875,93.75,0.0
1734580757.746236,88.37890625,117.1875,189.453125,77.1484375,0.0
1734580757.750142,93.75,271.484375,152.34375,83.984375,0.0
1734580757.754048,86.9140625,-104.00390625,3.90625,90.33203125,0.0
1734580757.757954,79.58984375,-329.1015625,-7.8125,92.28515625,0.0
1734580757.76186,80.078125,-271.97265625,58.59375,100.5859375,0.0
1734580757.765766,93.26171875,-186.5234375,113.28125,94.23828125,0.0
1734580757.7696717,91.796875,-632.8125,-169.43359375,92.7734375,0.0
1734580757.7735777,74.21875,-793.9453125,-159.66796875,93.75,0.0
1734580757.7774837,92.28515625,45.41015625,250.9765625,81.0546875,0.0
1734580757.7813895,104.00390625,192.87109375,108.88671875,88.37890625,0.0
1734580757.7852871,89.35546875,-82.51953125,51.26953125,97.16796875,0.0
1734580757.7891932,78.61328125,73.73046875,152.34375,81.0546875,0.0
1734580757.7930992,87.890625,279.296875,158.203125,83.0078125,0.0
1734580757.797005,111.328125,114.2578125,47.8515625,93.26171875,0.0
1734580757.800911,83.0078125,-99.12109375,-3.90625,89.84375,0.0
1734580757.804817,56.640625,-184.5703125,40.52734375,93.26171875,0.0
1734580757.808723,78.61328125,-193.359375,133.7890625,88.8671875,0.0
1734580757.8126287,80.078125,-231.93359375,27.34375,84.9609375,0.0
1734580757.8165348,74.21875,-491.2109375,-86.9140625,81.54296875,0.0
1734580757.8204408,96.19140625,-16.6015625,157.2265625,87.890625,0.0
1734580757.8243465,88.37890625,444.82421875,231.4453125,103.515625,0.0
1734580757.8282526,90.33203125,-128.41796875,-100.09765625,109.375,0.0
1734580757.832129,105.46875,-759.765625,-226.5625,105.95703125,0.0
1734580757.8360348,97.16796875,-65.4296875,183.59375,101.5625,0.0
1734580757.8399408,91.30859375,335.44921875,175.29296875,109.86328125,0.0
1734580757.8438468,108.88671875,46.38671875,59.5703125,113.76953125,0.0
1734580757.8477526,124.51171875,-19.53125,58.59375,103.02734375,0.0
1734580757.8516586,102.5390625,-66.40625,50.78125,92.7734375,0.0
1734580757.8555646,88.37890625,-98.14453125,106.93359375,89.35546875,0.0
1734580757.8594704,82.51953125,-570.3125,-160.64453125,92.28515625,0.0
1734580757.8633764,85.44921875,-630.37109375,-169.43359375,88.37890625,0.0
1734580757.8672824,71.2890625,262.20703125,248.046875,72.75390625,0.0
1734580757.8711882,72.75390625,306.640625,119.140625,90.8203125,0.0
1734580757.8750942,102.5390625,77.63671875,56.15234375,88.37890625,0.0
1734580757.8789434,0.0,233.3984375,0.0,72.265625,0.0
1734580757.8828495,0.0,456.54296875,0.0,83.0078125,0.0
1734580757.8867552,0.0,253.90625,0.0,76.171875,0.0
1734580757.8906612,0.0,-219.7265625,0.0,66.40625,0.0
1734580757.8945673,0.0,-69.82421875,0.0,81.54296875,0.0
1734580757.8984733,0.0,55.17578125,0.0,88.8671875,0.0
1734580757.902379,0.0,-243.1640625,0.0,73.2421875,0.0
1734580757.906285,0.0,-668.45703125,0.0,79.1015625,0.0
1734580757.910191,0.0,-252.44140625,0.0,75.68359375,0.0
1734580757.9140968,0.0,466.30859375,0.0,67.3828125,0.0
1734580757.9180028,0.0,12.20703125,0.0,72.75390625,0.0
1734580757.9219089,0.0,-221.6796875,0.0,75.68359375,0.0
1734580757.9254987,103.02734375,305.6640625,145.01953125,88.8671875,0.0
1734580757.9294045,104.98046875,384.765625,161.62109375,102.05078125,0.0
1734580757.9333105,101.07421875,91.796875,74.70703125,96.6796875,0.0
1734580757.9372165,86.9140625,99.609375,-50.78125,88.8671875,0.0
1734580757.9411223,95.703125,369.62890625,45.8984375,101.07421875,0.0
1734580757.9450283,85.9375,61.5234375,113.28125,94.23828125,0.0
1734580757.9489343,78.61328125,-352.5390625,-10.7421875,84.9609375,0.0
1734580757.95284,87.890625,-327.63671875,-156.25,90.33203125,0.0
1734580757.956746,76.171875,78.61328125,99.609375,81.0546875,0.0
1734580757.960652,67.87109375,479.00390625,260.7421875,78.125,0.0
1734580757.964558,71.77734375,-224.609375,-51.7578125,95.21484375,0.0
1734580757.968464,78.125,-384.27734375,-95.21484375,82.03125,0.0
1734580757.9722798,93.75,506.34765625,220.703125,72.265625,0.0
1734580757.9761858,83.49609375,461.9140625,101.5625,73.2421875,0.0
1734580757.9800918,66.40625,110.83984375,77.63671875,75.68359375,0.0
1734580757.9839976,65.91796875,325.1953125,157.2265625,75.68359375,0.0
1734580757.9879036,55.17578125,585.9375,139.6484375,62.98828125,0.0
1734580757.9918096,58.59375,153.3203125,-27.34375,62.5,0.0
1734580757.9957154,72.75390625,-59.5703125,-26.85546875,69.82421875,0.0
1734580757.9996214,76.66015625,406.73828125,135.25390625,70.80078125,0.0
1734580758.0035274,74.21875,694.3359375,181.640625,64.94140625,0.0
1734580758.0074332,74.21875,211.42578125,-71.2890625,77.63671875,0.0
1734580758.0113392,81.0546875,-496.58203125,-237.3046875,86.42578125,0.0
1734580758.0152452,93.26171875,174.31640625,157.2265625,77.63671875,0.0
1734580758.0193534,89.35546875,769.53125,0.0,75.68359375,0.0
1734580758.0232594,76.171875,194.82421875,0.0,78.125,0.0
1734580758.0271654,80.078125,16.6015625,0.0,76.171875,0.0
1734580758.0310712,108.3984375,560.05859375,0.0,90.8203125,0.0
1734580758.0349772,111.328125,626.46484375,0.0,110.3515625,0.0
1734580758.0388832,95.21484375,-15.13671875,0.0,94.23828125,0.0
1734580758.042789,80.56640625,-334.47265625,0.0,70.80078125,0.0
1734580758.046695,87.890625,128.41796875,0.0,74.21875,0.0
1734580758.050601,87.40234375,488.28125,0.0,67.87109375,0.0
1734580758.0545068,69.3359375,155.2734375,0.0,61.5234375,0.0
1734580758.0584128,68.84765625,194.3359375,0.0,65.91796875,0.0
1734580758.0623188,66.89453125,701.171875,0.0,69.3359375,0.0
1734580758.0662634,61.03515625,480.95703125,39.0625,76.171875,0.0
1734580758.0701692,55.6640625,92.7734375,-14.16015625,69.3359375,0.0
1734580758.0740752,60.05859375,329.1015625,119.62890625,54.6875,0.0
1734580758.0779812,50.29296875,724.609375,175.78125,47.36328125,0.0
1734580758.081887,57.6171875,479.98046875,31.25,49.8046875,0.0
1734580758.085793,55.6640625,-176.7578125,-126.46484375,58.10546875,0.0
1734580758.089699,42.96875,29.296875,64.453125,58.59375,0.0
1734580758.0936048,62.5,661.62109375,221.19140625,42.96875,0.0
1734580758.0975108,56.640625,315.91796875,-48.33984375,48.828125,0.0
1734580758.1014168,48.828125,-18.06640625,-137.20703125,56.640625,0.0
1734580758.1053226,59.5703125,440.4296875,138.671875,54.19921875,0.0
1734580758.1092286,42.48046875,701.66015625,183.59375,66.40625,0.0
1734580758.1131625,0.0,134.27734375,-136.23046875,80.078125,0.0
1734580758.1170685,0.0,-494.62890625,-228.02734375,77.63671875,0.0
1734580758.1209743,0.0,295.41015625,197.75390625,77.1484375,0.0
1734580758.1248803,0.0,600.09765625,140.625,82.03125,0.0
1734580758.1287863,0.0,205.078125,0.9765625,83.49609375,0.0
1734580758.132692,0.0,90.8203125,37.109375,88.37890625,0.0
1734580758.136598,0.0,87.40234375,55.6640625,85.44921875,0.0
1734580758.1405041,0.0,232.421875,114.74609375,82.51953125,0.0
1734580758.1444101,0.0,-322.75390625,-141.11328125,98.6328125,0.0
1734580758.148316,0.0,-392.08984375,-146.97265625,88.8671875,0.0
1734580758.152222,0.0,668.9453125,264.16015625,74.21875,0.0
1734580758.156128,0.0,696.2890625,130.859375,84.47265625,0.0
1734580758.160027,82.51953125,377.9296875,66.40625,90.8203125,0.0
1734580758.163933,85.44921875,494.62890625,149.90234375,87.40234375,0.0
1734580758.1678388,73.73046875,705.56640625,147.4609375,76.171875,0.0
1734580758.1717448,85.44921875,553.22265625,71.2890625,74.70703125,0.0
1734580758.1756508,90.33203125,305.17578125,-15.625,80.56640625,0.0
1734580758.1795566,92.28515625,234.86328125,27.83203125,85.9375,0.0
1734580758.1834626,88.37890625,214.35546875,90.33203125,89.35546875,0.0
1734580758.1873686,81.0546875,154.78515625,7.8125,81.54296875,0.0
1734580758.1912744,93.75,-366.2109375,-176.7578125,91.30859375,0.0
1734580758.1951804,89.84375,126.46484375,115.234375,84.9609375,0.0
1734580758.1990864,94.7265625,929.6875,245.1171875,83.49609375,0.0
1734580758.2029922,89.35546875,554.19921875,31.73828125,96.19140625,0.0
1734580758.206873,64.453125,468.26171875,70.80078125,93.26171875,0.0
1734580758.210779,79.1015625,889.6484375,175.29296875,89.84375,0.0
1734580758.214685,71.77734375,908.69140625,140.13671875,78.125,0.0
1734580758.218591,75.68359375,573.73046875,22.94921875,68.359375,0.0
1734580758.2224967,85.9375,510.25390625,23.4375,70.3125,0.0
1734580758.2264028,68.84765625,496.58203125,55.6640625,83.0078125,0.0
1734580758.2303088,63.4765625,438.96484375,83.0078125,84.9609375,0.0
1734580758.2342145,72.75390625,-164.0625,-177.24609375,80.078125,0.0
1734580758.2381206,81.54296875,-257.8125,-173.33984375,77.63671875,0.0
1734580758.2420266,63.96484375,758.30078125,226.5625,69.82421875,0.0
1734580758.2459323,68.359375,616.2109375,84.47265625,82.03125,0.0
1734580758.2498384,69.3359375,411.62109375,70.3125,83.49609375,0.0
1734580758.2537112,63.96484375,756.8359375,149.90234375,59.5703125,0.0
1734580758.2576172,66.40625,960.44921875,157.2265625,61.03515625,0.0
1734580758.2615232,59.08203125,714.84375,52.24609375,64.453125,0.0
1734580758.265429,56.15234375,456.54296875,-15.13671875,69.82421875,0.0
1734580758.269335,77.63671875,647.94921875,73.2421875,79.58984375,0.0
1734580758.273241,90.33203125,499.51171875,53.22265625,80.078125,0.0
1734580758.2771468,72.75390625,247.55859375,-25.390625,90.8203125,0.0
1734580758.2810528,79.1015625,-235.3515625,-188.96484375,97.65625,0.0
1734580758.2849588,87.890625,172.36328125,59.08203125,87.40234375,0.0
1734580758.2888646,71.77734375,925.29296875,214.35546875,72.265625,0.0
1734580758.2927706,70.80078125,589.35546875,1.46484375,76.66015625,0.0
1734580758.2966766,78.61328125,448.2421875,-14.16015625,74.70703125,0.0
1734580758.3006668,78.125,785.15625,0.0,70.3125,0.0
1734580758.3045726,65.91796875,602.5390625,0.0,81.54296875,0.0
1734580758.3084786,81.0546875,272.94921875,0.0,88.8671875,0.0
1734580758.3123846,104.4921875,541.015625,0.0,95.21484375,0.0
1734580758.3162904,86.9140625,787.59765625,0.0,85.9375,0.0
1734580758.3201964,86.42578125,496.09375,0.0,72.265625,0.0
1734580758.3241024,86.9140625,-322.265625,0.0,70.3125,0.0
1734580758.3280082,89.35546875,-507.8125,0.0,65.4296875,0.0
1734580758.3319142,80.56640625,529.78515625,0.0,65.4296875,0.0
1734580758.3358202,71.77734375,802.24609375,0.0,73.2421875,0.0
1734580758.3397262,74.70703125,499.0234375,0.0,60.546875,0.0
1734580758.343632,73.73046875,588.37890625,0.0,53.7109375,0.0
1734580758.3474784,61.5234375,840.33203125,115.72265625,51.7578125,0.0
1734580758.3513844,59.08203125,677.734375,30.76171875,52.24609375,0.0
1734580758.3552902,85.44921875,427.734375,-11.23046875,69.3359375,0.0
1734580758.3591962,63.96484375,569.3359375,83.0078125,68.84765625,0.0
1734580758.3631022,48.828125,533.69140625,59.08203125,59.08203125,0.0
1734580758.367008,61.5234375,113.76953125,-180.6640625,64.453125,0.0
1734580758.370914,61.03515625,-178.7109375,-232.91015625,60.546875,0.0
1734580758.37482,71.2890625,316.40625,83.984375,73.73046875,0.0
1734580758.378726,84.9609375,765.13671875,186.03515625,79.1015625,0.0
1734580758.3826318,78.125,342.7734375,-60.546875,91.30859375,0.0
1734580758.3865378,76.171875,-403.80859375,-280.76171875,99.12109375,0.0
1734580758.3904438,77.63671875,61.5234375,48.828125,82.51953125,0.0
1734580758.3943868,67.3828125,722.16796875,189.94140625,91.796875,0.0
1734580758.3982928,80.078125,401.3671875,13.18359375,89.35546875,0.0
1734580758.4021986,87.890625,309.08203125,20.5078125,73.73046875,0.0
1734580758.4061046,71.2890625,633.30078125,134.27734375,67.3828125,0.0
1734580758.4100106,82.03125,684.5703125,73.73046875,75.68359375,0.0
1734580758.4139163,92.7734375,60.546875,-124.51171875,91.796875,0.0
1734580758.4178224,81.54296875,-253.90625,-72.265625,92.7734375,0.0
1734580758.4217284,58.10546875,125.0,88.37890625,53.7109375,0.0
1734580758.4256341,62.01171875,182.12890625,80.078125,52.734375,0.0
1734580758.4295402,76.171875,60.05859375,-20.5078125,85.44921875,0.0
1734580758.4334462,55.17578125,337.890625,70.3125,78.61328125,0.0
1734580758.437352,58.10546875,732.91015625,181.640625,76.171875,0.0
1734580758.4412858,65.91796875,545.8984375,45.41015625,89.35546875,0.0
1734580758.4451916,92.28515625,78.61328125,-92.7734375,86.42578125,0.0
1734580758.4490976,76.171875,226.07421875,22.4609375,80.56640625,0.0
1734580758.4530036,71.2890625,710.44921875,176.7578125,79.58984375,0.0
1734580758.4569094,84.9609375,488.76953125,34.1796875,73.2421875,0.0
1734580758.4608154,85.9375,-183.59375,-158.69140625,89.84375,0.0
1734580758.4647214,86.9140625,-20.5078125,16.6015625,86.42578125,0.0
1734580758.4686272,79.1015625,598.14453125,190.4296875,73.2421875,0.0
1734580758.4725332,82.03125,351.07421875,-31.73828125,86.9140625,0.0
1734580758.4764392,83.0078125,-385.7421875,-224.609375,83.49609375,0.0
1734580758.4803452,79.1015625,44.921875,44.921875,84.9609375,0.0
1734580758.484251,89.35546875,295.41015625,101.5625,108.88671875,0.0
1734580758.4881594,92.7734375,14.16015625,-6.8359375,100.5859375,0.0
1734580758.4920654,65.4296875,269.53125,50.78125,85.44921875,0.0
1734580758.4959712,83.49609375,580.56640625,148.92578125,89.84375,0.0
1734580758.4998772,100.5859375,586.42578125,108.3984375,71.77734375,0.0
1734580758.5037832,64.94140625,53.22265625,-88.37890625,68.359375,0.0
1734580758.507689,67.87109375,-271.484375,-155.76171875,72.265625,0.0
1734580758.511595,93.26171875,-25.87890625,-7.8125,72.265625,0.0
1734580758.515501,83.49609375,125.48828125,86.9140625,80.56640625,0.0
1734580758.5194068,72.265625,-434.5703125,-204.1015625,86.9140625,0.0
1734580758.5233128,63.4765625,-533.69140625,-194.3359375,67.3828125,0.0
1734580758.5272188,58.10546875,473.6328125,197.265625,67.3828125,0.0
1734580758.5311246,65.4296875,505.37109375,50.29296875,70.3125,0.0
1734580758.5350118,77.63671875,135.25390625,-106.93359375,70.3125,0.0
1734580758.5389178,81.54296875,207.51953125,-22.4609375,78.125,0.0
1734580758.5428236,81.54296875,307.12890625,-43.45703125,85.44921875,0.0
1734580758.5467296,81.0546875,246.09375,-203.125,87.890625,0.0
1734580758.5506356,81.0546875,179.19921875,-258.7890625,79.1015625,0.0
1734580758.5545413,87.40234375,-5.37109375,-298.33984375,84.47265625,0.0
1734580758.5584474,82.51953125,0.48828125,-251.46484375,86.9140625,0.0
1734580758.5623534,82.03125,62.5,-326.171875,78.61328125,0.0
1734580758.5662594,78.61328125,-535.15625,-425.78125,96.19140625,0.0
1734580758.5701652,91.30859375,-144.53125,-51.26953125,104.4921875,0.0
1734580758.5740712,95.703125,487.79296875,45.8984375,96.6796875,0.0
1734580758.5779772,89.35546875,61.03515625,-180.6640625,99.609375,0.0
1734580758.5818472,93.26171875,-59.5703125,-236.328125,92.7734375,0.0
1734580758.5857532,86.9140625,353.515625,-106.93359375,82.51953125,0.0
1734580758.589659,80.56640625,407.2265625,-119.140625,90.33203125,0.0
1734580758.593565,73.2421875,83.0078125,-216.30859375,89.84375,0.0
1734580758.597471,59.5703125,-15.13671875,-184.5703125,95.703125,0.0
1734580758.601377,66.40625,-66.89453125,-217.7734375,92.28515625,0.0
1734580758.6052828,68.359375,-164.55078125,-220.21484375,76.171875,0.0
1734580758.6091888,67.87109375,-585.44921875,-375.9765625,75.1953125,0.0
1734580758.6130948,59.5703125,-795.8984375,-274.90234375,71.77734375,0.0
1734580758.6170006,45.41015625,60.546875,163.0859375,61.03515625,0.0
1734580758.6209066,50.78125,257.8125,43.9453125,65.91796875,0.0
1734580758.6248126,49.8046875,-1.953125,-109.375,72.75390625,0.0
1734580758.628675,58.59375,181.640625,0.48828125,61.03515625,0.0
1734580758.632581,62.01171875,413.0859375,83.0078125,65.91796875,0.0
1734580758.6364868,50.29296875,196.77734375,-35.15625,65.91796875,0.0
1734580758.6403928,57.12890625,-17.578125,-88.37890625,60.546875,0.0
1734580758.6442988,57.6171875,182.12890625,23.92578125,72.265625,0.0
1734580758.6482046,51.7578125,22.94921875,-88.8671875,74.70703125,0.0
1734580758.6521106,57.6171875,-255.37109375,-225.5859375,83.984375,0.0
1734580758.6560166,70.80078125,-660.15625,-248.046875,86.42578125,0.0
1734580758.6599226,83.0078125,-492.67578125,40.52734375,68.84765625,0.0
1734580758.6638284,81.54296875,191.40625,223.14453125,79.1015625,0.0
1734580758.6677344,77.1484375,71.77734375,64.94140625,83.984375,0.0
1734580758.6716404,78.61328125,-73.2421875,58.10546875,80.078125,0.0
1734580758.6754792,89.35546875,232.421875,173.33984375,85.44921875,0.0
1734580758.6793852,82.03125,279.78515625,133.30078125,90.33203125,0.0
1734580758.6832912,68.84765625,-44.43359375,13.18359375,92.7734375,0.0
1734580758.6871972,67.3828125,-76.66015625,65.4296875,85.44921875,0.0
1734580758.691103,70.3125,137.20703125,99.12109375,81.54296875,0.0
1734580758.695009,68.359375,-189.94140625,52.24609375,77.1484375,0.0
1734580758.698915,61.5234375,-740.234375,-195.80078125,62.5,0.0
1734580758.7028208,61.03515625,-800.29296875,-158.69140625,68.84765625,0.0
1734580758.7067268,55.6640625,-56.15234375,257.32421875,73.73046875,0.0
1734580758.7106328,56.640625,111.328125,126.953125,64.94140625,0.0
1734580758.7145386,48.33984375,-160.64453125,87.40234375,79.1015625,0.0
1734580758.7184446,53.7109375,-290.52734375,109.375,76.171875,0.0
1734580758.7228827,89.84375,-71.77734375,100.5859375,79.58984375,0.0
1734580758.7267888,70.80078125,19.04296875,-20.99609375,84.47265625,0.0
1734580758.7306945,66.89453125,-220.703125,-35.64453125,76.66015625,0.0
1734580758.7346005,78.61328125,-68.84765625,98.6328125,78.61328125,0.0
1734580758.7385066,72.75390625,36.62109375,102.5390625,74.70703125,0.0
1734580758.7424126,73.2421875,-348.6328125,-114.2578125,74.70703125,0.0
1734580758.7463183,67.3828125,-827.63671875,-147.4609375,80.078125,0.0
1734580758.7502244,54.6875,-421.875,30.76171875,68.84765625,0.0
1734580758.7541304,52.734375,21.97265625,60.546875,57.12890625,0.0
1734580758.7580361,48.33984375,-312.01171875,-43.9453125,57.12890625,0.0
1734580758.7619421,41.9921875,-399.90234375,-39.0625,51.7578125,0.0
1734580758.7658482,48.828125,-64.94140625,61.03515625,50.29296875,0.0
1734580758.7698576,0.0,-21.484375,0.0,0.0,0.0
1734580758.7737634,0.0,-351.5625,0.0,0.0,0.0
1734580758.7776694,0.0,-638.671875,0.0,0.0,0.0
1734580758.7815754,0.0,-377.9296875,0.0,0.0,0.0
1734580758.7854812,0.0,-106.93359375,0.0,0.0,0.0
1734580758.7893872,0.0,-545.41015625,0.0,0.0,0.0
1734580758.7932932,0.0,-903.80859375,0.0,0.0,0.0
1734580758.7971992,0.0,-673.828125,0.0,0.0,0.0
1734580758.801105,0.0,-374.51171875,0.0,0.0,0.0
1734580758.805011,0.0,-533.203125,0.0,0.0,0.0
1734580758.808917,0.0,-586.9140625,0.0,0.0,0.0
1734580758.8128228,0.0,-353.515625,0.0,0.0,0.0
1734580758.8169012,0.0,-293.9453125,70.3125,62.5,0.0
1734580758.8208072,0.0,-512.20703125,-48.33984375,66.40625,0.0
1734580758.8247132,0.0,-374.51171875,38.0859375,64.453125,0.0
1734580758.8286192,0.0,-33.69140625,150.390625,64.453125,0.0
1734580758.832525,0.0,-294.921875,-20.01953125,74.21875,0.0
1734580758.836431,0.0,-736.81640625,-158.69140625,85.44921875,0.0
1734580758.840337,0.0,-728.02734375,-18.5546875,84.9609375,0.0
1734580758.8442428,0.0,-409.1796875,104.4921875,84.47265625,0.0
1734580758.8481488,0.0,-359.375,45.8984375,81.0546875,0.0
1734580758.8520548,0.0,-990.234375,-437.01171875,87.40234375,0.0
1734580758.8559608,0.0,-802.24609375,-213.8671875,104.00390625,0.0
1734580758.8598666,0.0,-73.73046875,268.06640625,89.35546875,0.0
1734580758.8637788,63.4765625,-264.16015625,46.875,67.3828125,0.0
1734580758.8676848,62.5,-372.55859375,27.83203125,70.3125,0.0
1734580758.8715906,77.1484375,-58.10546875,129.8828125,79.58984375,0.0
1734580758.8754966,71.77734375,-75.68359375,86.42578125,73.73046875,0.0
1734580758.8794026,67.87109375,-354.4921875,-49.8046875,69.3359375,0.0
1734580758.8833086,61.5234375,-612.79296875,-193.359375,70.3125,0.0
1734580758.8872144,54.19921875,-586.9140625,-139.6484375,67.87109375,0.0
1734580758.8911204,71.77734375,-565.91796875,-121.09375,72.265625,0.0
1734580758.8950264,76.66015625,-771.484375,-218.75,68.84765625,0.0
1734580758.8989322,60.05859375,-600.5859375,-25.390625,61.5234375,0.0
1734580758.9028382,54.19921875,-76.171875,148.4375,65.4296875,0.0
1734580758.9067442,62.5,-11.71875,66.40625,63.96484375,0.0
1734580758.9106312,0.0,-627.9296875,-232.421875,66.40625,0.0
1734580758.9145372,0.0,-641.6015625,-125.48828125,67.3828125,0.0
1734580758.9184432,0.0,34.1796875,192.87109375,68.359375,0.0
1734580758.9223492,0.0,-57.6171875,43.45703125,75.68359375,0.0
1734580758.926255,0.0,-322.75390625,-53.22265625,77.63671875,0.0
1734580758.930161,0.0,-479.00390625,-73.2421875,72.75390625,0.0
1734580758.934067,0.0,-320.3125,46.38671875,72.265625,0.0
1734580758.9379728,0.0,-187.98828125,16.11328125,79.58984375,0.0
1734580758.9418788,0.0,-735.83984375,-253.41796875,70.3125,0.0
1734580758.9457848,0.0,-367.67578125,37.109375,62.98828125,0.0
1734580758.9496906,0.0,230.46875,200.68359375,67.87109375,0.0
1734580758.9535966,0.0,-189.94140625,-65.4296875,68.84765625,0.0
1734580758.9574656,71.2890625,-384.27734375,0.0,65.4296875,0.0
1734580758.9613717,62.5,97.16796875,0.0,51.7578125,0.0
1734580758.9652774,41.015625,214.35546875,0.0,46.875,0.0
1734580758.9691834,36.1328125,-105.95703125,0.0,58.10546875,0.0
1734580758.9730895,44.43359375,-180.17578125,0.0,67.87109375,0.0
1734580758.9769952,51.7578125,-154.296875,0.0,81.54296875,0.0
1734580758.9809012,57.12890625,-355.46875,0.0,87.40234375,0.0
1734580758.9848073,55.6640625,-541.50390625,0.0,80.078125,0.0
1734580758.9887133,70.80078125,-254.8828125,0.0,80.078125,0.0
1734580758.992619,88.8671875,186.5234375,0.0,87.40234375,0.0
1734580758.996525,87.40234375,149.90234375,0.0,91.796875,0.0
1734580759.000431,69.82421875,-190.91796875,0.0,80.56640625,0.0
1734580759.0042915,64.94140625,-100.09765625,-14.16015625,80.56640625,0.0
1734580759.0081973,77.63671875,270.01953125,139.6484375,83.0078125,0.0
1734580759.0121033,82.03125,87.890625,2.44140625,76.66015625,0.0
1734580759.0160093,77.63671875,-532.2265625,-186.5234375,81.54296875,0.0
1734580759.019915,66.89453125,-335.9375,-20.99609375,67.87109375,0.0
1734580759.023821,79.1015625,-58.59375,86.9140625,68.359375,0.0
1734580759.0277271,99.12109375,-307.6171875,-16.11328125,75.68359375,0.0
1734580759.0316331,85.9375,-648.4375,-161.1328125,84.9609375,0.0
1734580759.035539,79.1015625,-211.42578125,58.10546875,80.078125,0.0
1734580759.039445,76.66015625,442.87109375,215.33203125,69.3359375,0.0
1734580759.043351,70.80078125,117.1875,9.27734375,74.70703125,0.0
1734580759.0472567,72.75390625,14.6484375,-1.953125,76.171875,0.0
1734580759.0510983,73.2421875,303.22265625,107.91015625,78.61328125,0.0
1734580759.0550041,66.40625,347.16796875,84.9609375,76.171875,0.0
1734580759.0589101,55.6640625,61.5234375,-65.4296875,58.10546875,0.0
1734580759.0628161,56.640625,57.12890625,-6.8359375,59.5703125,0.0
1734580759.066722,64.453125,311.5234375,76.66015625,80.078125,0.0
1734580759.070628,55.6640625,38.0859375,-123.046875,55.6640625,0.0
1734580759.074534,49.31640625,-561.03515625,-362.79296875,51.7578125,0.0
1734580759.0784397,69.82421875,-830.078125,-289.0625,75.68359375,0.0
1734580759.0823457,99.12109375,-117.67578125,117.67578125,67.3828125,0.0
1734580759.0862517,83.0078125,289.55078125,97.16796875,77.63671875,0.0
1734580759.0901577,60.05859375,68.359375,-17.08984375,72.265625,0.0
1734580759.0940635,69.82421875,191.40625,65.91796875,66.89453125,0.0
1734580759.0980299,0.0,480.46875,113.28125,75.1953125,0.0
1734580759.1019359,0.0,320.80078125,-0.48828125,73.73046875,0.0
1734580759.1058419,0.0,-55.17578125,-98.14453125,77.63671875,0.0
1734580759.1097476,0.0,100.5859375,29.78515625,66.40625,0.0
1734580759.1136537,0.0,375.9765625,123.046875,62.98828125,0.0
1734580759.1175597,0.0,64.453125,-107.91015625,69.3359375,0.0
1734580759.1214654,0.0,-614.74609375,-288.57421875,71.2890625,0.0
1734580759.1253715,0.0,-196.77734375,53.22265625,82.51953125,0.0
1734580759.1292775,0.0,520.99609375,214.35546875,77.63671875,0.0
1734580759.1331835,0.0,-4.8828125,-106.93359375,57.6171875,0.0
1734580759.1370893,0.0,-285.64453125,-187.5,44.921875,0.0
1734580759.1409953,0.0,291.015625,132.32421875,46.38671875,0.0
1734580759.1449413,68.84765625,477.5390625,123.53515625,54.6875,0.0
1734580759.1488473,62.01171875,80.56640625,-52.734375,53.22265625,0.0
1734580759.1527534,64.94140625,-34.1796875,-27.34375,47.8515625,0.0
1734580759.1566594,61.03515625,360.3515625,116.69921875,55.6640625,0.0
1734580759.1605651,49.31640625,379.39453125,32.71484375,51.26953125,0.0
1734580759.1644711,49.8046875,-208.49609375,-192.3828125,47.36328125,0.0
1734580759.1683772,44.921875,-567.3828125,-273.4375,51.7578125,0.0
1734580759.172283,49.31640625,-220.21484375,-180.6640625,51.7578125,0.0
1734580759.176189,49.8046875,242.67578125,13.671875,55.6640625,0.0
1734580759.180095,62.01171875,-366.69921875,-299.31640625,68.359375,0.0
1734580759.184001,70.80078125,-624.51171875,-304.6875,68.84765625,0.0
1734580759.1879067,57.6171875,270.99609375,144.04296875,64.94140625,0.0
1734580759.1918335,57.12890625,120.1171875,-86.9140625,71.77734375,0.0
1734580759.1957395,60.05859375,-254.8828125,-264.16015625,69.82421875,0.0
1734580759.1996453,52.734375,61.03515625,-157.71484375,78.61328125,0.0
1734580759.2035513,64.453125,385.7421875,-210.9375,73.2421875,0.0
1734580759.2074573,67.3828125,189.453125,-367.1875,62.01171875,0.0
1734580759.211363,73.2421875,-259.765625,-455.078125,67.87109375,0.0
1734580759.215269,63.4765625,-246.09375,-371.58203125,70.3125,0.0
1734580759.219175,35.64453125,250.0,-248.046875,51.7578125,0.0
1734580759.2230809,40.0390625,93.26171875,-448.73046875,55.6640625,0.0
1734580759.226987,44.43359375,-648.4375,-535.64453125,76.171875,0.0
1734580759.230893,36.62109375,-313.4765625,-265.625,65.4296875,0.0
1734580759.234799,28.80859375,198.2421875,-277.83203125,55.17578125,0.0
1734580759.2387216,28.3203125,3.90625,0.0,66.89453125,0.0
1734580759.2426274,45.41015625,-39.55078125,0.0,65.4296875,0.0
1734580759.2465334,38.0859375,246.58203125,0.0,60.05859375,0.0
1734580759.2504394,26.3671875,65.91796875,0.0,70.80078125,0.0
1734580759.2543454,39.55078125,-315.4296875,0.0,75.68359375,0.0
1734580759.2582512,39.0625,-388.671875,0.0,69.82421875,0.0
1734580759.2621572,45.41015625,-264.6484375,0.0,67.3828125,0.0
1734580759.2660632,65.91796875,-285.64453125,0.0,73.73046875,0.0
1734580759.269969,45.8984375,-588.8671875,0.0,72.265625,0.0
1734580759.273875,31.25,-334.9609375,0.0,62.98828125,0.0
1734580759.277781,38.0859375,254.8828125,0.0,63.4765625,0.0
1734580759.281687,44.43359375,270.5078125,0.0,73.73046875,0.0
1734580759.285576,47.36328125,-390.625,-277.83203125,84.47265625,0.0
1734580759.289482,25.87890625,-364.2578125,-107.91015625,71.2890625,0.0
1734580759.2933881,31.25,301.7578125,72.265625,60.546875,0.0
1734580759.297294,37.109375,129.39453125,-135.25390625,67.87109375,0.0
1734580759.3012,30.76171875,-132.32421875,-257.8125,72.75390625,0.0
1734580759.305106,34.1796875,-221.6796875,-255.37109375,63.96484375,0.0
1734580759.3090117,40.0390625,-273.4375,-238.76953125,76.171875,0.0
1734580759.3129177,41.015625,-321.77734375,-296.875,67.3828125,0.0
1734580759.3168237,27.34375,-705.56640625,-359.375,62.5,0.0
1734580759.3207295,29.296875,-267.578125,1.46484375,61.03515625,0.0
1734580759.3246355,41.015625,308.10546875,147.4609375,57.12890625,0.0
1734580759.3285415,32.2265625,-52.734375,-96.19140625,64.94140625,0.0
1734580759.332559,28.80859375,-155.2734375,-150.87890625,60.05859375,0.0
1734580759.3364651,27.34375,196.2890625,55.17578125,58.59375,0.0
1734580759.3403711,42.48046875,243.65234375,46.875,52.734375,0.0
1734580759.344277,37.59765625,-106.4453125,-73.73046875,66.40625,0.0
1734580759.348183,26.3671875,-221.6796875,-57.6171875,75.1953125,0.0
1734580759.352089,48.33984375,-243.65234375,-153.80859375,79.1015625,0.0
1734580759.355995,57.12890625,-351.07421875,-205.56640625,82.03125,0.0
1734580759.3599007,65.91796875,-714.84375,-358.3984375,89.35546875,0.0
1734580759.3638067,58.59375,-708.0078125,-213.37890625,91.30859375,0.0
1734580759.3677127,60.546875,-52.24609375,140.625,83.49609375,0.0
1734580759.3716185,61.03515625,-206.0546875,-3.90625,81.54296875,0.0
1734580759.3755245,56.15234375,-466.30859375,-84.47265625,79.58984375,0.0
1734580759.3793807,56.640625,-177.734375,23.92578125,77.63671875,0.0
1734580759.3832865,51.26953125,194.82421875,138.18359375,73.2421875,0.0
1734580759.3871925,50.78125,3.90625,39.55078125,72.75390625,0.0
1734580759.3910985,49.31640625,-181.640625,26.85546875,58.59375,0.0
1734580759.3950045,56.15234375,-1.46484375,70.3125,62.01171875,0.0
1734580759.3989103,54.6875,-163.57421875,3.41796875,77.63671875,0.0
1734580759.4028163,52.24609375,-497.0703125,-76.171875,69.82421875,0.0
1734580759.4067223,66.89453125,-520.5078125,-49.8046875,62.01171875,0.0
1734580759.410628,54.19921875,-90.33203125,127.44140625,52.24609375,0.0
1734580759.414534,60.05859375,216.30859375,174.8046875,58.10546875,0.0
1734580759.41844,66.89453125,-231.93359375,-96.19140625,75.68359375,0.0
1734580759.4223459,48.33984375,-772.4609375,-263.671875,83.984375,0.0
1734580759.42619,52.734375,-289.0625,0.0,86.9140625,0.0
1734580759.430096,62.01171875,-197.265625,0.0,85.44921875,0.0
1734580759.434002,71.2890625,-495.60546875,0.0,87.40234375,0.0
1734580759.4379077,78.125,-250.0,0.0,80.56640625,0.0
1734580759.4418137,61.5234375,34.1796875,0.0,65.91796875,0.0
1734580759.4457197,46.875,-240.72265625,0.0,76.171875,0.0
1734580759.4496255,48.828125,-735.83984375,0.0,80.078125,0.0
1734580759.4535315,47.8515625,-918.9453125,0.0,78.125,0.0
1734580759.4574375,46.38671875,-273.92578125,0.0,67.87109375,0.0
1734580759.4613435,57.6171875,67.87109375,0.0,57.12890625,0.0
1734580759.4652493,54.6875,-217.7734375,0.0,64.94140625,0.0
1734580759.4691553,36.62109375,-118.65234375,0.0,67.87109375,0.0
1734580759.4734004,38.57421875,144.04296875,124.51171875,64.453125,0.0
1734580759.4773064,53.22265625,-33.203125,9.765625,67.87109375,0.0
1734580759.4812121,69.3359375,-260.25390625,-37.59765625,74.21875,0.0
1734580759.4851182,69.82421875,-122.55859375,61.03515625,70.80078125,0.0
1734580759.4890242,59.5703125,-268.06640625,-41.50390625,69.82421875,0.0
1734580759.49293,45.41015625,-585.9375,-243.1640625,79.1015625,0.0
1734580759.496836,43.9453125,-816.89453125,-271.97265625,83.49609375,0.0
1734580759.500742,42.48046875,-377.9296875,78.125,82.03125,0.0
1734580759.504648,34.66796875,108.88671875,210.44921875,66.89453125,0.0
1734580759.5085537,29.296875,-210.9375,-6.8359375,64.94140625,0.0
1734580759.5124598,31.25,-349.12109375,-63.4765625,72.75390625,0.0
1734580759.5163658,42.48046875,-26.3671875,89.35546875,63.4765625,0.0
1734580759.5201988,43.45703125,118.1640625,110.83984375,0.0,0.0
1734580759.5241048,30.2734375,-295.41015625,-63.96484375,0.0,0.0
1734580759.5280106,33.69140625,-437.98828125,-57.12890625,0.0,0.0
1734580759.5319166,42.96875,-46.875,89.35546875,0.0,0.0
1734580759.5358226,52.24609375,-13.671875,58.10546875,0.0,0.0
1734580759.5397286,55.6640625,-514.16015625,-142.578125,0.0,0.0
1734580759.5436344,51.26953125,-762.20703125,-112.3046875,0.0,0.0
1734580759.5475404,57.6171875,-485.83984375,50.29296875,0.0,0.0
1734580759.5514464,70.3125,-483.88671875,42.96875,0.0,0.0
1734580759.5553522,62.5,-622.0703125,-14.16015625,0.0,0.0
1734580759.5592582,48.828125,-345.21484375,61.03515625,0.0,0.0
1734580759.5631642,40.0390625,34.66796875,166.9921875,0.0,0.0
1734580759.5670917,0.0,-85.44921875,54.6875,63.4765625,0.0
1734580759.5709975,0.0,-434.5703125,-76.66015625,61.5234375,0.0
1734580759.5749035,0.0,-297.36328125,24.90234375,53.7109375,0.0
1734580759.5788095,0.0,59.5703125,123.046875,57.12890625,0.0
1734580759.5827155,0.0,-124.0234375,42.48046875,62.01171875,0.0
1734580759.5866213,0.0,-859.375,-379.8828125,70.3125,0.0
1734580759.5905273,0.0,-802.24609375,-232.421875,73.73046875,0.0
1734580759.5944333,0.0,9.765625,258.30078125,68.84765625,0.0
1734580759.598339,0.0,-162.109375,28.3203125,62.5,0.0
1734580759.602245,0.0,-425.78125,-58.10546875,58.59375,0.0
1734580759.606151,0.0,-230.46875,86.42578125,60.546875,0.0
1734580759.6100569,0.0,-89.35546875,88.37890625,56.15234375,0.0
1734580759.613968,56.15234375,-202.63671875,-28.80859375,64.94140625,0.0
1734580759.617874,77.63671875,-264.16015625,-30.2734375,76.171875,0.0
1734580759.62178,75.1953125,39.0625,105.95703125,73.73046875,0.0
1734580759.6256857,58.59375,52.734375,81.0546875,72.265625,0.0
1734580759.6295917,70.80078125,-228.02734375,-66.40625,80.56640625,0.0
1734580759.6334977,74.21875,-513.671875,-191.40625,78.125,0.0
1734580759.6374037,62.5,-416.015625,-52.24609375,72.265625,0.0
1734580759.6413095,52.24609375,-357.421875,73.2421875,75.1953125,0.0
1734580759.6452155,64.94140625,-754.39453125,-210.44921875,72.265625,0.0
1734580759.6491215,79.58984375,-699.21875,-183.10546875,75.1953125,0.0
1734580759.6530273,75.1953125,9.27734375,199.21875,58.59375,0.0
1734580759.6569333,74.21875,-145.01953125,61.5234375,55.6640625,0.0
1734580759.6608248,71.2890625,-306.640625,70.80078125,58.10546875,0.0
1734580759.6647308,67.87109375,-232.91015625,106.93359375,49.31640625,0.0
1734580759.6686366,72.265625,-119.140625,91.30859375,54.6875,0.0
1734580759.6725426,70.3125,-36.62109375,62.5,48.33984375,0.0
1734580759.6764486,67.3828125,-269.04296875,-20.99609375,48.33984375,0.0
1734580759.6803546,65.91796875,-482.91015625,-34.66796875,50.29296875,0.0
1734580759.6842604,71.77734375,-308.59375,85.44921875,54.19921875,0.0
1734580759.6881664,67.87109375,-165.52734375,49.31640625,63.96484375,0.0
1734580759.6920724,71.2890625,-742.1875,-225.09765625,73.2421875,0.0
1734580759.6959782,74.70703125,-392.08984375,44.43359375,70.80078125,0.0
1734580759.6998842,56.640625,138.671875,200.1953125,66.40625,0.0
1734580759.7037902,72.75390625,-230.95703125,-15.13671875,75.1953125,0.0
1734580759.7076573,96.19140625,-311.5234375,-17.08984375,71.2890625,0.0
1734580759.7115633,104.00390625,22.94921875,127.9296875,83.0078125,0.0
1734580759.7154694,109.375,112.3046875,107.91015625,91.30859375,0.0
1734580759.7193751,108.88671875,-365.234375,-60.05859375,85.9375,0.0
1734580759.7232811,114.2578125,-660.64453125,-62.5,79.58984375,0.0
1734580759.7271872,106.4453125,-457.51953125,42.48046875,75.1953125,0.0
1734580759.731093,83.0078125,-477.5390625,91.796875,70.3125,0.0
1734580759.734999,82.03125,-780.76171875,-184.5703125,71.2890625,0.0
1734580759.738905,81.0546875,-770.5078125,-181.15234375,73.73046875,0.0
1734580759.742811,79.58984375,-102.05078125,229.98046875,64.94140625,0.0
1734580759.7467167,90.8203125,39.0625,122.55859375,64.94140625,0.0
1734580759.7506227,115.72265625,-357.421875,-43.45703125,76.171875,0.0
1734580759.7544742,98.6328125,-280.76171875,63.4765625,83.49609375,0.0
1734580759.75838,70.80078125,89.35546875,166.9921875,71.2890625,0.0
1734580759.762286,73.2421875,-91.30859375,40.52734375,64.94140625,0.0
1734580759.766192,78.125,-417.96875,29.78515625,64.453125,0.0
1734580759.7700977,77.63671875,-182.12890625,109.375,65.91796875,0.0
1734580759.7740037,76.66015625,-200.68359375,67.87109375,64.453125,0.0
1734580759.7779098,81.54296875,-526.3671875,-6.8359375,57.12890625,0.0
1734580759.7818158,77.63671875,-842.7734375,-188.96484375,81.0546875,0.0
1734580759.7857215,94.23828125,-547.8515625,38.57421875,71.2890625,0.0
1734580759.7896276,96.6796875,93.75,236.81640625,56.15234375,0.0
1734580759.7935336,81.54296875,-136.71875,38.0859375,68.359375,0.0
1734580759.7974393,97.16796875,-313.4765625,23.92578125,67.87109375,0.0
1734580759.8013,0.0,36.1328125,150.87890625,65.4296875,0.0
1734580759.805206,0.0,164.0625,133.30078125,76.171875,0.0
1734580759.809112,0.0,-150.87890625,6.34765625,88.8671875,0.0
1734580759.8130178,0.0,-162.59765625,57.6171875,91.796875,0.0
1734580759.8169239,0.0,-0.9765625,81.0546875,84.47265625,0.0
1734580759.8208299,0.0,-323.2421875,-52.734375,73.73046875,0.0
1734580759.8247359,0.0,-740.72265625,-243.65234375,84.47265625,0.0
1734580759.8286417,0.0,-810.546875,-170.41015625,79.58984375,0.0
1734580759.8325477,0.0,-125.0,213.37890625,67.87109375,0.0
1734580759.8364537,0.0,103.515625,132.32421875,65.4296875,0.0
1734580759.8403594,0.0,-354.4921875,-83.0078125,59.08203125,0.0
1734580759.8442655,0.0,-430.6640625,-17.578125,61.5234375,0.0
1734580759.8477027,99.12109375,19.04296875,157.2265625,53.22265625,0.0
1734580759.8516088,97.65625,-21.97265625,23.92578125,66.40625,0.0
1734580759.8555148,107.421875,-348.6328125,-28.80859375,76.66015625,0.0
1734580759.8594205,117.1875,-182.6171875,81.54296875,69.3359375,0.0
1734580759.8633265,119.62890625,26.85546875,81.54296875,58.59375,0.0
1734580759.8672326,106.93359375,-368.1640625,-194.82421875,59.08203125,0.0
1734580759.8711383,114.74609375,-834.47265625,-324.70703125,63.96484375,0.0
1734580759.8750443,114.74609375,-420.8984375,45.8984375,51.26953125,0.0
1734580759.8789504,96.6796875,26.3671875,162.109375,59.08203125,0.0
1734580759.8828564,93.26171875,-262.20703125,-57.12890625,71.2890625,0.0
1734580759.8867621,86.9140625,-364.2578125,-100.5859375,72.265625,0.0
1734580759.8906682,76.171875,-61.5234375,43.9453125,70.3125,0.0
1734580759.8946176,83.0078125,64.94140625,70.80078125,74.70703125,0.0
1734580759.8985233,90.33203125,-436.5234375,-197.265625,81.0546875,0.0
1734580759.9024293,99.12109375,-825.1953125,-324.21875,58.59375,0.0
1734580759.9063354,84.9609375,-251.953125,20.01953125,54.19921875,0.0
1734580759.9102411,74.21875,-60.546875,32.2265625,70.80078125,0.0
1734580759.9141471,80.078125,-601.5625,-258.7890625,67.87109375,0.0
1734580759.9180532,86.42578125,-852.5390625,-262.6953125,65.91796875,0.0
1734580759.9219592,83.984375,-528.3203125,-41.015625,66.89453125,0.0
1734580759.925865,87.890625,-217.7734375,52.24609375,59.5703125,0.0
1734580759.929771,84.47265625,-418.45703125,-80.56640625,53.7109375,0.0
1734580759.933677,61.5234375,-352.5390625,-27.83203125,38.57421875,0.0
1734580759.9375827,51.7578125,50.29296875,118.1640625,36.62109375,0.0
1734580759.9415176,57.6171875,-51.7578125,1.46484375,51.7578125,0.0
1734580759.9454236,57.12890625,-523.92578125,-198.2421875,38.57421875,0.0
1734580759.9493294,51.7578125,-379.8828125,-33.69140625,36.62109375,0.0
1734580759.9532354,55.17578125,93.26171875,115.234375,37.109375,0.0
1734580759.9571414,49.8046875,-123.53515625,-30.2734375,24.90234375,0.0
1734580759.9610472,47.36328125,-524.4140625,-195.80078125,35.64453125,0.0
1734580759.9649532,49.8046875,-637.6953125,-260.25390625,38.57421875,0.0
1734580759.9688592,51.7578125,-297.36328125,-6.34765625,32.71484375,0.0
1734580759.972765,60.546875,-183.59375,16.11328125,41.9921875,0.0
1734580759.976671,64.453125,-765.625,-275.87890625,52.24609375,0.0
1734580759.980577,72.265625,-385.7421875,23.4375,42.96875,0.0
1734580759.984483,66.89453125,144.04296875,164.55078125,55.6640625,0.0
1734580759.9883964,0.0,-207.03125,-38.0859375,59.08203125,0.0
1734580759.9923024,0.0,-287.109375,-28.3203125,41.50390625,0.0
1734580759.9962082,0.0,-10.7421875,94.23828125,39.55078125,0.0
1734580760.0001142,0.0,21.484375,68.359375,46.875,0.0
1734580760.0040202,0.0,-322.265625,-90.33203125,51.7578125,0.0
1734580760.007926,0.0,-681.640625,-212.890625,40.52734375,0.0
1734580760.011832,0.0,-563.4765625,-150.87890625,52.734375,0.0
1734580760.015738,0.0,-509.765625,-89.84375,58.10546875,0.0
1734580760.019644,0.0,-818.84765625,-300.29296875,55.17578125,0.0
1734580760.0235498,0.0,-753.90625,-197.75390625,48.828125,0.0
1734580760.0274558,0.0,-62.98828125,199.21875,29.296875,0.0
1734580760.0313618,0.0,-1.953125,71.77734375,30.2734375,0.0
1734580760.0348716,54.19921875,-300.29296875,28.80859375,34.1796875,0.0
1734580760.0387776,56.640625,-159.66796875,101.5625,41.50390625,0.0
1734580760.0426834,55.6640625,78.61328125,94.7265625,41.50390625,0.0
1734580760.0465894,67.3828125,-103.515625,26.85546875,48.828125,0.0
1734580760.0504954,71.2890625,-361.81640625,-47.36328125,59.5703125,0.0
1734580760.0544012,66.40625,-557.12890625,-45.8984375,55.17578125,0.0
1734580760.0583072,58.59375,-377.9296875,78.125,60.05859375,0.0
1734580760.0622132,70.3125,-202.63671875,36.62109375,79.58984375,0.0
1734580760.066119,73.73046875,-754.8828125,-221.6796875,75.68359375,0.0
1734580760.070025,52.24609375,-403.3203125,45.8984375,72.75390625,0.0
1734580760.073931,41.015625,51.7578125,165.52734375,80.56640625,0.0
1734580760.0778368,46.875,-458.49609375,-52.734375,89.35546875,0.0
1734580760.081728,119.140625,-467.7734375,0.0,84.47265625,0.0
1734580760.0856338,101.07421875,29.296875,0.0,74.70703125,0.0
1734580760.0895398,114.74609375,121.58203125,0.0,88.8671875,0.0
1734580760.0934458,116.69921875,-273.92578125,0.0,91.30859375,0.0
1734580760.0973516,114.2578125,-345.21484375,0.0,84.9609375,0.0
1734580760.1012576,118.1640625,-267.08984375,0.0,86.9140625,0.0
1734580760.1051636,113.28125,-436.5234375,0.0,91.796875,0.0
1734580760.1090693,101.07421875,-744.62890625,0.0,94.23828125,0.0
1734580760.1129754,102.5390625,-812.01171875,0.0,88.8671875,0.0
1734580760.1168814,103.515625,-123.046875,0.0,79.58984375,0.0
1734580760.1207871,101.5625,46.38671875,0.0,78.125,0.0
1734580760.1246932,107.91015625,-211.9140625,0.0,74.70703125,0.0
1734580760.1285582,88.37890625,-108.3984375,108.3984375,67.3828125,0.0
1734580760.1324642,75.1953125,93.26171875,122.55859375,81.0546875,0.0
1734580760.13637,92.7734375,-187.01171875,17.578125,83.984375,0.0
1734580760.140276,96.19140625,-393.06640625,-14.16015625,70.80078125,0.0
1734580760.144182,88.8671875,-126.46484375,76.171875,78.125,0.0
1734580760.1480877,94.7265625,-297.8515625,-71.77734375,77.1484375,0.0
1734580760.1519938,83.49609375,-587.40234375,-226.07421875,66.89453125,0.0
1734580760.1558998,71.2890625,-800.78125,-260.25390625,74.21875,0.0
1734580760.1598055,88.8671875,-367.1875,58.10546875,64.94140625,0.0
1734580760.1637115,97.65625,155.76171875,184.5703125,58.59375,0.0
1734580760.1676176,92.7734375,-167.48046875,-37.59765625,79.58984375,0.0
1734580760.1715233,95.703125,-333.0078125,-67.87109375,76.66015625,0.0
1734580760.1755161,0.0,-5.37109375,93.26171875,72.75390625,0.0
1734580760.179422,0.0,141.6015625,83.49609375,80.56640625,0.0
1734580760.183328,0.0,-201.66015625,-97.16796875,68.359375,0.0
1734580760.187234,0.0,-250.9765625,-80.56640625,77.63671875,0.0
1734580760.1911397,0.0,41.015625,55.6640625,93.75,0.0
1734580760.1950457,0.0,-263.18359375,-117.67578125,85.9375,0.0
1734580760.1989517,0.0,-739.2578125,-377.44140625,80.56640625,0.0
1734580760.2028575,0.0,-898.4375,-317.3828125,73.2421875,0.0
1734580760.2067635,0.0,-409.66796875,85.9375,64.453125,0.0
1734580760.2106695,0.0,-78.125,94.7265625,56.640625,0.0
1734580760.2145753,0.0,-269.53125,-35.15625,53.7109375,0.0
1734580760.2184813,0.0,-164.0625,41.9921875,57.12890625,0.0
1734580760.2225854,84.47265625,96.19140625,99.12109375,62.5,0.0
1734580760.2264915,86.42578125,-24.4140625,10.25390625,53.22265625,0.0
1734580760.2303972,68.359375,-285.64453125,-41.015625,58.10546875,0.0
1734580760.2343032,75.1953125,-138.671875,62.98828125,80.078125,0.0
1734580760.2382092,82.03125,34.66796875,62.5,65.4296875,0.0
1734580760.2421153,88.8671875,-427.24609375,-205.56640625,56.640625,0.0
1734580760.246021,95.703125,-624.0234375,-155.76171875,64.453125,0.0
1734580760.249927,94.7265625,-145.5078125,125.0,66.89453125,0.0
1734580760.253833,105.46875,-88.37890625,57.12890625,77.63671875,0.0
1734580760.2577388,107.91015625,-538.57421875,-160.64453125,88.37890625,0.0
1734580760.2616448,103.02734375,-877.9296875,-270.01953125,94.7265625,0.0
1734580760.2655509,89.84375,-378.90625,61.5234375,82.03125,0.0
1734580760.2693908,0.0,99.609375,0.0,69.82421875,0.0
1734580760.2732966,0.0,-417.96875,0.0,80.56640625,0.0
1734580760.2772026,0.0,-609.375,0.0,83.984375,0.0
1734580760.2811086,0.0,-42.48046875,0.0,76.171875,0.0
1734580760.2850144,0.0,-3.41796875,0.0,89.35546875,0.0
1734580760.2889204,0.0,-552.24609375,0.0,93.26171875,0.0
1734580760.2928264,0.0,-802.24609375,0.0,71.2890625,0.0
1734580760.2967322,0.0,-569.82421875,0.0,71.77734375,0.0
1734580760.3006382,0.0,-499.51171875,0.0,71.2890625,0.0
1734580760.3045442,0.0,-608.3984375,0.0,67.3828125,0.0
1734580760.30845,0.0,-388.671875,0.0,68.359375,0.0
1734580760.312356,0.0,-55.6640625,0.0,49.8046875,0.0
1734580760.3158882,87.40234375,-291.015625,226.07421875,60.05859375,0.0
1734580760.3197942,117.1875,-708.984375,-91.796875,67.87109375,0.0
1734580760.3237,120.60546875,-510.7421875,-143.5546875,54.6875,0.0
1734580760.327606,110.83984375,55.6640625,147.94921875,48.33984375,0.0
1734580760.331512,104.4921875,-47.8515625,69.82421875,56.15234375,0.0
1734580760.3354177,96.6796875,-709.47265625,-138.671875,66.89453125,0.0
1734580760.3393238,93.75,-556.640625,-100.5859375,69.82421875,0.0
1734580760.3432298,90.33203125,126.46484375,53.7109375,67.3828125,0.0
1734580760.3471355,91.30859375,-116.69921875,67.3828125,68.359375,0.0
1734580760.3510416,82.51953125,-640.13671875,-21.97265625,83.0078125,0.0
1734580760.3549476,83.49609375,-231.93359375,38.0859375,81.0546875,0.0
1734580760.3588533,85.44921875,182.12890625,140.13671875,70.80078125,0.0
1734580760.3623798,72.75390625,-212.40234375,42.96875,85.9375,0.0
1734580760.3662858,76.171875,-323.73046875,-125.0,80.56640625,0.0
1734580760.3701918,75.68359375,3.90625,-0.9765625,73.2421875,0.0
1734580760.3740976,73.73046875,-206.0546875,202.63671875,80.56640625,0.0
1734580760.3780036,76.66015625,-630.859375,70.80078125,65.91796875,0.0
1734580760.3819096,82.03125,-708.49609375,-188.96484375,62.98828125,0.0
1734580760.3858154,82.51953125,-437.01171875,1.953125,62.5,0.0
1734580760.3897214,76.171875,-306.640625,220.703125,60.05859375,0.0
1734580760.3936274,89.84375,-681.640625,-4.39453125,78.61328125,0.0
1734580760.3975332,103.515625,-684.5703125,-164.0625,76.171875,0.0
1734580760.4014392,100.09765625,165.52734375,87.890625,61.03515625,0.0
1734580760.4053452,89.35546875,275.87890625,182.12890625,63.4765625,0.0
1734580760.4092593,64.453125,-85.9375,-21.484375,53.7109375,0.0
1734580760.4131653,61.03515625,54.6875,72.75390625,48.33984375,0.0
1734580760.4170713,61.5234375,367.67578125,132.32421875,52.24609375,0.0
1734580760.420977,73.73046875,189.453125,35.15625,44.43359375,0.0
1734580760.4248831,87.40234375,-58.10546875,-30.2734375,53.22265625,0.0
1734580760.4287891,69.3359375,-168.9453125,-16.11328125,65.4296875,0.0
1734580760.432695,62.98828125,-197.75390625,26.85546875,55.6640625,0.0
1734580760.436601,71.77734375,-187.98828125,-6.8359375,66.40625,0.0
1734580760.440507,82.03125,-605.95703125,-187.01171875,78.61328125,0.0
1734580760.4444127,92.28515625,-198.2421875,49.31640625,67.87109375,0.0
1734580760.4483187,99.609375,443.359375,207.51953125,70.80078125,0.0
1734580760.4522247,106.4453125,116.69921875,-0.48828125,67.87109375,0.0
1734580760.4561129,93.26171875,51.7578125,3.90625,59.5703125,0.0
1734580760.4600189,83.984375,419.921875,139.16015625,52.734375,0.0
1734580760.463925,92.28515625,482.91015625,87.40234375,55.17578125,0.0
1734580760.4678307,88.37890625,90.8203125,-49.8046875,64.94140625,0.0
1734580760.4717367,87.890625,-51.7578125,-45.8984375,66.89453125,0.0
1734580760.4756427,89.84375,-32.71484375,-21.97265625,66.89453125,0.0
1734580760.4795485,67.87109375,-103.02734375,27.34375,50.78125,0.0
1734580760.4834545,78.125,-548.33984375,-189.453125,45.41015625,0.0
1734580760.4873605,93.75,-623.046875,-177.24609375,62.5,0.0
1734580760.4912663,61.03515625,40.0390625,166.015625,53.22265625,0.0
1734580760.4951723,49.8046875,182.12890625,84.47265625,46.875,0.0
1734580760.4990783,65.91796875,-153.80859375,-90.33203125,53.7109375,0.0
1734580760.5029461,62.98828125,-62.01171875,8.30078125,46.875,0.0
1734580760.5068521,47.8515625,421.875,156.73828125,45.41015625,0.0
1734580760.5107582,55.6640625,250.9765625,32.2265625,62.98828125,0.0
1734580760.514664,79.58984375,-55.17578125,-55.6640625,68.359375,0.0
1734580760.51857,85.9375,126.953125,32.71484375,66.40625,0.0
1734580760.522476,91.796875,143.06640625,57.12890625,74.21875,0.0
1734580760.5263817,90.33203125,-184.08203125,-62.01171875,67.3828125,0.0
1734580760.5302877,73.2421875,-628.41796875,-204.58984375,76.171875,0.0
1734580760.5341938,73.2421875,-144.04296875,67.87109375,80.56640625,0.0
1734580760.5380995,85.44921875,564.94140625,222.65625,81.54296875,0.0
1734580760.5420055,98.14453125,214.84375,16.11328125,83.984375,0.0
1734580760.5459116,82.03125,70.80078125,17.578125,62.01171875,0.0
1734580760.5497699,0.0,178.22265625,0.0,59.08203125,0.0
1734580760.553676,0.0,180.6640625,0.0,57.6171875,0.0
1734580760.5575817,0.0,107.91015625,0.0,70.3125,0.0
1734580760.5614877,0.0,122.0703125,0.0,61.5234375,0.0
1734580760.5653937,0.0,304.6875,0.0,46.875,0.0
1734580760.5692995,0.0,113.76953125,0.0,48.33984375,0.0
1734580760.5732055,0.0,-503.90625,0.0,47.36328125,0.0
1734580760.5771115,0.0,-728.515625,0.0,43.9453125,0.0
1734580760.5810173,0.0,197.75390625,0.0,25.87890625,0.0
1734580760.5849233,0.0,382.32421875,0.0,30.76171875,0.0
1734580760.5888293,0.0,56.640625,0.0,32.71484375,0.0
1734580760.592735,0.0,237.79296875,0.0,38.57421875,0.0
1734580760.5967114,66.40625,491.2109375,128.41796875,47.8515625,0.0
1734580760.6006172,75.1953125,338.37890625,32.71484375,55.6640625,0.0
1734580760.6045232,76.66015625,72.75390625,-4.39453125,74.21875,0.0
1734580760.6084292,75.68359375,56.640625,39.55078125,74.70703125,0.0
1734580760.612335,85.44921875,116.69921875,22.94921875,75.68359375,0.0
1734580760.616241,95.21484375,3.41796875,-6.8359375,90.33203125,0.0
1734580760.620147,80.56640625,-562.5,-167.96875,74.21875,0.0
1734580760.6240528,67.87109375,-250.0,39.55078125,75.68359375,0.0
1734580760.6279588,74.70703125,449.21875,226.07421875,83.0078125,0.0
1734580760.6318648,93.75,122.0703125,-23.92578125,74.70703125,0.0
1734580760.6357706,89.35546875,-164.55078125,-103.02734375,84.47265625,0.0
1734580760.6396766,83.49609375,329.1015625,134.765625,77.63671875,0.0
1734580760.643501,80.078125,498.046875,121.58203125,71.2890625,0.0
1734580760.647407,79.1015625,102.5390625,-31.25,88.37890625,0.0
1734580760.6513128,91.30859375,25.390625,-14.16015625,84.9609375,0.0
1734580760.6552188,79.58984375,384.765625,140.625,63.4765625,0.0
1734580760.6591249,70.3125,461.42578125,106.93359375,67.3828125,0.0
1734580760.6630306,76.66015625,-162.59765625,-118.65234375,71.77734375,0.0
1734580760.6669366,82.03125,-512.20703125,-131.8359375,55.6640625,0.0
1734580760.6708426,62.98828125,-178.7109375,21.97265625,51.26953125,0.0
1734580760.6747484,58.59375,-2.44140625,104.98046875,50.29296875,0.0
1734580760.6786544,67.87109375,-486.328125,-169.43359375,51.7578125,0.0
1734580760.6825604,60.05859375,-600.09765625,-195.3125,42.96875,0.0
1734580760.6864662,55.6640625,310.546875,206.0546875,52.734375,0.0
1734580760.6904097,61.03515625,387.20703125,76.66015625,60.05859375,0.0
1734580760.6943157,71.2890625,132.32421875,27.83203125,59.5703125,0.0
1734580760.6982217,81.0546875,271.97265625,94.23828125,69.3359375,0.0
1734580760.7021275,85.9375,497.0703125,118.65234375,63.4765625,0.0
1734580760.7060335,87.890625,273.92578125,20.01953125,71.77734375,0.0
1734580760.7099395,86.42578125,-241.69921875,-170.41015625,86.42578125,0.0
