timestamps,TP9,AF7,AF8,TP10,Right AUX
1734580934.5583136,-28.80859375,-1000.0,-714.35546875,-18.06640625,0.0
1734580934.5622196,-30.76171875,-1000.0,-837.40234375,-20.01953125,0.0
1734580934.5661256,-31.73828125,-1000.0,-834.47265625,-17.08984375,0.0
1734580934.5700316,-28.80859375,-1000.0,-748.046875,-22.4609375,0.0
1734580934.5739377,-16.6015625,-1000.0,-787.59765625,-30.76171875,0.0
1734580934.5778437,-23.4375,-1000.0,-868.65234375,-27.83203125,0.0
1734580934.5817497,-40.0390625,-1000.0,-880.859375,-25.87890625,0.0
1734580934.585656,-35.15625,-1000.0,-726.5625,-30.2734375,0.0
1734580934.589562,-25.87890625,-1000.0,-728.515625,-32.2265625,0.0
1734580934.593468,-21.97265625,-1000.0,-760.7421875,-26.85546875,0.0
1734580934.597374,-19.53125,-1000.0,-745.1171875,-22.4609375,0.0
1734580934.6010866,-11.23046875,-1000.0,-721.6796875,-25.390625,0.0
1734580934.6049926,-11.71875,-1000.0,-766.11328125,-24.90234375,0.0
1734580934.6088986,-14.6484375,-1000.0,-811.03515625,-11.71875,0.0
1734580934.6128047,-16.6015625,-1000.0,-746.09375,-11.71875,0.0
1734580934.6167107,-10.7421875,-1000.0,-775.390625,-19.53125,0.0
1734580934.620617,-13.18359375,-1000.0,-816.89453125,-5.859375,0.0
1734580934.624523,-14.16015625,-1000.0,-849.609375,-1.46484375,0.0
1734580934.628429,-12.20703125,-1000.0,-825.68359375,-17.08984375,0.0
1734580934.632335,-13.18359375,-1000.0,-738.28125,-20.01953125,0.0
1734580934.636241,-11.71875,-1000.0,-789.0625,-7.8125,0.0
1734580934.640147,-18.5546875,-1000.0,-798.33984375,-15.625,0.0
1734580934.644053,-19.04296875,-1000.0,-746.09375,-32.71484375,0.0
1734580934.6477356,-4.8828125,-1000.0,-740.72265625,-22.4609375,0.0
1734580934.6516416,-12.20703125,-1000.0,-830.56640625,-20.01953125,0.0
1734580934.6555476,-20.01953125,-1000.0,-894.04296875,-25.390625,0.0
1734580934.6594536,-16.6015625,-1000.0,-815.91796875,-25.87890625,0.0
1734580934.6633596,-19.04296875,-1000.0,-778.3203125,-28.3203125,0.0
1734580934.6672657,-20.01953125,-1000.0,-895.01953125,-18.06640625,0.0
1734580934.671172,-21.484375,-1000.0,-914.55078125,-19.04296875,0.0
1734580934.675078,-22.94921875,-1000.0,-782.2265625,-19.04296875,0.0
1734580934.678984,-27.34375,-1000.0,-791.9921875,-17.08984375,0.0
1734580934.68289,-39.55078125,-1000.0,-808.59375,-29.296875,0.0
1734580934.686796,-31.73828125,-1000.0,-793.9453125,-23.92578125,0.0
1734580934.690702,-27.83203125,-1000.0,-775.390625,-19.53125,0.0
1734580934.6951354,-23.4375,-1000.0,-811.03515625,-13.671875,0.0
1734580934.6990414,-14.6484375,-1000.0,-836.9140625,-15.625,0.0
1734580934.7029474,-20.01953125,-1000.0,-798.33984375,-9.27734375,0.0
1734580934.7068534,-20.01953125,-1000.0,-787.59765625,-7.8125,0.0
1734580934.7107594,-10.7421875,-1000.0,-811.03515625,-11.23046875,0.0
1734580934.7146657,-6.34765625,-1000.0,-845.703125,0.0,0.0
1734580934.7185717,1.953125,-1000.0,-824.70703125,-11.71875,0.0
1734580934.7224777,-0.9765625,-1000.0,-789.0625,-20.5078125,0.0
1734580934.7263837,-3.90625,-1000.0,-832.51953125,-4.8828125,0.0
1734580934.7302897,1.953125,-1000.0,-849.609375,3.41796875,0.0
1734580934.7341957,-12.20703125,-1000.0,-807.12890625,0.0,0.0
1734580934.7381017,-7.8125,-1000.0,-809.5703125,-8.7890625,0.0
1734580934.741986,-12.6953125,-1000.0,-838.8671875,-16.6015625,0.0
1734580934.745892,-31.73828125,-1000.0,-854.98046875,-20.5078125,0.0
1734580934.749798,-35.15625,-1000.0,-809.08203125,-34.66796875,0.0
1734580934.753704,-38.57421875,-1000.0,-809.5703125,-39.55078125,0.0
1734580934.7576103,-31.73828125,-1000.0,-828.125,-30.2734375,0.0
1734580934.7615163,-25.390625,-1000.0,-871.09375,-28.3203125,0.0
1734580934.7654223,-30.2734375,-1000.0,-805.17578125,-29.296875,0.0
1734580934.7693284,-35.15625,-1000.0,-781.25,-35.15625,0.0
1734580934.7732344,-25.390625,-1000.0,-896.484375,-27.34375,0.0
1734580934.7771404,-32.71484375,-1000.0,-906.25,-25.390625,0.0
1734580934.7810464,-44.921875,-1000.0,-763.18359375,-44.43359375,0.0
1734580934.7849526,-31.25,-1000.0,-800.29296875,-42.48046875,0.0
1734580934.7890716,-23.92578125,-1000.0,-840.33203125,-27.83203125,0.0
1734580934.7929776,-23.4375,-1000.0,-788.57421875,-31.73828125,0.0
1734580934.7968836,-28.3203125,-1000.0,-787.59765625,-27.83203125,0.0
1734580934.8007896,-31.73828125,-1000.0,-811.5234375,-18.5546875,0.0
1734580934.8046956,-26.3671875,-1000.0,-840.33203125,-13.671875,0.0
1734580934.8086019,-26.3671875,-1000.0,-848.14453125,-15.13671875,0.0
1734580934.8125079,-29.78515625,-1000.0,-800.78125,-25.87890625,0.0
1734580934.8164139,-27.83203125,-1000.0,-791.50390625,-21.484375,0.0
1734580934.82032,-28.3203125,-1000.0,-850.09765625,-20.5078125,0.0
1734580934.824226,-37.109375,-1000.0,-798.33984375,-25.390625,0.0
1734580934.828132,-44.921875,-1000.0,-776.85546875,-25.390625,0.0
1734580934.832038,-43.45703125,-1000.0,-857.421875,-27.34375,0.0
1734580934.8358493,-28.80859375,-1000.0,-836.9140625,-24.4140625,0.0
1734580934.8397555,-31.25,-1000.0,-774.4140625,-22.94921875,0.0
1734580934.8436615,-37.59765625,-1000.0,-808.59375,-16.11328125,0.0
1734580934.8475676,-32.2265625,-1000.0,-863.76953125,-12.20703125,0.0
1734580934.8514736,-38.0859375,-1000.0,-849.12109375,-21.484375,0.0
1734580934.8553796,-49.31640625,-1000.0,-831.0546875,-33.69140625,0.0
1734580934.8592856,-54.19921875,-1000.0,-821.2890625,-27.83203125,0.0
1734580934.8631916,-42.48046875,-1000.0,-814.453125,-26.85546875,0.0
1734580934.8670979,-37.109375,-1000.0,-809.08203125,-32.71484375,0.0
1734580934.8710039,-37.59765625,-1000.0,-767.08984375,-33.69140625,0.0
1734580934.8749099,-26.3671875,-1000.0,-743.65234375,-28.80859375,0.0
1734580934.878816,-3.90625,-1000.0,-867.1875,-19.53125,0.0
1734580934.882617,4.8828125,-1000.0,-876.953125,-20.99609375,0.0
1734580934.886523,-11.23046875,-1000.0,-745.60546875,-23.92578125,0.0
1734580934.890429,-17.08984375,-1000.0,-818.359375,-19.04296875,0.0
1734580934.894335,-16.11328125,-1000.0,-816.89453125,-15.13671875,0.0
1734580934.898241,-16.11328125,-1000.0,-777.83203125,-17.08984375,0.0
1734580934.9021473,-21.97265625,-1000.0,-808.59375,-20.01953125,0.0
1734580934.9060533,-32.2265625,-1000.0,-809.08203125,-38.0859375,0.0
1734580934.9099593,-47.8515625,-1000.0,-835.44921875,-38.57421875,0.0
1734580934.9138653,-52.734375,-1000.0,-797.8515625,-32.2265625,0.0
1734580934.9177713,-53.22265625,-1000.0,-707.03125,-44.921875,0.0
1734580934.9216774,-44.43359375,-1000.0,-756.8359375,-48.828125,0.0
1734580934.9255834,-45.8984375,-1000.0,-789.55078125,-50.29296875,0.0
1734580934.9293501,-59.08203125,-1000.0,-739.74609375,-44.43359375,0.0
1734580934.9332561,-56.15234375,-1000.0,-743.1640625,-53.7109375,0.0
1734580934.9371622,-52.24609375,-1000.0,-862.3046875,-49.31640625,0.0
1734580934.9410682,-47.8515625,-1000.0,-842.7734375,-40.52734375,0.0
1734580934.9449742,-53.7109375,-1000.0,-736.328125,-58.59375,0.0
1734580934.9488802,-65.91796875,-1000.0,-771.484375,-63.96484375,0.0
1734580934.9527864,-49.31640625,-1000.0,-862.79296875,-58.59375,0.0
1734580934.9566925,-46.875,-1000.0,-872.55859375,-62.5,0.0
1734580934.9605985,-56.640625,-1000.0,-698.2421875,-61.03515625,0.0
1734580934.9645045,-48.828125,-1000.0,-710.9375,-53.22265625,0.0
1734580934.9684105,-57.12890625,-1000.0,-745.60546875,-60.546875,0.0
1734580934.9723165,-57.6171875,-1000.0,-718.26171875,-50.78125,0.0
1734580934.976033,-49.31640625,-1000.0,-702.1484375,-45.8984375,0.0
1734580934.979939,-56.640625,-1000.0,-728.515625,-62.5,0.0
1734580934.9838452,-64.453125,-1000.0,-777.34375,-59.08203125,0.0
1734580934.9877512,-55.17578125,-1000.0,-723.14453125,-37.59765625,0.0
1734580934.9916573,-51.7578125,-1000.0,-738.28125,-40.52734375,0.0
1734580934.9955633,-51.26953125,-1000.0,-801.7578125,-45.8984375,0.0
1734580934.9994693,-47.8515625,-1000.0,-861.328125,-36.1328125,0.0
1734580935.0033753,-59.08203125,-1000.0,-813.4765625,-38.0859375,0.0
1734580935.0072813,-64.94140625,-1000.0,-718.75,-42.48046875,0.0
1734580935.0111873,-64.453125,-1000.0,-749.0234375,-42.96875,0.0
1734580935.0150936,-66.40625,-1000.0,-749.51171875,-50.29296875,0.0
1734580935.0189996,-66.40625,-1000.0,-713.8671875,-54.19921875,0.0
1734580935.022721,-61.5234375,-1000.0,-695.80078125,-35.64453125,0.0
1734580935.026627,-48.828125,-1000.0,-768.5546875,-18.5546875,0.0
1734580935.030533,-41.50390625,-1000.0,-828.125,-21.484375,0.0
1734580935.034439,-50.29296875,-1000.0,-727.05078125,-29.78515625,0.0
1734580935.0383453,-42.96875,-1000.0,-692.87109375,-22.94921875,0.0
1734580935.0422513,-26.85546875,-1000.0,-838.8671875,-16.6015625,0.0
1734580935.0461574,-29.78515625,-1000.0,-855.46875,-22.94921875,0.0
1734580935.0500634,-28.3203125,-1000.0,-686.03515625,-19.04296875,0.0
1734580935.0539694,-25.87890625,-1000.0,-696.77734375,-8.7890625,0.0
1734580935.0578754,-16.6015625,-1000.0,-725.09765625,-5.859375,0.0
1734580935.0617814,1.953125,-1000.0,-701.66015625,0.48828125,0.0
1734580935.0656874,4.39453125,-1000.0,-699.70703125,4.39453125,0.0
1734580935.069889,4.8828125,-1000.0,-720.21484375,-4.8828125,0.0
1734580935.073795,14.6484375,-1000.0,-738.76953125,-7.32421875,0.0
1734580935.0777013,1.953125,-1000.0,-693.84765625,-4.8828125,0.0
1734580935.0816073,-3.41796875,-1000.0,-666.9921875,-1.46484375,0.0
1734580935.0855134,8.30078125,-1000.0,-708.984375,1.46484375,0.0
1734580935.0894194,2.44140625,-1000.0,-771.484375,8.30078125,0.0
1734580935.0933254,0.48828125,-1000.0,-719.7265625,17.578125,0.0
1734580935.0972314,-3.90625,-1000.0,-662.59765625,11.71875,0.0
1734580935.1011374,-19.53125,-1000.0,-708.49609375,-14.6484375,0.0
1734580935.1050434,-20.99609375,-1000.0,-769.53125,-22.94921875,0.0
1734580935.1089497,-16.6015625,-1000.0,-687.98828125,-3.90625,0.0
1734580935.1128557,-22.94921875,-1000.0,-650.390625,2.44140625,0.0
1734580935.116743,-25.390625,-1000.0,-730.46875,-1.46484375,0.0
1734580935.120649,-19.53125,-1000.0,-753.90625,4.39453125,0.0
1734580935.1245553,-21.97265625,-1000.0,-698.2421875,7.32421875,0.0
1734580935.1284614,-17.08984375,-1000.0,-715.8203125,4.8828125,0.0
1734580935.1323674,-17.08984375,-1000.0,-758.7890625,-5.37109375,0.0
1734580935.1362734,-22.4609375,-1000.0,-785.15625,-14.6484375,0.0
1734580935.1401794,-6.8359375,-1000.0,-692.3828125,2.44140625,0.0
1734580935.1440854,-1.46484375,-1000.0,-631.8359375,2.44140625,0.0
1734580935.1479914,-3.41796875,-1000.0,-713.37890625,-8.7890625,0.0
1734580935.1518974,2.44140625,-1000.0,-720.21484375,-2.9296875,0.0
1734580935.1558037,8.7890625,-1000.0,-661.1328125,-3.90625,0.0
1734580935.1597097,14.16015625,-1000.0,-686.5234375,-11.71875,0.0
1734580935.1638577,15.625,-1000.0,-793.9453125,10.7421875,0.0
1734580935.1677637,18.5546875,-1000.0,-815.91796875,11.23046875,0.0
1734580935.1716697,14.6484375,-1000.0,-620.60546875,-4.39453125,0.0
1734580935.1755757,14.6484375,-1000.0,-640.625,4.39453125,0.0
1734580935.179482,11.23046875,-1000.0,-719.7265625,0.0,0.0
1734580935.183388,1.953125,-1000.0,-717.28515625,0.48828125,0.0
1734580935.187294,0.0,-1000.0,-681.640625,-4.39453125,0.0
1734580935.1912,-5.859375,-1000.0,-685.05859375,-8.7890625,0.0
1734580935.195106,-18.06640625,-1000.0,-743.1640625,-1.953125,0.0
1734580935.199012,-18.06640625,-1000.0,-683.10546875,4.8828125,0.0
1734580935.202918,-11.71875,-1000.0,-586.9140625,-16.11328125,0.0
1734580935.2068243,-16.6015625,-1000.0,-658.203125,-21.484375,0.0
1734580935.2106628,-24.4140625,-1000.0,0.0,-12.6953125,0.0
1734580935.214569,-15.13671875,-1000.0,0.0,-14.16015625,0.0
1734580935.218475,-6.8359375,-1000.0,0.0,-3.90625,0.0
1734580935.222381,-20.01953125,-1000.0,0.0,-5.859375,0.0
1734580935.2262871,-26.85546875,-1000.0,0.0,-6.8359375,0.0
1734580935.2301931,-20.01953125,-1000.0,0.0,-0.9765625,0.0
1734580935.2340991,-11.71875,-1000.0,0.0,2.44140625,0.0
1734580935.2380052,-6.8359375,-1000.0,0.0,5.37109375,0.0
1734580935.2419114,1.46484375,-1000.0,0.0,6.34765625,0.0
1734580935.2458174,12.6953125,-1000.0,0.0,2.44140625,0.0
1734580935.2497234,19.53125,-1000.0,0.0,-1.46484375,0.0
1734580935.2536294,25.390625,-1000.0,0.0,15.13671875,0.0
1734580935.2574267,18.06640625,-1000.0,-789.0625,18.06640625,0.0
1734580935.2613328,0.0,-1000.0,-560.05859375,-7.8125,0.0
1734580935.2652388,6.8359375,-1000.0,-612.3046875,-2.9296875,0.0
1734580935.2691448,5.37109375,-1000.0,-652.34375,-3.41796875,0.0
1734580935.273051,-13.18359375,-1000.0,-612.79296875,-14.6484375,0.0
1734580935.276957,-14.6484375,-1000.0,-679.6875,-11.23046875,0.0
1734580935.280863,-13.18359375,-1000.0,-652.83203125,-12.6953125,0.0
1734580935.284769,-13.671875,-1000.0,-713.8671875,-8.30078125,0.0
1734580935.288675,-12.20703125,-1000.0,-690.4296875,-6.8359375,0.0
1734580935.292581,-13.18359375,-1000.0,-562.5,-20.01953125,0.0
1734580935.296487,-16.11328125,-1000.0,-612.3046875,-24.4140625,0.0
1734580935.3003933,-16.6015625,-1000.0,-679.6875,-21.484375,0.0
1734580935.3041625,-31.73828125,-1000.0,0.0,-31.25,0.0
1734580935.3080688,-32.71484375,-1000.0,0.0,-38.57421875,0.0
1734580935.3119748,-20.99609375,-1000.0,0.0,-31.25,0.0
1734580935.3158808,-26.85546875,-1000.0,0.0,-25.87890625,0.0
1734580935.3197868,-32.2265625,-1000.0,0.0,-26.3671875,0.0
1734580935.3236928,-18.06640625,-1000.0,0.0,-21.484375,0.0
1734580935.3275988,-13.18359375,-1000.0,0.0,-7.8125,0.0
1734580935.3315048,-11.23046875,-1000.0,0.0,-4.8828125,0.0
1734580935.335411,-3.41796875,-1000.0,0.0,-14.16015625,0.0
1734580935.339317,-5.859375,-1000.0,0.0,-12.20703125,0.0
1734580935.343223,-11.71875,-1000.0,0.0,-10.25390625,0.0
1734580935.347129,-5.859375,-1000.0,0.0,-0.48828125,0.0
1734580935.350857,10.7421875,-1000.0,-556.640625,-0.48828125,0.0
1734580935.354763,-0.9765625,-1000.0,-578.125,-15.13671875,0.0
1734580935.358669,-16.11328125,-1000.0,-690.91796875,-15.625,0.0
1734580935.362575,-0.48828125,-1000.0,-653.80859375,-7.8125,0.0
1734580935.366481,-2.9296875,-1000.0,-582.51953125,-3.90625,0.0
1734580935.3703873,-21.484375,-1000.0,-650.87890625,-6.8359375,0.0
1734580935.3742933,-21.97265625,-1000.0,-774.4140625,-11.71875,0.0
1734580935.3781993,-18.06640625,-1000.0,-723.6328125,-22.94921875,0.0
1734580935.3821054,-34.1796875,-1000.0,-564.453125,-28.80859375,0.0
1734580935.3860114,-41.015625,-1000.0,-635.7421875,-27.83203125,0.0
1734580935.3899174,-39.0625,-1000.0,-647.94921875,-30.76171875,0.0
1734580935.3938234,-34.66796875,-1000.0,-578.125,-40.0390625,0.0
1734580935.3975432,-26.3671875,-1000.0,-565.4296875,-39.0625,0.0
1734580935.4014492,-37.109375,-1000.0,-646.97265625,-30.76171875,0.0
1734580935.4053552,-34.66796875,-1000.0,-729.00390625,-33.203125,0.0
1734580935.4092612,-25.390625,-1000.0,-614.74609375,-35.64453125,0.0
1734580935.4131672,-17.578125,-1000.0,-549.31640625,-38.57421875,0.0
1734580935.4170735,-19.53125,-1000.0,-737.79296875,-31.25,0.0
1734580935.4209795,-34.1796875,-1000.0,-799.8046875,-25.87890625,0.0
1734580935.4248855,-34.1796875,-999.51171875,-617.67578125,-41.015625,0.0
1734580935.4287915,-17.08984375,-998.046875,-543.45703125,-40.0390625,0.0
1734580935.4326975,1.46484375,-1000.0,-685.05859375,-20.01953125,0.0
1734580935.4366035,-5.859375,-999.51171875,-704.58984375,-3.90625,0.0
1734580935.4405096,-6.34765625,-999.0234375,-539.55078125,-7.8125,0.0
1734580935.444466,0.0,-1000.0,-609.86328125,-15.625,0.0
1734580935.4483721,0.0,-1000.0,-658.203125,-19.04296875,0.0
1734580935.4522781,0.0,-1000.0,-601.07421875,-20.01953125,0.0
1734580935.4561841,0.0,-1000.0,-570.3125,-18.5546875,0.0
1734580935.4600902,0.0,-1000.0,-613.76953125,-10.7421875,0.0
1734580935.4639962,0.0,-1000.0,-696.2890625,-14.6484375,0.0
1734580935.4679024,0.0,-1000.0,-651.85546875,-19.04296875,0.0
1734580935.4718084,0.0,-1000.0,-574.70703125,-13.18359375,0.0
1734580935.4757144,0.0,-1000.0,-637.20703125,-23.4375,0.0
1734580935.4796205,0.0,-1000.0,-716.796875,-25.87890625,0.0
1734580935.4835265,0.0,-1000.0,-636.23046875,-24.90234375,0.0
1734580935.4874325,0.0,-1000.0,-572.75390625,-26.85546875,0.0
1734580935.4916244,-32.71484375,-1000.0,0.0,-28.80859375,0.0
1734580935.4955304,-20.01953125,-1000.0,0.0,-28.80859375,0.0
1734580935.4994364,-12.20703125,-1000.0,0.0,-17.578125,0.0
1734580935.5033424,-15.625,-1000.0,0.0,-20.5078125,0.0
1734580935.5072486,-9.27734375,-1000.0,0.0,-25.87890625,0.0
1734580935.5111547,-10.7421875,-1000.0,0.0,-20.5078125,0.0
1734580935.5150607,-19.53125,-1000.0,0.0,-26.85546875,0.0
1734580935.5189667,-15.13671875,-1000.0,0.0,-29.78515625,0.0
1734580935.5228727,-12.6953125,-1000.0,0.0,-17.08984375,0.0
1734580935.5267787,-28.3203125,-1000.0,0.0,-12.20703125,0.0
1734580935.5306847,-34.1796875,-999.51171875,0.0,-23.92578125,0.0
1734580935.5345907,-28.80859375,-1000.0,0.0,-26.85546875,0.0
1734580935.5384688,-36.1328125,-1000.0,-712.40234375,-29.78515625,0.0
1734580935.5423748,-34.1796875,-1000.0,-675.78125,-23.92578125,0.0
1734580935.5462809,-20.99609375,-999.51171875,-600.09765625,-20.99609375,0.0
1734580935.5501869,-33.203125,-999.0234375,-623.046875,-38.57421875,0.0
1734580935.554093,-43.9453125,-1000.0,-700.1953125,-36.1328125,0.0
1734580935.557999,-51.26953125,-1000.0,-723.14453125,-36.62109375,0.0
1734580935.561905,-50.29296875,-999.51171875,-642.08984375,-42.96875,0.0
1734580935.565811,-48.33984375,-999.0234375,-622.0703125,-44.43359375,0.0
1734580935.5697172,-51.26953125,-1000.0,-684.5703125,-41.50390625,0.0
1734580935.5736232,-48.33984375,-1000.0,-636.23046875,-43.45703125,0.0
1734580935.5775292,-37.59765625,-1000.0,-610.83984375,-52.24609375,0.0
1734580935.5814352,-29.296875,-1000.0,-703.61328125,-49.31640625,0.0
1734580935.585279,-40.0390625,-1000.0,-728.515625,-23.92578125,0.0
1734580935.589185,-32.71484375,-1000.0,-625.48828125,-20.01953125,0.0
1734580935.593091,-25.87890625,-1000.0,-639.16015625,-30.76171875,0.0
1734580935.596997,-28.80859375,-1000.0,-776.3671875,-33.69140625,0.0
1734580935.600903,-32.2265625,-999.51171875,-793.9453125,-31.73828125,0.0
1734580935.604809,-34.1796875,-1000.0,-684.5703125,-20.99609375,0.0
1734580935.608715,-32.2265625,-994.62890625,-611.81640625,-30.76171875,0.0
1734580935.6126213,-29.78515625,-995.1171875,-698.2421875,-30.76171875,0.0
1734580935.6165273,-29.78515625,-992.67578125,-791.50390625,-10.25390625,0.0
1734580935.6204333,-27.83203125,-965.8203125,-572.265625,-19.53125,0.0
1734580935.6243393,-25.390625,-976.07421875,-564.94140625,-27.34375,0.0
1734580935.6282454,-28.3203125,-999.51171875,-662.109375,-26.3671875,0.0
1734580935.6323135,-24.90234375,-999.51171875,-611.328125,-24.90234375,0.0
1734580935.6362197,-24.4140625,-994.140625,-560.05859375,-21.97265625,0.0
1734580935.6401258,-19.04296875,-997.0703125,-642.08984375,-18.5546875,0.0
1734580935.6440318,-7.8125,-1000.0,-656.73828125,-24.4140625,0.0
1734580935.6479378,-20.5078125,-998.53515625,-608.88671875,-22.4609375,0.0
1734580935.6518438,-23.4375,-1000.0,-671.875,-20.01953125,0.0
1734580935.6557498,-16.11328125,-1000.0,-660.15625,-17.08984375,0.0
1734580935.6596558,-22.4609375,-1000.0,-768.06640625,-8.7890625,0.0
1734580935.6635618,-31.25,-1000.0,-771.97265625,-22.4609375,0.0
1734580935.667468,-20.99609375,-989.2578125,-558.59375,-26.3671875,0.0
1734580935.671374,-9.765625,-995.60546875,-629.39453125,-16.6015625,0.0
1734580935.67528,-2.9296875,-993.65234375,-665.0390625,-27.34375,0.0
1734580935.6790361,-1.46484375,-983.88671875,-582.51953125,-26.85546875,0.0
1734580935.6829422,-3.41796875,-998.53515625,-598.6328125,-17.08984375,0.0
1734580935.6868482,-1.46484375,-1000.0,-723.14453125,-18.06640625,0.0
1734580935.6907542,1.46484375,-1000.0,-703.61328125,-18.06640625,0.0
1734580935.6946602,0.9765625,-1000.0,-600.09765625,-11.23046875,0.0
1734580935.6985662,0.0,-1000.0,-665.52734375,-15.625,0.0
1734580935.7024724,4.8828125,-1000.0,-731.93359375,-5.859375,0.0
1734580935.7063785,-0.48828125,-999.51171875,-715.33203125,2.9296875,0.0
1734580935.7102845,-3.41796875,-998.53515625,-586.42578125,8.7890625,0.0
1734580935.7141905,-17.578125,-1000.0,-593.75,-8.30078125,0.0
1734580935.7180965,-19.04296875,-1000.0,-760.25390625,-16.6015625,0.0
1734580935.7220025,-12.6953125,-999.0234375,-774.90234375,-9.27734375,0.0
1734580935.7257392,-26.85546875,-992.67578125,-560.05859375,-11.23046875,0.0
1734580935.7296453,-24.4140625,-996.58203125,-590.33203125,-12.20703125,0.0
1734580935.7335513,-16.6015625,-1000.0,-679.19921875,-14.6484375,0.0
1734580935.7374573,-11.71875,-998.046875,-595.703125,-13.18359375,0.0
1734580935.7413633,-20.01953125,-1000.0,-587.890625,-16.6015625,0.0
1734580935.7452693,-41.9921875,-999.0234375,-649.4140625,-25.390625,0.0
1734580935.7491753,-39.55078125,-1000.0,-755.859375,-24.4140625,0.0
1734580935.7530816,-32.2265625,-993.1640625,-698.73046875,-17.08984375,0.0
1734580935.7569876,-37.109375,-973.6328125,-529.296875,-19.04296875,0.0
1734580935.7608936,-24.90234375,-993.1640625,-607.421875,-23.4375,0.0
1734580935.7647996,-27.83203125,-1000.0,-623.046875,-25.87890625,0.0
1734580935.7687056,-36.62109375,-999.51171875,-573.73046875,-22.4609375,0.0
1734580935.7726722,-21.97265625,-1000.0,-578.125,-13.671875,0.0
1734580935.7765784,-18.06640625,-1000.0,-672.8515625,-1.953125,0.0
1734580935.7804844,-5.859375,-1000.0,-715.33203125,-13.671875,0.0
1734580935.7843904,5.37109375,-1000.0,-606.4453125,-7.8125,0.0
1734580935.7882965,-2.9296875,-1000.0,-553.22265625,-0.48828125,0.0
1734580935.7922025,-5.37109375,-1000.0,-749.0234375,-7.8125,0.0
1734580935.7961085,5.859375,-1000.0,-774.90234375,1.46484375,0.0
1734580935.8000145,8.30078125,-998.046875,-566.40625,1.953125,0.0
1734580935.8039205,-5.37109375,-998.046875,-524.90234375,-8.7890625,0.0
1734580935.8078268,-3.41796875,-1000.0,-651.85546875,-4.8828125,0.0
1734580935.8117328,-8.7890625,-1000.0,-710.9375,3.41796875,0.0
1734580935.8156388,-14.6484375,-986.328125,-529.78515625,-2.9296875,0.0
1734580935.8195686,-8.30078125,-981.4453125,-542.96875,-5.859375,0.0
1734580935.8234746,-11.23046875,-996.09375,-604.98046875,-20.01953125,0.0
1734580935.8273807,-16.11328125,-986.81640625,-530.76171875,-28.3203125,0.0
1734580935.8312867,-15.13671875,-993.65234375,-503.41796875,-23.92578125,0.0
1734580935.8351927,-23.4375,-1000.0,-600.09765625,-28.80859375,0.0
1734580935.8390987,-27.83203125,-1000.0,-671.38671875,-24.4140625,0.0
1734580935.8430047,-29.296875,-994.62890625,-565.4296875,-26.85546875,0.0
1734580935.8469107,-28.80859375,-976.07421875,-480.95703125,-29.296875,0.0
1734580935.850817,-22.94921875,-982.421875,-531.25,-20.5078125,0.0
1734580935.854723,-18.5546875,-1000.0,-652.34375,-4.8828125,0.0
1734580935.858629,-16.11328125,-990.234375,-571.77734375,-9.765625,0.0
1734580935.862535,-22.4609375,-976.07421875,-470.21484375,-28.80859375,0.0
1734580935.867239,-25.87890625,-990.72265625,-581.0546875,-31.73828125,0.0
1734580935.871145,-25.87890625,-1000.0,-602.05078125,-25.390625,0.0
1734580935.875051,-21.97265625,-1000.0,-567.3828125,-21.97265625,0.0
1734580935.878957,-1.953125,-990.234375,-526.85546875,-19.04296875,0.0
1734580935.882863,10.7421875,-985.3515625,-588.37890625,-16.6015625,0.0
1734580935.886769,-13.671875,-1000.0,-673.33984375,-18.06640625,0.0
1734580935.8906753,-30.2734375,-1000.0,-547.8515625,-15.13671875,0.0
1734580935.8945813,-16.11328125,-999.51171875,-516.11328125,-17.578125,0.0
1734580935.8984873,-12.6953125,-1000.0,-656.25,-17.578125,0.0
1734580935.9023933,-21.484375,-999.51171875,-710.44921875,-12.6953125,0.0
1734580935.9062994,-11.71875,-976.07421875,-495.60546875,-8.7890625,0.0
1734580935.9102054,-9.765625,-982.91015625,-502.44140625,-16.11328125,0.0
1734580935.9141011,-16.6015625,-994.62890625,-557.12890625,-17.08984375,0.0
1734580935.9180071,-21.97265625,-966.796875,-499.51171875,-9.765625,0.0
1734580935.9219134,-26.3671875,-966.30859375,-468.26171875,-16.11328125,0.0
1734580935.9258194,-27.83203125,-981.93359375,-507.8125,-26.85546875,0.0
1734580935.9297254,-24.4140625,-997.55859375,-579.58984375,-26.85546875,0.0
1734580935.9336314,-40.0390625,-1000.0,-613.28125,-30.2734375,0.0
1734580935.9375374,-50.78125,-990.234375,-554.19921875,-37.59765625,0.0
1734580935.9414434,-35.15625,-983.3984375,-510.25390625,-37.109375,0.0
1734580935.9453495,-32.2265625,-990.234375,-536.62109375,-31.25,0.0
1734580935.9492557,-39.55078125,-976.07421875,-476.07421875,-29.296875,0.0
1734580935.9531617,-29.296875,-993.1640625,-485.83984375,-37.59765625,0.0
1734580935.9570677,-18.06640625,-1000.0,-580.56640625,-31.73828125,0.0
1734580935.960898,-25.87890625,-993.1640625,-565.91796875,-18.06640625,0.0
1734580935.964804,-27.83203125,-983.3984375,-489.74609375,-20.99609375,0.0
1734580935.96871,-19.53125,-999.51171875,-511.23046875,-26.85546875,0.0
1734580935.972616,-23.4375,-1000.0,-651.85546875,-29.296875,0.0
1734580935.976522,-12.6953125,-988.76953125,-690.4296875,-20.5078125,0.0
1734580935.9804282,-15.625,-1000.0,-561.03515625,-10.7421875,0.0
1734580935.9843342,-20.01953125,-989.2578125,-471.19140625,-16.11328125,0.0
1734580935.9882402,-15.13671875,-969.23828125,-536.1328125,-18.06640625,0.0
1734580935.9921463,-13.671875,-1000.0,-849.12109375,0.0,0.0
1734580935.9960523,-23.4375,-955.078125,-641.6015625,-8.30078125,0.0
1734580935.9999583,-28.3203125,-907.2265625,-411.1328125,-24.90234375,0.0
1734580936.0038643,-17.08984375,-975.5859375,-502.9296875,-30.2734375,0.0
1734580936.0076525,-7.32421875,-904.78515625,-422.36328125,-37.59765625,0.0
1734580936.0115585,-23.4375,-923.33984375,-430.17578125,-30.76171875,0.0
1734580936.0154648,-28.3203125,-998.53515625,-493.65234375,-19.53125,0.0
1734580936.0193708,-21.97265625,-958.0078125,-470.703125,-21.484375,0.0
1734580936.0232768,-32.71484375,-926.26953125,-451.171875,-33.69140625,0.0
1734580936.0271828,-31.25,-993.65234375,-513.671875,-25.390625,0.0
1734580936.0310888,-22.94921875,-1000.0,-468.75,-28.3203125,0.0
1734580936.0349948,-25.390625,-1000.0,-582.51953125,-33.203125,0.0
1734580936.0389009,-26.3671875,-940.91796875,-558.59375,-30.2734375,0.0
1734580936.042807,-31.25,-760.25390625,-349.609375,-41.015625,0.0
1734580936.046713,-41.50390625,-853.515625,-442.3828125,-32.2265625,0.0
1734580936.0506191,-27.34375,-954.1015625,-477.05078125,-20.5078125,0.0
1734580936.0543714,-25.87890625,-800.29296875,-391.6015625,-35.64453125,0.0
1734580936.0582774,-20.99609375,-816.89453125,-386.23046875,-37.59765625,0.0
1734580936.0621836,-9.765625,-977.05078125,-525.87890625,-21.484375,0.0
1734580936.0660896,-17.578125,-967.7734375,-526.3671875,-21.484375,0.0
1734580936.0699956,-22.4609375,-944.82421875,-423.828125,-18.5546875,0.0
1734580936.0739017,-14.6484375,-1000.0,-443.359375,-20.99609375,0.0
1734580936.0778077,-13.671875,-1000.0,-583.49609375,-19.53125,0.0
1734580936.0817137,-19.04296875,-984.375,-645.01953125,-17.08984375,0.0
1734580936.0856197,-18.06640625,-890.13671875,-387.6953125,-24.4140625,0.0
1734580936.089526,-23.92578125,-812.01171875,-354.00390625,-23.92578125,0.0
1734580936.093432,-27.34375,-876.46484375,-403.80859375,-32.2265625,0.0
1734580936.097338,-28.80859375,-876.46484375,-376.953125,-25.390625,0.0
1734580936.1010592,-23.92578125,-761.23046875,-353.02734375,-17.578125,0.0
1734580936.1049652,-20.99609375,-803.22265625,-399.90234375,-20.01953125,0.0
1734580936.1088715,-19.53125,-945.3125,-443.84765625,-18.5546875,0.0
1734580936.1127775,-15.13671875,-876.953125,-377.44140625,-16.11328125,0.0
1734580936.1166835,-10.7421875,-847.16796875,-402.83203125,-10.7421875,0.0
1734580936.1205895,-1.46484375,-988.76953125,-455.56640625,-6.8359375,0.0
1734580936.1244955,3.90625,-1000.0,-587.40234375,2.9296875,0.0
1734580936.1284015,-9.765625,-1000.0,-604.98046875,-6.8359375,0.0
1734580936.1323075,-15.625,-962.40234375,-416.50390625,-16.6015625,0.0
1734580936.1362138,-6.8359375,-934.08203125,-410.15625,-18.06640625,0.0
1734580936.1401198,-13.671875,-971.19140625,-449.70703125,-11.23046875,0.0
1734580936.1440258,-11.71875,-892.578125,-396.97265625,-14.6484375,0.0
1734580936.1477296,-5.37109375,-851.5625,-342.28515625,-25.390625,0.0
1734580936.1516356,-8.30078125,-916.9921875,-453.125,-22.4609375,0.0
1734580936.1555417,-17.08984375,-1000.0,-577.1484375,-21.484375,0.0
1734580936.1594477,-21.484375,-941.40625,-437.01171875,-14.6484375,0.0
1734580936.1633537,-14.6484375,-876.953125,-348.14453125,-13.671875,0.0
1734580936.1672597,-10.7421875,-1000.0,-568.84765625,-19.04296875,0.0
1734580936.1711657,-10.25390625,-975.5859375,-604.4921875,-5.859375,0.0
1734580936.175072,-9.27734375,-811.03515625,-335.9375,-15.13671875,0.0
1734580936.178978,-15.625,-758.30078125,-368.65234375,-28.3203125,0.0
1734580936.182884,-22.4609375,-889.6484375,-430.6640625,-16.11328125,0.0
1734580936.18679,-30.76171875,-989.2578125,-440.4296875,-20.01953125,0.0
1734580936.190696,-32.2265625,-965.8203125,-430.17578125,-35.64453125,0.0
1734580936.1946344,-27.83203125,-858.3984375,-377.9296875,-41.50390625,0.0
1734580936.1985404,-30.76171875,-893.5546875,-420.8984375,-33.203125,0.0
1734580936.2024465,-33.203125,-870.1171875,-388.18359375,-29.296875,0.0
1734580936.2063525,-36.62109375,-798.33984375,-343.75,-26.85546875,0.0
1734580936.2102585,-33.203125,-881.8359375,-405.76171875,-25.87890625,0.0
1734580936.2141645,-30.76171875,-993.1640625,-500.0,-28.80859375,0.0
1734580936.2180705,-33.69140625,-1000.0,-456.54296875,-37.59765625,0.0
1734580936.2219768,-30.76171875,-843.26171875,-364.74609375,-36.1328125,0.0
1734580936.2258828,-26.3671875,-856.4453125,-405.76171875,-24.90234375,0.0
1734580936.2297888,-18.06640625,-999.0234375,-495.60546875,-24.90234375,0.0
1734580936.2336948,-16.11328125,-860.83984375,-402.83203125,-25.87890625,0.0
1734580936.2376008,-22.94921875,-718.26171875,-327.63671875,-15.13671875,0.0
1734580936.2414985,-26.85546875,-842.28515625,-411.1328125,-23.4375,0.0
1734580936.2454045,-22.4609375,-981.4453125,-475.09765625,-32.71484375,0.0
1734580936.2493105,-7.32421875,-977.05078125,-457.03125,-16.11328125,0.0
1734580936.2532165,-6.8359375,-998.53515625,-404.296875,-15.625,0.0
1734580936.2571225,-9.27734375,-987.3046875,-521.484375,-10.7421875,0.0
1734580936.2610285,-5.37109375,-1000.0,-609.86328125,-7.8125,0.0
1734580936.2649345,1.953125,-946.2890625,-391.6015625,-8.30078125,0.0
1734580936.2688406,-2.9296875,-663.0859375,-291.015625,-10.25390625,0.0
1734580936.2727468,-12.20703125,-763.18359375,-478.515625,-13.671875,0.0
1734580936.2766528,-14.16015625,-971.6796875,-580.078125,-7.8125,0.0
1734580936.2805588,-12.6953125,-665.52734375,-318.359375,-10.25390625,0.0
1734580936.2844648,-22.4609375,-595.703125,-351.07421875,-17.08984375,0.0
1734580936.2883193,-16.11328125,-848.6328125,-433.10546875,-15.13671875,0.0
1734580936.2922254,-11.23046875,-767.578125,-369.62890625,-17.08984375,0.0
1734580936.2961314,-18.06640625,-558.59375,-329.1015625,-26.85546875,0.0
1734580936.3000374,-12.6953125,-605.95703125,-382.8125,-25.390625,0.0
1734580936.3039434,-13.671875,-872.0703125,-504.8828125,-20.5078125,0.0
1734580936.3078496,-18.5546875,-1000.0,-474.12109375,-30.2734375,0.0
1734580936.3117557,-15.13671875,-979.98046875,-436.5234375,-29.296875,0.0
1734580936.3156617,-18.06640625,-971.19140625,-431.640625,-19.53125,0.0
1734580936.3195677,-13.671875,-987.79296875,-541.9921875,-15.625,0.0
1734580936.3234737,-0.48828125,-881.34765625,-498.53515625,-12.20703125,0.0
1734580936.3273797,-5.859375,-539.0625,-313.4765625,-12.20703125,0.0
1734580936.3312857,-1.46484375,-610.3515625,-406.25,-7.8125,0.0
1734580936.3351262,-2.44140625,-826.171875,-446.77734375,-13.18359375,0.0
1734580936.3390322,-15.13671875,-607.91015625,-383.7890625,-21.97265625,0.0
1734580936.3429382,-17.578125,-784.1796875,-417.48046875,-16.11328125,0.0
1734580936.3468444,-8.30078125,-1000.0,-542.96875,-12.20703125,0.0
1734580936.3507504,-2.9296875,-895.01953125,-597.65625,-7.8125,0.0
1734580936.3546565,-9.27734375,-937.5,-488.28125,-25.390625,0.0
1734580936.3585625,-11.71875,-866.69921875,-371.58203125,-38.0859375,0.0
1734580936.3624685,-9.27734375,-808.10546875,-508.30078125,-20.5078125,0.0
1734580936.3663745,-17.578125,-1000.0,-661.1328125,-15.625,0.0
1734580936.3702805,-21.97265625,-711.42578125,-378.90625,-23.92578125,0.0
1734580936.3741868,-19.04296875,-457.03125,-334.47265625,-22.4609375,0.0
1734580936.3780928,-18.06640625,-707.51953125,-409.1796875,-19.53125,0.0
1734580936.3821712,-17.578125,-791.50390625,-414.0625,-26.85546875,0.0
1734580936.3860772,-13.671875,-596.6796875,-381.8359375,-21.484375,0.0
1734580936.3899832,-7.32421875,-573.73046875,-416.50390625,-16.11328125,0.0
1734580936.3938892,-4.39453125,-827.1484375,-503.41796875,-14.16015625,0.0
1734580936.3977952,-1.953125,-788.57421875,-435.05859375,-9.765625,0.0
1734580936.4017012,-1.953125,-840.33203125,-496.09375,-6.34765625,0.0
1734580936.4056072,-4.8828125,-1000.0,-502.44140625,-13.18359375,0.0
1734580936.4095132,-7.32421875,-1000.0,-606.93359375,-24.4140625,0.0
1734580936.4134195,-21.484375,-870.1171875,-577.63671875,-20.99609375,0.0
1734580936.4173255,-11.23046875,-535.64453125,-360.3515625,-18.06640625,0.0
1734580936.4212315,7.32421875,-672.36328125,-458.49609375,-11.23046875,0.0
1734580936.4251375,2.9296875,-990.234375,-534.1796875,-6.34765625,0.0
1734580936.4289026,-8.7890625,-809.08203125,-443.84765625,-6.34765625,0.0
1734580936.4328086,-12.6953125,-544.921875,-381.8359375,-12.20703125,0.0
1734580936.4367146,-8.30078125,-794.921875,-523.4375,-4.8828125,0.0
1734580936.4406207,-3.90625,-954.1015625,-552.734375,6.34765625,0.0
1734580936.4445267,-11.23046875,-751.46484375,-450.1953125,-8.7890625,0.0
1734580936.4484327,-15.625,-880.37109375,-498.53515625,-20.99609375,0.0
1734580936.4523387,-0.48828125,-1000.0,-607.91015625,-14.16015625,0.0
1734580936.456245,-3.41796875,-875.9765625,-625.0,-28.3203125,0.0
1734580936.460151,-9.27734375,-653.80859375,-436.03515625,-41.9921875,0.0
1734580936.464057,-7.8125,-614.74609375,-396.97265625,-36.1328125,0.0
1734580936.467963,-15.13671875,-838.37890625,-612.3046875,-30.2734375,0.0
1734580936.471869,-21.97265625,-952.1484375,-693.359375,-26.85546875,0.0
1734580936.4756012,-16.6015625,-682.12890625,-437.01171875,-31.25,0.0
1734580936.4795072,-18.06640625,-626.46484375,-457.51953125,-33.69140625,0.0
1734580936.4834132,-12.6953125,-916.50390625,-578.61328125,-17.578125,0.0
1734580936.4873192,-14.16015625,-890.13671875,-523.4375,-17.578125,0.0
1734580936.4912252,-3.41796875,-672.8515625,-471.19140625,-18.06640625,0.0
1734580936.4951313,-6.8359375,-887.20703125,-527.34375,-20.99609375,0.0
1734580936.4990375,-21.484375,-1000.0,-678.22265625,-20.99609375,0.0
1734580936.5029435,-0.9765625,-910.64453125,-649.4140625,-10.7421875,0.0
1734580936.5068495,5.859375,-637.6953125,-429.6875,-9.765625,0.0
1734580936.5107555,0.9765625,-695.3125,-488.76953125,-8.7890625,0.0
1734580936.5146616,13.18359375,-872.0703125,-519.53125,-7.8125,0.0
1734580936.5185676,11.23046875,-744.140625,-483.88671875,-7.8125,0.0
1734580936.5222723,1.953125,-688.4765625,-473.14453125,-5.37109375,0.0
1734580936.5261786,12.6953125,-824.70703125,-574.21875,-13.18359375,0.0
1734580936.5300846,11.23046875,-1000.0,-679.6875,-21.484375,0.0
1734580936.5339906,-1.953125,-901.3671875,-552.734375,-17.08984375,0.0
1734580936.5378966,0.0,-762.6953125,-488.28125,-13.18359375,0.0
1734580936.5418026,6.34765625,-942.87109375,-676.26953125,-10.7421875,0.0
1734580936.5457087,-1.953125,-1000.0,-738.76953125,-18.06640625,0.0
1734580936.5496147,-20.01953125,-884.27734375,-530.2734375,-23.92578125,0.0
1734580936.5535207,-25.390625,-651.85546875,-494.140625,-26.85546875,0.0
1734580936.557427,-28.3203125,-833.984375,-565.91796875,-24.90234375,0.0
1734580936.561333,-29.296875,-937.98828125,-541.9921875,-30.76171875,0.0
1734580936.565239,-26.3671875,-717.28515625,-483.3984375,-45.41015625,0.0
1734580936.5692222,0.0,-720.703125,-535.64453125,-32.71484375,0.0
1734580936.5731282,0.0,-900.390625,-615.234375,-29.296875,0.0
1734580936.5770342,0.0,-888.671875,-542.96875,-34.66796875,0.0
1734580936.5809402,0.0,-768.06640625,-479.98046875,-33.69140625,0.0
1734580936.5848463,0.0,-800.78125,-553.7109375,-26.85546875,0.0
1734580936.5887525,0.0,-974.12109375,-640.13671875,-9.27734375,0.0
1734580936.5926585,0.0,-943.84765625,-557.6171875,-7.32421875,0.0
1734580936.5965645,0.0,-766.6015625,-497.55859375,-9.27734375,0.0
1734580936.6004705,0.0,-859.86328125,-565.4296875,-2.44140625,0.0
1734580936.6043766,0.0,-1000.0,-659.1796875,-0.48828125,0.0
1734580936.6082826,0.0,-873.53515625,-567.3828125,0.48828125,0.0
1734580936.6121886,0.0,-763.18359375,-523.4375,-8.30078125,0.0
1734580936.616621,15.625,-884.27734375,-621.09375,-10.25390625,0.0
1734580936.620527,7.8125,-966.796875,-630.37109375,4.8828125,0.0
1734580936.624433,13.671875,-979.00390625,-610.83984375,9.27734375,0.0
1734580936.628339,21.97265625,-929.6875,-593.75,-1.953125,0.0
1734580936.632245,8.30078125,-889.16015625,-635.25390625,-4.8828125,0.0
1734580936.636151,-5.859375,-1000.0,-724.12109375,-5.37109375,0.0
1734580936.640057,-16.11328125,-996.09375,-614.2578125,-21.484375,0.0
1734580936.6439633,-25.87890625,-825.68359375,-500.9765625,-29.78515625,0.0
1734580936.6478693,-19.53125,-874.0234375,-655.2734375,-25.87890625,0.0
1734580936.6517754,-18.5546875,-1000.0,-749.0234375,-26.3671875,0.0
1734580936.6556814,-31.25,-857.91015625,-532.71484375,-35.15625,0.0
1734580936.6595874,-36.62109375,-873.53515625,-565.4296875,-44.43359375,0.0
1734580936.663441,-21.97265625,-969.23828125,-639.16015625,-41.9921875,0.0
1734580936.667347,-12.6953125,-888.671875,-570.3125,-30.2734375,0.0
1734580936.671253,-21.97265625,-797.36328125,-538.0859375,-26.85546875,0.0
1734580936.675159,-14.16015625,-856.4453125,-575.68359375,-26.3671875,0.0
1734580936.679065,-5.859375,-988.76953125,-679.19921875,-18.5546875,0.0
1734580936.682971,-6.8359375,-1000.0,-683.10546875,-24.90234375,0.0
1734580936.686877,0.48828125,-964.35546875,-623.046875,-27.34375,0.0
1734580936.690783,0.48828125,-929.19921875,-593.26171875,-20.99609375,0.0
1734580936.6946893,0.9765625,-982.91015625,-630.859375,-17.578125,0.0
1734580936.6985953,5.859375,-948.2421875,-583.984375,-14.16015625,0.0
1734580936.7025013,6.8359375,-875.48828125,-542.96875,-10.25390625,0.0
1734580936.7064073,18.5546875,-925.29296875,-640.625,-1.46484375,0.0
1734580936.7102463,11.71875,-989.74609375,-660.15625,-6.8359375,0.0
1734580936.7141523,-1.953125,-957.03125,-599.609375,-8.30078125,0.0
1734580936.7180583,4.39453125,-995.1171875,-639.16015625,-14.16015625,0.0
1734580936.7219644,15.13671875,-1000.0,-730.95703125,-11.23046875,0.0
1734580936.7258704,12.6953125,-999.0234375,-817.87109375,-7.8125,0.0
1734580936.7297764,0.0,-1000.0,-667.96875,-21.484375,0.0
1734580936.7336826,-4.8828125,-994.62890625,-585.9375,-19.04296875,0.0
1734580936.7375886,-3.41796875,-1000.0,-731.4453125,-20.99609375,0.0
1734580936.7414947,0.9765625,-991.69921875,-773.4375,-22.94921875,0.0
1734580936.7454007,-9.27734375,-871.09375,-561.03515625,-29.296875,0.0
1734580936.7493067,-27.83203125,-802.24609375,-574.70703125,-47.8515625,0.0
1734580936.7532127,-18.06640625,-904.78515625,-632.32421875,-40.0390625,0.0
1734580936.7570212,-14.16015625,-943.84765625,-600.5859375,-34.1796875,0.0
1734580936.7609272,-27.34375,-867.67578125,-569.3359375,-37.109375,0.0
1734580936.7648332,-24.4140625,-899.4140625,-606.93359375,-26.85546875,0.0
1734580936.7687392,-11.71875,-977.05078125,-654.78515625,-17.08984375,0.0
1734580936.7726452,-9.27734375,-950.68359375,-632.32421875,-3.90625,0.0
1734580936.7765512,-0.9765625,-993.1640625,-674.8046875,-9.27734375,0.0
1734580936.7804575,5.859375,-1000.0,-673.828125,-21.484375,0.0
1734580936.7843635,-0.9765625,-1000.0,-761.23046875,-15.13671875,0.0
1734580936.7882695,7.32421875,-959.9609375,-713.8671875,-10.25390625,0.0
1734580936.7921755,3.90625,-842.28515625,-541.015625,-10.25390625,0.0
1734580936.7960815,0.48828125,-918.45703125,-625.0,-5.859375,0.0
1734580936.7999876,3.41796875,-983.3984375,-665.0390625,0.0,0.0
1734580936.8037572,-1.46484375,-913.57421875,-606.4453125,-2.9296875,0.0
1734580936.8076632,7.32421875,-915.0390625,-573.73046875,3.90625,0.0
1734580936.8115692,9.27734375,-977.5390625,-669.921875,12.20703125,0.0
1734580936.8154752,11.23046875,-994.62890625,-692.3828125,1.953125,0.0
1734580936.8193812,11.71875,-973.14453125,-612.79296875,-3.90625,0.0
1734580936.8232875,2.9296875,-994.62890625,-645.99609375,-12.20703125,0.0
1734580936.8271935,-2.44140625,-1000.0,-744.62890625,-16.11328125,0.0
1734580936.8310995,-19.04296875,-986.81640625,-790.52734375,-11.23046875,0.0
1734580936.8350055,-24.4140625,-951.171875,-575.68359375,-21.484375,0.0
1734580936.8389115,-10.25390625,-977.5390625,-596.6796875,-23.92578125,0.0
1734580936.8428175,-5.859375,-1000.0,-691.40625,-14.6484375,0.0
1734580936.8467236,-10.25390625,-980.46875,-632.32421875,-13.671875,0.0
1734580936.8504667,0.0,-937.5,-568.84765625,-20.5078125,0.0
1734580936.854373,0.0,-960.9375,-599.609375,-16.6015625,0.0
1734580936.858279,0.0,-995.60546875,-663.57421875,-7.32421875,0.0
1734580936.862185,0.0,-949.70703125,-594.23828125,-15.625,0.0
1734580936.866091,0.0,-948.73046875,-598.14453125,-22.4609375,0.0
1734580936.869997,0.0,-997.55859375,-658.203125,-8.7890625,0.0
1734580936.873903,0.0,-1000.0,-781.25,7.8125,0.0
1734580936.877809,0.0,-983.3984375,-743.65234375,12.6953125,0.0
1734580936.881715,0.0,-955.078125,-559.08203125,6.34765625,0.0
1734580936.8856213,0.0,-979.98046875,-625.0,-0.48828125,0.0
1734580936.8895273,0.0,-991.69921875,-629.39453125,-5.859375,0.0
1734580936.8934333,0.0,-980.46875,-578.125,-4.39453125,0.0
1734580936.897397,25.87890625,-999.51171875,-616.2109375,-3.41796875,0.0
1734580936.901303,26.3671875,-999.0234375,-696.77734375,-2.44140625,0.0
1734580936.905209,15.13671875,-1000.0,-726.07421875,-4.39453125,0.0
1734580936.909115,7.8125,-978.02734375,-631.34765625,-9.765625,0.0
1734580936.913021,6.34765625,-955.56640625,-542.96875,-5.37109375,0.0
1734580936.9169273,-1.953125,-1000.0,-726.07421875,-8.30078125,0.0
1734580936.9208333,-4.39453125,-994.62890625,-778.80859375,-12.6953125,0.0
1734580936.9247394,-6.34765625,-966.796875,-582.03125,-15.625,0.0
1734580936.9286454,-6.34765625,-971.6796875,-539.55078125,-21.484375,0.0
1734580936.9325514,-9.765625,-993.1640625,-689.94140625,-16.11328125,0.0
1734580936.9364574,-16.6015625,-985.3515625,-733.3984375,-10.25390625,0.0
1734580936.9403634,-25.390625,-953.125,-540.0390625,-13.18359375,0.0
1734580936.9442976,-18.5546875,-978.02734375,-588.37890625,-19.53125,0.0
1734580936.9482036,-7.32421875,-994.62890625,-655.2734375,-22.4609375,0.0
1734580936.9521098,-19.53125,-984.375,-581.0546875,-19.04296875,0.0
1734580936.9560158,-20.5078125,-998.046875,-582.03125,-10.7421875,0.0
1734580936.9599218,-4.8828125,-1000.0,-645.5078125,-7.32421875,0.0
1734580936.9638278,-4.39453125,-1000.0,-691.89453125,-11.23046875,0.0
1734580936.9677339,-7.32421875,-986.81640625,-625.9765625,-10.25390625,0.0
1734580936.9716399,-2.44140625,-968.26171875,-527.34375,-4.39453125,0.0
1734580936.975546,0.48828125,-992.1875,-566.40625,-5.859375,0.0
1734580936.979452,8.30078125,-1000.0,-687.5,3.90625,0.0
1734580936.9833581,14.6484375,-984.375,-632.32421875,4.39453125,0.0
1734580936.9872642,10.7421875,-951.66015625,-529.78515625,-1.46484375,0.0
1734580936.9914343,5.37109375,-971.6796875,-613.76953125,-0.9765625,0.0
1734580936.9953403,-0.48828125,-996.58203125,-648.4375,-7.32421875,0.0
1734580936.9992464,3.41796875,-1000.0,-635.7421875,-0.48828125,0.0
1734580937.0031526,7.32421875,-982.91015625,-573.2421875,1.46484375,0.0
1734580937.0070586,0.0,-970.21484375,-616.2109375,-3.41796875,0.0
1734580937.0109646,-4.8828125,-1000.0,-709.47265625,-7.32421875,0.0
1734580937.0148706,-9.765625,-1000.0,-621.58203125,-13.671875,0.0
1734580937.0187767,-13.671875,-977.5390625,-554.19921875,-22.4609375,0.0
1734580937.0226827,-20.01953125,-971.19140625,-645.5078125,-20.5078125,0.0
1734580937.0265887,-12.6953125,-996.58203125,-742.67578125,-14.16015625,0.0
1734580937.0304947,-11.23046875,-966.796875,-535.15625,-23.4375,0.0
1734580937.034401,-16.6015625,-973.14453125,-527.34375,-25.87890625,0.0
1734580937.0385168,-0.9765625,-994.62890625,-614.2578125,-11.23046875,0.0
1734580937.0424228,5.859375,-974.609375,-570.80078125,-6.8359375,0.0
1734580937.046329,4.8828125,-942.87109375,-500.0,-9.765625,0.0
1734580937.050235,6.8359375,-964.35546875,-555.6640625,-15.13671875,0.0
1734580937.054141,-6.8359375,-997.55859375,-638.671875,-8.30078125,0.0
1734580937.058047,-3.41796875,-1000.0,-641.6015625,0.9765625,0.0
1734580937.061953,7.32421875,-986.81640625,-578.61328125,-3.90625,0.0
1734580937.065859,10.25390625,-976.07421875,-555.6640625,-3.41796875,0.0
1734580937.069765,14.16015625,-982.421875,-556.15234375,-6.34765625,0.0
1734580937.073671,12.20703125,-974.609375,-547.36328125,-13.18359375,0.0
1734580937.0775774,-4.39453125,-988.28125,-585.44921875,-9.27734375,0.0
1734580937.0814834,1.46484375,-982.421875,-585.9375,-10.25390625,0.0
1734580937.0853045,9.765625,-996.58203125,-653.3203125,-4.8828125,0.0
1734580937.0892105,-7.8125,-985.3515625,-567.3828125,-7.32421875,0.0
1734580937.0931165,0.48828125,-996.58203125,-567.87109375,-16.6015625,0.0
1734580937.0970225,-1.46484375,-1000.0,-645.5078125,-7.8125,0.0
1734580937.1009285,-8.7890625,-985.83984375,-646.484375,-1.46484375,0.0
1734580937.1048346,-12.20703125,-1000.0,-617.67578125,-20.01953125,0.0
1734580937.1087406,-28.3203125,-982.91015625,-541.015625,-32.2265625,0.0
1734580937.1126468,-35.15625,-973.6328125,-614.74609375,-25.390625,0.0
1734580937.1165528,-17.08984375,-981.4453125,-665.52734375,-20.99609375,0.0
1734580937.1204588,-14.16015625,-937.98828125,-524.90234375,-16.6015625,0.0
1734580937.1243649,-27.34375,-943.84765625,-483.3984375,-25.390625,0.0
1734580937.1282709,-19.04296875,-979.4921875,-643.06640625,-22.94921875,0.0
1734580937.1320767,-11.23046875,-1000.0,-747.0703125,-4.39453125,0.0
1734580937.1359828,-15.13671875,-977.5390625,-526.3671875,-12.6953125,0.0
1734580937.139889,-12.20703125,-950.68359375,-509.765625,-24.4140625,0.0
1734580937.143795,-2.44140625,-975.5859375,-540.0390625,-20.99609375,0.0
1734580937.147701,6.8359375,-957.51953125,-512.6953125,-7.32421875,0.0
1734580937.151607,-6.8359375,-994.140625,-569.82421875,-7.32421875,0.0
1734580937.155513,-6.34765625,-1000.0,-539.55078125,-13.671875,0.0
1734580937.159419,4.39453125,-1000.0,-666.50390625,-16.11328125,0.0
1734580937.163325,-4.39453125,-972.16796875,-660.64453125,-13.18359375,0.0
1734580937.167231,-5.37109375,-876.953125,-457.03125,1.46484375,0.0
1734580937.1711373,-1.953125,-924.31640625,-522.94921875,1.46484375,0.0
1734580937.1750433,-2.9296875,-990.234375,-552.734375,-6.34765625,0.0
1734580937.1790795,-1.953125,-904.296875,-489.74609375,-8.30078125,0.0
1734580937.1829858,6.8359375,-879.8828125,-460.44921875,-0.9765625,0.0
1734580937.1868918,-3.90625,-964.84375,-575.68359375,-1.953125,0.0
1734580937.1907978,-25.87890625,-999.0234375,-617.1875,-19.04296875,0.0
1734580937.1947038,-34.66796875,-989.74609375,-539.0625,-34.1796875,0.0
1734580937.1986098,-22.94921875,-998.53515625,-545.8984375,-34.1796875,0.0
1734580937.2025158,-20.5078125,-1000.0,-668.9453125,-24.4140625,0.0
1734580937.2064219,-19.53125,-985.3515625,-720.703125,-13.671875,0.0
1734580937.2103279,-17.578125,-937.5,-482.421875,-24.4140625,0.0
1734580937.214234,-26.85546875,-896.97265625,-479.00390625,-31.25,0.0
1734580937.2181401,-20.99609375,-934.5703125,-541.50390625,-25.390625,0.0
1734580937.2220461,-22.94921875,-959.9609375,-509.765625,-28.80859375,0.0
1734580937.2260542,-24.90234375,-874.0234375,-472.16796875,-25.390625,0.0
1734580937.2299602,-12.6953125,-908.203125,-507.32421875,-18.5546875,0.0
1734580937.2338662,-10.7421875,-997.55859375,-566.89453125,-13.18359375,0.0
1734580937.2377722,-11.71875,-938.96484375,-513.18359375,-10.25390625,0.0
1734580937.2416782,-1.46484375,-927.24609375,-504.8828125,-14.16015625,0.0
1734580937.2455842,-1.46484375,-1000.0,-600.09765625,-20.99609375,0.0
1734580937.2494905,-4.8828125,-982.91015625,-586.42578125,-14.16015625,0.0
1734580937.2533965,-2.9296875,-964.35546875,-512.20703125,-6.34765625,0.0
1734580937.2573025,-13.18359375,-955.078125,-489.2578125,-7.8125,0.0
1734580937.2612085,-13.671875,-938.96484375,-505.37109375,-13.18359375,0.0
1734580937.2651145,-0.9765625,-1000.0,-646.97265625,-17.578125,0.0
1734580937.2690206,-1.953125,-995.1171875,-583.49609375,-20.99609375,0.0
1734580937.2727284,-10.25390625,-922.8515625,-446.77734375,-20.99609375,0.0
1734580937.2766345,-15.625,-926.26953125,-533.203125,-31.73828125,0.0
1734580937.2805405,-10.25390625,-1000.0,-623.046875,-22.4609375,0.0
1734580937.2844465,-5.37109375,-942.87109375,-532.2265625,-9.27734375,0.0
1734580937.2883525,-10.25390625,-894.53125,-465.33203125,-18.06640625,0.0
1734580937.2922585,-14.6484375,-1000.0,-676.26953125,-22.4609375,0.0
1734580937.2961648,-21.97265625,-985.83984375,-709.47265625,-26.3671875,0.0
1734580937.3000708,-20.99609375,-912.59765625,-493.1640625,-31.73828125,0.0
1734580937.3039768,-20.5078125,-876.46484375,-440.4296875,-29.296875,0.0
1734580937.3078828,-20.99609375,-932.6171875,-612.79296875,-15.625,0.0
1734580937.3117888,-11.23046875,-1000.0,-737.79296875,-7.32421875,0.0
1734580937.3156948,2.44140625,-931.640625,-481.4453125,-2.44140625,0.0
1734580937.3196254,6.8359375,-856.93359375,-474.609375,-5.859375,0.0
1734580937.3235314,6.34765625,-935.05859375,-554.6875,-6.8359375,0.0
1734580937.3274374,7.8125,-950.1953125,-479.98046875,-1.46484375,0.0
1734580937.3313434,-2.9296875,-907.2265625,-446.2890625,-9.765625,0.0
1734580937.3352494,-7.8125,-926.7578125,-508.7890625,-17.578125,0.0
1734580937.3391554,-1.46484375,-1000.0,-595.21484375,-14.16015625,0.0
1734580937.3430614,-3.90625,-984.86328125,-526.85546875,-19.04296875,0.0
1734580937.3469677,-10.7421875,-938.96484375,-457.03125,-20.01953125,0.0
1734580937.3508737,-9.27734375,-976.5625,-513.18359375,-21.484375,0.0
1734580937.3547797,-14.16015625,-989.2578125,-536.62109375,-25.87890625,0.0
1734580937.3586857,-19.04296875,-906.25,-479.4921875,-21.97265625,0.0
1734580937.3625917,-21.97265625,-898.4375,-456.54296875,-24.4140625,0.0
1734580937.3670237,-25.87890625,-971.19140625,-546.38671875,-30.76171875,0.0
1734580937.3709297,-29.78515625,-998.046875,-672.8515625,-34.66796875,0.0
1734580937.3748357,-44.43359375,-1000.0,-606.93359375,-36.62109375,0.0
1734580937.3787417,-43.45703125,-961.42578125,-477.5390625,-41.015625,0.0
1734580937.3826478,-32.71484375,-935.05859375,-544.43359375,-36.1328125,0.0
1734580937.3865538,-41.015625,-1000.0,-637.6953125,-34.1796875,0.0
1734580937.39046,-55.17578125,-976.5625,-521.484375,-50.29296875,0.0
1734580937.394366,-54.6875,-855.46875,-421.38671875,-61.5234375,0.0
1734580937.398272,-49.8046875,-913.0859375,-583.49609375,-49.31640625,0.0
1734580937.402178,-51.26953125,-993.1640625,-691.89453125,-41.50390625,0.0
1734580937.406084,-43.45703125,-886.71875,-441.89453125,-36.1328125,0.0
1734580937.40999,-38.0859375,-843.75,-442.87109375,-31.25,0.0
1734580937.4138432,-44.921875,-927.24609375,-544.43359375,-43.9453125,0.0
1734580937.4177492,-34.66796875,-919.43359375,-493.65234375,-42.48046875,0.0
1734580937.4216552,-41.50390625,-802.24609375,-439.453125,-33.203125,0.0
1734580937.4255612,-41.50390625,-873.046875,-493.65234375,-21.484375,0.0
1734580937.4294672,-33.69140625,-1000.0,-620.1171875,-23.92578125,0.0
1734580937.4333732,-31.73828125,-1000.0,-575.68359375,-16.6015625,0.0
1734580937.4372792,-21.97265625,-994.62890625,-542.48046875,-10.25390625,0.0
1734580937.4411855,-26.3671875,-1000.0,-567.87109375,-24.90234375,0.0
1734580937.4450915,-23.92578125,-990.234375,-524.90234375,-27.34375,0.0
1734580937.4489975,-32.71484375,-938.4765625,-482.91015625,-23.92578125,0.0
1734580937.4529035,-41.9921875,-811.5234375,-444.3359375,-25.87890625,0.0
1734580937.4568095,-23.92578125,-873.046875,-503.90625,-11.71875,0.0
1734580937.4606235,-25.390625,-967.7734375,-535.64453125,-6.34765625,0.0
1734580937.4645295,-25.390625,-860.83984375,-488.28125,-11.71875,0.0
1734580937.4684355,-16.11328125,-954.1015625,-526.3671875,-5.859375,0.0
1734580937.4723418,-31.25,-1000.0,-607.421875,-14.16015625,0.0
1734580937.4762478,-27.34375,-994.62890625,-698.2421875,-11.71875,0.0
1734580937.4801538,-8.7890625,-1000.0,-567.3828125,-2.9296875,0.0
1734580937.4840598,-5.859375,-993.1640625,-470.703125,0.48828125,0.0
1734580937.4879658,-6.8359375,-1000.0,-629.8828125,10.25390625,0.0
1734580937.4918718,-3.41796875,-984.86328125,-707.03125,10.7421875,0.0
1734580937.4957778,0.9765625,-802.24609375,-465.8203125,15.625,0.0
1734580937.499684,6.8359375,-654.78515625,-442.87109375,24.4140625,0.0
1734580937.50359,32.2265625,-844.7265625,-507.8125,29.296875,0.0
1734580937.5073931,42.48046875,-932.12890625,-490.234375,29.296875,0.0
1734580937.5112991,33.203125,-721.6796875,-440.4296875,33.69140625,0.0
1734580937.5152054,42.48046875,-716.796875,-471.6796875,39.55078125,0.0
1734580937.5191114,52.734375,-895.99609375,-510.25390625,43.9453125,0.0
1734580937.5230174,62.5,-875.0,-484.86328125,50.78125,0.0
1734580937.5269234,67.87109375,-918.9453125,-530.2734375,71.77734375,0.0
1734580937.5308294,70.3125,-996.58203125,-511.23046875,84.9609375,0.0
1734580937.5347354,76.171875,-1000.0,-644.04296875,88.37890625,0.0
1734580937.5386415,83.49609375,-944.3359375,-616.2109375,101.07421875,0.0
1734580937.5425475,81.0546875,-748.53515625,-415.52734375,93.75,0.0
1734580937.5464537,75.68359375,-834.47265625,-499.0234375,73.73046875,0.0
1734580937.5503597,76.66015625,-1000.0,-548.828125,70.80078125,0.0
1734580937.5541232,69.3359375,-881.34765625,-499.51171875,69.3359375,0.0
1734580937.5580292,60.05859375,-772.4609375,-461.42578125,62.98828125,0.0
1734580937.5619352,74.21875,-916.015625,-562.01171875,70.3125,0.0
1734580937.5658414,71.2890625,-978.515625,-590.8203125,74.21875,0.0
1734580937.5697474,50.78125,-897.4609375,-515.625,65.4296875,0.0
1734580937.5736535,53.22265625,-980.46875,-528.3203125,62.5,0.0
1734580937.5775595,64.94140625,-1000.0,-645.5078125,66.89453125,0.0
1734580937.5814655,68.359375,-977.5390625,-717.28515625,78.61328125,0.0
1734580937.5853715,72.75390625,-894.53125,-482.421875,74.21875,0.0
1734580937.5892775,77.1484375,-808.59375,-472.16796875,72.75390625,0.0
1734580937.5931838,65.91796875,-890.625,-524.4140625,70.3125,0.0
1734580937.5970898,65.91796875,-910.15625,-479.4921875,70.3125,0.0
1734580937.6008341,78.125,-775.390625,-450.68359375,87.890625,0.0
1734580937.6047401,81.54296875,-842.28515625,-493.1640625,98.14453125,0.0
1734580937.6086462,86.9140625,-971.19140625,-559.5703125,88.8671875,0.0
1734580937.6125522,94.23828125,-876.46484375,-493.65234375,90.33203125,0.0
1734580937.6164582,109.86328125,-846.6796875,-515.625,112.79296875,0.0
1734580937.6203642,127.9296875,-978.515625,-562.01171875,123.53515625,0.0
1734580937.6242702,125.9765625,-1000.0,-682.6171875,108.3984375,0.0
1734580937.6281765,113.76953125,-937.01171875,-666.50390625,102.05078125,0.0
1734580937.6320825,107.91015625,-765.13671875,-448.73046875,107.91015625,0.0
1734580937.6359885,112.3046875,-845.703125,-493.65234375,109.86328125,0.0
1734580937.6398945,103.515625,-942.87109375,-527.83203125,102.5390625,0.0
1734580937.6438005,93.75,-863.28125,-479.00390625,96.19140625,0.0
1734580937.647503,100.5859375,-824.21875,-467.7734375,98.6328125,0.0
1734580937.651409,117.1875,-864.74609375,-527.34375,107.91015625,0.0
1734580937.6553152,101.07421875,-1000.0,-618.65234375,90.8203125,0.0
1734580937.6592212,83.0078125,-930.17578125,-545.41015625,59.5703125,0.0
1734580937.6631272,81.0546875,-865.234375,-474.609375,68.84765625,0.0
1734580937.6670332,64.94140625,-991.2109375,-666.50390625,79.1015625,0.0
1734580937.6709392,68.359375,-1000.0,-736.81640625,84.9609375,0.0
1734580937.6748452,73.73046875,-928.7109375,-509.27734375,95.703125,0.0
1734580937.6787512,68.84765625,-743.65234375,-453.125,90.8203125,0.0
1734580937.6826572,80.078125,-843.26171875,-528.3203125,87.40234375,0.0
1734580937.6865635,86.42578125,-1000.0,-578.125,94.23828125,0.0
1734580937.6904695,85.9375,-916.9921875,-520.5078125,100.5859375,0.0
1734580937.694669,96.19140625,-790.52734375,-486.328125,120.1171875,0.0
1734580937.698575,107.91015625,-884.27734375,-560.546875,120.1171875,0.0
1734580937.702481,99.12109375,-933.59375,-511.71875,104.98046875,0.0
1734580937.7063873,103.515625,-824.70703125,-458.49609375,107.91015625,0.0
1734580937.7102933,121.58203125,-841.796875,-520.5078125,124.51171875,0.0
1734580937.7141993,114.2578125,-1000.0,-619.62890625,133.7890625,0.0
1734580937.7181053,112.79296875,-970.703125,-551.7578125,128.41796875,0.0
1734580937.7220113,113.28125,-863.76953125,-467.7734375,117.67578125,0.0
1734580937.7259173,114.74609375,-935.05859375,-540.52734375,115.72265625,0.0
1734580937.7298234,113.28125,-996.58203125,-612.3046875,116.2109375,0.0
1734580937.7337294,97.16796875,-908.69140625,-506.8359375,105.95703125,0.0
1734580937.7376356,91.796875,-822.265625,-462.890625,103.515625,0.0
1734580937.7415206,96.19140625,-892.08984375,-542.96875,94.7265625,0.0
1734580937.7454267,96.19140625,-968.26171875,-580.56640625,91.796875,0.0
1734580937.7493327,110.3515625,-982.91015625,-553.22265625,100.5859375,0.0
1734580937.7532387,104.00390625,-941.89453125,-520.5078125,91.30859375,0.0
1734580937.7571447,84.47265625,-907.2265625,-572.265625,89.35546875,0.0
1734580937.7610507,83.984375,-1000.0,-672.36328125,109.375,0.0
1734580937.764957,89.84375,-977.05078125,-550.29296875,105.95703125,0.0
1734580937.768863,78.125,-851.07421875,-436.5234375,73.73046875,0.0
1734580937.772769,76.66015625,-914.55078125,-566.40625,78.125,0.0
1734580937.776675,88.8671875,-962.40234375,-614.74609375,94.23828125,0.0
1734580937.780581,89.35546875,-876.46484375,-470.703125,88.37890625,0.0
1734580937.784487,93.75,-956.0546875,-497.55859375,90.33203125,0.0
1734580937.788387,91.30859375,-1000.0,0.0,101.5625,0.0
1734580937.792293,75.68359375,-968.75,0.0,95.21484375,0.0
1734580937.796199,78.61328125,-850.09765625,0.0,75.68359375,0.0
1734580937.800105,99.12109375,-873.046875,0.0,104.98046875,0.0
1734580937.804011,97.16796875,-994.62890625,0.0,106.4453125,0.0
1734580937.807917,91.30859375,-1000.0,0.0,79.58984375,0.0
1734580937.8118231,104.00390625,-958.0078125,0.0,99.12109375,0.0
1734580937.8157294,86.42578125,-912.109375,0.0,95.703125,0.0
1734580937.8196354,51.7578125,-1000.0,0.0,59.08203125,0.0
1734580937.8235414,33.69140625,-965.33203125,0.0,45.41015625,0.0
1734580937.8274474,34.66796875,-804.6875,0.0,46.38671875,0.0
1734580937.8313534,44.921875,-882.8125,0.0,54.19921875,0.0
1734580937.8354697,29.296875,-937.01171875,-501.953125,30.76171875,0.0
1734580937.8393757,2.9296875,-829.1015625,-451.171875,6.34765625,0.0
1734580937.8432817,-4.8828125,-957.51953125,-499.51171875,11.23046875,0.0
1734580937.8471878,-11.71875,-1000.0,-553.7109375,3.41796875,0.0
1734580937.851094,-14.16015625,-969.23828125,-583.0078125,-8.30078125,0.0
1734580937.855,-13.671875,-1000.0,-547.36328125,-3.90625,0.0
1734580937.858906,-19.53125,-950.1953125,-431.15234375,-6.34765625,0.0
1734580937.862812,-16.6015625,-927.734375,-543.9453125,-12.20703125,0.0
1734580937.866718,-19.53125,-997.0703125,-675.29296875,-14.16015625,0.0
1734580937.870624,-9.27734375,-841.30859375,-415.52734375,-10.25390625,0.0
1734580937.87453,4.39453125,-688.96484375,-407.71484375,1.953125,0.0
1734580937.878436,-8.7890625,-848.6328125,-467.7734375,7.8125,0.0
1734580937.882266,-3.41796875,-905.2734375,-408.69140625,5.859375,0.0
1734580937.886172,17.578125,-750.0,-387.6953125,18.5546875,0.0
1734580937.890078,12.20703125,-786.62109375,-432.6171875,28.3203125,0.0
1734580937.8939843,11.23046875,-906.25,-455.56640625,32.2265625,0.0
1734580937.8978903,31.73828125,-895.01953125,-454.1015625,43.9453125,0.0
1734580937.9017963,41.015625,-932.6171875,-448.2421875,50.78125,0.0
1734580937.9057024,56.15234375,-1000.0,-468.26171875,68.359375,0.0
1734580937.9096084,67.3828125,-980.46875,-503.41796875,86.9140625,0.0
1734580937.9135144,65.4296875,-834.9609375,-399.4140625,71.77734375,0.0
1734580937.9174204,62.98828125,-757.32421875,-359.375,62.98828125,0.0
1734580937.9213266,64.94140625,-888.18359375,-411.62109375,69.82421875,0.0
1734580937.9252326,77.1484375,-1000.0,-535.64453125,88.8671875,0.0
1734580937.9290345,0.0,-909.66796875,-434.08203125,94.7265625,0.0
1734580937.9329405,0.0,-744.62890625,-327.63671875,81.54296875,0.0
1734580937.9368467,0.0,-897.94921875,-474.12109375,93.26171875,0.0
1734580937.9407527,0.0,-963.8671875,-482.421875,98.6328125,0.0
1734580937.9446588,0.0,-857.91015625,-392.578125,101.5625,0.0
1734580937.9485648,0.0,-970.703125,-403.80859375,101.5625,0.0
1734580937.9524708,0.0,-1000.0,-544.43359375,82.51953125,0.0
1734580937.9563768,0.0,-961.9140625,-596.6796875,78.125,0.0
1734580937.9602828,0.0,-874.51171875,-348.14453125,78.61328125,0.0
1734580937.9641888,0.0,-953.125,-393.5546875,75.68359375,0.0
1734580937.968095,0.0,-997.55859375,-407.2265625,70.3125,0.0
1734580937.972001,0.0,-850.5859375,-339.35546875,77.63671875,0.0
1734580937.9757497,55.17578125,-680.6640625,-294.43359375,71.77734375,0.0
1734580937.9796557,50.78125,-690.91796875,-319.82421875,47.8515625,0.0
1734580937.9835618,57.6171875,-873.046875,-374.51171875,56.640625,0.0
1734580937.9874678,64.94140625,-813.4765625,-311.03515625,64.453125,0.0
1734580937.9913738,57.12890625,-749.51171875,-343.26171875,54.19921875,0.0
1734580937.9952798,36.62109375,-947.75390625,-391.6015625,47.36328125,0.0
1734580937.9991858,32.2265625,-1000.0,-520.5078125,50.78125,0.0
1734580938.003092,41.9921875,-889.16015625,-492.1875,52.24609375,0.0
1734580938.006998,31.25,-596.19140625,-240.234375,41.50390625,0.0
1734580938.010904,33.69140625,-666.9921875,-296.875,47.36328125,0.0
1734580938.01481,39.55078125,-813.96484375,-299.8046875,42.96875,0.0
1734580938.018716,21.484375,-702.63671875,-273.92578125,31.25,0.0
1734580938.0224462,31.73828125,-794.921875,-292.48046875,30.2734375,0.0
1734580938.0263522,39.55078125,-849.609375,-295.8984375,33.203125,0.0
1734580938.0302582,22.94921875,-979.4921875,-372.55859375,25.87890625,0.0
1734580938.0341642,22.94921875,-898.4375,-317.87109375,11.23046875,0.0
1734580938.0380702,22.4609375,-611.328125,-201.171875,19.04296875,0.0
1734580938.0419762,20.99609375,-833.49609375,-374.51171875,40.0390625,0.0
1734580938.0458822,23.92578125,-948.2421875,-482.421875,32.71484375,0.0
1734580938.0497882,39.0625,-594.23828125,-208.984375,24.90234375,0.0
1734580938.0536945,41.015625,-384.27734375,-45.8984375,19.53125,0.0
1734580938.0576005,20.5078125,-691.89453125,-232.421875,24.90234375,0.0
1734580938.0615065,4.39453125,-765.13671875,-287.59765625,20.01953125,0.0
1734580938.0654125,8.30078125,-414.55078125,-35.64453125,13.671875,0.0
1734580938.0701416,0.0,-416.50390625,-14.6484375,29.296875,0.0
1734580938.0740476,0.0,-704.58984375,-177.24609375,31.73828125,0.0
1734580938.0779536,0.0,-724.12109375,-223.14453125,34.1796875,0.0
1734580938.0818596,0.0,-690.91796875,-198.2421875,40.52734375,0.0
1734580938.0857656,0.0,-751.46484375,-257.32421875,32.2265625,0.0
1734580938.0896716,0.0,-852.5390625,-306.640625,33.69140625,0.0
1734580938.0935779,0.0,-830.56640625,-242.1875,47.36328125,0.0
1734580938.0974839,0.0,-517.578125,-77.63671875,44.921875,0.0
1734580938.10139,0.0,-559.08203125,-87.890625,58.10546875,0.0
1734580938.105296,0.0,-809.5703125,-278.80859375,63.96484375,0.0
1734580938.109202,0.0,-780.2734375,-249.0234375,62.01171875,0.0
1734580938.113108,0.0,-557.6171875,-140.13671875,65.4296875,0.0
1734580938.117051,74.21875,-636.71875,-193.359375,63.4765625,0.0
1734580938.120957,71.2890625,-755.859375,-248.53515625,61.5234375,0.0
1734580938.1248631,77.1484375,-771.484375,-245.60546875,77.63671875,0.0
1734580938.1287692,94.7265625,-658.69140625,-187.5,82.03125,0.0
1734580938.1326752,73.2421875,-576.171875,-166.50390625,62.5,0.0
1734580938.1365812,56.640625,-937.5,-339.84375,66.40625,0.0
1734580938.1404872,63.4765625,-977.5390625,-318.84765625,64.453125,0.0
1734580938.1443932,70.3125,-683.59375,-173.828125,59.08203125,0.0
1734580938.1482995,60.546875,-700.68359375,-270.99609375,51.26953125,0.0
1734580938.1522055,66.40625,-785.64453125,-372.55859375,60.546875,0.0
1734580938.1561115,61.03515625,-423.33984375,-62.01171875,72.75390625,0.0
1734580938.1600175,47.8515625,-351.07421875,-8.7890625,55.17578125,0.0
1734580938.163897,51.26953125,-674.8046875,-211.9140625,53.22265625,0.0
1734580938.167803,53.7109375,-699.21875,-253.41796875,60.05859375,0.0
1734580938.171709,50.29296875,-310.546875,-99.609375,56.15234375,0.0
1734580938.1756153,52.24609375,-337.40234375,-48.828125,59.5703125,0.0
1734580938.1795213,62.98828125,-724.12109375,-264.6484375,75.1953125,0.0
1734580938.1834273,53.7109375,-981.93359375,-361.328125,71.77734375,0.0
1734580938.1873333,51.7578125,-727.05078125,-229.00390625,70.80078125,0.0
1734580938.1912394,51.26953125,-400.87890625,-59.08203125,71.77734375,0.0
1734580938.1951454,44.43359375,-722.65625,-359.375,79.1015625,0.0
1734580938.1990514,53.22265625,-1000.0,-602.5390625,94.23828125,0.0
1734580938.2029576,58.59375,-647.94921875,-193.84765625,84.9609375,0.0
1734580938.2068636,60.05859375,-383.7890625,-105.46875,71.77734375,0.0
1734580938.2107372,71.77734375,-557.6171875,-159.66796875,82.51953125,0.0
1734580938.2146435,72.265625,-369.140625,-33.69140625,82.51953125,0.0
1734580938.2185495,76.66015625,-510.25390625,-166.9921875,78.61328125,0.0
1734580938.2224555,69.3359375,-815.4296875,-359.375,80.078125,0.0
1734580938.2263615,60.05859375,-753.90625,-367.67578125,81.54296875,0.0
1734580938.2302675,66.40625,-706.54296875,-301.26953125,77.63671875,0.0
1734580938.2341735,68.84765625,-572.265625,-191.40625,68.359375,0.0
1734580938.2380795,63.96484375,-626.46484375,-324.70703125,70.80078125,0.0
1734580938.2419858,60.546875,-886.23046875,-488.76953125,78.61328125,0.0
1734580938.2458918,59.5703125,-393.5546875,-107.421875,82.51953125,0.0
1734580938.2497978,62.98828125,-80.56640625,50.29296875,84.9609375,0.0
1734580938.2537038,61.5234375,-421.38671875,-111.81640625,75.1953125,0.0
1734580938.257778,64.94140625,-738.76953125,-280.2734375,76.171875,0.0
1734580938.261684,75.1953125,-515.13671875,-216.796875,79.58984375,0.0
1734580938.26559,66.40625,-261.23046875,-83.0078125,74.21875,0.0
1734580938.269496,82.51953125,-479.4921875,-180.6640625,86.9140625,0.0
1734580938.273402,81.0546875,-486.328125,-257.32421875,87.40234375,0.0
1734580938.277308,73.73046875,-554.19921875,-277.83203125,90.8203125,0.0
1734580938.2812142,81.54296875,-673.33984375,-256.8359375,93.26171875,0.0
1734580938.2851202,86.9140625,-840.33203125,-426.7578125,100.09765625,0.0
1734580938.2890263,94.7265625,-764.6484375,-415.0390625,104.00390625,0.0
1734580938.2929323,100.09765625,-218.26171875,-145.01953125,97.65625,0.0
1734580938.2968383,104.4921875,-305.17578125,-189.94140625,107.91015625,0.0
1734580938.3007443,96.19140625,-557.12890625,-272.94921875,108.3984375,0.0
1734580938.3045175,100.5859375,-342.7734375,-195.3125,106.4453125,0.0
1734580938.3084235,113.76953125,-115.72265625,-90.33203125,107.91015625,0.0
1734580938.3123295,116.69921875,-468.75,-237.79296875,122.0703125,0.0
1734580938.3162355,109.86328125,-811.5234375,-371.09375,121.09375,0.0
1734580938.3201416,99.12109375,-620.1171875,-296.38671875,105.95703125,0.0
1734580938.3240478,90.8203125,-575.1953125,-249.0234375,100.09765625,0.0
1734580938.3279538,103.02734375,-818.359375,-401.85546875,104.4921875,0.0
1734580938.3318598,102.5390625,-736.81640625,-412.59765625,101.5625,0.0
1734580938.3357658,85.44921875,-282.71484375,-94.23828125,91.796875,0.0
1734580938.3396719,91.796875,-62.5,-12.6953125,97.16796875,0.0
1734580938.3435779,96.19140625,-502.9296875,-316.40625,102.05078125,0.0
1734580938.347484,88.8671875,-859.86328125,-480.46875,98.14453125,0.0
1734580938.3512256,76.66015625,-322.75390625,-189.94140625,93.75,0.0
1734580938.3551316,79.1015625,-159.1796875,-170.41015625,102.05078125,0.0
1734580938.3590376,88.8671875,-466.796875,-257.32421875,88.37890625,0.0
1734580938.3629436,88.37890625,-399.90234375,-233.88671875,73.73046875,0.0
1734580938.3668497,86.42578125,-168.9453125,-182.6171875,87.40234375,0.0
1734580938.3707557,77.1484375,-459.47265625,-233.3984375,87.890625,0.0
1734580938.374662,77.63671875,-894.53125,-477.05078125,86.9140625,0.0
1734580938.378568,80.078125,-812.5,-467.7734375,87.890625,0.0
1734580938.382474,79.58984375,-174.8046875,-65.91796875,80.078125,0.0
1734580938.38638,86.9140625,-144.53125,-62.5,77.1484375,0.0
1734580938.390286,80.078125,-424.8046875,-201.171875,74.70703125,0.0
1734580938.394192,81.0546875,-312.5,-172.8515625,83.984375,0.0
1734580938.3979123,75.68359375,-163.0859375,-151.3671875,73.2421875,0.0
1734580938.4018183,69.3359375,-299.31640625,-238.28125,65.91796875,0.0
1734580938.4057245,65.91796875,-739.74609375,-357.91015625,70.80078125,0.0
1734580938.4096305,54.19921875,-613.76953125,-288.57421875,56.640625,0.0
1734580938.4135365,57.6171875,-254.8828125,-178.7109375,48.828125,0.0
1734580938.4174426,53.7109375,-669.921875,-392.08984375,54.19921875,0.0
1734580938.4213486,57.6171875,-874.51171875,-475.5859375,66.89453125,0.0
1734580938.4252546,48.828125,-399.4140625,-197.265625,57.6171875,0.0
1734580938.4291606,30.76171875,-125.48828125,-97.65625,44.921875,0.0
1734580938.4330666,46.875,-536.62109375,-280.76171875,56.15234375,0.0
1734580938.4369729,46.38671875,-884.27734375,-393.06640625,52.24609375,0.0
1734580938.4408789,32.2265625,-382.8125,-174.8046875,45.41015625,0.0
1734580938.4448025,41.015625,-147.4609375,-60.05859375,46.38671875,0.0
1734580938.4487085,44.43359375,-477.05078125,-170.8984375,42.96875,0.0
1734580938.4526145,35.64453125,-506.8359375,-137.6953125,41.9921875,0.0
1734580938.4565206,40.0390625,-197.265625,16.11328125,42.48046875,0.0
1734580938.4604266,41.9921875,-208.49609375,-34.66796875,48.33984375,0.0
1734580938.4643326,45.8984375,-673.33984375,-241.2109375,51.7578125,0.0
1734580938.4682386,52.24609375,-731.93359375,-243.65234375,54.19921875,0.0
1734580938.4721448,51.26953125,-319.82421875,-29.296875,62.01171875,0.0
1734580938.4760509,41.015625,-324.70703125,-32.71484375,55.17578125,0.0
1734580938.4799569,28.3203125,-702.1484375,-260.25390625,46.38671875,0.0
1734580938.4838629,36.1328125,-569.82421875,-136.23046875,45.8984375,0.0
1734580938.487769,43.9453125,-145.01953125,80.078125,39.55078125,0.0
1734580938.4916828,0.0,-341.796875,-26.3671875,35.15625,0.0
1734580938.4955888,0.0,-712.890625,-195.3125,34.1796875,0.0
1734580938.4994948,0.0,-768.06640625,-281.73828125,31.73828125,0.0
1734580938.5034008,0.0,-419.921875,-81.54296875,42.96875,0.0
1734580938.5073068,0.0,-351.07421875,-26.85546875,45.41015625,0.0
1734580938.5112128,0.0,-871.58203125,-322.75390625,29.78515625,0.0
1734580938.5151188,0.0,-698.2421875,-207.51953125,29.296875,0.0
1734580938.519025,0.0,-134.27734375,88.8671875,34.66796875,0.0
1734580938.522931,0.0,-447.265625,-116.2109375,40.52734375,0.0
1734580938.526837,0.0,-837.40234375,-366.69921875,54.6875,0.0
1734580938.5307431,0.0,-382.8125,-20.01953125,40.52734375,0.0
1734580938.5346491,0.0,-208.0078125,65.4296875,29.78515625,0.0
1734580938.5385168,24.90234375,-522.94921875,-92.7734375,29.78515625,0.0
1734580938.542423,20.01953125,-542.96875,-51.7578125,28.3203125,0.0
1734580938.546329,14.6484375,-79.1015625,108.3984375,29.296875,0.0
1734580938.550235,14.6484375,-83.984375,90.8203125,27.34375,0.0
1734580938.554141,15.13671875,-482.421875,-68.359375,32.2265625,0.0
1734580938.558047,27.83203125,-719.7265625,-208.984375,41.50390625,0.0
1734580938.561953,40.52734375,-485.83984375,-26.3671875,46.875,0.0
1734580938.565859,20.01953125,-115.234375,155.76171875,28.80859375,0.0
1734580938.5697653,1.46484375,-586.42578125,-204.58984375,11.23046875,0.0
1734580938.5736713,3.90625,-695.3125,-197.265625,24.4140625,0.0
1734580938.5775774,-4.39453125,32.71484375,195.80078125,23.4375,0.0
1734580938.5814834,-9.765625,-62.01171875,82.51953125,2.9296875,0.0
1734580938.5853307,-4.39453125,-306.15234375,63.4765625,-12.6953125,0.0
1734580938.5892367,5.37109375,-100.5859375,134.27734375,-7.8125,0.0
1734580938.593143,-3.90625,-246.58203125,77.1484375,-6.8359375,0.0
1734580938.597049,-14.16015625,-515.625,30.2734375,-22.4609375,0.0
1734580938.600955,-11.23046875,-429.19921875,47.36328125,-18.5546875,0.0
1734580938.604861,-13.18359375,-458.0078125,38.57421875,-7.8125,0.0
1734580938.608767,-8.7890625,-318.84765625,135.25390625,-5.37109375,0.0
1734580938.612673,-9.27734375,-405.2734375,3.41796875,-4.39453125,0.0
1734580938.616579,-16.6015625,-830.078125,-227.5390625,-3.90625,0.0
1734580938.620485,-9.765625,-254.8828125,111.328125,-9.765625,0.0
1734580938.6243913,2.9296875,181.640625,217.28515625,-13.671875,0.0
1734580938.6282973,5.859375,-195.80078125,65.91796875,5.37109375,0.0
1734580938.6321166,0.0,-288.57421875,100.5859375,0.0,0.0
1734580938.6360228,0.0,78.125,199.70703125,0.0,0.0
1734580938.6399288,0.0,135.25390625,205.56640625,0.0,0.0
1734580938.6438348,0.0,-332.51953125,47.36328125,0.0,0.0
1734580938.6477408,0.0,-404.78515625,58.10546875,0.0,0.0
1734580938.6516469,0.0,-258.7890625,144.53125,0.0,0.0
1734580938.6555529,0.0,-338.8671875,156.25,0.0,0.0
1734580938.6594589,0.0,-684.5703125,-100.09765625,0.0,0.0
1734580938.6633651,0.0,-649.4140625,-114.2578125,0.0,0.0
1734580938.6672711,0.0,86.9140625,262.6953125,0.0,0.0
1734580938.6711771,0.0,-70.3125,154.78515625,0.0,0.0
1734580938.6750832,0.0,-313.96484375,108.88671875,0.0,0.0
1734580938.6791074,0.48828125,10.7421875,209.9609375,2.9296875,0.0
1734580938.6830134,3.41796875,222.65625,244.62890625,6.8359375,0.0
1734580938.6869195,-1.46484375,-182.6171875,125.9765625,7.8125,0.0
1734580938.6908257,9.27734375,-402.34375,116.2109375,8.7890625,0.0
1734580938.6947317,14.6484375,-11.71875,202.63671875,0.0,0.0
1734580938.6986377,-2.44140625,-146.484375,166.015625,-2.9296875,0.0
1734580938.7025437,7.32421875,-494.62890625,54.19921875,10.7421875,0.0
1734580938.7064497,6.8359375,-765.625,-90.33203125,17.578125,0.0
1734580938.7103558,-1.953125,-250.9765625,167.48046875,5.859375,0.0
1734580938.7142618,7.8125,290.52734375,295.41015625,-1.953125,0.0
1734580938.718168,9.765625,-31.73828125,129.8828125,6.8359375,0.0
1734580938.722074,8.7890625,-83.984375,173.828125,7.8125,0.0
1734580938.7258253,10.25390625,275.390625,302.734375,4.8828125,0.0
1734580938.7297313,8.7890625,124.51171875,197.75390625,10.25390625,0.0
1734580938.7336373,-1.953125,-246.58203125,185.546875,15.13671875,0.0
1734580938.7375436,2.44140625,-57.6171875,268.06640625,8.7890625,0.0
1734580938.7414496,1.46484375,220.703125,258.7890625,6.34765625,0.0
1734580938.7453556,-14.6484375,-119.140625,187.5,16.6015625,0.0
1734580938.7492616,-8.7890625,-509.27734375,123.046875,3.41796875,0.0
1734580938.7531676,11.23046875,-183.10546875,226.07421875,0.9765625,0.0
1734580938.7570736,8.30078125,287.109375,317.3828125,2.44140625,0.0
1734580938.7609797,-3.90625,291.015625,282.2265625,-5.37109375,0.0
1734580938.7648857,-2.44140625,-464.84375,-2.44140625,9.765625,0.0
1734580938.768792,-8.30078125,-530.76171875,78.125,6.8359375,0.0
1734580938.7725248,1.46484375,278.3203125,350.09765625,-5.859375,0.0
1734580938.7764308,14.16015625,210.44921875,262.20703125,-1.46484375,0.0
1734580938.7803369,14.16015625,-277.34375,202.1484375,-0.48828125,0.0
1734580938.7842429,8.7890625,-151.3671875,273.92578125,-0.9765625,0.0
1734580938.788149,3.41796875,223.6328125,329.58984375,-0.9765625,0.0
1734580938.7920551,4.8828125,-123.046875,199.70703125,-1.46484375,0.0
1734580938.7959611,21.97265625,-460.44921875,185.05859375,1.953125,0.0
1734580938.7998672,21.484375,-80.078125,308.59375,8.30078125,0.0
1734580938.8037732,20.99609375,474.12109375,406.25,3.90625,0.0
1734580938.8076792,36.1328125,-62.01171875,164.55078125,5.859375,0.0
1734580938.8115852,37.59765625,-567.3828125,89.84375,9.765625,0.0
1734580938.8154912,27.83203125,194.82421875,375.48828125,4.8828125,0.0
1734580938.8202248,9.765625,458.49609375,353.515625,15.13671875,0.0
1734580938.8241308,0.9765625,140.625,314.94140625,16.6015625,0.0
1734580938.8280368,-3.41796875,163.57421875,340.8203125,11.23046875,0.0
1734580938.8319428,2.44140625,496.09375,406.73828125,-0.9765625,0.0
1734580938.8358488,9.27734375,499.0234375,369.140625,-6.34765625,0.0
1734580938.839755,8.7890625,-43.9453125,286.1328125,-3.90625,0.0
1734580938.843661,7.8125,-74.21875,380.37109375,2.9296875,0.0
1734580938.847567,10.7421875,386.23046875,449.70703125,7.32421875,0.0
1734580938.851473,9.765625,201.171875,278.80859375,-0.48828125,0.0
1734580938.855379,-0.9765625,-22.4609375,276.3671875,0.0,0.0
1734580938.859285,-11.23046875,264.6484375,453.125,6.8359375,0.0
1734580938.8631914,-0.9765625,599.12109375,398.4375,6.8359375,0.0
1734580938.8671496,8.30078125,445.80078125,0.0,0.0,0.0
1734580938.8710558,8.7890625,-164.55078125,0.0,0.0,0.0
1734580938.8749619,4.8828125,-261.71875,0.0,0.0,0.0
1734580938.8788679,-6.8359375,345.703125,0.0,0.0,0.0
1734580938.8827739,-7.32421875,381.8359375,0.0,0.0,0.0
1734580938.88668,-2.44140625,-202.63671875,0.0,0.0,0.0
1734580938.890586,-3.90625,112.79296875,0.0,0.0,0.0
1734580938.894492,-7.8125,708.984375,0.0,0.0,0.0
1734580938.8983982,-14.6484375,295.41015625,0.0,0.0,0.0
1734580938.9023042,-9.27734375,52.734375,0.0,0.0,0.0
1734580938.9062102,3.41796875,602.05078125,0.0,0.0,0.0
1734580938.9101162,7.32421875,445.3125,0.0,0.0,0.0
1734580938.913988,4.39453125,-60.546875,242.67578125,0.9765625,0.0
1734580938.9178944,-0.48828125,121.58203125,297.36328125,-3.41796875,0.0
1734580938.9218004,-1.953125,703.125,463.8671875,-10.25390625,0.0
1734580938.9257064,-11.23046875,718.26171875,432.6171875,-15.13671875,0.0
1734580938.9296124,-7.8125,194.82421875,376.953125,4.39453125,0.0
1734580938.9335184,0.0,-45.41015625,362.79296875,13.18359375,0.0
1734580938.9374244,-4.39453125,281.73828125,414.55078125,-2.44140625,0.0
1734580938.9413307,0.9765625,708.984375,460.44921875,-5.859375,0.0
1734580938.9452367,3.90625,-35.64453125,222.65625,8.30078125,0.0
1734580938.9491427,-4.39453125,-877.9296875,190.91796875,16.6015625,0.0
1734580938.9530487,-5.859375,184.5703125,455.078125,9.27734375,0.0
1734580938.9569547,-5.859375,588.37890625,405.2734375,-4.8828125,0.0
1734580938.9610438,-5.37109375,332.51953125,375.9765625,-16.11328125,0.0
1734580938.9649498,-14.16015625,713.37890625,471.6796875,-16.11328125,0.0
1734580938.9688559,-20.5078125,730.46875,426.26953125,-5.859375,0.0
1734580938.9727619,2.44140625,369.62890625,386.71875,0.0,0.0
1734580938.9766681,10.25390625,441.40625,433.59375,3.41796875,0.0
1734580938.9805741,-3.41796875,479.98046875,402.83203125,-4.8828125,0.0
1734580938.9844801,-15.13671875,619.140625,447.265625,-17.578125,0.0
1734580938.9883862,-11.71875,609.375,397.94921875,-13.18359375,0.0
1734580938.9922922,-2.9296875,59.5703125,344.7265625,-14.6484375,0.0
1734580938.9961982,-14.6484375,574.21875,485.3515625,-18.5546875,0.0
1734580939.0001042,-13.671875,-952.63671875,506.34765625,-21.97265625,0.0
1734580939.0040104,-3.41796875,649.4140625,391.6015625,-6.8359375,0.0
1734580939.0078073,-5.37109375,640.13671875,418.45703125,1.46484375,0.0
1734580939.0117135,1.46484375,970.703125,506.34765625,-4.8828125,0.0
1734580939.0156195,-4.8828125,945.3125,478.02734375,-3.90625,0.0
1734580939.0195255,-6.34765625,741.2109375,476.07421875,-6.8359375,0.0
1734580939.0234315,-2.9296875,748.53515625,473.6328125,-8.30078125,0.0
1734580939.0273376,-17.08984375,723.14453125,432.6171875,-7.8125,0.0
1734580939.0312436,-17.578125,523.4375,396.97265625,-7.8125,0.0
1734580939.0351498,-12.20703125,365.234375,428.7109375,-3.90625,0.0
1734580939.0390558,-19.04296875,652.34375,469.23828125,-3.41796875,0.0
1734580939.0429618,-21.484375,958.49609375,481.4453125,4.39453125,0.0
1734580939.0468678,-8.7890625,951.171875,465.8203125,13.18359375,0.0
1734580939.0507739,0.0,190.4296875,283.69140625,7.8125,0.0
1734580939.0545611,-9.27734375,186.5234375,367.67578125,3.90625,0.0
1734580939.0584671,-10.7421875,-933.10546875,537.59765625,-5.859375,0.0
1734580939.0623732,-13.18359375,712.40234375,425.29296875,-9.765625,0.0
1734580939.0662792,-23.4375,423.33984375,416.015625,-8.7890625,0.0
1734580939.0701852,-30.2734375,851.5625,492.67578125,-12.6953125,0.0
1734580939.0740914,-17.08984375,832.51953125,460.9375,-19.53125,0.0
1734580939.0779974,7.8125,481.4453125,375.48828125,-0.9765625,0.0
1734580939.0819035,-10.7421875,396.97265625,390.625,10.7421875,0.0
1734580939.0858095,-32.2265625,725.5859375,466.796875,-33.69140625,0.0
1734580939.0897155,-40.52734375,969.7265625,510.7421875,-65.4296875,0.0
1734580939.0936215,-42.48046875,599.609375,353.02734375,-41.015625,0.0
1734580939.0975275,-45.41015625,312.01171875,319.3359375,-35.15625,0.0
1734580939.10156,0.0,924.31640625,528.3203125,-58.10546875,0.0
1734580939.1054661,0.0,990.234375,500.9765625,-63.4765625,0.0
1734580939.1093721,0.0,806.640625,473.6328125,-73.73046875,0.0
1734580939.1132784,0.0,881.8359375,497.0703125,-93.26171875,0.0
1734580939.1171844,0.0,944.82421875,487.3046875,-99.609375,0.0
1734580939.1210904,0.0,822.75390625,454.58984375,-101.5625,0.0
1734580939.1249964,0.0,197.75390625,313.4765625,-96.19140625,0.0
1734580939.1289024,0.0,296.875,367.67578125,-90.8203125,0.0
1734580939.1328084,0.0,-973.6328125,543.9453125,-101.07421875,0.0
1734580939.1367147,0.0,907.71484375,465.8203125,-109.86328125,0.0
1734580939.1406207,0.0,806.640625,443.84765625,-121.09375,0.0
1734580939.1445267,0.0,848.14453125,465.33203125,-110.3515625,0.0
1734580939.1477869,-61.5234375,904.78515625,472.16796875,-100.5859375,0.0
1734580939.151693,-55.17578125,928.7109375,489.2578125,-119.62890625,0.0
1734580939.155599,-66.40625,724.609375,450.1953125,-122.55859375,0.0
1734580939.1595051,-98.14453125,786.62109375,487.3046875,-106.4453125,0.0
1734580939.1634111,-103.02734375,-965.8203125,523.4375,-104.98046875,0.0
1734580939.1673172,-107.421875,750.9765625,430.17578125,-105.95703125,0.0
1734580939.1712232,-101.07421875,473.6328125,412.59765625,-112.79296875,0.0
1734580939.1751292,-102.5390625,854.00390625,501.46484375,-110.3515625,0.0
1734580939.1790352,-115.72265625,-929.6875,550.78125,-107.91015625,0.0
1734580939.1829414,-122.55859375,692.87109375,386.71875,-103.02734375,0.0
1734580939.1868474,-125.0,344.7265625,354.00390625,-78.61328125,0.0
1734580939.1907535,-130.859375,875.0,559.5703125,-81.54296875,0.0
1734580939.1949537,-81.54296875,-994.140625,548.33984375,-85.9375,0.0
1734580939.19886,-65.4296875,869.62890625,493.1640625,-66.89453125,0.0
1734580939.202766,-74.21875,893.5546875,467.28515625,-67.3828125,0.0
1734580939.206672,-71.77734375,934.08203125,499.51171875,-62.98828125,0.0
1734580939.210578,-62.5,965.8203125,517.08984375,-54.19921875,0.0
1734580939.214484,-51.26953125,769.04296875,464.84375,-38.57421875,0.0
1734580939.21839,-38.0859375,779.78515625,493.65234375,-39.55078125,0.0
1734580939.222296,-35.64453125,977.05078125,566.40625,-40.0390625,0.0
1734580939.2262022,-25.390625,988.76953125,533.69140625,-31.25,0.0
1734580939.2301083,-29.296875,608.88671875,416.015625,-26.85546875,0.0
1734580939.2340143,-37.109375,664.0625,467.28515625,-19.04296875,0.0
1734580939.2379203,-31.73828125,-975.09765625,560.05859375,-17.08984375,0.0
1734580939.241831,-23.92578125,920.41015625,503.90625,-15.625,0.0
1734580939.245737,-19.53125,846.19140625,478.02734375,-8.7890625,0.0
1734580939.249643,-13.671875,911.1328125,500.48828125,3.90625,0.0
1734580939.253549,-20.01953125,986.81640625,547.8515625,-4.8828125,0.0
1734580939.257455,-16.11328125,901.3671875,537.109375,-6.34765625,0.0
1734580939.2613611,-14.6484375,767.578125,475.5859375,-2.44140625,0.0
1734580939.2652671,-23.4375,883.30078125,490.72265625,-13.18359375,0.0
1734580939.2691734,-17.578125,-994.140625,550.78125,-16.11328125,0.0
1734580939.2730794,0.0,788.57421875,461.9140625,-1.46484375,0.0
1734580939.2769854,2.9296875,731.4453125,462.890625,17.08984375,0.0
1734580939.2808914,8.30078125,953.125,588.37890625,22.94921875,0.0
1734580939.2847974,14.16015625,-961.9140625,604.00390625,20.5078125,0.0
1734580939.2886665,-14.6484375,676.7578125,419.921875,4.8828125,0.0
1734580939.2925727,-28.80859375,462.890625,391.11328125,-10.7421875,0.0
1734580939.2964787,-30.2734375,962.40234375,605.46875,-8.7890625,0.0
1734580939.3003848,-32.71484375,979.4921875,586.42578125,-5.37109375,0.0
1734580939.3042908,-40.0390625,935.546875,576.171875,-15.625,0.0
1734580939.3081968,-52.24609375,950.1953125,553.22265625,-25.390625,0.0
1734580939.3121028,-79.58984375,931.15234375,561.03515625,-54.6875,0.0
1734580939.3160088,-95.21484375,-960.44921875,594.23828125,-74.21875,0.0
1734580939.319915,-94.23828125,539.0625,432.6171875,-64.94140625,0.0
1734580939.323821,-116.2109375,456.54296875,464.35546875,-89.35546875,0.0
1734580939.327727,-141.11328125,-979.00390625,615.234375,-126.46484375,0.0
1734580939.331633,-142.578125,945.80078125,544.43359375,-127.44140625,0.0
1734580939.3354712,-151.85546875,905.76171875,0.0,-143.06640625,0.0
1734580939.3393772,-154.296875,952.63671875,0.0,-140.625,0.0
1734580939.3432832,-147.4609375,944.3359375,0.0,-131.34765625,0.0
1734580939.3471892,-148.92578125,927.734375,0.0,-154.296875,0.0
1734580939.3510954,-141.6015625,944.82421875,0.0,-139.6484375,0.0
1734580939.3550014,-134.765625,916.50390625,0.0,-117.67578125,0.0
1734580939.3589075,-120.60546875,987.79296875,0.0,-125.48828125,0.0
1734580939.3628135,-90.8203125,841.30859375,0.0,-126.953125,0.0
1734580939.3667195,-95.21484375,574.21875,0.0,-112.79296875,0.0
1734580939.3706255,-104.4921875,892.08984375,0.0,-108.3984375,0.0
1734580939.3745315,-84.9609375,-963.37890625,0.0,-91.30859375,0.0
1734580939.3784378,-71.2890625,740.234375,0.0,-59.5703125,0.0
1734580939.3825037,-66.40625,723.14453125,428.22265625,-60.05859375,0.0
1734580939.3864098,-53.22265625,987.79296875,603.515625,-48.33984375,0.0
1734580939.3903158,-42.96875,958.984375,583.984375,-30.76171875,0.0
1734580939.3942218,-36.1328125,941.40625,571.2890625,-41.015625,0.0
1734580939.3981278,-30.76171875,954.58984375,572.265625,-36.1328125,0.0
1734580939.402034,-25.87890625,933.59375,544.43359375,-21.484375,0.0
1734580939.40594,-15.13671875,-976.5625,566.89453125,-27.83203125,0.0
1734580939.409846,-5.37109375,603.515625,444.3359375,-16.6015625,0.0
1734580939.413752,-7.8125,530.76171875,478.515625,-7.32421875,0.0
1734580939.417658,-8.7890625,-982.91015625,632.32421875,-5.37109375,0.0
1734580939.421564,8.7890625,947.265625,562.98828125,-1.953125,0.0
1734580939.42547,16.6015625,911.62109375,540.0390625,-8.30078125,0.0
1734580939.429252,5.859375,955.56640625,587.40234375,0.48828125,0.0
1734580939.433158,12.6953125,970.21484375,594.23828125,-10.25390625,0.0
1734580939.4370642,16.11328125,940.91796875,546.38671875,-9.765625,0.0
1734580939.4409702,17.08984375,926.7578125,528.80859375,8.30078125,0.0
1734580939.4448762,20.5078125,948.2421875,583.49609375,4.8828125,0.0
1734580939.4487822,16.11328125,986.328125,572.265625,2.9296875,0.0
1734580939.4526882,14.6484375,870.60546875,498.046875,6.8359375,0.0
1734580939.4565942,18.5546875,812.5,546.38671875,0.48828125,0.0
1734580939.4605002,23.4375,944.3359375,596.19140625,8.30078125,0.0
1734580939.4644063,15.625,-971.6796875,615.72265625,8.7890625,0.0
1734580939.4683125,11.23046875,757.8125,443.84765625,3.41796875,0.0
1734580939.4722185,5.859375,566.40625,403.80859375,6.8359375,0.0
1734580939.4759755,0.0,960.44921875,0.0,1.46484375,0.0
1734580939.4798815,0.0,994.140625,0.0,5.37109375,0.0
1734580939.4837875,0.0,830.56640625,0.0,1.953125,0.0
1734580939.4876935,0.0,889.6484375,0.0,-1.953125,0.0
1734580939.4915996,0.0,959.47265625,0.0,5.37109375,0.0
1734580939.4955056,0.0,-981.93359375,0.0,0.9765625,0.0
1734580939.4994118,0.0,625.9765625,0.0,-4.39453125,0.0
1734580939.5033178,0.0,530.76171875,0.0,-3.90625,0.0
1734580939.5072238,0.0,-990.72265625,0.0,-4.8828125,0.0
1734580939.5111299,0.0,955.56640625,0.0,-0.9765625,0.0
1734580939.5150359,0.0,925.78125,0.0,-2.44140625,0.0
1734580939.5189419,0.0,956.54296875,0.0,-12.20703125,0.0
1734580939.5226524,-8.30078125,971.6796875,592.28515625,-14.16015625,0.0
1734580939.5265584,-19.04296875,956.0546875,568.84765625,-8.7890625,0.0
1734580939.5304646,-10.7421875,928.7109375,521.97265625,-11.23046875,0.0
1734580939.5343707,-14.16015625,940.4296875,557.12890625,-9.765625,0.0
1734580939.5382767,-26.85546875,991.2109375,583.984375,-32.2265625,0.0
1734580939.5421827,-17.578125,911.62109375,504.39453125,-31.73828125,0.0
1734580939.5460887,-8.7890625,691.89453125,475.5859375,-6.8359375,0.0
1734580939.5499947,-16.6015625,895.01953125,582.03125,-19.04296875,0.0
1734580939.5539007,-24.90234375,-995.60546875,609.375,-20.01953125,0.0
1734580939.557807,-15.13671875,886.71875,487.79296875,-15.625,0.0
1734580939.561713,-11.71875,918.45703125,491.69921875,-25.390625,0.0
1734580939.565619,3.41796875,976.07421875,600.5859375,-16.11328125,0.0
1734580939.5698185,0.9765625,962.40234375,587.40234375,3.41796875,0.0
1734580939.5737245,-32.71484375,932.6171875,526.3671875,-7.32421875,0.0
1734580939.5776305,-41.015625,944.3359375,541.50390625,-23.92578125,0.0
1734580939.5815365,-36.1328125,962.890625,592.28515625,-17.08984375,0.0
1734580939.5854425,-26.85546875,982.421875,564.94140625,-14.16015625,0.0
1734580939.5893488,-19.53125,777.34375,451.66015625,-12.20703125,0.0
1734580939.5932548,-28.3203125,794.921875,469.23828125,-6.8359375,0.0
1734580939.5971608,-42.48046875,996.09375,586.42578125,-8.7890625,0.0
1734580939.6010668,-41.50390625,950.68359375,559.08203125,-10.25390625,0.0
1734580939.6049728,-23.4375,872.0703125,534.66796875,6.8359375,0.0
1734580939.6088789,-27.34375,924.8046875,582.03125,8.30078125,0.0
1734580939.6127849,-42.96875,988.28125,605.46875,-9.765625,0.0
1734580939.6167002,-30.76171875,944.3359375,544.43359375,-10.25390625,0.0
1734580939.6206062,-16.6015625,884.765625,492.67578125,-1.953125,0.0
1734580939.6245122,-18.5546875,930.6640625,541.015625,6.8359375,0.0
1734580939.6284182,-23.4375,994.140625,589.84375,3.90625,0.0
1734580939.6323242,-16.11328125,912.109375,570.80078125,-1.953125,0.0
1734580939.6362305,-11.71875,810.546875,518.5546875,7.32421875,0.0
1734580939.6401365,-12.6953125,938.4765625,568.359375,9.765625,0.0
1734580939.6440425,-13.18359375,-995.1171875,618.65234375,1.953125,0.0
1734580939.6479485,-8.7890625,842.7734375,510.25390625,2.9296875,0.0
1734580939.6518545,-8.30078125,826.66015625,522.4609375,13.18359375,0.0
1734580939.6557605,-10.7421875,955.56640625,615.234375,20.5078125,0.0
1734580939.6596665,-5.37109375,-974.609375,622.55859375,27.34375,0.0
1734580939.6635337,0.0,766.6015625,457.51953125,26.3671875,0.0
1734580939.6674397,-6.34765625,413.57421875,409.1796875,18.5546875,0.0
1734580939.6713457,-10.7421875,870.1171875,610.3515625,19.04296875,0.0
1734580939.6752517,-0.9765625,-989.2578125,602.5390625,8.7890625,0.0
1734580939.6791577,4.39453125,935.05859375,582.51953125,6.34765625,0.0
1734580939.6830637,-11.23046875,965.33203125,572.75390625,13.671875,0.0
1734580939.6869698,-21.97265625,947.265625,587.40234375,5.859375,0.0
1734580939.690876,-14.16015625,-981.4453125,620.1171875,4.8828125,0.0
1734580939.694782,-16.6015625,661.62109375,464.35546875,16.6015625,0.0
1734580939.698688,-20.01953125,642.578125,498.046875,5.37109375,0.0
1734580939.702594,-16.11328125,-981.93359375,649.90234375,-3.41796875,0.0
1734580939.7065,-26.3671875,950.68359375,579.1015625,-9.27734375,0.0
1734580939.710346,-14.6484375,928.22265625,551.26953125,9.27734375,0.0
1734580939.714252,-25.390625,958.984375,608.3984375,-12.20703125,0.0
1734580939.718158,-57.6171875,965.8203125,583.49609375,-45.8984375,0.0
1734580939.722064,-64.453125,957.51953125,572.265625,-37.59765625,0.0
1734580939.72597,-68.359375,965.8203125,605.95703125,-43.45703125,0.0
1734580939.7298763,-62.5,943.84765625,576.171875,-57.12890625,0.0
1734580939.7337823,-77.63671875,980.46875,593.75,-69.82421875,0.0
1734580939.7376883,-85.9375,920.8984375,561.5234375,-73.2421875,0.0
1734580939.7415943,-86.42578125,736.81640625,516.6015625,-72.75390625,0.0
1734580939.7455003,-105.95703125,916.50390625,628.41796875,-88.8671875,0.0
1734580939.7494063,-104.98046875,995.1171875,641.6015625,-95.21484375,0.0
1734580939.7533123,-104.00390625,915.0390625,539.0625,-101.07421875,0.0
1734580939.757364,-113.76953125,950.68359375,581.54296875,-106.93359375,0.0
1734580939.76127,-121.09375,973.6328125,641.6015625,-104.00390625,0.0
1734580939.765176,-120.1171875,961.9140625,622.55859375,-101.5625,0.0
1734580939.769082,-101.5625,964.84375,623.53515625,-87.890625,0.0
1734580939.772988,-99.609375,965.33203125,618.65234375,-96.19140625,0.0
1734580939.7768943,-100.5859375,951.66015625,590.8203125,-97.65625,0.0
1734580939.7808003,-95.703125,-991.2109375,597.16796875,-89.84375,0.0
1734580939.7847064,-90.8203125,731.4453125,493.1640625,-72.75390625,0.0
1734580939.7886124,-87.890625,705.56640625,539.55078125,-69.82421875,0.0
1734580939.7925184,-85.9375,-991.69921875,670.8984375,-79.1015625,0.0
1734580939.7964244,-72.265625,953.61328125,593.26171875,-62.01171875,0.0
1734580939.8003304,-60.546875,937.5,583.0078125,-43.9453125,0.0
1734580939.8041072,-49.8046875,960.44921875,638.18359375,-31.25,0.0
1734580939.8080132,-37.109375,967.7734375,634.27734375,-22.4609375,0.0
1734580939.8119192,-24.90234375,954.58984375,579.1015625,-13.18359375,0.0
1734580939.8158255,-27.34375,959.47265625,607.421875,-18.06640625,0.0
1734580939.8197315,-36.1328125,965.8203125,649.4140625,-24.90234375,0.0
1734580939.8236375,-38.57421875,966.796875,591.30859375,-38.0859375,0.0
1734580939.8275435,-32.71484375,943.359375,572.265625,-27.34375,0.0
1734580939.8314495,-29.296875,931.640625,614.2578125,-15.625,0.0
1734580939.8353555,-27.83203125,951.66015625,639.6484375,-11.23046875,0.0
1734580939.8392615,-14.6484375,-996.58203125,665.52734375,-10.25390625,0.0
1734580939.8431678,-14.16015625,848.6328125,541.015625,-6.8359375,0.0
1734580939.8470738,-16.6015625,737.79296875,516.6015625,-1.953125,0.0
1734580939.8510644,-8.7890625,965.8203125,673.33984375,-8.7890625,0.0
1734580939.8549705,-11.71875,970.703125,617.1875,2.9296875,0.0
1734580939.8588765,-7.32421875,952.1484375,600.5859375,2.9296875,0.0
1734580939.8627825,-9.765625,970.703125,662.59765625,-5.37109375,0.0
1734580939.8666885,-18.06640625,956.0546875,659.1796875,2.9296875,0.0
1734580939.8705945,-13.18359375,997.55859375,624.51171875,-3.41796875,0.0
1734580939.8745008,-24.4140625,795.8984375,516.6015625,-0.48828125,0.0
1734580939.8784068,-33.69140625,770.99609375,571.77734375,-0.9765625,0.0
1734580939.8823128,-37.109375,999.0234375,699.21875,-12.6953125,0.0
1734580939.8862188,-35.64453125,958.49609375,647.94921875,-3.41796875,0.0
1734580939.8901248,-32.2265625,940.4296875,628.41796875,-1.953125,0.0
1734580939.8940308,-33.203125,963.8671875,669.921875,-14.6484375,0.0
1734580939.8977602,-39.55078125,971.19140625,681.640625,-6.34765625,0.0
1734580939.9016664,-31.25,963.8671875,652.83203125,3.90625,0.0
1734580939.9055724,-27.83203125,961.42578125,612.79296875,-5.859375,0.0
1734580939.9094784,-36.1328125,963.8671875,664.0625,-5.859375,0.0
1734580939.9133844,-32.71484375,972.16796875,673.828125,-0.9765625,0.0
1734580939.9172904,-26.3671875,954.1015625,610.83984375,-6.34765625,0.0
1734580939.9211965,-21.97265625,937.01171875,634.27734375,-7.8125,0.0
1734580939.9251025,-17.578125,953.61328125,679.19921875,-7.32421875,0.0
1734580939.9290087,-24.4140625,999.51171875,687.98828125,-9.27734375,0.0
1734580939.9329147,-28.80859375,868.1640625,585.44921875,5.859375,0.0
1734580939.9368207,-23.4375,773.92578125,569.3359375,15.13671875,0.0
1734580939.9407268,-21.484375,967.28515625,695.3125,-3.41796875,0.0
1734580939.9449263,-33.69140625,978.515625,692.3828125,-24.4140625,0.0
1734580939.9488323,-37.59765625,950.68359375,632.8125,-26.3671875,0.0
1734580939.9527383,-19.53125,962.890625,645.5078125,-18.06640625,0.0
1734580939.9566443,-9.27734375,970.703125,676.7578125,-8.30078125,0.0
1734580939.9605503,-17.08984375,972.65625,658.69140625,-8.30078125,0.0
1734580939.9644563,-30.76171875,883.30078125,565.4296875,-22.4609375,0.0
1734580939.9683626,-41.9921875,912.59765625,597.65625,-28.3203125,0.0
1734580939.9722686,-36.62109375,981.93359375,667.48046875,-26.3671875,0.0
1734580939.9761746,-20.99609375,955.56640625,628.41796875,-30.76171875,0.0
1734580939.9800806,-19.04296875,949.21875,641.11328125,-25.87890625,0.0
1734580939.9839866,-25.390625,961.9140625,673.33984375,-13.18359375,0.0
1734580939.9878926,-23.92578125,974.609375,693.84765625,-12.6953125,0.0
1734580939.9917974,-31.25,961.9140625,656.73828125,-26.85546875,0.0
1734580939.9957035,-22.4609375,931.640625,615.72265625,-25.390625,0.0
1734580939.9996095,-15.625,953.61328125,641.11328125,-23.92578125,0.0
1734580940.0035157,-35.64453125,981.4453125,688.4765625,-28.3203125,0.0
1734580940.0074217,-35.15625,950.68359375,673.828125,-35.64453125,0.0
1734580940.0113277,-25.87890625,901.3671875,614.2578125,-24.4140625,0.0
1734580940.0152338,-31.25,951.66015625,629.8828125,-20.01953125,0.0
1734580940.0191398,-19.53125,986.81640625,683.10546875,-7.32421875,0.0
1734580940.0230458,18.06640625,909.66796875,620.60546875,17.578125,0.0
1734580940.0269518,4.39453125,908.203125,629.8828125,-0.9765625,0.0
1734580940.030858,-30.76171875,968.75,684.5703125,-47.8515625,0.0
1734580940.034764,-29.78515625,991.69921875,687.98828125,-47.36328125,0.0
1734580940.0386412,-2.9296875,866.2109375,572.75390625,-24.90234375,0.0
1734580940.0425472,-12.6953125,793.45703125,555.6640625,-43.45703125,0.0
1734580940.0464532,-40.52734375,972.16796875,707.03125,-55.6640625,0.0
1734580940.0503592,-35.64453125,974.609375,703.125,-51.7578125,0.0
1734580940.0542653,-32.2265625,961.9140625,692.3828125,-76.66015625,0.0
1734580940.0581713,-33.69140625,967.7734375,660.64453125,-82.51953125,0.0
1734580940.0620775,-33.203125,963.8671875,687.01171875,-80.56640625,0.0
1734580940.0659835,-6.34765625,982.91015625,723.14453125,-66.89453125,0.0
1734580940.0698895,0.9765625,882.32421875,588.37890625,-45.41015625,0.0
1734580940.0737956,-6.8359375,891.6015625,629.39453125,-48.828125,0.0
1734580940.0777016,-10.7421875,987.3046875,752.44140625,-66.40625,0.0
1734580940.0816076,-20.01953125,960.9375,682.12890625,-67.87109375,0.0
1734580940.0854387,-19.04296875,958.0078125,655.76171875,-42.96875,0.0
1734580940.0893447,-10.7421875,968.26171875,719.23828125,-43.9453125,0.0
1734580940.0932508,-30.2734375,968.26171875,691.89453125,-65.4296875,0.0
1734580940.0971568,-40.52734375,966.30859375,665.0390625,-63.96484375,0.0
1734580940.1010628,-21.97265625,969.23828125,696.77734375,-51.26953125,0.0
1734580940.1049688,-18.06640625,964.35546875,674.31640625,-42.96875,0.0
1734580940.108875,-14.6484375,968.75,708.49609375,-50.29296875,0.0
1734580940.112781,-12.20703125,964.84375,705.078125,-38.57421875,0.0
1734580940.116687,-15.13671875,939.94140625,650.87890625,-32.2265625,0.0
1734580940.120593,-21.97265625,962.40234375,742.1875,-51.7578125,0.0
1734580940.124499,-27.83203125,980.46875,780.76171875,-57.12890625,0.0
1734580940.128405,-29.78515625,913.0859375,607.421875,-47.8515625,0.0
1734580940.1322303,0.0,928.7109375,654.78515625,-37.109375,0.0
1734580940.1361363,0.0,980.46875,783.69140625,-36.62109375,0.0
1734580940.1400425,0.0,965.33203125,735.83984375,-33.69140625,0.0
1734580940.1439486,0.0,969.23828125,737.3046875,-27.83203125,0.0
1734580940.1478546,0.0,968.75,755.37109375,-36.62109375,0.0
1734580940.1517606,0.0,965.33203125,718.26171875,-36.1328125,0.0
1734580940.1556666,0.0,975.5859375,693.84765625,-31.73828125,0.0
1734580940.1595726,0.0,917.48046875,629.39453125,-39.0625,0.0
1734580940.1634786,0.0,919.43359375,718.75,-37.59765625,0.0
1734580940.1673849,0.0,980.46875,811.03515625,-50.29296875,0.0
1734580940.1712909,0.0,963.37890625,719.7265625,-49.31640625,0.0
1734580940.175197,0.0,956.54296875,698.2421875,-40.0390625,0.0
1734580940.178986,-32.71484375,967.28515625,761.71875,-36.1328125,0.0
1734580940.182892,-23.92578125,970.21484375,780.2734375,-32.2265625,0.0
1734580940.186798,-30.76171875,965.33203125,703.61328125,-26.3671875,0.0
1734580940.190704,-35.64453125,968.75,718.75,-33.203125,0.0
1734580940.19461,-23.92578125,967.7734375,787.59765625,-53.22265625,0.0
1734580940.1985161,-33.69140625,969.7265625,729.4921875,-52.734375,0.0
1734580940.2024221,-49.31640625,963.37890625,688.96484375,-18.06640625,0.0
1734580940.2063284,-21.97265625,940.4296875,689.94140625,2.44140625,0.0
1734580940.2102344,-8.7890625,958.49609375,718.26171875,-32.2265625,0.0
1734580940.2141404,-33.203125,980.95703125,786.1328125,-51.26953125,0.0
1734580940.2180464,-55.17578125,917.48046875,683.10546875,-57.6171875,0.0
1734580940.2219524,-42.48046875,924.31640625,711.9140625,-58.59375,0.0
1734580940.225717,-36.62109375,979.4921875,823.73046875,-62.01171875,0.0
1734580940.229623,-55.6640625,966.30859375,793.9453125,-77.1484375,0.0
1734580940.233529,-64.453125,969.23828125,750.9765625,-80.078125,0.0
1734580940.237435,-63.96484375,969.23828125,776.3671875,-93.26171875,0.0
1734580940.241341,-50.29296875,967.7734375,804.6875,-86.42578125,0.0
1734580940.2452471,-48.828125,971.19140625,742.67578125,-79.1015625,0.0
1734580940.2491531,-66.89453125,932.12890625,642.08984375,-92.7734375,0.0
1734580940.2530594,-78.125,938.96484375,729.4921875,-117.1875,0.0
1734580940.2569654,-85.9375,977.5390625,832.51953125,-121.58203125,0.0
1734580940.2608714,-85.9375,965.33203125,777.83203125,-119.140625,0.0
1734580940.2647774,-82.51953125,956.54296875,745.60546875,-131.34765625,0.0
1734580940.2686834,-102.05078125,964.84375,745.1171875,-134.27734375,0.0
1734580940.2734091,-103.515625,970.21484375,795.41015625,-147.94921875,0.0
1734580940.2773151,-100.5859375,968.75,791.015625,-152.34375,0.0
1734580940.2812214,-103.515625,968.26171875,735.83984375,-138.18359375,0.0
1734580940.2851274,-91.30859375,967.28515625,780.2734375,-141.6015625,0.0
1734580940.2890334,-86.9140625,971.19140625,812.5,-147.4609375,0.0
1734580940.2929394,-70.80078125,966.30859375,729.00390625,-115.72265625,0.0
1734580940.2968454,-75.1953125,950.1953125,697.265625,-119.62890625,0.0
1734580940.3007514,-83.984375,965.8203125,799.31640625,-128.90625,0.0
1734580940.3046575,-70.3125,972.16796875,816.40625,-109.375,0.0
1734580940.3085637,-70.3125,960.9375,765.625,-105.95703125,0.0
1734580940.3124697,-77.1484375,965.8203125,785.15625,-102.05078125,0.0
1734580940.3163757,-51.26953125,970.703125,809.08203125,-83.0078125,0.0
1734580940.320348,-34.1796875,968.75,799.8046875,-83.984375,0.0
1734580940.324254,-20.01953125,969.7265625,735.83984375,-76.171875,0.0
1734580940.3281603,-9.765625,969.23828125,752.44140625,-58.59375,0.0
1734580940.3320663,-15.625,969.23828125,810.546875,-65.91796875,0.0
1734580940.3359723,-21.484375,969.23828125,795.8984375,-68.84765625,0.0
1734580940.3398783,-16.6015625,969.23828125,749.51171875,-73.2421875,0.0
1734580940.3437843,-10.7421875,969.23828125,775.87890625,-58.59375,0.0
1734580940.3476903,-8.7890625,970.21484375,816.40625,-61.5234375,0.0
1734580940.3515966,-11.71875,968.26171875,793.45703125,-73.2421875,0.0
1734580940.3555026,-5.859375,961.9140625,776.85546875,-62.01171875,0.0
1734580940.3594086,0.0,965.8203125,797.36328125,-62.5,0.0
1734580940.3633146,6.8359375,973.6328125,815.91796875,-48.33984375,0.0
1734580940.3674662,12.6953125,965.8203125,773.4375,-37.59765625,0.0
1734580940.3713722,1.46484375,939.94140625,704.1015625,-32.2265625,0.0
1734580940.3752782,-3.41796875,962.40234375,744.140625,-44.43359375,0.0
1734580940.3791842,6.8359375,974.609375,811.5234375,-41.50390625,0.0
1734580940.3830903,20.99609375,965.33203125,766.11328125,-23.92578125,0.0
1734580940.3869963,8.30078125,961.9140625,715.8203125,-34.1796875,0.0
1734580940.3909023,-0.48828125,966.796875,737.3046875,-28.3203125,0.0
1734580940.3948085,16.11328125,971.6796875,771.97265625,-15.13671875,0.0
1734580940.3987145,14.16015625,965.8203125,784.1796875,-25.87890625,0.0
1734580940.4026206,0.0,939.453125,618.1640625,-23.92578125,0.0
1734580940.4065266,-3.90625,958.49609375,693.359375,-17.08984375,0.0
1734580940.4104326,-3.90625,973.6328125,831.0546875,-19.53125,0.0
1734580940.4143114,-0.48828125,966.30859375,729.00390625,-17.578125,0.0
1734580940.4182177,-7.32421875,969.7265625,770.99609375,-31.73828125,0.0
1734580940.4221237,-2.9296875,969.7265625,819.82421875,-34.66796875,0.0
1734580940.4260297,0.48828125,969.23828125,798.828125,-20.99609375,0.0
1734580940.4299357,-4.8828125,969.7265625,789.0625,-15.625,0.0
1734580940.4338417,-16.11328125,968.75,757.32421875,-13.18359375,0.0
1734580940.4377477,-17.08984375,968.26171875,744.140625,-20.01953125,0.0
1734580940.441654,-10.25390625,969.23828125,790.52734375,-17.08984375,0.0
1734580940.44556,-1.953125,969.23828125,740.234375,-19.53125,0.0
1734580940.449466,1.953125,968.26171875,737.79296875,-21.97265625,0.0
1734580940.453372,-4.39453125,970.703125,810.546875,-19.04296875,0.0
1734580940.457278,-3.90625,969.23828125,765.13671875,-32.2265625,0.0
1734580940.4611087,-3.41796875,945.3125,606.93359375,-20.01953125,0.0
1734580940.4650147,-5.859375,959.9609375,716.796875,-15.13671875,0.0
1734580940.4689207,-8.7890625,973.14453125,759.27734375,-29.78515625,0.0
1734580940.4728267,-13.18359375,967.28515625,702.1484375,-32.2265625,0.0
1734580940.4767327,-19.53125,970.21484375,780.76171875,-31.73828125,0.0
1734580940.4806387,-23.92578125,968.26171875,736.328125,-27.83203125,0.0
1734580940.4845448,-15.625,968.26171875,743.1640625,-25.87890625,0.0
1734580940.488451,-20.01953125,968.26171875,742.67578125,-24.90234375,0.0
1734580940.492357,-24.4140625,959.9609375,686.03515625,-13.671875,0.0
1734580940.496263,-21.484375,967.28515625,770.99609375,-12.20703125,0.0
1734580940.500169,-17.578125,971.19140625,796.38671875,-22.94921875,0.0
1734580940.504075,-3.41796875,963.37890625,669.43359375,-23.4375,0.0
1734580940.507889,3.41796875,966.796875,693.84765625,-29.296875,0.0
1734580940.511795,-8.30078125,970.21484375,777.34375,-24.90234375,0.0
1734580940.515701,-16.11328125,969.23828125,752.44140625,-20.01953125,0.0
1734580940.5196073,-8.30078125,969.23828125,729.98046875,-36.1328125,0.0
1734580940.5235133,-11.23046875,969.23828125,739.74609375,-25.87890625,0.0
1734580940.5274193,-24.4140625,968.75,699.70703125,-26.3671875,0.0
1734580940.5313253,-22.4609375,969.7265625,685.546875,-37.59765625,0.0
1734580940.5352314,-12.20703125,957.03125,623.046875,-26.3671875,0.0
1734580940.5391374,-16.6015625,959.9609375,672.8515625,-27.34375,0.0
1734580940.5430434,-30.2734375,973.6328125,780.2734375,-45.8984375,0.0
1734580940.5469496,-26.85546875,966.30859375,711.9140625,-38.0859375,0.0
1734580940.5508556,-11.71875,950.68359375,675.29296875,-30.76171875,0.0
1734580940.554631,-15.625,965.33203125,738.76953125,-41.50390625,0.0
1734580940.558537,-14.6484375,971.6796875,758.30078125,-34.1796875,0.0
1734580940.562443,-15.13671875,967.7734375,686.03515625,-31.25,0.0
1734580940.566349,-19.53125,969.7265625,669.43359375,-29.78515625,0.0
1734580940.570255,-14.16015625,968.26171875,708.49609375,-28.80859375,0.0
1734580940.574161,-11.71875,970.703125,690.4296875,-40.0390625,0.0
1734580940.5780673,-3.90625,967.28515625,654.296875,-34.66796875,0.0
1734580940.5819733,17.08984375,951.66015625,650.390625,2.9296875,0.0
1734580940.5858793,1.953125,965.8203125,735.83984375,11.71875,0.0
1734580940.5897853,-34.66796875,972.16796875,758.30078125,-25.390625,0.0
1734580940.5936913,-43.45703125,958.984375,661.1328125,-35.64453125,0.0
1734580940.5975974,-43.45703125,964.84375,667.48046875,-20.01953125,0.0
1734580940.601348,-46.38671875,971.19140625,720.21484375,-9.27734375,0.0
1734580940.605254,-45.41015625,968.75,711.9140625,-30.76171875,0.0
1734580940.6091602,-37.109375,969.23828125,676.26953125,-40.52734375,0.0
1734580940.6130662,-42.48046875,968.75,697.265625,-36.62109375,0.0
1734580940.6169722,-69.82421875,968.75,705.078125,-32.71484375,0.0
1734580940.6208782,-69.82421875,972.16796875,666.015625,-26.3671875,0.0
1734580940.6247842,-62.01171875,937.01171875,565.4296875,-18.06640625,0.0
1734580940.6286902,-75.1953125,943.359375,613.76953125,-27.83203125,0.0
1734580940.6325963,-79.1015625,977.05078125,736.328125,-34.1796875,0.0
1734580940.6365025,-66.40625,965.8203125,688.4765625,-26.3671875,0.0
1734580940.6404085,-68.84765625,956.54296875,657.2265625,-26.3671875,0.0
1734580940.6443145,-75.1953125,964.35546875,687.98828125,-29.296875,0.0
1734580940.6483161,-64.453125,974.609375,718.26171875,0.0,0.0
1734580940.6522222,-66.89453125,964.35546875,680.6640625,0.0,0.0
1734580940.6561282,-75.68359375,936.03515625,594.23828125,0.0,0.0
1734580940.6600342,-70.80078125,960.9375,666.50390625,0.0,0.0
1734580940.6639404,-61.5234375,975.5859375,718.26171875,0.0,0.0
1734580940.6678464,-66.40625,963.37890625,645.99609375,0.0,0.0
1734580940.6717525,-67.3828125,950.68359375,621.09375,0.0,0.0
1734580940.6756585,-62.01171875,965.8203125,696.77734375,0.0,0.0
1734580940.6795645,-57.12890625,972.16796875,725.09765625,0.0,0.0
1734580940.6834705,-52.734375,961.9140625,635.7421875,0.0,0.0
1734580940.6873765,-43.9453125,966.796875,649.90234375,0.0,0.0
1734580940.6912827,-43.9453125,970.703125,711.42578125,0.0,0.0
1734580940.6950006,-45.8984375,969.23828125,686.03515625,-7.8125,0.0
1734580940.6989067,-42.48046875,965.8203125,626.953125,-7.8125,0.0
1734580940.7028127,-39.55078125,967.28515625,652.34375,-10.7421875,0.0
1734580940.7067187,-43.45703125,970.703125,692.87109375,-9.765625,0.0
1734580940.7106247,-50.78125,968.75,679.6875,-11.23046875,0.0
1734580940.7145307,-39.55078125,960.44921875,627.9296875,-7.32421875,0.0
1734580940.718437,-35.64453125,965.33203125,638.18359375,-9.765625,0.0
1734580940.722343,-52.24609375,970.21484375,680.17578125,-16.11328125,0.0
1734580940.726249,-52.734375,974.609375,674.8046875,-6.34765625,0.0
1734580940.730155,-48.33984375,915.52734375,544.921875,2.9296875,0.0
1734580940.734061,-44.43359375,925.78125,581.0546875,0.9765625,0.0
1734580940.737967,-30.2734375,983.3984375,708.0078125,-5.37109375,0.0
1734580940.741888,0.0,958.984375,633.30078125,2.44140625,0.0
1734580940.745794,0.0,929.19921875,593.75,6.8359375,0.0
1734580940.7497,0.0,958.0078125,620.60546875,-16.6015625,0.0
1734580940.753606,0.0,972.16796875,641.6015625,-22.94921875,0.0
1734580940.757512,0.0,964.84375,643.06640625,-18.06640625,0.0
1734580940.761418,0.0,965.8203125,597.16796875,-16.11328125,0.0
1734580940.7653244,0.0,965.8203125,628.41796875,-30.76171875,0.0
1734580940.7692304,0.0,974.609375,681.15234375,-59.08203125,0.0
1734580940.7731364,0.0,950.68359375,593.75,-66.89453125,0.0
1734580940.7770424,0.0,945.80078125,599.609375,-88.8671875,0.0
1734580940.7809484,0.0,967.7734375,676.7578125,-77.1484375,0.0
1734580940.7848544,0.0,983.3984375,671.38671875,-65.4296875,0.0
1734580940.788728,-125.0,914.55078125,520.01953125,-91.30859375,0.0
1734580940.792634,-135.7421875,874.51171875,506.34765625,-107.91015625,0.0
1734580940.79654,-122.0703125,968.75,666.50390625,-115.234375,0.0
1734580940.8004463,-125.9765625,972.16796875,619.62890625,-106.4453125,0.0
1734580940.8043523,-158.203125,965.8203125,622.0703125,-104.98046875,0.0
1734580940.8082583,-146.97265625,965.8203125,608.3984375,-103.02734375,0.0
1734580940.8121643,-161.1328125,963.37890625,607.91015625,-120.60546875,0.0
1734580940.8160703,-170.41015625,979.00390625,659.66796875,-130.37109375,0.0
1734580940.8199763,-152.83203125,917.48046875,514.16015625,-101.07421875,0.0
1734580940.8238823,-139.16015625,919.43359375,544.43359375,-96.6796875,0.0
1734580940.8277886,-118.65234375,980.95703125,684.08203125,-71.77734375,0.0
1734580940.8316946,-112.79296875,964.84375,620.1171875,-58.59375,0.0
1734580940.8355467,0.0,959.47265625,591.30859375,-63.96484375,0.0
1734580940.8394527,0.0,967.28515625,650.87890625,-42.48046875,0.0
1734580940.8433588,0.0,966.796875,613.28125,-42.48046875,0.0
1734580940.8472648,0.0,966.796875,591.796875,-33.203125,0.0
1734580940.851171,0.0,970.21484375,635.7421875,-18.06640625,0.0
1734580940.855077,0.0,963.37890625,587.890625,-5.37109375,0.0
1734580940.858983,0.0,965.33203125,585.44921875,0.9765625,0.0
1734580940.862889,0.0,965.33203125,574.70703125,10.7421875,0.0
1734580940.866795,0.0,945.80078125,562.01171875,38.57421875,0.0
1734580940.870701,0.0,964.35546875,654.78515625,42.96875,0.0
1734580940.874607,0.0,972.65625,664.55078125,32.71484375,0.0
1734580940.8785133,0.0,959.9609375,577.1484375,35.15625,0.0
1734580940.882358,26.3671875,966.796875,604.4921875,48.828125,0.0
1734580940.8862643,14.6484375,970.703125,666.9921875,54.6875,0.0
1734580940.8901703,3.41796875,968.75,653.80859375,50.78125,0.0
1734580940.8940763,14.6484375,969.7265625,635.7421875,39.0625,0.0
1734580940.8979824,11.23046875,969.23828125,633.30078125,33.203125,0.0
1734580940.9018884,15.13671875,963.8671875,604.98046875,49.31640625,0.0
1734580940.9057944,23.4375,975.5859375,617.1875,48.33984375,0.0
1734580940.9097004,15.13671875,918.45703125,513.18359375,29.78515625,0.0
1734580940.9136066,26.85546875,919.43359375,542.48046875,38.0859375,0.0
1734580940.9175127,41.9921875,979.98046875,649.90234375,46.38671875,0.0
1734580940.9214187,26.85546875,963.8671875,595.703125,38.57421875,0.0
1734580940.9253247,-1.46484375,958.0078125,610.83984375,31.25,0.0
1734580940.9291167,-3.41796875,967.7734375,650.390625,26.85546875,0.0
1734580940.9330227,5.37109375,970.703125,657.71484375,34.1796875,0.0
1734580940.936929,-12.20703125,965.8203125,617.67578125,27.34375,0.0
1734580940.940835,-23.4375,969.23828125,625.48828125,15.625,0.0
1734580940.944741,-8.30078125,967.7734375,651.3671875,19.04296875,0.0
1734580940.948647,-7.32421875,971.19140625,619.62890625,29.78515625,0.0
1734580940.952553,-8.7890625,964.35546875,602.05078125,31.25,0.0
1734580940.956459,1.46484375,936.5234375,584.9609375,25.390625,0.0
1734580940.960365,-4.39453125,962.890625,644.53125,9.765625,0.0
1734580940.9642713,-14.16015625,974.609375,678.7109375,6.34765625,0.0
1734580940.9681773,-17.08984375,951.66015625,592.7734375,11.71875,0.0
1734580940.9720833,-24.90234375,961.9140625,609.375,-2.44140625,0.0
1734580940.9758363,-33.203125,972.65625,660.64453125,0.0,0.0
1734580940.9797423,-25.87890625,967.7734375,617.1875,7.8125,0.0
1734580940.9836483,-11.23046875,968.75,602.05078125,-5.859375,0.0
1734580940.9875543,-23.92578125,969.23828125,643.5546875,-3.41796875,0.0
1734580940.9914603,-30.76171875,967.28515625,649.4140625,-4.8828125,0.0
1734580940.9953666,-32.2265625,974.609375,623.53515625,-20.01953125,0.0
1734580940.9992726,-24.90234375,925.29296875,517.578125,-18.5546875,0.0
1734580941.0031786,-30.76171875,925.78125,563.4765625,-16.11328125,0.0
1734580941.0070846,-43.45703125,979.00390625,688.4765625,-19.53125,0.0
1734580941.0109906,-27.83203125,965.33203125,639.16015625,-19.53125,0.0
1734580941.0148966,-13.671875,953.61328125,625.0,-14.16015625,0.0
1734580941.0188026,-19.04296875,965.8203125,657.2265625,-19.04296875,0.0
1734580941.0235136,0.0,971.6796875,670.8984375,-17.578125,0.0
1734580941.0274196,0.0,967.7734375,644.04296875,-21.484375,0.0
1734580941.0313256,0.0,966.796875,597.65625,-22.94921875,0.0
1734580941.0352316,0.0,967.28515625,631.34765625,-12.6953125,0.0
1734580941.0391378,0.0,971.19140625,640.625,-20.01953125,0.0
1734580941.0430439,0.0,959.9609375,598.14453125,-30.76171875,0.0
1734580941.0469499,0.0,932.12890625,591.796875,-20.01953125,0.0
1734580941.0508559,0.0,961.9140625,661.62109375,-18.06640625,0.0
1734580941.054762,0.0,974.12109375,688.96484375,-10.25390625,0.0
1734580941.058668,0.0,959.9609375,626.46484375,-7.32421875,0.0
1734580941.0625741,0.0,966.796875,623.046875,-22.94921875,0.0
1734580941.0664802,0.0,970.703125,681.15234375,-26.3671875,0.0
1734580941.0706692,-22.94921875,969.23828125,682.12890625,-34.66796875,0.0
1734580941.0745752,-15.13671875,963.8671875,605.46875,-28.80859375,0.0
1734580941.0784814,-21.484375,966.30859375,636.23046875,-26.3671875,0.0
1734580941.0823874,-20.5078125,971.19140625,687.5,-21.484375,0.0
1734580941.0862935,-14.6484375,969.23828125,678.22265625,-8.7890625,0.0
1734580941.0901995,-26.3671875,953.61328125,626.46484375,-20.99609375,0.0
1734580941.0941055,-33.69140625,960.9375,628.41796875,-24.90234375,0.0
1734580941.0980115,-23.92578125,969.7265625,658.69140625,-10.7421875,0.0
1734580941.1019177,-1.953125,965.8203125,649.4140625,-11.71875,0.0
1734580941.1058238,-11.71875,965.8203125,663.0859375,-22.4609375,0.0
1734580941.1097298,-37.59765625,965.8203125,684.08203125,-13.671875,0.0
1734580941.1136358,-25.87890625,973.6328125,694.3359375,-7.8125,0.0
1734580941.1175194,-17.08984375,963.8671875,651.85546875,-19.04296875,0.0
1734580941.1214254,-25.390625,929.19921875,604.4921875,-9.765625,0.0
1734580941.1253314,-38.0859375,956.54296875,633.7890625,-18.06640625,0.0
1734580941.1292374,-27.83203125,974.609375,665.0390625,-36.1328125,0.0
1734580941.1331434,-11.23046875,961.42578125,663.0859375,-24.4140625,0.0
1734580941.1370494,-9.27734375,944.3359375,599.609375,-5.37109375,0.0
1734580941.1409557,-14.16015625,961.9140625,649.90234375,-12.6953125,0.0
1734580941.1448617,-34.1796875,973.6328125,712.890625,-20.5078125,0.0
1734580941.1487677,-27.83203125,964.84375,630.37109375,-20.5078125,0.0
1734580941.1526737,-16.6015625,948.2421875,593.75,-22.4609375,0.0
1734580941.1565797,-20.5078125,959.9609375,650.87890625,-26.3671875,0.0
1734580941.1604857,-25.390625,977.5390625,696.2890625,-32.2265625,0.0
1734580941.16437,-21.97265625,939.94140625,571.2890625,-27.34375,0.0
1734580941.168276,-18.5546875,918.9453125,501.46484375,-23.4375,0.0
1734580941.172182,-28.80859375,966.796875,677.24609375,-20.01953125,0.0
1734580941.1760883,-25.87890625,972.16796875,702.1484375,-14.6484375,0.0
1734580941.1799943,-18.06640625,967.28515625,660.15625,-23.92578125,0.0
1734580941.1839004,-11.23046875,967.28515625,625.0,-26.3671875,0.0
1734580941.1878064,-13.18359375,966.30859375,642.578125,-24.4140625,0.0
1734580941.1917124,-15.625,976.07421875,682.12890625,-35.64453125,0.0
1734580941.1956184,-10.7421875,931.15234375,539.55078125,-20.5078125,0.0
1734580941.1995246,-16.6015625,934.5703125,568.359375,-15.625,0.0
1734580941.2034307,-23.92578125,978.02734375,695.80078125,-23.92578125,0.0
1734580941.2073367,-23.92578125,965.8203125,634.27734375,-22.4609375,0.0
1734580941.211418,-23.92578125,960.9375,604.4921875,-23.92578125,0.0
1734580941.215324,-16.6015625,967.7734375,640.625,-15.13671875,0.0
1734580941.21923,-6.34765625,968.75,617.67578125,-9.27734375,0.0
1734580941.223136,-3.41796875,967.7734375,607.91015625,-11.23046875,0.0
1734580941.227042,-8.7890625,969.23828125,636.71875,-17.08984375,0.0
1734580941.230948,-6.8359375,965.8203125,599.609375,-27.34375,0.0
1734580941.2348542,-15.625,968.75,623.046875,-23.4375,0.0
1734580941.2387602,-25.390625,967.28515625,621.58203125,-23.92578125,0.0
1734580941.2426662,-20.5078125,948.2421875,565.91796875,-19.53125,0.0
1734580941.2465723,-32.71484375,964.35546875,644.04296875,-13.671875,0.0
1734580941.2504783,-41.9921875,974.12109375,671.38671875,-16.11328125,0.0
1734580941.2543843,-33.203125,950.1953125,545.41015625,-15.625,0.0
1734580941.2581854,-33.203125,958.0078125,568.359375,-24.90234375,0.0
1734580941.2620914,-35.64453125,973.14453125,670.41015625,-32.2265625,0.0
1734580941.2659974,-31.73828125,968.26171875,629.8828125,-34.1796875,0.0
1734580941.2699034,-24.90234375,969.23828125,599.609375,-28.80859375,0.0
1734580941.2738094,-18.06640625,968.26171875,594.7265625,-25.390625,0.0
1734580941.2777157,-12.20703125,968.26171875,579.58984375,-22.94921875,0.0
1734580941.2816217,-21.97265625,967.7734375,567.3828125,-18.06640625,0.0
1734580941.2855277,-23.4375,968.75,594.7265625,-29.296875,0.0
1734580941.2894337,-25.390625,966.796875,618.65234375,-27.34375,0.0
1734580941.2933397,-33.69140625,969.7265625,621.09375,-20.01953125,0.0
1734580941.2972457,-30.2734375,977.05078125,613.28125,-24.4140625,0.0
1734580941.301152,-31.25,878.90625,434.5703125,-27.83203125,0.0
1734580941.3049326,-32.71484375,909.66796875,498.53515625,-16.11328125,0.0
1734580941.3088388,-31.73828125,985.3515625,642.08984375,-17.08984375,0.0
1734580941.3127449,-15.625,957.03125,546.38671875,-21.484375,0.0
1734580941.3166509,-14.6484375,969.23828125,565.4296875,-16.6015625,0.0
1734580941.3205569,-29.78515625,968.26171875,607.91015625,-16.11328125,0.0
1734580941.324463,-20.99609375,969.23828125,577.1484375,-28.80859375,0.0
1734580941.328369,-16.11328125,962.40234375,538.0859375,-35.64453125,0.0
1734580941.332275,-18.5546875,937.01171875,489.2578125,-32.2265625,0.0
1734580941.3361812,-6.34765625,959.9609375,549.8046875,-26.85546875,0.0
1734580941.3400872,6.34765625,979.98046875,625.9765625,-19.53125,0.0
1734580941.3439932,-4.39453125,936.03515625,493.65234375,-20.5078125,0.0
1734580941.3478992,-8.30078125,924.8046875,458.49609375,-9.765625,0.0
1734580941.351658,-5.859375,971.19140625,598.6328125,-12.6953125,0.0
1734580941.355564,-17.578125,970.703125,595.21484375,-31.73828125,0.0
1734580941.3594701,-28.80859375,958.49609375,505.859375,-15.13671875,0.0
1734580941.3633764,-20.5078125,964.84375,537.59765625,-12.20703125,0.0
1734580941.3672824,-12.6953125,966.796875,574.21875,-23.92578125,0.0
1734580941.3711884,-20.5078125,978.515625,521.484375,-15.625,0.0
