timestamps,TP9,AF7,AF8,TP10,Right AUX
1734420630.6963174,515.625,-14.6484375,279.78515625,-222.65625,0.0
1734420630.700223,194.82421875,-14.16015625,361.328125,-84.9609375,0.0
1734420630.7041283,140.625,-15.625,389.16015625,-5.37109375,0.0
1734420630.7080338,559.5703125,-17.578125,376.46484375,-66.40625,0.0
1734420630.711939,596.6796875,-22.94921875,232.91015625,-178.7109375,0.0
1734420630.7158446,501.46484375,-20.5078125,266.6015625,-159.66796875,0.0
1734420630.71975,231.4453125,-5.859375,391.6015625,8.7890625,0.0
1734420630.7236555,117.1875,-13.18359375,240.234375,123.53515625,0.0
1734420630.7275608,500.9765625,-28.80859375,224.609375,62.5,0.0
1734420630.7314663,576.171875,-20.01953125,335.44921875,-59.5703125,0.0
1734420630.7353716,514.6484375,-3.90625,312.01171875,-83.0078125,0.0
1734420630.7392862,0.0,-13.671875,263.18359375,75.68359375,0.0
1734420630.7431917,0.0,-17.578125,266.11328125,200.68359375,0.0
1734420630.747097,0.0,-11.23046875,394.53125,127.44140625,0.0
1734420630.7510026,0.0,-20.99609375,339.35546875,0.0,0.0
1734420630.7549078,0.0,-26.3671875,247.55859375,-3.90625,0.0
1734420630.7588134,0.0,-27.83203125,269.04296875,118.1640625,0.0
1734420630.7627187,0.0,-22.4609375,300.78125,227.05078125,0.0
1734420630.7666242,0.0,-20.99609375,382.8125,189.94140625,0.0
1734420630.7705295,0.0,-20.99609375,229.4921875,89.84375,0.0
1734420630.774435,0.0,-10.7421875,206.54296875,40.52734375,0.0
1734420630.7783403,0.0,-8.7890625,404.296875,121.09375,0.0
1734420630.7822459,0.0,-22.94921875,359.86328125,253.90625,0.0
1734420630.7861595,396.484375,-23.92578125,390.13671875,262.20703125,0.0
1734420630.790065,637.20703125,-20.5078125,415.0390625,143.5546875,0.0
1734420630.7939703,553.22265625,-19.53125,363.76953125,66.89453125,0.0
1734420630.797876,401.3671875,-28.3203125,319.82421875,157.71484375,0.0
1734420630.8017812,43.45703125,-23.92578125,278.3203125,293.45703125,0.0
1734420630.8056867,270.01953125,14.6484375,336.42578125,325.1953125,0.0
1734420630.809592,558.10546875,37.59765625,412.109375,221.19140625,0.0
1734420630.8134975,438.4765625,37.109375,248.53515625,145.5078125,0.0
1734420630.8174028,292.48046875,33.69140625,193.359375,231.4453125,0.0
1734420630.8213084,-35.64453125,39.55078125,344.7265625,382.8125,0.0
1734420630.8252137,110.83984375,39.55078125,391.11328125,424.31640625,0.0
1734420630.8291192,459.47265625,34.1796875,343.26171875,284.1796875,0.0
1734420630.8330324,375.48828125,26.85546875,297.36328125,152.83203125,0.0
1734420630.8369377,241.2109375,25.87890625,345.21484375,222.16796875,0.0
1734420630.8408432,-80.56640625,23.4375,314.453125,367.67578125,0.0
1734420630.8447485,-26.85546875,22.94921875,342.7734375,396.484375,0.0
1734420630.848654,358.3984375,32.2265625,400.87890625,262.20703125,0.0
1734420630.8525593,349.12109375,40.52734375,290.0390625,175.29296875,0.0
1734420630.8564649,244.62890625,44.43359375,245.60546875,221.19140625,0.0
1734420630.8603702,-95.21484375,30.76171875,100.5859375,349.12109375,0.0
1734420630.8642757,-100.5859375,36.62109375,171.38671875,411.62109375,0.0
1734420630.868181,337.40234375,36.62109375,458.49609375,278.80859375,0.0
1734420630.8720865,341.796875,23.4375,304.19921875,168.45703125,0.0
1734420630.8759918,243.65234375,41.50390625,234.86328125,189.94140625,0.0
1734420630.8799045,-18.5546875,50.29296875,333.984375,324.70703125,0.0
1734420630.8838098,-100.5859375,42.48046875,358.88671875,427.734375,0.0
1734420630.8877153,302.734375,41.50390625,386.23046875,332.03125,0.0
1734420630.8916206,368.1640625,35.15625,354.98046875,208.984375,0.0
1734420630.8955262,245.1171875,35.64453125,319.3359375,247.55859375,0.0
1734420630.8994315,10.7421875,40.52734375,290.0390625,400.87890625,0.0
1734420630.903337,-98.6328125,33.203125,235.3515625,470.21484375,0.0
1734420630.9072423,305.6640625,25.390625,287.109375,422.36328125,0.0
1734420630.9111476,418.45703125,40.0390625,371.09375,309.5703125,0.0
1734420630.9150531,333.984375,33.69140625,362.3046875,339.84375,0.0
1734420630.9189584,147.94921875,31.73828125,248.53515625,453.125,0.0
1734420630.922864,-70.3125,35.64453125,244.140625,523.92578125,0.0
1734420630.9267762,0.0,22.4609375,428.7109375,511.23046875,0.0
1734420630.9306815,0.0,35.15625,399.4140625,407.71484375,0.0
1734420630.934587,0.0,36.62109375,322.265625,354.98046875,0.0
1734420630.9384923,0.0,22.4609375,340.33203125,455.56640625,0.0
1734420630.9423978,0.0,16.11328125,324.70703125,590.8203125,0.0
1734420630.9463031,0.0,18.06640625,355.46875,556.15234375,0.0
1734420630.9502087,0.0,11.23046875,182.6171875,417.48046875,0.0
1734420630.954114,0.0,-0.48828125,119.62890625,375.9765625,0.0
1734420630.9580195,0.0,22.4609375,338.8671875,422.36328125,0.0
1734420630.9619248,0.0,26.85546875,260.25390625,522.4609375,0.0
1734420630.9658303,0.0,11.23046875,295.41015625,518.06640625,0.0
1734420630.9697356,0.0,6.34765625,392.578125,401.3671875,0.0
1734420630.973647,516.6015625,1.953125,322.265625,312.01171875,0.0
1734420630.9775527,379.39453125,-1.953125,247.0703125,353.02734375,0.0
1734420630.981458,43.9453125,3.41796875,202.1484375,464.84375,0.0
1734420630.9853635,226.07421875,1.46484375,315.91796875,467.7734375,0.0
1734420630.9892688,607.421875,-5.37109375,343.26171875,369.62890625,0.0
1734420630.9931743,533.203125,-6.34765625,135.25390625,273.92578125,0.0
1734420630.9970796,416.50390625,-9.27734375,41.9921875,297.8515625,0.0
1734420631.0009851,90.33203125,-8.30078125,182.6171875,406.73828125,0.0
1734420631.0048904,203.125,-0.48828125,298.828125,431.15234375,0.0
1734420631.008796,628.41796875,-3.41796875,245.1171875,320.3125,0.0
1734420631.0127013,562.01171875,-25.390625,170.41015625,204.58984375,0.0
1734420631.0166068,431.640625,-15.13671875,198.73046875,234.375,0.0
1734420631.0205173,129.8828125,-3.41796875,186.5234375,371.09375,0.0
1734420631.024423,169.43359375,-7.8125,173.33984375,434.5703125,0.0
1734420631.0283282,612.3046875,-7.32421875,247.0703125,368.65234375,0.0
1734420631.0322337,569.3359375,-0.48828125,243.1640625,240.72265625,0.0
1734420631.036139,436.5234375,-3.90625,166.50390625,216.30859375,0.0
1734420631.0400445,171.875,-9.27734375,38.0859375,363.28125,0.0
1734420631.0439498,92.7734375,-5.859375,38.57421875,384.765625,0.0
1734420631.0478554,510.7421875,-14.16015625,184.08203125,255.859375,0.0
1734420631.0517607,573.2421875,-10.7421875,148.92578125,174.31640625,0.0
1734420631.0556662,477.05078125,1.953125,-15.13671875,201.66015625,0.0
1734420631.0595715,201.66015625,7.8125,46.875,319.82421875,0.0
1734420631.063477,36.62109375,13.671875,186.5234375,371.09375,0.0
1734420631.0673923,469.7265625,14.6484375,201.66015625,299.31640625,0.0
1734420631.0712976,619.140625,6.8359375,202.63671875,208.49609375,0.0
1734420631.075203,523.92578125,-1.46484375,223.6328125,194.3359375,0.0
1734420631.0791085,265.13671875,0.0,242.1875,290.0390625,0.0
1734420631.0830138,-3.90625,8.7890625,74.21875,320.3125,0.0
1734420631.0869193,397.4609375,-1.46484375,2.9296875,256.8359375,0.0
1734420631.0908246,602.05078125,2.9296875,147.4609375,157.2265625,0.0
1734420631.0947301,511.71875,15.13671875,246.09375,136.23046875,0.0
1734420631.0986354,281.25,10.7421875,48.33984375,234.375,0.0
1734420631.102541,-50.78125,-1.46484375,-70.80078125,334.9609375,0.0
1734420631.1064463,328.125,2.44140625,221.6796875,305.6640625,0.0
1734420631.1103518,640.625,9.765625,317.3828125,205.078125,0.0
1734420631.1142664,522.4609375,10.25390625,-13.671875,163.0859375,0.0
1734420631.118172,302.24609375,19.53125,-138.671875,210.44921875,0.0
1734420631.1220772,-92.28515625,-7.8125,113.76953125,272.94921875,0.0
1734420631.1259828,195.80078125,0.9765625,161.1328125,255.859375,0.0
1734420631.129888,613.76953125,46.38671875,214.35546875,174.31640625,0.0
1734420631.1337936,525.87890625,34.66796875,105.95703125,104.98046875,0.0
1734420631.137699,318.84765625,15.625,30.76171875,155.2734375,0.0
1734420631.1416044,-90.33203125,16.6015625,8.7890625,226.07421875,0.0
1734420631.1455097,103.02734375,11.71875,-153.80859375,237.79296875,0.0
1734420631.1494153,541.9921875,22.4609375,-5.859375,171.38671875,0.0
1734420631.1533206,493.1640625,34.1796875,229.00390625,100.5859375,0.0
1734420631.157226,301.7578125,37.59765625,75.68359375,105.46875,0.0
1734420631.16114,-112.79296875,34.66796875,-6.8359375,194.82421875,0.0
1734420631.1650453,4.8828125,32.71484375,114.74609375,223.6328125,0.0
1734420631.1689508,481.4453125,37.59765625,241.69921875,122.0703125,0.0
1734420631.172856,466.30859375,47.8515625,123.046875,59.5703125,0.0
1734420631.1767616,323.2421875,37.59765625,20.99609375,83.984375,0.0
1734420631.180667,-61.5234375,31.73828125,-51.26953125,177.24609375,0.0
1734420631.1845725,-41.50390625,57.6171875,48.828125,194.82421875,0.0
1734420631.1884778,443.84765625,51.7578125,121.09375,105.46875,0.0
1734420631.1923833,465.33203125,40.0390625,-151.85546875,21.97265625,0.0
1734420631.1962886,355.95703125,70.80078125,26.3671875,3.90625,0.0
1734420631.2001941,-16.11328125,62.5,116.69921875,81.0546875,0.0
1734420631.2040994,-102.5390625,43.9453125,-16.6015625,179.19921875,0.0
1734420631.2080126,422.8515625,57.6171875,112.3046875,125.0,0.0
1734420631.211918,484.375,52.734375,136.71875,-12.20703125,0.0
1734420631.2158234,341.796875,42.96875,61.5234375,-37.59765625,0.0
1734420631.219729,21.97265625,55.17578125,-81.54296875,63.96484375,0.0
1734420631.2236342,-175.29296875,61.03515625,-98.6328125,166.9921875,0.0
1734420631.2275398,287.109375,58.59375,100.09765625,93.75,0.0
1734420631.231445,458.49609375,61.5234375,97.65625,-55.6640625,0.0
1734420631.2353506,346.19140625,66.40625,-235.3515625,-46.875,0.0
1734420631.239256,67.3828125,71.77734375,-213.8671875,80.56640625,0.0
1734420631.2431614,-202.1484375,71.2890625,113.76953125,144.53125,0.0
1734420631.2470667,227.05078125,60.05859375,133.30078125,102.05078125,0.0
1734420631.2509723,465.8203125,76.66015625,137.6953125,-5.37109375,0.0
1734420631.2548847,401.3671875,102.05078125,133.30078125,-44.43359375,0.0
1734420631.25879,127.9296875,92.7734375,136.23046875,64.94140625,0.0
1734420631.2626956,-259.27734375,70.3125,23.92578125,124.51171875,0.0
1734420631.2666008,156.73828125,76.66015625,79.58984375,82.03125,0.0
1734420631.2705064,478.515625,85.9375,191.40625,0.0,0.0
1734420631.2744117,380.37109375,100.5859375,96.6796875,-83.49609375,0.0
1734420631.2783172,151.3671875,95.703125,-13.671875,-15.625,0.0
1734420631.2822225,-254.39453125,89.35546875,-211.9140625,120.1171875,0.0
1734420631.286128,92.7734375,110.83984375,98.6328125,120.1171875,0.0
1734420631.2900333,482.421875,102.05078125,319.82421875,-18.06640625,0.0
1734420631.2939389,394.04296875,97.65625,86.9140625,-126.46484375,0.0
1734420631.2978442,216.30859375,115.72265625,76.66015625,-49.8046875,0.0
1734420631.3017564,-224.609375,105.46875,110.83984375,87.40234375,0.0
1734420631.305662,2.9296875,88.8671875,151.3671875,85.44921875,0.0
1734420631.3095672,487.3046875,104.00390625,259.765625,-10.7421875,0.0
1734420631.3134727,435.05859375,98.6328125,264.16015625,-43.9453125,0.0
1734420631.317378,223.14453125,90.8203125,249.0234375,46.38671875,0.0
1734420631.3212836,-245.1171875,95.21484375,119.140625,150.87890625,0.0
1734420631.3251889,-135.7421875,92.7734375,-200.68359375,125.0,0.0
1734420631.3290944,387.6953125,102.05078125,-67.87109375,43.9453125,0.0
1734420631.3329997,409.1796875,93.26171875,315.4296875,-8.7890625,0.0
1734420631.3369052,267.08984375,96.6796875,237.3046875,51.7578125,0.0
1734420631.3408105,-206.0546875,108.88671875,123.53515625,132.32421875,0.0
1734420631.344716,-231.4453125,106.4453125,156.73828125,125.0,0.0
1734420631.348627,354.4921875,120.60546875,303.7109375,54.19921875,0.0
1734420631.3525326,439.453125,125.0,281.25,33.203125,0.0
1734420631.356438,291.50390625,120.60546875,281.25,102.05078125,0.0
1734420631.3603435,-154.78515625,122.55859375,277.34375,182.6171875,0.0
1734420631.3642488,-296.875,127.44140625,161.62109375,140.13671875,0.0
1734420631.3681543,227.05078125,112.79296875,169.921875,36.62109375,0.0
1734420631.3720596,386.23046875,103.515625,227.05078125,10.25390625,0.0
1734420631.375965,294.921875,118.65234375,364.74609375,62.01171875,0.0
1734420631.3798704,-143.06640625,104.98046875,316.40625,134.765625,0.0
1734420631.383776,-457.03125,89.35546875,79.58984375,140.625,0.0
1734420631.3876812,64.453125,88.8671875,169.43359375,52.24609375,0.0
1734420631.3915868,322.265625,97.65625,354.4921875,-30.76171875,0.0
1734420631.3954978,223.6328125,91.796875,305.17578125,14.16015625,0.0
1734420631.399403,-165.0390625,86.9140625,173.33984375,114.74609375,0.0
1734420631.4033086,-533.203125,99.12109375,62.98828125,145.99609375,0.0
1734420631.407214,-28.3203125,99.12109375,184.08203125,47.8515625,0.0
1734420631.4111195,297.36328125,88.37890625,270.5078125,-28.80859375,0.0
1734420631.4150248,167.48046875,87.890625,236.328125,13.671875,0.0
1734420631.4189303,-180.6640625,87.40234375,139.16015625,83.49609375,0.0
1734420631.4228356,-580.56640625,87.890625,-127.44140625,111.81640625,0.0
1734420631.4267411,-163.57421875,93.75,-44.43359375,44.921875,0.0
1734420631.4306464,254.8828125,83.984375,79.1015625,-18.06640625,0.0
1734420631.434552,224.609375,75.1953125,157.2265625,0.9765625,0.0
1734420631.4384573,-95.21484375,90.33203125,240.72265625,41.50390625,0.0
1734420631.4423723,-621.09375,90.33203125,-151.85546875,58.10546875,0.0
1734420631.4462776,-252.44140625,90.8203125,-174.8046875,13.18359375,0.0
1734420631.4501832,235.3515625,99.609375,191.40625,-71.77734375,0.0
1734420631.4540884,203.125,96.6796875,242.1875,-52.24609375,0.0
1734420631.4579937,-37.109375,93.26171875,53.7109375,17.08984375,0.0
1734420631.4618993,-663.57421875,84.47265625,-396.97265625,36.1328125,0.0
1734420631.4658046,-459.47265625,66.89453125,-396.484375,-34.66796875,0.0
1734420631.46971,175.78125,75.68359375,119.62890625,-80.078125,0.0
1734420631.4736154,241.69921875,87.40234375,152.83203125,-45.8984375,0.0
1734420631.477521,2.9296875,75.68359375,-4.39453125,-16.11328125,0.0
1734420631.4814262,-659.66796875,89.84375,-190.91796875,-1.953125,0.0
1734420631.4853318,-598.6328125,93.26171875,-382.8125,-73.73046875,0.0
1734420631.4892461,0.0,78.125,-13.18359375,-118.65234375,0.0
1734420631.4931514,0.0,93.26171875,251.46484375,-79.1015625,0.0
1734420631.497057,0.0,103.515625,247.55859375,-2.44140625,0.0
1734420631.5009623,0.0,101.5625,-201.66015625,6.34765625,0.0
1734420631.5048678,0.0,114.2578125,-565.91796875,-76.171875,0.0
1734420631.508773,0.0,150.390625,-180.17578125,-133.7890625,0.0
1734420631.5126786,0.0,144.04296875,186.03515625,-107.421875,0.0
1734420631.516584,0.0,125.0,151.3671875,-24.90234375,0.0
1734420631.5204895,0.0,125.9765625,-308.10546875,9.27734375,0.0
1734420631.5243948,0.0,111.328125,-542.48046875,-68.84765625,0.0
1734420631.5283003,0.0,128.90625,-79.58984375,-147.94921875,0.0
1734420631.5322056,0.0,140.13671875,227.05078125,-116.2109375,0.0
1734420631.5361192,200.68359375,138.18359375,82.03125,-34.66796875,0.0
1734420631.5400248,-408.203125,137.6953125,-182.12890625,-41.50390625,0.0
1734420631.54393,-817.3828125,118.1640625,-475.09765625,-99.12109375,0.0
1734420631.5478356,-158.203125,125.9765625,-239.74609375,-151.3671875,0.0
1734420631.551741,270.99609375,134.765625,169.921875,-151.85546875,0.0
1734420631.5556464,206.54296875,121.09375,275.87890625,-63.96484375,0.0
1734420631.5595517,-333.0078125,108.3984375,-27.34375,6.34765625,0.0
1734420631.5634573,-829.58984375,116.69921875,-593.75,-35.64453125,0.0
1734420631.5673625,-254.8828125,125.0,-483.3984375,-104.00390625,0.0
1734420631.571268,262.6953125,112.79296875,196.77734375,-39.0625,0.0
1734420631.5751734,280.76171875,116.2109375,387.6953125,20.99609375,0.0
1734420631.579079,-211.9140625,116.2109375,35.64453125,11.71875,0.0
1734420631.5829918,-826.171875,120.1171875,-409.1796875,4.39453125,0.0
1734420631.5868971,-299.31640625,130.859375,-141.11328125,-66.40625,0.0
1734420631.5908027,304.19921875,126.46484375,307.6171875,-64.453125,0.0
1734420631.594708,360.83984375,136.23046875,415.52734375,6.8359375,0.0
1734420631.5986135,-33.203125,140.13671875,236.81640625,43.9453125,0.0
1734420631.6025188,-752.44140625,140.13671875,-337.40234375,-19.04296875,0.0
1734420631.6064243,-396.484375,124.51171875,-301.26953125,-62.5,0.0
1734420631.6103296,301.7578125,130.37109375,136.23046875,-13.671875,0.0
1734420631.6142352,410.64453125,163.57421875,364.74609375,34.1796875,0.0
1734420631.6181405,47.8515625,149.4140625,429.19921875,51.7578125,0.0
1734420631.622046,-666.015625,144.04296875,-37.59765625,32.2265625,0.0
1734420631.6259513,-412.109375,173.828125,-76.66015625,5.859375,0.0
1734420631.6298642,318.359375,202.1484375,425.78125,-10.25390625,0.0
1734420631.6337695,458.49609375,228.02734375,533.203125,-34.1796875,0.0
1734420631.637675,159.66796875,259.765625,414.0625,45.8984375,0.0
1734420631.6415803,-555.17578125,296.38671875,125.48828125,92.28515625,0.0
1734420631.6454859,-476.5625,314.453125,119.140625,6.34765625,0.0
1734420631.6493912,283.69140625,347.65625,446.77734375,-14.6484375,0.0
1734420631.6532967,509.27734375,402.34375,567.87109375,70.80078125,0.0
1734420631.657202,282.71484375,444.82421875,543.9453125,116.69921875,0.0
1734420631.6611075,-476.07421875,466.796875,336.42578125,67.3828125,0.0
1734420631.6650128,-595.21484375,500.9765625,258.7890625,-28.3203125,0.0
1734420631.6689184,140.625,563.96484375,461.42578125,-104.00390625,0.0
1734420631.6728237,389.16015625,595.703125,620.1171875,-35.64453125,0.0
1734420631.6767356,215.33203125,625.9765625,672.8515625,31.73828125,0.0
1734420631.680641,-500.48828125,643.5546875,387.20703125,-12.20703125,0.0
1734420631.6845465,-778.80859375,652.83203125,172.8515625,-94.23828125,0.0
1734420631.6884518,-79.58984375,695.80078125,440.4296875,-146.484375,0.0
1734420631.6923573,299.31640625,725.5859375,603.02734375,-138.18359375,0.0
1734420631.6962626,188.4765625,714.35546875,607.421875,-58.59375,0.0
1734420631.7001681,-513.18359375,712.40234375,166.9921875,-51.26953125,0.0
1734420631.7040734,-957.51953125,741.2109375,-259.765625,-154.296875,0.0
1734420631.707979,-291.50390625,762.20703125,263.671875,-207.51953125,0.0
1734420631.7118843,184.08203125,770.5078125,584.47265625,-163.0859375,0.0
1734420631.7157898,147.4609375,790.0390625,558.59375,-108.88671875,0.0
1734420631.719695,-459.9609375,794.43359375,378.90625,-56.640625,0.0
1734420631.7236063,-1000.0,801.7578125,-12.20703125,-137.20703125,0.0
1734420631.727512,-430.6640625,811.03515625,146.484375,-291.50390625,0.0
1734420631.7314172,151.85546875,800.29296875,493.1640625,-294.43359375,0.0
1734420631.7353227,128.41796875,778.3203125,576.171875,-206.54296875,0.0
1734420631.739228,-395.01953125,787.109375,399.90234375,-162.109375,0.0
1734420631.7431335,-1000.0,785.64453125,-205.078125,-230.46875,0.0
1734420631.7470388,-573.2421875,759.765625,-216.30859375,-244.140625,0.0
1734420631.7509444,63.4765625,768.06640625,426.26953125,-264.16015625,0.0
1734420631.7548497,107.91015625,734.86328125,544.921875,-196.2890625,0.0
1734420631.7587552,-375.9765625,735.83984375,270.99609375,-118.65234375,0.0
1734420631.7626605,-1000.0,765.625,-165.52734375,-215.33203125,0.0
1734420631.766566,-683.59375,747.0703125,-40.52734375,-341.30859375,0.0
1734420631.7704816,-3.90625,734.86328125,441.40625,-328.125,0.0
1734420631.774387,163.0859375,738.28125,502.9296875,-219.7265625,0.0
1734420631.7782924,-256.34765625,735.3515625,390.625,-160.15625,0.0
1734420631.7821977,-971.19140625,718.26171875,-57.12890625,-273.92578125,0.0
1734420631.7861032,-730.95703125,719.23828125,-151.3671875,-326.171875,0.0
1734420631.7900085,-21.484375,713.8671875,303.22265625,-293.45703125,0.0
1734420631.793914,167.48046875,707.51953125,428.7109375,-261.23046875,0.0
1734420631.7978194,-127.9296875,703.125,375.48828125,-206.0546875,0.0
1734420631.801725,-859.375,685.546875,-71.2890625,-261.23046875,0.0
1734420631.8056302,-794.43359375,721.19140625,-375.9765625,-312.5,0.0
1734420631.8095357,-35.64453125,750.0,239.2578125,-318.359375,0.0
1734420631.813441,222.65625,749.51171875,564.94140625,-266.6015625,0.0
1734420631.8173559,-22.4609375,771.97265625,455.56640625,-185.546875,0.0
1734420631.8212614,-764.6484375,822.265625,179.6875,-256.8359375,0.0
1734420631.8251667,-855.95703125,861.328125,113.76953125,-321.77734375,0.0
1734420631.8290722,-84.9609375,872.0703125,460.9375,-307.6171875,0.0
1734420631.8329775,231.93359375,882.32421875,628.41796875,-285.64453125,0.0
1734420631.836883,-0.9765625,909.1796875,582.03125,-241.2109375,0.0
1734420631.8407884,-704.1015625,915.0390625,306.15234375,-266.11328125,0.0
1734420631.844694,-950.1953125,914.55078125,189.453125,-405.76171875,0.0
1734420631.8485992,-296.875,934.08203125,359.375,-506.34765625,0.0
1734420631.8525047,126.46484375,958.984375,510.7421875,-445.80078125,0.0
1734420631.85641,-42.48046875,970.21484375,627.44140625,-398.92578125,0.0
1734420631.8603156,-696.2890625,969.23828125,378.90625,-438.96484375,0.0
1734420631.8642297,-1000.0,969.7265625,-38.57421875,-526.3671875,0.0
1734420631.868135,-497.0703125,969.7265625,175.29296875,-602.5390625,0.0
1734420631.8720405,-60.05859375,969.7265625,499.0234375,-600.09765625,0.0
1734420631.8759458,-117.1875,969.7265625,521.484375,-493.65234375,0.0
1734420631.8798513,-656.73828125,969.7265625,227.5390625,-527.83203125,0.0
1734420631.8837566,-1000.0,969.7265625,-346.19140625,-633.30078125,0.0
1734420631.8876622,-618.1640625,969.7265625,-177.24609375,-632.32421875,0.0
1734420631.8915675,-90.33203125,969.7265625,322.75390625,-645.99609375,0.0
1734420631.895473,-77.63671875,969.7265625,270.99609375,-580.56640625,0.0
1734420631.8993783,-605.46875,969.7265625,-14.16015625,-520.01953125,0.0
1734420631.9032838,-1000.0,970.21484375,-346.6796875,-642.08984375,0.0
1734420631.9071891,-702.63671875,970.21484375,-432.6171875,-711.9140625,0.0
1734420631.911103,-159.66796875,969.7265625,-18.06640625,-645.01953125,0.0
1734420631.9150085,-84.9609375,969.7265625,309.5703125,-565.91796875,0.0
1734420631.9189138,-546.875,969.7265625,-5.37109375,-535.64453125,0.0
1734420631.9228194,-1000.0,969.7265625,-656.73828125,-623.53515625,0.0
1734420631.9267247,-759.27734375,970.21484375,-708.0078125,-678.7109375,0.0
1734420631.9306302,-152.34375,968.26171875,-298.828125,-596.6796875,0.0
1734420631.9345355,20.01953125,972.65625,80.56640625,-484.86328125,0.0
1734420631.938441,-418.45703125,953.61328125,-193.84765625,-479.98046875,0.0
1734420631.9423463,-1000.0,917.96875,-798.828125,-555.17578125,0.0
1734420631.9462519,-791.9921875,906.73828125,-645.01953125,-557.6171875,0.0
1734420631.9501572,-115.72265625,892.578125,-121.58203125,-520.5078125,0.0
1734420631.9540627,129.39453125,890.625,145.99609375,-427.24609375,0.0
1734420631.9579759,-239.74609375,894.53125,77.1484375,-337.40234375,0.0
1734420631.9618814,-941.89453125,892.578125,-304.6875,-364.2578125,0.0
1734420631.9657867,-825.68359375,904.78515625,-571.2890625,-458.984375,0.0
1734420631.9696922,-99.609375,920.8984375,-208.984375,-475.09765625,0.0
1734420631.9735975,177.24609375,947.75390625,198.2421875,-375.0,0.0
1734420631.977503,-86.42578125,970.21484375,166.50390625,-313.96484375,0.0
1734420631.9814084,-803.22265625,969.23828125,-272.94921875,-343.26171875,0.0
1734420631.985314,-868.65234375,969.23828125,-725.09765625,-412.109375,0.0
1734420631.9892192,-129.8828125,970.21484375,-322.75390625,-402.34375,0.0
1734420631.9931247,211.42578125,969.7265625,298.33984375,-379.8828125,0.0
1734420631.99703,10.25390625,969.7265625,251.953125,-354.4921875,0.0
1734420632.0009356,-713.37890625,969.7265625,-185.05859375,-348.6328125,0.0
1734420632.0048482,-929.19921875,969.7265625,-529.296875,-429.6875,0.0
1734420632.0087535,-208.0078125,969.7265625,-261.23046875,-458.49609375,0.0
1734420632.0126588,215.8203125,969.7265625,119.140625,-380.37109375,0.0
1734420632.0165644,96.19140625,969.7265625,233.3984375,-319.82421875,0.0
1734420632.0204697,-601.5625,970.21484375,-115.234375,-344.23828125,0.0
1734420632.0243752,-989.74609375,970.21484375,-620.60546875,-409.66796875,0.0
1734420632.0282805,-317.3828125,969.7265625,-559.5703125,-452.63671875,0.0
1734420632.032186,219.7265625,969.7265625,-244.62890625,-436.03515625,0.0
1734420632.0360913,169.43359375,970.21484375,160.64453125,-359.86328125,0.0
1734420632.0399969,-510.25390625,970.21484375,20.01953125,-300.78125,0.0
1734420632.0439022,-1000.0,969.7265625,-520.5078125,-376.46484375,0.0
1734420632.0478077,-353.515625,969.7265625,-455.56640625,-418.9453125,0.0
1734420632.0517197,247.55859375,969.7265625,22.4609375,-395.99609375,0.0
1734420632.055625,229.4921875,970.21484375,293.9453125,-351.07421875,0.0
1734420632.0595305,-358.3984375,969.7265625,35.64453125,-319.3359375,0.0
1734420632.0634358,-1000.0,970.21484375,-400.87890625,-395.99609375,0.0
1734420632.0673413,-518.5546875,969.7265625,-404.296875,-458.984375,0.0
1734420632.0712466,184.08203125,969.23828125,-20.01953125,-402.34375,0.0
1734420632.0751522,250.48828125,969.7265625,260.7421875,-353.515625,0.0
1734420632.0790575,-270.99609375,970.21484375,183.10546875,-310.546875,0.0
1734420632.082963,-1000.0,969.7265625,-169.43359375,-342.28515625,0.0
1734420632.0868683,-621.09375,969.7265625,-367.67578125,-428.22265625,0.0
1734420632.0907738,110.83984375,970.21484375,-109.375,-392.578125,0.0
1734420632.094679,256.34765625,970.21484375,251.46484375,-306.15234375,0.0
1734420632.0985909,-196.2890625,969.7265625,344.7265625,-226.07421875,0.0
1734420632.1024961,-969.23828125,969.7265625,-145.99609375,-314.453125,0.0
1734420632.1064017,-751.953125,969.7265625,-458.0078125,-427.24609375,0.0
1734420632.110307,-15.13671875,969.7265625,-20.01953125,-395.99609375,0.0
1734420632.1142125,169.921875,969.7265625,333.49609375,-357.421875,0.0
1734420632.1181178,-209.9609375,969.7265625,184.5703125,-272.94921875,0.0
1734420632.1220233,-919.921875,969.7265625,-315.4296875,-273.4375,0.0
1734420632.1259286,-808.10546875,969.7265625,-465.8203125,-358.88671875,0.0
1734420632.1298342,-103.02734375,969.7265625,-64.94140625,-343.26171875,0.0
1734420632.1337395,208.49609375,970.21484375,217.7734375,-284.66796875,0.0
1734420632.137645,-47.36328125,970.21484375,238.28125,-241.69921875,0.0
1734420632.1415503,-820.3125,969.7265625,-34.66796875,-269.53125,0.0
1734420632.1454709,-875.48828125,969.7265625,-499.51171875,-359.375,0.0
1734420632.1493762,-156.25,969.7265625,-309.08203125,-356.4453125,0.0
1734420632.1532817,173.828125,969.7265625,160.64453125,-329.58984375,0.0
1734420632.157187,-64.453125,969.7265625,336.9140625,-264.6484375,0.0
1734420632.1610925,-748.53515625,969.7265625,-61.03515625,-271.484375,0.0
1734420632.1649978,-959.9609375,969.7265625,-604.00390625,-394.53125,0.0
1734420632.1689034,-340.33203125,969.7265625,-361.328125,-431.640625,0.0
1734420632.1728086,101.5625,969.7265625,101.07421875,-360.3515625,0.0
1734420632.1767142,-4.8828125,969.23828125,256.8359375,-278.3203125,0.0
1734420632.1806195,-670.8984375,969.7265625,-68.84765625,-312.98828125,0.0
1734420632.184525,-1000.0,969.7265625,-467.28515625,-368.1640625,0.0
1734420632.1884303,-412.109375,969.7265625,-253.90625,-432.6171875,0.0
1734420632.1923451,106.4453125,970.21484375,178.22265625,-413.0859375,0.0
1734420632.1962504,85.9375,969.7265625,325.68359375,-275.390625,0.0
1734420632.200156,-541.9921875,969.7265625,165.0390625,-255.859375,0.0
1734420632.2040613,-1000.0,970.21484375,-285.64453125,-316.89453125,0.0
1734420632.2079668,-456.54296875,969.7265625,-357.91015625,-367.67578125,0.0
1734420632.211872,155.2734375,969.7265625,20.01953125,-307.6171875,0.0
1734420632.2157776,166.015625,969.7265625,327.1484375,-217.7734375,0.0
1734420632.219683,-443.84765625,969.7265625,242.1875,-200.1953125,0.0
1734420632.2235885,-990.234375,969.7265625,-330.56640625,-268.06640625,0.0
1734420632.2274938,-430.6640625,969.7265625,-513.671875,-330.56640625,0.0
1734420632.2313993,129.39453125,969.7265625,40.0390625,-246.58203125,0.0
1734420632.2353046,220.703125,969.7265625,436.5234375,-144.04296875,0.0
1734420632.2392194,-250.0,969.7265625,30.76171875,-73.2421875,0.0
1734420632.2431247,-984.86328125,969.7265625,-564.453125,-158.203125,0.0
1734420632.2470303,-611.328125,969.7265625,-414.0625,-263.18359375,0.0
1734420632.2509356,97.65625,969.7265625,34.1796875,-189.453125,0.0
1734420632.254841,229.98046875,969.7265625,291.015625,-110.3515625,0.0
1734420632.2587464,-177.734375,969.7265625,127.9296875,0.0,0.0
1734420632.262652,-927.24609375,969.7265625,-363.28125,-51.7578125,0.0
1734420632.2665572,-648.92578125,969.7265625,-537.109375,-104.00390625,0.0
1734420632.2704628,4.8828125,969.7265625,-360.3515625,-109.375,0.0
1734420632.274368,157.71484375,970.21484375,32.71484375,-108.88671875,0.0
1734420632.2782736,-83.984375,967.7734375,287.59765625,20.99609375,0.0
1734420632.2821789,-823.2421875,973.6328125,-225.09765625,18.5546875,0.0
1734420632.2860928,-765.13671875,944.82421875,-575.1953125,-89.35546875,0.0
1734420632.2899983,-28.3203125,883.30078125,-111.328125,-126.46484375,0.0
1734420632.2939036,162.59765625,834.47265625,328.125,-75.68359375,0.0
1734420632.2978091,-56.640625,803.7109375,288.0859375,54.6875,0.0
1734420632.3017144,-745.60546875,794.921875,-60.05859375,22.4609375,0.0
1734420632.30562,-801.7578125,774.4140625,-408.203125,-61.03515625,0.0
1734420632.3095253,-86.9140625,753.90625,-40.0390625,-43.9453125,0.0
1734420632.3134308,161.1328125,750.48828125,317.87109375,-54.6875,0.0
1734420632.317336,22.94921875,748.046875,303.7109375,55.6640625,0.0
1734420632.3212416,-664.0625,725.5859375,145.99609375,80.56640625,0.0
1734420632.325147,-853.02734375,704.1015625,-196.2890625,-96.6796875,0.0
1734420632.3290524,-128.41796875,709.9609375,-14.16015625,-117.1875,0.0
1734420632.3329656,213.8671875,707.51953125,369.62890625,53.22265625,0.0
1734420632.336871,90.33203125,678.22265625,476.5625,73.73046875,0.0
1734420632.3407764,-600.09765625,674.31640625,211.9140625,-12.6953125,0.0
1734420632.3446817,-918.45703125,674.8046875,-246.09375,-43.45703125,0.0
1734420632.3485873,-279.296875,669.43359375,-71.2890625,-87.890625,0.0
1734420632.3524926,87.40234375,673.33984375,297.36328125,-63.96484375,0.0
1734420632.356398,56.640625,658.69140625,425.78125,18.5546875,0.0
1734420632.3603034,-481.4453125,647.4609375,-7.32421875,37.109375,0.0
1734420632.364209,-870.1171875,651.85546875,-503.90625,-63.96484375,0.0
1734420632.3681142,-346.19140625,652.34375,-46.38671875,-141.11328125,0.0
1734420632.3720198,86.9140625,649.90234375,339.35546875,-81.0546875,0.0
1734420632.375925,145.99609375,651.3671875,385.7421875,3.90625,0.0
1734420632.3798378,0.0,652.34375,315.4296875,74.70703125,0.0
1734420632.3837433,0.0,654.78515625,-104.98046875,8.30078125,0.0
1734420632.3876486,0.0,652.34375,-145.5078125,-199.70703125,0.0
1734420632.391554,0.0,666.015625,306.15234375,-211.9140625,0.0
1734420632.3954594,0.0,689.453125,484.375,-95.21484375,0.0
1734420632.399365,0.0,677.24609375,359.86328125,-72.265625,0.0
1734420632.4032702,0.0,668.9453125,-161.1328125,-94.23828125,0.0
1734420632.4071758,0.0,683.10546875,-376.953125,-165.52734375,0.0
1734420632.411081,0.0,707.03125,257.32421875,-200.1953125,0.0
1734420632.4149866,0.0,720.703125,567.3828125,-122.55859375,0.0
1734420632.418892,0.0,714.84375,356.4453125,-83.984375,0.0
1734420632.4227974,0.0,717.28515625,76.66015625,-141.11328125,0.0
1734420632.4267094,-770.01953125,719.7265625,111.81640625,-260.7421875,0.0
1734420632.430615,-262.20703125,738.28125,392.578125,-270.5078125,0.0
1734420632.4345202,-159.1796875,767.578125,520.01953125,-193.84765625,0.0
1734420632.4384258,-404.78515625,791.015625,520.01953125,-105.46875,0.0
1734420632.442331,-903.80859375,792.48046875,256.8359375,-145.99609375,0.0
1734420632.4462366,-813.4765625,774.90234375,117.67578125,-276.85546875,0.0
1734420632.450142,-360.3515625,796.875,237.79296875,-273.92578125,0.0
1734420632.4540474,-192.87109375,836.42578125,439.453125,-287.59765625,0.0
1734420632.4579527,-392.08984375,840.8203125,610.83984375,-291.015625,0.0
1734420632.4618583,-904.296875,856.93359375,353.515625,-273.4375,0.0
1734420632.4657636,-885.25390625,886.71875,156.73828125,-354.98046875,0.0
1734420632.469669,-386.71875,900.87890625,373.53515625,-418.9453125,0.0
1734420632.4735808,-264.6484375,889.6484375,563.4765625,-432.12890625,0.0
1734420632.4774861,-435.546875,880.859375,529.78515625,-430.17578125,0.0
1734420632.4813917,-862.79296875,875.9765625,345.703125,-455.56640625,0.0
1734420632.485297,-923.33984375,868.1640625,256.34765625,-500.0,0.0
1734420632.4892025,-471.6796875,869.140625,402.34375,-582.51953125,0.0
1734420632.4931078,-311.03515625,841.796875,460.44921875,-569.3359375,0.0
1734420632.4970133,-414.0625,811.03515625,452.1484375,-516.6015625,0.0
1734420632.5009186,-802.24609375,787.109375,366.2109375,-527.34375,0.0
1734420632.5048242,-982.91015625,770.5078125,199.21875,-576.66015625,0.0
1734420632.5087295,-580.56640625,734.86328125,204.58984375,-658.203125,0.0
1734420632.512635,-358.3984375,698.73046875,364.2578125,-689.453125,0.0
1734420632.5165403,-441.89453125,684.08203125,484.86328125,-579.58984375,0.0
1734420632.520456,-784.1796875,635.7421875,323.73046875,-518.5546875,0.0
1734420632.5243616,-1000.0,583.0078125,-62.98828125,-614.74609375,0.0
1734420632.528267,-652.34375,554.6875,-6.8359375,-665.52734375,0.0
1734420632.5321724,-328.125,528.80859375,319.82421875,-631.8359375,0.0
1734420632.5360777,-306.15234375,496.09375,363.28125,-551.7578125,0.0
1734420632.5399833,-654.78515625,464.35546875,54.6875,-492.1875,0.0
1734420632.5438886,-1000.0,431.640625,-354.00390625,-530.2734375,0.0
1734420632.547794,-583.0078125,407.71484375,-266.6015625,-588.8671875,0.0
1734420632.5516994,-229.98046875,403.3203125,71.77734375,-604.98046875,0.0
1734420632.555605,-198.73046875,386.71875,198.2421875,-548.33984375,0.0
1734420632.5595102,-471.6796875,355.46875,81.0546875,-497.55859375,0.0
1734420632.5634158,-873.046875,328.125,-259.27734375,-481.93359375,0.0
1734420632.5673306,-529.296875,298.828125,-407.71484375,-531.73828125,0.0
1734420632.5712361,-124.51171875,270.99609375,-108.3984375,-619.62890625,0.0
1734420632.5751414,-56.15234375,269.04296875,203.61328125,-584.47265625,0.0
1734420632.579047,-258.7890625,282.71484375,142.08984375,-442.3828125,0.0
1734420632.5829523,-752.44140625,289.0625,-340.8203125,-411.1328125,0.0
1734420632.5868578,-511.23046875,272.4609375,-549.31640625,-495.1171875,0.0
1734420632.590763,-38.0859375,250.0,-299.31640625,-542.96875,0.0
1734420632.5946686,0.0,252.9296875,70.80078125,-483.3984375,0.0
1734420632.598574,-195.3125,257.32421875,24.4140625,-386.23046875,0.0
1734420632.6024795,-679.6875,240.234375,-510.25390625,-370.1171875,0.0
1734420632.6063848,-526.3671875,238.76953125,-451.171875,-441.89453125,0.0
1734420632.6102903,-33.203125,235.3515625,-60.05859375,-504.8828125,0.0
1734420632.6142046,65.91796875,222.65625,96.6796875,-488.28125,0.0
1734420632.61811,-96.19140625,205.078125,137.6953125,-359.375,0.0
1734420632.6220155,-620.1171875,193.359375,-127.44140625,-333.984375,0.0
1734420632.6259208,-541.9921875,189.453125,-437.98828125,-414.55078125,0.0
1734420632.6298263,-13.671875,186.03515625,-255.37109375,-435.05859375,0.0
1734420632.6337316,110.3515625,166.015625,45.41015625,-417.48046875,0.0
1734420632.6376371,23.92578125,164.0625,187.01171875,-323.73046875,0.0
1734420632.6415424,-469.7265625,174.31640625,-133.30078125,-294.921875,0.0
1734420632.645448,-546.875,149.4140625,-623.53515625,-378.41796875,0.0
1734420632.6493533,-32.2265625,151.3671875,-297.36328125,-438.96484375,0.0
1734420632.6532588,157.2265625,164.0625,251.46484375,-447.265625,0.0
1734420632.657164,87.40234375,146.484375,263.18359375,-329.58984375,0.0
1734420632.661078,-399.90234375,144.04296875,-80.56640625,-274.4140625,0.0
1734420632.6649835,-605.95703125,154.78515625,-420.8984375,-422.36328125,0.0
1734420632.6688888,-124.51171875,149.4140625,-157.71484375,-505.859375,0.0
1734420632.6727943,129.39453125,161.62109375,126.953125,-433.59375,0.0
1734420632.6766996,94.23828125,161.62109375,232.91015625,-343.26171875,0.0
1734420632.6806052,-359.86328125,157.2265625,-77.63671875,-302.24609375,0.0
1734420632.6845105,-620.60546875,157.2265625,-469.7265625,-359.86328125,0.0
1734420632.688416,-122.0703125,152.34375,-411.62109375,-455.56640625,0.0
1734420632.6923213,152.34375,157.2265625,-229.00390625,-457.03125,0.0
1734420632.6962268,174.31640625,142.578125,234.86328125,-360.83984375,0.0
1734420632.7001321,-175.29296875,133.30078125,175.78125,-288.0859375,0.0
1734420632.7040377,-546.38671875,155.76171875,-363.28125,-310.05859375,0.0
1734420632.7079513,-108.88671875,165.52734375,-356.93359375,-385.7421875,0.0
1734420632.7118566,235.83984375,159.66796875,86.9140625,-414.55078125,0.0
1734420632.715762,235.83984375,150.390625,280.2734375,-358.88671875,0.0
1734420632.7196674,-81.54296875,141.6015625,41.015625,-261.71875,0.0
1734420632.7235727,-502.9296875,140.13671875,-387.20703125,-290.52734375,0.0
1734420632.7274783,-116.2109375,125.48828125,-475.09765625,-442.87109375,0.0
1734420632.7313836,308.10546875,133.30078125,-133.30078125,-456.54296875,0.0
1734420632.735289,301.26953125,138.671875,-99.609375,-327.1484375,0.0
1734420632.7391944,-12.6953125,131.8359375,-181.15234375,-299.31640625,0.0
1734420632.7431,-495.1171875,134.27734375,-214.35546875,-369.140625,0.0
1734420632.7470052,-208.984375,125.48828125,-441.40625,-385.25390625,0.0
1734420632.7509108,274.90234375,138.18359375,-156.73828125,-371.58203125,0.0
1734420632.7548237,296.875,151.3671875,187.5,-369.62890625,0.0
1734420632.7587292,62.98828125,136.71875,187.01171875,-305.6640625,0.0
1734420632.7626345,-396.484375,120.1171875,-243.65234375,-259.27734375,0.0
1734420632.76654,-225.5859375,104.00390625,-509.765625,-328.61328125,0.0
1734420632.7704453,205.078125,95.703125,-149.4140625,-385.7421875,0.0
1734420632.774351,251.953125,97.65625,142.578125,-347.65625,0.0
1734420632.7782562,99.609375,89.35546875,39.55078125,-221.6796875,0.0
1734420632.7821617,-388.18359375,73.73046875,-385.7421875,-219.23828125,0.0
1734420632.786067,-316.40625,86.9140625,-454.1015625,-324.70703125,0.0
1734420632.7899725,164.0625,94.7265625,-160.15625,-387.6953125,0.0
1734420632.7938778,248.53515625,70.3125,31.25,-375.0,0.0
1734420632.7977834,80.56640625,50.29296875,146.484375,-266.6015625,0.0
1734420632.8016958,-377.44140625,48.828125,-43.45703125,-236.328125,0.0
1734420632.8056011,-398.92578125,47.8515625,-372.55859375,-280.76171875,0.0
1734420632.8095067,31.73828125,61.5234375,-258.7890625,-361.328125,0.0
1734420632.813412,166.50390625,81.0546875,53.7109375,-357.91015625,0.0
1734420632.8173175,103.515625,65.4296875,194.3359375,-268.06640625,0.0
1734420632.8212228,-314.94140625,55.17578125,-21.484375,-240.72265625,0.0
1734420632.8251283,-480.95703125,51.7578125,-424.31640625,-275.390625,0.0
1734420632.8290336,-17.08984375,43.9453125,-358.88671875,-312.98828125,0.0
1734420632.8329391,170.41015625,50.29296875,138.671875,-323.73046875,0.0
1734420632.8368444,84.9609375,44.43359375,269.04296875,-278.3203125,0.0
1734420632.84075,-297.8515625,52.24609375,118.1640625,-201.66015625,0.0
1734420632.8446553,-522.4609375,62.01171875,18.06640625,-221.6796875,0.0
1734420632.848567,-101.07421875,53.22265625,116.69921875,-332.03125,0.0
1734420632.8524725,102.05078125,40.0390625,182.6171875,-361.81640625,0.0
1734420632.8563778,52.734375,81.54296875,216.30859375,-294.43359375,0.0
1734420632.8602834,-273.4375,89.84375,201.171875,-235.83984375,0.0
1734420632.8641887,-565.4296875,64.94140625,34.66796875,-204.1015625,0.0
1734420632.8680942,-176.7578125,65.4296875,-53.22265625,-257.8125,0.0
1734420632.8719995,58.10546875,70.80078125,-123.53515625,-306.640625,0.0
1734420632.875905,0.0,80.56640625,125.9765625,-299.8046875,0.0
1734420632.8798103,-276.85546875,83.984375,228.02734375,-230.46875,0.0
1734420632.8837159,-605.95703125,96.19140625,-189.94140625,-217.7734375,0.0
1734420632.8876212,-276.85546875,95.703125,-307.12890625,-294.43359375,0.0
1734420632.8915267,25.390625,116.2109375,42.96875,-338.37890625,0.0
1734420632.8954425,20.99609375,138.18359375,177.734375,-318.359375,0.0
1734420632.899348,-187.5,134.765625,4.39453125,-245.1171875,0.0
1734420632.9032533,-588.37890625,118.65234375,-300.78125,-237.79296875,0.0
1734420632.9071589,-366.69921875,119.140625,-326.66015625,-277.34375,0.0
1734420632.9110641,17.08984375,134.765625,-205.56640625,-339.35546875,0.0
1734420632.9149697,62.98828125,134.765625,-219.7265625,-328.125,0.0
1734420632.918875,-139.16015625,111.328125,-259.765625,-197.265625,0.0
1734420632.9227805,-540.0390625,99.609375,-363.76953125,-225.09765625,0.0
1734420632.9266858,-389.6484375,92.28515625,-421.875,-296.875,0.0
1734420632.9305913,-39.55078125,72.75390625,-392.578125,-342.28515625,0.0
1734420632.9344966,-24.4140625,63.96484375,-129.39453125,-358.88671875,0.0
1734420632.9384022,-158.203125,69.3359375,36.1328125,-250.48828125,0.0
1734420632.9423172,-543.45703125,58.10546875,-294.43359375,-240.234375,0.0
1734420632.9462228,-470.21484375,55.6640625,-460.9375,-265.625,0.0
1734420632.950128,-93.26171875,40.0390625,-265.13671875,-348.14453125,0.0
1734420632.9540336,-11.23046875,19.04296875,7.32421875,-349.12109375,0.0
1734420632.957939,-146.97265625,33.203125,-5.859375,-211.9140625,0.0
1734420632.9618444,-546.38671875,21.97265625,-380.859375,-161.62109375,0.0
1734420632.9657497,-526.85546875,-6.34765625,-451.66015625,-221.19140625,0.0
1734420632.9696553,-120.1171875,22.4609375,-125.0,-306.15234375,0.0
1734420632.9735606,-2.44140625,43.9453125,-38.0859375,-312.98828125,0.0
1734420632.977466,-78.61328125,32.71484375,-187.5,-212.890625,0.0
1734420632.9813714,-451.66015625,50.29296875,-48.828125,-153.3203125,0.0
1734420632.985277,-591.796875,21.97265625,-188.4765625,-232.91015625,0.0
1734420632.9891915,-178.7109375,-1.953125,-244.62890625,-268.5546875,0.0
1734420632.9930968,-6.8359375,9.27734375,25.390625,-252.9296875,0.0
1734420632.9970024,-87.40234375,-1.46484375,218.75,-243.65234375,0.0
1734420633.0009077,-419.921875,4.39453125,86.9140625,-157.2265625,0.0
1734420633.0048132,-599.12109375,2.44140625,-285.15625,-153.3203125,0.0
1734420633.0087185,-162.109375,2.9296875,-300.29296875,-258.30078125,0.0
1734420633.012624,5.37109375,1.953125,-2.44140625,-275.390625,0.0
1734420633.0165293,-67.3828125,-8.30078125,160.15625,-194.82421875,0.0
1734420633.0204349,-357.91015625,-5.859375,-0.9765625,-150.87890625,0.0
1734420633.0243402,-605.95703125,-1.46484375,-131.34765625,-150.87890625,0.0
1734420633.0282457,-225.5859375,-16.6015625,21.97265625,-215.33203125,0.0
1734420633.032151,-32.71484375,-28.3203125,120.60546875,-282.71484375,0.0
1734420633.0360649,-56.15234375,-33.69140625,18.06640625,-256.8359375,0.0
1734420633.0399702,-313.4765625,-40.0390625,78.61328125,-205.078125,0.0
1734420633.0438757,-655.76171875,-26.85546875,41.015625,-189.453125,0.0
1734420633.047781,-324.21875,-17.08984375,-62.98828125,-209.47265625,0.0
1734420633.0516865,-28.80859375,-30.2734375,97.16796875,-272.94921875,0.0
1734420633.0555918,-32.71484375,-31.73828125,167.48046875,-250.0,0.0
1734420633.0594974,-247.55859375,-24.90234375,188.4765625,-149.4140625,0.0
1734420633.0634027,-658.203125,-62.98828125,-151.3671875,-191.40625,0.0
1734420633.0673082,-431.15234375,-79.1015625,-427.734375,-244.62890625,0.0
1734420633.0712135,-93.75,-54.6875,41.015625,-262.20703125,0.0
1734420633.075119,-82.51953125,-76.171875,278.3203125,-268.5546875,0.0
1734420633.0790243,-257.8125,-93.75,107.421875,-198.73046875,0.0
1734420633.0829375,-648.92578125,-81.0546875,-57.12890625,-175.29296875,0.0
1734420633.086843,-462.890625,-73.73046875,-22.94921875,-229.00390625,0.0
1734420633.0907483,-97.16796875,-77.63671875,121.58203125,-276.85546875,0.0
1734420633.0946538,-88.37890625,-91.30859375,194.82421875,-295.8984375,0.0
1734420633.0985591,-242.1875,-94.23828125,177.734375,-210.9375,0.0
1734420633.1024647,-639.6484375,-82.03125,-29.296875,-179.6875,0.0
1734420633.10637,-509.27734375,-72.265625,-234.86328125,-220.703125,0.0
1734420633.1102755,-102.05078125,-81.0546875,-323.2421875,-264.6484375,0.0
1734420633.1141808,-86.42578125,-81.0546875,-95.703125,-315.91796875,0.0
1734420633.1180863,-192.3828125,-62.5,267.08984375,-255.37109375,0.0
1734420633.1219916,-586.42578125,-61.03515625,0.0,-161.62109375,0.0
1734420633.1258972,-609.375,-78.125,-271.484375,-230.95703125,0.0
1734420633.1298096,-174.31640625,-81.0546875,-16.11328125,-301.26953125,0.0
1734420633.1337152,-63.4765625,-67.87109375,213.8671875,-277.34375,0.0
1734420633.1376204,-182.12890625,-57.12890625,145.5078125,-229.00390625,0.0
1734420633.141526,-620.60546875,-69.82421875,12.20703125,-178.22265625,0.0
1734420633.1454313,-712.890625,-77.1484375,-217.7734375,-184.5703125,0.0
1734420633.1493368,-278.3203125,-76.171875,-270.5078125,-263.671875,0.0
1734420633.153242,-174.8046875,-77.63671875,-85.44921875,-290.52734375,0.0
1734420633.1571476,-256.8359375,-76.171875,-102.5390625,-204.58984375,0.0
1734420633.161053,-587.890625,-67.87109375,-46.38671875,-170.41015625,0.0
1734420633.1649585,-765.625,-67.87109375,-186.03515625,-199.70703125,0.0
1734420633.1688638,-344.23828125,-69.82421875,-323.73046875,-258.7890625,0.0
1734420633.1727693,-142.578125,-72.75390625,-54.6875,-275.87890625,0.0
1734420633.1766813,-217.28515625,-69.3359375,207.51953125,-230.95703125,0.0
1734420633.1805866,-560.546875,-60.546875,2.44140625,-174.8046875,0.0
1734420633.184492,-838.37890625,-68.84765625,-387.6953125,-176.7578125,0.0
1734420633.1883974,-445.3125,-67.3828125,-320.80078125,-272.94921875,0.0
1734420633.192303,-163.0859375,-63.4765625,-47.36328125,-303.22265625,0.0
1734420633.1962082,-209.47265625,-76.171875,83.0078125,-224.12109375,0.0
1734420633.2001138,-506.34765625,-82.03125,-226.5625,-148.92578125,0.0
1734420633.204019,-817.87109375,-93.75,-587.890625,-179.19921875,0.0
1734420633.2079246,-450.68359375,-96.19140625,-335.44921875,-252.44140625,0.0
1734420633.21183,-67.87109375,-87.890625,-9.765625,-296.38671875,0.0
1734420633.2157354,-37.109375,-96.19140625,122.55859375,-255.859375,0.0
1734420633.2196407,-328.61328125,-96.6796875,89.84375,-150.87890625,0.0
1734420633.2235525,-755.37109375,-93.75,-244.62890625,-162.59765625,0.0
1734420633.227458,-471.6796875,-100.09765625,-475.5859375,-267.578125,0.0
1734420633.2313633,-31.73828125,-105.95703125,-137.20703125,-296.38671875,0.0
1734420633.2352688,41.9921875,-101.5625,215.8203125,-239.74609375,0.0
1734420633.2391741,-261.71875,-103.515625,-2.44140625,-208.0078125,0.0
1734420633.2430797,-815.4296875,-99.12109375,-595.21484375,-222.65625,0.0
1734420633.246985,-621.58203125,-101.07421875,-744.140625,-256.8359375,0.0
1734420633.2508905,-47.8515625,-97.65625,-192.3828125,-295.8984375,0.0
1734420633.2547958,129.8828125,-85.44921875,258.7890625,-243.1640625,0.0
1734420633.2587013,-90.8203125,-84.9609375,-41.015625,-162.59765625,0.0
1734420633.2626066,-712.40234375,-91.30859375,-668.45703125,-195.80078125,0.0
1734420633.2665122,-637.20703125,-94.7265625,-641.6015625,-270.01953125,0.0
1734420633.2704277,29.296875,-83.0078125,-141.11328125,-285.15625,0.0
1734420633.274333,250.0,-68.359375,153.3203125,-195.3125,0.0
1734420633.2782385,33.203125,-71.77734375,84.47265625,-133.7890625,0.0
1734420633.2821438,-560.546875,-83.0078125,-323.73046875,-176.7578125,0.0
1734420633.2860494,-606.4453125,-74.70703125,-636.71875,-233.3984375,0.0
1734420633.2899547,12.20703125,-76.171875,-364.74609375,-286.62109375,0.0
1734420633.2938602,250.0,-81.54296875,36.1328125,-236.81640625,0.0
1734420633.2977655,111.328125,-76.66015625,129.8828125,-151.3671875,0.0
1734420633.301671,-413.57421875,-66.89453125,-307.6171875,-164.55078125,0.0
1734420633.3055763,-552.734375,-64.94140625,-665.0390625,-204.1015625,0.0
1734420633.3094819,60.546875,-58.59375,-195.3125,-237.79296875,0.0
1734420633.3133872,326.66015625,-48.33984375,259.765625,-256.8359375,0.0
1734420633.3173022,252.44140625,-53.7109375,229.98046875,-157.2265625,0.0
1734420633.3212075,-246.58203125,-42.48046875,-141.11328125,-129.8828125,0.0
1734420633.325113,-547.36328125,-51.26953125,-499.0234375,-209.47265625,0.0
1734420633.3290184,-37.59765625,-61.03515625,-313.96484375,-250.0,0.0
1734420633.332924,295.8984375,-46.875,35.64453125,-219.7265625,0.0
1734420633.3368292,277.83203125,-55.6640625,128.41796875,-130.859375,0.0
1734420633.3407347,-172.36328125,-64.94140625,-148.4375,-99.12109375,0.0
1734420633.34464,-557.12890625,-70.3125,-434.5703125,-170.41015625,0.0
1734420633.3485456,-100.5859375,-79.1015625,-475.09765625,-231.93359375,0.0
1734420633.3524508,253.90625,-92.28515625,-375.9765625,-232.91015625,0.0
1734420633.3563564,215.8203125,-82.51953125,68.359375,-188.4765625,0.0
1734420633.3602617,-161.62109375,-65.91796875,-85.9375,-139.16015625,0.0
1734420633.3641763,0.0,-79.58984375,-519.04296875,-147.94921875,0.0
1734420633.3680816,0.0,-86.9140625,-407.2265625,-201.66015625,0.0
1734420633.371987,0.0,-94.23828125,-83.49609375,-202.1484375,0.0
1734420633.3758924,0.0,-85.44921875,133.7890625,-154.296875,0.0
1734420633.379798,0.0,-84.9609375,-125.0,-116.2109375,0.0
1734420633.3837032,0.0,-95.21484375,-575.1953125,-142.08984375,0.0
1734420633.3876088,0.0,-88.37890625,-554.6875,-190.91796875,0.0
1734420633.391514,0.0,-86.9140625,-274.4140625,-188.96484375,0.0
1734420633.3954196,0.0,-93.26171875,-295.41015625,-164.0625,0.0
1734420633.399325,0.0,-92.7734375,-374.0234375,-113.76953125,0.0
1734420633.4032304,0.0,-78.125,-457.03125,-117.1875,0.0
1734420633.4071357,0.0,-86.9140625,-592.28515625,-184.08203125,0.0
1734420633.4110498,14.6484375,-99.12109375,-369.140625,-223.6328125,0.0
1734420633.4149551,116.69921875,-95.21484375,33.203125,-160.64453125,0.0
1734420633.4188607,-123.046875,-82.03125,-66.89453125,-83.0078125,0.0
1734420633.422766,-673.828125,-73.73046875,-611.328125,-106.93359375,0.0
1734420633.4266715,-581.0546875,-86.42578125,-691.40625,-171.38671875,0.0
1734420633.4305768,-86.9140625,-100.5859375,-439.94140625,-224.609375,0.0
1734420633.4344823,40.52734375,-97.65625,-122.55859375,-203.125,0.0
1734420633.4383876,-97.16796875,-88.37890625,-144.04296875,-128.90625,0.0
1734420633.4422932,-667.96875,-90.8203125,-642.578125,-145.01953125,0.0
1734420633.4461985,-683.10546875,-80.56640625,-635.25390625,-210.44921875,0.0
1734420633.450104,-117.1875,-69.3359375,-302.24609375,-228.515625,0.0
1734420633.4540093,68.84765625,-77.1484375,-91.796875,-191.89453125,0.0
1734420633.4579227,-22.94921875,-87.40234375,-0.9765625,-106.4453125,0.0
1734420633.4618282,-582.51953125,-92.28515625,-290.52734375,-92.28515625,0.0
1734420633.4657335,-748.046875,-96.19140625,-628.90625,-180.17578125,0.0
1734420633.469639,-163.57421875,-98.14453125,-379.8828125,-236.81640625,0.0
1734420633.4735444,56.15234375,-104.98046875,-3.90625,-196.77734375,0.0
1734420633.47745,-27.34375,-101.07421875,33.203125,-102.5390625,0.0
1734420633.4813552,-506.34765625,-99.12109375,-316.89453125,-86.42578125,0.0
1734420633.4852607,-777.34375,-102.5390625,-800.78125,-149.90234375,0.0
1734420633.489166,-237.79296875,-92.7734375,-584.9609375,-225.5859375,0.0
1734420633.4930716,101.07421875,-92.7734375,63.96484375,-207.51953125,0.0
1734420633.4969769,76.66015625,-108.88671875,147.4609375,-128.41796875,0.0
1734420633.5008824,-396.484375,-98.6328125,-245.60546875,-115.234375,0.0
1734420633.504795,0.0,-95.21484375,-591.30859375,-170.8984375,0.0
1734420633.5087004,0.0,-92.7734375,-410.15625,-228.02734375,0.0
1734420633.512606,0.0,-83.984375,-74.21875,-231.4453125,0.0
1734420633.5165112,0.0,-95.703125,119.62890625,-152.34375,0.0
1734420633.5204167,0.0,-97.16796875,-108.3984375,-76.171875,0.0
1734420633.524322,0.0,-83.0078125,-628.41796875,-130.37109375,0.0
1734420633.5282276,0.0,-83.49609375,-642.578125,-201.171875,0.0
1734420633.5321329,0.0,-95.21484375,-386.23046875,-193.84765625,0.0
1734420633.5360384,0.0,-81.0546875,39.0625,-158.203125,0.0
1734420633.5399437,0.0,-74.21875,-128.90625,-119.140625,0.0
1734420633.5438492,0.0,-87.40234375,-631.34765625,-131.34765625,0.0
1734420633.5477545,0.0,-83.49609375,-545.41015625,-179.6875,0.0
1734420633.5516665,146.97265625,-71.2890625,-123.53515625,-204.1015625,0.0
1734420633.555572,197.75390625,-61.03515625,151.3671875,-157.2265625,0.0
1734420633.5594773,-123.046875,-75.1953125,-67.87109375,-105.95703125,0.0
1734420633.5633829,-634.765625,-78.125,-463.8671875,-102.5390625,0.0
1734420633.5672882,-365.72265625,-67.87109375,-505.859375,-157.2265625,0.0
1734420633.5711937,121.09375,-72.265625,-270.01953125,-195.3125,0.0
1734420633.575099,228.515625,-71.77734375,-227.05078125,-151.85546875,0.0
1734420633.5790045,10.25390625,-60.05859375,-309.5703125,-101.5625,0.0
1734420633.5829098,-516.6015625,-62.5,-351.5625,-47.8515625,0.0
1734420633.5868154,-352.5390625,-83.0078125,-461.42578125,-105.95703125,0.0
1734420633.5907207,198.2421875,-81.0546875,-257.32421875,-207.51953125,0.0
1734420633.5946262,309.5703125,-64.94140625,42.96875,-165.0390625,0.0
1734420633.5985377,108.3984375,-65.91796875,55.17578125,-86.9140625,0.0
1734420633.602443,-407.2265625,-70.80078125,-315.4296875,-57.6171875,0.0
1734420633.6063485,-349.609375,-71.2890625,-500.0,-94.23828125,0.0
1734420633.6102538,158.203125,-69.82421875,-222.16796875,-163.0859375,0.0
1734420633.6141593,270.01953125,-63.96484375,43.45703125,-178.22265625,0.0
1734420633.6180646,142.08984375,-72.265625,-37.59765625,-96.6796875,0.0
1734420633.6219702,-370.1171875,-80.078125,-408.203125,-34.1796875,0.0
1734420633.6258755,-442.3828125,-68.359375,-478.515625,-82.51953125,0.0
1734420633.629781,117.67578125,-62.98828125,-236.328125,-157.71484375,0.0
1734420633.6336863,291.015625,-80.078125,-119.62890625,-142.08984375,0.0
1734420633.6375918,160.64453125,-83.0078125,-53.22265625,-69.3359375,0.0
1734420633.6414971,-307.6171875,-69.82421875,-152.34375,-37.59765625,0.0
1734420633.6454132,0.0,-85.9375,0.0,-89.35546875,0.0
1734420633.6493187,0.0,-98.6328125,0.0,-142.578125,0.0
1734420633.653224,0.0,-83.984375,0.0,-138.671875,0.0
1734420633.6571295,0.0,-76.171875,0.0,-73.73046875,0.0
1734420633.6610348,0.0,-88.37890625,0.0,-6.8359375,0.0
1734420633.6649404,0.0,-104.4921875,0.0,-51.7578125,0.0
1734420633.6688457,0.0,-98.14453125,0.0,-80.56640625,0.0
1734420633.6727512,0.0,-94.23828125,0.0,-91.796875,0.0
1734420633.6766565,0.0,-108.3984375,0.0,-109.86328125,0.0
1734420633.680562,0.0,-105.46875,0.0,-27.83203125,0.0
1734420633.6844673,0.0,-93.26171875,0.0,-41.015625,0.0
1734420633.6883729,0.0,-90.8203125,0.0,-120.60546875,0.0
1734420633.692288,286.62109375,-88.37890625,-165.52734375,-122.0703125,0.0
1734420633.6961932,277.34375,-88.37890625,8.30078125,-81.54296875,0.0
1734420633.7000988,-43.45703125,-88.37890625,-0.9765625,-15.625,0.0
1734420633.704004,-445.80078125,-77.1484375,-345.703125,6.8359375,0.0
1734420633.7079096,-114.74609375,-83.0078125,-453.125,-78.125,0.0
1734420633.7118149,267.578125,-89.35546875,-339.35546875,-125.0,0.0
1734420633.7157204,288.0859375,-78.61328125,-154.78515625,-68.359375,0.0
1734420633.7196257,19.53125,-77.63671875,-3.41796875,-16.11328125,0.0
1734420633.7235312,-438.4765625,-80.078125,-424.31640625,1.953125,0.0
1734420633.7274365,-178.22265625,-76.66015625,-657.2265625,-50.78125,0.0
1734420633.731342,244.62890625,-86.42578125,-170.8984375,-124.0234375,0.0
1734420633.7352474,244.140625,-94.7265625,90.33203125,-83.49609375,0.0
1734420633.739162,0.0,-95.703125,-31.73828125,-40.0390625,0.0
1734420633.7430673,0.0,-91.796875,-359.86328125,-41.015625,0.0
1734420633.7469728,0.0,-84.9609375,-403.3203125,-89.84375,0.0
1734420633.750878,0.0,-84.47265625,-209.9609375,-146.97265625,0.0
1734420633.7547836,0.0,-72.265625,-166.50390625,-114.74609375,0.0
1734420633.758689,0.0,-66.89453125,-223.14453125,-26.85546875,0.0
1734420633.7625945,0.0,-86.42578125,-387.20703125,1.46484375,0.0
1734420633.7664998,0.0,-84.9609375,-423.33984375,-48.828125,0.0
1734420633.7704053,0.0,-81.0546875,-429.6875,-122.0703125,0.0
1734420633.7743106,0.0,-81.54296875,-285.64453125,-129.8828125,0.0
1734420633.7782161,0.0,-75.1953125,92.7734375,-62.01171875,0.0
1734420633.7821214,0.0,-83.49609375,-128.90625,-2.9296875,0.0
1734420633.7860353,-385.25390625,-83.49609375,-421.875,-47.8515625,0.0
1734420633.7899408,78.61328125,-83.0078125,-263.18359375,-142.578125,0.0
1734420633.7938461,200.68359375,-85.9375,23.4375,-145.5078125,0.0
1734420633.7977517,108.3984375,-83.0078125,72.75390625,-85.44921875,0.0
1734420633.801657,-320.3125,-89.35546875,-215.8203125,-26.85546875,0.0
1734420633.8055625,-449.70703125,-90.33203125,-467.7734375,-42.96875,0.0
1734420633.8094678,46.38671875,-75.1953125,-338.37890625,-123.046875,0.0
1734420633.8133733,212.40234375,-74.70703125,-133.7890625,-157.2265625,0.0
1734420633.8172786,95.703125,-83.49609375,-181.15234375,-95.21484375,0.0
1734420633.8211842,-290.52734375,-85.44921875,-117.1875,-11.23046875,0.0
1734420633.8250895,-489.74609375,-76.66015625,-296.875,-44.921875,0.0
1734420633.828995,-43.45703125,-70.3125,-374.51171875,-135.25390625,0.0
1734420633.8329082,172.8515625,-70.80078125,-266.11328125,-162.59765625,0.0
1734420633.8368137,108.88671875,-73.2421875,-106.93359375,-99.609375,0.0
1734420633.840719,-218.26171875,-68.84765625,-25.390625,-0.48828125,0.0
1734420633.8446245,-493.65234375,-65.91796875,-311.5234375,-21.97265625,0.0
1734420633.8485298,-101.5625,-69.82421875,-377.44140625,-100.5859375,0.0
1734420633.8524354,184.08203125,-70.80078125,-300.78125,-141.11328125,0.0
1734420633.8563406,166.9921875,-62.01171875,-22.94921875,-124.51171875,0.0
1734420633.8602462,-145.01953125,-64.94140625,-186.5234375,-51.26953125,0.0
1734420633.8641515,-487.79296875,-73.73046875,-527.83203125,-28.3203125,0.0
1734420633.868057,-135.25390625,-71.2890625,-298.828125,-91.796875,0.0
1734420633.8719623,176.7578125,-74.70703125,-171.38671875,-124.0234375,0.0
1734420633.8758678,164.0625,-74.21875,6.34765625,-87.890625,0.0
1734420633.8797815,-94.7265625,-67.87109375,104.00390625,-16.6015625,0.0
1734420633.883687,-462.890625,-70.3125,-164.0625,3.90625,0.0
1734420633.8875923,-185.05859375,-73.73046875,-390.625,-60.05859375,0.0
1734420633.8914979,149.4140625,-73.2421875,-259.765625,-139.16015625,0.0
1734420633.8954031,145.5078125,-80.56640625,-35.15625,-113.28125,0.0
1734420633.8993087,-42.96875,-83.49609375,0.9765625,-9.765625,0.0
1734420633.903214,-418.9453125,-81.54296875,-332.51953125,17.578125,0.0
1734420633.9071195,-250.0,-79.58984375,-558.59375,-50.29296875,0.0
1734420633.9110248,132.8125,-70.80078125,-260.25390625,-150.87890625,0.0
1734420633.9149303,187.5,-72.75390625,58.59375,-144.04296875,0.0
1734420633.9188356,43.9453125,-75.1953125,34.66796875,-32.71484375,0.0
1734420633.9227412,-372.0703125,-77.1484375,-264.6484375,24.4140625,0.0
1734420633.9266534,-293.9453125,-79.58984375,-329.58984375,-51.7578125,0.0
1734420633.9305587,114.2578125,-73.73046875,-229.98046875,-119.62890625,0.0
1734420633.9344642,172.36328125,-68.84765625,-199.70703125,-92.7734375,0.0
1734420633.9383695,44.43359375,-71.2890625,-9.27734375,-43.9453125,0.0
1734420633.942275,-333.49609375,-80.56640625,-160.15625,5.37109375,0.0
1734420633.9461803,-302.24609375,-75.1953125,-486.328125,-40.52734375,0.0
1734420633.9500859,87.890625,-64.453125,-529.296875,-125.9765625,0.0
1734420633.9539912,150.390625,-74.70703125,-467.28515625,-130.37109375,0.0
1734420633.9578967,75.1953125,-65.4296875,-61.03515625,-55.6640625,0.0
1734420633.961802,-296.38671875,-53.7109375,-129.39453125,26.85546875,0.0
1734420633.9657075,-395.99609375,-64.94140625,-471.19140625,-9.765625,0.0
1734420633.9696128,16.11328125,-70.80078125,-361.328125,-114.74609375,0.0
1734420633.9735246,148.92578125,-66.40625,-126.953125,-135.25390625,0.0
1734420633.9774299,60.546875,-68.84765625,3.90625,-71.2890625,0.0
1734420633.9813354,-290.0390625,-68.359375,-192.3828125,15.13671875,0.0
1734420633.9852407,-430.6640625,-53.7109375,-402.34375,2.9296875,0.0
1734420633.9891462,-46.875,-56.640625,-375.9765625,-101.5625,0.0
1734420633.9930515,105.95703125,-63.4765625,-388.671875,-143.5546875,0.0
1734420633.996957,45.41015625,-73.2421875,-312.98828125,-76.171875,0.0
1734420634.0008624,-264.16015625,-77.1484375,-146.97265625,1.46484375,0.0
1734420634.004768,-490.234375,-68.84765625,-329.1015625,-26.3671875,0.0
1734420634.0086732,-150.87890625,-71.77734375,-471.19140625,-113.28125,0.0
1734420634.0125787,55.17578125,-81.0546875,-412.109375,-144.53125,0.0
1734420634.016484,30.2734375,-89.35546875,-191.40625,-92.7734375,0.0
1734420634.0203948,-238.28125,-83.49609375,-44.43359375,-2.44140625,0.0
1734420634.0243003,-537.59765625,-79.58984375,-326.66015625,11.23046875,0.0
1734420634.0282056,-257.32421875,-79.58984375,-464.35546875,-100.5859375,0.0
1734420634.0321112,9.27734375,-79.58984375,-299.8046875,-159.66796875,0.0
1734420634.0360165,19.04296875,-78.61328125,-122.0703125,-101.5625,0.0
1734420634.039922,-199.70703125,-81.0546875,-243.65234375,-27.34375,0.0
1734420634.0438273,-552.24609375,-92.28515625,-521.97265625,4.8828125,0.0
1734420634.0477328,-303.22265625,-86.9140625,-493.65234375,-51.26953125,0.0
1734420634.0516381,1.46484375,-67.87109375,-353.02734375,-155.2734375,0.0
1734420634.0555437,-3.90625,-68.359375,-278.3203125,-127.44140625,0.0
1734420634.059449,-162.109375,-69.82421875,-59.08203125,-20.01953125,0.0
1734420634.0633545,-505.859375,-72.75390625,-223.6328125,16.11328125,0.0
1734420634.0672696,-331.0546875,-71.2890625,-450.68359375,-78.125,0.0
1734420634.071175,5.37109375,-68.359375,-334.9609375,-166.50390625,0.0
1734420634.0750804,14.6484375,-65.91796875,-243.65234375,-102.5390625,0.0
1734420634.078986,-128.41796875,-64.94140625,-29.296875,-29.296875,0.0
1734420634.0828912,-491.69921875,-78.125,-255.859375,-8.7890625,0.0
1734420634.0867968,-413.0859375,-82.51953125,-579.58984375,-47.36328125,0.0
1734420634.090702,-41.015625,-67.3828125,-373.046875,-127.44140625,0.0
1734420634.0946076,8.7890625,-64.94140625,-44.921875,-116.69921875,0.0
1734420634.098513,-85.44921875,-71.77734375,-49.8046875,-36.1328125,0.0
1734420634.1024184,-442.3828125,-70.80078125,-396.484375,7.8125,0.0
1734420634.1063237,-452.1484375,-66.40625,-416.9921875,-24.90234375,0.0
1734420634.1102293,-60.546875,-58.10546875,-292.96875,-130.37109375,0.0
1734420634.114144,3.41796875,-61.03515625,-228.02734375,-146.97265625,0.0
1734420634.1180494,-92.28515625,-65.91796875,-49.31640625,-47.8515625,0.0
1734420634.121955,-410.64453125,-62.98828125,-112.3046875,3.41796875,0.0
1734420634.1258602,-476.5625,-67.87109375,-442.3828125,-38.0859375,0.0
1734420634.1297657,-103.02734375,-71.77734375,-442.87109375,-111.328125,0.0
1734420634.133671,-2.44140625,-62.01171875,-329.1015625,-124.0234375,0.0
1734420634.1375766,-73.73046875,-61.5234375,-250.0,-76.171875,0.0
1734420634.1414819,-390.13671875,-70.80078125,-312.5,-7.8125,0.0
1734420634.1453874,-541.50390625,-73.2421875,-635.7421875,-4.39453125,0.0
1734420634.1492927,-158.69140625,-65.91796875,-572.265625,-80.078125,0.0
1734420634.1531982,-4.8828125,-61.5234375,-204.1015625,-139.6484375,0.0
1734420634.1571035,-46.38671875,-62.98828125,-75.1953125,-72.75390625,0.0
1734420634.1610174,-320.3125,-66.40625,-191.89453125,7.8125,0.0
1734420634.1649227,-533.69140625,-65.91796875,-423.828125,-10.7421875,0.0
1734420634.1688282,-177.734375,-66.89453125,-400.87890625,-78.61328125,0.0
1734420634.1727335,33.203125,-59.5703125,-307.12890625,-132.8125,0.0
1734420634.176639,3.90625,-62.5,-173.828125,-91.30859375,0.0
1734420634.1805444,-255.37109375,-71.77734375,-222.16796875,-4.8828125,0.0
1734420634.18445,-520.99609375,-66.40625,-408.69140625,14.6484375,0.0
1734420634.1883552,-213.8671875,-68.84765625,-477.05078125,-49.8046875,0.0
1734420634.1922607,68.84765625,-61.03515625,-508.30078125,-106.4453125,0.0
1734420634.196166,35.15625,-39.0625,-106.4453125,-91.30859375,0.0
1734420634.2000716,-208.49609375,-43.45703125,62.98828125,-15.625,0.0
1734420634.2039769,-537.109375,-58.10546875,-326.66015625,4.39453125,0.0
1734420634.2078903,0.0,-60.05859375,-462.40234375,-93.75,0.0
1734420634.2117958,0.0,-57.6171875,-278.3203125,-162.59765625,0.0
1734420634.215701,0.0,-67.3828125,-65.4296875,-146.484375,0.0
1734420634.2196066,0.0,-62.5,-41.50390625,-65.91796875,0.0
1734420634.223512,0.0,-58.59375,-370.1171875,-15.625,0.0
1734420634.2274175,0.0,-67.87109375,-527.83203125,-94.7265625,0.0
1734420634.2313228,0.0,-57.6171875,-331.54296875,-173.33984375,0.0
1734420634.2352283,0.0,-67.3828125,-376.46484375,-126.953125,0.0
1734420634.2391336,0.0,-77.63671875,-273.4375,-27.83203125,0.0
1734420634.2430391,0.0,-64.453125,-157.2265625,3.41796875,0.0
1734420634.2469444,0.0,-56.15234375,-433.10546875,-37.59765625,0.0
1734420634.25085,0.0,-63.4765625,-374.0234375,-99.12109375,0.0
1734420634.2547624,58.59375,-69.3359375,0.0,-117.1875,0.0
1734420634.258668,-81.54296875,-62.98828125,0.0,-39.0625,0.0
1734420634.2625732,-499.0234375,-62.5,0.0,23.4375,0.0
1734420634.2664788,-478.02734375,-67.87109375,0.0,-41.015625,0.0
1734420634.270384,-50.78125,-65.4296875,0.0,-115.234375,0.0
1734420634.2742896,4.8828125,-64.94140625,0.0,-126.953125,0.0
1734420634.278195,-116.69921875,-76.171875,0.0,-51.26953125,0.0
1734420634.2821004,-471.6796875,-75.68359375,0.0,35.15625,0.0
1734420634.2860057,-520.99609375,-74.70703125,0.0,5.37109375,0.0
1734420634.2899113,-106.4453125,-71.77734375,0.0,-92.7734375,0.0
1734420634.2938166,22.4609375,-66.40625,0.0,-100.5859375,0.0
1734420634.297722,-62.01171875,-69.3359375,0.0,-19.04296875,0.0
1734420634.3016343,-424.31640625,-61.5234375,-45.8984375,49.8046875,0.0
1734420634.3055396,-564.453125,-67.87109375,-345.703125,32.2265625,0.0
1734420634.3094451,-155.2734375,-87.890625,-432.12890625,-66.89453125,0.0
1734420634.3133504,39.0625,-81.54296875,-187.98828125,-112.79296875,0.0
1734420634.317256,-69.3359375,-67.87109375,29.296875,-40.52734375,0.0
1734420634.3211613,-442.87109375,-79.58984375,-170.41015625,54.6875,0.0
1734420634.3250668,-658.69140625,-83.984375,-599.12109375,56.640625,0.0
1734420634.328972,-285.15625,-76.66015625,-582.51953125,-21.97265625,0.0
1734420634.3328776,-64.94140625,-83.0078125,-106.93359375,-86.42578125,0.0
1734420634.336783,-99.609375,-71.77734375,62.5,-40.0390625,0.0
1734420634.3406885,-394.53125,-68.84765625,-122.0703125,49.8046875,0.0
1734420634.3445938,-726.5625,-82.03125,-398.4375,37.109375,0.0
1734420634.3485055,-381.34765625,-77.63671875,-372.0703125,-46.875,0.0
1734420634.3524108,-76.66015625,-74.21875,-280.76171875,-116.69921875,0.0
1734420634.3563163,-120.60546875,-73.73046875,-104.4921875,-101.5625,0.0
1734420634.3602216,-383.7890625,-71.2890625,14.6484375,-4.8828125,0.0
1734420634.3641272,-744.140625,-64.453125,-345.21484375,13.18359375,0.0
1734420634.3680325,-463.8671875,-64.453125,-554.6875,-60.05859375,0.0
1734420634.371938,-123.046875,-73.2421875,-456.54296875,-111.81640625,0.0
1734420634.3758433,-109.86328125,-64.453125,-127.44140625,-105.46875,0.0
1734420634.3797488,-301.26953125,-58.59375,60.546875,-43.9453125,0.0
1734420634.383654,-679.6875,-63.4765625,-373.046875,-3.41796875,0.0
1734420634.3875597,-459.47265625,-56.640625,-566.89453125,-79.58984375,0.0
1734420634.391465,-23.4375,-62.98828125,-221.19140625,-140.625,0.0
1734420634.3953757,30.76171875,-71.77734375,37.109375,-104.00390625,0.0
1734420634.3992813,-161.62109375,-69.82421875,-32.2265625,-27.34375,0.0
1734420634.4031866,-558.59375,-66.40625,-363.76953125,1.953125,0.0
1734420634.407092,-388.671875,-62.01171875,-440.4296875,-58.59375,0.0
1734420634.4109974,69.82421875,-61.03515625,-304.19921875,-116.69921875,0.0
1734420634.414903,146.484375,-66.89453125,-277.34375,-71.77734375,0.0
1734420634.4188082,20.5078125,-63.4765625,-278.3203125,-12.6953125,0.0
1734420634.4227138,-427.24609375,-63.4765625,-388.18359375,7.32421875,0.0
1734420634.426619,-377.9296875,-63.96484375,-532.71484375,-23.92578125,0.0
1734420634.4305246,143.06640625,-62.01171875,-460.9375,-86.42578125,0.0
1734420634.43443,276.3671875,-68.359375,-79.58984375,-87.40234375,0.0
1734420634.4383354,170.8984375,-66.89453125,110.3515625,-35.15625,0.0
1734420634.4422503,-262.20703125,-68.84765625,-249.0234375,13.18359375,0.0
1734420634.4461558,-317.3828125,-70.3125,-554.19921875,-9.765625,0.0
1734420634.450061,175.29296875,-71.77734375,-386.23046875,-94.7265625,0.0
1734420634.4539666,375.0,-80.56640625,-87.40234375,-104.98046875,0.0
1734420634.457872,304.19921875,-84.9609375,-22.94921875,-31.73828125,0.0
1734420634.4617774,-148.4375,-87.40234375,-386.71875,9.27734375,0.0
1734420634.4656827,-347.65625,-78.61328125,-607.91015625,-49.31640625,0.0
1734420634.4695883,153.80859375,-74.21875,-385.7421875,-91.796875,0.0
1734420634.4734938,412.59765625,-80.078125,-302.24609375,-104.98046875,0.0
1734420634.477399,363.76953125,-77.1484375,-281.25,-51.7578125,0.0
1734420634.4813046,-52.734375,-73.73046875,-192.3828125,1.46484375,0.0
1734420634.48521,-315.4296875,-82.03125,-493.65234375,-23.92578125,0.0
1734420634.4891243,142.578125,-80.56640625,-528.80859375,-90.8203125,0.0
1734420634.4930298,413.0859375,-69.3359375,-255.37109375,-123.046875,0.0
1734420634.4969351,391.6015625,-70.80078125,46.875,-52.734375,0.0
1734420634.5008407,9.765625,-83.984375,-112.3046875,17.08984375,0.0
1734420634.504746,-318.84765625,-94.23828125,-564.453125,-24.90234375,0.0
1734420634.5086515,98.14453125,-91.30859375,-571.77734375,-84.47265625,0.0
1734420634.5125568,387.6953125,-87.40234375,-352.05078125,-105.46875,0.0
1734420634.5164623,421.875,-90.33203125,-184.5703125,-36.1328125,0.0
1734420634.5203676,109.375,-98.14453125,-401.3671875,57.12890625,0.0
1734420634.5242732,-348.14453125,-98.6328125,-661.1328125,38.57421875,0.0
1734420634.5281785,-19.53125,-95.703125,-437.98828125,-46.875,0.0
1734420634.532084,382.8125,-97.65625,-245.60546875,-90.8203125,0.0
1734420634.5359976,405.2734375,-98.14453125,-49.31640625,-53.7109375,0.0
1734420634.5399032,150.87890625,-95.703125,30.76171875,29.296875,0.0
1734420634.5438085,-315.4296875,-96.6796875,-322.75390625,52.734375,0.0
1734420634.547714,-77.63671875,-101.07421875,-521.97265625,-31.73828125,0.0
1734420634.5516193,357.421875,-102.5390625,-320.3125,-85.9375,0.0
1734420634.5555248,406.73828125,-102.05078125,-176.26953125,-47.8515625,0.0
1734420634.5594301,194.3359375,-91.796875,-28.3203125,32.2265625,0.0
1734420634.5633357,-297.36328125,-102.05078125,-351.07421875,81.0546875,0.0
1734420634.567241,-139.6484375,-111.81640625,-691.40625,5.37109375,0.0
1734420634.5711465,344.23828125,-90.33203125,-263.18359375,-101.07421875,0.0
1734420634.5750518,425.29296875,-85.44921875,81.54296875,-57.12890625,0.0
1734420634.5789573,254.8828125,-94.7265625,1.953125,31.25,0.0
1734420634.5828707,-248.53515625,-94.7265625,-348.14453125,67.87109375,0.0
1734420634.5867763,-202.1484375,-94.23828125,-449.70703125,12.20703125,0.0
1734420634.5906816,299.8046875,-93.75,-250.0,-59.5703125,0.0
1734420634.594587,420.41015625,-89.84375,-35.15625,-59.5703125,0.0
1734420634.5984924,262.20703125,-91.30859375,24.4140625,24.90234375,0.0
1734420634.602398,-226.5625,-95.21484375,-315.4296875,76.66015625,0.0
1734420634.6063032,-277.34375,-93.75,-536.1328125,39.55078125,0.0
1734420634.6102087,218.26171875,-93.75,-515.625,-32.2265625,0.0
1734420634.614114,388.18359375,-83.984375,-253.90625,-41.9921875,0.0
1734420634.6180196,291.9921875,-74.21875,167.96875,13.18359375,0.0
1734420634.6219249,-161.62109375,-80.078125,-147.94921875,71.77734375,0.0
1734420634.6258304,-345.703125,-81.54296875,-535.15625,46.38671875,0.0
1734420634.629743,140.625,-76.66015625,-333.984375,-39.55078125,0.0
1734420634.6336486,370.60546875,-74.70703125,23.4375,-48.828125,0.0
1734420634.637554,299.8046875,-79.1015625,112.3046875,-4.39453125,0.0
1734420634.6414595,-139.6484375,-79.58984375,-170.41015625,40.0390625,0.0
1734420634.6453648,-429.6875,-67.87109375,-502.44140625,6.8359375,0.0
1734420634.6492703,28.80859375,-67.87109375,-450.1953125,-78.125,0.0
1734420634.6531756,330.56640625,-73.2421875,-224.609375,-87.890625,0.0
1734420634.6570811,298.33984375,-73.2421875,-177.24609375,-13.671875,0.0
1734420634.6609864,-89.84375,-69.82421875,-119.62890625,34.66796875,0.0
1734420634.664892,-441.40625,-65.91796875,-345.703125,6.8359375,0.0
1734420634.6687973,-27.83203125,-65.4296875,-502.44140625,-61.03515625,0.0
1734420634.6727028,311.5234375,-69.3359375,-167.96875,-110.83984375,0.0
1734420634.6766148,331.0546875,-72.265625,173.828125,-41.9921875,0.0
1734420634.6805203,24.4140625,-69.82421875,30.76171875,39.55078125,0.0
1734420634.6844256,-408.203125,-60.546875,-396.484375,30.76171875,0.0
1734420634.6883311,-51.26953125,-62.98828125,-437.98828125,-26.85546875,0.0
1734420634.6922364,349.12109375,-72.265625,-95.21484375,-78.61328125,0.0
1734420634.696142,371.58203125,-68.84765625,137.6953125,-45.8984375,0.0
1734420634.7000473,95.703125,-78.125,-202.1484375,40.0390625,0.0
1734420634.7039528,-379.8828125,-77.1484375,-608.88671875,57.12890625,0.0
1734420634.707858,-105.46875,-60.546875,-400.87890625,-16.6015625,0.0
1734420634.7117636,341.796875,-63.96484375,-99.12109375,-67.3828125,0.0
1734420634.715669,406.25,-74.70703125,112.3046875,7.32421875,0.0
1734420634.7195745,193.84765625,-77.63671875,130.859375,95.21484375,0.0
1734420634.7234905,-312.5,-73.73046875,-206.54296875,85.44921875,0.0
1734420634.727396,-152.34375,-79.1015625,-498.53515625,-15.13671875,0.0
1734420634.7313013,339.35546875,-84.47265625,-180.6640625,-53.7109375,0.0
1734420634.7352068,422.8515625,-69.3359375,186.5234375,15.13671875,0.0
1734420634.7391121,245.60546875,-62.01171875,167.96875,83.49609375,0.0
1734420634.7430177,-291.9921875,-73.73046875,-288.57421875,106.93359375,0.0
1734420634.746923,-260.7421875,-82.03125,-598.6328125,48.33984375,0.0
1734420634.7508285,274.90234375,-71.77734375,-104.98046875,-9.765625,0.0
1734420634.7547338,403.80859375,-63.96484375,239.74609375,5.859375,0.0
1734420634.7586393,275.390625,-70.3125,125.9765625,75.68359375,0.0
1734420634.7625446,-239.74609375,-74.70703125,-195.80078125,99.609375,0.0
1734420634.7664502,-308.59375,-76.171875,-399.90234375,20.5078125,0.0
1734420634.770361,234.86328125,-74.70703125,-125.0,-30.2734375,0.0
1734420634.7742662,381.34765625,-70.3125,60.05859375,3.41796875,0.0
1734420634.7781718,269.04296875,-75.1953125,123.046875,63.4765625,0.0
1734420634.782077,-182.6171875,-73.73046875,-47.8515625,104.00390625,0.0
1734420634.7859826,-372.0703125,-69.82421875,-451.66015625,63.4765625,0.0
1734420634.789888,132.32421875,-72.75390625,-379.39453125,-10.25390625,0.0
1734420634.7937934,369.62890625,-76.66015625,-54.19921875,-20.5078125,0.0
1734420634.7976987,303.22265625,-79.1015625,132.8125,42.48046875,0.0
1734420634.8016043,-136.23046875,-77.63671875,-118.65234375,85.9375,0.0
1734420634.8055096,-424.31640625,-81.54296875,-631.34765625,53.22265625,0.0
1734420634.809415,52.24609375,-80.078125,-484.375,-2.44140625,0.0
1734420634.8133204,348.6328125,-66.40625,72.265625,-31.73828125,0.0
1734420634.8172355,318.359375,-63.96484375,173.33984375,11.71875,0.0
1734420634.821141,-63.96484375,-74.21875,-102.5390625,97.16796875,0.0
1734420634.8250463,-434.08203125,-69.82421875,-443.84765625,66.89453125,0.0
1734420634.8289518,-16.11328125,-59.5703125,-334.47265625,-43.9453125,0.0
1734420634.8328571,351.07421875,-64.453125,-45.41015625,-60.546875,0.0
1734420634.8367627,338.37890625,-73.2421875,24.4140625,17.578125,0.0
1734420634.840668,-1.46484375,-75.68359375,-9.765625,62.5,0.0
1734420634.8445735,-434.5703125,-69.3359375,-336.9140625,38.0859375,0.0
1734420634.8484788,-87.40234375,-72.265625,-565.91796875,-5.859375,0.0
1734420634.8523843,331.0546875,-77.63671875,-286.62109375,-35.64453125,0.0
1734420634.8562896,357.421875,-73.73046875,146.484375,-11.71875,0.0
1734420634.8601952,71.77734375,-73.2421875,101.5625,46.875,0.0
1734420634.8641095,-390.625,-73.2421875,-351.5625,26.85546875,0.0
1734420634.868015,-129.39453125,-78.61328125,-466.30859375,-42.96875,0.0
1734420634.8719203,304.19921875,-74.21875,-94.7265625,-75.1953125,0.0
1734420634.875826,341.30859375,-77.1484375,191.40625,-25.390625,0.0
1734420634.8797312,125.48828125,-93.26171875,0.9765625,61.03515625,0.0
1734420634.8836367,-351.07421875,-89.84375,-454.58984375,65.91796875,0.0
1734420634.887542,-180.6640625,-81.0546875,-554.6875,-20.01953125,0.0
1734420634.8914475,287.59765625,-81.0546875,-258.30078125,-78.125,0.0
1734420634.8953528,348.14453125,-84.47265625,-235.83984375,-14.16015625,0.0
1734420634.8992584,166.50390625,-80.56640625,-186.03515625,69.3359375,0.0
1734420634.9031637,-333.984375,-79.1015625,-181.640625,55.17578125,0.0
1734420634.9070692,-262.20703125,-82.51953125,-507.8125,-14.16015625,0.0
1734420634.910983,250.0,-82.51953125,-267.578125,-55.17578125,0.0
1734420634.9148884,353.02734375,-87.40234375,95.703125,-41.9921875,0.0
1734420634.918794,211.42578125,-90.8203125,171.38671875,20.01953125,0.0
1734420634.9226992,-290.0390625,-87.890625,-214.84375,44.921875,0.0
1734420634.9266047,-346.19140625,-85.44921875,-543.45703125,-10.7421875,0.0
1734420634.93051,153.3203125,-89.84375,-378.41796875,-59.5703125,0.0
1734420634.9344156,310.546875,-91.796875,27.83203125,-40.0390625,0.0
1734420634.9383209,211.42578125,-83.49609375,83.984375,16.6015625,0.0
1734420634.9422264,-247.0703125,-83.49609375,-400.390625,39.55078125,0.0
1734420634.9461317,-393.5546875,-84.47265625,-491.2109375,-10.7421875,0.0
1734420634.9500372,77.1484375,-81.54296875,-238.28125,-60.05859375,0.0
1734420634.9539425,280.2734375,-83.0078125,-50.78125,-66.89453125,0.0
1734420634.957856,226.5625,-78.61328125,83.0078125,3.90625,0.0
1734420634.9617612,-210.44921875,-70.3125,-57.12890625,50.78125,0.0
1734420634.9656668,-473.6328125,-76.66015625,-505.37109375,9.27734375,0.0
1734420634.969572,-31.25,-75.1953125,-438.4765625,-55.6640625,0.0
1734420634.9734776,228.02734375,-70.3125,14.16015625,-52.734375,0.0
1734420634.977383,198.73046875,-67.3828125,137.6953125,10.25390625,0.0
1734420634.9812884,-187.5,-67.3828125,-151.85546875,55.6640625,0.0
1734420634.9851937,-535.64453125,-79.58984375,-660.15625,25.390625,0.0
1734420634.9890993,-130.859375,-78.125,-578.125,-54.19921875,0.0
1734420634.9930046,203.125,-79.1015625,4.8828125,-70.3125,0.0
1734420634.99691,203.125,-83.49609375,159.1796875,-9.27734375,0.0
1734420635.0008154,-151.85546875,-69.82421875,-121.09375,48.33984375,0.0
1734420635.0047278,-576.66015625,-71.2890625,-447.265625,20.01953125,0.0
1734420635.0086334,-238.28125,-83.49609375,-372.55859375,-45.41015625,0.0
1734420635.012539,120.1171875,-87.40234375,-106.4453125,-74.21875,0.0
1734420635.0164442,136.71875,-78.61328125,116.69921875,-34.66796875,0.0
1734420635.0203497,-175.78125,-80.56640625,-27.83203125,32.71484375,0.0
1734420635.024255,-645.5078125,-88.8671875,-503.41796875,14.6484375,0.0
1734420635.0281606,-366.2109375,-83.49609375,-569.3359375,-54.6875,0.0
1734420635.0320659,50.29296875,-81.54296875,-366.69921875,-70.80078125,0.0
1734420635.0359714,87.40234375,-80.56640625,51.26953125,-29.78515625,0.0
1734420635.0398767,-147.4609375,-91.796875,130.37109375,11.71875,0.0
1734420635.0437822,-626.46484375,-93.75,-375.0,9.765625,0.0
1734420635.0476875,-464.35546875,-81.54296875,-548.33984375,-46.38671875,0.0
1734420635.0515997,-11.71875,-82.51953125,-118.65234375,-78.61328125,0.0
1734420635.055505,87.40234375,-90.33203125,181.640625,-45.41015625,0.0
1734420635.0594106,-78.61328125,-92.7734375,10.25390625,11.23046875,0.0
1734420635.0633159,-606.93359375,-92.28515625,-377.9296875,19.04296875,0.0
1734420635.0672214,-537.59765625,-91.796875,-505.859375,-46.38671875,0.0
1734420635.0711267,-15.625,-82.51953125,-280.76171875,-85.9375,0.0
1734420635.0750322,143.06640625,-87.890625,-238.76953125,-40.52734375,0.0
1734420635.0789375,-20.01953125,-91.30859375,-217.28515625,18.5546875,0.0
1734420635.082843,-561.03515625,-81.0546875,-282.71484375,17.578125,0.0
1734420635.0867484,-570.3125,-87.890625,-590.33203125,-36.62109375,0.0
1734420635.090654,-47.8515625,-85.9375,-342.28515625,-91.796875,0.0
1734420635.0945592,180.17578125,-81.54296875,50.29296875,-62.98828125,0.0
1734420635.098471,132.8125,-76.66015625,158.69140625,8.7890625,0.0
1734420635.1023762,-378.90625,-85.44921875,-229.4921875,20.5078125,0.0
1734420635.1062818,-567.87109375,-91.796875,-570.80078125,-25.87890625,0.0
1734420635.110187,-65.91796875,-83.984375,-328.61328125,-87.40234375,0.0
1734420635.1140926,206.0546875,-89.35546875,21.484375,-93.75,0.0
1734420635.117998,193.84765625,-100.09765625,32.71484375,-29.296875,0.0
1734420635.1219034,-272.94921875,-101.07421875,-382.32421875,25.390625,0.0
1734420635.1258087,-561.5234375,-90.8203125,-544.921875,-29.78515625,0.0
1734420635.1297143,-95.21484375,-84.9609375,-325.1953125,-103.515625,0.0
1734420635.1336195,230.95703125,-84.47265625,-101.07421875,-92.28515625,0.0
1734420635.137525,273.4375,-83.984375,84.47265625,-27.83203125,0.0
1734420635.1414304,-127.44140625,-84.47265625,-125.9765625,20.5078125,0.0
1734420635.1453414,-548.33984375,-88.8671875,-604.4921875,-25.390625,0.0
1734420635.1492467,-150.390625,-89.84375,-498.53515625,-98.6328125,0.0
1734420635.1531522,249.51171875,-81.0546875,-114.74609375,-93.75,0.0
1734420635.1570575,301.26953125,-69.3359375,159.66796875,-29.296875,0.0
1734420635.160963,-47.36328125,-72.75390625,-66.40625,3.41796875,0.0
1734420635.1648684,-533.69140625,-82.51953125,-598.14453125,-30.76171875,0.0
1734420635.168774,-228.02734375,-83.49609375,-583.984375,-82.03125,0.0
1734420635.1726794,216.30859375,-83.49609375,-272.4609375,-85.44921875,0.0
1734420635.1765847,320.80078125,-74.70703125,57.12890625,-17.08984375,0.0
1734420635.1804903,22.4609375,-70.3125,-178.22265625,43.45703125,0.0
1734420635.1843956,-520.99609375,-79.58984375,-594.7265625,8.30078125,0.0
1734420635.188301,-291.50390625,-80.56640625,-460.44921875,-77.63671875,0.0
1734420635.1922164,187.5,-76.171875,-216.796875,-103.02734375,0.0
1734420635.196122,296.875,-80.56640625,31.73828125,-60.05859375,0.0
1734420635.2000272,63.4765625,-83.984375,20.99609375,-0.9765625,0.0
1734420635.2039328,-499.0234375,-76.171875,-442.87109375,-1.46484375,0.0
1734420635.207838,-387.6953125,-75.1953125,-632.8125,-55.6640625,0.0
1734420635.2117436,136.23046875,-85.9375,-401.85546875,-84.9609375,0.0
1734420635.215649,257.32421875,-88.37890625,-49.8046875,-62.98828125,0.0
1734420635.2195544,66.40625,-83.0078125,66.89453125,5.37109375,0.0
1734420635.2234597,-467.7734375,-89.35546875,-483.3984375,25.87890625,0.0
1734420635.2273653,-470.21484375,-88.8671875,-710.9375,-51.7578125,0.0
1734420635.2312706,43.45703125,-82.51953125,-278.80859375,-93.75,0.0
1734420635.235176,240.234375,-89.84375,48.33984375,-73.2421875,0.0
1734420635.2390904,125.9765625,-86.9140625,-36.1328125,18.5546875,0.0
1734420635.242996,-433.10546875,-90.33203125,-450.68359375,40.52734375,0.0
1734420635.2469013,-545.8984375,-99.609375,-543.9453125,-53.22265625,0.0
1734420635.2508068,-27.83203125,-94.7265625,-331.0546875,-90.8203125,0.0
1734420635.254712,215.33203125,-96.19140625,-170.8984375,-74.21875,0.0
1734420635.2586176,138.18359375,-97.16796875,-135.7421875,-7.8125,0.0
1734420635.262523,-400.390625,-98.14453125,-417.96875,11.23046875,0.0
1734420635.2664285,-609.375,-98.14453125,-639.6484375,-42.96875,0.0
1734420635.2703338,-105.46875,-97.65625,-608.88671875,-77.1484375,0.0
1734420635.2742393,199.70703125,-87.40234375,-248.53515625,-83.984375,0.0
1734420635.2781446,188.96484375,-82.03125,144.53125,-5.859375,0.0
1734420635.2820501,-291.015625,-93.75,-233.88671875,50.78125,0.0
1734420635.285964,-627.44140625,-97.16796875,-570.80078125,3.90625,0.0
1734420635.2898693,-172.8515625,-91.30859375,-365.72265625,-51.26953125,0.0
1734420635.2937748,166.9921875,-92.7734375,-18.06640625,-50.29296875,0.0
1734420635.2976801,202.63671875,-100.5859375,78.125,11.23046875,0.0
1734420635.3015857,-210.9375,-101.07421875,-268.5546875,57.12890625,0.0
1734420635.305491,-635.25390625,-98.14453125,-619.140625,19.53125,0.0
1734420635.3093965,-249.51171875,-100.5859375,-478.02734375,-50.29296875,0.0
1734420635.3133018,169.921875,-108.88671875,-266.11328125,-80.56640625,0.0
1734420635.3172073,212.890625,-111.81640625,-239.2578125,-12.6953125,0.0
1734420635.3211126,-187.01171875,-104.00390625,-253.90625,71.2890625,0.0
1734420635.3250182,-650.87890625,-104.98046875,-507.32421875,30.76171875,0.0
1734420635.3289235,-295.8984375,-107.421875,-525.390625,-50.29296875,0.0
1734420635.3328369,158.69140625,-112.79296875,-167.96875,-74.21875,0.0
1734420635.3367424,257.8125,-116.69921875,160.15625,-10.7421875,0.0
1734420635.3406477,-25.390625,-110.83984375,-39.0625,51.26953125,0.0
1734420635.3445532,-565.4296875,-109.375,-481.4453125,41.015625,0.0
1734420635.3484585,-323.2421875,-105.46875,-481.93359375,-8.7890625,0.0
1734420635.352364,169.921875,-108.3984375,-273.92578125,-72.75390625,0.0
1734420635.3562694,319.82421875,-107.91015625,6.34765625,-22.4609375,0.0
1734420635.360175,89.35546875,-105.95703125,-199.70703125,73.2421875,0.0
1734420635.3640802,-492.1875,-100.5859375,-604.4921875,58.10546875,0.0
1734420635.3679857,-352.5390625,-85.9375,-416.50390625,-20.01953125,0.0
1734420635.371891,187.5,-87.890625,-151.3671875,-41.015625,0.0
1734420635.3757966,367.1875,-93.26171875,101.5625,-7.8125,0.0
1734420635.3797092,0.0,-100.09765625,101.5625,30.76171875,0.0
1734420635.3836145,0.0,-102.5390625,-318.84765625,35.15625,0.0
1734420635.38752,0.0,-101.07421875,-539.0625,-18.06640625,0.0
1734420635.3914254,0.0,-100.5859375,-177.734375,-62.01171875,0.0
1734420635.395331,0.0,-90.8203125,146.484375,-9.765625,0.0
1734420635.3992362,0.0,-87.40234375,75.68359375,62.98828125,0.0
1734420635.4031417,0.0,-92.7734375,-366.69921875,57.6171875,0.0
1734420635.407047,0.0,-92.7734375,-661.62109375,0.48828125,0.0
1734420635.4109526,0.0,-83.984375,-173.33984375,-45.41015625,0.0
1734420635.4148579,0.0,-82.51953125,224.12109375,-16.6015625,0.0
1734420635.4187634,0.0,-92.28515625,78.61328125,33.69140625,0.0
1734420635.422669,0.0,-101.5625,-304.19921875,54.6875,0.0
1734420635.426581,-464.84375,-98.14453125,-458.0078125,3.41796875,0.0
1734420635.4304864,60.546875,-98.6328125,-224.609375,-48.828125,0.0
1734420635.4343917,349.609375,-103.02734375,8.7890625,-13.18359375,0.0
1734420635.4382973,313.96484375,-104.00390625,139.6484375,52.24609375,0.0
1734420635.4422026,-158.69140625,-102.05078125,-114.74609375,88.37890625,0.0
1734420635.446108,-456.0546875,-96.6796875,-469.7265625,52.24609375,0.0
1734420635.4500134,20.5078125,-102.05078125,-493.1640625,0.9765625,0.0
1734420635.453919,339.84375,-100.09765625,-212.890625,0.48828125,0.0
1734420635.4578242,344.23828125,-88.37890625,229.00390625,48.828125,0.0
1734420635.4617298,-67.87109375,-91.30859375,-22.94921875,99.12109375,0.0
1734420635.465635,-461.9140625,-103.02734375,-450.1953125,75.68359375,0.0
1734420635.4695406,-43.9453125,-101.07421875,-318.359375,0.0,0.0
1734420635.473452,340.33203125,-96.19140625,66.40625,-13.671875,0.0
1734420635.4773576,393.5546875,-94.7265625,173.33984375,60.546875,0.0
1734420635.481263,6.34765625,-91.796875,-103.515625,123.53515625,0.0
1734420635.4851685,-469.7265625,-90.8203125,-382.32421875,95.21484375,0.0
1734420635.4890738,-131.8359375,-98.14453125,-366.2109375,19.53125,0.0
1734420635.4929793,279.296875,-105.95703125,-156.25,-15.625,0.0
1734420635.4968846,379.39453125,-104.00390625,-54.6875,27.34375,0.0
1734420635.50079,81.0546875,-102.5390625,-109.86328125,101.07421875,0.0
1734420635.5046954,-456.54296875,-104.00390625,-352.05078125,87.890625,0.0
1734420635.508601,-199.70703125,-99.12109375,-478.02734375,20.01953125,0.0
1734420635.5125062,264.6484375,-92.7734375,-160.64453125,-11.71875,0.0
1734420635.5164118,359.86328125,-91.30859375,212.890625,33.203125,0.0
1734420635.5203226,116.69921875,-97.16796875,53.22265625,103.515625,0.0
1734420635.524228,-448.2421875,-102.5390625,-360.3515625,99.609375,0.0
1734420635.5281334,-288.0859375,-98.6328125,-413.57421875,14.6484375,0.0
1734420635.532039,209.47265625,-95.703125,-52.734375,-51.26953125,0.0
1734420635.5359442,354.00390625,-94.23828125,183.10546875,11.23046875,0.0
1734420635.5398498,172.36328125,-94.7265625,-13.671875,100.09765625,0.0
1734420635.543755,-395.5078125,-95.21484375,-422.8515625,102.05078125,0.0
1734420635.5476606,-339.35546875,-95.21484375,-507.32421875,38.0859375,0.0
1734420635.551566,149.4140625,-89.35546875,-97.65625,-32.71484375,0.0
1734420635.5554714,307.12890625,-86.42578125,-45.41015625,10.25390625,0.0
1734420635.5593767,188.4765625,-85.44921875,-75.1953125,97.65625,0.0
1734420635.5632823,-374.0234375,-92.28515625,-171.38671875,95.703125,0.0
1734420635.567197,-423.828125,-94.7265625,0.0,60.05859375,0.0
1734420635.5711026,82.51953125,-84.47265625,0.0,13.18359375,0.0
1734420635.575008,252.44140625,-80.56640625,0.0,2.9296875,0.0
1734420635.5789135,190.91796875,-83.0078125,0.0,77.63671875,0.0
1734420635.5828187,-328.125,-90.33203125,0.0,109.86328125,0.0
1734420635.5867243,-503.90625,-99.12109375,0.0,62.98828125,0.0
1734420635.5906298,5.859375,-98.14453125,0.0,11.23046875,0.0
1734420635.594535,274.90234375,-92.28515625,0.0,0.9765625,0.0
1734420635.5984406,247.55859375,-97.16796875,0.0,73.73046875,0.0
1734420635.602346,-250.9765625,-95.703125,0.0,121.58203125,0.0
1734420635.6062515,-543.45703125,-91.796875,0.0,57.12890625,0.0
1734420635.6101568,-76.66015625,-93.75,0.0,-19.04296875,0.0
1734420635.6140714,237.79296875,-95.21484375,-9.27734375,-8.7890625,0.0
1734420635.617977,252.44140625,-93.75,114.2578125,40.52734375,0.0
1734420635.6218822,-194.3359375,-86.9140625,-69.3359375,99.609375,0.0
1734420635.6257877,-578.61328125,-86.42578125,-434.08203125,84.47265625,0.0
1734420635.6296933,-157.2265625,-99.609375,-391.6015625,-14.16015625,0.0
1734420635.6335986,193.84765625,-110.3515625,-122.0703125,-33.69140625,0.0
1734420635.637504,265.625,-107.91015625,102.05078125,27.34375,0.0
1734420635.6414094,-109.375,-97.65625,-51.7578125,90.8203125,0.0
1734420635.645315,-583.0078125,-105.95703125,-599.609375,77.63671875,0.0
1734420635.6492202,-227.05078125,-114.2578125,-571.2890625,4.8828125,0.0
1734420635.6531258,184.5703125,-102.5390625,27.83203125,-25.87890625,0.0
1734420635.657031,293.9453125,-104.00390625,187.98828125,27.83203125,0.0
1734420635.6609452,-17.08984375,-110.3515625,-0.9765625,88.8671875,0.0
1734420635.6648507,-559.5703125,-110.3515625,-322.265625,79.1015625,0.0
1734420635.668756,-255.859375,-104.00390625,-377.9296875,11.23046875,0.0
1734420635.6726615,213.37890625,-98.6328125,-100.09765625,-27.83203125,0.0
1734420635.6765668,314.94140625,-91.30859375,84.9609375,17.578125,0.0
1734420635.6804724,64.94140625,-84.9609375,0.9765625,79.58984375,0.0
1734420635.6843777,-507.32421875,-88.8671875,-359.375,76.171875,0.0
1734420635.6882832,-335.9375,-86.9140625,-535.64453125,7.32421875,0.0
1734420635.6921885,154.78515625,-80.56640625,-354.4921875,-28.80859375,0.0
1734420635.696094,299.8046875,-77.1484375,70.3125,18.5546875,0.0
1734420635.6999993,117.1875,-78.61328125,174.31640625,72.75390625,0.0
1734420635.7039049,-461.9140625,-90.33203125,-296.38671875,68.359375,0.0
1734420635.7078183,-397.4609375,-97.16796875,-520.5078125,10.7421875,0.0
1734420635.7117238,123.046875,-95.21484375,-92.7734375,-26.3671875,0.0
1734420635.715629,313.4765625,-95.703125,190.4296875,-3.41796875,0.0
1734420635.7195346,192.87109375,-97.65625,86.9140625,67.3828125,0.0
1734420635.72344,-394.53125,-96.19140625,-303.22265625,73.73046875,0.0
1734420635.7273455,-450.1953125,-92.28515625,-578.61328125,21.97265625,0.0
1734420635.7312508,96.6796875,-96.6796875,-296.875,-29.296875,0.0
1734420635.7351563,331.0546875,-99.609375,-186.5234375,-19.04296875,0.0
1734420635.7390616,239.2578125,-96.19140625,-163.57421875,64.94140625,0.0
1734420635.7429671,-318.84765625,-94.7265625,-165.0390625,91.30859375,0.0
1734420635.7468724,-469.23828125,-93.26171875,-494.140625,41.9921875,0.0
1734420635.750778,64.453125,-80.56640625,-337.40234375,-11.23046875,0.0
1734420635.7546904,328.125,-73.73046875,69.3359375,-10.7421875,0.0
1734420635.758596,300.78125,-83.49609375,231.4453125,56.15234375,0.0
1734420635.7625012,-207.51953125,-90.33203125,-128.41796875,96.6796875,0.0
1734420635.7664068,-502.9296875,-90.8203125,-534.66796875,17.578125,0.0
1734420635.770312,-6.8359375,-83.49609375,-295.41015625,-57.6171875,0.0
1734420635.7742176,324.70703125,-84.47265625,8.30078125,-32.71484375,0.0
1734420635.778123,347.16796875,-91.30859375,99.609375,44.43359375,0.0
1734420635.7820284,-113.76953125,-91.30859375,-228.02734375,91.796875,0.0
1734420635.7859337,-524.4140625,-82.51953125,-492.1875,34.66796875,0.0
1734420635.7898393,-79.58984375,-78.125,-297.36328125,-35.64453125,0.0
1734420635.7937446,306.15234375,-83.984375,-32.2265625,-27.83203125,0.0
1734420635.79765,370.60546875,-85.44921875,141.6015625,58.10546875,0.0
1734420635.8015623,-5.37109375,-85.9375,49.31640625,104.98046875,0.0
1734420635.8054676,-471.19140625,-91.796875,-369.62890625,35.15625,0.0
1734420635.8093731,-113.28125,-92.7734375,-412.109375,-21.97265625,0.0
1734420635.8132784,289.0625,-86.9140625,3.41796875,-9.27734375,0.0
1734420635.817184,401.3671875,-76.66015625,242.67578125,42.48046875,0.0
1734420635.8210895,85.44921875,-75.68359375,41.50390625,95.703125,0.0
1734420635.8249948,-463.37890625,-95.703125,-568.84765625,79.58984375,0.0
1734420635.8289003,-189.453125,-97.16796875,-606.4453125,-1.46484375,0.0
1734420635.8328056,287.59765625,-89.84375,29.296875,-30.76171875,0.0
1734420635.8367112,416.50390625,-94.7265625,233.3984375,41.9921875,0.0
1734420635.8406165,176.7578125,-89.84375,105.95703125,123.53515625,0.0
1734420635.844522,-394.53125,-98.14453125,-252.44140625,87.890625,0.0
1734420635.8484337,0.0,-101.07421875,-384.765625,-20.01953125,0.0
1734420635.852339,0.0,-100.5859375,-62.98828125,-42.96875,0.0
1734420635.8562446,0.0,-111.328125,111.81640625,9.765625,0.0
1734420635.8601499,0.0,-109.86328125,130.859375,77.63671875,0.0
1734420635.8640554,0.0,-107.421875,-201.66015625,81.0546875,0.0
1734420635.867961,0.0,-115.72265625,-537.59765625,6.34765625,0.0
1734420635.8718662,0.0,-116.69921875,-324.70703125,-19.04296875,0.0
1734420635.8757718,0.0,-111.81640625,112.3046875,22.4609375,0.0
1734420635.879677,0.0,-121.09375,285.15625,73.73046875,0.0
1734420635.8835826,0.0,-127.9296875,-198.2421875,91.796875,0.0
1734420635.887488,0.0,-121.09375,-550.29296875,30.2734375,0.0
1734420635.8913934,0.0,-115.234375,-103.02734375,-31.73828125,0.0
1734420635.8953042,371.09375,-111.328125,239.74609375,22.4609375,0.0
1734420635.8992097,296.38671875,-118.65234375,143.5546875,116.2109375,0.0
1734420635.903115,-262.6953125,-121.58203125,-182.6171875,128.41796875,0.0
1734420635.9070206,-427.734375,-118.1640625,-438.4765625,62.5,0.0
1734420635.9109259,97.65625,-119.62890625,-160.15625,2.9296875,0.0
1734420635.9148314,366.2109375,-125.0,10.7421875,22.4609375,0.0
1734420635.9187367,331.54296875,-127.44140625,31.25,107.421875,0.0
1734420635.9226422,-202.1484375,-122.0703125,-151.3671875,117.1875,0.0
1734420635.9265475,-481.93359375,-119.140625,-575.1953125,47.36328125,0.0
1734420635.930453,9.27734375,-117.67578125,-401.3671875,-6.8359375,0.0
1734420635.9343584,330.56640625,-115.234375,61.03515625,16.6015625,0.0
1734420635.938264,379.39453125,-110.83984375,282.2265625,106.4453125,0.0
1734420635.9421787,-91.796875,-113.76953125,-84.9609375,119.140625,0.0
1734420635.9460843,-507.32421875,-120.60546875,-529.78515625,36.62109375,0.0
1734420635.9499896,-66.89453125,-116.2109375,-335.9375,-23.4375,0.0
1734420635.953895,323.2421875,-108.3984375,63.4765625,-15.13671875,0.0
1734420635.9578004,387.6953125,-110.83984375,218.75,62.98828125,0.0
1734420635.961706,-28.80859375,-113.28125,-133.7890625,114.2578125,0.0
1734420635.9656112,-520.99609375,-106.4453125,-521.97265625,44.43359375,0.0
1734420635.9695168,-150.390625,-104.4921875,-348.14453125,-27.34375,0.0
1734420635.973422,296.875,-110.3515625,-54.19921875,1.46484375,0.0
1734420635.9773276,400.87890625,-117.1875,66.89453125,74.21875,0.0
1734420635.9812331,25.390625,-116.69921875,36.62109375,104.98046875,0.0
1734420635.9851384,-538.0859375,-120.1171875,-382.32421875,48.828125,0.0
1734420635.9890528,-243.65234375,-124.0234375,-514.16015625,-23.4375,0.0
1734420635.9929583,251.953125,-124.0234375,-118.65234375,-24.90234375,0.0
1734420635.9968636,386.23046875,-121.09375,252.9296875,50.78125,0.0
1734420636.0007691,85.44921875,-120.1171875,120.60546875,116.69921875,0.0
1734420636.0046744,-493.1640625,-121.09375,-433.10546875,80.56640625,0.0
1734420636.00858,-289.55078125,-127.44140625,-587.40234375,-15.13671875,0.0
1734420636.0124853,210.44921875,-136.71875,-206.54296875,-54.19921875,0.0
1734420636.0163908,373.046875,-132.8125,160.64453125,8.30078125,0.0
1734420636.020296,140.625,-125.48828125,-77.1484375,95.703125,0.0
1734420636.0242016,-484.375,-121.58203125,-562.98828125,94.23828125,0.0
1734420636.028107,-390.13671875,-117.1875,-439.453125,9.27734375,0.0
1734420636.0320125,169.43359375,-118.1640625,-119.62890625,-34.66796875,0.0
1734420636.0359263,361.328125,-114.74609375,104.00390625,15.13671875,0.0
1734420636.0398316,193.84765625,-116.69921875,175.78125,87.890625,0.0
1734420636.0437372,-437.01171875,-126.46484375,-148.4375,77.63671875,0.0
1734420636.0476425,-483.88671875,-125.9765625,-511.23046875,6.8359375,0.0
1734420636.051548,91.796875,-122.55859375,-231.4453125,-23.4375,0.0
1734420636.0554533,327.63671875,-121.58203125,80.56640625,18.5546875,0.0
1734420636.0593588,222.16796875,-117.67578125,195.3125,77.1484375,0.0
1734420636.0632641,-375.0,-112.79296875,-206.0546875,85.44921875,0.0
1734420636.0671697,-556.640625,-123.53515625,-699.70703125,21.97265625,0.0
1734420636.071075,10.7421875,-128.90625,-276.85546875,-33.69140625,0.0
1734420636.0749805,328.125,-118.65234375,151.3671875,-5.37109375,0.0
1734420636.0788858,298.828125,-119.140625,151.85546875,69.3359375,0.0
1734420636.082799,-289.55078125,-123.046875,-196.2890625,90.8203125,0.0
1734420636.0867045,-584.9609375,-121.58203125,-481.93359375,10.25390625,0.0
1734420636.0906098,-41.9921875,-118.65234375,-297.36328125,-57.6171875,0.0
1734420636.0945153,308.10546875,-116.69921875,-13.18359375,-29.78515625,0.0
1734420636.0984206,325.68359375,-111.81640625,157.2265625,53.22265625,0.0
1734420636.1023262,-208.0078125,-106.93359375,-114.74609375,86.9140625,0.0
1734420636.1062315,-617.67578125,-106.4453125,-541.50390625,29.296875,0.0
1734420636.110137,-128.90625,-107.91015625,-579.58984375,-23.92578125,0.0
1734420636.1140423,292.96875,-107.91015625,-216.796875,-21.484375,0.0
1734420636.1179478,372.55859375,-104.00390625,304.6875,35.15625,0.0
1734420636.121853,-105.46875,-106.93359375,38.0859375,98.6328125,0.0
1734420636.1257586,-638.18359375,-105.95703125,-481.4453125,50.78125,0.0
1734420636.129671,-211.42578125,-102.5390625,-388.18359375,-48.33984375,0.0
1734420636.1335766,289.0625,-99.609375,41.015625,-62.5,0.0
1734420636.137482,404.78515625,-101.07421875,231.4453125,15.13671875,0.0
1734420636.1413875,-13.671875,-105.46875,16.6015625,94.23828125,0.0
1734420636.1452928,-630.859375,-108.88671875,-418.9453125,48.33984375,0.0
1734420636.1491983,-296.875,-108.88671875,-514.16015625,-27.34375,0.0
1734420636.1531036,272.94921875,-105.46875,-139.16015625,-35.64453125,0.0
1734420636.1570091,439.453125,-113.76953125,26.3671875,32.71484375,0.0
1734420636.1609147,103.515625,-113.76953125,7.8125,114.2578125,0.0
1734420636.16482,-576.171875,-115.72265625,-280.2734375,64.94140625,0.0
1734420636.1687255,-360.83984375,-122.55859375,-563.4765625,-49.31640625,0.0
1734420636.1726308,237.79296875,-115.72265625,-194.82421875,-44.43359375,0.0
1734420636.176543,452.63671875,-108.88671875,269.53125,37.109375,0.0
1734420636.1804485,205.078125,-106.93359375,175.29296875,100.09765625,0.0
1734420636.1843538,-518.06640625,-109.375,-326.171875,88.37890625,0.0
1734420636.1882594,-426.26953125,-111.81640625,-514.16015625,-11.23046875,0.0
1734420636.1921647,226.5625,-107.421875,-123.046875,-50.29296875,0.0
1734420636.1960702,481.93359375,-104.4921875,239.74609375,16.6015625,0.0
1734420636.1999755,276.3671875,-100.09765625,-37.59765625,91.796875,0.0
1734420636.203881,-432.12890625,-94.23828125,-565.91796875,89.35546875,0.0
1734420636.2077863,-472.16796875,-89.84375,-488.28125,-1.953125,0.0
1734420636.2116919,167.48046875,-91.30859375,-144.53125,-37.109375,0.0
1734420636.2155972,471.19140625,-96.19140625,170.41015625,22.94921875,0.0
1734420636.2195027,350.5859375,-96.6796875,249.51171875,94.7265625,0.0
1734420636.223414,-342.7734375,-94.7265625,-136.23046875,87.890625,0.0
1734420636.2273192,-523.4375,-95.703125,-531.73828125,10.7421875,0.0
1734420636.2312248,108.88671875,-99.609375,-264.16015625,-30.76171875,0.0
1734420636.23513,457.03125,-101.07421875,193.84765625,18.06640625,0.0
1734420636.2390356,415.52734375,-96.19140625,288.57421875,85.9375,0.0
1734420636.242941,-252.9296875,-97.16796875,-191.40625,94.7265625,0.0
1734420636.2468464,-587.890625,-101.07421875,-653.3203125,30.2734375,0.0
1734420636.250752,17.578125,-95.21484375,-263.671875,-31.73828125,0.0
1734420636.2546573,436.5234375,-91.796875,222.65625,3.41796875,0.0
1734420636.2585628,464.35546875,-92.28515625,228.02734375,90.33203125,0.0
1734420636.262468,-129.39453125,-100.09765625,-89.35546875,110.3515625,0.0
1734420636.2663736,-602.05078125,-104.4921875,-423.828125,39.0625,0.0
1734420636.2702892,-69.82421875,-96.19140625,-299.31640625,-26.85546875,0.0
1734420636.2741945,413.57421875,-94.7265625,8.30078125,-2.9296875,0.0
1734420636.2781,490.234375,-96.6796875,229.4921875,81.0546875,0.0
1734420636.2820053,-53.22265625,-90.8203125,85.44921875,105.46875,0.0
1734420636.2859108,-639.6484375,-91.796875,-420.8984375,43.9453125,0.0
1734420636.2898161,-182.6171875,-96.6796875,-534.1796875,-24.90234375,0.0
1734420636.2937217,363.76953125,-93.26171875,-149.4140625,-5.859375,0.0
1734420636.297627,500.48828125,-92.7734375,254.39453125,77.1484375,0.0
1734420636.3015325,54.6875,-90.33203125,79.58984375,125.48828125,0.0
1734420636.3054378,-601.07421875,-90.8203125,-445.80078125,69.82421875,0.0
1734420636.3093433,-257.32421875,-90.33203125,-437.01171875,-22.4609375,0.0
1734420636.3132486,329.1015625,-84.47265625,64.453125,-14.16015625,0.0
1734420636.3171637,520.99609375,-82.03125,289.55078125,60.05859375,0.0
1734420636.321069,144.04296875,-80.56640625,105.95703125,106.93359375,0.0
1734420636.3249745,-582.03125,-88.8671875,-312.98828125,69.3359375,0.0
1734420636.3288798,-344.7265625,-90.8203125,-425.78125,-25.87890625,0.0
1734420636.3327854,284.1796875,-92.28515625,-32.2265625,-42.96875,0.0
1734420636.3366907,510.25390625,-96.19140625,220.21484375,33.69140625,0.0
1734420636.3405962,223.14453125,-95.21484375,104.00390625,102.5390625,0.0
1734420636.3445015,-517.578125,-95.21484375,-273.4375,73.73046875,0.0
1734420636.348407,-402.34375,-96.19140625,-517.578125,-7.8125,0.0
1734420636.3523123,251.953125,-96.6796875,-327.63671875,-29.78515625,0.0
1734420636.3562179,517.08984375,-92.7734375,187.01171875,29.78515625,0.0
1734420636.3601232,327.63671875,-91.30859375,325.1953125,102.5390625,0.0
1734420636.3640375,0.0,-91.30859375,-202.1484375,96.19140625,0.0
1734420636.3679428,0.0,-88.37890625,-510.25390625,17.08984375,0.0
1734420636.3718483,0.0,-93.75,-55.6640625,-30.2734375,0.0
1734420636.3757536,0.0,-100.5859375,302.734375,31.73828125,0.0
1734420636.3796592,0.0,-105.95703125,192.87109375,99.609375,0.0
1734420636.3835645,0.0,-111.328125,-255.37109375,74.21875,0.0
1734420636.38747,0.0,-104.4921875,-495.1171875,7.32421875,0.0
1734420636.3913753,0.0,-94.7265625,-198.73046875,-36.1328125,0.0
1734420636.3952808,0.0,-92.28515625,12.20703125,13.671875,0.0
1734420636.3991861,0.0,-92.28515625,170.41015625,111.81640625,0.0
1734420636.4030917,0.0,-89.84375,47.36328125,102.05078125,0.0
1734420636.406997,0.0,-90.8203125,-439.453125,31.73828125,0.0
1734420636.4109113,64.94140625,-93.75,-269.53125,-10.25390625,0.0
1734420636.4148169,485.3515625,-92.28515625,211.42578125,19.53125,0.0
1734420636.4187222,501.953125,-89.35546875,368.65234375,97.16796875,0.0
1734420636.4226277,-120.60546875,-104.98046875,45.41015625,115.234375,0.0
1734420636.426533,-597.65625,-109.375,-461.42578125,35.15625,0.0
1734420636.4304385,-46.875,-100.09765625,-374.51171875,-32.2265625,0.0
1734420636.4343438,450.68359375,-101.07421875,147.94921875,5.37109375,0.0
1734420636.4382493,530.76171875,-101.5625,339.84375,95.703125,0.0
1734420636.4421546,-39.0625,-101.07421875,-99.609375,145.01953125,0.0
1734420636.4460602,-617.67578125,-100.09765625,-439.94140625,70.80078125,0.0
1734420636.4499655,-129.8828125,-103.02734375,-241.69921875,-11.71875,0.0
1734420636.453871,413.0859375,-108.88671875,83.0078125,13.671875,0.0
1734420636.4577842,552.734375,-108.3984375,312.5,97.16796875,0.0
1734420636.4616897,80.078125,-106.4453125,222.65625,141.11328125,0.0
1734420636.465595,-589.84375,-102.05078125,-296.38671875,79.1015625,0.0
1734420636.4695005,-226.5625,-102.5390625,-387.20703125,-30.76171875,0.0
1734420636.4734058,366.2109375,-100.5859375,102.5390625,0.0,0.0
1734420636.4773114,547.36328125,-101.5625,362.3046875,95.21484375,0.0
1734420636.4812167,148.92578125,-103.02734375,174.31640625,128.41796875,0.0
1734420636.4851222,-605.95703125,-106.4453125,-473.14453125,91.796875,0.0
1734420636.4890275,-347.65625,-109.375,-597.16796875,18.5546875,0.0
1734420636.492933,318.84765625,-103.02734375,112.79296875,14.6484375,0.0
1734420636.4968383,556.640625,-99.609375,361.328125,92.7734375,0.0
1734420636.5007439,257.32421875,-103.02734375,241.2109375,140.13671875,0.0
1734420636.5046566,-500.9765625,-105.46875,-158.69140625,90.8203125,0.0
1734420636.5085618,-389.16015625,-106.4453125,-375.9765625,-8.7890625,0.0
1734420636.5124674,270.01953125,-108.88671875,14.16015625,-27.34375,0.0
1734420636.5163727,557.6171875,-107.421875,322.75390625,66.40625,0.0
1734420636.5202782,312.98828125,-107.421875,277.34375,130.37109375,0.0
1734420636.5241835,-462.890625,-105.46875,-208.49609375,112.79296875,0.0
1734420636.528089,-448.73046875,-104.00390625,-522.4609375,22.94921875,0.0
1734420636.5319946,214.35546875,-104.4921875,-274.90234375,-17.08984375,0.0
1734420636.5358999,531.73828125,-101.07421875,237.79296875,60.546875,0.0
1734420636.5398054,399.90234375,-105.95703125,417.96875,125.48828125,0.0
1734420636.5437107,-339.35546875,-113.28125,-142.578125,108.3984375,0.0
1734420636.5476162,-498.046875,-113.76953125,-555.17578125,26.3671875,0.0
1734420636.5515282,186.5234375,-106.4453125,-35.64453125,-20.5078125,0.0
1734420636.5554338,567.3828125,-98.6328125,379.39453125,45.8984375,0.0
1734420636.559339,507.32421875,-104.98046875,299.8046875,135.7421875,0.0
1734420636.5632446,-193.84765625,-112.3046875,5.859375,119.140625,0.0
1734420636.5671499,-510.25390625,-107.91015625,-390.625,46.875,0.0
1734420636.5710554,91.30859375,-111.328125,-155.2734375,4.8828125,0.0
1734420636.5749607,486.81640625,-113.76953125,167.96875,47.8515625,0.0
1734420636.5788662,489.2578125,-107.91015625,185.546875,139.16015625,0.0
1734420636.5827715,-154.78515625,-101.07421875,90.33203125,142.08984375,0.0
1734420636.586677,-597.16796875,-95.21484375,-375.0,52.734375,0.0
1734420636.5905824,-33.203125,-96.6796875,-255.37109375,2.44140625,0.0
1734420636.594488,440.91796875,-100.09765625,274.4140625,50.78125,0.0
1734420636.5983994,500.9765625,-101.5625,465.33203125,125.48828125,0.0
1734420636.6023047,-65.91796875,-105.46875,130.859375,143.06640625,0.0
1734420636.6062102,-618.65234375,-106.4453125,-409.66796875,67.3828125,0.0
1734420636.6101155,-151.85546875,-100.09765625,-202.1484375,-4.39453125,0.0
1734420636.614021,392.578125,-97.65625,267.578125,20.5078125,0.0
1734420636.6179264,526.3671875,-104.4921875,356.93359375,105.95703125,0.0
1734420636.621832,18.06640625,-108.88671875,-6.34765625,156.73828125,0.0
1734420636.6257372,-565.91796875,-103.515625,-375.9765625,82.51953125,0.0
1734420636.6296427,-164.55078125,-104.00390625,-294.921875,4.8828125,0.0
1734420636.633548,346.6796875,-104.00390625,38.57421875,26.3671875,0.0
1734420636.6374536,550.78125,-91.796875,362.3046875,107.91015625,0.0
1734420636.6413589,158.69140625,-91.30859375,270.5078125,148.4375,0.0
1734420636.6452699,0.0,-94.23828125,-236.328125,90.8203125,0.0
1734420636.6491754,0.0,-97.65625,-429.6875,17.578125,0.0
1734420636.6530807,0.0,-94.7265625,67.3828125,20.01953125,0.0
1734420636.6569862,0.0,-90.33203125,421.38671875,101.07421875,0.0
1734420636.6608915,0.0,-103.02734375,259.27734375,146.97265625,0.0
1734420636.664797,0.0,-116.2109375,-351.5625,84.9609375,0.0
1734420636.6687024,0.0,-111.328125,-568.84765625,-8.30078125,0.0
1734420636.672608,0.0,-104.98046875,0.0,-8.7890625,0.0
1734420636.6765132,0.0,-99.12109375,385.25390625,68.359375,0.0
1734420636.6804187,0.0,-97.65625,223.14453125,143.06640625,0.0
1734420636.684324,0.0,-105.46875,-225.09765625,108.3984375,0.0
1734420636.6882296,0.0,-106.93359375,-443.359375,1.953125,0.0
1734420636.6921444,196.2890625,-108.3984375,-67.3828125,-27.83203125,0.0
1734420636.6960497,520.01953125,-104.00390625,318.359375,52.24609375,0.0
1734420636.6999552,351.07421875,-98.14453125,322.75390625,122.55859375,0.0
1734420636.7038605,-434.08203125,-102.05078125,-121.09375,80.56640625,0.0
1734420636.707766,-578.61328125,-104.4921875,-536.62109375,-4.39453125,0.0
1734420636.7116714,108.88671875,-96.6796875,-161.62109375,-30.76171875,0.0
1734420636.715577,499.51171875,-90.33203125,307.12890625,42.96875,0.0
1734420636.7194822,428.7109375,-87.890625,393.06640625,110.3515625,0.0
1734420636.7233877,-334.9609375,-94.7265625,-174.31640625,89.84375,0.0
1734420636.727293,-649.90234375,-108.3984375,-676.7578125,11.71875,0.0
1734420636.7311985,9.27734375,-102.5390625,-93.75,-33.203125,0.0
1734420636.7351038,464.35546875,-94.23828125,368.65234375,28.3203125,0.0
1734420636.7390184,459.47265625,-94.7265625,279.78515625,111.328125,0.0
1734420636.7429237,-234.86328125,-95.21484375,-107.91015625,97.16796875,0.0
1734420636.7468293,-679.19921875,-104.00390625,-500.0,-0.9765625,0.0
1734420636.7507346,-65.91796875,-106.93359375,-291.9921875,-44.921875,0.0
1734420636.75464,465.33203125,-100.5859375,176.7578125,18.06640625,0.0
1734420636.7585454,499.0234375,-101.5625,332.51953125,104.98046875,0.0
1734420636.762451,-159.1796875,-103.02734375,-81.54296875,97.65625,0.0
1734420636.7663562,-712.40234375,-99.609375,-587.890625,-17.08984375,0.0
1734420636.7702618,-171.38671875,-102.05078125,-519.53125,-51.7578125,0.0
1734420636.774167,402.83203125,-104.4921875,2.44140625,38.0859375,0.0
1734420636.7780726,508.30078125,-103.02734375,464.35546875,101.07421875,0.0
1734420636.781978,-63.96484375,-107.91015625,88.8671875,85.9375,0.0
1734420636.7858918,-742.67578125,-114.74609375,-545.8984375,-0.48828125,0.0
1734420636.7897973,-294.43359375,-112.3046875,-357.91015625,-60.546875,0.0
1734420636.7937026,349.12109375,-108.3984375,234.86328125,-19.53125,0.0
1734420636.7976081,519.53125,-115.234375,426.26953125,77.63671875,0.0
1734420636.8015134,29.78515625,-120.1171875,62.5,85.9375,0.0
1734420636.805419,-750.9765625,-121.09375,-543.45703125,-7.32421875,0.0
1734420636.8093243,-435.05859375,-111.81640625,-519.53125,-70.3125,0.0
1734420636.8132298,270.99609375,-104.00390625,39.55078125,-25.390625,0.0
1734420636.817135,512.6953125,-102.05078125,337.40234375,90.33203125,0.0
1734420636.8210406,107.421875,-100.09765625,208.984375,124.51171875,0.0
1734420636.824946,-695.80078125,-103.02734375,-334.9609375,28.3203125,0.0
1734420636.8288515,-485.83984375,-100.5859375,-580.078125,-49.8046875,0.0
1734420636.8327649,232.91015625,-96.6796875,-21.97265625,-33.69140625,0.0
1734420636.8366702,508.7890625,-97.65625,455.56640625,49.31640625,0.0
1734420636.8405757,222.16796875,-99.12109375,286.62109375,104.4921875,0.0
1734420636.844481,-607.421875,-100.09765625,-311.5234375,43.9453125,0.0
1734420636.8483865,-575.1953125,-95.703125,-551.7578125,-41.9921875,0.0
1734420636.8522918,148.92578125,-95.21484375,-70.80078125,-47.8515625,0.0
1734420636.8561974,497.0703125,-95.21484375,369.140625,56.15234375,0.0
1734420636.8601027,305.17578125,-90.33203125,93.75,139.6484375,0.0
1734420636.8640082,-482.91015625,-88.8671875,-464.84375,74.21875,0.0
1734420636.8679135,-590.33203125,-88.8671875,-531.25,-27.83203125,0.0
1734420636.871819,98.14453125,-91.30859375,-83.49609375,-49.31640625,0.0
1734420636.8757243,490.72265625,-89.35546875,365.72265625,29.78515625,0.0
1734420636.8796375,392.578125,-85.44921875,384.765625,121.09375,0.0
1734420636.8835428,-382.32421875,-85.44921875,-62.5,82.03125,0.0
1734420636.8874483,-681.640625,-93.75,-516.6015625,-13.671875,0.0
1734420636.8913536,20.5078125,-92.7734375,-61.5234375,-33.203125,0.0
1734420636.8952591,501.953125,-83.0078125,391.11328125,31.73828125,0.0
1734420636.8991644,466.30859375,-82.03125,364.74609375,130.859375,0.0
1734420636.90307,-270.5078125,-84.9609375,-109.375,129.39453125,0.0
1734420636.9069755,-730.46875,-83.984375,-632.32421875,24.90234375,0.0
1734420636.9108808,-104.4921875,-76.171875,-113.28125,-18.5546875,0.0
1734420636.9147863,471.19140625,-77.1484375,409.1796875,29.296875,0.0
1734420636.9186916,556.15234375,-71.2890625,360.83984375,97.16796875,0.0
1734420636.9225972,-107.421875,-63.96484375,41.50390625,107.421875,0.0
1734420636.9265096,-711.9140625,-73.2421875,0.0,4.39453125,0.0
1734420636.930415,-164.55078125,-77.1484375,0.0,-68.84765625,0.0
1734420636.9343204,448.73046875,-70.3125,0.0,-3.41796875,0.0
1734420636.9382257,564.94140625,-66.40625,0.0,100.5859375,0.0
1734420636.9421313,-50.78125,-74.70703125,0.0,94.23828125,0.0
1734420636.9460366,-742.1875,-82.03125,0.0,2.44140625,0.0
1734420636.949942,-278.80859375,-80.078125,0.0,-62.98828125,0.0
1734420636.9538474,373.53515625,-73.2421875,0.0,-21.97265625,0.0
1734420636.957753,558.59375,-65.4296875,0.0,77.63671875,0.0
1734420636.9616582,72.75390625,-76.66015625,0.0,97.16796875,0.0
1734420636.9655638,-703.125,-89.84375,0.0,-5.37109375,0.0
1734420636.9694693,-393.5546875,-82.51953125,0.0,-88.8671875,0.0
1734420636.973381,299.31640625,-72.75390625,298.33984375,-62.98828125,0.0
1734420636.9772866,549.31640625,-71.77734375,439.94140625,36.1328125,0.0
1734420636.9811919,157.2265625,-73.2421875,250.0,83.984375,0.0
1734420636.9850974,-669.921875,-71.2890625,-231.93359375,14.16015625,0.0
1734420636.9890027,-469.23828125,-74.21875,-420.41015625,-70.3125,0.0
1734420636.9929082,284.66796875,-77.63671875,105.95703125,-69.3359375,0.0
1734420636.9968135,572.265625,-75.1953125,345.21484375,19.04296875,0.0
1734420637.000719,255.37109375,-72.265625,288.57421875,93.26171875,0.0
1734420637.0046244,-587.40234375,-78.61328125,-122.55859375,25.87890625,0.0
1734420637.00853,-549.31640625,-86.42578125,-487.79296875,-87.890625,0.0
1734420637.0124354,181.640625,-79.1015625,-11.71875,-66.89453125,0.0
1734420637.0163407,535.15625,-69.3359375,456.54296875,19.53125,0.0
1734420637.0202518,344.7265625,-66.89453125,390.13671875,52.734375,0.0
1734420637.0241573,-511.23046875,-69.82421875,-177.24609375,33.69140625,0.0
1734420637.0280626,-609.86328125,-69.82421875,-495.1171875,-65.91796875,0.0
1734420637.031968,130.859375,-72.75390625,83.49609375,-89.35546875,0.0
1734420637.0358734,515.625,-81.0546875,459.47265625,11.71875,0.0
1734420637.039779,413.57421875,-80.078125,213.8671875,84.9609375,0.0
1734420637.0436842,-401.3671875,-75.68359375,-317.87109375,58.59375,0.0
1734420637.0475898,-682.6171875,-69.3359375,-531.73828125,-46.875,0.0
1734420637.051495,31.25,-72.75390625,-66.89453125,-96.19140625,0.0
1734420637.0554006,497.0703125,-77.1484375,314.453125,-18.5546875,0.0
1734420637.059306,453.125,-78.61328125,387.20703125,55.6640625,0.0
1734420637.0632114,-298.33984375,-79.58984375,39.0625,24.4140625,0.0
1734420637.0671265,-724.609375,-80.078125,-525.390625,-62.5,0.0
1734420637.0710318,-52.734375,-82.51953125,-145.99609375,-90.33203125,0.0
1734420637.0749373,484.375,-83.984375,361.81640625,-53.22265625,0.0
1734420637.0788426,509.765625,-87.40234375,427.24609375,22.94921875,0.0
1734420637.0827482,-198.73046875,-96.19140625,-6.8359375,24.90234375,0.0
1734420637.0866535,-813.4765625,-103.02734375,-630.37109375,-84.9609375,0.0
1734420637.090559,-246.09375,-97.16796875,-297.8515625,-123.53515625,0.0
1734420637.0944643,378.41796875,-91.30859375,295.41015625,-62.5,0.0
1734420637.0983698,505.859375,-89.35546875,372.0703125,21.484375,0.0
1734420637.1022751,-111.328125,-95.21484375,-83.984375,35.64453125,0.0
1734420637.1061807,-834.47265625,-96.19140625,-580.56640625,-83.984375,0.0
1734420637.110086,-352.5390625,-91.30859375,-372.55859375,-177.24609375,0.0
1734420637.1140008,291.9921875,-93.26171875,101.5625,-136.71875,0.0
1734420637.117906,453.61328125,-91.30859375,336.42578125,-55.17578125,0.0
1734420637.1218116,-56.640625,-84.47265625,123.53515625,-62.98828125,0.0
1734420637.125717,-838.8671875,-82.51953125,-475.5859375,-162.109375,0.0
1734420637.1296225,-501.46484375,-80.078125,-518.06640625,-227.05078125,0.0
1734420637.1335278,180.6640625,-77.1484375,-31.73828125,-189.94140625,0.0
1734420637.1374333,408.203125,-74.70703125,310.05859375,-101.5625,0.0
1734420637.1413386,-20.99609375,-73.2421875,95.21484375,-87.40234375,0.0
1734420637.1452441,-850.09765625,-73.2421875,-631.8359375,-160.15625,0.0
1734420637.1491494,-639.6484375,-70.3125,-687.01171875,-261.71875,0.0
1734420637.153055,111.81640625,-63.4765625,81.0546875,-254.39453125,0.0
1734420637.1569602,409.66796875,-69.82421875,359.375,-139.6484375,0.0
1734420637.1608744,76.171875,-82.03125,150.87890625,-77.63671875,0.0
1734420637.16478,-740.234375,-81.54296875,-415.0390625,-128.90625,0.0
1734420637.1686852,-658.203125,-84.47265625,-627.44140625,-198.2421875,0.0
1734420637.1725907,81.0546875,-93.75,-67.3828125,-179.19921875,0.0
1734420637.176496,450.68359375,-91.30859375,292.48046875,-72.265625,0.0
1734420637.1804016,239.2578125,-95.703125,144.04296875,-2.9296875,0.0
1734420637.1843069,-584.9609375,-101.07421875,-355.95703125,-55.6640625,0.0
1734420637.1882124,-654.296875,-94.23828125,-618.65234375,-137.20703125,0.0
1734420637.1921177,90.8203125,-85.44921875,-312.98828125,-126.46484375,0.0
1734420637.1960232,521.97265625,-73.73046875,251.46484375,-16.11328125,0.0
1734420637.1999285,423.33984375,-76.66015625,371.09375,62.98828125,0.0
1734420637.203834,-403.3203125,-92.7734375,-272.94921875,8.30078125,0.0
1734420637.2077472,-657.2265625,-97.16796875,-691.89453125,-68.84765625,0.0
1734420637.2116525,75.1953125,-95.21484375,-103.02734375,-78.125,0.0
1734420637.215558,539.0625,-93.26171875,359.86328125,12.20703125,0.0
1734420637.2194633,516.11328125,-95.21484375,249.0234375,114.74609375,0.0
1734420637.223369,-230.46875,-98.6328125,-229.98046875,82.03125,0.0
1734420637.2272744,-626.46484375,-98.14453125,-645.01953125,-18.5546875,0.0
1734420637.2311797,30.76171875,-96.19140625,-322.75390625,-66.40625,0.0
1734420637.2350852,540.0390625,-96.19140625,35.15625,19.04296875,0.0
1734420637.2389905,583.0078125,-93.26171875,192.3828125,132.8125,0.0
1734420637.242896,-106.93359375,-86.42578125,-11.71875,102.5390625,0.0
1734420637.2468014,-671.38671875,-90.8203125,-579.58984375,-2.44140625,0.0
1734420637.250707,-89.84375,-95.703125,-384.27734375,-33.203125,0.0
1734420637.2546194,505.859375,-91.796875,213.8671875,39.0625,0.0
1734420637.258525,627.9296875,-90.33203125,437.5,147.4609375,0.0
1734420637.2624302,31.25,-96.19140625,-15.13671875,151.85546875,0.0
1734420637.2663357,-646.97265625,-107.91015625,-601.5625,15.13671875,0.0
1734420637.270241,-172.8515625,-105.46875,-384.27734375,-60.546875,0.0
1734420637.2741466,465.33203125,-98.14453125,146.484375,16.11328125,0.0
1734420637.2780519,629.8828125,-94.23828125,351.07421875,123.53515625,0.0
1734420637.2819574,105.46875,-93.26171875,-91.796875,159.66796875,0.0
1734420637.2858627,-633.7890625,-99.609375,-602.5390625,62.01171875,0.0
1734420637.2897682,-257.8125,-99.609375,-413.57421875,-9.27734375,0.0
1734420637.2936738,432.6171875,-93.75,73.2421875,50.78125,0.0
1734420637.297579,668.45703125,-88.8671875,346.19140625,133.7890625,0.0
1734420637.3014913,244.140625,-91.30859375,174.31640625,146.97265625,0.0
1734420637.3053966,-579.58984375,-94.23828125,-438.4765625,63.4765625,0.0
1734420637.309302,-349.609375,-98.14453125,-534.1796875,-10.7421875,0.0
1734420637.3132074,375.0,-100.09765625,77.63671875,16.11328125,0.0
1734420637.317113,649.4140625,-93.26171875,410.64453125,107.91015625,0.0
1734420637.3210182,303.7109375,-90.33203125,148.4375,153.3203125,0.0
1734420637.3249238,-541.50390625,-99.609375,-566.40625,77.63671875,0.0
1734420637.328829,-431.15234375,-97.65625,-700.1953125,17.08984375,0.0
1734420637.3327346,323.73046875,-83.984375,74.70703125,32.2265625,0.0
1734420637.33664,645.01953125,-81.0546875,396.484375,86.42578125,0.0
1734420637.3405454,418.9453125,-78.61328125,231.93359375,150.390625,0.0
1734420637.3444507,-414.0625,-80.078125,-338.8671875,107.91015625,0.0
1734420637.3483622,-475.09765625,-78.61328125,-604.00390625,10.7421875,0.0
