timestamps,TP9,AF7,AF8,TP10,Right AUX
1734589872.7154791,-841.30859375,-798.828125,-845.703125,-942.3828125,0.0
1734589872.7193851,297.8515625,151.85546875,480.46875,960.44921875,0.0
1734589872.7232912,-917.96875,-1000.0,-935.546875,-311.03515625,0.0
1734589872.7271972,-609.375,-575.68359375,-597.16796875,-1000.0,0.0
1734589872.7311032,656.25,644.04296875,661.62109375,-100.5859375,0.0
1734589872.735009,-884.765625,-866.2109375,-927.734375,958.984375,0.0
1734589872.738915,635.7421875,567.87109375,644.53125,-957.51953125,0.0
1734589872.742821,-854.00390625,-923.33984375,-850.5859375,0.9765625,0.0
1734589872.746727,-940.91796875,-970.21484375,-968.75,-1000.0,0.0
1734589872.750633,556.640625,491.69921875,489.74609375,-633.30078125,0.0
1734589872.754539,-849.609375,-848.6328125,-883.7890625,744.140625,0.0
1734589872.7582896,693.84765625,717.7734375,687.98828125,-857.421875,0.0
1734589872.7621956,-758.30078125,-718.26171875,-716.796875,348.6328125,0.0
1734589872.7661016,-1000.0,-1000.0,-1000.0,-1000.0,0.0
1734589872.7700076,410.64453125,363.76953125,268.06640625,-755.859375,0.0
1734589872.7739136,-900.87890625,-870.1171875,-902.34375,693.359375,0.0
1734589872.7778196,918.9453125,834.9609375,796.875,-860.3515625,0.0
1734589872.7817256,-389.6484375,-506.34765625,-548.33984375,621.58203125,0.0
1734589872.7856317,-1000.0,-1000.0,-1000.0,-876.46484375,0.0
1734589872.7895377,227.05078125,62.01171875,19.04296875,-942.3828125,0.0
1734589872.7934437,-902.34375,-891.6015625,-944.3359375,564.453125,0.0
1734589872.7973495,923.33984375,830.078125,839.35546875,-870.60546875,0.0
1734589872.8012555,-253.41796875,-497.55859375,-500.0,770.99609375,0.0
1734589872.8049724,-1000.0,-1000.0,-1000.0,-728.02734375,0.0
1734589872.8088784,-174.31640625,-307.12890625,-232.421875,-978.515625,0.0
1734589872.8127844,-991.69921875,-990.72265625,974.12109375,581.0546875,0.0
1734589872.8166904,912.59765625,855.46875,880.859375,-891.11328125,0.0
1734589872.8205965,-50.78125,-520.01953125,-475.5859375,843.26171875,0.0
1734589872.8245025,-1000.0,-1000.0,-1000.0,-635.25390625,0.0
1734589872.8284085,-594.7265625,-577.1484375,-486.81640625,-994.140625,0.0
1734589872.8323145,857.421875,846.19140625,856.4453125,583.49609375,0.0
1734589872.8362205,-987.79296875,-997.0703125,967.7734375,-885.25390625,0.0
1734589872.8401265,179.6875,-245.1171875,-400.390625,828.61328125,0.0
1734589872.8440323,-998.046875,-1000.0,-1000.0,-598.6328125,0.0
1734589872.8479383,-793.45703125,-764.16015625,-750.0,-1000.0,0.0
1734589872.851569,740.72265625,686.03515625,556.15234375,408.203125,0.0
1734589872.855475,-932.6171875,-894.04296875,-889.6484375,-878.41796875,0.0
1734589872.859381,118.1640625,-179.19921875,113.28125,864.74609375,0.0
1734589872.863287,-956.0546875,-1000.0,-1000.0,-492.1875,0.0
1734589872.867193,-900.87890625,-843.26171875,-838.37890625,-1000.0,0.0
1734589872.871099,552.24609375,517.08984375,517.578125,226.5625,0.0
1734589872.875005,-869.62890625,-817.3828125,-857.91015625,-902.34375,0.0
1734589872.878911,374.0234375,184.5703125,483.3984375,926.7578125,0.0
1734589872.882817,-850.09765625,-1000.0,-932.12890625,-274.90234375,0.0
1734589872.886723,-913.0859375,-869.62890625,-922.8515625,-1000.0,0.0
1734589872.8906288,536.1328125,520.5078125,517.578125,-353.515625,0.0
1734589872.8945348,-833.49609375,-815.4296875,-868.65234375,908.203125,0.0
1734589872.898752,612.3046875,549.31640625,614.2578125,-937.01171875,0.0
1734589872.902658,-846.19140625,-929.19921875,-854.00390625,-62.01171875,0.0
1734589872.906564,-941.40625,-927.24609375,-958.49609375,-1000.0,0.0
1734589872.91047,555.17578125,555.17578125,509.765625,-543.9453125,0.0
1734589872.914376,-844.23828125,-849.12109375,-880.37109375,803.7109375,0.0
1734589872.918282,668.45703125,689.453125,678.7109375,-874.51171875,0.0
1734589872.922188,-782.2265625,-763.18359375,-742.67578125,362.3046875,0.0
1734589872.926094,-1000.0,-1000.0,-1000.0,-1000.0,0.0
1734589872.93,408.69140625,414.0625,309.08203125,-680.6640625,0.0
1734589872.933906,-903.80859375,-908.203125,-899.90234375,761.23046875,0.0
1734589872.937812,926.7578125,935.546875,791.9921875,-849.609375,0.0
1734589872.9417179,-405.76171875,-351.07421875,-574.21875,566.89453125,0.0
1734589872.9451654,-1000.0,-1000.0,-1000.0,-981.93359375,0.0
1734589872.9490714,333.49609375,247.0703125,144.53125,-250.48828125,0.0
1734589872.9529774,-918.9453125,-895.99609375,-912.109375,-998.53515625,0.0
1734589872.9568834,974.12109375,899.4140625,826.171875,-983.88671875,0.0
1734589872.9607892,-160.15625,-213.8671875,-495.60546875,755.859375,0.0
1734589872.9646952,-1000.0,-1000.0,-1000.0,-803.22265625,0.0
1734589872.9686012,-174.31640625,-218.26171875,-164.55078125,-964.35546875,0.0
1734589872.9725072,-989.2578125,-934.08203125,-990.72265625,577.63671875,0.0
1734589872.9764132,912.59765625,833.984375,863.76953125,-891.11328125,0.0
1734589872.9803193,-50.78125,-533.69140625,-473.14453125,843.26171875,0.0
1734589872.9842253,-1000.0,-1000.0,-1000.0,-635.25390625,0.0
1734589872.9881313,-612.3046875,-569.82421875,-551.7578125,-994.140625,0.0
1734589872.9921715,888.671875,867.67578125,827.1484375,583.49609375,0.0
1734589872.9960775,954.58984375,987.3046875,967.28515625,-882.8125,0.0
1734589872.9999835,-101.07421875,-433.10546875,-431.640625,820.80078125,0.0
1734589873.0038896,-1000.0,-1000.0,-1000.0,-581.0546875,0.0
1734589873.0077956,-779.296875,-737.3046875,-798.828125,-1000.0,0.0
1734589873.0117016,745.1171875,678.22265625,548.828125,305.17578125,0.0
1734589873.0156076,-947.75390625,-891.6015625,-893.06640625,-856.4453125,0.0
1734589873.0195136,-227.05078125,-264.16015625,-99.12109375,808.59375,0.0
1734589873.0234196,-1000.0,-1000.0,-1000.0,-559.08203125,0.0
1734589873.0273256,-860.3515625,-832.03125,-812.5,-1000.0,0.0
1734589873.0312316,545.41015625,520.01953125,493.1640625,68.359375,0.0
1734589873.0351377,-883.30078125,-834.9609375,-850.5859375,-927.24609375,0.0
1734589873.0391538,188.96484375,197.265625,484.86328125,931.640625,0.0
1734589873.0430598,-894.53125,-1000.0,-932.12890625,-353.515625,0.0
1734589873.0469658,-889.6484375,-877.44140625,-927.734375,-1000.0,0.0
1734589873.0508718,524.90234375,521.484375,519.04296875,-166.9921875,0.0
1734589873.0547779,-833.49609375,-816.89453125,-858.88671875,985.83984375,0.0
1734589873.0586839,604.00390625,540.52734375,618.65234375,-985.3515625,0.0
1734589873.06259,-838.37890625,-922.8515625,-849.12109375,-172.8515625,0.0
1734589873.0664957,-940.91796875,-926.26953125,-979.00390625,-1000.0,0.0
1734589873.0704017,551.7578125,552.734375,485.83984375,-537.109375,0.0
1734589873.0743077,-833.0078125,-844.7265625,-868.65234375,805.6640625,0.0
1734589873.0782137,617.1875,672.8515625,657.2265625,-877.9296875,0.0
1734589873.0821197,-829.1015625,-778.3203125,-740.234375,191.89453125,0.0
1734589873.0859783,-1000.0,-1000.0,-1000.0,-1000.0,0.0
1734589873.0898843,399.4140625,397.4609375,193.84765625,-730.95703125,0.0
1734589873.0937903,-882.8125,-869.62890625,-894.04296875,679.19921875,0.0
1734589873.0976963,855.46875,828.125,781.25,-845.703125,0.0
1734589873.1016023,-472.65625,-539.0625,-604.00390625,555.17578125,0.0
1734589873.1055083,-1000.0,-1000.0,-1000.0,-927.24609375,0.0
1734589873.1094143,225.09765625,208.49609375,98.14453125,-927.24609375,0.0
1734589873.1133204,-903.80859375,-862.3046875,-914.55078125,555.17578125,0.0
1734589873.1172264,923.33984375,817.3828125,825.1953125,-854.00390625,0.0
1734589873.1211321,-253.90625,-497.0703125,-518.5546875,708.984375,0.0
1734589873.1250381,-1000.0,-1000.0,-1000.0,-794.921875,0.0
1734589873.1289442,-174.31640625,-191.40625,-204.58984375,-964.35546875,0.0
1734589873.1334803,-991.69921875,-957.03125,997.55859375,577.63671875,0.0
1734589873.1373863,912.59765625,845.21484375,875.0,-891.6015625,0.0
1734589873.1412923,-50.78125,-454.58984375,-478.515625,843.26171875,0.0
1734589873.1451983,-1000.0,-1000.0,-1000.0,-635.25390625,0.0
1734589873.1491044,-600.09765625,-581.0546875,-617.1875,-994.140625,0.0
1734589873.1530104,872.55859375,860.3515625,774.4140625,583.49609375,0.0
1734589873.1569164,968.26171875,990.234375,990.72265625,-885.7421875,0.0
1734589873.1608224,117.1875,-301.26953125,-430.6640625,828.61328125,0.0
1734589873.1647284,-981.93359375,-1000.0,-1000.0,-598.6328125,0.0
1734589873.1686344,-803.22265625,-736.328125,-810.05859375,-1000.0,0.0
1734589873.1725404,752.9296875,717.28515625,552.734375,401.85546875,0.0
1734589873.1764462,-955.56640625,-907.2265625,-890.625,-861.81640625,0.0
1734589873.1801577,-37.109375,-284.66796875,-137.6953125,814.453125,0.0
1734589873.1840637,-1000.0,-1000.0,-1000.0,-570.3125,0.0
1734589873.1879697,-898.4375,-836.9140625,-842.7734375,-1000.0,0.0
1734589873.1918757,566.40625,525.390625,493.1640625,226.5625,0.0
1734589873.1957817,-890.625,-833.0078125,-836.42578125,-894.53125,0.0
1734589873.1996875,93.75,56.640625,376.953125,805.17578125,0.0
1734589873.2035935,-924.8046875,-1000.0,-970.703125,-395.5078125,0.0
1734589873.2074995,-881.34765625,-855.95703125,-911.1328125,-1000.0,0.0
1734589873.2114055,522.94921875,512.6953125,508.7890625,-173.828125,0.0
1734589873.2153115,-823.2421875,-810.05859375,-850.09765625,987.3046875,0.0
1734589873.2192175,422.36328125,474.609375,612.79296875,-977.05078125,0.0
1734589873.2231236,-929.6875,-960.9375,-862.3046875,-181.15234375,0.0
1734589873.2267544,-908.203125,-914.55078125,-963.8671875,-1000.0,0.0
1734589873.2306604,538.0859375,547.8515625,511.71875,-348.14453125,0.0
1734589873.2345665,-831.54296875,-842.7734375,-865.234375,888.671875,0.0
1734589873.2384725,625.0,666.50390625,667.48046875,-910.64453125,0.0
1734589873.2423785,-847.16796875,-790.52734375,-754.39453125,210.44921875,0.0
1734589873.2462845,-1000.0,-1000.0,-1000.0,-1000.0,0.0
1734589873.2501905,492.1875,419.43359375,292.96875,-654.296875,0.0
1734589873.2540965,-892.578125,-870.1171875,-879.8828125,750.0,0.0
1734589873.2580025,861.328125,822.75390625,766.6015625,-864.2578125,0.0
1734589873.2619085,-485.3515625,-551.26953125,-613.76953125,566.40625,0.0
1734589873.2658145,-1000.0,-1000.0,-1000.0,-945.80078125,0.0
1734589873.2697206,324.70703125,238.28125,117.1875,-863.76953125,0.0
1734589873.2732687,-904.296875,-864.74609375,-907.71484375,638.18359375,0.0
1734589873.2771747,929.19921875,825.1953125,827.63671875,-868.1640625,0.0
1734589873.2810807,-265.13671875,-486.81640625,-521.484375,710.9375,0.0
1734589873.2849867,-1000.0,-1000.0,-1000.0,-793.45703125,0.0
1734589873.2888927,32.2265625,-127.9296875,-167.96875,-964.35546875,0.0
1734589873.2927988,-953.61328125,-954.1015625,-986.81640625,577.63671875,0.0
1734589873.2967048,933.10546875,857.91015625,873.53515625,-891.11328125,0.0
1734589873.3006108,41.9921875,-332.51953125,-479.4921875,843.26171875,0.0
1734589873.3045166,-1000.0,-1000.0,-1000.0,-635.25390625,0.0
1734589873.3084226,-403.80859375,-541.015625,-482.421875,-994.140625,0.0
1734589873.3123286,943.359375,897.4609375,875.9765625,583.0078125,0.0
1734589873.3162346,959.47265625,966.796875,960.44921875,-886.23046875,0.0
1734589873.3197193,0.0,-288.57421875,-432.12890625,830.078125,0.0
1734589873.3236253,0.0,-1000.0,-1000.0,-602.5390625,0.0
1734589873.3275313,0.0,-732.91015625,-786.1328125,-1000.0,0.0
1734589873.3314373,0.0,729.00390625,579.58984375,421.38671875,0.0
1734589873.3353434,0.0,-915.52734375,-897.94921875,-863.28125,0.0
1734589873.3392494,0.0,-285.15625,-149.4140625,813.96484375,0.0
1734589873.3431554,0.0,-1000.0,-1000.0,-569.82421875,0.0
1734589873.3470614,0.0,-837.890625,-840.33203125,-1000.0,0.0
1734589873.3509674,0.0,522.4609375,485.83984375,220.21484375,0.0
1734589873.3548734,0.0,-827.1484375,-829.58984375,-892.578125,0.0
1734589873.3587794,0.0,33.203125,413.0859375,904.78515625,0.0
1734589873.3626854,0.0,-1000.0,-968.75,-361.328125,0.0
1734589873.3674586,-885.25390625,-853.515625,-918.9453125,-1000.0,0.0
1734589873.3713646,530.76171875,515.625,501.46484375,-166.015625,0.0
1734589873.3752706,-831.54296875,-811.5234375,-846.6796875,984.86328125,0.0
1734589873.3791766,438.96484375,423.828125,605.46875,-985.3515625,0.0
1734589873.3830824,-911.62109375,-981.4453125,-867.67578125,-172.8515625,0.0
1734589873.3869884,-912.109375,-905.76171875,-971.6796875,-1000.0,0.0
1734589873.3908944,539.0625,542.96875,491.69921875,-537.109375,0.0
1734589873.3948004,-831.54296875,-838.37890625,-856.93359375,805.6640625,0.0
1734589873.3987064,624.51171875,651.3671875,656.25,-877.9296875,0.0
1734589873.4026124,-847.16796875,-801.7578125,-753.41796875,195.80078125,0.0
1734589873.4065185,-1000.0,-1000.0,-1000.0,-1000.0,0.0
1734589873.4104245,484.375,404.296875,215.8203125,-654.296875,0.0
1734589873.4143808,-872.55859375,-856.4453125,-880.859375,750.0,0.0
1734589873.4182868,806.640625,783.203125,761.23046875,-862.79296875,0.0
1734589873.4221928,-565.91796875,-603.515625,-627.9296875,560.05859375,0.0
1734589873.4260988,-1000.0,-1000.0,-1000.0,-927.734375,0.0
1734589873.4300048,246.58203125,207.03125,80.56640625,-927.24609375,0.0
1734589873.4339108,-902.83203125,-862.3046875,-911.1328125,555.17578125,0.0
1734589873.4378166,924.8046875,816.40625,826.171875,-854.00390625,0.0
1734589873.4417226,-294.43359375,-506.34765625,-534.1796875,708.984375,0.0
1734589873.4456286,-1000.0,-1000.0,-1000.0,-794.921875,0.0
1734589873.4495347,-173.33984375,-191.89453125,-217.28515625,-964.35546875,0.0
1734589873.4534407,-992.67578125,-956.0546875,992.1875,577.63671875,0.0
1734589873.4573467,929.19921875,845.703125,880.37109375,-891.6015625,0.0
1734589873.4612396,-173.33984375,-485.83984375,-490.234375,843.26171875,0.0
1734589873.4651456,-1000.0,-1000.0,-1000.0,-635.25390625,0.0
1734589873.4690514,-572.75390625,-575.1953125,-561.03515625,-994.140625,0.0
1734589873.4729574,851.5625,876.953125,822.75390625,583.0078125,0.0
1734589873.4768634,-999.51171875,959.47265625,977.5390625,-888.18359375,0.0
1734589873.4807694,101.5625,-404.296875,-444.82421875,835.9375,0.0
1734589873.4846754,-1000.0,-1000.0,-1000.0,-616.69921875,0.0
1734589873.4885814,-704.58984375,-712.890625,-796.38671875,-1000.0,0.0
1734589873.4924874,807.6171875,727.05078125,586.9140625,495.1171875,0.0
1734589873.4963934,-961.42578125,-927.734375,-901.85546875,-872.0703125,0.0
1734589873.5002995,148.92578125,-205.078125,-228.515625,820.3125,0.0
1734589873.5042055,-977.05078125,-1000.0,-1000.0,-583.49609375,0.0
1734589873.5080497,0.0,-843.75,0.0,-1000.0,0.0
1734589873.5119557,0.0,548.828125,0.0,318.359375,0.0
1734589873.5158617,0.0,-843.75,0.0,-887.20703125,0.0
1734589873.5197678,0.0,63.4765625,0.0,889.16015625,0.0
1734589873.5236738,0.0,-1000.0,0.0,-374.51171875,0.0
1734589873.5275798,0.0,-864.74609375,0.0,-1000.0,0.0
1734589873.5314858,0.0,519.53125,0.0,-166.9921875,0.0
1734589873.5353918,0.0,-809.5703125,0.0,986.81640625,0.0
1734589873.5392978,0.0,362.79296875,0.0,-983.3984375,0.0
1734589873.5432038,0.0,-1000.0,0.0,-199.70703125,0.0
1734589873.5471098,0.0,-895.5078125,0.0,-1000.0,0.0
1734589873.5510156,0.0,537.59765625,0.0,-346.19140625,0.0
1734589873.555472,-831.0546875,-833.49609375,-853.515625,887.6953125,0.0
1734589873.559378,624.51171875,635.25390625,649.90234375,-910.64453125,0.0
1734589873.563284,-847.16796875,-821.77734375,-760.25390625,210.44921875,0.0
1734589873.56719,-1000.0,-1000.0,-1000.0,-1000.0,0.0
1734589873.571096,484.86328125,420.41015625,215.8203125,-655.2734375,0.0
1734589873.575002,-874.51171875,-852.05078125,-876.953125,750.9765625,0.0
1734589873.578908,812.98828125,762.6953125,757.8125,-862.79296875,0.0
1734589873.582814,-578.61328125,-638.18359375,-635.25390625,534.66796875,0.0
1734589873.58672,-1000.0,-1000.0,-1000.0,-938.96484375,0.0
1734589873.590626,322.75390625,222.16796875,75.1953125,-922.8515625,0.0
1734589873.594532,-902.34375,-859.375,-912.109375,552.24609375,0.0
1734589873.598438,928.7109375,809.5703125,829.1015625,-851.07421875,0.0
1734589873.6027431,-312.01171875,-533.69140625,-541.50390625,696.77734375,0.0
1734589873.6066492,-1000.0,-1000.0,-1000.0,-806.640625,0.0
1734589873.6105552,27.34375,-122.0703125,-157.71484375,-961.42578125,0.0
1734589873.6144612,-941.89453125,-937.5,-978.515625,576.66015625,0.0
1734589873.6183672,917.96875,839.84375,871.09375,-891.11328125,0.0
1734589873.6222732,-146.97265625,-493.1640625,-492.67578125,843.26171875,0.0
1734589873.6261792,-1000.0,-1000.0,-1000.0,-635.25390625,0.0
1734589873.6300852,-393.06640625,-473.14453125,-479.00390625,-994.140625,0.0
1734589873.6339912,950.68359375,930.17578125,883.7890625,583.0078125,0.0
1734589873.6378973,945.80078125,933.59375,958.984375,-885.7421875,0.0
1734589873.6418033,-31.73828125,-488.76953125,-448.2421875,828.61328125,0.0
1734589873.6457093,-1000.0,-1000.0,-1000.0,-598.6328125,0.0
1734589873.649266,-686.03515625,-697.265625,-815.4296875,-1000.0,0.0
1734589873.653172,797.36328125,728.515625,575.68359375,401.85546875,0.0
1734589873.657078,-958.984375,-928.7109375,-903.3203125,-864.74609375,0.0
1734589873.660984,148.92578125,-275.390625,-282.2265625,822.265625,0.0
1734589873.66489,-977.05078125,-1000.0,-1000.0,-586.9140625,0.0
1734589873.668796,-854.4921875,-821.2890625,-819.82421875,-1000.0,0.0
1734589873.672702,650.87890625,560.05859375,494.140625,313.4765625,0.0
1734589873.676608,-891.11328125,-833.984375,-822.75390625,-877.44140625,0.0
1734589873.680514,147.94921875,-34.66796875,339.84375,875.48828125,0.0
1734589873.68442,-959.9609375,-1000.0,-1000.0,-456.0546875,0.0
1734589873.6883261,-887.6953125,-845.21484375,-902.34375,-1000.0,0.0
1734589873.6922321,535.15625,513.671875,510.25390625,129.8828125,0.0
1734589873.6956456,-845.21484375,-809.5703125,-834.47265625,-919.43359375,0.0
1734589873.6995516,493.1640625,363.76953125,580.56640625,951.66015625,0.0
1734589873.7034576,-852.5390625,-1000.0,-885.25390625,-205.078125,0.0
1734589873.7073636,-924.8046875,-895.5078125,-962.40234375,-1000.0,0.0
1734589873.7112696,541.015625,536.62109375,494.140625,-539.0625,0.0
1734589873.7151756,-826.171875,-831.54296875,-849.609375,810.546875,0.0
1734589873.7190814,592.7734375,622.55859375,643.06640625,-885.25390625,0.0
1734589873.7229874,-871.58203125,-841.30859375,-775.390625,104.00390625,0.0
1734589873.7268934,-997.0703125,-1000.0,-1000.0,-1000.0,0.0
1734589873.7307994,482.421875,448.2421875,246.58203125,-648.92578125,0.0
1734589873.7347054,-874.0234375,-856.4453125,-872.55859375,750.48828125,0.0
1734589873.7386115,812.5,770.01953125,753.41796875,-858.88671875,0.0
1734589873.7426438,-578.125,-648.4375,-648.4375,393.06640625,0.0
1734589873.7465498,-1000.0,-1000.0,-1000.0,-1000.0,0.0
1734589873.7504559,325.68359375,306.640625,126.46484375,-833.984375,0.0
1734589873.7543619,-909.66796875,-863.28125,-896.97265625,622.55859375,0.0
1734589873.7582679,951.66015625,818.84765625,827.1484375,-856.4453125,0.0
1734589873.762174,-276.3671875,-505.859375,-533.69140625,673.828125,0.0
1734589873.76608,-1000.0,-1000.0,-1000.0,-828.125,0.0
1734589873.769986,27.34375,-88.37890625,-167.96875,-955.078125,0.0
1734589873.773892,-940.91796875,-924.31640625,-986.328125,569.82421875,0.0
1734589873.777798,917.96875,833.0078125,868.1640625,-875.9765625,0.0
1734589873.7817037,-146.97265625,-512.6953125,-507.8125,789.55078125,0.0
1734589873.7856097,-1000.0,-1000.0,-1000.0,-705.56640625,0.0
1734589873.7895255,-383.7890625,-440.4296875,-458.49609375,-982.421875,0.0
1734589873.7934315,935.546875,934.08203125,889.6484375,581.54296875,0.0
1734589873.7973375,966.796875,934.08203125,954.58984375,-888.671875,0.0
1734589873.8012435,115.72265625,-402.34375,-449.21875,836.42578125,0.0
1734589873.8051496,-1000.0,-1000.0,-1000.0,-616.69921875,0.0
1734589873.8090553,-707.51953125,-664.55078125,-768.06640625,-1000.0,0.0
1734589873.8129613,813.96484375,776.3671875,627.44140625,495.1171875,0.0
1734589873.8168674,-978.02734375,-944.82421875,-917.48046875,-870.60546875,0.0
1734589873.8207734,110.83984375,-259.765625,-307.6171875,816.40625,0.0
1734589873.8246794,-972.65625,-1000.0,-1000.0,-575.1953125,0.0
1734589873.8285854,-865.234375,-808.59375,-819.82421875,-1000.0,0.0
1734589873.8324914,671.38671875,588.37890625,491.2109375,263.671875,0.0
1734589873.8370442,-927.734375,-846.19140625,-821.2890625,-879.39453125,0.0
1734589873.8409503,-4.39453125,-47.8515625,318.84765625,873.046875,0.0
1734589873.8448563,-962.890625,-1000.0,-1000.0,-437.5,0.0
1734589873.8487623,-883.7890625,-847.16796875,-904.296875,-1000.0,0.0
1734589873.8526683,537.59765625,515.625,500.9765625,-53.22265625,0.0
1734589873.8565743,-848.6328125,-813.4765625,-830.56640625,-968.75,0.0
1734589873.8604803,297.36328125,346.6796875,568.84765625,972.16796875,0.0
1734589873.8643863,-920.8984375,-1000.0,-897.94921875,-271.97265625,0.0
1734589873.8682923,-895.01953125,-894.04296875,-950.1953125,-1000.0,0.0
1734589873.8721983,524.90234375,534.66796875,510.7421875,-351.07421875,0.0
1734589873.8761044,-812.98828125,-828.125,-845.703125,897.94921875,0.0
1734589873.8800104,541.50390625,606.4453125,644.53125,-924.8046875,0.0
1734589873.8837755,-910.64453125,-861.328125,-784.1796875,39.55078125,0.0
1734589873.8876815,-985.3515625,-998.046875,-1000.0,-1000.0,0.0
1734589873.8915875,473.6328125,475.5859375,276.85546875,-642.578125,0.0
1734589873.8954935,-855.95703125,-851.07421875,-864.74609375,750.48828125,0.0
1734589873.8993995,742.1875,739.74609375,742.67578125,-859.86328125,0.0
1734589873.9033055,-655.2734375,-682.6171875,-664.55078125,308.10546875,0.0
1734589873.9072115,-1000.0,-1000.0,-1000.0,-1000.0,0.0
1734589873.9111176,321.77734375,302.734375,139.16015625,-820.3125,0.0
1734589873.9150236,-910.15625,-857.91015625,-890.625,613.76953125,0.0
1734589873.9189296,951.171875,807.6171875,821.2890625,-840.33203125,0.0
1734589873.9228356,-276.3671875,-549.31640625,-547.8515625,627.9296875,0.0
1734589873.9267414,-1000.0,-1000.0,-1000.0,-862.3046875,0.0
1734589873.9303868,27.34375,5.37109375,-120.1171875,-846.19140625,0.0
1734589873.9342928,-940.91796875,-897.4609375,-963.8671875,600.09765625,0.0
1734589873.9381988,923.33984375,823.2421875,870.60546875,-879.39453125,0.0
1734589873.9421048,-153.3203125,-540.52734375,-520.01953125,777.34375,0.0
1734589873.9460108,-1000.0,-1000.0,-1000.0,-722.65625,0.0
1734589873.9499168,-291.015625,-284.1796875,-247.55859375,-784.1796875,0.0
1734589873.9538229,988.28125,999.51171875,975.5859375,656.73828125,0.0
1734589873.9577289,895.01953125,889.6484375,916.50390625,-922.8515625,0.0
1734589873.9616346,36.1328125,-456.54296875,-438.96484375,852.05078125,0.0
1734589873.9655406,-1000.0,-1000.0,-1000.0,-622.0703125,0.0
1734589873.9694467,-711.9140625,-646.484375,-750.48828125,-1000.0,0.0
1734589873.9733527,821.77734375,789.0625,652.34375,495.1171875,0.0
1734589873.9769633,997.55859375,-956.54296875,-928.22265625,-872.0703125,0.0
1734589873.9808693,62.01171875,-276.85546875,-342.7734375,820.80078125,0.0
1734589873.9847753,-968.26171875,-1000.0,-1000.0,-583.49609375,0.0
1734589873.9886813,-864.2578125,-790.52734375,-812.5,-1000.0,0.0
1734589873.9925873,669.43359375,620.1171875,497.0703125,312.5,0.0
1734589873.9964933,-927.734375,-859.375,-822.265625,-874.51171875,0.0
1734589874.0003994,-4.39453125,-90.33203125,305.6640625,861.81640625,0.0
1734589874.0043054,-962.890625,-1000.0,-1000.0,-465.8203125,0.0
1734589874.0082114,-884.27734375,-845.21484375,-904.296875,-1000.0,0.0
1734589874.0121174,537.109375,515.625,497.55859375,27.34375,0.0
1734589874.0160234,-848.6328125,-812.98828125,-827.1484375,-948.2421875,0.0
1734589874.0199294,297.36328125,289.55078125,548.33984375,965.8203125,0.0
1734589874.0234337,-920.8984375,-1000.0,-915.0390625,-271.97265625,0.0
1734589874.0273397,-895.01953125,-885.25390625,-937.5,-1000.0,0.0
1734589874.0312457,524.90234375,529.78515625,527.34375,-261.71875,0.0
1734589874.0351517,-812.98828125,-822.265625,-843.75,931.640625,0.0
1734589874.0390577,541.9921875,579.58984375,640.13671875,-941.40625,0.0
1734589874.0429637,-910.64453125,-882.32421875,-797.8515625,18.06640625,0.0
1734589874.0468698,-984.86328125,-992.1875,-1000.0,-1000.0,0.0
1734589874.0507758,470.703125,472.16796875,323.2421875,-634.765625,0.0
1734589874.0546818,-848.6328125,-846.19140625,-859.375,743.65234375,0.0
1734589874.0585878,720.703125,723.6328125,733.88671875,-856.4453125,0.0
1734589874.0624938,-688.96484375,-702.63671875,-666.9921875,376.46484375,0.0
1734589874.0663998,-1000.0,-1000.0,-1000.0,-1000.0,0.0
1734589874.0699103,319.3359375,302.734375,111.328125,-831.0546875,0.0
1734589874.0738163,-905.2734375,-860.3515625,-899.4140625,619.62890625,0.0
1734589874.0777223,937.01171875,813.96484375,826.66015625,-847.65625,0.0
1734589874.0816283,-309.08203125,-537.59765625,-556.640625,634.27734375,0.0
1734589874.0855343,-1000.0,-1000.0,-1000.0,-864.2578125,0.0
1734589874.0894403,20.99609375,5.37109375,-60.546875,-945.80078125,0.0
1734589874.093346,-931.15234375,-896.97265625,-941.40625,566.40625,0.0
1734589874.0972521,910.64453125,820.3125,852.05078125,-872.55859375,0.0
1734589874.1011581,-279.296875,-532.71484375,-515.13671875,779.78515625,0.0
1734589874.1050642,-1000.0,-1000.0,-1000.0,-718.26171875,0.0
1734589874.1089702,-197.75390625,-365.234375,-357.91015625,-980.46875,0.0
1734589874.1128762,-978.02734375,980.46875,945.3125,581.0546875,0.0
1734589874.1169834,877.9296875,886.23046875,934.08203125,-889.6484375,0.0
1734589874.1208894,-128.41796875,-512.6953125,-453.125,836.9140625,0.0
1734589874.1247954,-1000.0,-1000.0,-1000.0,-619.62890625,0.0
1734589874.1287014,-687.01171875,-648.4375,-750.9765625,-1000.0,0.0
1734589874.1326075,807.12890625,795.41015625,657.71484375,507.8125,0.0
1734589874.1365135,-985.83984375,-968.75,-931.640625,-874.0234375,0.0
1734589874.1404195,-30.76171875,-386.23046875,-359.375,822.265625,0.0
1734589874.1443255,-1000.0,-1000.0,-1000.0,-586.9140625,0.0
1734589874.1482315,-844.23828125,-779.78515625,-811.03515625,-1000.0,0.0
1734589874.1521375,658.203125,618.1640625,507.8125,331.54296875,0.0
1734589874.1560435,-909.1796875,-861.81640625,-822.75390625,-873.046875,0.0
1734589874.1599493,-75.1953125,-176.26953125,230.95703125,858.88671875,0.0
1734589874.1639357,-1000.0,-1000.0,-1000.0,-509.765625,0.0
1734589874.1678417,-867.67578125,-834.47265625,-888.671875,-1000.0,0.0
1734589874.1717477,534.66796875,512.6953125,502.9296875,227.05078125,0.0
1734589874.1756537,-853.515625,-814.453125,-823.73046875,-904.296875,0.0
1734589874.1795597,318.359375,249.51171875,542.48046875,929.6875,0.0
1734589874.1834657,-901.85546875,-1000.0,-914.55078125,-267.08984375,0.0
1734589874.1873717,-899.4140625,-879.39453125,-941.89453125,-1000.0,0.0
1734589874.1912777,526.3671875,525.87890625,513.671875,-353.515625,0.0
1734589874.1951838,-812.98828125,-816.89453125,-839.35546875,902.34375,0.0
1734589874.1990898,541.9921875,551.7578125,631.8359375,-930.6640625,0.0
1734589874.2029958,-910.64453125,-903.3203125,-800.78125,-13.671875,0.0
1734589874.2069018,-983.3984375,-985.83984375,-1000.0,-1000.0,0.0
1734589874.2108238,466.30859375,468.75,289.0625,-632.8125,0.0
1734589874.2147298,-840.33203125,-840.8203125,-860.3515625,743.1640625,0.0
1734589874.2186358,693.84765625,701.66015625,732.91015625,-857.421875,0.0
1734589874.2225418,-760.7421875,-733.3984375,-684.5703125,357.421875,0.0
1734589874.2264476,-1000.0,-1000.0,-1000.0,-1000.0,0.0
1734589874.2303536,410.64453125,326.171875,159.66796875,-756.8359375,0.0
1734589874.2342596,-898.4375,-858.3984375,-885.25390625,694.3359375,0.0
1734589874.2381656,905.76171875,804.19921875,814.94140625,-861.328125,0.0
1734589874.2420716,-368.65234375,-552.734375,-556.15234375,626.46484375,0.0
1734589874.2459776,-1000.0,-1000.0,-1000.0,-872.55859375,0.0
1734589874.2498837,23.4375,6.8359375,-100.09765625,-943.359375,0.0
1734589874.2537897,-936.5234375,-900.390625,-959.9609375,564.94140625,0.0
1734589874.2576067,922.36328125,825.1953125,853.02734375,-870.1171875,0.0
1734589874.2615128,-287.109375,-515.13671875,-523.4375,770.01953125,0.0
1734589874.2654185,-1000.0,-1000.0,-1000.0,-729.00390625,0.0
1734589874.2693245,-358.3984375,-387.6953125,-403.3203125,-978.02734375,0.0
1734589874.2732306,947.265625,975.5859375,922.36328125,581.0546875,0.0
1734589874.2771366,933.10546875,877.44140625,940.91796875,-891.11328125,0.0
1734589874.2810426,-89.35546875,-502.44140625,-460.44921875,842.7734375,0.0
1734589874.2849486,-1000.0,-1000.0,-1000.0,-635.25390625,0.0
1734589874.2888546,-604.4921875,-638.18359375,-733.88671875,-994.140625,0.0
1734589874.2927606,872.55859375,815.4296875,675.29296875,583.0078125,0.0
1734589874.2966666,995.60546875,-984.86328125,-936.5234375,-885.7421875,0.0
1734589874.3005726,-19.53125,-412.109375,-366.69921875,828.61328125,0.0
1734589874.3056657,-1000.0,-1000.0,-1000.0,-598.6328125,0.0
1734589874.3095717,-772.94921875,-748.046875,-810.05859375,-1000.0,0.0
1734589874.3134778,734.375,659.66796875,517.08984375,405.76171875,0.0
1734589874.3173838,-925.29296875,-877.44140625,-826.171875,-871.09375,0.0
1734589874.3212898,-62.01171875,-232.91015625,178.22265625,841.30859375,0.0
1734589874.3251958,-1000.0,-1000.0,-1000.0,-512.20703125,0.0
1734589874.3291018,-869.62890625,-831.0546875,-882.32421875,-1000.0,0.0
1734589874.3330078,534.1796875,511.71875,499.51171875,142.578125,0.0
1734589874.3369138,-849.609375,-811.5234375,-819.82421875,-915.52734375,0.0
1734589874.3408198,297.8515625,163.57421875,506.34765625,932.6171875,0.0
1734589874.3447256,-920.8984375,-1000.0,-935.546875,-325.1953125,0.0
1734589874.3486316,-895.99609375,-865.234375,-934.5703125,-1000.0,0.0
1734589874.3522296,530.76171875,519.53125,513.18359375,-167.96875,0.0
1734589874.3561356,-833.49609375,-816.40625,-837.40234375,986.81640625,0.0
1734589874.3600416,612.3046875,554.19921875,633.7890625,-986.81640625,0.0
1734589874.3639476,-846.19140625,-905.2734375,-796.875,-175.29296875,0.0
1734589874.3678536,-940.91796875,-977.05078125,-1000.0,-1000.0,0.0
1734589874.3717597,556.640625,481.93359375,275.87890625,-617.1875,0.0
1734589874.3756657,-849.609375,-839.84375,-860.3515625,738.76953125,0.0
1734589874.3795717,693.84765625,689.94140625,732.421875,-857.91015625,0.0
1734589874.3834777,-758.30078125,-750.48828125,-687.98828125,244.140625,0.0
1734589874.3873837,-1000.0,-1000.0,-1000.0,-1000.0,0.0
1734589874.3912895,410.64453125,342.7734375,154.78515625,-739.74609375,0.0
1734589874.3951955,-901.3671875,-860.83984375,-882.8125,684.08203125,0.0
1734589874.3994381,918.9453125,810.05859375,814.453125,-850.09765625,0.0
1734589874.4033442,-389.6484375,-562.98828125,-566.40625,574.21875,0.0
1734589874.4072502,-1000.0,-1000.0,-1000.0,-912.59765625,0.0
1734589874.4111562,221.6796875,105.95703125,-43.45703125,-931.640625,0.0
1734589874.4150622,-890.13671875,-875.0,-934.5703125,557.6171875,0.0
1734589874.4189682,890.625,804.6875,841.796875,-857.421875,0.0
1734589874.4228742,-317.3828125,-540.52734375,-525.87890625,721.19140625,0.0
1734589874.4267802,-1000.0,-1000.0,-1000.0,-782.2265625,0.0
1734589874.4306862,-173.33984375,-337.40234375,-402.83203125,-967.28515625,0.0
1734589874.4345922,-994.140625,995.1171875,919.43359375,578.125,0.0
1734589874.4384983,912.59765625,861.328125,938.4765625,-891.6015625,0.0
1734589874.4424043,-50.78125,-518.5546875,-463.8671875,843.26171875,0.0
1734589874.446529,-1000.0,-1000.0,-1000.0,-635.25390625,0.0
1734589874.450435,-594.7265625,-599.609375,-684.5703125,-994.140625,0.0
1734589874.454341,857.421875,841.796875,719.23828125,583.49609375,0.0
1734589874.458247,-987.79296875,-992.67578125,-947.265625,-882.8125,0.0
1734589874.462153,179.6875,-395.5078125,-365.234375,821.2890625,0.0
1734589874.466059,-998.046875,-1000.0,-1000.0,-582.51953125,0.0
1734589874.469965,-793.45703125,-750.9765625,-813.4765625,-1000.0,0.0
1734589874.473871,741.2109375,660.15625,514.16015625,312.98828125,0.0
1734589874.477777,-932.6171875,-878.41796875,-828.61328125,-858.88671875,0.0
1734589874.481683,118.1640625,-229.00390625,171.875,813.96484375,0.0
1734589874.485589,-955.56640625,-1000.0,-1000.0,-542.48046875,0.0
1734589874.4894948,-903.80859375,-831.54296875,-889.16015625,-1000.0,0.0
1734589874.4941936,556.15234375,512.20703125,486.81640625,35.64453125,0.0
1734589874.4980996,-871.09375,-811.5234375,-814.453125,-938.4765625,0.0
1734589874.5020056,306.15234375,163.57421875,481.4453125,940.91796875,0.0
1734589874.5059116,-877.44140625,-1000.0,-941.89453125,-316.40625,0.0
1734589874.5098176,-902.83203125,-865.234375,-831.54296875,-1000.0,0.0
1734589874.5137236,531.25,519.53125,547.36328125,-312.5,0.0
1734589874.5176296,-832.03125,-815.4296875,-852.5390625,921.875,0.0
1734589874.5215356,610.83984375,548.828125,640.13671875,-944.3359375,0.0
1734589874.5254416,-847.16796875,-927.24609375,-817.87109375,-66.89453125,0.0
1734589874.5293477,-940.91796875,-932.6171875,-1000.0,-1000.0,0.0
1734589874.5332537,554.6875,546.875,356.4453125,-549.8046875,0.0
1734589874.5371597,-841.30859375,-847.65625,-850.09765625,811.5234375,0.0
1734589874.5417597,655.76171875,688.4765625,718.26171875,-878.90625,0.0
1734589874.5456657,-793.45703125,-761.71875,-692.87109375,229.00390625,0.0
1734589874.5495718,-1000.0,-1000.0,-1000.0,-1000.0,0.0
1734589874.5534778,403.3203125,385.25390625,146.484375,-736.81640625,0.0
1734589874.5573838,-887.20703125,-861.328125,-884.27734375,682.12890625,0.0
1734589874.5612898,870.60546875,806.15234375,814.94140625,-846.19140625,0.0
1734589874.5651958,-452.1484375,-580.078125,-571.77734375,555.17578125,0.0
1734589874.5691018,-1000.0,-1000.0,-1000.0,-927.24609375,0.0
1734589874.5730078,225.5859375,197.265625,-13.671875,-927.24609375,0.0
1734589874.5769138,-903.3203125,-863.76953125,-925.78125,555.17578125,0.0
1734589874.5808196,923.33984375,813.4765625,841.30859375,-854.4921875,0.0
1734589874.5847256,-253.41796875,-506.8359375,-524.4140625,708.984375,0.0
1734589874.5885286,0.0,-1000.0,-1000.0,-794.921875,0.0
1734589874.5924344,0.0,-220.21484375,-341.30859375,-964.35546875,0.0
1734589874.5963404,0.0,-959.9609375,950.68359375,577.63671875,0.0
1734589874.6002464,0.0,841.796875,924.31640625,-891.6015625,0.0
1734589874.6041524,0.0,-523.4375,-466.796875,843.26171875,0.0
1734589874.6080585,0.0,-1000.0,-1000.0,-635.25390625,0.0
1734589874.6119645,0.0,-571.2890625,-670.8984375,-994.140625,0.0
1734589874.6158705,0.0,867.67578125,735.83984375,583.49609375,0.0
1734589874.6197765,0.0,989.74609375,-958.49609375,-885.25390625,0.0
1734589874.6236825,0.0,-425.29296875,-387.20703125,828.61328125,0.0
1734589874.6275885,0.0,-1000.0,-1000.0,-598.6328125,0.0
1734589874.6314945,0.0,-703.125,-810.546875,-1000.0,0.0
1734589874.6351812,754.8828125,705.078125,530.2734375,401.85546875,0.0
1734589874.6390872,840.8203125,907.71484375,-919.43359375,-861.81640625,0.0
1734589874.6429932,-84.9609375,-335.44921875,27.34375,814.453125,0.0
1734589874.6468992,-942.3828125,-1000.0,-1000.0,-570.80078125,0.0
1734589874.6508052,-916.015625,-847.65625,-874.51171875,-1000.0,0.0
1734589874.6547112,567.3828125,519.53125,496.58203125,220.21484375,0.0
1734589874.6586173,-885.25390625,-815.91796875,-816.40625,-892.578125,0.0
1734589874.6625233,175.29296875,128.90625,481.93359375,905.2734375,0.0
1734589874.6664293,-904.78515625,-1000.0,-943.359375,-361.328125,0.0
1734589874.6703353,-893.5546875,-862.3046875,-932.12890625,-1000.0,0.0
1734589874.6742413,529.78515625,519.04296875,509.765625,-166.015625,0.0
1734589874.6781473,-826.66015625,-815.4296875,-835.44921875,984.86328125,0.0
1734589874.6817765,426.26953125,519.04296875,629.39453125,-985.3515625,0.0
1734589874.6856825,-925.29296875,-939.94140625,-823.73046875,-172.8515625,0.0
1734589874.6895885,-909.1796875,-922.36328125,-1000.0,-1000.0,0.0
1734589874.6934946,538.57421875,551.26953125,383.7890625,-537.109375,0.0
1734589874.6974006,-829.1015625,-842.7734375,-843.26171875,805.6640625,0.0
1734589874.7013066,617.1875,663.0859375,694.3359375,-877.9296875,0.0
1734589874.7052126,-829.1015625,-787.109375,-720.703125,191.89453125,0.0
1734589874.7091186,-1000.0,-1000.0,-1000.0,-1000.0,0.0
1734589874.7130246,399.4140625,392.08984375,167.48046875,-730.95703125,0.0
1734589874.7169306,-882.32421875,-857.421875,-879.8828125,679.19921875,0.0
1734589874.7208366,854.98046875,792.96875,806.15234375,-845.703125,0.0
1734589874.7247427,-472.65625,-598.14453125,-582.03125,555.17578125,0.0
1734589874.7283149,-1000.0,-1000.0,-1000.0,-927.24609375,0.0
1734589874.732221,222.65625,205.078125,7.32421875,-927.24609375,0.0
1734589874.736127,-898.4375,-855.95703125,-919.43359375,554.6875,0.0
1734589874.740033,912.109375,799.8046875,833.0078125,-852.05078125,0.0
1734589874.743939,-287.109375,-542.96875,-536.1328125,698.73046875,0.0
1734589874.747845,-1000.0,-1000.0,-1000.0,-804.19921875,0.0
1734589874.751751,-184.08203125,-194.82421875,-317.87109375,-961.9140625,0.0
1734589874.755657,-977.05078125,-950.1953125,960.9375,576.66015625,0.0
1734589874.759563,895.99609375,833.984375,907.71484375,-891.6015625,0.0
1734589874.763469,-250.0,-550.29296875,-488.76953125,843.26171875,0.0
1734589874.767375,-1000.0,-1000.0,-1000.0,-635.25390625,0.0
1734589874.771281,-582.51953125,-569.3359375,-679.6875,-994.140625,0.0
1734589874.774778,868.65234375,870.60546875,727.05078125,583.49609375,0.0
1734589874.778684,971.19140625,977.5390625,-968.26171875,-885.25390625,0.0
1734589874.78259,-96.6796875,-450.1953125,-413.57421875,828.61328125,0.0
1734589874.786496,-1000.0,-1000.0,-1000.0,-598.6328125,0.0
1734589874.790402,-767.578125,-714.35546875,-817.87109375,-1000.0,0.0
1734589874.794308,737.79296875,706.0546875,540.52734375,401.85546875,0.0
1734589874.798214,-955.56640625,-903.3203125,-849.609375,-863.28125,0.0
1734589874.80212,-15.13671875,-276.85546875,-54.6875,818.359375,0.0
1734589874.806026,-987.3046875,-1000.0,-1000.0,-579.1015625,0.0
1734589874.8099318,-897.94921875,-834.47265625,-851.5625,-1000.0,0.0
1734589874.8138378,558.10546875,518.5546875,492.1875,270.5078125,0.0
1734589874.8177438,-876.46484375,-820.80078125,-813.4765625,-891.6015625,0.0
1734589874.8211806,144.04296875,63.96484375,436.5234375,901.85546875,0.0
1734589874.8250866,-945.3125,-1000.0,-961.9140625,-358.88671875,0.0
1734589874.8289924,-887.20703125,-854.98046875,-928.22265625,-1000.0,0.0
1734589874.8328984,528.3203125,516.11328125,496.09375,-166.9921875,0.0
1734589874.8368044,-826.66015625,-812.01171875,-830.56640625,986.81640625,0.0
1734589874.8407104,422.36328125,462.890625,610.3515625,-989.74609375,0.0
1734589874.8446164,-929.6875,-967.28515625,-835.9375,-185.546875,0.0
1734589874.8485224,-908.203125,-912.59765625,-1000.0,-1000.0,0.0
1734589874.8524284,538.0859375,546.38671875,351.07421875,-537.109375,0.0
1734589874.8563344,-831.0546875,-838.8671875,-845.703125,806.15234375,0.0
1734589874.8602405,622.55859375,649.4140625,686.03515625,-878.90625,0.0
1734589874.8641465,-842.28515625,-801.7578125,-737.3046875,181.15234375,0.0
1734589874.8681843,-1000.0,-1000.0,-1000.0,-1000.0,0.0
1734589874.8720903,462.40234375,396.97265625,179.19921875,-652.83203125,0.0
1734589874.8759964,-880.859375,-855.46875,-874.51171875,749.51171875,0.0
1734589874.8799024,834.9609375,782.71484375,794.921875,-863.28125,0.0
1734589874.8838084,-506.8359375,-609.375,-595.703125,552.24609375,0.0
1734589874.8877144,-1000.0,-1000.0,-1000.0,-943.84765625,0.0
1734589874.8916204,225.09765625,207.03125,15.625,-887.20703125,0.0
1734589874.8955264,-905.2734375,-861.328125,-917.96875,603.515625,0.0
1734589874.8994324,929.6875,812.01171875,835.9375,-859.86328125,0.0
1734589874.9033384,-261.71875,-515.13671875,-533.203125,696.77734375,0.0
1734589874.9072444,-1000.0,-1000.0,-1000.0,-806.640625,0.0
1734589874.9111505,-183.59375,-195.3125,-303.22265625,-960.9375,0.0
1734589874.9150774,-977.05078125,-950.68359375,964.35546875,575.1953125,0.0
1734589874.9189835,896.97265625,835.9375,903.3203125,-887.20703125,0.0
1734589874.9228895,-244.62890625,-537.59765625,-491.69921875,828.61328125,0.0
1734589874.9267955,-1000.0,-1000.0,-1000.0,-654.296875,0.0
1734589874.9307015,-578.125,-571.2890625,-629.8828125,-990.72265625,0.0
1734589874.9346075,861.81640625,873.53515625,773.92578125,583.0078125,0.0
1734589874.9385135,980.95703125,968.26171875,-985.3515625,-888.18359375,0.0
1734589874.9424195,-18.5546875,-446.2890625,-424.31640625,835.9375,0.0
1734589874.9463255,-1000.0,-1000.0,-1000.0,-616.69921875,0.0
1734589874.9502316,-700.68359375,-711.42578125,-817.87109375,-1000.0,0.0
1734589874.9541376,811.5234375,718.75,555.6640625,495.1171875,0.0
1734589874.9580436,-965.33203125,-914.55078125,-863.28125,-870.60546875,0.0
1734589874.961924,-51.7578125,-307.12890625,-144.53125,816.89453125,0.0
1734589874.96583,-1000.0,-1000.0,-1000.0,-576.171875,0.0
1734589874.969736,-875.9765625,-835.44921875,-844.23828125,-1000.0,0.0
1734589874.973642,567.3828125,521.484375,483.3984375,273.4375,0.0
1734589874.9775481,-869.62890625,-825.1953125,-811.5234375,-889.6484375,0.0
1734589874.9814541,112.3046875,2.9296875,412.59765625,902.34375,0.0
1734589874.9853601,-987.3046875,-1000.0,-976.07421875,-395.5078125,0.0
1734589874.9892662,-879.8828125,-849.609375,-917.48046875,-1000.0,0.0
1734589874.9931722,529.78515625,514.6484375,512.6953125,30.76171875,0.0
1734589874.9970782,-833.49609375,-809.5703125,-827.1484375,-953.61328125,0.0
1734589875.0009842,448.2421875,390.625,596.6796875,972.65625,0.0
1734589875.0048902,-901.3671875,-999.0234375,-844.7265625,-198.73046875,0.0
1734589875.008669,-914.0625,-899.90234375,-1000.0,-1000.0,0.0
1734589875.012575,539.55078125,539.0625,346.6796875,-542.48046875,0.0
1734589875.016481,-831.0546875,-832.03125,-842.7734375,814.94140625,0.0
1734589875.020387,624.51171875,623.53515625,671.875,-889.16015625,0.0
1734589875.024293,-847.16796875,-833.0078125,-749.0234375,61.5234375,0.0
1734589875.028199,-1000.0,-1000.0,-1000.0,-1000.0,0.0
1734589875.032105,484.86328125,418.9453125,160.64453125,-638.671875,0.0
1734589875.0360107,-874.51171875,-849.609375,-873.046875,743.1640625,0.0
1734589875.0399168,812.98828125,756.8359375,788.0859375,-858.88671875,0.0
1734589875.0438228,-578.61328125,-646.97265625,-609.375,490.72265625,0.0
1734589875.0477288,-1000.0,-1000.0,-1000.0,-958.0078125,0.0
1734589875.0516348,323.2421875,215.8203125,15.625,-915.52734375,0.0
1734589875.0553045,-902.83203125,-858.3984375,-919.43359375,545.8984375,0.0
1734589875.0592105,930.6640625,805.17578125,832.51953125,-836.9140625,0.0
1734589875.0631166,-309.08203125,-543.9453125,-546.38671875,632.32421875,0.0
1734589875.0670226,-1000.0,-1000.0,-1000.0,-865.72265625,0.0
1734589875.0709286,22.94921875,-122.0703125,-238.28125,-946.2890625,0.0
1734589875.0748346,-932.12890625,-930.17578125,995.1171875,567.3828125,0.0
1734589875.0787406,895.01953125,827.1484375,888.18359375,-877.44140625,0.0
1734589875.0826466,-200.1953125,-548.33984375,-495.60546875,795.41015625,0.0
1734589875.0865526,-1000.0,-1000.0,-1000.0,-697.75390625,0.0
1734589875.0904586,-389.6484375,-500.9765625,-597.16796875,-983.88671875,0.0
1734589875.0943646,946.2890625,911.62109375,799.8046875,582.03125,0.0
1734589875.0982707,949.70703125,940.4296875,-999.0234375,-888.671875,0.0
1734589875.10191,-7.32421875,-490.72265625,-436.5234375,835.9375,0.0
1734589875.1058161,-1000.0,-1000.0,-1000.0,-616.69921875,0.0
1734589875.1097221,-697.265625,-689.94140625,-820.3125,-1000.0,0.0
1734589875.1136281,808.59375,737.3046875,565.91796875,495.1171875,0.0
1734589875.117534,-964.84375,-926.7578125,-872.55859375,-872.0703125,0.0
1734589875.12144,-7.32421875,-326.66015625,-213.8671875,820.3125,0.0
1734589875.125346,-1000.0,-1000.0,-1000.0,-583.49609375,0.0
1734589875.129252,-830.078125,-815.91796875,-833.984375,-1000.0,0.0
1734589875.133158,639.16015625,549.8046875,482.421875,312.5,0.0
1734589875.137064,-886.23046875,-832.03125,-810.546875,-874.51171875,0.0
1734589875.14097,142.578125,-34.66796875,395.01953125,861.81640625,0.0
1734589875.144876,-964.35546875,-1000.0,-981.4453125,-465.8203125,0.0
1734589875.1490526,-886.23046875,-845.21484375,-918.9453125,-1000.0,0.0
1734589875.1529586,533.69140625,512.6953125,500.0,27.34375,0.0
1734589875.1568646,-840.8203125,-808.59375,-826.171875,-947.265625,0.0
1734589875.1607707,475.09765625,359.375,593.75,954.58984375,0.0
1734589875.1646767,-872.55859375,-1000.0,-860.83984375,-260.25390625,0.0
1734589875.1685827,-920.41015625,-894.53125,-1000.0,-1000.0,0.0
1734589875.1724887,541.015625,536.62109375,402.34375,-491.69921875,0.0
1734589875.1763947,-831.0546875,-830.56640625,-837.890625,839.35546875,0.0
1734589875.1803005,625.0,621.58203125,658.203125,-902.83203125,0.0
1734589875.1842065,-847.16796875,-837.890625,-745.1171875,0.48828125,0.0
1734589875.1881125,-1000.0,-1000.0,-1000.0,-1000.0,0.0
1734589875.1920185,484.86328125,431.640625,97.65625,-634.765625,0.0
1734589875.195518,-874.51171875,-854.98046875,-882.8125,743.65234375,0.0
1734589875.199424,812.5,767.578125,788.57421875,-856.4453125,0.0
1734589875.20333,-578.61328125,-649.90234375,-628.90625,376.46484375,0.0
1734589875.207236,-1000.0,-1000.0,-1000.0,-1000.0,0.0
1734589875.211142,321.77734375,292.48046875,56.15234375,-831.0546875,0.0
1734589875.215048,-898.92578125,-856.93359375,-904.296875,619.62890625,0.0
1734589875.218954,917.48046875,806.15234375,823.2421875,-847.65625,0.0
1734589875.22286,-329.58984375,-554.6875,-556.15234375,634.27734375,0.0
1734589875.226766,-1000.0,-1000.0,-1000.0,-864.2578125,0.0
1734589875.2306721,27.34375,4.39453125,-188.96484375,-945.80078125,0.0
1734589875.2345781,-941.89453125,-895.5078125,-981.4453125,565.91796875,0.0
1734589875.238484,917.48046875,814.453125,874.51171875,-871.58203125,0.0
1734589875.2438693,-148.4375,-543.9453125,-503.90625,774.4140625,0.0
1734589875.2477753,-1000.0,-1000.0,-1000.0,-724.12109375,0.0
1734589875.2516813,-401.85546875,-384.27734375,-516.6015625,-979.00390625,0.0
1734589875.255587,971.6796875,965.33203125,864.74609375,581.0546875,0.0
1734589875.259493,887.6953125,913.0859375,978.515625,-889.16015625,0.0
1734589875.2633991,-151.3671875,-490.234375,-441.40625,835.9375,0.0
1734589875.2673051,-1000.0,-1000.0,-1000.0,-616.69921875,0.0
1734589875.2712111,-686.03515625,-641.11328125,-803.7109375,-1000.0,0.0
1734589875.2751172,801.7578125,783.69140625,594.23828125,495.1171875,0.0
1734589875.2790232,-981.4453125,-940.91796875,-886.23046875,-872.0703125,0.0
1734589875.2829292,95.703125,-324.70703125,-260.25390625,820.3125,0.0
1734589875.2868352,-972.16796875,-1000.0,-1000.0,-583.49609375,0.0
1734589875.2907488,-864.74609375,-774.4140625,-823.73046875,-1000.0,0.0
1734589875.2946548,670.8984375,608.88671875,494.140625,308.59375,0.0
1734589875.2985609,-927.734375,-845.21484375,-810.546875,-864.74609375,0.0
1734589875.3024669,-4.39453125,-61.03515625,345.703125,832.51953125,0.0
1734589875.306373,-962.890625,-1000.0,-1000.0,-511.23046875,0.0
1734589875.310279,-883.7890625,-844.23828125,-910.15625,-1000.0,0.0
1734589875.314185,534.66796875,514.16015625,499.0234375,16.6015625,0.0
1734589875.318091,-838.8671875,-809.5703125,-821.77734375,-922.8515625,0.0
1734589875.321997,258.7890625,316.89453125,567.87109375,893.06640625,0.0
1734589875.325903,-963.37890625,-1000.0,-862.79296875,-400.390625,0.0
1734589875.329809,-886.23046875,-888.18359375,-1000.0,-1000.0,0.0
1734589875.333715,522.94921875,532.71484375,322.75390625,-358.88671875,0.0
1734589875.3375726,-813.4765625,-827.63671875,-847.16796875,910.15625,0.0
1734589875.3414786,541.50390625,604.98046875,662.109375,-948.2421875,0.0
1734589875.3453846,-910.64453125,-862.79296875,-770.5078125,-136.71875,0.0
1734589875.3492906,-984.375,-997.55859375,-1000.0,-1000.0,0.0
1734589875.3531966,468.75,475.09765625,190.91796875,-620.1171875,0.0
1734589875.3571026,-843.26171875,-849.609375,-860.83984375,737.79296875,0.0
1734589875.3610086,703.125,736.328125,761.23046875,-856.4453125,0.0
1734589875.3649147,-716.30859375,-688.96484375,-640.13671875,308.10546875,0.0
1734589875.3688207,-1000.0,-1000.0,-1000.0,-1000.0,0.0
1734589875.3727267,315.4296875,302.24609375,25.87890625,-821.2890625,0.0
1734589875.3766327,-892.08984375,-853.02734375,-915.0390625,613.28125,0.0
1734589875.3805387,906.25,801.26953125,827.63671875,-838.8671875,0.0
1734589875.3849723,-360.3515625,-557.6171875,-561.03515625,589.35546875,0.0
1734589875.3888783,-1000.0,-1000.0,-1000.0,-898.92578125,0.0
1734589875.3927844,65.4296875,46.38671875,-154.78515625,-935.546875,0.0
1734589875.3966904,-951.66015625,-913.0859375,-987.79296875,559.5703125,0.0
1734589875.4005964,913.0859375,822.265625,870.1171875,-860.3515625,0.0
1734589875.4045024,-239.74609375,-546.875,-516.6015625,730.95703125,0.0
1734589875.4084084,-1000.0,-1000.0,-1000.0,-770.99609375,0.0
1734589875.4123144,-399.4140625,-386.23046875,-546.38671875,-969.23828125,0.0
1734589875.4162204,975.5859375,970.21484375,830.56640625,578.61328125,0.0
1734589875.4201264,885.25390625,897.94921875,979.98046875,-889.6484375,0.0
1734589875.4240324,-312.5,-513.671875,-453.61328125,837.40234375,0.0
1734589875.4279385,-1000.0,-1000.0,-1000.0,-619.62890625,0.0
1734589875.4315865,-664.55078125,-644.04296875,-818.84765625,-1000.0,0.0
1734589875.4354925,795.8984375,789.0625,586.9140625,508.7890625,0.0
1734589875.4393983,-989.74609375,-955.078125,-895.5078125,-873.53515625,0.0
1734589875.4433043,11.23046875,-357.91015625,-310.05859375,820.80078125,0.0
1734589875.4472103,-1000.0,-1000.0,-1000.0,-583.0078125,0.0
1734589875.4511163,-853.515625,-774.90234375,-822.265625,-1000.0,0.0
1734589875.4550223,666.015625,610.83984375,486.81640625,310.05859375,0.0
1734589875.4589283,-927.24609375,-850.09765625,-810.05859375,-871.09375,0.0
1734589875.4628344,-4.39453125,-87.890625,338.8671875,856.4453125,0.0
1734589875.4667404,-962.890625,-1000.0,-1000.0,-515.13671875,0.0
1734589875.4706464,-884.27734375,-843.75,-907.71484375,-1000.0,0.0
1734589875.4745524,537.59765625,515.13671875,503.41796875,226.07421875,0.0
1734589875.4781153,-848.6328125,-810.546875,-821.77734375,-901.85546875,0.0
1734589875.4820213,297.36328125,268.5546875,563.4765625,925.29296875,0.0
1734589875.4859273,-920.8984375,-1000.0,-880.37109375,-284.66796875,0.0
1734589875.4898334,-895.01953125,-880.859375,-997.0703125,-1000.0,0.0
1734589875.4937394,524.90234375,528.80859375,398.4375,-327.63671875,0.0
1734589875.4976454,-812.98828125,-825.1953125,-836.9140625,932.6171875,0.0
1734589875.5015514,541.9921875,593.75,643.06640625,-961.9140625,0.0
1734589875.5054574,-910.64453125,-871.58203125,-750.9765625,-187.01171875,0.0
1734589875.5093634,-983.88671875,-995.1171875,-1000.0,-1000.0,0.0
1734589875.5132694,466.30859375,473.14453125,22.94921875,-619.140625,0.0
1734589875.5171754,-839.84375,-845.21484375,-896.484375,740.72265625,0.0
1734589875.5210814,691.89453125,718.26171875,775.87890625,-857.91015625,0.0
1734589875.5245981,-757.32421875,-710.44921875,-669.43359375,207.03125,0.0
1734589875.5285041,-1000.0,-1000.0,-1000.0,-1000.0,0.0
1734589875.5324101,391.11328125,308.59375,98.6328125,-733.88671875,0.0
1734589875.5363162,-897.94921875,-857.91015625,-891.6015625,680.6640625,0.0
1734589875.5402222,906.73828125,804.6875,815.91796875,-845.703125,0.0
1734589875.5441282,-368.65234375,-553.7109375,-555.6640625,555.17578125,0.0
1734589875.5480342,-1000.0,-1000.0,-1000.0,-927.24609375,0.0
1734589875.5519402,37.109375,9.27734375,-235.3515625,-927.24609375,0.0
1734589875.5558462,-959.9609375,-905.2734375,974.12109375,555.6640625,0.0
1734589875.5597522,964.35546875,833.0078125,893.5546875,-856.93359375,0.0
1734589875.5636582,-84.9609375,-476.5625,-495.1171875,719.7265625,0.0
1734589875.5675642,-1000.0,-1000.0,-1000.0,-783.69140625,0.0
1734589875.5710104,-230.46875,-374.51171875,-518.5546875,-966.796875,0.0
1734589875.5749164,-989.74609375,975.5859375,846.19140625,578.125,0.0
1734589875.5788224,898.4375,898.4375,976.07421875,-891.11328125,0.0
1734589875.5827281,18.5546875,-466.30859375,-448.73046875,843.26171875,0.0
1734589875.5866342,-1000.0,-1000.0,-1000.0,-634.765625,0.0
1734589875.5905402,-706.0546875,-652.34375,-822.75390625,-995.60546875,0.0
1734589875.5944462,817.3828125,797.36328125,588.8671875,580.56640625,0.0
1734589875.5983522,-988.28125,-967.28515625,-902.83203125,-882.32421875,0.0
1734589875.6022582,-30.76171875,-383.7890625,-343.75,820.80078125,0.0
1734589875.6061642,-1000.0,-1000.0,-1000.0,-581.0546875,0.0
1734589875.6100702,-844.23828125,-780.2734375,-823.2421875,-1000.0,0.0
1734589875.6139762,657.71484375,619.62890625,482.91015625,305.17578125,0.0
1734589875.618018,-909.1796875,-863.76953125,-810.05859375,-855.95703125,0.0
1734589875.621924,-75.1953125,-189.94140625,291.50390625,805.17578125,0.0
1734589875.62583,-1000.0,-1000.0,-1000.0,-554.19921875,0.0
1734589875.6297357,-867.67578125,-833.49609375,-920.8984375,-1000.0,0.0
1734589875.6336417,534.66796875,511.23046875,450.1953125,19.04296875,0.0
1734589875.6375477,-854.00390625,-811.03515625,-822.265625,-933.59375,0.0
1734589875.6414537,319.3359375,231.93359375,569.3359375,929.6875,0.0
1734589875.6453598,-900.87890625,-1000.0,-898.92578125,-375.0,0.0
1734589875.6492658,-900.87890625,-875.48828125,-962.40234375,-1000.0,0.0
1734589875.6531718,532.2265625,525.390625,493.65234375,-165.52734375,0.0
1734589875.6570778,-832.03125,-821.2890625,-831.0546875,983.88671875,0.0
1734589875.6609838,608.88671875,577.63671875,638.18359375,-983.88671875,0.0
1734589875.6649184,-850.5859375,-887.20703125,-757.8125,-162.59765625,0.0
1734589875.6688244,-940.4296875,-983.3984375,-1000.0,-1000.0,0.0
1734589875.6727304,556.640625,481.93359375,145.01953125,-538.57421875,0.0
1734589875.6766362,-849.609375,-840.8203125,-880.859375,806.640625,0.0
1734589875.6805422,693.84765625,693.359375,756.8359375,-878.41796875,0.0
1734589875.6844482,-758.30078125,-738.28125,-666.015625,191.89453125,0.0
1734589875.6883543,-1000.0,-1000.0,-1000.0,-1000.0,0.0
1734589875.6922603,410.64453125,311.5234375,24.4140625,-730.95703125,0.0
1734589875.6961663,-901.3671875,-859.375,-912.109375,679.19921875,0.0
1734589875.7000723,918.45703125,811.03515625,832.03125,-845.703125,0.0
1734589875.7039783,-389.6484375,-563.96484375,-567.3828125,555.17578125,0.0
1734589875.7078843,-1000.0,-1000.0,-1000.0,-927.24609375,0.0
1734589875.711743,227.05078125,104.98046875,-107.91015625,-927.24609375,0.0
1734589875.7156491,-902.34375,-881.34765625,-963.37890625,554.6875,0.0
1734589875.7195551,923.828125,815.91796875,864.2578125,-854.4921875,0.0
1734589875.7234612,-253.41796875,-505.37109375,-505.859375,708.984375,0.0
1734589875.727367,-1000.0,-1000.0,-1000.0,-794.921875,0.0
1734589875.731273,-177.24609375,-367.1875,-529.78515625,-964.35546875,0.0
1734589875.735179,-986.328125,987.79296875,825.1953125,577.63671875,0.0
1734589875.739085,900.87890625,870.60546875,975.5859375,-889.6484375,0.0
1734589875.742991,-83.984375,-544.43359375,-456.54296875,835.9375,0.0
1734589875.746897,-1000.0,-1000.0,-1000.0,-616.69921875,0.0
1734589875.750803,-598.6328125,-633.7890625,-826.171875,-1000.0,0.0
1734589875.754709,863.76953125,807.12890625,584.9609375,494.62890625,0.0
1734589875.7584982,-996.09375,-977.5390625,-905.2734375,-874.51171875,0.0
1734589875.7624042,77.1484375,-399.4140625,-349.609375,828.61328125,0.0
1734589875.7663102,-1000.0,-1000.0,-1000.0,-601.07421875,0.0
1734589875.7702162,-785.64453125,-762.20703125,-815.4296875,-1000.0,0.0
1734589875.774122,740.234375,644.04296875,504.39453125,401.85546875,0.0
1734589875.778028,-927.734375,-873.046875,-813.96484375,-862.3046875,0.0
1734589875.781934,-40.52734375,-224.609375,244.140625,814.453125,0.0
1734589875.78584,-1000.0,-1000.0,-1000.0,-570.80078125,0.0
1734589875.789746,-873.046875,-830.56640625,-895.99609375,-1000.0,0.0
1734589875.793652,539.55078125,511.71875,488.76953125,220.21484375,0.0
1734589875.797558,-866.2109375,-814.94140625,-820.80078125,-892.578125,0.0
1734589875.801464,374.51171875,209.47265625,564.453125,904.78515625,0.0
1734589875.8051834,-850.09765625,-1000.0,-882.8125,-361.328125,0.0
1734589875.8090894,-913.57421875,-873.046875,-986.81640625,-1000.0,0.0
1734589875.8129954,536.1328125,522.4609375,419.921875,-166.015625,0.0
1734589875.8169014,-833.49609375,-816.89453125,-837.40234375,984.86328125,0.0
1734589875.8208075,612.3046875,555.17578125,639.6484375,-985.83984375,0.0
1734589875.8247135,-846.19140625,-908.69140625,-775.390625,-173.828125,0.0
1734589875.8286195,-940.91796875,-967.7734375,-1000.0,-1000.0,0.0
1734589875.8325253,556.640625,496.58203125,149.4140625,-580.078125,0.0
1734589875.8364313,-849.609375,-843.26171875,-871.58203125,772.4609375,0.0
1734589875.8403373,693.84765625,697.75390625,745.1171875,-868.65234375,0.0
1734589875.8442433,-758.30078125,-741.2109375,-671.38671875,187.01171875,0.0
1734589875.8481493,-1000.0,-1000.0,-1000.0,-1000.0,0.0
1734589875.851755,410.64453125,341.796875,13.671875,-757.8125,0.0
1734589875.855661,-901.3671875,-861.81640625,-917.96875,649.90234375,0.0
1734589875.859567,918.9453125,816.40625,837.40234375,-840.33203125,0.0
1734589875.863473,-389.6484375,-573.2421875,-573.73046875,556.640625,0.0
1734589875.8673787,-1000.0,-1000.0,-1000.0,-936.5234375,0.0
1734589875.8712847,227.05078125,205.56640625,-28.3203125,-895.99609375,0.0
1734589875.8751907,-902.83203125,-855.46875,-928.7109375,596.19140625,0.0
1734589875.8790967,923.33984375,799.8046875,846.19140625,-860.83984375,0.0
1734589875.8830028,-253.90625,-542.48046875,-519.04296875,709.9609375,0.0
1734589875.8869088,-1000.0,-1000.0,-1000.0,-794.43359375,0.0
1734589875.8908148,-174.31640625,-191.40625,-334.9609375,-964.35546875,0.0
1734589875.8947208,-991.69921875,-956.54296875,957.51953125,576.171875,0.0
1734589875.8982375,912.109375,846.19140625,935.546875,-888.18359375,0.0
1734589875.9021435,-50.78125,-497.0703125,-444.3359375,830.56640625,0.0
1734589875.9060495,-1000.0,-1000.0,-1000.0,-651.3671875,0.0
1734589875.9099555,-596.6796875,-571.2890625,-731.93359375,-991.2109375,0.0
1734589875.9138615,862.79296875,864.74609375,679.6875,582.03125,0.0
1734589875.9177675,997.55859375,-999.51171875,-929.6875,-882.8125,0.0
1734589875.9216735,152.34375,-407.2265625,-356.4453125,819.82421875,0.0
1734589875.9255795,-995.1171875,-1000.0,-1000.0,-610.3515625,0.0
1734589875.9294856,-799.8046875,-742.67578125,-821.2890625,-1000.0,0.0
1734589875.9333916,748.53515625,665.52734375,504.39453125,401.3671875,0.0
1734589875.9372976,-938.4765625,-878.90625,-817.3828125,-861.81640625,0.0
1734589875.9412034,-16.11328125,-232.421875,174.8046875,814.453125,0.0
1734589875.9446683,-1000.0,-1000.0,-1000.0,-570.80078125,0.0
1734589875.9485743,-886.71875,-831.54296875,-902.83203125,-1000.0,0.0
1734589875.9524803,549.8046875,512.20703125,447.75390625,218.26171875,0.0
1734589875.9563863,-867.67578125,-812.01171875,-816.89453125,-888.18359375,0.0
1734589875.9602923,225.09765625,155.76171875,524.90234375,893.06640625,0.0
1734589875.9641984,-916.50390625,-1000.0,-924.31640625,-383.7890625,0.0
1734589875.9681044,-894.53125,-864.74609375,-950.68359375,-1000.0,0.0
1734589875.9720104,528.3203125,520.01953125,492.1875,-178.7109375,0.0
1734589875.9759164,-820.3125,-815.4296875,-832.51953125,-987.3046875,0.0
1734589875.9798222,447.265625,529.78515625,628.90625,947.75390625,0.0
1734589875.9837282,-942.87109375,-937.98828125,-786.1328125,-335.9375,0.0
1734589875.9876342,-911.62109375,-923.828125,-1000.0,-1000.0,0.0
1734589875.9910994,542.96875,553.22265625,195.80078125,-560.546875,0.0
1734589875.9950054,-836.42578125,-847.65625,-865.234375,849.12109375,0.0
1734589875.9989114,643.06640625,684.5703125,736.328125,-953.61328125,0.0
1734589876.0028174,-805.17578125,-762.20703125,-684.08203125,-281.25,0.0
1734589876.0067232,-1000.0,-1000.0,-1000.0,-1000.0,0.0
1734589876.0106292,399.4140625,374.51171875,73.73046875,-696.77734375,0.0
1734589876.0145352,-878.41796875,-859.86328125,-898.4375,673.828125,0.0
1734589876.0184412,844.7265625,804.6875,822.265625,-851.5625,0.0
1734589876.0223472,-493.1640625,-583.0078125,-569.3359375,132.8125,0.0
1734589876.0262532,-1000.0,-1000.0,-1000.0,-1000.0,0.0
1734589876.0301592,211.42578125,191.89453125,-144.53125,-860.83984375,0.0
1734589876.0340652,-873.046875,-858.3984375,-991.69921875,519.04296875,0.0
1734589876.038074,848.14453125,801.7578125,856.93359375,-830.078125,0.0
1734589876.04198,-431.640625,-543.9453125,-538.0859375,636.23046875,0.0
1734589876.045886,-1000.0,-1000.0,-1000.0,-862.3046875,0.0
1734589876.049792,-166.9921875,-193.359375,-401.3671875,-947.265625,0.0
1734589876.053698,-1000.0,-951.66015625,914.55078125,568.359375,0.0
1734589876.057604,912.59765625,836.42578125,941.89453125,-877.9296875,0.0
1734589876.06151,-50.78125,-533.69140625,-460.44921875,797.8515625,0.0
1734589876.065416,-1000.0,-1000.0,-1000.0,-694.82421875,0.0
1734589876.069322,-602.5390625,-569.3359375,-709.47265625,-984.375,0.0
1734589876.0732281,875.9765625,866.2109375,697.265625,581.54296875,0.0
1734589876.0771341,963.8671875,991.2109375,-938.96484375,-886.71875,0.0
1734589876.08104,80.56640625,-423.33984375,-365.72265625,830.078125,0.0
1734589876.0863047,-990.72265625,-1000.0,-1000.0,-602.5390625,0.0
1734589876.0902107,-798.33984375,-712.40234375,-815.91796875,-1000.0,0.0
1734589876.0941167,753.41796875,703.125,511.23046875,421.875,0.0
1734589876.0980227,-966.30859375,-898.4375,-820.80078125,-865.72265625,0.0
1734589876.1019287,18.5546875,-223.14453125,196.2890625,821.2890625,0.0
1734589876.1058347,-956.0546875,-1000.0,-1000.0,-583.984375,0.0
1734589876.1097407,-905.76171875,-839.84375,-889.6484375,-1000.0,0.0
1734589876.1136467,562.01171875,518.5546875,496.58203125,298.33984375,0.0
1734589876.1175525,-881.34765625,-817.3828125,-816.40625,-872.55859375,0.0
1734589876.1214585,160.15625,97.65625,493.1640625,851.07421875,0.0
1734589876.1253645,-924.8046875,-1000.0,-932.12890625,-449.70703125,0.0
1734589876.1292706,-890.13671875,-858.88671875,-947.75390625,-1000.0,0.0
1734589876.13371,528.80859375,517.578125,461.9140625,-171.875,0.0
1734589876.137616,-826.66015625,-813.4765625,-836.42578125,997.55859375,0.0
1734589876.141522,422.36328125,484.86328125,622.0703125,982.421875,0.0
1734589876.145428,-929.19921875,-957.51953125,-796.38671875,-273.92578125,0.0
1734589876.149334,-908.203125,-916.015625,-1000.0,-1000.0,0.0
1734589876.1532397,538.0859375,549.31640625,179.19921875,-511.23046875,0.0
1734589876.1571457,-829.1015625,-845.21484375,-872.55859375,830.56640625,0.0
1734589876.1610518,617.67578125,678.22265625,742.67578125,-899.4140625,0.0
1734589876.1649578,-830.078125,-773.4375,-681.15234375,-0.9765625,0.0
1734589876.1688638,-1000.0,-1000.0,-1000.0,-1000.0,0.0
1734589876.1727698,401.85546875,395.01953125,77.1484375,-634.27734375,0.0
1734589876.1766758,-877.9296875,-862.3046875,-894.04296875,743.1640625,0.0
1734589876.1803312,841.796875,807.12890625,821.2890625,-856.93359375,0.0
1734589876.1842372,-498.53515625,-576.66015625,-575.1953125,376.46484375,0.0
1734589876.1881433,-1000.0,-1000.0,-1000.0,-1000.0,0.0
1734589876.1920493,219.7265625,205.078125,-47.36328125,-831.0546875,0.0
1734589876.1959553,-891.6015625,-855.95703125,-935.05859375,619.62890625,0.0
1734589876.199861,895.99609375,800.29296875,841.30859375,-847.65625,0.0
1734589876.203767,-333.984375,-542.48046875,-533.69140625,634.27734375,0.0
1734589876.207673,-1000.0,-1000.0,-1000.0,-864.2578125,0.0
1734589876.211579,-178.7109375,-194.82421875,-466.30859375,-945.80078125,0.0
1734589876.215485,-982.91015625,-950.68359375,849.609375,566.40625,0.0
1734589876.219391,899.90234375,834.47265625,953.125,-873.046875,0.0
1734589876.223297,-206.54296875,-548.33984375,-471.6796875,779.78515625,0.0
1734589876.2269282,-1000.0,-1000.0,-1000.0,-718.26171875,0.0
1734589876.2308342,-588.37890625,-569.3359375,-737.3046875,-980.46875,0.0
1734589876.2347403,871.58203125,870.1171875,672.36328125,581.0546875,0.0
1734589876.2386463,971.19140625,977.05078125,-948.2421875,-888.18359375,0.0
1734589876.2425523,-96.19140625,-442.3828125,-402.34375,833.0078125,0.0
1734589876.2464583,-1000.0,-1000.0,-1000.0,-609.86328125,0.0
1734589876.2503643,-757.32421875,-713.37890625,-817.3828125,-1000.0,0.0
1734589876.2542703,725.09765625,705.078125,522.94921875,460.44921875,0.0
1734589876.258176,-948.73046875,-906.73828125,-833.0078125,-869.140625,0.0
1734589876.262082,181.640625,-212.40234375,102.05078125,821.2890625,0.0
1734589876.265988,-941.89453125,-1000.0,-1000.0,-584.47265625,0.0
1734589876.2698941,-863.28125,-827.63671875,-875.0,-1000.0,0.0
1734589876.273435,653.3203125,551.26953125,497.55859375,312.01171875,0.0
1734589876.2773411,-887.20703125,-827.63671875,-815.91796875,-874.51171875,0.0
1734589876.2812471,124.51171875,32.71484375,481.93359375,861.81640625,0.0
1734589876.2851532,-978.02734375,-1000.0,-943.359375,-465.8203125,0.0
1734589876.2890592,-882.32421875,-852.5390625,-935.05859375,-1000.0,0.0
1734589876.2929652,529.78515625,515.625,503.41796875,27.34375,0.0
1734589876.2968712,-831.54296875,-811.03515625,-831.0546875,-947.265625,0.0
1734589876.3007772,439.94140625,413.57421875,614.74609375,961.42578125,0.0
1734589876.3046832,-910.15625,-988.76953125,-826.171875,-266.11328125,0.0
1734589876.3085892,-912.59765625,-903.80859375,-1000.0,-1000.0,0.0
1734589876.3124952,539.0625,541.9921875,327.63671875,-352.5390625,0.0
1734589876.3164012,-829.1015625,-835.9375,-845.703125,900.390625,0.0
1734589876.321248,618.1640625,642.08984375,683.59375,-927.734375,0.0
1734589876.325154,-831.54296875,-806.640625,-708.49609375,7.32421875,0.0
1734589876.32906,-1000.0,-1000.0,-1000.0,-1000.0,0.0
1734589876.332966,403.80859375,388.18359375,-33.203125,-711.42578125,0.0
1734589876.336872,-868.1640625,-851.07421875,-921.875,672.8515625,0.0
1734589876.340778,814.453125,770.5078125,825.68359375,-839.35546875,0.0
1734589876.3446841,-581.0546875,-639.6484375,-602.05078125,371.58203125,0.0
1734589876.3485901,-1000.0,-1000.0,-1000.0,-1000.0,0.0
1734589876.3524961,318.359375,247.55859375,-10.7421875,-831.0546875,0.0
1734589876.3564022,-891.6015625,-856.4453125,-921.38671875,619.62890625,0.0
1734589876.3603082,895.01953125,799.31640625,833.49609375,-847.65625,0.0
1734589876.3642142,-364.74609375,-543.45703125,-542.96875,634.27734375,0.0
1734589876.3682137,-1000.0,-1000.0,-1000.0,-864.2578125,0.0
1734589876.3721197,20.5078125,-160.64453125,-351.5625,-945.80078125,0.0
1734589876.3760257,-928.22265625,-940.91796875,925.78125,566.40625,0.0
1734589876.3799317,882.8125,830.56640625,916.015625,-872.55859375,0.0
1734589876.3838377,-229.00390625,-549.31640625,-492.1875,779.78515625,0.0
1734589876.3877437,-1000.0,-1000.0,-1000.0,-718.26171875,0.0
1734589876.3916497,-380.859375,-542.48046875,-728.515625,-980.46875,0.0
1734589876.3955557,932.6171875,888.18359375,677.24609375,581.0546875,0.0
1734589876.3994617,971.6796875,963.37890625,-949.70703125,-883.7890625,0.0
1734589876.4033678,103.02734375,-472.16796875,-417.48046875,830.078125,0.0
1734589876.4072738,-1000.0,-1000.0,-1000.0,-614.74609375,0.0
1734589876.4111795,-604.00390625,-582.03125,-723.6328125,-950.68359375,0.0
1734589876.4150984,840.33203125,781.25,581.0546875,528.80859375,0.0
1734589876.4190044,-964.84375,-931.640625,-857.91015625,-875.0,0.0
1734589876.4229105,144.53125,-327.1484375,-109.86328125,816.40625,0.0
1734589876.4268165,-988.28125,-1000.0,-1000.0,-594.7265625,0.0
1734589876.4307225,-565.4296875,-531.73828125,-566.89453125,-853.02734375,0.0
1734589876.4346285,775.390625,666.9921875,591.30859375,436.5234375,0.0
1734589876.4385343,-942.3828125,-882.32421875,-859.375,-925.29296875,0.0
1734589876.4424403,169.921875,-6.8359375,458.984375,878.90625,0.0
1734589876.4463463,-969.23828125,-1000.0,-945.3125,-464.84375,0.0
1734589876.4502523,-887.20703125,-846.19140625,-976.07421875,-1000.0,0.0
1734589876.4541583,531.25,513.671875,354.00390625,-79.58984375,0.0
1734589876.4580643,-831.54296875,-808.59375,-836.9140625,-977.05078125,0.0
1734589876.4619083,439.453125,359.375,613.28125,976.07421875,0.0
1734589876.4658144,-911.1328125,-1000.0,-835.44921875,-273.92578125,0.0
1734589876.4697204,-912.109375,-894.53125,-1000.0,-1000.0,0.0
1734589876.4736264,539.0625,536.62109375,278.80859375,-352.5390625,0.0
1734589876.4775324,-831.54296875,-830.56640625,-848.14453125,899.90234375,0.0
1734589876.4814384,625.0,620.1171875,672.36328125,-927.24609375,0.0
1734589876.4853444,-847.16796875,-835.44921875,-736.328125,8.7890625,0.0
1734589876.4892504,-1000.0,-1000.0,-1000.0,-1000.0,0.0
1734589876.4931564,484.86328125,417.96875,23.4375,-684.5703125,0.0
1734589876.4970624,-874.51171875,-848.6328125,-903.80859375,697.265625,0.0
1734589876.5009685,812.98828125,753.90625,800.29296875,-844.7265625,0.0
1734589876.5048745,-578.125,-659.1796875,-610.3515625,370.60546875,0.0
1734589876.5086367,-1000.0,-1000.0,-1000.0,-1000.0,0.0
1734589876.5125427,325.68359375,245.60546875,-119.62890625,-860.3515625,0.0
1734589876.5164487,-909.66796875,-857.421875,-978.515625,581.54296875,0.0
1734589876.5203547,951.171875,801.7578125,853.02734375,-841.30859375,0.0
1734589876.5242608,-276.3671875,-546.875,-547.8515625,633.30078125,0.0
1734589876.5281665,-1000.0,-1000.0,-1000.0,-864.74609375,0.0
1734589876.5320725,27.34375,-120.1171875,-410.15625,-945.80078125,0.0
1734589876.5359786,-940.91796875,-931.15234375,878.41796875,566.40625,0.0
1734589876.5398846,917.96875,830.078125,928.22265625,-873.046875,0.0
1734589876.5437906,-146.484375,-543.9453125,-496.58203125,779.78515625,0.0
1734589876.5476966,-1000.0,-1000.0,-1000.0,-718.26171875,0.0
1734589876.5516026,-383.7890625,-458.49609375,-687.98828125,-980.46875,0.0
1734589876.5559664,935.546875,930.6640625,714.35546875,581.0546875,0.0
1734589876.5598724,966.796875,933.10546875,-977.5390625,-889.16015625,0.0
1734589876.5637784,116.2109375,-485.3515625,-437.98828125,836.42578125,0.0
1734589876.5676844,-1000.0,-1000.0,-1000.0,-616.69921875,0.0
1734589876.5715904,-704.58984375,-640.625,-819.3359375,-1000.0,0.0
1734589876.5754964,807.12890625,781.25,547.8515625,495.1171875,0.0
1734589876.5794024,-961.42578125,-940.4296875,-856.93359375,-872.0703125,0.0
1734589876.5833085,148.92578125,-285.15625,-77.63671875,820.3125,0.0
1734589876.5872145,-976.5625,-1000.0,-1000.0,-583.49609375,0.0
1734589876.5911205,-855.95703125,-797.36328125,-858.88671875,-1000.0,0.0
1734589876.5950265,655.76171875,585.9375,477.05078125,311.03515625,0.0
1734589876.5989325,-903.3203125,-838.37890625,-811.03515625,-871.58203125,0.0
1734589876.6024585,165.0390625,-34.1796875,436.5234375,852.05078125,0.0
1734589876.6063645,-928.22265625,-1000.0,-953.61328125,-480.95703125,0.0
1734589876.6102705,-904.78515625,-846.6796875,-944.3359375,-1000.0,0.0
1734589876.6141765,548.828125,514.6484375,456.0546875,23.92578125,0.0
1734589876.6180825,-851.5625,-809.08203125,-827.63671875,-940.91796875,0.0
1734589876.6219885,297.36328125,333.984375,600.5859375,944.3359375,0.0
1734589876.6258943,-920.8984375,-1000.0,-832.03125,-304.6875,0.0
1734589876.6298003,-895.01953125,-890.625,-1000.0,-1000.0,0.0
1734589876.6337063,524.90234375,534.1796875,266.6015625,-354.98046875,0.0
1734589876.6376123,-812.98828125,-829.58984375,-849.609375,904.78515625,0.0
1734589876.6415184,541.9921875,612.3046875,666.50390625,-935.546875,0.0
1734589876.6454244,-910.64453125,-856.93359375,-748.53515625,-49.8046875,0.0
1734589876.648901,-985.3515625,-999.51171875,-1000.0,-1000.0,0.0
1734589876.6528068,473.6328125,476.07421875,55.17578125,-632.32421875,0.0
1734589876.6567128,-855.95703125,-852.05078125,-889.16015625,746.09375,0.0
1734589876.6606188,741.69921875,745.60546875,791.015625,-858.88671875,0.0
1734589876.6645248,-655.2734375,-678.7109375,-627.9296875,272.4609375,0.0
1734589876.6684308,-1000.0,-1000.0,-1000.0,-1000.0,0.0
1734589876.6723368,318.84765625,302.734375,19.04296875,-815.4296875,0.0
1734589876.6762428,-902.83203125,-857.421875,-913.0859375,610.3515625,0.0
1734589876.6801488,930.6640625,805.6640625,829.1015625,-837.40234375,0.0
1734589876.6840549,-315.4296875,-554.19921875,-545.41015625,584.47265625,0.0
1734589876.6879609,-1000.0,-1000.0,-1000.0,-902.34375,0.0
1734589876.6918669,24.4140625,4.39453125,-292.96875,-934.5703125,0.0
1734589876.6953032,-936.03515625,-895.5078125,966.30859375,557.6171875,0.0
1734589876.6992092,909.66796875,814.453125,895.99609375,-854.00390625,0.0
1734589876.7031152,-207.03125,-543.9453125,-506.8359375,704.1015625,0.0
1734589876.7070212,-1000.0,-1000.0,-1000.0,-798.33984375,0.0
1734589876.7109272,-383.30078125,-384.765625,-709.9609375,-963.37890625,0.0
1734589876.7148333,949.70703125,967.28515625,692.87109375,577.1484375,0.0
1734589876.7187393,912.109375,905.76171875,-978.515625,-889.6484375,0.0
1734589876.7226453,28.3203125,-494.62890625,-451.171875,835.9375,0.0
1734589876.7265513,-1000.0,-1000.0,-1000.0,-616.69921875,0.0
1734589876.7304573,-712.40234375,-643.5546875,-833.0078125,-1000.0,0.0
1734589876.7343633,822.265625,787.109375,554.19921875,495.1171875,0.0
1734589876.7382693,998.046875,-949.21875,-873.53515625,-874.0234375,0.0
1734589876.7423034,43.45703125,-339.84375,-218.75,826.66015625,0.0
1734589876.7462094,-977.5390625,-1000.0,-1000.0,-596.6796875,0.0
1734589876.7501154,-860.83984375,-776.85546875,-829.58984375,-1000.0,0.0
1734589876.7540214,667.48046875,612.3046875,491.2109375,380.37109375,0.0
1734589876.7579274,-924.31640625,-851.07421875,-810.05859375,-862.79296875,0.0
1734589876.7618334,-16.6015625,-102.05078125,411.62109375,815.4296875,0.0
1734589876.7657394,-976.07421875,-1000.0,-962.40234375,-531.73828125,0.0
1734589876.7696455,-881.34765625,-841.30859375,-942.3828125,-1000.0,0.0
1734589876.7735515,536.62109375,513.18359375,452.1484375,29.296875,0.0
1734589876.7774575,-849.12109375,-809.5703125,-820.80078125,-933.10546875,0.0
1734589876.7813635,297.36328125,281.25,575.68359375,924.8046875,0.0
1734589876.7852693,-920.8984375,-1000.0,-812.01171875,-346.6796875,0.0
1734589876.7899108,-895.01953125,-882.8125,-1000.0,-1000.0,0.0
1734589876.7938168,524.4140625,529.78515625,11.23046875,-362.3046875,0.0
1734589876.7977228,-807.6171875,-820.3125,-897.94921875,917.48046875,0.0
1734589876.8016288,535.64453125,590.33203125,689.453125,-954.1015625,0.0
1734589876.8055348,-908.69140625,-867.1875,-770.5078125,-187.98828125,0.0
1734589876.8094409,-884.765625,-895.99609375,-1000.0,-1000.0,0.0
1734589876.8133469,502.9296875,508.30078125,85.44921875,-535.64453125,0.0
1734589876.8172529,-860.3515625,-864.2578125,-889.16015625,803.7109375,0.0
1734589876.821159,714.84375,737.79296875,776.3671875,-876.953125,0.0
1734589876.825065,-713.37890625,-698.73046875,-629.8828125,216.30859375,0.0
1734589876.828971,-1000.0,-1000.0,-1000.0,-1000.0,0.0
1734589876.832877,315.91796875,301.7578125,-208.0078125,-805.6640625,0.0
1734589876.8367257,-897.94921875,-857.421875,969.7265625,605.95703125,0.0
1734589876.8406317,918.45703125,805.17578125,872.0703125,-837.40234375,0.0
1734589876.8445377,-352.5390625,-554.19921875,-559.5703125,595.21484375,0.0
1734589876.8484437,-1000.0,-1000.0,-1000.0,-894.53125,0.0
1734589876.8523498,19.04296875,4.39453125,-401.85546875,-937.01171875,0.0
1734589876.8562558,-926.7578125,-895.99609375,860.3515625,561.5234375,0.0
1734589876.8601615,898.4375,814.453125,922.36328125,-866.2109375,0.0
1734589876.8640676,-331.0546875,-543.9453125,-504.39453125,755.37109375,0.0
1734589876.8679736,-1000.0,-1000.0,-1000.0,-744.62890625,0.0
1734589876.8718796,-269.04296875,-385.25390625,-609.86328125,-979.98046875,0.0
1734589876.8757856,987.79296875,969.23828125,789.55078125,586.42578125,0.0
1734589876.8796916,901.3671875,897.4609375,998.53515625,-892.08984375,0.0
1734589876.8834233,-138.18359375,-497.0703125,-447.75390625,740.72265625,0.0
1734589876.8873293,-1000.0,-1000.0,-1000.0,-662.109375,0.0
1734589876.8912354,-683.10546875,-647.94921875,-835.9375,-1000.0,0.0
1734589876.8951414,806.15234375,793.45703125,567.3828125,551.7578125,0.0
1734589876.8990474,-984.375,-962.40234375,-886.71875,-874.51171875,0.0
1734589876.9029534,-30.76171875,-373.53515625,-310.05859375,624.51171875,0.0
1734589876.9068594,-1000.0,-1000.0,-1000.0,-657.71484375,0.0
1734589876.9107654,-840.33203125,-776.85546875,-831.54296875,-1000.0,0.0
1734589876.9146714,654.296875,614.74609375,456.54296875,290.0390625,0.0
1734589876.9185774,-911.1328125,-857.91015625,-805.6640625,-852.05078125,0.0
1734589876.9224834,6.8359375,-114.74609375,415.52734375,809.08203125,0.0
1734589876.9263895,-1000.0,-1000.0,-919.43359375,-547.8515625,0.0
1734589876.930075,-882.32421875,-843.75,-1000.0,-1000.0,0.0
1734589876.933981,540.0390625,516.11328125,247.0703125,19.04296875,0.0
1734589876.937887,-850.5859375,-811.03515625,-832.51953125,-932.6171875,0.0
1734589876.941793,297.36328125,227.05078125,580.56640625,921.875,0.0
1734589876.945699,-920.8984375,-1000.0,-832.03125,-366.2109375,0.0
1734589876.9496047,-895.01953125,-874.51171875,-1000.0,-1000.0,0.0
1734589876.9535108,524.90234375,525.390625,59.08203125,-312.01171875,0.0
1734589876.9574168,-813.96484375,-820.80078125,-879.39453125,934.08203125,0.0
1734589876.9613228,544.43359375,574.70703125,665.0390625,-962.890625,0.0
1734589876.9652288,-917.96875,-885.7421875,-751.46484375,-185.05859375,0.0
1734589876.9691348,-962.40234375,-990.72265625,-1000.0,-1000.0,0.0
1734589876.9730408,500.0,470.21484375,-192.3828125,-582.03125,0.0
1734589876.9766223,-842.7734375,-840.33203125,-955.56640625,771.484375,0.0
1734589876.9805284,689.453125,699.21875,795.41015625,-868.1640625,0.0
1734589876.9844344,-750.48828125,-729.00390625,-665.0390625,183.59375,0.0
1734589876.9883404,-1000.0,-1000.0,-1000.0,-1000.0,0.0
1734589876.9922464,359.375,300.29296875,-202.1484375,-801.7578125,0.0
1734589876.9961524,-899.4140625,-858.3984375,979.4921875,602.5390625,0.0
1734589877.0000584,920.8984375,810.05859375,868.1640625,-829.58984375,0.0
1734589877.0039644,-391.6015625,-561.5234375,-566.40625,551.26953125,0.0
1734589877.0078704,-1000.0,-1000.0,-1000.0,-927.734375,0.0
1734589877.0117764,223.6328125,77.1484375,-208.984375,-927.24609375,0.0
1734589877.0156822,-893.06640625,-883.30078125,-991.2109375,555.17578125,0.0
1734589877.0195882,896.484375,811.03515625,888.671875,-854.00390625,0.0
1734589877.0231092,-292.96875,-524.4140625,-493.1640625,708.984375,0.0
1734589877.027015,-1000.0,-1000.0,-1000.0,-794.921875,0.0
1734589877.030921,-258.7890625,-391.11328125,-687.01171875,-964.35546875,0.0
1734589877.034827,995.60546875,981.4453125,700.68359375,577.63671875,0.0
1734589877.038733,890.625,866.2109375,-990.72265625,-891.6015625,0.0
1734589877.042639,-156.25,-563.96484375,-462.890625,843.26171875,0.0
1734589877.046545,-1000.0,-1000.0,-1000.0,-635.25390625,0.0
1734589877.050451,-600.09765625,-632.32421875,-835.9375,-994.140625,0.0
1734589877.054357,868.65234375,811.03515625,576.66015625,583.0078125,0.0
1734589877.058263,996.58203125,-983.88671875,-901.3671875,-885.25390625,0.0
1734589877.062169,-19.53125,-412.59765625,-345.703125,828.61328125,0.0
1734589877.066075,-1000.0,-1000.0,-1000.0,-598.6328125,0.0
1734589877.0695417,-773.92578125,-754.8828125,-818.359375,-1000.0,0.0
1734589877.0734477,733.3984375,652.34375,497.55859375,401.85546875,0.0
1734589877.0773537,-917.96875,-876.46484375,-810.546875,-861.81640625,0.0
1734589877.0812597,-111.328125,-233.3984375,282.71484375,814.453125,0.0
1734589877.0851657,-1000.0,-1000.0,-1000.0,-570.80078125,0.0
1734589877.0890718,-859.375,-829.58984375,-916.9921875,-1000.0,0.0
1734589877.0929778,531.25,510.25390625,455.078125,220.21484375,0.0
1734589877.0968838,-849.609375,-810.546875,-824.70703125,-892.578125,0.0
1734589877.1007898,302.24609375,187.01171875,585.9375,904.78515625,0.0
1734589877.1046958,-916.50390625,-1000.0,-886.71875,-361.328125,0.0
1734589877.1086016,-895.99609375,-868.65234375,-966.796875,-1000.0,0.0
1734589877.1125076,525.390625,520.99609375,497.55859375,-166.015625,0.0
1734589877.1166072,-814.94140625,-815.4296875,-830.56640625,985.3515625,0.0
1734589877.1205132,548.828125,544.921875,625.9765625,-984.86328125,0.0
1734589877.1244192,-929.19921875,-917.48046875,-744.62890625,-172.8515625,0.0
1734589877.1283252,-927.24609375,-962.40234375,-1000.0,-1000.0,0.0
1734589877.132231,554.6875,500.0,-37.59765625,-537.109375,0.0
1734589877.136137,-851.07421875,-841.30859375,-902.83203125,805.6640625,0.0
1734589877.140043,693.84765625,688.96484375,765.625,-877.9296875,0.0
1734589877.143949,-758.30078125,-747.55859375,-666.50390625,187.01171875,0.0
1734589877.147855,-1000.0,-1000.0,-1000.0,-1000.0,0.0
1734589877.151761,410.64453125,329.1015625,-112.79296875,-801.7578125,0.0
1734589877.155667,-901.3671875,-860.83984375,-968.75,602.5390625,0.0
1734589877.159573,918.9453125,812.98828125,850.5859375,-829.58984375,0.0
1734589877.1635597,-389.6484375,-566.89453125,-568.359375,551.7578125,0.0
1734589877.1674657,-1000.0,-1000.0,-1000.0,-927.734375,0.0
1734589877.1713717,221.6796875,139.16015625,-187.5,-927.24609375,0.0
1734589877.1752777,-889.6484375,-868.65234375,-983.3984375,555.17578125,0.0
1734589877.1791837,888.671875,802.24609375,870.60546875,-854.4921875,0.0
1734589877.1830897,-319.82421875,-539.55078125,-518.5546875,708.984375,0.0
1734589877.1869955,-1000.0,-1000.0,-1000.0,-794.921875,0.0
1734589877.1909015,-179.19921875,-312.5,-674.8046875,-964.35546875,0.0
1734589877.1948075,-981.4453125,-991.69921875,709.47265625,577.63671875,0.0
1734589877.1987135,886.23046875,852.5390625,-998.53515625,-891.6015625,0.0
1734589877.2026196,-127.44140625,-560.05859375,-468.75,843.26171875,0.0
1734589877.2065256,-1000.0,-1000.0,-1000.0,-635.25390625,0.0
1734589877.2104383,-592.28515625,-584.9609375,-807.12890625,-994.140625,0.0
1734589877.2143443,857.421875,846.6796875,606.4453125,583.49609375,0.0
1734589877.2182503,-991.69921875,-994.140625,-908.203125,-885.25390625,0.0
1734589877.2221563,132.32421875,-406.25,-339.84375,828.61328125,0.0
1734589877.2260623,-1000.0,-1000.0,-1000.0,-598.6328125,0.0
1734589877.2299683,-786.62109375,-710.9375,-805.17578125,-1000.0,0.0
1734589877.2338743,737.3046875,700.68359375,510.7421875,402.34375,0.0
1734589877.2377803,-931.640625,-890.13671875,-816.89453125,-862.3046875,0.0
1734589877.241686,118.1640625,-208.0078125,374.51171875,814.453125,0.0
1734589877.245592,-955.078125,-1000.0,-984.375,-571.2890625,0.0
1734589877.2494981,-906.25,-835.9375,-910.15625,-1000.0,0.0
1734589877.2534041,556.640625,513.18359375,520.5078125,221.19140625,0.0
1734589877.2585917,-862.3046875,-812.01171875,-825.1953125,-886.71875,0.0
1734589877.2624977,209.47265625,163.57421875,556.15234375,894.53125,0.0
1734589877.2664037,-943.359375,-1000.0,-910.64453125,-396.97265625,0.0
1734589877.2703097,-891.6015625,-866.2109375,-938.96484375,-1000.0,0.0
1734589877.2742157,527.34375,520.5078125,534.66796875,-67.87109375,0.0
1734589877.2781217,-812.01171875,-815.4296875,-835.44921875,-977.5390625,0.0
1734589877.2820277,367.1875,527.83203125,633.30078125,988.76953125,0.0
1734589877.2859337,-1000.0,-938.4765625,-778.3203125,-194.3359375,0.0
1734589877.2898397,-895.99609375,-923.33984375,-1000.0,-1000.0,0.0
1734589877.2937455,539.55078125,553.22265625,222.16796875,-544.921875,0.0
1734589877.2976515,-842.7734375,-848.6328125,-846.19140625,818.359375,0.0
1734589877.3015575,677.734375,691.89453125,722.16796875,-893.5546875,0.0
1734589877.305206,-772.94921875,-752.44140625,-653.3203125,28.80859375,0.0
1734589877.309112,-1000.0,-1000.0,-1000.0,-1000.0,0.0
1734589877.313018,392.578125,363.76953125,-216.796875,-713.37890625,0.0
1734589877.316924,-857.421875,-858.3984375,988.76953125,672.36328125,0.0
1734589877.32083,784.1796875,799.31640625,863.76953125,-840.33203125,0.0
1734589877.324736,-601.07421875,-584.47265625,-583.49609375,449.70703125,0.0
1734589877.3286421,-1000.0,-1000.0,-1000.0,-973.6328125,0.0
1734589877.3325481,227.05078125,158.69140625,-337.890625,-909.1796875,0.0
1734589877.3364542,-908.203125,-865.72265625,884.765625,543.9453125,0.0
1734589877.3403602,923.828125,805.6640625,904.78515625,-839.35546875,0.0
1734589877.3442662,-253.41796875,-543.45703125,-522.94921875,649.90234375,0.0
1734589877.3481722,-1000.0,-1000.0,-1000.0,-849.609375,0.0
1734589877.3517554,-189.453125,-207.03125,-620.1171875,-950.1953125,0.0
1734589877.3556614,-967.28515625,-954.58984375,754.8828125,570.3125,0.0
1734589877.3595674,875.9765625,835.9375,984.86328125,-880.859375,0.0
1734589877.3634734,-281.25,-551.7578125,-478.515625,808.59375,0.0
1734589877.3673794,-1000.0,-1000.0,-1000.0,-681.15234375,0.0
1734589877.3712854,-575.1953125,-579.58984375,-842.28515625,-986.81640625,0.0
1734589877.3751912,860.3515625,855.46875,570.3125,582.03125,0.0
1734589877.3790972,967.28515625,995.1171875,-906.25,-886.23046875,0.0
1734589877.3830032,76.171875,-423.33984375,-361.328125,829.1015625,0.0
1734589877.3869092,-992.67578125,-1000.0,-1000.0,-599.609375,0.0
1734589877.3908153,-797.8515625,-712.40234375,-814.94140625,-1000.0,0.0
1734589877.3947213,751.953125,702.1484375,504.8828125,407.71484375,0.0
1734589877.398235,-964.35546875,-892.08984375,-815.91796875,-865.234375,0.0
1734589877.402141,7.8125,-249.51171875,278.3203125,822.265625,0.0
1734589877.406047,-975.09765625,-1000.0,-1000.0,-586.42578125,0.0
1734589877.409953,-878.90625,-833.49609375,-894.04296875,-1000.0,0.0
1734589877.4138591,590.8203125,516.11328125,514.6484375,312.5,0.0
1734589877.4177651,-882.32421875,-816.40625,-824.21875,-874.51171875,0.0
1734589877.4216712,145.99609375,104.00390625,559.5703125,861.328125,0.0
1734589877.4255772,-942.87109375,-1000.0,-906.25,-465.8203125,0.0
1734589877.4294832,-887.20703125,-858.88671875,-940.4296875,-1000.0,0.0
1734589877.4333892,528.3203125,517.578125,533.69140625,27.34375,0.0
1734589877.4372952,-826.66015625,-813.4765625,-834.47265625,-947.265625,0.0
1734589877.4412012,422.36328125,494.62890625,627.9296875,957.51953125,0.0
1734589877.444667,-929.6875,-953.125,-770.99609375,-262.6953125,0.0
1734589877.448573,-908.203125,-917.96875,-1000.0,-1000.0,0.0
1734589877.4524791,538.57421875,549.8046875,138.18359375,-435.546875,0.0
1734589877.4563851,-829.1015625,-843.26171875,-866.69921875,864.2578125,0.0
1734589877.460291,617.1875,667.96875,724.609375,-913.0859375,0.0
1734589877.464197,-829.1015625,-782.71484375,-660.15625,0.9765625,0.0
1734589877.468103,-1000.0,-1000.0,-1000.0,-1000.0,0.0
1734589877.472009,392.578125,391.6015625,-368.1640625,-708.0078125,0.0
1734589877.475915,-866.69921875,-855.95703125,909.66796875,669.43359375,0.0
1734589877.479821,812.98828125,787.59765625,885.25390625,-839.35546875,0.0
1734589877.483727,-553.7109375,-605.95703125,-594.7265625,441.89453125,0.0
1734589877.487633,-1000.0,-1000.0,-1000.0,-977.05078125,0.0
1734589877.49239,221.6796875,205.078125,-441.40625,-908.203125,0.0
1734589877.4962957,-896.97265625,-856.4453125,824.21875,542.96875,0.0
1734589877.5002017,902.34375,800.78125,920.41015625,-837.890625,0.0
1734589877.5041077,-314.94140625,-540.52734375,-539.55078125,643.06640625,0.0
1734589877.5080137,-1000.0,-1000.0,-1000.0,-855.95703125,0.0
1734589877.5119197,-173.828125,-193.359375,-546.38671875,-948.73046875,0.0
1734589877.5158257,-991.2109375,-953.125,802.734375,569.3359375,0.0
1734589877.5197318,911.1328125,838.37890625,973.14453125,-879.8828125,0.0
1734589877.5236378,-104.4921875,-522.94921875,-467.7734375,803.22265625,0.0
1734589877.5275438,-1000.0,-1000.0,-1000.0,-687.5,0.0
1734589877.5314498,-521.97265625,-566.40625,-813.4765625,-985.3515625,0.0
1734589877.5353558,897.94921875,862.79296875,601.07421875,582.03125,0.0
1734589877.539318,958.984375,987.79296875,-908.69140625,-886.23046875,0.0
1734589877.543224,135.7421875,-330.56640625,-359.375,828.61328125,0.0
1734589877.54713,-982.421875,-1000.0,-1000.0,-598.6328125,0.0
1734589877.5510361,-797.8515625,-728.515625,-867.1875,-1000.0,0.0
1734589877.5549421,748.046875,712.890625,411.1328125,401.85546875,0.0
1734589877.5588481,-959.9609375,-909.1796875,-807.6171875,-861.81640625,0.0
1734589877.5627542,131.34765625,-196.2890625,300.29296875,814.453125,0.0
1734589877.5666602,-924.8046875,-1000.0,-968.75,-570.80078125,0.0
1734589877.5705662,-921.875,-849.609375,-988.76953125,-1000.0,0.0
1734589877.5744722,566.40625,524.4140625,314.94140625,212.890625,0.0
1734589877.5783782,-870.1171875,-822.265625,-814.94140625,-876.46484375,0.0
1734589877.5822842,111.328125,59.5703125,535.15625,867.67578125,0.0
1734589877.5861323,-987.79296875,-1000.0,-885.25390625,-471.19140625,0.0
1734589877.5900383,-879.8828125,-855.95703125,-1000.0,-1000.0,0.0
1734589877.593944,527.34375,517.08984375,293.45703125,27.34375,0.0
1734589877.59785,-827.1484375,-811.5234375,-835.9375,-946.77734375,0.0
1734589877.601756,422.36328125,430.17578125,614.74609375,954.58984375,0.0
1734589877.605662,-929.19921875,-981.4453125,-757.32421875,-259.765625,0.0
1734589877.609568,-908.203125,-906.73828125,-1000.0,-1000.0,0.0
1734589877.6134741,538.0859375,543.9453125,-189.94140625,-497.55859375,0.0
1734589877.6173801,-831.54296875,-838.37890625,-941.40625,836.42578125,0.0
1734589877.6212862,625.0,649.90234375,780.76171875,-901.85546875,0.0
1734589877.6251922,-847.16796875,-803.7109375,-712.40234375,0.0,0.0
1734589877.6290982,-1000.0,-1000.0,-1000.0,-1000.0,0.0
1734589877.6328683,485.3515625,406.73828125,112.3046875,-634.765625,0.0
1734589877.6367743,-873.046875,-858.88671875,-883.7890625,743.1640625,0.0
1734589877.6406803,808.10546875,792.48046875,826.66015625,-846.6796875,0.0
1734589877.6445863,-556.640625,-595.21484375,-549.31640625,363.28125,0.0
1734589877.6484923,-1000.0,-1000.0,-1000.0,-1000.0,0.0
1734589877.6523983,222.65625,204.58984375,-193.84765625,-667.96875,0.0
1734589877.6563044,-893.06640625,-855.95703125,959.47265625,652.34375,0.0
1734589877.6602104,900.87890625,801.7578125,870.60546875,-874.0234375,0.0
1734589877.6641164,-369.62890625,-544.921875,-525.390625,648.92578125,0.0
1734589877.6680224,-1000.0,-1000.0,-1000.0,-870.60546875,0.0
1734589877.6719282,19.53125,-166.9921875,-495.1171875,-945.80078125,0.0
1734589877.6758342,-926.26953125,-942.87109375,860.3515625,566.40625,0.0
1734589877.6795466,876.953125,832.03125,957.51953125,-873.046875,0.0
1734589877.6834526,-242.1875,-548.33984375,-472.16796875,779.78515625,0.0
1734589877.6873586,-1000.0,-1000.0,-1000.0,-718.26171875,0.0
1734589877.6912644,-384.765625,-527.83203125,-781.73828125,-980.46875,0.0
1734589877.6951704,938.96484375,889.6484375,633.30078125,581.0546875,0.0
1734589877.6990764,957.03125,961.9140625,-928.22265625,-887.20703125,0.0
1734589877.7029824,42.48046875,-428.22265625,-385.7421875,829.1015625,0.0
1734589877.7068884,-1000.0,-1000.0,-1000.0,-600.09765625,0.0
1734589877.7107944,-695.80078125,-718.26171875,-846.19140625,-1000.0,0.0
1734589877.7147005,801.26953125,714.35546875,466.796875,410.15625,0.0
1734589877.7186065,-960.44921875,-919.43359375,-825.1953125,-865.234375,0.0
1734589877.7225125,148.92578125,-254.8828125,217.28515625,822.265625,0.0
1734589877.7261212,-977.05078125,-1000.0,-1000.0,-586.42578125,0.0
1734589877.7300272,-853.515625,-837.890625,-912.109375,-1000.0,0.0
1734589877.7339332,652.34375,535.64453125,464.35546875,312.5,0.0
1734589877.7378392,-898.92578125,-832.03125,-815.91796875,-873.046875,0.0
1734589877.7417452,196.2890625,36.1328125,539.55078125,852.5390625,0.0
1734589877.7456512,-922.8515625,-1000.0,-843.75,-452.63671875,0.0
1734589877.749557,-898.4375,-857.421875,-1000.0,-1000.0,0.0
1734589877.753463,535.64453125,517.578125,148.92578125,-128.41796875,0.0
1734589877.757369,-830.078125,-804.19921875,-859.86328125,-990.72265625,0.0
1734589877.761275,444.3359375,359.375,634.765625,982.91015625,0.0
1734589877.765181,-896.97265625,-1000.0,-782.71484375,-277.83203125,0.0
1734589877.769087,-814.94140625,-795.8984375,-1000.0,-1000.0,0.0
1734589877.7726367,573.73046875,571.77734375,-32.2265625,-352.5390625,0.0
1734589877.7765427,-847.65625,-851.07421875,-905.2734375,900.390625,0.0
1734589877.7804487,632.32421875,646.97265625,741.2109375,-927.24609375,0.0
1734589877.7843547,-850.09765625,-829.1015625,-729.00390625,11.23046875,0.0
1734589877.7882607,-1000.0,-1000.0,-1000.0,-1000.0,0.0
1734589877.7921665,484.86328125,449.21875,110.3515625,-634.27734375,0.0
1734589877.7960725,-874.0234375,-856.93359375,-880.37109375,743.1640625,0.0
1734589877.7999785,812.5,772.4609375,806.640625,-855.46875,0.0
1734589877.8038845,-578.61328125,-624.0234375,-562.98828125,370.60546875,0.0
1734589877.8077905,-1000.0,-1000.0,-1000.0,-1000.0,0.0
1734589877.8116965,318.359375,223.6328125,-356.4453125,-889.16015625,0.0
1734589877.8156025,-891.11328125,-856.93359375,875.9765625,543.9453125,0.0
1734589877.819091,895.01953125,801.7578125,900.390625,-835.44921875,0.0
1734589877.822997,-364.74609375,-546.38671875,-544.43359375,632.32421875,0.0
1734589877.826903,-1000.0,-1000.0,-1000.0,-865.72265625,0.0
1734589877.830809,27.34375,-136.71875,-610.83984375,-945.80078125,0.0
1734589877.8347151,-942.87109375,-937.01171875,742.1875,566.40625,0.0
1734589877.8386211,917.96875,835.9375,983.88671875,-873.046875,0.0
1734589877.8425272,-146.97265625,-537.59765625,-473.14453125,779.78515625,0.0
1734589877.8464332,-1000.0,-1000.0,-1000.0,-718.26171875,0.0
1734589877.8503392,-385.25390625,-416.50390625,-754.8828125,-980.46875,0.0
1734589877.8542452,938.4765625,948.73046875,675.29296875,581.54296875,0.0
1734589877.858151,963.37890625,925.78125,-952.1484375,-889.16015625,0.0
1734589877.862057,88.8671875,-470.21484375,-417.96875,836.42578125,0.0
1734589877.8661964,-1000.0,-1000.0,-1000.0,-616.69921875,0.0
1734589877.8701024,-707.51953125,-681.640625,-824.70703125,-1000.0,0.0
1734589877.8740084,813.96484375,748.046875,530.2734375,495.1171875,0.0
1734589877.8779142,-965.8203125,-929.19921875,-842.28515625,-872.0703125,0.0
1734589877.8818202,21.484375,-325.68359375,17.08984375,820.3125,0.0
1734589877.8857262,-1000.0,-1000.0,-1000.0,-583.49609375,0.0
1734589877.8896322,-833.984375,-808.59375,-911.1328125,-1000.0,0.0
1734589877.8935382,642.578125,559.08203125,394.04296875,312.5,0.0
1734589877.8974442,-895.99609375,-837.40234375,-813.4765625,-874.51171875,0.0
1734589877.9013503,196.77734375,-2.9296875,548.828125,861.81640625,0.0
1734589877.9052563,-921.875,-1000.0,-874.0234375,-465.8203125,0.0
1734589877.9091623,-905.76171875,-852.05078125,-1000.0,-1000.0,0.0
1734589877.9131734,543.45703125,515.625,360.3515625,26.85546875,0.0
1734589877.9170794,-833.49609375,-808.59375,-826.171875,-947.75390625,0.0
1734589877.9209855,273.4375,353.515625,600.09765625,960.9375,0.0
1734589877.9248915,-981.4453125,-1000.0,-782.2265625,-266.11328125,0.0
1734589877.9287975,-885.7421875,-893.5546875,-1000.0,-1000.0,0.0
1734589877.9327035,525.390625,536.1328125,-48.33984375,-352.5390625,0.0
1734589877.9366093,-817.87109375,-832.03125,-896.484375,900.390625,0.0
1734589877.9405153,562.01171875,625.48828125,716.796875,-926.7578125,0.0
1734589877.9444213,-895.5078125,-847.16796875,-750.0,11.23046875,0.0
1734589877.9483273,-989.74609375,-1000.0,-1000.0,-1000.0,0.0
1734589877.9522333,475.09765625,477.5390625,91.796875,-635.7421875,0.0
1734589877.9561393,-855.95703125,-852.05078125,-875.48828125,744.62890625,0.0
1734589877.9600964,742.1875,746.09375,778.80859375,-857.421875,0.0
1734589877.9640024,-655.2734375,-666.9921875,-597.16796875,354.4921875,0.0
1734589877.9679084,-1000.0,-1000.0,-1000.0,-1000.0,0.0
1734589877.9718144,321.77734375,258.7890625,-430.17578125,-828.125,0.0
1734589877.9757204,-910.64453125,-857.421875,839.84375,617.1875,0.0
1734589877.9796264,951.171875,803.7109375,921.38671875,-842.7734375,0.0
1734589877.9835324,-276.3671875,-550.29296875,-538.57421875,606.4453125,0.0
1734589877.9874384,-1000.0,-1000.0,-1000.0,-885.7421875,0.0
1734589877.9913445,27.34375,-66.89453125,-622.0703125,-939.94140625,0.0
1734589877.9952505,-940.91796875,-923.828125,723.14453125,562.98828125,0.0
1734589877.9991562,917.96875,834.47265625,987.79296875,-868.65234375,0.0
1734589878.0030622,-146.97265625,-487.3046875,-477.5390625,764.16015625,0.0
1734589878.0069237,-1000.0,-1000.0,-1000.0,-735.3515625,0.0
1734589878.0108297,-404.296875,-457.03125,-830.56640625,-977.05078125,0.0
1734589878.0147357,973.6328125,940.91796875,597.65625,580.56640625,0.0
1734589878.0186417,890.625,920.8984375,-947.265625,-889.16015625,0.0
1734589878.0225477,-205.56640625,-500.48828125,-446.2890625,835.9375,0.0
1734589878.0264537,-1000.0,-1000.0,-1000.0,-616.69921875,0.0
1734589878.0303597,-679.6875,-650.390625,-831.54296875,-1000.0,0.0
1734589878.0342658,804.6875,778.3203125,534.1796875,495.1171875,0.0
1734589878.0381718,-996.09375,-944.3359375,-853.02734375,-872.0703125,0.0
1734589878.0420775,35.15625,-338.8671875,-69.82421875,820.3125,0.0
1734589878.0459836,-983.88671875,-1000.0,-1000.0,-583.49609375,0.0
1734589878.0498896,-858.88671875,-784.1796875,-916.9921875,-1000.0,0.0
1734589878.0543926,0.0,597.65625,358.3984375,308.59375,0.0
1734589878.0582986,0.0,-845.703125,-805.17578125,-863.76953125,0.0
1734589878.0622046,0.0,-70.80078125,498.53515625,834.47265625,0.0
1734589878.0661106,0.0,-1000.0,-872.55859375,-522.94921875,0.0
1734589878.0700166,0.0,-843.26171875,-1000.0,-1000.0,0.0
1734589878.0739224,0.0,513.18359375,222.16796875,123.53515625,0.0
1734589878.0778284,0.0,-809.5703125,-830.56640625,-908.203125,0.0
1734589878.0817344,0.0,319.3359375,628.90625,932.12890625,0.0
1734589878.0856404,0.0,-1000.0,-812.01171875,-306.15234375,0.0
1734589878.0895464,0.0,-888.18359375,-1000.0,-1000.0,0.0
1734589878.0934525,0.0,534.1796875,204.58984375,-264.6484375,0.0
1734589878.0973585,0.0,-833.984375,-852.5390625,954.1015625,0.0
1734589878.0997148,667.48046875,637.20703125,706.54296875,-970.21484375,0.0
1734589878.1036208,-927.24609375,-836.42578125,-723.6328125,-180.17578125,0.0
1734589878.1075268,-4.39453125,-1000.0,-1000.0,-1000.0,0.0
1734589878.1114328,-962.890625,478.02734375,153.80859375,-537.109375,0.0
1734589878.1153388,-884.27734375,-851.5625,-863.28125,805.6640625,0.0
1734589878.1192448,537.109375,742.1875,778.80859375,-877.9296875,0.0
1734589878.1231508,-848.6328125,-682.12890625,-599.12109375,189.453125,0.0
1734589878.1270568,297.36328125,-1000.0,-1000.0,-1000.0,0.0
1734589878.1309628,-920.8984375,302.734375,-83.49609375,-769.04296875,0.0
1734589878.1348689,-895.01953125,-857.91015625,-942.3828125,639.16015625,0.0
1734589878.1387749,531.73828125,807.12890625,858.3984375,-837.40234375,0.0
1734589878.1426806,-837.40234375,-550.29296875,-511.23046875,543.45703125,0.0
1734589878.1463416,-1000.0,-1000.0,-1000.0,-931.15234375,0.0
1734589878.1502476,28.80859375,7.8125,-630.859375,-925.78125,0.0
1734589878.1541536,-942.87109375,-901.85546875,727.5390625,555.6640625,0.0
1734589878.1580596,919.921875,826.66015625,982.91015625,-859.375,0.0
1734589878.1619656,-144.04296875,-495.60546875,-486.328125,729.98046875,0.0
1734589878.1658716,-1000.0,-1000.0,-1000.0,-771.97265625,0.0
1734589878.1697776,-397.4609375,-390.13671875,-753.90625,-969.23828125,0.0
1734589878.1736836,962.40234375,971.6796875,671.38671875,578.61328125,0.0
1734589878.1775894,906.73828125,899.4140625,-965.8203125,-890.13671875,0.0
1734589878.1814954,-100.09765625,-503.41796875,-446.2890625,838.37890625,0.0
1734589878.1854014,-1000.0,-1000.0,-1000.0,-623.53515625,0.0
1734589878.1893075,-692.87109375,-643.5546875,-832.03125,-1000.0,0.0
1734589878.1929042,811.03515625,788.0859375,537.109375,526.85546875,0.0
1734589878.1968102,-993.65234375,-954.1015625,-864.2578125,-878.41796875,0.0
1734589878.2007163,9.765625,-333.984375,-55.6640625,828.125,0.0
1734589878.204622,-1000.0,-1000.0,-1000.0,-600.09765625,0.0
1734589878.208528,-853.02734375,-781.25,-850.5859375,-1000.0,0.0
1734589878.212434,662.59765625,617.1875,504.39453125,401.85546875,0.0
1734589878.21634,-916.015625,-857.91015625,-816.40625,-859.375,0.0
1734589878.220246,-48.33984375,-121.58203125,508.30078125,802.24609375,0.0
1734589878.224152,-1000.0,-1000.0,-864.74609375,-548.33984375,0.0
1734589878.228058,-874.0234375,-840.33203125,-1000.0,-1000.0,0.0
1734589878.231964,535.15625,512.6953125,247.0703125,20.01953125,0.0
1734589878.2358701,-849.12109375,-810.546875,-835.9375,-934.5703125,0.0
1734589878.2401526,297.8515625,278.3203125,611.81640625,924.31640625,0.0
1734589878.2440586,-920.8984375,-1000.0,-773.92578125,-351.5625,0.0
1734589878.2479646,-895.01953125,-882.32421875,-1000.0,-1000.0,0.0
1734589878.2518704,524.90234375,529.296875,-120.1171875,-362.3046875,0.0
1734589878.2557764,-814.453125,-825.68359375,-908.203125,917.48046875,0.0
1734589878.2596824,547.36328125,597.65625,714.84375,-954.58984375,0.0
1734589878.2635884,-926.26953125,-868.1640625,-765.625,-187.98828125,0.0
1734589878.2674944,-936.03515625,-996.09375,-1000.0,-1000.0,0.0
1734589878.2714005,541.9921875,473.6328125,92.28515625,-533.69140625,0.0
1734589878.2753065,-849.12109375,-846.19140625,-873.53515625,801.7578125,0.0
1734589878.2792125,693.359375,723.14453125,770.99609375,-875.48828125,0.0
1734589878.2831185,-729.4921875,-703.125,-606.93359375,250.0,0.0
1734589878.2872198,-1000.0,-1000.0,-1000.0,-1000.0,0.0
1734589878.2911258,329.58984375,318.84765625,-264.6484375,-811.5234375,0.0
1734589878.2950318,-884.27734375,-850.09765625,968.26171875,607.421875,0.0
1734589878.2989376,553.7109375,459.9609375,533.69140625,-832.03125,0.0
1734589878.3028436,-503.90625,-671.875,-677.24609375,557.6171875,0.0
1734589878.3067496,-1000.0,-1000.0,-1000.0,-923.33984375,0.0
1734589878.3106556,-4.39453125,-22.94921875,-598.14453125,-928.7109375,0.0
1734589878.3145616,-933.10546875,-892.578125,778.80859375,557.6171875,0.0
1734589878.3184676,939.94140625,833.0078125,970.21484375,-861.328125,0.0
1734589878.3223736,-221.6796875,-485.83984375,-479.4921875,737.3046875,0.0
1734589878.3262796,-1000.0,-1000.0,-1000.0,-764.6484375,0.0
1734589878.3301857,-187.01171875,-351.5625,-688.4765625,-970.703125,0.0
1734589878.33417,-980.95703125,982.91015625,737.79296875,579.1015625,0.0
1734589878.338076,897.94921875,888.671875,-981.93359375,-891.11328125,0.0
1734589878.3419821,-88.8671875,-450.1953125,-444.82421875,843.26171875,0.0
1734589878.3458881,-1000.0,-1000.0,-1000.0,-635.25390625,0.0
1734589878.3497941,-591.796875,-640.625,-823.73046875,-994.140625,0.0
1734589878.3537002,855.46875,795.8984375,542.96875,583.0078125,0.0
1734589878.3576062,-990.72265625,-963.37890625,-868.65234375,-885.25390625,0.0
1734589878.361512,197.265625,-224.12109375,-0.48828125,828.61328125,0.0
1734589878.365418,-983.88671875,-1000.0,-1000.0,-598.6328125,0.0
1734589878.369324,-805.17578125,-802.24609375,-861.81640625,-1000.0,0.0
1734589878.37323,750.0,633.7890625,512.6953125,401.85546875,0.0
1734589878.377136,-929.6875,-867.67578125,-816.40625,-858.88671875,0.0
1734589878.3809948,-56.15234375,-175.78125,456.54296875,801.7578125,0.0
1734589878.3849008,-1000.0,-1000.0,-890.625,-549.8046875,0.0
1734589878.3888068,-879.8828125,-846.6796875,-1000.0,-1000.0,0.0
1734589878.3927128,546.38671875,523.92578125,264.16015625,29.296875,0.0
1734589878.3966188,-853.02734375,-811.03515625,-830.56640625,-932.12890625,0.0
1734589878.4005249,125.48828125,9.27734375,414.0625,733.3984375,0.0
1734589878.4044309,-974.12109375,-1000.0,-874.51171875,-451.171875,0.0
1734589878.4083369,-867.67578125,-837.890625,-1000.0,-1000.0,0.0
1734589878.412243,515.625,507.32421875,16.11328125,-182.12890625,0.0
1734589878.416149,-824.21875,-812.98828125,-872.0703125,990.72265625,0.0
1734589878.4200547,601.07421875,564.94140625,683.59375,-985.3515625,0.0
1734589878.4239607,-860.83984375,-896.484375,-757.32421875,-172.8515625,0.0
1734589878.4277596,-938.4765625,-981.4453125,-1000.0,-1000.0,0.0
1734589878.4316657,556.640625,479.4921875,8.30078125,-537.109375,0.0
1734589878.4355717,-849.609375,-839.35546875,-888.18359375,805.6640625,0.0
1734589878.4394777,693.84765625,689.94140625,764.16015625,-878.41796875,0.0
1734589878.4433837,-758.30078125,-740.72265625,-636.71875,190.91796875,0.0
1734589878.4472897,-1000.0,-1000.0,-1000.0,-1000.0,0.0
1734589878.4511957,410.15625,307.6171875,-247.0703125,-747.55859375,0.0
1734589878.4551017,-900.87890625,-859.86328125,976.07421875,661.1328125,0.0
1734589878.4590075,918.9453125,811.5234375,891.6015625,-841.796875,0.0
1734589878.4629135,-389.6484375,-559.08203125,-523.4375,554.19921875,0.0
1734589878.4668195,-1000.0,-1000.0,-1000.0,-927.24609375,0.0
1734589878.4707255,224.12109375,83.49609375,-307.6171875,-927.24609375,0.0
1734589878.4744458,0.0,-880.859375,973.14453125,555.17578125,0.0
1734589878.4783518,0.0,809.5703125,912.59765625,-854.4921875,0.0
1734589878.4822578,0.0,-532.71484375,-480.46875,708.984375,0.0
1734589878.4861639,0.0,-1000.0,-1000.0,-794.921875,0.0
1734589878.4900699,0.0,-356.93359375,-795.8984375,-964.35546875,0.0
1734589878.4939756,0.0,990.72265625,626.953125,577.63671875,0.0
1734589878.4978817,0.0,862.3046875,-965.8203125,-891.11328125,0.0
1734589878.5017877,0.0,-542.96875,-464.84375,843.26171875,0.0
1734589878.5056937,0.0,-1000.0,-1000.0,-635.25390625,0.0
1734589878.5095997,0.0,-630.859375,-838.8671875,-994.140625,0.0
1734589878.5135057,0.0,811.03515625,546.38671875,583.0078125,0.0
1734589878.5174117,0.0,-983.3984375,-879.39453125,-885.7421875,0.0
1734589878.5210938,179.6875,-365.72265625,-165.52734375,828.61328125,0.0
1734589878.5249999,-997.55859375,-1000.0,-1000.0,-598.6328125,0.0
1734589878.5289059,-800.78125,-748.046875,-838.37890625,-1000.0,0.0
1734589878.5328116,748.046875,670.8984375,506.34765625,401.85546875,0.0
1734589878.5367177,-929.6875,-880.37109375,-813.96484375,-860.3515625,0.0
1734589878.5406237,-49.31640625,-232.421875,415.0390625,806.640625,0.0
1734589878.5445297,-1000.0,-1000.0,-920.8984375,-559.08203125,0.0
1734589878.5484357,-871.58203125,-831.0546875,-1000.0,-1000.0,0.0
1734589878.5523417,538.57421875,512.6953125,311.5234375,105.46875,0.0
1734589878.5562477,-864.2578125,-812.98828125,-832.03125,-916.015625,0.0
1734589878.5601537,366.2109375,170.8984375,627.44140625,918.9453125,0.0
1734589878.5640597,-857.421875,-1000.0,-847.65625,-369.62890625,0.0
1734589878.5683203,-911.62109375,-866.69921875,-1000.0,-1000.0,0.0
1734589878.572226,535.15625,520.01953125,406.25,-167.48046875,0.0
1734589878.576132,-831.0546875,-815.4296875,-829.58984375,987.79296875,0.0
1734589878.580038,605.46875,547.8515625,646.97265625,-990.72265625,0.0
1734589878.583944,-855.46875,-924.8046875,-759.765625,-189.453125,0.0
1734589878.58785,-939.453125,-940.91796875,-1000.0,-1000.0,0.0
1734589878.591756,556.640625,533.69140625,154.78515625,-540.0390625,0.0
1734589878.595662,-849.609375,-846.6796875,-856.93359375,810.546875,0.0
1734589878.5995681,693.84765625,691.89453125,751.953125,-883.7890625,0.0
1734589878.6034741,-758.30078125,-752.9296875,-642.08984375,124.0234375,0.0
1734589878.6073802,-1000.0,-1000.0,-1000.0,-1000.0,0.0
1734589878.611286,407.2265625,364.74609375,-20.99609375,-730.95703125,0.0
1734589878.6155488,-891.11328125,-861.328125,-917.96875,685.05859375,0.0
1734589878.6194546,883.30078125,809.08203125,845.703125,-846.6796875,0.0
1734589878.6233606,-436.03515625,-561.5234375,-520.01953125,361.81640625,0.0
1734589878.6272666,-1000.0,-1000.0,-1000.0,-1000.0,0.0
1734589878.6311727,221.6796875,104.00390625,-483.88671875,-897.4609375,0.0
1734589878.6350787,-893.06640625,-876.46484375,832.03125,538.57421875,0.0
1734589878.6389847,896.484375,812.5,939.453125,-836.42578125,0.0
1734589878.6428907,-305.6640625,-549.8046875,-500.0,613.76953125,0.0
1734589878.6467967,-1000.0,-1000.0,-1000.0,-867.1875,0.0
1734589878.6507027,-173.33984375,-189.94140625,-587.890625,-943.84765625,0.0
1734589878.6546087,-994.140625,-957.03125,820.80078125,562.01171875,0.0
1734589878.6585145,912.109375,842.28515625,989.2578125,-859.86328125,0.0
1734589878.6626146,-50.78125,-474.609375,-454.1015625,720.703125,0.0
1734589878.6665206,-1000.0,-1000.0,-1000.0,-772.94921875,0.0
1734589878.6704266,-601.07421875,-611.328125,-846.19140625,-966.796875,0.0
1734589878.6743326,873.046875,836.42578125,545.8984375,575.1953125,0.0
1734589878.6782386,970.703125,-992.67578125,-885.25390625,-879.8828125,0.0
1734589878.6821446,99.609375,-366.69921875,-219.23828125,806.15234375,0.0
1734589878.6860507,-989.2578125,-1000.0,-1000.0,-627.9296875,0.0
1734589878.6899564,-799.8046875,-742.1875,-848.14453125,-1000.0,0.0
1734589878.6938624,754.39453125,680.17578125,476.07421875,401.3671875,0.0
1734589878.6977684,-966.30859375,-886.71875,-814.94140625,-862.3046875,0.0
1734589878.7016745,18.5546875,-238.28125,427.24609375,814.453125,0.0
1734589878.7055805,-956.0546875,-1000.0,-930.6640625,-570.80078125,0.0
1734589878.7095776,-906.25,-833.49609375,-972.65625,-1000.0,0.0
1734589878.7134836,563.4765625,516.11328125,414.0625,217.7734375,0.0
1734589878.7173893,-885.7421875,-820.80078125,-828.61328125,-886.71875,0.0
1734589878.7212954,175.29296875,162.109375,628.41796875,891.6015625,0.0
1734589878.7252014,-904.78515625,-1000.0,-849.12109375,-398.4375,0.0
1734589878.7291074,-893.5546875,-868.1640625,-993.1640625,-1000.0,0.0
1734589878.7330134,529.296875,520.01953125,467.28515625,-111.328125,0.0
1734589878.7369194,-826.171875,-813.96484375,-827.63671875,-987.3046875,0.0
1734589878.7408254,422.36328125,520.01953125,619.140625,980.95703125,0.0
1734589878.7447314,-929.19921875,-937.01171875,-726.5625,-243.65234375,0.0
1734589878.7486374,-908.203125,-935.546875,-1000.0,-1000.0,0.0
1734589878.7525434,538.0859375,532.2265625,-225.09765625,-539.55078125,0.0
1734589878.7564406,-829.1015625,-844.7265625,-956.0546875,811.5234375,0.0
1734589878.7603467,617.1875,684.08203125,791.50390625,-887.6953125,0.0
1734589878.7642527,-829.1015625,-765.625,-654.296875,73.2421875,0.0
1734589878.7681587,-1000.0,-1000.0,-1000.0,-1000.0,0.0
1734589878.7720647,398.92578125,383.7890625,-297.8515625,-717.28515625,0.0
1734589878.7759707,-882.8125,-863.28125,953.61328125,673.828125,0.0
1734589878.7798767,855.46875,812.01171875,912.59765625,-843.26171875,0.0
1734589878.7837827,-472.65625,-571.2890625,-519.53125,491.2109375,0.0
1734589878.7876887,-1000.0,-1000.0,-1000.0,-975.09765625,0.0
1734589878.7915947,224.12109375,205.56640625,-216.30859375,-855.46875,0.0
1734589878.7955005,-902.34375,-855.95703125,-988.76953125,626.46484375,0.0
1734589878.7994065,919.921875,802.24609375,892.08984375,-859.86328125,0.0
1734589878.8039062,-264.16015625,-538.0859375,-485.3515625,682.12890625,0.0
1734589878.8078122,-1000.0,-1000.0,-1000.0,-820.3125,0.0
1734589878.8117182,-179.19921875,-190.4296875,-760.25390625,-962.40234375,0.0
1734589878.8156242,-986.328125,-957.51953125,651.85546875,579.1015625,0.0
1734589878.8195302,910.64453125,844.23828125,-975.09765625,-884.27734375,0.0
1734589878.8234363,-150.390625,-480.46875,-465.8203125,712.890625,0.0
1734589878.8273423,-1000.0,-1000.0,-1000.0,-709.47265625,0.0
1734589878.8312483,-588.37890625,-576.171875,-843.75,-971.19140625,0.0
1734589878.8351543,869.140625,871.09375,558.10546875,574.21875,0.0
1734589878.83906,967.28515625,986.81640625,-893.06640625,-883.30078125,0.0
1734589878.842966,39.55078125,-425.78125,-282.71484375,828.61328125,0.0
1734589878.846872,-1000.0,-1000.0,-1000.0,-598.6328125,0.0
1734589878.8505688,-791.015625,-713.37890625,-827.63671875,-1000.0,0.0
1734589878.8544748,750.0,704.1015625,489.2578125,401.85546875,0.0
1734589878.8583808,-965.8203125,-900.390625,-821.2890625,-864.74609375,0.0
1734589878.8622868,20.01953125,-233.88671875,466.30859375,822.265625,0.0
1734589878.8661928,-960.44921875,-1000.0,-932.6171875,-586.9140625,0.0
1734589878.8700988,-889.6484375,-838.8671875,-925.29296875,-1000.0,0.0
1734589878.8740048,584.47265625,519.04296875,530.76171875,317.87109375,0.0
1734589878.8779109,-887.20703125,-821.77734375,-830.56640625,-887.20703125,0.0
1734589878.8818169,168.9453125,109.86328125,602.5390625,894.04296875,0.0
1734589878.8857229,-913.0859375,-1000.0,-827.63671875,-394.53125,0.0
1734589878.889629,-892.08984375,-861.328125,-1000.0,-1000.0,0.0
1734589878.893535,529.296875,517.578125,323.73046875,-17.08984375,0.0
1734589878.8971407,-826.171875,-812.98828125,-833.984375,-966.30859375,0.0
1734589878.9010468,422.36328125,496.58203125,634.765625,978.515625,0.0
1734589878.9049528,-929.19921875,-952.1484375,-738.28125,-205.078125,0.0
1734589878.9088588,-908.203125,-918.45703125,-1000.0,-1000.0,0.0
1734589878.9127648,538.0859375,549.8046875,-143.06640625,-538.57421875,0.0
1734589878.9166708,-829.1015625,-843.75,-928.7109375,809.5703125,0.0
1734589878.9205768,617.1875,669.43359375,780.76171875,-884.27734375,0.0
1734589878.9244828,-829.1015625,-781.25,-659.66796875,117.1875,0.0
1734589878.9283888,-1000.0,-1000.0,-1000.0,-1000.0,0.0
1734589878.9322948,391.6015625,391.6015625,-138.18359375,-724.609375,0.0
1734589878.9362009,-864.2578125,-854.4921875,-959.47265625,677.24609375,0.0
1734589878.9401066,806.640625,782.71484375,882.32421875,-833.984375,0.0
1734589878.9436135,-565.4296875,-612.3046875,-534.1796875,462.40234375,0.0
1734589878.9475195,-1000.0,-1000.0,-1000.0,-985.83984375,0.0
1734589878.9514256,220.703125,205.56640625,-44.43359375,-652.34375,0.0
1734589878.9553316,-895.99609375,-858.88671875,-928.7109375,704.58984375,0.0
1734589878.9592376,907.71484375,806.15234375,872.55859375,-890.13671875,0.0
1734589878.9631436,-351.07421875,-528.80859375,-448.73046875,682.6171875,0.0
1734589878.9670496,-1000.0,-1000.0,-1000.0,-839.84375,0.0
1734589878.9709556,29.296875,-187.5,-518.5546875,-953.125,0.0
1734589878.9748616,-943.84765625,-961.9140625,873.53515625,568.359375,0.0
1734589878.9787676,902.83203125,850.5859375,973.14453125,-873.046875,0.0
1734589878.9826736,-66.89453125,-432.6171875,-453.61328125,779.78515625,0.0
1734589878.9865794,-1000.0,-1000.0,-1000.0,-718.26171875,0.0
1734589878.9907577,-599.12109375,-581.54296875,-840.8203125,-980.46875,0.0
1734589878.9946637,877.44140625,875.0,553.22265625,581.0546875,0.0
1734589878.9985697,977.5390625,983.3984375,-886.23046875,-883.7890625,0.0
1734589879.0024757,-87.890625,-412.109375,-224.12109375,830.078125,0.0
1734589879.0063818,-1000.0,-1000.0,-1000.0,-614.74609375,0.0
1734589879.0102878,-645.5078125,-619.62890625,-728.02734375,-950.68359375,0.0
1734589879.0141938,781.25,742.1875,542.96875,528.80859375,0.0
1734589879.0180998,-963.8671875,-922.8515625,-842.7734375,-887.6953125,0.0
1734589879.0220058,56.15234375,-225.09765625,495.1171875,828.61328125,0.0
1734589879.0259118,-998.53515625,-1000.0,-919.921875,-586.42578125,0.0
1734589879.0298178,-887.20703125,-844.7265625,-932.12890625,-1000.0,0.0
1734589879.0337236,582.51953125,524.4140625,527.34375,312.5,0.0
1734589879.0385416,-873.53515625,-824.70703125,-828.125,-874.0234375,0.0
1734589879.0424473,112.3046875,37.109375,586.42578125,861.328125,0.0
1734589879.0463533,-987.3046875,-1000.0,-819.82421875,-464.84375,0.0
1734589879.0502594,-879.8828125,-853.515625,-1000.0,-1000.0,0.0
1734589879.0541654,528.80859375,516.11328125,229.4921875,16.6015625,0.0
1734589879.0580714,-831.54296875,-812.01171875,-844.23828125,-950.1953125,0.0
1734589879.0619774,440.4296875,427.24609375,658.69140625,962.40234375,0.0
1734589879.0658834,-910.15625,-979.4921875,-782.71484375,-267.08984375,0.0
1734589879.0697894,-912.59765625,-906.25,-1000.0,-1000.0,0.0
1734589879.0736954,539.0625,543.45703125,205.078125,-352.5390625,0.0
1734589879.0776014,-831.54296875,-838.8671875,-853.02734375,899.90234375,0.0
1734589879.0815074,625.0,653.3203125,750.0,-927.24609375,0.0
1734589879.086166,-847.16796875,-800.29296875,-648.4375,11.23046875,0.0
1734589879.090072,-1000.0,-1000.0,-1000.0,-1000.0,0.0
1734589879.093978,484.86328125,403.3203125,61.5234375,-639.6484375,0.0
1734589879.097884,-874.51171875,-850.09765625,-898.92578125,750.0,0.0
1734589879.10179,812.5,763.671875,840.33203125,-858.3984375,0.0
1734589879.105696,-578.125,-639.16015625,-514.6484375,276.85546875,0.0
1734589879.109602,-1000.0,-1000.0,-1000.0,-1000.0,0.0
1734589879.1135077,318.84765625,215.33203125,-225.09765625,-814.94140625,0.0
1734589879.1174138,-891.11328125,-856.93359375,-991.69921875,611.328125,0.0
1734589879.1213198,894.53125,800.29296875,892.578125,-845.21484375,0.0
1734589879.1252258,-364.74609375,-539.0625,-489.74609375,634.27734375,0.0
1734589879.1291318,-1000.0,-1000.0,-1000.0,-864.2578125,0.0
1734589879.1329608,17.08984375,-194.82421875,-690.91796875,-945.80078125,0.0
1734589879.1368668,-926.7578125,-950.68359375,704.1015625,566.40625,0.0
1734589879.1407728,876.46484375,834.47265625,-996.09375,-873.046875,0.0
1734589879.1446788,-243.65234375,-547.8515625,-473.6328125,779.78515625,0.0
1734589879.1485848,-1000.0,-1000.0,-1000.0,-718.26171875,0.0
1734589879.1524909,-385.25390625,-566.89453125,-839.35546875,-980.46875,0.0
1734589879.1563969,939.94140625,874.0234375,564.453125,581.0546875,0.0
1734589879.1603026,955.078125,962.890625,-901.3671875,-889.16015625,0.0
1734589879.1642087,33.203125,-423.828125,-279.296875,836.42578125,0.0
1734589879.1681147,-1000.0,-1000.0,-1000.0,-616.69921875,0.0
1734589879.1720207,-694.3359375,-712.890625,-823.2421875,-1000.0,0.0
1734589879.1759267,801.26953125,717.7734375,501.46484375,495.1171875,0.0
1734589879.1796174,-960.44921875,-921.875,-829.1015625,-871.58203125,0.0
1734589879.1835234,148.92578125,-180.17578125,503.41796875,820.80078125,0.0
1734589879.1874294,-977.05078125,-1000.0,-905.76171875,-583.49609375,0.0
1734589879.1913354,-854.4921875,-833.49609375,-933.59375,-1000.0,0.0
1734589879.1952415,650.87890625,569.3359375,535.64453125,312.5,0.0
1734589879.1991475,-889.6484375,-835.9375,-824.70703125,-872.55859375,0.0
1734589879.2030532,142.08984375,-31.73828125,560.05859375,852.05078125,0.0
1734589879.2069592,-964.84375,-1000.0,-812.5,-452.1484375,0.0
1734589879.2108653,-886.23046875,-846.19140625,-1000.0,-1000.0,0.0
1734589879.2147713,530.76171875,513.18359375,94.23828125,-136.23046875,0.0
1734589879.2186773,-832.03125,-808.10546875,-863.76953125,-991.2109375,0.0
1734589879.2225833,439.453125,359.86328125,673.33984375,980.95703125,0.0
1734589879.2262006,-910.64453125,-1000.0,-814.94140625,-285.64453125,0.0
1734589879.2301066,-912.109375,-894.53125,-1000.0,-1000.0,0.0
1734589879.2340126,539.0625,536.62109375,322.265625,-357.421875,0.0
1734589879.2379184,-831.54296875,-832.03125,-835.9375,906.25,0.0
1734589879.2418244,624.51171875,625.0,708.0078125,-929.19921875,0.0
1734589879.2457304,-847.16796875,-846.19140625,-704.1015625,-88.37890625,0.0
1734589879.2496364,-1000.0,-1000.0,-1000.0,-1000.0,0.0
1734589879.2535424,484.86328125,475.09765625,177.734375,-623.53515625,0.0
1734589879.2574484,-874.51171875,-857.91015625,-875.9765625,741.69921875,0.0
1734589879.2613544,812.5,767.08984375,828.125,-856.93359375,0.0
1734589879.2652605,-578.61328125,-643.5546875,-514.16015625,280.76171875,0.0
1734589879.2691665,-1000.0,-1000.0,-1000.0,-1000.0,0.0
1734589879.273443,322.75390625,277.83203125,-131.8359375,-816.89453125,0.0
1734589879.277349,-901.85546875,-858.3984375,-958.984375,610.83984375,0.0
1734589879.281255,928.22265625,809.08203125,882.32421875,-837.890625,0.0
1734589879.285161,-313.4765625,-542.48046875,-473.6328125,586.9140625,0.0
1734589879.289067,-1000.0,-1000.0,-1000.0,-900.390625,0.0
1734589879.292973,19.53125,-37.59765625,-452.1484375,-937.01171875,0.0
1734589879.296879,-924.31640625,-906.73828125,911.62109375,552.734375,0.0
1734589879.300785,876.46484375,819.82421875,949.70703125,-829.58984375,0.0
1734589879.304691,-243.65234375,-546.38671875,-462.890625,570.3125,0.0
1734589879.308597,-1000.0,-1000.0,-1000.0,-910.15625,0.0
1734589879.312503,-395.01953125,-397.94921875,-786.62109375,-933.59375,0.0
1734589879.3164089,959.47265625,956.54296875,648.4375,567.3828125,0.0
1734589879.319843,915.0390625,922.36328125,-940.4296875,-886.71875,0.0
1734589879.323749,-109.86328125,-482.421875,-410.15625,831.0546875,0.0
1734589879.327655,-1000.0,-1000.0,-1000.0,-607.91015625,0.0
1734589879.331561,-689.453125,-683.59375,-825.68359375,-1000.0,0.0
1734589879.335467,805.17578125,743.65234375,512.6953125,443.84765625,0.0
1734589879.339373,-977.05078125,-928.7109375,-838.8671875,-868.1640625,0.0
1734589879.3432791,23.92578125,-323.73046875,167.48046875,821.77734375,0.0
1734589879.3471851,-1000.0,-1000.0,-1000.0,-585.44921875,0.0
1734589879.3510911,-840.8203125,-788.0859375,-879.39453125,-1000.0,0.0
1734589879.3549972,647.94921875,588.37890625,514.16015625,310.05859375,0.0
1734589879.3589032,-902.34375,-845.703125,-827.1484375,-868.1640625,0.0
1734589879.3628092,158.203125,0.48828125,601.5625,841.796875,0.0
1734589879.3669128,-930.17578125,-1000.0,-832.51953125,-496.58203125,0.0
1734589879.3708189,-898.4375,-853.515625,-1000.0,-1000.0,0.0
1734589879.3747249,541.9921875,517.08984375,367.67578125,24.4140625,0.0
1734589879.3786306,-848.14453125,-812.98828125,-827.1484375,-942.3828125,0.0
1734589879.3825366,400.87890625,376.46484375,629.8828125,946.2890625,0.0
1734589879.3864427,-884.765625,-990.72265625,-742.67578125,-299.31640625,0.0
1734589879.3903487,-910.64453125,-898.4375,-1000.0,-1000.0,0.0
1734589879.3942547,533.203125,537.109375,-87.890625,-360.83984375,0.0
1734589879.3981607,-818.84765625,-832.03125,-897.94921875,914.0625,0.0
1734589879.4020667,562.98828125,625.48828125,731.93359375,-948.2421875,0.0
1734589879.4059727,-894.53125,-847.16796875,-742.1875,-137.20703125,0.0
1734589879.4098787,-990.234375,-1000.0,-1000.0,-1000.0,0.0
1734589879.4138439,475.09765625,479.00390625,123.53515625,-618.65234375,0.0
