timestamps,TP9,AF7,AF8,TP10,Right AUX
1734589164.301006,-1000.0,-1000.0,-1000.0,-1000.0,0.0
1734589164.3049116,378.90625,302.734375,-155.76171875,-704.1015625,0.0
1734589164.3088171,-900.390625,-861.81640625,996.09375,686.5234375,0.0
1734589164.3127227,919.921875,817.87109375,984.86328125,-864.74609375,0.0
1734589164.3166285,-391.11328125,-537.59765625,-238.76953125,-80.56640625,0.0
1734589164.320534,-1000.0,-1000.0,-1000.0,-1000.0,0.0
1734589164.3244395,219.23828125,31.73828125,-484.375,-848.14453125,0.0
1734589164.328345,-884.27734375,-891.11328125,823.2421875,520.5078125,0.0
1734589164.3322506,875.0,817.3828125,-935.546875,-812.98828125,0.0
1734589164.3361564,-346.6796875,-537.59765625,82.03125,190.91796875,0.0
1734589164.340062,-1000.0,-1000.0,-1000.0,-1000.0,0.0
1734589164.3439016,-185.546875,-331.0546875,-809.08203125,-869.140625,0.0
1734589164.3478074,-971.6796875,-997.0703125,601.5625,521.484375,0.0
1734589164.351713,871.09375,854.98046875,-873.046875,-816.40625,0.0
1734589164.3556185,-236.81640625,-562.01171875,474.12109375,549.31640625,0.0
1734589164.359524,-1000.0,-1000.0,-906.25,-929.19921875,0.0
1734589164.3634295,-598.14453125,-605.46875,-918.45703125,-927.24609375,0.0
1734589164.367335,882.32421875,833.49609375,573.2421875,555.17578125,0.0
1734589164.3712409,953.61328125,-996.09375,-865.72265625,-852.5390625,0.0
1734589164.3751464,-182.12890625,-412.59765625,636.23046875,701.66015625,0.0
1734589164.379052,-1000.0,-1000.0,-822.265625,-775.87890625,0.0
1734589164.3829575,-760.7421875,-737.79296875,-954.1015625,-1000.0,0.0
1734589164.386863,732.91015625,677.734375,566.89453125,484.86328125,0.0
1734589164.3906946,-947.75390625,-890.13671875,-869.62890625,-873.53515625,0.0
1734589164.3946002,-90.8203125,-239.74609375,763.671875,820.3125,0.0
1734589164.3985057,-1000.0,-1000.0,-726.07421875,-583.49609375,0.0
1734589164.4024112,-883.7890625,-835.9375,-983.3984375,-1000.0,0.0
1734589164.406317,553.7109375,520.99609375,560.05859375,305.17578125,0.0
1734589164.4102225,-878.41796875,-831.0546875,-873.53515625,-855.95703125,0.0
1734589164.414128,155.2734375,169.43359375,782.2265625,805.17578125,0.0
1734589164.4180336,-930.6640625,-1000.0,-642.08984375,-554.19921875,0.0
1734589164.4219391,-888.671875,-874.0234375,-1000.0,-1000.0,0.0
1734589164.425845,526.3671875,521.484375,347.65625,4.39453125,0.0
1734589164.4297504,-818.84765625,-812.98828125,-855.95703125,-895.5078125,0.0
1734589164.433656,396.484375,476.5625,767.578125,814.453125,0.0
1734589164.4375856,-963.37890625,-960.9375,-617.1875,-543.9453125,0.0
1734589164.4414911,-908.203125,-919.921875,-1000.0,-1000.0,0.0
1734589164.445397,543.9453125,553.22265625,150.87890625,-369.62890625,0.0
1734589164.4493024,-833.984375,-840.33203125,-897.4609375,942.87109375,0.0
1734589164.453208,524.90234375,547.36328125,770.5078125,869.140625,0.0
1734589164.4571135,-881.34765625,-835.9375,-499.0234375,-420.41015625,0.0
1734589164.461019,-987.79296875,-1000.0,-1000.0,-1000.0,0.0
1734589164.4649246,476.5625,381.34765625,-3.41796875,-642.578125,0.0
1734589164.4688303,-871.58203125,-850.09765625,-944.3359375,772.94921875,0.0
1734589164.472736,812.5,775.390625,948.2421875,-904.296875,0.0
1734589164.4766414,-578.61328125,-622.55859375,-320.3125,-219.7265625,0.0
1734589164.480547,-1000.0,-1000.0,-1000.0,-1000.0,0.0
1734589164.4844644,325.1953125,234.86328125,-251.953125,-767.578125,0.0
1734589164.48837,-899.90234375,-893.5546875,909.1796875,598.14453125,0.0
1734589164.4922755,952.1484375,915.52734375,-919.921875,-795.41015625,0.0
1734589164.496181,-305.6640625,-334.9609375,188.96484375,128.41796875,0.0
1734589164.5000868,-916.015625,-1000.0,-1000.0,-933.59375,0.0
1734589164.5039923,356.93359375,246.09375,-125.9765625,203.61328125,0.0
1734589164.5078979,-962.40234375,-947.75390625,972.16796875,-981.93359375,0.0
1734589164.5118034,951.66015625,910.15625,-966.30859375,-970.21484375,0.0
1734589164.515709,-96.19140625,-26.3671875,606.4453125,626.953125,0.0
1734589164.5196145,-1000.0,-1000.0,-970.21484375,-1000.0,0.0
1734589164.5235202,-197.75390625,-412.59765625,-693.359375,-546.875,0.0
1734589164.5274258,-975.5859375,994.140625,822.265625,883.30078125,0.0
1734589164.5313284,879.8828125,916.50390625,-924.31640625,-917.48046875,0.0
1734589164.535234,43.45703125,-347.16796875,589.84375,650.87890625,0.0
1734589164.5391395,-1000.0,-1000.0,-845.703125,-854.00390625,0.0
1734589164.543045,-722.65625,-680.6640625,-943.359375,-986.81640625,0.0
1734589164.5469506,835.9375,774.90234375,562.5,502.44140625,0.0
1734589164.550856,906.73828125,951.171875,-856.4453125,-859.86328125,0.0
1734589164.554762,-373.53515625,-387.6953125,699.21875,762.6953125,0.0
1734589164.5586674,-1000.0,-1000.0,-796.875,-678.22265625,0.0
1734589164.562573,-803.22265625,-797.8515625,-965.8203125,-1000.0,0.0
1734589164.5664785,630.37109375,602.5390625,561.03515625,371.58203125,0.0
1734589164.570384,-872.55859375,-853.02734375,-865.234375,-862.3046875,0.0
1734589164.5742896,-234.86328125,-133.7890625,746.09375,815.4296875,0.0
1734589164.5781796,-1000.0,-1000.0,-712.890625,-571.77734375,0.0
1734589164.5820854,-832.03125,-837.40234375,-1000.0,-1000.0,0.0
1734589164.585991,519.53125,511.71875,444.82421875,205.56640625,0.0
1734589164.5898964,-836.9140625,-809.5703125,-853.515625,-855.46875,0.0
1734589164.593802,254.39453125,273.92578125,736.328125,799.8046875,0.0
1734589164.5977075,-967.7734375,-1000.0,-650.87890625,-542.96875,0.0
1734589164.6016133,-885.25390625,-881.8359375,-1000.0,-1000.0,0.0
1734589164.6055188,522.4609375,528.80859375,126.46484375,-187.98828125,0.0
1734589164.6094244,-814.94140625,-821.2890625,-887.20703125,-969.23828125,0.0
1734589164.61333,547.36328125,572.75390625,827.1484375,890.13671875,0.0
1734589164.6172354,-925.78125,-887.6953125,-556.15234375,-462.40234375,0.0
1734589164.621141,-938.4765625,-990.234375,-1000.0,-1000.0,0.0
1734589164.6250145,537.59765625,471.19140625,77.63671875,-557.6171875,0.0
1734589164.62892,-849.12109375,-843.75,-917.96875,846.6796875,0.0
1734589164.6328256,693.84765625,713.37890625,903.3203125,-957.51953125,0.0
1734589164.6367311,-758.7890625,-716.30859375,-406.73828125,-309.08203125,0.0
1734589164.640637,-1000.0,-1000.0,-1000.0,-1000.0,0.0
1734589164.6445425,405.2734375,311.03515625,-161.62109375,-715.33203125,0.0
1734589164.648448,-888.18359375,-858.88671875,-995.60546875,703.61328125,0.0
1734589164.6523535,880.859375,808.59375,970.21484375,-885.7421875,0.0
1734589164.656259,-454.58984375,-559.5703125,-303.22265625,-230.95703125,0.0
1734589164.6601646,-1000.0,-1000.0,-1000.0,-1000.0,0.0
1734589164.6640704,216.30859375,62.5,-438.4765625,-831.0546875,0.0
1734589164.667976,-878.90625,-884.27734375,856.4453125,511.71875,0.0
1734589164.6718423,858.88671875,812.01171875,-952.1484375,-811.5234375,0.0
1734589164.6757479,-393.06640625,-545.8984375,-6.8359375,164.0625,0.0
1734589164.6796534,-1000.0,-1000.0,-1000.0,-1000.0,0.0
1734589164.683559,-184.5703125,-302.734375,-791.50390625,-865.234375,0.0
1734589164.6874645,-971.6796875,-987.79296875,602.5390625,519.53125,0.0
1734589164.69137,869.62890625,850.5859375,-875.9765625,-815.91796875,0.0
1734589164.6952758,-272.4609375,-559.5703125,454.58984375,549.31640625,0.0
1734589164.6991813,-1000.0,-1000.0,-912.109375,-929.19921875,0.0
1734589164.7030869,-585.9375,-594.23828125,-915.0390625,-927.24609375,0.0
1734589164.7069924,870.1171875,840.8203125,573.73046875,554.6875,0.0
1734589164.710898,964.35546875,999.51171875,-866.2109375,-852.5390625,0.0
1734589164.7148035,-72.265625,-391.11328125,631.8359375,702.1484375,0.0
1734589164.7188878,-1000.0,-1000.0,-824.70703125,-776.3671875,0.0
1734589164.7227933,-774.4140625,-719.7265625,-953.125,-1000.0,0.0
1734589164.7266989,738.76953125,704.1015625,565.91796875,489.2578125,0.0
1734589164.7306044,-946.77734375,-897.4609375,-868.1640625,-873.53515625,0.0
1734589164.73451,-72.75390625,-248.53515625,757.8125,820.80078125,0.0
1734589164.7384155,-1000.0,-1000.0,-732.91015625,-583.49609375,0.0
1734589164.7423213,-885.7421875,-834.9609375,-982.421875,-1000.0,0.0
1734589164.7462268,557.6171875,524.4140625,560.546875,305.17578125,0.0
1734589164.7501323,-888.671875,-845.703125,-883.30078125,-868.1640625,0.0
1734589164.7540379,199.70703125,232.91015625,817.3828125,849.12109375,0.0
1734589164.7579434,-887.20703125,-958.49609375,-666.9921875,-645.5078125,0.0
1734589164.7618492,-899.4140625,-886.71875,-989.2578125,-995.60546875,0.0
1734589164.7656827,0.0,529.78515625,584.9609375,588.8671875,0.0
1734589164.7695882,0.0,-835.9375,-893.06640625,-899.90234375,0.0
1734589164.773494,0.0,608.3984375,845.703125,884.27734375,0.0
1734589164.7773995,0.0,-839.35546875,-581.0546875,-559.5703125,0.0
1734589164.781305,0.0,-941.89453125,-1000.0,-907.71484375,0.0
1734589164.7852106,0.0,555.17578125,475.5859375,632.32421875,0.0
1734589164.7891161,0.0,-843.26171875,-890.13671875,-936.5234375,0.0
1734589164.7930217,0.0,665.0390625,876.953125,941.40625,0.0
1734589164.7969275,0.0,-811.03515625,-460.44921875,-419.921875,0.0
1734589164.800833,0.0,-1000.0,-1000.0,-1000.0,0.0
1734589164.8047385,0.0,491.69921875,270.99609375,430.6640625,0.0
1734589164.808644,0.0,-883.30078125,-905.2734375,-923.828125,0.0
1734589164.812587,812.5,841.30859375,945.3125,980.95703125,0.0
1734589164.8164926,-578.61328125,-531.25,-270.01953125,-173.33984375,0.0
1734589164.820398,-1000.0,-1000.0,-1000.0,-1000.0,0.0
1734589164.8243036,325.68359375,306.640625,-56.640625,5.859375,0.0
1734589164.8282092,-909.66796875,-865.234375,998.046875,988.28125,0.0
1734589164.8321147,951.171875,830.078125,-985.83984375,-965.8203125,0.0
1734589164.8360205,-276.3671875,-471.6796875,83.984375,161.1328125,0.0
1734589164.839926,-1000.0,-1000.0,-1000.0,-1000.0,0.0
1734589164.8438315,0.9765625,-136.23046875,-699.70703125,-864.74609375,0.0
1734589164.847737,-891.6015625,-930.6640625,698.73046875,523.4375,0.0
1734589164.8516426,824.21875,830.56640625,-902.34375,-811.03515625,0.0
1734589164.8555484,-513.671875,-550.78125,247.0703125,359.375,0.0
1734589164.859466,-1000.0,-1000.0,-1000.0,-1000.0,0.0
1734589164.8633716,-357.91015625,-455.078125,-868.1640625,-894.53125,0.0
1734589164.8672771,932.12890625,924.31640625,573.73046875,536.62109375,0.0
1734589164.8711827,914.0625,932.12890625,-867.1875,-833.984375,0.0
1734589164.8750885,28.3203125,-394.04296875,598.6328125,632.32421875,0.0
1734589164.878994,-1000.0,-1000.0,-841.796875,-865.72265625,0.0
1734589164.8828995,-712.890625,-679.6875,-943.84765625,-946.2890625,0.0
1734589164.886805,821.77734375,771.484375,566.40625,565.4296875,0.0
1734589164.8907106,-999.0234375,-950.68359375,-860.3515625,-868.65234375,0.0
1734589164.8946161,24.4140625,-282.2265625,718.26171875,765.13671875,0.0
1734589164.898522,-992.1875,-1000.0,-779.296875,-681.15234375,0.0
1734589164.9024274,-857.91015625,-793.9453125,-978.515625,-1000.0,0.0
1734589164.9064474,659.1796875,622.0703125,576.66015625,410.15625,0.0
1734589164.910353,-887.20703125,-852.5390625,-863.76953125,-856.93359375,0.0
1734589164.9142585,-182.6171875,-190.4296875,563.4765625,611.81640625,0.0
1734589164.9181643,-1000.0,-1000.0,-770.5078125,-644.53125,0.0
1734589164.9220698,-745.60546875,-730.95703125,-897.94921875,-1000.0,0.0
1734589164.9259753,556.15234375,543.45703125,488.28125,223.6328125,0.0
1734589164.9298809,-850.09765625,-825.1953125,-865.72265625,-866.2109375,0.0
1734589164.9337864,249.0234375,256.34765625,748.046875,808.10546875,0.0
1734589164.9376922,-984.86328125,-1000.0,-660.64453125,-545.41015625,0.0
1734589164.9415977,-882.32421875,-877.9296875,-1000.0,-1000.0,0.0
1734589164.9455032,521.97265625,526.85546875,193.84765625,-189.453125,0.0
1734589164.9494088,-814.94140625,-822.75390625,-879.8828125,-978.02734375,0.0
1734589164.953421,548.828125,580.56640625,834.47265625,940.91796875,0.0
1734589164.9573267,-929.19921875,-899.4140625,-575.1953125,-578.61328125,0.0
1734589164.9612322,-927.24609375,-949.21875,-1000.0,-1000.0,0.0
1734589164.965138,554.6875,535.64453125,276.3671875,456.54296875,0.0
1734589164.9690435,-851.07421875,-847.65625,-881.8359375,-906.25,0.0
1734589164.972949,693.84765625,696.2890625,875.0,905.2734375,0.0
1734589164.9768546,-758.30078125,-735.3515625,-402.83203125,-261.71875,0.0
1734589164.98076,-1000.0,-1000.0,-1000.0,-1000.0,0.0
1734589164.9846659,393.5546875,315.91796875,-150.87890625,-714.35546875,0.0
1734589164.9885714,-856.4453125,-859.375,-993.1640625,702.63671875,0.0
1734589164.992477,783.203125,809.08203125,969.7265625,-886.23046875,0.0
1734589164.9963825,-604.00390625,-560.546875,-299.8046875,-230.95703125,0.0
1734589165.000266,0.0,-1000.0,-1000.0,-1000.0,0.0
1734589165.0041718,0.0,71.2890625,-453.61328125,-831.0546875,0.0
1734589165.0080774,0.0,-882.8125,854.4921875,511.71875,0.0
1734589165.011983,0.0,812.01171875,-958.49609375,-811.5234375,0.0
1734589165.0158885,0.0,-546.875,-62.5,164.0625,0.0
1734589165.019794,0.0,-1000.0,-1000.0,-1000.0,0.0
1734589165.0236998,0.0,-276.85546875,-783.203125,-865.234375,0.0
1734589165.0276053,0.0,-979.00390625,604.00390625,519.53125,0.0
1734589165.0315108,0.0,847.16796875,-878.41796875,-815.91796875,0.0
1734589165.0354164,0.0,-557.12890625,415.52734375,549.31640625,0.0
1734589165.039322,0.0,-1000.0,-925.29296875,-929.19921875,0.0
1734589165.0432277,0.0,-579.58984375,-913.57421875,-927.24609375,0.0
1734589165.046763,-1000.0,856.4453125,568.84765625,555.17578125,0.0
1734589165.0506685,204.1015625,990.234375,-868.65234375,-852.5390625,0.0
1734589165.054574,-856.93359375,-419.43359375,616.2109375,702.1484375,0.0
1734589165.0584795,800.29296875,-1000.0,-826.66015625,-776.3671875,0.0
1734589165.0623853,-540.52734375,-716.30859375,-951.66015625,-1000.0,0.0
1734589165.0662909,-1000.0,707.03125,563.4765625,489.2578125,0.0
1734589165.0701964,-182.12890625,-901.3671875,-862.79296875,-874.0234375,0.0
1734589165.074102,-971.6796875,-275.87890625,738.28125,820.3125,0.0
1734589165.0780075,862.3046875,-1000.0,-754.8828125,-583.49609375,0.0
1734589165.081913,-349.609375,-834.9609375,-978.515625,-1000.0,0.0
1734589165.0858188,-1000.0,519.04296875,555.17578125,305.17578125,0.0
1734589165.0897243,-579.1015625,-820.80078125,-872.55859375,-868.65234375,0.0
1734589165.0936902,82.03125,48.828125,774.4140625,848.6328125,0.0
1734589165.0975957,-1000.0,-1000.0,-715.8203125,-645.5078125,0.0
1734589165.1015012,-873.53515625,-851.07421875,-979.4921875,-994.62890625,0.0
1734589165.1054068,530.76171875,522.94921875,582.03125,585.9375,0.0
1734589165.1093125,-844.7265625,-848.14453125,-893.06640625,-895.99609375,0.0
1734589165.113218,495.1171875,665.0390625,845.21484375,862.79296875,0.0
1734589165.1171236,-851.07421875,-782.2265625,-598.6328125,-604.00390625,0.0
1734589165.1210291,-924.8046875,-954.58984375,-1000.0,-1000.0,0.0
1734589165.1249347,541.9921875,558.10546875,520.01953125,598.14453125,0.0
1734589165.1288402,-831.0546875,-843.26171875,-890.625,-918.45703125,0.0
1734589165.132746,624.51171875,665.52734375,862.3046875,923.828125,0.0
1734589165.1366515,-847.16796875,-808.10546875,-469.7265625,-397.4609375,0.0
1734589165.1404872,-1000.0,-1000.0,-1000.0,-1000.0,0.0
1734589165.1443927,481.93359375,474.12109375,220.21484375,289.0625,0.0
1734589165.1482985,-866.2109375,-853.02734375,-894.53125,-913.57421875,0.0
1734589165.152204,783.203125,751.46484375,901.85546875,925.78125,0.0
1734589165.1561096,-615.72265625,-655.2734375,-345.703125,-252.44140625,0.0
1734589165.160015,-1000.0,-1000.0,-1000.0,-1000.0,0.0
1734589165.1639206,302.24609375,232.91015625,-321.77734375,-772.94921875,0.0
1734589165.1678262,-855.95703125,-857.421875,934.08203125,606.4453125,0.0
1734589165.171732,804.6875,803.7109375,-997.55859375,-841.30859375,0.0
1734589165.1756375,-554.19921875,-549.31640625,-248.046875,-33.69140625,0.0
1734589165.179543,-1000.0,-1000.0,-1000.0,-1000.0,0.0
1734589165.1834486,6.34765625,-96.6796875,-651.85546875,-845.21484375,0.0
1734589165.1874988,-900.390625,-923.33984375,708.984375,513.18359375,0.0
1734589165.1914043,822.265625,826.171875,-918.9453125,-808.59375,0.0
1734589165.1953099,-519.04296875,-549.31640625,81.0546875,359.375,0.0
1734589165.1992157,-1000.0,-1000.0,-1000.0,-1000.0,0.0
1734589165.2031212,-381.34765625,-437.5,-850.5859375,-894.53125,0.0
1734589165.2070267,966.796875,945.80078125,572.75390625,536.62109375,0.0
1734589165.2109323,877.9296875,911.62109375,-876.46484375,-833.984375,0.0
1734589165.2148378,-384.765625,-510.25390625,486.328125,632.32421875,0.0
1734589165.2187433,-1000.0,-1000.0,-876.953125,-865.72265625,0.0
1734589165.222649,-659.66796875,-643.5546875,-928.22265625,-945.80078125,0.0
1734589165.2265546,794.921875,786.62109375,560.05859375,566.40625,0.0
1734589165.2304602,-984.375,-952.1484375,-856.93359375,-868.65234375,0.0
1734589165.234383,-104.00390625,-339.84375,700.68359375,765.13671875,0.0
1734589165.2382886,-1000.0,-1000.0,-794.43359375,-681.640625,0.0
1734589165.2421942,-832.51953125,-779.78515625,-964.84375,-1000.0,0.0
1734589165.2460997,652.34375,616.2109375,567.87109375,399.90234375,0.0
1734589165.2500052,-907.71484375,-857.421875,-875.0,-863.28125,0.0
1734589165.253911,-75.1953125,-119.140625,781.73828125,814.453125,0.0
1734589165.2578166,-1000.0,-1000.0,-696.2890625,-570.80078125,0.0
1734589165.261722,-867.67578125,-839.84375,-1000.0,-1000.0,0.0
1734589165.2656276,537.109375,519.53125,539.55078125,205.56640625,0.0
1734589165.2695332,-865.234375,-837.40234375,-882.8125,-870.1171875,0.0
1734589165.273439,374.0234375,420.8984375,824.21875,855.46875,0.0
1734589165.2773445,-850.09765625,-897.94921875,-656.73828125,-650.390625,0.0
1734589165.2812507,-913.57421875,-912.109375,-991.69921875,-997.55859375,0.0
1734589165.2851562,541.015625,548.33984375,590.33203125,596.6796875,0.0
1734589165.289062,-851.07421875,-867.67578125,-904.78515625,-922.8515625,0.0
1734589165.2929676,683.10546875,772.4609375,880.859375,939.453125,0.0
1734589165.296873,-769.53125,-703.61328125,-502.9296875,-470.21484375,0.0
1734589165.3007786,-958.984375,-979.00390625,-1000.0,-1000.0,0.0
1734589165.3046842,567.3828125,579.1015625,421.38671875,604.4921875,0.0
1734589165.3085897,-870.1171875,-882.8125,-898.92578125,-933.59375,0.0
1734589165.3124955,757.8125,807.6171875,920.8984375,972.16796875,0.0
1734589165.316401,-688.4765625,-608.3984375,-387.20703125,-313.96484375,0.0
1734589165.3203065,-1000.0,-1000.0,-1000.0,-1000.0,0.0
1734589165.324212,503.90625,424.8046875,264.6484375,389.6484375,0.0
1734589165.3282185,-908.69140625,-907.2265625,-917.48046875,-918.9453125,0.0
1734589165.332124,924.31640625,938.4765625,970.21484375,984.375,0.0
1734589165.3360298,-402.34375,-334.9609375,-149.90234375,-168.45703125,0.0
1734589165.3399353,-1000.0,-1000.0,-1000.0,-1000.0,0.0
1734589165.3438408,326.66015625,207.51953125,-79.1015625,46.875,0.0
1734589165.3477464,-901.3671875,-861.328125,994.62890625,-988.28125,0.0
1734589165.351652,919.43359375,831.0546875,-987.79296875,-960.44921875,0.0
1734589165.3555574,-251.953125,-459.9609375,219.23828125,233.88671875,0.0
1734589165.3594632,-1000.0,-1000.0,-1000.0,-1000.0,0.0
1734589165.3633687,-141.6015625,-197.265625,-562.98828125,-381.34765625,0.0
1734589165.3672743,-966.30859375,-949.21875,852.5390625,896.484375,0.0
1734589165.3711798,884.27734375,837.40234375,-947.75390625,-914.55078125,0.0
1734589165.3750496,-168.45703125,-520.99609375,382.8125,581.0546875,0.0
1734589165.3789551,-1000.0,-1000.0,-940.91796875,-933.10546875,0.0
1734589165.3828607,-597.65625,-570.3125,-882.8125,-927.24609375,0.0
1734589165.3867662,875.9765625,867.67578125,603.515625,555.17578125,0.0
1734589165.3906717,968.75,984.375,-879.39453125,-853.02734375,0.0
1734589165.3945775,-103.02734375,-401.85546875,585.44921875,703.61328125,0.0
1734589165.398483,-1000.0,-1000.0,-831.54296875,-780.76171875,0.0
1734589165.4023886,-766.6015625,-720.21484375,-948.2421875,-1000.0,0.0
1734589165.406294,735.3515625,709.9609375,562.01171875,508.30078125,0.0
1734589165.4101996,-947.265625,-906.73828125,-865.234375,-878.90625,0.0
1734589165.4141052,-51.7578125,-270.01953125,748.53515625,828.125,0.0
1734589165.418011,-1000.0,-1000.0,-748.53515625,-600.5859375,0.0
1734589165.4218688,-824.21875,-825.1953125,-972.65625,-1000.0,0.0
1734589165.4257743,635.25390625,534.66796875,574.70703125,401.85546875,0.0
1734589165.42968,-880.859375,-831.0546875,-875.0,-871.58203125,0.0
1734589165.4335856,113.76953125,103.02734375,782.2265625,844.7265625,0.0
1734589165.4374912,-986.328125,-1000.0,-705.56640625,-641.11328125,0.0
1734589165.4413967,-879.8828125,-864.2578125,-980.46875,-994.140625,0.0
1734589165.4453022,528.3203125,520.01953125,577.63671875,583.49609375,0.0
1734589165.449208,-830.078125,-815.4296875,-877.9296875,-889.6484375,0.0
1734589165.4531136,434.08203125,457.51953125,791.015625,843.26171875,0.0
1734589165.457019,-916.9921875,-958.0078125,-663.0859375,-635.25390625,0.0
1734589165.4609246,-911.1328125,-912.109375,-1000.0,-996.58203125,0.0
1734589165.4648302,538.57421875,544.921875,507.32421875,593.26171875,0.0
1734589165.468675,-833.49609375,-839.84375,-891.11328125,-910.15625,0.0
1734589165.4725804,631.8359375,654.296875,864.2578125,901.3671875,0.0
1734589165.476486,-865.72265625,-820.80078125,-483.3984375,-478.515625,0.0
1734589165.4803917,-947.75390625,-1000.0,-1000.0,-1000.0,0.0
1734589165.4842973,572.75390625,485.83984375,291.50390625,423.828125,0.0
1734589165.4882028,-887.6953125,-869.62890625,-896.97265625,-912.59765625,0.0
1734589165.4921083,819.82421875,800.78125,930.6640625,960.9375,0.0
1734589165.4960139,-594.23828125,-597.65625,-343.75,-292.96875,0.0
1734589165.4999194,-1000.0,-1000.0,-1000.0,-1000.0,0.0
1734589165.5038252,416.9921875,305.6640625,94.23828125,243.65234375,0.0
1734589165.5077307,-901.85546875,-860.3515625,-942.87109375,-937.01171875,0.0
1734589165.5116363,914.55078125,817.3828125,967.7734375,-990.72265625,0.0
1734589165.5154734,-343.26171875,-528.3203125,-126.46484375,36.1328125,0.0
1734589165.519379,-1000.0,-1000.0,-1000.0,-1000.0,0.0
1734589165.5232847,113.28125,4.39453125,-317.3828125,-166.015625,0.0
1734589165.5271902,-901.85546875,-895.99609375,933.10546875,958.0078125,0.0
1734589165.5310957,874.0234375,816.89453125,-983.3984375,-937.5,0.0
1734589165.5350013,-316.40625,-533.69140625,166.9921875,423.33984375,0.0
1734589165.5389068,-1000.0,-1000.0,-1000.0,-1000.0,0.0
1734589165.5428123,-193.359375,-379.8828125,-702.1484375,-600.5859375,0.0
1734589165.5467181,-987.79296875,959.9609375,739.74609375,830.56640625,0.0
1734589165.5506237,882.8125,912.59765625,-908.69140625,-900.87890625,0.0
1734589165.5545292,-6.34765625,-389.6484375,536.62109375,660.15625,0.0
1734589165.5584347,-1000.0,-1000.0,-872.0703125,-900.87890625,0.0
1734589165.5623724,-622.0703125,-643.06640625,-905.2734375,-812.01171875,0.0
1734589165.566278,880.859375,801.26953125,600.5859375,726.07421875,0.0
1734589165.5701838,984.375,-963.8671875,-865.234375,-902.83203125,0.0
1734589165.5740893,29.296875,-206.54296875,703.125,788.57421875,0.0
1734589165.5779948,-1000.0,-1000.0,-791.9921875,-724.609375,0.0
1734589165.5819004,-780.76171875,-757.8125,-963.37890625,-951.66015625,0.0
1734589165.585806,738.28125,677.734375,573.73046875,619.140625,0.0
1734589165.5897117,-941.89453125,-895.99609375,-880.37109375,-896.97265625,0.0
1734589165.5936172,77.1484375,47.36328125,800.78125,844.23828125,0.0
1734589165.5975227,-937.01171875,-1000.0,-685.546875,-634.765625,0.0
1734589165.6014283,-896.484375,-875.0,-984.375,-994.140625,0.0
1734589165.6053338,547.8515625,531.25,578.125,583.0078125,0.0
1734589165.6092556,-867.1875,-838.8671875,-879.8828125,-889.6484375,0.0
1734589165.613161,374.0234375,398.4375,802.24609375,843.26171875,0.0
1734589165.6170666,-850.09765625,-905.2734375,-682.12890625,-635.25390625,0.0
1734589165.6209722,-913.57421875,-908.203125,-986.328125,-995.1171875,0.0
1734589165.6248777,535.64453125,536.1328125,584.9609375,586.42578125,0.0
1734589165.6287832,-833.0078125,-828.61328125,-893.06640625,-895.99609375,0.0
1734589165.632689,612.3046875,612.79296875,842.28515625,861.328125,0.0
1734589165.6365945,-846.19140625,-875.48828125,-555.17578125,-577.1484375,0.0
1734589165.6405,-940.91796875,-942.3828125,-1000.0,-1000.0,0.0
1734589165.6444056,556.640625,563.96484375,397.4609375,509.765625,0.0
1734589165.6483111,-852.05078125,-862.79296875,-890.13671875,-907.71484375,0.0
1734589165.6522167,701.171875,735.3515625,895.01953125,925.29296875,0.0
1734589165.6563582,-776.85546875,-703.125,-432.6171875,-402.34375,0.0
1734589165.6602638,-1000.0,-1000.0,-1000.0,-1000.0,0.0
1734589165.6641695,503.41796875,417.96875,256.8359375,333.984375,0.0
1734589165.668075,-911.1328125,-904.296875,-912.59765625,-922.8515625,0.0
1734589165.6719806,924.31640625,926.26953125,962.40234375,996.58203125,0.0
1734589165.6758862,-402.34375,-366.69921875,-223.6328125,-193.359375,0.0
1734589165.6797917,-1000.0,-1000.0,-1000.0,-1000.0,0.0
1734589165.6836975,326.66015625,243.65234375,-48.33984375,211.42578125,0.0
1734589165.687603,-902.83203125,-885.25390625,991.69921875,-956.0546875,0.0
1734589165.6915085,928.7109375,880.37109375,-979.00390625,-970.21484375,0.0
1734589165.695414,-265.13671875,-312.01171875,241.69921875,232.91015625,0.0
1734589165.6993196,-1000.0,-1000.0,-1000.0,-1000.0,0.0
1734589165.7032132,24.90234375,-74.70703125,-440.4296875,-186.03515625,0.0
1734589165.7071187,-937.01171875,-938.96484375,895.01953125,964.84375,0.0
1734589165.7110243,892.578125,865.234375,-947.75390625,-944.82421875,0.0
1734589165.7149298,-44.43359375,-194.82421875,551.26953125,613.28125,0.0
1734589165.7188354,-1000.0,-1000.0,-937.01171875,-1000.0,0.0
1734589165.7227411,-410.64453125,-413.0859375,-779.78515625,-633.30078125,0.0
1734589165.7266467,955.56640625,949.70703125,739.2578125,848.6328125,0.0
1734589165.7305522,935.05859375,958.984375,-901.85546875,-921.38671875,0.0
1734589165.7344577,134.765625,-33.203125,640.13671875,737.3046875,0.0
1734589165.7383633,-1000.0,-1000.0,-830.078125,-830.078125,0.0
1734589165.742269,-720.703125,-692.87109375,-921.38671875,-830.078125,0.0
1734589165.7461746,819.3359375,805.17578125,609.86328125,737.3046875,0.0
1734589165.750169,0.0,-951.171875,-880.37109375,-920.8984375,0.0
1734589165.7540748,0.0,-37.59765625,777.34375,849.12109375,0.0
1734589165.7579803,0.0,-1000.0,-715.8203125,-633.7890625,0.0
1734589165.761886,0.0,-816.89453125,-979.00390625,-994.140625,0.0
1734589165.7657914,0.0,625.48828125,576.66015625,583.0078125,0.0
1734589165.769697,0.0,-861.81640625,-877.9296875,-889.6484375,0.0
1734589165.7736027,0.0,154.78515625,794.921875,843.26171875,0.0
1734589165.7775083,0.0,-997.55859375,-690.91796875,-635.25390625,0.0
1734589165.7814138,0.0,-877.9296875,-983.3984375,-994.140625,0.0
1734589165.7853193,0.0,523.92578125,578.125,583.49609375,0.0
1734589165.7892249,0.0,-816.40625,-876.953125,-889.6484375,0.0
1734589165.7931304,0.0,440.91796875,786.62109375,843.26171875,0.0
1734589165.7969954,-863.28125,-958.0078125,-669.43359375,-635.25390625,0.0
1734589165.800901,-922.36328125,-909.66796875,-1000.0,-996.09375,0.0
1734589165.8048065,541.50390625,543.45703125,508.7890625,590.33203125,0.0
1734589165.808712,-833.0078125,-838.8671875,-890.13671875,-903.80859375,0.0
1734589165.8126178,631.8359375,653.3203125,860.83984375,884.765625,0.0
1734589165.8165233,-865.72265625,-822.265625,-489.2578125,-510.25390625,0.0
1734589165.8204288,-947.75390625,-1000.0,-1000.0,-1000.0,0.0
1734589165.8243344,572.75390625,493.1640625,291.015625,424.8046875,0.0
1734589165.82824,-882.8125,-878.90625,-895.5078125,-911.1328125,0.0
1734589165.8321457,814.453125,835.9375,930.6640625,962.40234375,0.0
1734589165.8360512,-591.796875,-535.64453125,-344.23828125,-306.640625,0.0
1734589165.8399568,-1000.0,-1000.0,-1000.0,-1000.0,0.0
1734589165.8438091,456.0546875,371.58203125,146.484375,375.0,0.0
1734589165.8477147,-932.12890625,-896.97265625,-958.984375,-953.125,0.0
1734589165.8516202,968.26171875,881.34765625,997.55859375,-977.5390625,0.0
1734589165.8555257,-295.8984375,-432.12890625,-9.27734375,21.484375,0.0
1734589165.8594313,-1000.0,-1000.0,-1000.0,-1000.0,0.0
1734589165.863337,228.515625,121.09375,-223.6328125,33.203125,0.0
1734589165.8672426,-900.87890625,-903.80859375,951.171875,-987.3046875,0.0
1734589165.871148,903.3203125,865.72265625,-972.65625,-957.51953125,0.0
1734589165.8750536,-145.5078125,-262.6953125,425.29296875,429.6875,0.0
1734589165.8789592,-1000.0,-1000.0,-1000.0,-1000.0,0.0
1734589165.882865,-194.82421875,-244.62890625,-630.859375,-411.1328125,0.0
1734589165.8867705,-977.5390625,-983.88671875,833.984375,913.57421875,0.0
1734589165.8906093,881.34765625,902.34375,-930.6640625,-933.59375,0.0
1734589165.8945148,45.41015625,-190.91796875,584.47265625,679.19921875,0.0
1734589165.8984203,-1000.0,-1000.0,-877.9296875,-921.38671875,0.0
1734589165.9023259,-629.39453125,-594.23828125,-857.421875,-734.86328125,0.0
1734589165.9062316,884.765625,866.69921875,665.0390625,796.38671875,0.0
1734589165.9101372,980.95703125,-987.79296875,-878.90625,-919.921875,0.0
1734589165.9140427,60.05859375,-112.79296875,708.49609375,792.96875,0.0
1734589165.9179482,-996.58203125,-1000.0,-789.55078125,-739.2578125,0.0
1734589165.9218538,-782.2265625,-746.58203125,-957.51953125,-916.015625,0.0
1734589165.9257593,734.86328125,714.84375,582.03125,664.0625,0.0
1734589165.929665,-938.96484375,-906.73828125,-880.859375,-904.78515625,0.0
1734589165.9335706,150.87890625,58.59375,799.31640625,845.21484375,0.0
1734589165.93751,-918.45703125,-994.62890625,-687.98828125,-633.7890625,0.0
1734589165.9414155,-908.69140625,-880.37109375,-983.88671875,-994.140625,0.0
1734589165.945321,552.734375,532.2265625,576.66015625,583.0078125,0.0
1734589165.9492266,-864.74609375,-829.1015625,-874.0234375,-889.6484375,0.0
1734589165.9531322,352.5390625,296.38671875,780.2734375,843.26171875,0.0
1734589165.957038,-870.1171875,-978.02734375,-707.03125,-635.25390625,0.0
1734589165.9609435,-908.203125,-889.6484375,-980.95703125,-994.140625,0.0
1734589165.964849,534.1796875,527.83203125,581.54296875,583.49609375,0.0
1734589165.9687545,-832.03125,-818.84765625,-885.7421875,-887.6953125,0.0
1734589165.97266,606.4453125,565.91796875,817.3828125,835.9375,0.0
1734589165.9765656,-853.515625,-916.50390625,-590.8203125,-616.69921875,0.0
1734589165.9804714,-939.94140625,-931.15234375,-1000.0,-1000.0,0.0
1734589165.984506,555.17578125,557.6171875,394.53125,509.27734375,0.0
1734589165.9884114,-844.7265625,-854.00390625,-882.8125,-904.296875,0.0
1734589165.992317,666.9921875,707.51953125,879.8828125,921.875,0.0
1734589165.9962225,-808.10546875,-745.1171875,-445.80078125,-406.25,0.0
1734589166.000128,-1000.0,-1000.0,-1000.0,-1000.0,0.0
1734589166.0040338,495.1171875,416.015625,288.57421875,399.90234375,0.0
1734589166.0079393,-893.06640625,-879.39453125,-920.8984375,-940.4296875,0.0
1734589166.0118449,861.328125,854.98046875,951.171875,-994.62890625,0.0
1734589166.0157504,-485.3515625,-508.30078125,-272.4609375,-198.73046875,0.0
1734589166.019656,-1000.0,-1000.0,-1000.0,-1000.0,0.0
1734589166.0235615,324.70703125,249.0234375,-55.17578125,249.0234375,0.0
1734589166.0274673,-904.296875,-876.46484375,-1000.0,-948.2421875,0.0
1734589166.0313766,928.7109375,855.95703125,-990.72265625,-974.609375,0.0
1734589166.0352821,-265.13671875,-422.36328125,107.421875,235.3515625,0.0
1734589166.0391877,-1000.0,-1000.0,-1000.0,-1000.0,0.0
1734589166.0430934,21.97265625,-66.40625,-429.19921875,-185.546875,0.0
1734589166.046999,-933.10546875,-928.22265625,899.4140625,964.84375,0.0
1734589166.0509045,889.16015625,847.16796875,-964.35546875,-944.82421875,0.0
1734589166.05481,-90.33203125,-366.2109375,409.1796875,612.79296875,0.0
1734589166.0587156,-1000.0,-1000.0,-973.14453125,-1000.0,0.0
1734589166.062621,-413.57421875,-405.76171875,-769.04296875,-633.30078125,0.0
1734589166.066527,962.890625,953.125,733.88671875,849.12109375,0.0
1734589166.0704324,935.05859375,948.73046875,-909.66796875,-920.8984375,0.0
1734589166.074338,-72.75390625,-295.41015625,566.89453125,737.3046875,0.0
1734589166.0782347,-1000.0,-1000.0,-848.14453125,-830.56640625,0.0
1734589166.0821402,-691.89453125,-656.25,-911.62109375,-829.58984375,0.0
1734589166.0860457,806.640625,786.62109375,603.02734375,734.375,0.0
1734589166.0899515,-964.84375,-935.05859375,-871.58203125,-913.0859375,0.0
1734589166.093857,-46.875,-166.9921875,748.046875,820.80078125,0.0
1734589166.0977626,-1000.0,-1000.0,-749.51171875,-670.41015625,0.0
1734589166.1016681,-824.21875,-792.96875,-972.16796875,-987.79296875,0.0
1734589166.1055737,634.765625,614.74609375,574.21875,582.51953125,0.0
1734589166.1094794,-881.34765625,-850.5859375,-874.51171875,-890.13671875,0.0
1734589166.113385,113.76953125,85.44921875,778.80859375,843.26171875,0.0
1734589166.1172905,-986.328125,-1000.0,-709.47265625,-635.25390625,0.0
1734589166.121196,-879.8828125,-864.74609375,-979.4921875,-994.140625,0.0
1734589166.1250808,0.0,520.01953125,574.70703125,583.0078125,0.0
1734589166.1289866,0.0,-812.98828125,-869.62890625,-889.6484375,0.0
1734589166.1328921,0.0,411.1328125,759.765625,843.26171875,0.0
1734589166.1367977,0.0,-980.95703125,-705.078125,-635.25390625,0.0
1734589166.1407032,0.0,-904.296875,-1000.0,-995.60546875,0.0
1734589166.1446087,0.0,540.0390625,506.34765625,590.33203125,0.0
1734589166.1485145,0.0,-833.0078125,-885.7421875,-903.80859375,0.0
1734589166.15242,0.0,625.9765625,843.75,884.765625,0.0
1734589166.1563256,0.0,-849.609375,-514.16015625,-510.25390625,0.0
1734589166.160231,0.0,-996.09375,-1000.0,-1000.0,0.0
1734589166.1641366,0.0,491.2109375,289.55078125,424.31640625,0.0
1734589166.1680422,0.0,-863.28125,-894.53125,-916.50390625,0.0
1734589166.1715791,527.83203125,776.85546875,924.31640625,969.23828125,0.0
1734589166.1754847,-828.61328125,-643.06640625,-366.69921875,-309.08203125,0.0
1734589166.1793902,428.7109375,-1000.0,-1000.0,-1000.0,0.0
1734589166.1832957,-922.8515625,346.19140625,128.41796875,343.26171875,0.0
1734589166.1872013,-910.15625,-879.39453125,-945.80078125,-937.01171875,0.0
1734589166.1911068,537.59765625,863.28125,984.375,-985.3515625,0.0
1734589166.1950126,-828.125,-460.44921875,-75.1953125,24.4140625,0.0
1734589166.198918,601.07421875,-1000.0,-1000.0,-1000.0,0.0
1734589166.2028236,-889.16015625,143.06640625,-218.26171875,33.203125,0.0
1734589166.2067292,-940.4296875,-888.18359375,955.56640625,-986.81640625,0.0
1734589166.2106347,565.4296875,846.19140625,-979.00390625,-957.51953125,0.0
1734589166.2145402,-870.1171875,-372.0703125,318.359375,429.6875,0.0
1734589166.2183974,-1000.0,-1000.0,-1000.0,-1000.0,0.0
1734589166.222303,-199.21875,-210.9375,-607.91015625,-411.1328125,0.0
1734589166.2262084,-972.65625,-976.07421875,832.03125,913.57421875,0.0
1734589166.2301142,878.90625,890.625,-931.15234375,-933.59375,0.0
1734589166.2340198,-36.62109375,-263.671875,565.91796875,679.19921875,0.0
1734589166.2379253,-1000.0,-1000.0,-887.20703125,-921.38671875,0.0
1734589166.2418308,-614.2578125,-584.47265625,-848.14453125,-734.86328125,0.0
1734589166.2457364,873.53515625,861.81640625,671.38671875,795.41015625,0.0
1734589166.249642,995.1171875,-987.3046875,-880.37109375,-916.015625,0.0
1734589166.2535477,52.734375,-122.0703125,700.1953125,775.87890625,0.0
1734589166.2574532,-1000.0,-1000.0,-795.41015625,-757.8125,0.0
1734589166.2613587,-779.78515625,-748.046875,-954.1015625,-912.109375,0.0
1734589166.2653072,734.86328125,716.30859375,583.984375,663.0859375,0.0
1734589166.2692127,-928.7109375,-903.3203125,-879.8828125,-904.78515625,0.0
1734589166.2731183,48.33984375,-28.3203125,793.9453125,845.21484375,0.0
1734589166.2770238,-986.81640625,-1000.0,-694.3359375,-633.7890625,0.0
1734589166.2809293,-888.671875,-865.234375,-982.91015625,-994.140625,0.0
1734589166.2848349,546.875,528.80859375,577.1484375,583.49609375,0.0
1734589166.2887406,-868.1640625,-836.42578125,-876.953125,-889.6484375,0.0
1734589166.2926462,374.0234375,324.70703125,791.50390625,843.26171875,0.0
1734589166.2965517,-850.09765625,-942.3828125,-694.3359375,-635.25390625,0.0
1734589166.3004572,-913.57421875,-895.99609375,-983.3984375,-994.140625,0.0
1734589166.3043628,536.1328125,529.78515625,582.51953125,583.49609375,0.0
1734589166.3082683,-833.49609375,-822.265625,-888.18359375,-888.671875,0.0
1734589166.3122144,612.3046875,583.984375,827.63671875,838.37890625,0.0
1734589166.31612,-846.19140625,-899.4140625,-581.0546875,-622.55859375,0.0
1734589166.3200254,-941.40625,-935.546875,-1000.0,-1000.0,0.0
1734589166.323931,554.6875,561.03515625,401.3671875,536.62109375,0.0
1734589166.3278368,-843.26171875,-860.83984375,-888.671875,-914.55078125,0.0
1734589166.3317423,658.69140625,729.00390625,887.6953125,932.6171875,0.0
1734589166.3356478,-815.91796875,-718.26171875,-446.2890625,-417.48046875,0.0
1734589166.3395534,-1000.0,-1000.0,-1000.0,-1000.0,0.0
1734589166.343459,494.62890625,437.5,261.23046875,423.33984375,0.0
1734589166.3473644,-892.578125,-898.92578125,-910.64453125,-926.26953125,0.0
1734589166.3512702,861.328125,906.73828125,957.03125,995.1171875,0.0
1734589166.3551757,-485.3515625,-414.55078125,-228.515625,-193.359375,0.0
1734589166.3591013,-1000.0,-1000.0,-1000.0,-1000.0,0.0
1734589166.3630068,325.68359375,279.78515625,-30.2734375,249.0234375,0.0
1734589166.3669124,-907.2265625,-890.13671875,991.69921875,-948.2421875,0.0
1734589166.370818,938.96484375,895.01953125,-969.7265625,-974.609375,0.0
1734589166.3747234,-249.51171875,-312.98828125,266.11328125,235.3515625,0.0
1734589166.378629,-1000.0,-1000.0,-1000.0,-1000.0,0.0
1734589166.3825347,32.71484375,23.92578125,-385.7421875,-185.546875,0.0
1734589166.3864403,-954.1015625,-939.453125,913.0859375,964.84375,0.0
1734589166.3903458,934.5703125,896.484375,-945.3125,-945.3125,0.0
1734589166.3942513,52.24609375,0.48828125,588.37890625,612.79296875,0.0
1734589166.398157,-1000.0,-1000.0,-946.2890625,-1000.0,0.0
1734589166.4020624,-403.3203125,-400.390625,-749.0234375,-633.7890625,0.0
1734589166.405966,941.89453125,924.31640625,767.578125,848.14453125,0.0
1734589166.4098716,959.47265625,-985.83984375,-903.80859375,-919.921875,0.0
1734589166.413777,306.15234375,363.28125,661.62109375,728.02734375,0.0
1734589166.4176826,-968.75,-992.1875,-830.078125,-838.37890625,0.0
1734589166.4215884,-737.3046875,-735.3515625,-917.96875,-827.63671875,0.0
1734589166.425494,824.70703125,825.68359375,616.69921875,732.421875,0.0
1734589166.4293995,-978.02734375,-955.56640625,-879.8828125,-909.1796875,0.0
1734589166.433305,204.58984375,83.984375,772.94921875,807.12890625,0.0
1734589166.4372106,-925.78125,-990.72265625,-721.19140625,-687.98828125,0.0
1734589166.441116,-866.2109375,-834.9609375,-978.02734375,-984.86328125,0.0
1734589166.4450219,656.73828125,638.18359375,577.63671875,582.03125,0.0
1734589166.4489274,-901.3671875,-884.27734375,-882.32421875,-890.625,0.0
1734589166.45282,204.58984375,280.76171875,811.5234375,843.26171875,0.0
1734589166.4567256,-912.59765625,-888.671875,-671.875,-635.25390625,0.0
1734589166.4606311,-905.2734375,-908.203125,-992.1875,-999.51171875,0.0
1734589166.4645367,545.41015625,539.0625,585.44921875,589.35546875,0.0
1734589166.4684422,-847.16796875,-826.171875,-880.859375,-891.11328125,0.0
1734589166.472348,393.5546875,390.625,697.265625,743.65234375,0.0
1734589166.4762535,-886.71875,-949.21875,-697.75390625,-669.43359375,0.0
1734589166.480159,-909.66796875,-903.80859375,-1000.0,-979.4921875,0.0
1734589166.4840646,531.73828125,536.62109375,514.16015625,582.51953125,0.0
1734589166.48797,-816.40625,-828.61328125,-880.859375,-901.3671875,0.0
1734589166.4918756,548.33984375,615.234375,833.984375,884.765625,0.0
1734589166.4957814,-929.19921875,-854.98046875,-526.3671875,-510.25390625,0.0
1734589166.4997869,-928.22265625,-1000.0,-1000.0,-1000.0,0.0
1734589166.5036924,559.08203125,478.02734375,280.2734375,424.31640625,0.0
1734589166.507598,-862.3046875,-856.93359375,-891.6015625,-915.52734375,0.0
1734589166.5115035,729.00390625,760.7421875,915.0390625,964.35546875,0.0
1734589166.515409,-703.61328125,-666.9921875,-384.765625,-299.8046875,0.0
1734589166.5193148,-1000.0,-1000.0,-1000.0,-1000.0,0.0
1734589166.5232203,414.55078125,342.28515625,120.1171875,287.59765625,0.0
1734589166.5271258,-908.203125,-870.60546875,-936.03515625,-937.98828125,0.0
1734589166.5310314,938.96484375,841.30859375,968.26171875,-981.93359375,0.0
1734589166.534937,-342.28515625,-521.97265625,-172.8515625,21.484375,0.0
1734589166.5388424,-1000.0,-1000.0,-1000.0,-1000.0,0.0
1734589166.5427482,232.421875,223.6328125,-166.9921875,33.203125,0.0
1734589166.5466127,-907.2265625,-888.671875,953.61328125,-986.81640625,0.0
1734589166.5505183,914.0625,862.3046875,-970.703125,-957.51953125,0.0
1734589166.5544238,-125.48828125,-266.6015625,395.5078125,429.6875,0.0
1734589166.5583293,-1000.0,-1000.0,-1000.0,-1000.0,0.0
1734589166.5622349,-205.078125,-205.56640625,-587.40234375,-411.62109375,0.0
1734589166.5661407,-965.33203125,-960.44921875,855.95703125,912.59765625,0.0
1734589166.5700462,875.48828125,876.953125,-938.4765625,-927.24609375,0.0
1734589166.5739517,-140.13671875,-284.1796875,535.64453125,642.578125,0.0
1734589166.5778573,-1000.0,-1000.0,-903.80859375,-949.21875,0.0
1734589166.5817628,-601.5625,-594.23828125,-845.21484375,-726.5625,0.0
1734589166.5856683,869.140625,874.0234375,670.8984375,788.57421875,0.0
1734589166.589574,-999.0234375,-994.140625,-876.46484375,-897.4609375,0.0
1734589166.593774,-25.87890625,-356.93359375,651.85546875,717.7734375,0.0
1734589166.5976796,-1000.0,-1000.0,-811.03515625,-803.7109375,0.0
1734589166.6015851,-674.31640625,-716.796875,-856.93359375,-822.75390625,0.0
1734589166.6054907,768.06640625,702.63671875,601.07421875,666.50390625,0.0
1734589166.6093965,-939.94140625,-886.71875,-883.30078125,-916.50390625,0.0
1734589166.613302,-74.70703125,-230.95703125,758.7890625,852.5390625,0.0
1734589166.6172075,-1000.0,-1000.0,-746.09375,-637.20703125,0.0
1734589166.621113,-873.046875,-831.0546875,-973.14453125,-994.140625,0.0
1734589166.6250186,543.9453125,514.16015625,573.2421875,583.49609375,0.0
1734589166.6289241,-861.328125,-818.84765625,-870.1171875,-889.6484375,0.0
1734589166.63283,179.19921875,193.84765625,762.20703125,843.26171875,0.0
1734589166.6367354,-947.265625,-1000.0,-716.796875,-635.25390625,0.0
1734589166.640589,-887.6953125,-872.55859375,-1000.0,-994.140625,0.0
1734589166.6444945,524.90234375,521.97265625,540.52734375,583.0078125,0.0
1734589166.6484,-811.5234375,-815.4296875,-868.65234375,-887.6953125,0.0
1734589166.6523058,367.1875,531.25,772.94921875,835.9375,0.0
1734589166.6562114,-1000.0,-937.01171875,-634.765625,-616.69921875,0.0
1734589166.660117,-896.484375,-924.31640625,-1000.0,-1000.0,0.0
1734589166.6640224,536.1328125,553.22265625,334.9609375,509.765625,0.0
1734589166.667928,-833.0078125,-847.65625,-882.8125,-908.69140625,0.0
1734589166.6718335,624.51171875,685.05859375,873.046875,925.29296875,0.0
1734589166.6757393,-847.16796875,-767.08984375,-455.078125,-402.34375,0.0
1734589166.6796448,-1000.0,-1000.0,-1000.0,-1000.0,0.0
1734589166.6835504,491.69921875,400.390625,168.9453125,333.984375,0.0
1734589166.6874979,-891.11328125,-875.9765625,-915.52734375,-920.41015625,0.0
1734589166.6914034,857.421875,845.703125,946.77734375,985.83984375,0.0
1734589166.695309,-493.1640625,-518.5546875,-296.875,-176.7578125,0.0
1734589166.6992145,-1000.0,-1000.0,-1000.0,-1000.0,0.0
1734589166.70312,324.21875,247.55859375,-64.94140625,47.8515625,0.0
1734589166.7070258,-902.83203125,-881.8359375,992.1875,-989.74609375,0.0
1734589166.7109313,925.78125,872.0703125,-980.46875,-950.1953125,0.0
1734589166.7148368,-273.92578125,-403.3203125,116.2109375,221.19140625,0.0
1734589166.7187424,-1000.0,-1000.0,-1000.0,-1000.0,0.0
1734589166.722648,33.203125,27.83203125,-358.88671875,-185.546875,0.0
1734589166.7265534,-955.078125,-939.453125,905.2734375,964.84375,0.0
1734589166.7304592,934.08203125,888.18359375,-943.84765625,-944.82421875,0.0
1734589166.7343867,52.24609375,-62.5,585.44921875,613.28125,0.0
1734589166.7382925,-1000.0,-1000.0,-951.66015625,-1000.0,0.0
1734589166.742198,-405.2734375,-410.64453125,-731.93359375,-633.30078125,0.0
1734589166.7461035,944.3359375,953.125,785.64453125,849.12109375,0.0
1734589166.750009,960.44921875,955.56640625,-912.59765625,-921.38671875,0.0
1734589166.7539146,260.7421875,89.35546875,642.08984375,737.3046875,0.0
1734589166.7578201,-988.76953125,-1000.0,-835.9375,-830.078125,0.0
1734589166.761726,-728.02734375,-714.84375,-911.62109375,-829.1015625,0.0
1734589166.7656314,819.82421875,817.87109375,618.65234375,730.95703125,0.0
1734589166.769537,-965.8203125,-959.47265625,-875.48828125,-902.83203125,0.0
1734589166.7734425,153.3203125,-68.359375,751.46484375,785.64453125,0.0
1734589166.777348,-992.67578125,-1000.0,-746.09375,-716.30859375,0.0
1734589166.781249,-790.0390625,-816.40625,-973.14453125,-980.46875,0.0
1734589166.7851546,722.16796875,626.953125,576.171875,581.54296875,0.0
1734589166.78906,-914.0625,-863.28125,-879.39453125,-890.625,0.0
1734589166.7929657,195.80078125,85.9375,798.828125,843.26171875,0.0
1734589166.7968712,-922.36328125,-1000.0,-687.01171875,-635.25390625,0.0
1734589166.800777,-908.203125,-870.1171875,-983.3984375,-994.140625,0.0
1734589166.8046825,551.26953125,521.97265625,575.1953125,583.49609375,0.0
1734589166.808588,-852.5390625,-813.4765625,-869.62890625,-889.6484375,0.0
1734589166.8124936,297.36328125,376.953125,761.71875,843.26171875,0.0
1734589166.816399,-920.8984375,-989.74609375,-710.44921875,-635.25390625,0.0
1734589166.8203049,-895.01953125,-898.4375,-1000.0,-995.60546875,0.0
1734589166.8242104,524.90234375,537.59765625,525.390625,590.33203125,0.0
1734589166.8281012,-814.94140625,-833.984375,-887.20703125,-904.78515625,0.0
1734589166.8320067,548.33984375,636.71875,843.26171875,886.71875,0.0
1734589166.8359122,-929.19921875,-843.75,-518.5546875,-515.13671875,0.0
1734589166.8398178,-928.22265625,-988.76953125,-1000.0,-1000.0,0.0
1734589166.8437233,558.10546875,503.41796875,292.96875,449.70703125,0.0
1734589166.8476288,-860.3515625,-858.88671875,-890.625,-917.96875,0.0
1734589166.8515346,722.65625,754.39453125,911.62109375,966.796875,0.0
1734589166.8554401,-713.8671875,-674.8046875,-388.671875,-304.6875,0.0
1734589166.8593457,-1000.0,-1000.0,-1000.0,-1000.0,0.0
1734589166.8632512,410.64453125,353.02734375,122.0703125,321.77734375,0.0
1734589166.8671567,-899.90234375,-872.55859375,-932.12890625,-936.5234375,0.0
1734589166.8710625,918.9453125,843.26171875,960.44921875,-988.76953125,0.0
1734589166.8749375,-389.6484375,-504.8828125,-200.1953125,30.2734375,0.0
1734589166.878843,-1000.0,-1000.0,-1000.0,-1000.0,0.0
1734589166.8827488,219.23828125,141.11328125,-235.3515625,-52.24609375,0.0
1734589166.8866544,-884.27734375,-870.1171875,958.49609375,996.09375,0.0
1734589166.89056,875.0,814.94140625,-992.1875,-949.21875,0.0
1734589166.8944654,-346.6796875,-522.94921875,95.21484375,335.9375,0.0
1734589166.898371,-1000.0,-1000.0,-1000.0,-1000.0,0.0
1734589166.9022765,-180.6640625,-209.47265625,-598.14453125,-406.25,0.0
1734589166.9061823,-979.00390625,-964.84375,812.5,901.3671875,0.0
1734589166.9100878,878.41796875,856.4453125,-930.17578125,-916.50390625,0.0
1734589166.9139934,-150.390625,-476.5625,454.58984375,595.703125,0.0
1734589166.917899,-1000.0,-1000.0,-927.24609375,-984.375,0.0
1734589166.9217622,-600.09765625,-567.3828125,-844.7265625,-716.30859375,0.0
1734589166.9256678,868.65234375,857.91015625,655.76171875,785.64453125,0.0
1734589166.9295733,996.09375,-991.69921875,-881.34765625,-902.83203125,0.0
1734589166.9334788,-19.53125,-298.33984375,645.5078125,726.07421875,0.0
1734589166.9373844,-1000.0,-1000.0,-817.87109375,-812.01171875,0.0
1734589166.9412901,-772.4609375,-726.5625,-948.2421875,-900.87890625,0.0
1734589166.9451957,737.3046875,708.984375,576.171875,660.64453125,0.0
1734589166.9491012,-942.3828125,-896.484375,-871.09375,-905.2734375,0.0
1734589166.9530067,-11.23046875,-186.5234375,761.23046875,845.21484375,0.0
1734589166.9569123,-1000.0,-1000.0,-732.421875,-633.7890625,0.0
1734589166.960818,-835.9375,-841.796875,-975.5859375,-994.140625,0.0
1734589166.9647236,634.765625,520.01953125,574.21875,583.49609375,0.0
1734589166.9686854,-896.484375,-827.63671875,-873.046875,-889.6484375,0.0
1734589166.972591,176.7578125,223.14453125,774.90234375,843.26171875,0.0
1734589166.9764965,-903.3203125,-1000.0,-713.37890625,-635.25390625,0.0
1734589166.980402,-893.5546875,-879.39453125,-979.00390625,-994.140625,0.0
1734589166.9843075,529.78515625,522.94921875,577.63671875,583.0078125,0.0
1734589166.988213,-826.171875,-814.453125,-875.48828125,-889.6484375,0.0
1734589166.9921188,422.36328125,524.4140625,781.73828125,843.26171875,0.0
1734589166.9960244,-929.19921875,-939.94140625,-644.53125,-635.25390625,0.0
1734589166.99993,-908.203125,-923.33984375,-1000.0,-998.53515625,0.0
1734589167.0038354,538.0859375,552.24609375,410.15625,597.16796875,0.0
1734589167.007741,-831.54296875,-847.16796875,-883.7890625,-922.36328125,0.0
1734589167.0116467,624.51171875,681.15234375,866.2109375,933.59375,0.0
1734589167.015479,-847.16796875,-783.203125,-477.5390625,-416.9921875,0.0
1734589167.0193849,-1000.0,-1000.0,-1000.0,-1000.0,0.0
1734589167.0232904,486.328125,444.3359375,258.30078125,430.6640625,0.0
1734589167.027196,-879.39453125,-875.0,-899.4140625,-926.7578125,0.0
1734589167.0311015,825.68359375,831.54296875,932.12890625,994.62890625,0.0
1734589167.035007,-553.7109375,-549.8046875,-312.5,-193.359375,0.0
1734589167.0389125,-1000.0,-1000.0,-1000.0,-1000.0,0.0
1734589167.0428183,318.359375,275.87890625,-44.921875,245.1171875,0.0
1734589167.0467238,-890.13671875,-857.421875,-974.609375,-943.359375,0.0
1734589167.0506294,895.01953125,812.01171875,978.02734375,-979.98046875,0.0
1734589167.054535,-364.74609375,-540.0390625,-121.09375,173.828125,0.0
1734589167.0584404,-1000.0,-1000.0,-1000.0,-1000.0,0.0
1734589167.0623734,19.04296875,-15.13671875,-394.53125,-185.546875,0.0
1734589167.0662792,-926.26953125,-906.73828125,899.90234375,968.26171875,0.0
1734589167.0701847,881.8359375,825.68359375,-966.796875,-935.05859375,0.0
1734589167.0740902,-250.0,-498.046875,230.95703125,416.9921875,0.0
1734589167.0779958,-1000.0,-1000.0,-1000.0,-1000.0,0.0
1734589167.0819013,-292.96875,-383.30078125,-644.04296875,-500.9765625,0.0
1734589167.0858068,985.83984375,957.51953125,758.30078125,864.74609375,0.0
1734589167.0897126,922.36328125,931.15234375,-924.8046875,-916.9921875,0.0
1734589167.0936182,-76.66015625,-381.34765625,542.48046875,668.45703125,0.0
1734589167.0975237,-1000.0,-1000.0,-865.234375,-903.80859375,0.0
1734589167.1014292,-681.640625,-645.5078125,-904.296875,-812.01171875,0.0
1734589167.1053348,796.875,784.1796875,603.02734375,726.07421875,0.0
1734589167.1092541,-967.28515625,-950.68359375,-867.67578125,-902.34375,0.0
1734589167.11316,133.30078125,-91.796875,732.91015625,785.64453125,0.0
1734589167.1170654,-990.72265625,-1000.0,-768.06640625,-716.30859375,0.0
1734589167.120971,-794.43359375,-813.96484375,-968.75,-980.46875,0.0
1734589167.1248765,748.046875,626.46484375,573.73046875,581.0546875,0.0
1734589167.128782,-942.3828125,-861.328125,-875.9765625,-891.11328125,0.0
1734589167.1326878,8.7890625,48.828125,784.66796875,843.26171875,0.0
1734589167.1365933,-960.44921875,-1000.0,-703.61328125,-635.25390625,0.0
1734589167.1404989,-885.25390625,-865.234375,-980.46875,-994.140625,0.0
1734589167.1444044,538.0859375,521.97265625,574.70703125,583.49609375,0.0
1734589167.14831,-848.6328125,-815.4296875,-868.65234375,-889.6484375,0.0
1734589167.1522155,297.36328125,349.609375,757.8125,843.26171875,0.0
1734589167.1561213,-920.8984375,-996.09375,-715.33203125,-635.25390625,0.0
1734589167.160027,-895.01953125,-894.53125,-1000.0,-1000.0,0.0
1734589167.1639326,524.90234375,534.1796875,527.34375,596.6796875,0.0
1734589167.167838,-814.94140625,-827.1484375,-882.8125,-905.76171875,0.0
1734589167.1717436,548.828125,601.5625,827.63671875,785.15625,0.0
1734589167.1756492,-929.19921875,-875.0,-542.48046875,-544.43359375,0.0
1734589167.1795547,-927.24609375,-974.609375,-1000.0,-1000.0,0.0
1734589167.1834605,554.6875,508.7890625,295.41015625,416.9921875,0.0
1734589167.187366,-851.07421875,-854.98046875,-889.16015625,-913.57421875,0.0
1734589167.1912715,693.84765625,736.81640625,906.73828125,968.75,0.0
1734589167.195177,-758.30078125,-706.0546875,-400.390625,-309.08203125,0.0
1734589167.1990826,-1000.0,-1000.0,-1000.0,-1000.0,0.0
1734589167.2031,410.15625,389.6484375,145.01953125,334.9609375,0.0
1734589167.2070057,-901.3671875,-882.8125,-934.5703125,-924.31640625,0.0
1734589167.2109113,918.45703125,868.1640625,974.12109375,996.58203125,0.0
1734589167.2148168,-389.6484375,-467.7734375,-164.0625,-100.09765625,0.0
1734589167.2187223,-1000.0,-1000.0,-1000.0,-1000.0,0.0
1734589167.2226279,219.7265625,211.9140625,-157.2265625,41.9921875,0.0
1734589167.2265334,-884.765625,-867.67578125,977.05078125,-987.3046875,0.0
1734589167.2304392,875.9765625,831.0546875,-989.74609375,-958.984375,0.0
1734589167.2343447,-344.7265625,-426.7578125,179.6875,303.7109375,0.0
1734589167.2382503,-1000.0,-1000.0,-1000.0,-1000.0,0.0
1734589167.2421558,-177.734375,-193.84765625,-537.59765625,-392.578125,0.0
1734589167.2460613,-984.375,-961.42578125,849.12109375,901.85546875,0.0
1734589167.2499313,890.625,858.88671875,-934.08203125,-916.9921875,0.0
1734589167.2538369,-115.234375,-367.67578125,530.76171875,596.19140625,0.0
1734589167.2577426,-1000.0,-1000.0,-919.43359375,-984.86328125,0.0
1734589167.2616482,-603.515625,-585.44921875,-824.21875,-716.30859375,0.0
1734589167.2655537,875.48828125,870.60546875,693.84765625,785.64453125,0.0
1734589167.2694592,980.46875,998.046875,-891.6015625,-902.34375,0.0
1734589167.2733648,-31.73828125,-338.37890625,633.7890625,726.07421875,0.0
1734589167.2772706,-1000.0,-1000.0,-822.265625,-812.01171875,0.0
1734589167.281176,-752.9296875,-723.14453125,-942.87109375,-900.87890625,0.0
1734589167.2850816,774.90234375,707.03125,579.58984375,660.64453125,0.0
1734589167.2889872,-967.7734375,-894.04296875,-869.62890625,-905.2734375,0.0
1734589167.2928927,-112.3046875,-222.16796875,754.8828125,845.21484375,0.0
1734589167.2967613,-1000.0,-1000.0,-740.234375,-633.7890625,0.0
1734589167.300667,-818.359375,-836.42578125,-974.12109375,-994.140625,0.0
1734589167.3045726,632.8125,517.08984375,573.73046875,583.0078125,0.0
1734589167.308478,-886.71875,-819.82421875,-871.09375,-889.6484375,0.0
1734589167.3123837,137.6953125,154.296875,765.13671875,843.26171875,0.0
1734589167.3162892,-946.77734375,-1000.0,-723.6328125,-635.25390625,0.0
1734589167.3201947,-884.765625,-867.1875,-976.5625,-994.140625,0.0
1734589167.3241005,527.34375,520.01953125,576.171875,583.0078125,0.0
1734589167.328006,-826.171875,-814.453125,-873.53515625,-888.18359375,0.0
1734589167.3319116,422.36328125,512.20703125,774.4140625,838.37890625,0.0
1734589167.335817,-929.6875,-944.82421875,-653.3203125,-623.046875,0.0
1734589167.3397226,-908.203125,-920.8984375,-1000.0,-1000.0,0.0
1734589167.3435612,538.0859375,550.78125,407.2265625,539.55078125,0.0
1734589167.347467,-831.54296875,-845.703125,-883.7890625,-915.0390625,0.0
1734589167.3513725,624.51171875,673.33984375,865.234375,933.10546875,0.0
1734589167.355278,-847.16796875,-800.78125,-481.4453125,-418.9453125,0.0
1734589167.3591835,-1000.0,-1000.0,-1000.0,-1000.0,0.0
1734589167.363089,484.375,481.4453125,267.578125,430.6640625,0.0
1734589167.3669949,-874.51171875,-876.46484375,-898.92578125,-926.7578125,0.0
1734589167.3709004,812.5,825.68359375,933.59375,995.1171875,0.0
1734589167.374806,-578.61328125,-562.98828125,-319.82421875,-193.359375,0.0
1734589167.3787115,-1000.0,-1000.0,-1000.0,-1000.0,0.0
1734589167.382617,320.3125,312.01171875,14.16015625,242.1875,0.0
1734589167.3865225,-895.99609375,-871.58203125,-974.12109375,-939.453125,0.0
1734589167.3903518,908.69140625,846.19140625,993.65234375,-983.88671875,0.0
1734589167.3942573,-343.26171875,-458.0078125,-15.625,124.0234375,0.0
1734589167.398163,-1000.0,-1000.0,-1000.0,-1000.0,0.0
1734589167.4020686,21.97265625,5.37109375,-342.28515625,-178.22265625,0.0
1734589167.4059741,-930.6640625,-900.390625,927.24609375,964.84375,0.0
1734589167.4098797,890.13671875,828.61328125,-976.07421875,-939.453125,0.0
1734589167.4137852,-211.9140625,-464.35546875,283.203125,423.33984375,0.0
1734589167.417691,-1000.0,-1000.0,-1000.0,-1000.0,0.0
1734589167.4215965,-380.859375,-370.1171875,-690.4296875,-601.07421875,0.0
1734589167.425502,932.6171875,937.01171875,770.5078125,830.56640625,0.0
1734589167.4294076,968.26171875,950.68359375,-913.57421875,-900.390625,0.0
1734589167.4333131,118.65234375,-71.2890625,595.21484375,664.0625,0.0
1734589167.4373612,-1000.0,-1000.0,-854.4921875,-916.9921875,0.0
1734589167.441267,-626.46484375,-676.26953125,-898.92578125,-734.86328125,0.0
1734589167.4451725,882.32421875,819.3359375,622.55859375,796.875,0.0
1734589167.449078,991.69921875,-965.33203125,-871.58203125,-920.8984375,0.0
1734589167.4529836,95.21484375,-78.125,733.88671875,796.38671875,0.0
1734589167.4568892,-990.234375,-1000.0,-766.6015625,-734.86328125,0.0
1734589167.4607947,-793.45703125,-795.8984375,-969.23828125,-916.9921875,0.0
1734589167.4647005,747.0703125,656.25,573.2421875,664.0625,0.0
1734589167.468606,-943.84765625,-869.62890625,-874.51171875,-904.78515625,0.0
1734589167.4725115,-0.9765625,5.859375,779.78515625,845.21484375,0.0
1734589167.476417,-962.40234375,-1000.0,-709.9609375,-633.7890625,0.0
1734589167.4803226,-883.7890625,-859.375,-979.4921875,-994.140625,0.0
1734589167.4842448,537.59765625,519.53125,574.21875,583.49609375,0.0
1734589167.4881504,-848.6328125,-813.96484375,-868.1640625,-889.6484375,0.0
1734589167.492056,297.36328125,330.56640625,756.8359375,843.26171875,0.0
1734589167.4959617,-920.8984375,-1000.0,-713.37890625,-635.25390625,0.0
1734589167.4998672,-895.01953125,-891.6015625,-1000.0,-995.60546875,0.0
1734589167.5037727,524.90234375,533.203125,511.71875,588.37890625,0.0
1734589167.5076783,-814.94140625,-827.1484375,-878.90625,-899.4140625,0.0
1734589167.5115838,548.828125,600.09765625,820.3125,870.60546875,0.0
1734589167.5154896,-929.19921875,-877.9296875,-552.734375,-532.2265625,0.0
1734589167.519395,-927.24609375,-969.23828125,-1000.0,-1000.0,0.0
1734589167.5233006,554.6875,519.04296875,281.73828125,417.96875,0.0
1734589167.5272062,-851.07421875,-863.28125,-888.671875,-902.34375,0.0
1734589167.5311115,693.84765625,760.7421875,904.296875,933.59375,0.0
1734589167.535017,-758.30078125,-675.78125,-405.76171875,-384.27734375,0.0
1734589167.5389225,-1000.0,-1000.0,-1000.0,-1000.0,0.0
1734589167.542828,410.15625,393.06640625,128.90625,314.453125,0.0
1734589167.5467336,-901.3671875,-869.62890625,-926.7578125,-919.921875,0.0
1734589167.5506394,918.9453125,833.984375,957.03125,986.81640625,0.0
1734589167.554545,-389.6484375,-536.1328125,-241.69921875,-177.734375,0.0
1734589167.5584505,-1000.0,-1000.0,-1000.0,-1000.0,0.0
1734589167.562356,222.65625,211.42578125,-145.01953125,47.8515625,0.0
1734589167.5662615,-892.08984375,-867.1875,976.07421875,-988.28125,0.0
1734589167.5701673,895.99609375,826.171875,-988.28125,-960.44921875,0.0
1734589167.5740728,-308.10546875,-463.8671875,150.390625,233.88671875,0.0
1734589167.5779579,-1000.0,-1000.0,-1000.0,-1000.0,0.0
1734589167.5818636,-166.015625,-185.546875,-519.04296875,-381.34765625,0.0
1734589167.5857692,-992.1875,-969.7265625,855.95703125,896.484375,0.0
1734589167.5896747,919.921875,867.67578125,-939.453125,-915.52734375,0.0
1734589167.5935802,-58.59375,-312.01171875,510.7421875,595.703125,0.0
1734589167.5974858,-1000.0,-1000.0,-930.17578125,-984.375,0.0
1734589167.6013916,-412.59765625,-589.84375,-811.5234375,-721.6796875,0.0
1734589167.605297,958.49609375,872.0703125,702.63671875,791.50390625,0.0
1734589167.6092026,930.6640625,996.09375,-893.5546875,-904.78515625,0.0
1734589167.6131082,104.98046875,-279.296875,634.765625,626.46484375,0.0
1734589167.6170137,-1000.0,-1000.0,-824.70703125,-845.703125,0.0
1734589167.6209192,-726.5625,-722.65625,-937.01171875,-884.765625,0.0
1734589167.624913,825.68359375,724.12109375,586.42578125,652.34375,0.0
1734589167.6288185,-974.609375,-901.85546875,-869.62890625,-902.34375,0.0
1734589167.632724,-102.05078125,-236.81640625,748.046875,845.21484375,0.0
1734589167.6366296,-1000.0,-1000.0,-747.55859375,-633.7890625,0.0
1734589167.6405354,-816.89453125,-820.80078125,-972.65625,-994.140625,0.0
1734589167.644441,633.30078125,540.0390625,573.2421875,583.0078125,0.0
1734589167.6483464,-886.71875,-826.171875,-871.09375,-889.6484375,0.0
1734589167.652252,140.13671875,118.1640625,765.13671875,843.26171875,0.0
1734589167.6561575,-951.66015625,-1000.0,-724.12109375,-635.25390625,0.0
1734589167.6600633,-895.01953125,-873.53515625,-986.328125,-1000.0,0.0
1734589167.6639688,538.57421875,529.78515625,585.9375,593.26171875,0.0
1734589167.6678743,-825.68359375,-812.98828125,-871.58203125,-888.18359375,0.0
1734589167.671851,226.5625,282.2265625,576.66015625,646.97265625,0.0
1734589167.6757567,-1000.0,-1000.0,-735.83984375,-710.9375,0.0
1734589167.6796622,-880.37109375,-887.20703125,-1000.0,-968.75,0.0
1734589167.6835678,528.80859375,538.0859375,410.64453125,585.44921875,0.0
1734589167.6874733,-828.125,-838.37890625,-879.39453125,-911.62109375,0.0
1734589167.6913788,524.90234375,559.5703125,760.7421875,815.91796875,0.0
1734589167.6952846,-881.34765625,-850.09765625,-522.4609375,-485.83984375,0.0
1734589167.6991901,-987.79296875,-995.1171875,-1000.0,-1000.0,0.0
1734589167.7030957,476.5625,477.5390625,259.765625,416.9921875,0.0
1734589167.7070012,-871.58203125,-866.2109375,-894.04296875,-912.109375,0.0
1734589167.7109067,812.98828125,800.78125,927.734375,968.26171875,0.0
1734589167.7148125,-578.125,-601.07421875,-337.890625,-272.4609375,0.0
1734589167.7186587,-1000.0,-1000.0,-1000.0,-1000.0,0.0
1734589167.7225642,320.80078125,308.59375,28.80859375,242.1875,0.0
1734589167.7264698,-896.484375,-866.69921875,-966.30859375,-935.546875,0.0
1734589167.7303753,911.1328125,832.51953125,987.3046875,-990.72265625,0.0
1734589167.7342808,-339.84375,-495.1171875,-65.4296875,36.1328125,0.0
1734589167.7381866,-1000.0,-1000.0,-1000.0,-1000.0,0.0
1734589167.7420921,27.34375,11.23046875,-307.6171875,-166.015625,0.0
1734589167.7459977,-943.84765625,-908.203125,928.7109375,958.49609375,0.0
1734589167.7499032,926.26953125,837.890625,-972.16796875,-937.5,0.0
1734589167.7538087,-157.2265625,-416.9921875,326.66015625,423.33984375,0.0
1734589167.7577145,-1000.0,-1000.0,-1000.0,-1000.0,0.0
1734589167.76162,-232.91015625,-393.06640625,-689.94140625,-600.5859375,0.0
1734589167.7654467,-987.3046875,966.30859375,786.1328125,830.56640625,0.0
1734589167.7693522,882.8125,917.96875,-922.8515625,-900.87890625,0.0
1734589167.7732577,13.671875,-398.4375,531.73828125,660.64453125,0.0
1734589167.7771633,-1000.0,-1000.0,-872.55859375,-900.87890625,0.0
1734589167.7810688,-625.9765625,-645.01953125,-895.01953125,-812.01171875,0.0
1734589167.7849746,883.7890625,795.8984375,612.3046875,726.07421875,0.0
1734589167.78888,979.00390625,-955.56640625,-866.2109375,-902.34375,0.0
1734589167.7927856,61.5234375,-247.0703125,711.42578125,785.64453125,0.0
1734589167.7966912,-990.72265625,-1000.0,-787.109375,-716.30859375,0.0
1734589167.8005967,-791.50390625,-776.85546875,-964.35546875,-980.46875,0.0
1734589167.8045025,741.2109375,639.16015625,571.77734375,581.0546875,0.0
1734589167.808408,-929.19921875,-863.76953125,-873.53515625,-891.11328125,0.0
1734589167.8123393,-60.05859375,-69.82421875,774.90234375,843.26171875,0.0
1734589167.8162448,-1000.0,-1000.0,-715.33203125,-635.25390625,0.0
1734589167.8201504,-880.37109375,-858.3984375,-991.2109375,-1000.0,0.0
1734589167.8240561,544.43359375,527.83203125,585.9375,595.703125,0.0
1734589167.8279617,-847.65625,-813.96484375,-860.3515625,-880.859375,0.0
1734589167.8318672,101.5625,96.19140625,469.23828125,553.7109375,0.0
1734589167.8357728,-996.58203125,-1000.0,-845.21484375,-759.27734375,0.0
1734589167.8396783,-861.328125,-852.05078125,-947.265625,-943.84765625,0.0
1734589167.843584,509.27734375,514.16015625,524.4140625,564.94140625,0.0
1734589167.8474896,-810.546875,-819.3359375,-877.44140625,-894.04296875,0.0
1734589167.8513951,552.24609375,590.33203125,828.125,877.9296875,0.0
1734589167.8553007,-924.8046875,-897.4609375,-562.98828125,-550.78125,0.0
1734589167.859225,-928.22265625,-937.01171875,-1000.0,-1000.0,0.0
1734589167.8631306,554.6875,562.98828125,356.93359375,511.71875,0.0
1734589167.867036,-850.5859375,-864.74609375,-888.671875,-910.15625,0.0
1734589167.8709416,693.84765625,743.65234375,896.484375,933.59375,0.0
1734589167.8748474,-758.30078125,-694.82421875,-420.8984375,-382.8125,0.0
1734589167.878753,-1000.0,-1000.0,-1000.0,-1000.0,0.0
1734589167.8826585,410.64453125,404.78515625,195.3125,333.49609375,0.0
1734589167.886564,-902.83203125,-878.90625,-919.921875,-919.43359375,0.0
1734589167.8904696,922.8515625,858.88671875,959.47265625,985.83984375,0.0
1734589167.8943753,-397.4609375,-488.28125,-219.7265625,-176.7578125,0.0
1734589167.8982809,-1000.0,-1000.0,-1000.0,-1000.0,0.0
1734589167.9021864,276.3671875,212.890625,-93.75,47.8515625,0.0
1734589167.9062073,-903.80859375,-871.09375,989.2578125,-988.28125,0.0
1734589167.9101129,932.12890625,837.40234375,-987.79296875,-959.9609375,0.0
1734589167.9140186,-267.578125,-427.734375,174.31640625,233.88671875,0.0
1734589167.9179242,-1000.0,-1000.0,-1000.0,-1000.0,0.0
1734589167.9218297,24.4140625,-193.359375,-499.51171875,-381.34765625,0.0
1734589167.9257352,-937.01171875,-958.984375,873.046875,896.484375,0.0
1734589167.9296408,892.578125,853.515625,-949.70703125,-915.52734375,0.0
1734589167.9335465,-44.43359375,-395.99609375,473.6328125,595.703125,0.0
1734589167.937452,-1000.0,-1000.0,-940.4296875,-984.86328125,0.0
1734589167.9413576,-412.59765625,-545.41015625,-802.24609375,-716.30859375,0.0
1734589167.9452631,958.49609375,875.9765625,705.078125,785.64453125,0.0
1734589167.9491687,931.15234375,990.234375,-894.53125,-902.34375,0.0
1734589167.9530556,104.98046875,-194.3359375,628.90625,728.02734375,0.0
1734589167.9569614,-1000.0,-1000.0,-829.58984375,-818.84765625,0.0
1734589167.960867,-722.65625,-725.09765625,-932.12890625,-872.55859375,0.0
1734589167.9647725,821.77734375,744.62890625,590.8203125,690.91796875,0.0
1734589167.968678,-974.609375,-916.015625,-870.60546875,-911.62109375,0.0
1734589167.9725835,-20.5078125,-215.33203125,750.0,846.6796875,0.0
1734589167.9764893,-1000.0,-1000.0,-746.09375,-633.7890625,0.0
1734589167.9803948,-830.078125,-813.4765625,-972.65625,-994.140625,0.0
1734589167.9843004,637.20703125,563.96484375,573.73046875,583.49609375,0.0
1734589167.988206,-880.859375,-833.984375,-872.55859375,-889.6484375,0.0
1734589167.9921114,113.76953125,96.19140625,771.97265625,842.7734375,0.0
1734589167.9960172,-986.328125,-1000.0,-716.796875,-635.25390625,0.0
1734589167.9998896,-879.8828125,-863.76953125,-977.5390625,-994.140625,0.0
1734589168.0037951,527.34375,519.53125,573.2421875,583.0078125,0.0
1734589168.0077007,-827.1484375,-812.01171875,-864.2578125,-889.6484375,0.0
1734589168.0116062,422.36328125,420.41015625,741.69921875,842.7734375,0.0
1734589168.015512,-929.19921875,-983.88671875,-703.125,-635.25390625,0.0
1734589168.0194175,-908.203125,-905.2734375,-1000.0,-996.09375,0.0
1734589168.023323,538.0859375,541.9921875,425.29296875,590.33203125,0.0
1734589168.0272286,-831.54296875,-837.40234375,-881.8359375,-903.80859375,0.0
1734589168.0311341,624.51171875,644.53125,852.05078125,884.765625,0.0
1734589168.0350397,-847.16796875,-829.58984375,-502.44140625,-510.25390625,0.0
1734589168.0389454,-1000.0,-1000.0,-1000.0,-1000.0,0.0
1734589168.042851,484.375,482.91015625,273.4375,424.8046875,0.0
1734589168.0467083,-874.51171875,-864.74609375,-895.01953125,-914.0625,0.0
1734589168.0506139,813.96484375,786.62109375,925.78125,960.9375,0.0
1734589168.0545197,-580.56640625,-622.0703125,-355.46875,-292.96875,0.0
1734589168.0584252,-1000.0,-1000.0,-1000.0,-1000.0,0.0
1734589168.0623307,335.44921875,307.6171875,81.0546875,243.65234375,0.0
1734589168.0662363,-906.25,-864.74609375,-948.2421875,-937.01171875,0.0
1734589168.0701418,942.87109375,827.63671875,973.6328125,-990.72265625,0.0
1734589168.0740476,-329.58984375,-506.8359375,-115.72265625,36.1328125,0.0
1734589168.077953,-1000.0,-1000.0,-1000.0,-1000.0,0.0
1734589168.0818586,227.5390625,8.7890625,-284.1796875,-166.015625,0.0
1734589168.0857642,-899.90234375,-903.80859375,937.5,958.49609375,0.0
1734589168.0896697,899.4140625,833.0078125,-979.00390625,-935.546875,0.0
1734589168.0935159,-155.76171875,-463.8671875,254.8828125,420.8984375,0.0
1734589168.0974214,-1000.0,-1000.0,-1000.0,-1000.0,0.0
1734589168.101327,-197.75390625,-343.75,-650.390625,-550.29296875,0.0
1734589168.1052327,-974.609375,981.4453125,804.19921875,852.5390625,0.0
1734589168.1091383,879.39453125,905.2734375,-926.7578125,-909.66796875,0.0
1734589168.1130438,-12.20703125,-404.78515625,533.203125,665.52734375,0.0
1734589168.1169493,-1000.0,-1000.0,-878.41796875,-907.71484375,0.0
1734589168.1208549,-621.58203125,-623.046875,-885.25390625,-785.64453125,0.0
1734589168.1247606,879.39453125,818.359375,624.0234375,750.0,0.0
1734589168.1286662,992.67578125,-962.890625,-868.1640625,-909.1796875,0.0
1734589168.1325717,-19.53125,-306.640625,696.2890625,791.9921875,0.0
1734589168.1364772,-1000.0,-1000.0,-798.33984375,-729.98046875,0.0
1734589168.1403134,-773.4375,-747.0703125,-961.9140625,-933.10546875,0.0
1734589168.144219,734.375,660.64453125,570.80078125,642.578125,0.0
1734589168.1481245,-925.29296875,-868.1640625,-872.0703125,-900.87890625,0.0
1734589168.1520302,-71.2890625,-119.140625,768.5546875,844.7265625,0.0
1734589168.1559358,-1000.0,-1000.0,-723.14453125,-634.27734375,0.0
1734589168.1598413,-868.1640625,-843.26171875,-977.05078125,-994.140625,0.0
1734589168.1637468,533.69140625,516.6015625,573.2421875,583.0078125,0.0
1734589168.1676524,-849.609375,-814.94140625,-868.65234375,-889.6484375,0.0
1734589168.1715581,297.36328125,244.140625,757.8125,843.26171875,0.0
1734589168.1754637,-920.8984375,-1000.0,-723.6328125,-635.25390625,0.0
1734589168.1793692,-895.01953125,-878.41796875,-995.60546875,-994.140625,0.0
1734589168.1832747,525.390625,525.390625,549.8046875,583.0078125,0.0
1734589168.1872122,-816.89453125,-820.80078125,-879.8828125,-887.6953125,0.0
1734589168.191118,556.15234375,570.3125,809.5703125,836.42578125,0.0
1734589168.1950235,-919.43359375,-913.0859375,-591.796875,-616.69921875,0.0
1734589168.198929,-929.19921875,-932.12890625,-1000.0,-1000.0,0.0
1734589168.2028346,554.6875,557.6171875,356.4453125,509.765625,0.0
1734589168.2067401,-851.07421875,-853.515625,-885.7421875,-908.69140625,0.0
1734589168.2106457,693.84765625,706.54296875,885.25390625,925.29296875,0.0
1734589168.2145514,-758.30078125,-745.1171875,-443.359375,-402.34375,0.0
1734589168.218457,-1000.0,-1000.0,-1000.0,-1000.0,0.0
1734589168.2223625,408.69140625,400.390625,211.42578125,333.984375,0.0
1734589168.226268,-899.4140625,-872.55859375,-908.69140625,-920.41015625,0.0
1734589168.2301736,909.66796875,839.84375,941.89453125,985.83984375,0.0
1734589168.2341003,-428.22265625,-525.87890625,-280.2734375,-176.7578125,0.0
1734589168.2380059,-1000.0,-1000.0,-1000.0,-1000.0,0.0
1734589168.2419114,332.03125,215.33203125,-89.35546875,47.8515625,0.0
1734589168.245817,-904.78515625,-864.74609375,-1000.0,-988.28125,0.0
1734589168.2497225,829.1015625,720.703125,959.9609375,-959.9609375,0.0
1734589168.2536283,-299.31640625,-531.73828125,14.6484375,233.88671875,0.0
1734589168.2575338,-1000.0,-1000.0,-1000.0,-1000.0,0.0
1734589168.2614393,12.20703125,-163.57421875,-477.05078125,-381.34765625,0.0
1734589168.2653449,-928.22265625,-944.82421875,877.9296875,896.484375,0.0
1734589168.2692504,886.23046875,844.23828125,-959.47265625,-914.0625,0.0
1734589168.2731562,-119.62890625,-451.66015625,357.91015625,597.65625,0.0
1734589168.2770617,-1000.0,-1000.0,-982.91015625,-996.58203125,0.0
1734589168.2809653,-404.296875,-485.83984375,-773.92578125,-645.01953125,0.0
1734589168.2848709,955.56640625,898.4375,710.9375,840.33203125,0.0
1734589168.2887766,933.10546875,976.07421875,-897.4609375,-918.45703125,0.0
1734589168.2926822,48.828125,-211.9140625,615.234375,736.328125,0.0
1734589168.2965877,-1000.0,-1000.0,-835.44921875,-830.078125,0.0
1734589168.3004932,-713.37890625,-693.359375,-925.78125,-830.078125,0.0
1734589168.3043988,815.91796875,772.94921875,595.21484375,736.81640625,0.0
1734589168.3083043,-967.7734375,-930.6640625,-869.140625,-920.8984375,0.0
1734589168.31221,-46.875,-202.63671875,742.67578125,847.16796875,0.0
1734589168.3161156,-1000.0,-1000.0,-755.37109375,-635.7421875,0.0
1734589168.3200212,-824.21875,-789.55078125,-971.19140625,-993.65234375,0.0
1734589168.3239267,635.25390625,604.98046875,573.73046875,583.49609375,0.0
1734589168.32782,-880.859375,-841.30859375,-873.046875,-889.6484375,0.0
1734589168.3317256,113.76953125,65.4296875,772.4609375,843.26171875,0.0
1734589168.3356311,-986.328125,-1000.0,-716.30859375,-635.25390625,0.0
1734589168.3395367,-879.8828125,-860.3515625,-978.02734375,-994.140625,0.0
1734589168.3434424,527.34375,519.53125,573.2421875,583.49609375,0.0
1734589168.347348,-827.1484375,-812.01171875,-866.2109375,-889.6484375,0.0
1734589168.3512535,422.8515625,388.671875,749.0234375,843.26171875,0.0
1734589168.355159,-929.19921875,-995.1171875,-707.51953125,-635.25390625,0.0
1734589168.3590646,-908.69140625,-899.90234375,-1000.0,-996.09375,0.0
1734589168.3629704,537.59765625,538.57421875,466.796875,590.33203125,0.0
1734589168.366876,-828.125,-832.51953125,-880.859375,-903.80859375,0.0
1734589168.3707814,604.98046875,625.48828125,838.37890625,884.765625,0.0
1734589168.3748934,-862.3046875,-847.16796875,-520.01953125,-510.25390625,0.0
1734589168.378799,-999.51171875,-1000.0,-1000.0,-1000.0,0.0
1734589168.3827047,479.98046875,479.4921875,278.3203125,424.8046875,0.0
1734589168.3866103,-865.72265625,-859.375,-893.06640625,-915.52734375,0.0
1734589168.3905158,774.4140625,769.04296875,921.38671875,966.796875,0.0
1734589168.3944213,-645.5078125,-655.2734375,-375.0,-304.6875,0.0
1734589168.3983269,-1000.0,-1000.0,-1000.0,-1000.0,0.0
1734589168.4022326,419.921875,348.6328125,132.32421875,315.91796875,0.0
1734589168.4061382,-916.50390625,-903.80859375,-954.1015625,-937.98828125,0.0
1734589168.4100437,959.9609375,923.33984375,996.58203125,-983.88671875,0.0
1734589168.4139493,-292.96875,-330.078125,-7.8125,22.94921875,0.0
1734589168.4178548,-1000.0,-1000.0,-1000.0,-1000.0,0.0
1734589168.4217134,229.98046875,158.69140625,-210.9375,33.203125,0.0
1734589168.425619,-903.80859375,-896.97265625,957.03125,-986.81640625,0.0
1734589168.4295244,912.109375,871.58203125,-972.16796875,-957.03125,0.0
1734589168.43343,-129.39453125,-228.515625,392.578125,429.6875,0.0
1734589168.4373357,-1000.0,-1000.0,-1000.0,-1000.0,0.0
1734589168.4412413,-201.66015625,-248.53515625,-623.53515625,-411.1328125,0.0
1734589168.4451468,-970.21484375,-969.7265625,834.9609375,913.0859375,0.0
1734589168.4490523,877.44140625,885.7421875,-931.640625,-933.59375,0.0
1734589168.4529579,-68.359375,-310.546875,546.38671875,679.19921875,0.0
1734589168.4568636,-1000.0,-1000.0,-889.6484375,-921.38671875,0.0
1734589168.4607692,-612.79296875,-607.421875,-871.09375,-734.86328125,0.0
1734589168.4646747,875.0,854.00390625,642.08984375,793.45703125,0.0
1734589168.4685187,994.140625,-982.91015625,-874.0234375,-910.64453125,0.0
1734589168.4724243,-19.53125,-333.49609375,677.24609375,753.90625,0.0
1734589168.4763298,-1000.0,-1000.0,-807.6171875,-781.73828125,0.0
1734589168.4802356,-773.4375,-717.28515625,-958.984375,-907.2265625,0.0
1734589168.484141,734.375,697.75390625,568.84765625,662.109375,0.0
1734589168.4880466,-925.29296875,-882.32421875,-869.62890625,-904.78515625,0.0
1734589168.4919522,-71.2890625,-164.55078125,761.23046875,845.21484375,0.0
1734589168.4958577,-1000.0,-1000.0,-731.93359375,-633.7890625,0.0
1734589168.4997635,-868.1640625,-838.8671875,-975.5859375,-994.140625,0.0
1734589168.503669,533.69140625,515.625,573.73046875,583.0078125,0.0
1734589168.5075746,-849.12109375,-818.84765625,-870.1171875,-889.6484375,0.0
1734589168.51148,297.36328125,238.76953125,762.20703125,843.26171875,0.0
1734589168.5154219,-920.8984375,-1000.0,-725.5859375,-635.25390625,0.0
1734589168.5193274,-897.4609375,-878.41796875,-979.4921875,-994.140625,0.0
1734589168.523233,530.76171875,524.4140625,575.1953125,583.49609375,0.0
1734589168.5271385,-826.171875,-819.3359375,-882.8125,-887.6953125,0.0
1734589168.5310442,545.8984375,564.453125,808.10546875,835.9375,0.0
1734589168.5349498,-895.01953125,-917.48046875,-603.02734375,-616.69921875,0.0
1734589168.5388553,-929.19921875,-930.6640625,-1000.0,-1000.0,0.0
1734589168.5427608,548.828125,556.15234375,383.7890625,509.765625,0.0
1734589168.5466664,-835.44921875,-850.09765625,-885.25390625,-909.1796875,0.0
1734589168.5505722,624.51171875,692.87109375,878.41796875,925.29296875,0.0
1734589168.5544777,-847.16796875,-762.6953125,-459.9609375,-402.34375,0.0
1734589168.5583832,-1000.0,-1000.0,-1000.0,-1000.0,0.0
1734589168.5623217,491.69921875,410.64453125,250.9765625,333.984375,0.0
1734589168.5662272,-891.11328125,-873.53515625,-900.87890625,-923.33984375,0.0
1734589168.5701327,856.4453125,838.37890625,936.5234375,998.046875,0.0
1734589168.5740383,-494.140625,-536.1328125,-298.828125,-196.77734375,0.0
1734589168.5779438,-1000.0,-1000.0,-1000.0,-1000.0,0.0
1734589168.5818496,321.2890625,247.55859375,-47.8515625,242.67578125,0.0
1734589168.585755,-896.97265625,-866.69921875,-991.2109375,-948.73046875,0.0
1734589168.5896606,913.57421875,833.0078125,997.55859375,-974.12109375,0.0
1734589168.5935662,-310.05859375,-486.328125,27.83203125,234.86328125,0.0
1734589168.5974717,-1000.0,-1000.0,-1000.0,-1000.0,0.0
1734589168.6013775,23.92578125,-35.64453125,-415.52734375,-185.546875,0.0
1734589168.605283,-934.08203125,-931.640625,888.671875,964.84375,0.0
1734589168.6093233,887.20703125,854.00390625,-956.0546875,-944.82421875,0.0
1734589168.6132288,-109.86328125,-302.734375,459.9609375,613.28125,0.0
1734589168.6171343,-1000.0,-1000.0,-966.796875,-1000.0,0.0
1734589168.6210399,-409.1796875,-398.4375,-750.0,-633.7890625,0.0
1734589168.6249454,958.0078125,955.078125,757.32421875,847.65625,0.0
1734589168.628851,940.91796875,951.66015625,-911.62109375,-916.015625,0.0
1734589168.6327567,-46.875,-194.3359375,594.23828125,713.8671875,0.0
1734589168.6366622,-1000.0,-1000.0,-844.7265625,-851.5625,0.0
1734589168.6405678,-694.82421875,-673.828125,-911.62109375,-823.73046875,0.0
1734589168.6444733,808.59375,797.36328125,607.421875,729.4921875,0.0
1734589168.6483788,-965.33203125,-940.91796875,-869.140625,-902.83203125,0.0
1734589168.6522846,-46.875,-218.26171875,733.88671875,785.64453125,0.0
1734589168.6561844,-1000.0,-1000.0,-765.625,-716.30859375,0.0
1734589168.66009,-823.73046875,-788.0859375,-969.23828125,-980.46875,0.0
1734589168.6639955,635.7421875,614.2578125,573.2421875,581.0546875,0.0
1734589168.667901,-886.23046875,-851.07421875,-873.53515625,-891.11328125,0.0
1734589168.6718066,144.04296875,30.2734375,775.87890625,843.26171875,0.0
1734589168.6757123,-962.40234375,-1000.0,-713.37890625,-635.25390625,0.0
1734589168.679618,-895.01953125,-858.3984375,-978.515625,-994.140625,0.0
1734589168.6835234,543.45703125,518.5546875,574.21875,583.49609375,0.0
1734589168.687429,-845.21484375,-812.98828125,-868.1640625,-889.6484375,0.0
1734589168.6913345,315.91796875,374.51171875,755.859375,842.7734375,0.0
1734589168.6952403,-929.19921875,-992.67578125,-707.03125,-635.25390625,0.0
1734589168.6991458,-896.484375,-897.94921875,-1000.0,-996.09375,0.0
1734589168.703036,526.85546875,536.62109375,491.69921875,590.33203125,0.0
1734589168.7069416,-815.91796875,-830.56640625,-882.32421875,-903.80859375,0.0
1734589168.7108471,548.828125,616.69921875,836.9140625,884.765625,0.0
1734589168.7147527,-929.19921875,-855.95703125,-525.390625,-510.25390625,0.0
1734589168.7186584,-929.19921875,-996.09375,-1000.0,-1000.0,0.0
1734589168.722564,561.5234375,488.28125,285.64453125,424.31640625,0.0
1734589168.7264695,-869.62890625,-864.2578125,-894.04296875,-916.50390625,0.0
1734589168.730375,750.0,780.2734375,921.38671875,968.75,0.0
1734589168.7342806,-669.921875,-640.625,-374.51171875,-309.08203125,0.0
1734589168.7381864,-1000.0,-1000.0,-1000.0,-1000.0,0.0
1734589168.742092,418.45703125,365.234375,138.18359375,343.26171875,0.0
1734589168.7459974,-916.50390625,-888.671875,-943.359375,-937.01171875,0.0
1734589168.7499955,960.44921875,888.671875,984.86328125,-985.3515625,0.0
1734589168.753901,-292.96875,-416.9921875,-85.9375,24.4140625,0.0
1734589168.7578068,-1000.0,-1000.0,-1000.0,-1000.0,0.0
1734589168.7617123,216.30859375,166.9921875,-205.56640625,33.203125,0.0
1734589168.7656178,-880.859375,-875.9765625,967.28515625,-986.81640625,0.0
1734589168.7695234,876.46484375,836.9140625,-987.3046875,-957.03125,0.0
1734589168.773429,-336.9140625,-414.0625,218.26171875,429.6875,0.0
1734589168.7773347,-1000.0,-1000.0,-1000.0,-1000.0,0.0
1734589168.7812402,-181.640625,-206.0546875,-602.5390625,-411.62109375,0.0
1734589168.7851458,-978.515625,-959.47265625,827.1484375,912.109375,0.0
1734589168.7890513,877.9296875,861.328125,-933.59375,-926.26953125,0.0
1734589168.7929568,-150.390625,-427.734375,476.5625,633.7890625,0.0
1734589168.7968214,-1000.0,-1000.0,-915.52734375,-955.56640625,0.0
1734589168.8007271,-599.609375,-572.75390625,-856.93359375,-725.09765625,0.0
1734589168.8046327,867.67578125,860.83984375,645.01953125,788.57421875,0.0
1734589168.8085382,996.58203125,-992.1875,-876.953125,-903.3203125,0.0
1734589168.8124437,-11.71875,-290.52734375,657.71484375,726.07421875,0.0
1734589168.8163493,-1000.0,-1000.0,-814.94140625,-812.01171875,0.0
1734589168.820255,-772.4609375,-727.05078125,-952.63671875,-900.87890625,0.0
1734589168.8241606,732.91015625,708.0078125,573.2421875,660.64453125,0.0
1734589168.828066,-926.26953125,-893.5546875,-870.60546875,-905.2734375,0.0
1734589168.8319716,-21.484375,-189.453125,760.7421875,845.21484375,0.0
1734589168.8358772,-1000.0,-1000.0,-732.421875,-633.7890625,0.0
1734589168.839783,-882.8125,-839.84375,-975.09765625,-994.140625,0.0
1734589168.843637,550.29296875,518.06640625,574.21875,583.0078125,0.0
1734589168.8475425,-875.48828125,-822.265625,-872.0703125,-889.6484375,0.0
1734589168.851448,265.13671875,204.1015625,770.01953125,843.26171875,0.0
1734589168.8553536,-879.8828125,-1000.0,-718.26171875,-635.25390625,0.0
1734589168.8592591,-906.25,-875.0,-978.02734375,-994.140625,0.0
1734589168.863165,536.1328125,522.4609375,577.1484375,583.0078125,0.0
1734589168.8670704,-827.63671875,-814.94140625,-875.9765625,-889.16015625,0.0
1734589168.870976,422.36328125,521.484375,783.203125,839.35546875,0.0
1734589168.8748815,-929.19921875,-941.40625,-643.06640625,-625.9765625,0.0
1734589168.878787,-908.203125,-922.36328125,-1000.0,-1000.0,0.0
1734589168.8826928,538.0859375,552.24609375,413.0859375,552.24609375,0.0
1734589168.8865983,-832.03125,-849.12109375,-885.7421875,-916.50390625,0.0
1734589168.89043,624.51171875,689.94140625,872.0703125,933.59375,0.0
1734589168.8943355,-847.16796875,-779.296875,-470.21484375,-418.45703125,0.0
1734589168.8982413,-1000.0,-1000.0,-1000.0,-1000.0,0.0
1734589168.9021468,484.86328125,459.47265625,262.6953125,430.6640625,0.0
1734589168.9060524,-874.51171875,-873.046875,-898.4375,-926.7578125,0.0
1734589168.909958,812.98828125,822.265625,931.15234375,995.1171875,0.0
1734589168.9138634,-578.125,-571.2890625,-319.3359375,-193.359375,0.0
1734589168.9177692,-1000.0,-1000.0,-1000.0,-1000.0,0.0
1734589168.9216747,318.359375,294.921875,-17.08984375,243.1640625,0.0
1734589168.9255803,-891.11328125,-860.83984375,-974.609375,-939.94140625,0.0
1734589168.9294858,895.01953125,819.3359375,982.91015625,-982.91015625,0.0
1734589168.9333913,-364.74609375,-521.97265625,-70.80078125,137.20703125,0.0
1734589168.9373298,-1000.0,-1000.0,-1000.0,-1000.0,0.0
1734589168.9412353,19.04296875,-6.34765625,-397.4609375,-180.17578125,0.0
1734589168.945141,-925.78125,-898.92578125,909.1796875,965.8203125,0.0
1734589168.9490466,876.46484375,818.359375,-977.5390625,-939.453125,0.0
1734589168.9529521,-243.65234375,-526.85546875,185.546875,423.33984375,0.0
1734589168.9568577,-1000.0,-1000.0,-1000.0,-1000.0,0.0
1734589168.9607632,-392.578125,-384.27734375,-744.140625,-600.5859375,0.0
1734589168.964669,952.1484375,961.9140625,713.8671875,830.56640625,0.0
1734589168.9685745,938.4765625,923.33984375,-907.2265625,-900.87890625,0.0
1734589168.97248,-84.47265625,-459.47265625,519.53125,660.64453125,0.0
1734589168.9763856,-1000.0,-1000.0,-866.69921875,-900.87890625,0.0
1734589168.9802911,-692.3828125,-641.6015625,-905.2734375,-812.01171875,0.0
1734589168.9842155,812.98828125,783.69140625,597.16796875,726.07421875,0.0
1734589168.988121,-985.83984375,-942.3828125,-864.2578125,-902.34375,0.0
1734589168.9920268,-63.4765625,-278.80859375,721.19140625,785.15625,0.0
1734589168.9959323,-1000.0,-1000.0,-780.2734375,-716.30859375,0.0
1734589168.9998379,-760.7421875,-772.4609375,-966.796875,-980.46875,0.0
1734589169.0037434,724.609375,621.09375,574.70703125,581.0546875,0.0
1734589169.007649,-925.29296875,-868.65234375,-880.37109375,-891.11328125,0.0
1734589169.0115547,100.5859375,116.2109375,802.734375,843.26171875,0.0
1734589169.0154603,-941.89453125,-1000.0,-683.10546875,-635.25390625,0.0
1734589169.0193658,-896.484375,-877.9296875,-984.375,-994.140625,0.0
1734589169.0232713,544.43359375,525.87890625,575.68359375,583.49609375,0.0
1734589169.0271769,-850.5859375,-816.40625,-870.1171875,-889.6484375,0.0
1734589169.0310826,297.36328125,358.3984375,765.13671875,843.26171875,0.0
1734589169.0349882,-920.8984375,-990.234375,-712.40234375,-635.25390625,0.0
1734589169.0388937,-895.01953125,-896.484375,-1000.0,-996.09375,0.0
1734589169.0427992,524.90234375,535.15625,541.9921875,590.33203125,0.0
1734589169.0467048,-814.94140625,-827.63671875,-884.27734375,-905.76171875,0.0
1734589169.0506105,548.828125,603.02734375,826.171875,890.13671875,0.0
1734589169.054516,-929.19921875,-876.953125,-546.875,-522.94921875,0.0
1734589169.0584216,-927.24609375,-967.28515625,-1000.0,-1000.0,0.0
1734589169.0623271,554.6875,521.484375,304.19921875,488.76953125,0.0
1734589169.0662327,-851.07421875,-857.421875,-888.671875,-918.9453125,0.0
1734589169.0701385,693.84765625,739.2578125,904.296875,960.44921875,0.0
1734589169.074044,-758.30078125,-697.75390625,-400.87890625,-311.03515625,0.0
1734589169.0779397,-1000.0,-1000.0,-1000.0,-1000.0,0.0
1734589169.0818453,410.15625,369.140625,121.58203125,299.8046875,0.0
1734589169.0857508,-901.3671875,-866.2109375,-925.29296875,-924.8046875,0.0
1734589169.0896564,918.45703125,827.63671875,953.61328125,-998.53515625,0.0
1734589169.0935621,-389.6484375,-549.8046875,-265.13671875,-127.44140625,0.0
1734589169.0974677,-1000.0,-1000.0,-1000.0,-1000.0,0.0
1734589169.1013732,221.6796875,215.33203125,-166.50390625,46.38671875,0.0
1734589169.1052787,-890.13671875,-874.0234375,965.8203125,-989.2578125,0.0
1734589169.1091843,890.625,836.9140625,-987.3046875,-958.49609375,0.0
1734589169.11309,-316.40625,-408.203125,163.57421875,292.96875,0.0
1734589169.1169956,-1000.0,-1000.0,-1000.0,-1000.0,0.0
1734589169.120901,-173.33984375,-185.05859375,-530.76171875,-390.625,0.0
1734589169.1247735,-994.140625,-976.07421875,848.14453125,901.3671875,0.0
1734589169.1286793,912.59765625,882.8125,-930.17578125,-916.50390625,0.0
1734589169.1325848,-50.78125,-208.0078125,548.828125,596.19140625,0.0
1734589169.1364903,-1000.0,-1000.0,-918.45703125,-984.86328125,0.0
1734589169.1403959,-598.14453125,-602.05078125,-825.68359375,-716.30859375,0.0
1734589169.1443014,866.2109375,877.44140625,692.3828125,785.64453125,0.0
1734589169.148207,988.76953125,997.0703125,-888.671875,-902.83203125,0.0
1734589169.1521127,137.20703125,-271.484375,647.4609375,726.07421875,0.0
1734589169.1560183,-1000.0,-1000.0,-822.265625,-812.01171875,0.0
1734589169.1599238,-723.6328125,-733.3984375,-941.40625,-900.87890625,0.0
1734589169.1638293,826.171875,713.37890625,584.47265625,660.64453125,0.0
1734589169.1677349,-985.3515625,-902.34375,-872.0703125,-905.2734375,0.0
1734589169.1717103,29.78515625,-194.3359375,759.27734375,845.21484375,0.0
1734589169.1756158,-974.12109375,-1000.0,-734.86328125,-633.7890625,0.0
1734589169.1795213,-848.14453125,-841.30859375,-979.98046875,-999.51171875,0.0
1734589169.1834269,652.83203125,539.0625,581.0546875,589.35546875,0.0
1734589169.1873324,-901.3671875,-835.44921875,-876.953125,-891.6015625,0.0
1734589169.1912382,77.1484375,94.23828125,682.12890625,743.65234375,0.0
1734589169.1951437,-937.5,-1000.0,-739.2578125,-669.43359375,0.0
1734589169.1990492,-877.44140625,-861.328125,-964.35546875,-978.02734375,0.0
1734589169.2029548,521.484375,515.13671875,568.84765625,575.1953125,0.0
1734589169.2068603,-823.73046875,-811.5234375,-871.09375,-886.71875,0.0
1734589169.210766,422.36328125,486.81640625,776.85546875,842.28515625,0.0
1734589169.2146716,-929.19921875,-953.61328125,-653.80859375,-632.32421875,0.0
1734589169.2186363,-908.69140625,-916.9921875,-1000.0,-1000.0,0.0
1734589169.2225418,538.0859375,548.33984375,412.109375,583.0078125,0.0
1734589169.2264473,-831.54296875,-843.75,-882.32421875,-919.921875,0.0
1734589169.2303529,624.51171875,667.96875,859.375,931.15234375,0.0
1734589169.2342587,-847.16796875,-804.19921875,-489.2578125,-421.875,0.0
1734589169.2381642,-1000.0,-1000.0,-1000.0,-1000.0,0.0
1734589169.2420697,484.375,471.6796875,262.6953125,423.33984375,0.0
1734589169.2459753,-874.51171875,-863.28125,-895.01953125,-911.62109375,0.0
1734589169.2498808,812.5,787.109375,923.33984375,962.890625,0.0
1734589169.2537866,-578.61328125,-625.0,-343.26171875,-287.109375,0.0
1734589169.257692,-1000.0,-1000.0,-1000.0,-1000.0,0.0
1734589169.2615976,318.84765625,306.640625,3.41796875,243.1640625,0.0
1734589169.2655427,-891.11328125,-862.79296875,-965.33203125,-937.01171875,0.0
1734589169.2694483,895.01953125,820.80078125,977.5390625,-990.72265625,0.0
1734589169.2733538,-364.74609375,-520.01953125,-120.1171875,36.1328125,0.0
1734589169.2772596,-1000.0,-1000.0,-1000.0,-1000.0,0.0
1734589169.2811651,20.01953125,7.32421875,-329.1015625,-166.015625,0.0
1734589169.2850707,-928.7109375,-901.3671875,926.7578125,958.49609375,0.0
1734589169.2889762,883.7890625,825.68359375,-980.46875,-937.5,0.0
1734589169.2928817,-232.91015625,-482.421875,220.21484375,422.8515625,0.0
1734589169.2967875,-1000.0,-1000.0,-1000.0,-1000.0,0.0
1734589169.300693,-358.3984375,-387.20703125,-685.05859375,-600.5859375,0.0
1734589169.3045986,978.515625,962.890625,774.90234375,830.56640625,0.0
1734589169.308504,885.7421875,922.36328125,-922.36328125,-900.87890625,0.0
1734589169.3126779,-110.83984375,-420.8984375,512.6953125,660.15625,0.0
1734589169.3165834,-1000.0,-1000.0,-875.9765625,-900.87890625,0.0
1734589169.320489,-612.3046875,-643.06640625,-891.6015625,-812.01171875,0.0
1734589169.3243945,875.48828125,793.45703125,612.3046875,725.5859375,0.0
1734589169.3283002,983.3984375,-952.1484375,-865.72265625,-902.83203125,0.0
1734589169.3322058,43.9453125,-279.78515625,709.9609375,786.1328125,0.0
1734589169.3361113,-1000.0,-1000.0,-789.0625,-717.7734375,0.0
1734589169.3400168,-787.59765625,-765.13671875,-964.35546875,-975.5859375,0.0
1734589169.3439224,744.140625,638.18359375,572.75390625,587.40234375,0.0
1734589169.3478281,-943.359375,-868.65234375,-876.46484375,-892.08984375,0.0
1734589169.3517337,-1.953125,18.06640625,786.62109375,843.26171875,0.0
1734589169.3556392,-963.8671875,-1000.0,-701.66015625,-635.25390625,0.0
1734589169.3595514,-883.7890625,-863.76953125,-980.95703125,-994.140625,0.0
1734589169.363457,537.59765625,521.97265625,574.21875,583.0078125,0.0
1734589169.3673627,-848.6328125,-814.453125,-867.67578125,-889.6484375,0.0
1734589169.3712683,297.36328125,302.734375,753.90625,843.26171875,0.0
1734589169.3751738,-920.8984375,-1000.0,-725.5859375,-635.25390625,0.0
1734589169.3790793,-895.01953125,-887.20703125,-999.51171875,-995.1171875,0.0
1734589169.3829849,524.90234375,530.2734375,543.45703125,587.890625,0.0
1734589169.3868906,-814.94140625,-824.70703125,-881.34765625,-900.390625,0.0
1734589169.3907962,548.828125,587.40234375,817.3828125,873.53515625,0.0
1734589169.3947017,-929.19921875,-899.90234375,-578.125,-558.10546875,0.0
1734589169.3986073,-927.24609375,-936.03515625,-1000.0,-1000.0,0.0
1734589169.4025128,554.6875,559.5703125,349.12109375,510.7421875,0.0
1734589169.4064157,-851.07421875,-855.95703125,-887.20703125,-909.1796875,0.0
1734589169.4103212,693.84765625,715.33203125,893.5546875,930.6640625,0.0
1734589169.4142268,-758.30078125,-734.375,-428.7109375,-390.13671875,0.0
1734589169.4181325,-1000.0,-1000.0,-1000.0,-1000.0,0.0
1734589169.422038,410.64453125,404.78515625,201.171875,333.49609375,0.0
1734589169.4259436,-901.3671875,-881.8359375,-918.45703125,-919.921875,0.0
1734589169.4298491,918.45703125,863.76953125,958.0078125,985.83984375,0.0
1734589169.4337547,-389.6484375,-478.515625,-222.16796875,-176.7578125,0.0
1734589169.4376605,-1000.0,-1000.0,-1000.0,-1000.0,0.0
1734589169.441566,225.09765625,208.0078125,-105.46875,47.8515625,0.0
1734589169.4454715,-896.484375,-860.83984375,-1000.0,-988.76953125,0.0
1734589169.449377,913.57421875,818.84765625,996.09375,-960.44921875,0.0
1734589169.4533896,-304.6875,-492.67578125,43.45703125,233.88671875,0.0
1734589169.4572954,-1000.0,-1000.0,-1000.0,-1000.0,0.0
1734589169.461201,-10.25390625,-190.4296875,-493.65234375,-381.34765625,0.0
1734589169.4651065,-948.2421875,-958.49609375,865.234375,896.97265625,0.0
1734589169.469012,897.4609375,847.65625,-954.1015625,-915.52734375,0.0
1734589169.4729176,-46.875,-435.05859375,418.9453125,595.703125,0.0
1734589169.4768233,-1000.0,-1000.0,-954.1015625,-984.86328125,0.0
1734589169.4807289,-414.0625,-555.6640625,-796.875,-716.30859375,0.0
1734589169.4846344,960.44921875,875.9765625,704.58984375,785.64453125,0.0
1734589169.48854,931.640625,988.76953125,-898.4375,-902.83203125,0.0
1734589169.4924457,67.3828125,-304.19921875,602.05078125,729.00390625,0.0
1734589169.4963512,-1000.0,-1000.0,-835.44921875,-821.77734375,0.0
1734589169.5003428,-716.30859375,-698.73046875,-927.24609375,-860.3515625,0.0
1734589169.5042484,820.3125,741.69921875,591.30859375,704.58984375,0.0
1734589169.508154,-979.98046875,-916.50390625,-870.60546875,-914.55078125,0.0
1734589169.5120595,7.8125,-170.41015625,750.0,847.16796875,0.0
1734589169.515965,-994.62890625,-1000.0,-746.58203125,-633.7890625,0.0
1734589169.5198708,-836.42578125,-807.6171875,-972.65625,-994.140625,0.0
1734589169.5237763,638.671875,582.51953125,574.21875,583.0078125,0.0
1734589169.5276818,-881.34765625,-840.8203125,-874.0234375,-889.6484375,0.0
1734589169.5315874,113.76953125,142.08984375,776.85546875,843.26171875,0.0
1734589169.5354931,-986.328125,-1000.0,-711.42578125,-635.25390625,0.0
1734589169.5393987,-879.8828125,-870.60546875,-979.00390625,-994.140625,0.0
1734589169.5433042,528.3203125,521.97265625,575.68359375,583.49609375,0.0
1734589169.5471604,-829.58984375,-815.4296875,-872.55859375,-889.6484375,0.0
1734589169.551066,432.12890625,463.37890625,770.99609375,843.26171875,0.0
1734589169.5549715,-918.9453125,-956.0546875,-679.19921875,-635.25390625,0.0
1734589169.558877,-910.64453125,-913.0859375,-1000.0,-996.09375,0.0
1734589169.5627825,538.57421875,545.8984375,471.6796875,590.33203125,0.0
1734589169.5666883,-831.54296875,-841.796875,-885.25390625,-904.296875,0.0
1734589169.5705938,625.0,663.0859375,855.46875,884.765625,0.0
1734589169.5744994,-847.16796875,-812.5,-495.60546875,-510.25390625,0.0
1734589169.578405,-1000.0,-1000.0,-1000.0,-1000.0,0.0
1734589169.5823107,483.88671875,482.91015625,271.97265625,424.8046875,0.0
1734589169.5862162,-873.046875,-862.3046875,-893.5546875,-914.0625,0.0
1734589169.5901217,805.6640625,776.85546875,920.8984375,960.9375,0.0
1734589169.5940871,-585.9375,-635.7421875,-363.28125,-292.96875,0.0
1734589169.5979927,-1000.0,-1000.0,-1000.0,-1000.0,0.0
1734589169.6018982,325.1953125,309.5703125,68.359375,243.65234375,0.0
1734589169.6058037,-912.59765625,-870.60546875,-954.1015625,-937.01171875,0.0
1734589169.6097095,964.35546875,840.8203125,979.98046875,-990.72265625,0.0
1734589169.613615,-297.36328125,-482.421875,-100.09765625,36.1328125,0.0
1734589169.6175206,-1000.0,-1000.0,-1000.0,-1000.0,0.0
1734589169.621426,228.515625,24.90234375,-274.90234375,-166.015625,0.0
1734589169.6253319,-900.87890625,-904.78515625,937.5,958.0078125,0.0
1734589169.6292374,903.80859375,839.84375,-972.16796875,-935.05859375,0.0
1734589169.633143,-145.5078125,-427.24609375,284.1796875,421.38671875,0.0
1734589169.6370485,-1000.0,-1000.0,-1000.0,-1000.0,0.0
1734589169.6408763,0.0,-340.8203125,-652.83203125,-550.29296875,0.0
1734589169.644782,0.0,979.4921875,803.7109375,852.5390625,0.0
1734589169.6486876,0.0,907.71484375,-924.8046875,-909.1796875,0.0
1734589169.6525931,0.0,-335.9375,540.0390625,667.96875,0.0
1734589169.6564987,0.0,-1000.0,-880.37109375,-917.96875,0.0
1734589169.6604044,0.0,-621.58203125,-882.32421875,-734.86328125,0.0
1734589169.66431,0.0,829.1015625,628.90625,796.875,0.0
1734589169.6682155,0.0,-972.65625,-870.60546875,-920.8984375,0.0
1734589169.672121,0.0,-231.4453125,698.73046875,796.875,0.0
1734589169.6760266,0.0,-1000.0,-794.43359375,-734.86328125,0.0
1734589169.6799324,0.0,-748.53515625,-962.40234375,-916.9921875,0.0
1734589169.683838,0.0,682.12890625,570.80078125,664.0625,0.0
1734589169.6877756,-925.29296875,-877.9296875,-871.58203125,-904.296875,0.0
1734589169.6916811,-71.77734375,-104.4921875,768.06640625,845.21484375,0.0
1734589169.6955867,-1000.0,-1000.0,-724.12109375,-633.7890625,0.0
1734589169.6994925,-868.1640625,-848.14453125,-976.5625,-994.140625,0.0
1734589169.703398,533.69140625,519.53125,573.73046875,583.0078125,0.0
1734589169.7073035,-849.12109375,-818.359375,-868.65234375,-889.6484375,0.0
1734589169.711209,297.36328125,232.91015625,757.32421875,843.26171875,0.0
1734589169.7151146,-920.8984375,-1000.0,-727.5390625,-635.25390625,0.0
1734589169.7190204,-895.01953125,-877.44140625,-987.3046875,-994.140625,0.0
1734589169.722926,524.90234375,524.4140625,559.08203125,583.49609375,0.0
1734589169.7268314,-814.94140625,-819.3359375,-874.0234375,-887.6953125,0.0
1734589169.730737,548.828125,563.96484375,784.1796875,835.9375,0.0
1734589169.7346542,-929.19921875,-917.96875,-627.44140625,-616.69921875,0.0
1734589169.7385597,-927.734375,-930.6640625,-1000.0,-1000.0,0.0
1734589169.7424653,551.7578125,556.15234375,361.81640625,509.765625,0.0
1734589169.7463708,-839.84375,-850.5859375,-883.7890625,-908.69140625,0.0
1734589169.7502766,639.16015625,694.3359375,875.0,925.29296875,0.0
1734589169.754182,-815.4296875,-758.30078125,-457.51953125,-402.34375,0.0
1734589169.7580876,-1000.0,-1000.0,-1000.0,-1000.0,0.0
1734589169.7619932,422.36328125,396.97265625,209.47265625,333.984375,0.0
1734589169.7658987,-883.7890625,-865.72265625,-905.2734375,-920.41015625,0.0
1734589169.7698045,852.05078125,818.359375,934.08203125,985.83984375,0.0
1734589169.77371,-508.30078125,-561.03515625,-308.59375,-176.7578125,0.0
1734589169.7776155,-1000.0,-1000.0,-1000.0,-1000.0,0.0
1734589169.7815201,325.1953125,214.35546875,-82.51953125,47.8515625,0.0
1734589169.7854257,-904.78515625,-869.62890625,995.1171875,-989.74609375,0.0
1734589169.7893312,928.7109375,835.9375,-994.140625,-950.1953125,0.0
1734589169.793237,-265.13671875,-474.12109375,59.5703125,221.6796875,0.0
1734589169.7971425,-1000.0,-1000.0,-1000.0,-1000.0,0.0
1734589169.801048,20.99609375,-85.44921875,-424.8046875,-185.546875,0.0
1734589169.8049536,-932.6171875,-932.6171875,891.6015625,964.84375,0.0
1734589169.8088593,887.6953125,845.21484375,-959.47265625,-944.82421875,0.0
1734589169.812765,-100.5859375,-402.34375,447.75390625,612.79296875,0.0
1734589169.8166704,-1000.0,-1000.0,-961.42578125,-1000.0,0.0
1734589169.820576,-411.62109375,-408.69140625,-772.4609375,-633.30078125,0.0
1734589169.8244815,961.42578125,943.359375,733.88671875,849.12109375,0.0
1734589169.8283763,935.05859375,956.54296875,0.0,-920.8984375,0.0
1734589169.8322818,-61.03515625,-262.20703125,0.0,737.3046875,0.0
1734589169.8361876,-1000.0,-1000.0,0.0,-830.078125,0.0
1734589169.8400931,-693.84765625,-661.1328125,0.0,-829.58984375,0.0
1734589169.8439987,807.6171875,789.0625,0.0,734.375,0.0
1734589169.8479042,-965.33203125,-934.08203125,0.0,-912.59765625,0.0
1734589169.8518097,-46.875,-183.59375,0.0,820.3125,0.0
1734589169.8557155,-1000.0,-1000.0,0.0,-670.8984375,0.0
1734589169.859621,-824.21875,-788.0859375,0.0,-987.79296875,0.0
1734589169.8635266,635.25390625,609.86328125,0.0,582.51953125,0.0
1734589169.867432,-880.859375,-844.7265625,0.0,-890.13671875,0.0
1734589169.871338,113.76953125,102.05078125,0.0,843.26171875,0.0
1734589169.8752112,-986.328125,-1000.0,-708.984375,-635.25390625,0.0
1734589169.8791168,-879.8828125,-866.69921875,-979.4921875,-994.140625,0.0
1734589169.8830225,527.34375,521.484375,573.73046875,583.0078125,0.0
1734589169.886928,-827.1484375,-812.01171875,-865.72265625,-889.6484375,0.0
1734589169.8908336,422.8515625,395.5078125,747.0703125,843.26171875,0.0
1734589169.8947392,-929.19921875,-992.1875,-704.58984375,-635.25390625,0.0
1734589169.8986447,-908.69140625,-900.87890625,-1000.0,-996.09375,0.0
1734589169.9025505,537.59765625,539.0625,445.80078125,590.33203125,0.0
1734589169.906456,-827.1484375,-833.0078125,-879.8828125,-903.80859375,0.0
1734589169.9103615,596.6796875,625.48828125,840.33203125,884.765625,0.0
1734589169.914267,-885.25390625,-847.16796875,-521.97265625,-510.25390625,0.0
1734589169.9181728,-957.03125,-1000.0,-1000.0,-1000.0,0.0
1734589169.9221559,536.62109375,479.00390625,279.296875,424.8046875,0.0
1734589169.9260614,-862.79296875,-857.91015625,-891.6015625,-914.0625,0.0
1734589169.929967,737.3046875,765.13671875,916.015625,960.9375,0.0
1734589169.9338725,-690.91796875,-658.69140625,-382.8125,-292.96875,0.0
1734589169.9377782,-1000.0,-1000.0,-1000.0,-1000.0,0.0
1734589169.9416838,418.45703125,330.56640625,111.328125,243.1640625,0.0
1734589169.9455893,-916.9921875,-878.41796875,-942.87109375,-939.453125,0.0
1734589169.9494948,960.44921875,861.81640625,975.09765625,-979.00390625,0.0
1734589169.9534004,-292.96875,-463.8671875,-130.859375,19.53125,0.0
1734589169.9573061,-1000.0,-1000.0,-1000.0,-1000.0,0.0
1734589169.9612117,221.19140625,130.37109375,-221.6796875,33.203125,0.0
1734589169.9651172,-889.16015625,-885.7421875,957.51953125,-987.3046875,0.0
1734589169.9689667,887.20703125,839.35546875,-983.88671875,-957.03125,0.0
1734589169.9728723,-260.25390625,-414.0625,227.05078125,429.6875,0.0
1734589169.9767778,-1000.0,-1000.0,-1000.0,-1000.0,0.0
1734589169.9806833,-190.91796875,-218.75,-601.07421875,-411.1328125,0.0
1734589169.984589,-973.14453125,-973.6328125,823.73046875,913.57421875,0.0
1734589169.9884946,876.953125,880.859375,-927.24609375,-933.10546875,0.0
1734589169.9924002,-150.390625,-344.7265625,528.3203125,676.26953125,0.0
1734589169.9963057,-1000.0,-1000.0,-904.78515625,-923.33984375,0.0
1734589170.0002112,-593.26171875,-574.21875,-856.93359375,-733.88671875,0.0
1734589170.004117,858.88671875,855.95703125,651.85546875,791.50390625,0.0
1734589170.0080225,-994.140625,-983.3984375,-873.53515625,-903.80859375,0.0
1734589170.011928,98.14453125,-129.8828125,684.5703125,726.07421875,0.0
1734589170.0158787,-1000.0,-1000.0,-808.59375,-811.5234375,0.0
1734589170.0197845,-785.64453125,-749.51171875,-954.1015625,-900.87890625,0.0
1734589170.02369,738.76953125,718.26171875,577.1484375,660.64453125,0.0
1734589170.0275955,-929.19921875,-898.92578125,-873.53515625,-905.2734375,0.0
1734589170.031501,25.87890625,-131.8359375,771.484375,845.21484375,0.0
1734589170.0354068,-995.60546875,-1000.0,-720.21484375,-633.7890625,0.0
1734589170.0393124,-891.11328125,-850.09765625,-977.5390625,-994.140625,0.0
1734589170.043218,553.22265625,521.484375,574.70703125,583.49609375,0.0
1734589170.0471234,-872.55859375,-822.75390625,-873.046875,-889.6484375,0.0
1734589170.051029,250.48828125,201.171875,773.4375,843.26171875,0.0
1734589170.0549347,-895.01953125,-1000.0,-714.35546875,-635.25390625,0.0
1734589170.0588403,-902.83203125,-873.53515625,-979.00390625,-994.140625,0.0
1734589170.0627754,535.15625,521.484375,578.125,583.49609375,0.0
1734589170.0666811,-828.125,-815.4296875,-877.9296875,-888.18359375,0.0
1734589170.0705867,422.36328125,542.96875,787.59765625,835.9375,0.0
1734589170.0744922,-929.19921875,-932.12890625,-632.32421875,-616.69921875,0.0
1734589170.0783978,-908.69140625,-926.26953125,-1000.0,-1000.0,0.0
1734589170.0823035,538.0859375,554.19921875,397.94921875,509.765625,0.0
1734589170.086209,-831.54296875,-848.6328125,-884.27734375,-909.66796875,0.0
1734589170.0901146,624.51171875,685.05859375,870.60546875,927.734375,0.0
1734589170.0940201,-847.16796875,-774.90234375,-470.703125,-408.203125,0.0
1734589170.0979257,-1000.0,-1000.0,-1000.0,-1000.0,0.0
1734589170.1018314,489.74609375,429.19921875,254.8828125,368.1640625,0.0
1734589170.105737,-886.71875,-876.46484375,-900.87890625,-924.31640625,0.0
1734589170.109776,845.21484375,839.84375,936.5234375,997.55859375,0.0
1734589170.1136816,-516.6015625,-535.15625,-301.7578125,-195.80078125,0.0
1734589170.1175873,-1000.0,-1000.0,-1000.0,-1000.0,0.0
1734589170.1214929,327.1484375,280.76171875,-34.1796875,249.0234375,0.0
1734589170.1253984,-911.62109375,-885.7421875,998.53515625,-948.73046875,0.0
1734589170.129304,954.1015625,878.90625,-980.95703125,-974.609375,0.0
1734589170.1332097,-241.2109375,-377.9296875,125.0,235.3515625,0.0
1734589170.1371152,-1000.0,-1000.0,-1000.0,-1000.0,0.0
1734589170.1410208,19.53125,-7.32421875,-407.2265625,-187.98828125,0.0
1734589170.1449263,-930.6640625,-922.36328125,903.3203125,967.28515625,0.0
1734589170.148832,899.4140625,856.93359375,-961.42578125,-944.3359375,0.0
1734589170.1527376,-188.96484375,-264.16015625,444.82421875,562.01171875,0.0
1734589170.1567614,-1000.0,-1000.0,-969.7265625,-1000.0,0.0
1734589170.160667,-393.5546875,-410.15625,-772.4609375,-630.37109375,0.0
1734589170.1645727,951.66015625,970.703125,746.58203125,848.14453125,0.0
1734589170.1684783,943.359375,930.17578125,-914.0625,-909.66796875,0.0
1734589170.1723838,-65.91796875,-338.37890625,477.05078125,577.63671875,0.0
1734589170.1762893,-1000.0,-1000.0,-880.859375,-919.43359375,0.0
1734589170.180195,-684.08203125,-655.76171875,-897.94921875,-799.31640625,0.0
1734589170.1841006,797.8515625,790.0390625,593.75,719.23828125,0.0
1734589170.1880062,-959.9609375,-946.2890625,-864.2578125,-899.90234375,0.0
1734589170.1919117,97.65625,-208.0078125,729.00390625,785.64453125,0.0
1734589170.1958172,-991.69921875,-1000.0,-772.4609375,-716.30859375,0.0
1734589170.199723,-858.88671875,-792.96875,-968.26171875,-980.46875,0.0
1734589170.2036133,669.43359375,617.67578125,573.73046875,581.0546875,0.0
1734589170.2075188,-926.7578125,-856.4453125,-875.48828125,-885.7421875,0.0
1734589170.2114246,-4.39453125,25.390625,783.203125,836.9140625,0.0
1734589170.2153301,-962.890625,-1000.0,-705.078125,-633.30078125,0.0
1734589170.2192357,-883.7890625,-860.83984375,-979.98046875,-894.53125,0.0
1734589170.2231412,536.62109375,520.01953125,573.73046875,617.1875,0.0
1734589170.227047,-845.703125,-812.5,-866.69921875,-905.76171875,0.0
1734589170.2309525,283.69140625,335.9375,750.0,851.07421875,0.0
1734589170.234858,-936.03515625,-1000.0,-721.6796875,-638.18359375,0.0
1734589170.2387636,-891.6015625,-892.08984375,-1000.0,-996.09375,0.0
1734589170.2426693,523.92578125,533.69140625,517.578125,590.33203125,0.0
1734589170.2465749,-814.94140625,-828.125,-882.8125,-905.2734375,0.0
1734589170.25045,548.828125,606.4453125,830.078125,888.18359375,0.0
1734589170.2543557,-929.19921875,-872.55859375,-541.015625,-519.04296875,0.0
1734589170.2582612,-932.6171875,-972.16796875,-1000.0,-1000.0,0.0
1734589170.2621667,560.546875,513.671875,307.12890625,475.09765625,0.0
1734589170.2660723,-853.02734375,-855.46875,-891.11328125,-921.875,0.0
1734589170.269978,593.75,734.86328125,806.640625,868.65234375,0.0
1734589170.2738836,-792.48046875,-714.35546875,-437.01171875,-341.30859375,0.0
1734589170.277789,-1000.0,-1000.0,-1000.0,-1000.0,0.0
1734589170.2816947,402.34375,401.3671875,145.5078125,333.0078125,0.0
1734589170.2856002,-898.4375,-875.0,-928.22265625,-930.6640625,0.0
1734589170.289506,918.45703125,844.7265625,970.21484375,-990.72265625,0.0
1734589170.2934115,-389.6484375,-512.20703125,-182.6171875,-11.71875,0.0
1734589170.2972724,-1000.0,-1000.0,-1000.0,-1000.0,0.0
1734589170.301178,227.05078125,219.7265625,-134.27734375,27.83203125,0.0
1734589170.3050835,-902.34375,-882.32421875,970.703125,-977.05078125,0.0
1734589170.308989,923.33984375,854.00390625,-976.5625,-962.890625,0.0
1734589170.3128948,-254.39453125,-333.984375,275.87890625,233.88671875,0.0
1734589170.3168004,-1000.0,-1000.0,-1000.0,-1000.0,0.0
1734589170.320706,-182.6171875,-204.1015625,-542.48046875,-386.71875,0.0
1734589170.3246114,-980.46875,-953.125,868.65234375,902.83203125,0.0
1734589170.3285172,899.4140625,855.95703125,-942.87109375,-917.48046875,0.0
1734589170.3324227,-183.10546875,-405.76171875,432.12890625,496.58203125,0.0
1734589170.3363283,-1000.0,-1000.0,-952.63671875,-1000.0,0.0
1734589170.3402338,-585.9375,-579.58984375,-811.03515625,-700.1953125,0.0
1734589170.3440895,863.76953125,867.1875,684.08203125,777.34375,0.0
1734589170.347995,986.81640625,999.0234375,-888.18359375,-899.90234375,0.0
1734589170.3519006,31.73828125,-333.984375,634.27734375,726.07421875,0.0
1734589170.355806,-1000.0,-1000.0,-822.265625,-812.01171875,0.0
1734589170.359712,-776.85546875,-724.12109375,-944.82421875,-900.87890625,0.0
1734589170.3636174,762.20703125,707.51953125,576.66015625,660.64453125,0.0
1734589170.367523,-958.984375,-895.5078125,-868.65234375,-905.2734375,0.0
1734589170.3714285,-114.2578125,-227.5390625,750.48828125,845.21484375,0.0
1734589170.3753343,-1000.0,-1000.0,-744.62890625,-633.7890625,0.0
1734589170.3792398,-821.2890625,-845.21484375,-982.421875,-1000.0,0.0
1734589170.3831453,640.625,527.83203125,584.47265625,593.26171875,0.0
1734589170.3870509,-893.06640625,-824.21875,-872.0703125,-888.18359375,0.0
1734589170.3911178,57.12890625,-13.18359375,579.1015625,646.97265625,0.0
1734589170.3950233,-963.8671875,-1000.0,-788.57421875,-710.9375,0.0
1734589170.398929,-873.046875,-840.33203125,-945.80078125,-960.44921875,0.0
1734589170.4028347,520.99609375,506.8359375,562.5,567.3828125,0.0
1734589170.4067402,-823.73046875,-812.01171875,-872.55859375,-884.27734375,0.0
1734589170.4106457,422.8515625,515.625,791.015625,843.26171875,0.0
1734589170.4145515,-929.19921875,-934.5703125,-640.13671875,-635.25390625,0.0
1734589170.418457,-908.203125,-921.875,-1000.0,-998.046875,0.0
1734589170.4223626,538.0859375,550.78125,434.08203125,598.14453125,0.0
1734589170.426268,-832.03125,-845.703125,-886.23046875,-921.875,0.0
1734589170.4301736,624.51171875,676.26953125,869.140625,933.59375,0.0
1734589170.4340794,-847.16796875,-800.29296875,-476.07421875,-417.48046875,0.0
1734589170.438012,0.0,-1000.0,-1000.0,-1000.0,0.0
1734589170.4419174,0.0,494.140625,276.3671875,426.26953125,0.0
1734589170.445823,0.0,-888.671875,-899.90234375,-917.48046875,0.0
1734589170.4497287,0.0,857.421875,937.5,975.5859375,0.0
1734589170.4536343,0.0,-507.8125,-317.87109375,-249.51171875,0.0
1734589170.4575398,0.0,-1000.0,-1000.0,-1000.0,0.0
1734589170.4614453,0.0,310.05859375,46.875,240.72265625,0.0
1734589170.4653509,0.0,-867.67578125,-963.8671875,-934.5703125,0.0
1734589170.4692566,0.0,840.8203125,989.2578125,-990.72265625,0.0
1734589170.4731622,0.0,-473.14453125,-37.109375,36.1328125,0.0
1734589170.4770677,0.0,-1000.0,-1000.0,-1000.0,0.0
1734589170.4809732,0.0,8.7890625,-325.68359375,-166.015625,0.0
1734589170.4845512,-1000.0,-904.78515625,931.15234375,958.49609375,0.0
1734589170.4884567,484.375,834.47265625,-977.05078125,-937.5,0.0
1734589170.4923625,-874.51171875,-437.5,266.6015625,423.33984375,0.0
1734589170.496268,812.5,-1000.0,-1000.0,-1000.0,0.0
1734589170.5001736,-578.125,-391.11328125,-714.35546875,-601.07421875,0.0
1734589170.504079,-1000.0,963.8671875,753.41796875,830.56640625,0.0
1734589170.5079846,321.2890625,922.8515625,-915.0390625,-900.390625,0.0
1734589170.5118904,-898.92578125,-400.390625,523.4375,660.15625,0.0
1734589170.515796,917.48046875,-1000.0,-872.0703125,-900.87890625,0.0
1734589170.5197015,-329.58984375,-650.87890625,-901.3671875,-812.01171875,0.0
1734589170.523607,-1000.0,789.55078125,602.05078125,726.07421875,0.0
1734589170.5275128,23.92578125,-950.68359375,-864.74609375,-902.83203125,0.0
1734589170.5315466,50.29296875,-255.37109375,714.35546875,785.15625,0.0
1734589170.5354521,-996.09375,-1000.0,-785.64453125,-716.30859375,0.0
1734589170.539358,-790.0390625,-786.62109375,-978.02734375,-993.1640625,0.0
1734589170.5432634,742.67578125,632.32421875,584.47265625,593.26171875,0.0
1734589170.547169,-935.546875,-865.234375,-865.234375,-882.32421875,0.0
1734589170.5510745,-32.71484375,-103.02734375,487.3046875,553.7109375,0.0
1734589170.5549803,-997.55859375,-1000.0,-837.40234375,-759.765625,0.0
1734589170.5588858,-876.953125,-843.75,-926.7578125,-942.3828125,0.0
1734589170.5627913,535.64453125,515.13671875,551.26953125,559.5703125,0.0
1734589170.566697,-849.12109375,-818.359375,-863.28125,-881.8359375,0.0
1734589170.5706024,297.36328125,326.171875,767.578125,843.26171875,0.0
1734589170.5745082,-920.8984375,-990.234375,-711.9140625,-635.25390625,0.0
1734589170.5783968,-895.01953125,-892.578125,-999.0234375,-995.60546875,0.0
1734589170.5823023,524.4140625,531.73828125,550.78125,588.8671875,0.0
1734589170.5862079,-814.94140625,-824.70703125,-883.7890625,-902.83203125,0.0
1734589170.5901134,548.828125,590.8203125,822.75390625,882.8125,0.0
1734589170.594019,-929.19921875,-897.94921875,-568.359375,-543.45703125,0.0
1734589170.5979247,-927.24609375,-936.5234375,-1000.0,-1000.0,0.0
1734589170.6018302,554.6875,561.03515625,347.65625,512.20703125,0.0
1734589170.6057358,-851.07421875,-859.375,-887.6953125,-911.62109375,0.0
1734589170.6096413,693.84765625,726.5625,895.01953125,936.5234375,0.0
1734589170.613547,-758.30078125,-720.21484375,-424.31640625,-375.9765625,0.0
1734589170.6174526,-1000.0,-1000.0,-1000.0,-1000.0,0.0
1734589170.6213582,410.15625,404.296875,191.89453125,333.0078125,0.0
1734589170.625483,-901.3671875,-879.39453125,0.0,-919.43359375,0.0
1734589170.6293886,918.45703125,858.3984375,0.0,985.83984375,0.0
1734589170.633294,-389.6484375,-489.74609375,0.0,-176.7578125,0.0
1734589170.6371999,-1000.0,-1000.0,0.0,-1000.0,0.0
1734589170.6411054,227.05078125,210.44921875,0.0,47.36328125,0.0
1734589170.645011,-903.3203125,-865.234375,0.0,-988.28125,0.0
1734589170.6489165,927.734375,827.63671875,0.0,-959.9609375,0.0
1734589170.652822,-259.765625,-469.7265625,0.0,233.88671875,0.0
1734589170.6567278,-1000.0,-1000.0,0.0,-1000.0,0.0
1734589170.6606333,-102.05078125,-192.3828125,0.0,-381.34765625,0.0
1734589170.6645389,-972.16796875,-956.0546875,0.0,896.484375,0.0
1734589170.6684444,910.15625,845.21484375,0.0,-915.52734375,0.0
1734589170.6722984,-54.19921875,-447.75390625,379.39453125,596.19140625,0.0
1734589170.676204,-1000.0,-1000.0,-958.984375,-984.86328125,0.0
1734589170.6801095,-437.98828125,-586.42578125,-839.35546875,-716.796875,0.0
1734589170.684015,990.234375,885.25390625,739.74609375,781.73828125,0.0
1734589170.6879206,914.55078125,955.56640625,-931.640625,-886.71875,0.0
1734589170.6918263,-385.25390625,-485.83984375,-136.23046875,654.296875,0.0
1734589170.6957319,-1000.0,-1000.0,-1000.0,-899.90234375,0.0
1734589170.6996374,-656.73828125,-640.625,-808.10546875,-811.5234375,0.0
1734589170.703543,791.9921875,783.203125,556.15234375,726.07421875,0.0
1734589170.7074487,-947.265625,-938.4765625,-840.33203125,-902.83203125,0.0
1734589170.7113543,-328.125,-319.3359375,531.73828125,785.15625,0.0
1734589170.7152598,-1000.0,-1000.0,-890.625,-716.30859375,0.0
1734589170.7191,-702.63671875,-772.94921875,-931.15234375,-980.46875,0.0
1734589170.7230058,685.05859375,606.4453125,551.7578125,581.0546875,0.0
1734589170.7269113,-875.0,-841.30859375,-842.28515625,-891.11328125,0.0
1734589170.7308168,45.41015625,-33.69140625,643.5546875,843.26171875,0.0
1734589170.7347224,-1000.0,-1000.0,-846.19140625,-635.25390625,0.0
1734589170.7386281,-862.79296875,-845.21484375,-948.73046875,-994.140625,0.0
1734589170.7425337,517.08984375,513.18359375,560.05859375,583.49609375,0.0
1734589170.7464392,-809.08203125,-808.59375,-848.14453125,-889.6484375,0.0
1734589170.7503448,357.91015625,359.375,674.8046875,843.26171875,0.0
1734589170.7542505,-1000.0,-1000.0,-812.98828125,-635.25390625,0.0
1734589170.758156,-895.99609375,-895.01953125,-986.81640625,-996.09375,0.0
1734589170.7620616,534.1796875,536.1328125,525.87890625,590.33203125,0.0
1734589170.7658923,-820.80078125,-831.54296875,-867.1875,-904.78515625,0.0
1734589170.769798,548.828125,618.65234375,772.4609375,886.71875,0.0
1734589170.7737036,-929.19921875,-865.234375,-631.34765625,-515.625,0.0
1734589170.777609,-927.24609375,-968.75,-1000.0,-1000.0,0.0
1734589170.7815146,554.6875,524.4140625,301.26953125,442.87109375,0.0
1734589170.7854204,-851.07421875,-857.421875,-876.953125,-901.3671875,0.0
1734589170.789326,693.84765625,741.69921875,864.74609375,926.7578125,0.0
1734589170.7932315,-758.30078125,-693.359375,-474.12109375,-404.78515625,0.0
1734589170.797137,-1000.0,-1000.0,-1000.0,-1000.0,0.0
1734589170.8010428,395.99609375,346.19140625,119.140625,333.984375,0.0
1734589170.8049483,-864.2578125,-860.83984375,-890.625,-920.41015625,0.0
1734589170.8088539,813.96484375,812.98828125,864.2578125,985.83984375,0.0
1734589170.8126657,-570.80078125,-567.3828125,-453.125,-176.7578125,0.0
1734589170.8165712,-1000.0,-1000.0,-1000.0,-1000.0,0.0
1734589170.820477,207.03125,148.4375,-226.5625,47.36328125,0.0
1734589170.8243825,-859.86328125,-867.1875,-989.74609375,-988.76953125,0.0
1734589170.828288,806.15234375,806.640625,918.9453125,-959.9609375,0.0
1734589170.8321936,-522.94921875,-546.875,-425.29296875,233.88671875,0.0
1734589170.8360991,-1000.0,-1000.0,-1000.0,-1000.0,0.0
1734589170.840005,-196.2890625,-192.87109375,-534.1796875,-381.34765625,0.0
1734589170.8439105,-950.1953125,-955.56640625,850.09765625,896.484375,0.0
1734589170.847816,833.49609375,850.5859375,-981.93359375,-915.52734375,0.0
1734589170.8517215,-550.78125,-525.390625,-186.5234375,595.703125,0.0
1734589170.8556273,-1000.0,-1000.0,-1000.0,-984.86328125,0.0
1734589170.8596654,-565.91796875,-565.4296875,-743.1640625,-716.30859375,0.0
1734589170.8635712,860.83984375,862.3046875,657.2265625,785.64453125,0.0
1734589170.8674767,-999.0234375,-998.53515625,-884.27734375,-902.34375,0.0
1734589170.8713822,-401.3671875,-404.296875,305.17578125,726.07421875,0.0
1734589170.8752878,-1000.0,-1000.0,-956.54296875,-812.01171875,0.0
1734589170.8791935,-634.27734375,-704.1015625,-887.6953125,-900.390625,0.0
1734589170.883099,770.99609375,706.0546875,554.6875,657.2265625,0.0
1734589170.8870046,-912.109375,-887.6953125,-845.703125,-895.5078125,0.0
1734589170.8909101,-187.01171875,-229.98046875,661.1328125,812.01171875,0.0
1734589170.894816,-1000.0,-1000.0,-827.63671875,-677.734375,0.0
1734589170.8987215,-785.64453125,-826.66015625,-953.125,-986.81640625,0.0
1734589170.902627,611.328125,521.484375,561.5234375,582.03125,0.0
1734589170.9065273,-840.8203125,-814.453125,-848.14453125,-890.13671875,0.0
1734589170.9104328,-13.18359375,138.18359375,671.875,843.26171875,0.0
1734589170.9143386,-1000.0,-1000.0,-825.68359375,-635.25390625,0.0
1734589170.9182441,-848.14453125,-863.28125,-954.58984375,-994.140625,0.0
1734589170.9221497,514.16015625,519.53125,563.4765625,583.0078125,0.0
1734589170.9260552,-809.5703125,-814.94140625,-849.12109375,-888.18359375,0.0
1734589170.929961,358.88671875,508.7890625,682.12890625,836.9140625,0.0
1734589170.9338665,-1000.0,-946.77734375,-771.97265625,-618.65234375,0.0
1734589170.937772,-894.53125,-920.41015625,-1000.0,-1000.0,0.0
1734589170.9416776,536.1328125,550.29296875,407.71484375,509.765625,0.0
1734589170.9455833,-833.0078125,-844.7265625,-864.74609375,-894.04296875,0.0
1734589170.9494889,624.51171875,670.8984375,800.29296875,884.765625,0.0
1734589170.9533772,-847.16796875,-796.38671875,-584.9609375,-512.6953125,0.0
1734589170.9572828,-1000.0,-1000.0,-1000.0,-1000.0,0.0
1734589170.9611886,477.5390625,451.171875,260.25390625,424.8046875,0.0
1734589170.965094,-855.95703125,-861.328125,-885.7421875,-914.0625,0.0
1734589170.9689996,756.34765625,787.59765625,892.578125,960.9375,0.0
1734589170.9729052,-666.50390625,-628.41796875,-411.1328125,-292.96875,0.0
1734589170.976811,-1000.0,-1000.0,-1000.0,-1000.0,0.0
