timestamps,TP9,AF7,AF8,TP10,Right AUX
1734589355.4579988,-929.6875,-921.38671875,-1000.0,-1000.0,0.0
1734589355.4619045,548.33984375,550.78125,87.890625,-369.62890625,0.0
1734589355.4658103,-833.0078125,-835.9375,-910.15625,942.87109375,0.0
1734589355.469716,525.390625,531.25,772.94921875,869.140625,0.0
1734589355.473622,-881.34765625,-856.4453125,-513.18359375,-420.41015625,0.0
1734589355.4775279,-987.79296875,-1000.0,-1000.0,-1000.0,0.0
1734589355.4814336,476.5625,407.2265625,10.7421875,-642.578125,0.0
1734589355.4853394,-871.58203125,-869.140625,-942.3828125,772.94921875,0.0
1734589355.4892452,812.98828125,825.1953125,947.75390625,-904.78515625,0.0
1734589355.4931512,-578.125,-539.0625,-309.5703125,-220.21484375,0.0
1734589355.497057,-1000.0,-1000.0,-1000.0,-1000.0,0.0
1734589355.5011394,325.68359375,246.09375,-300.78125,-767.578125,0.0
1734589355.5050454,-902.34375,-894.04296875,897.4609375,594.23828125,0.0
1734589355.5089512,950.68359375,911.62109375,-934.08203125,-819.82421875,0.0
1734589355.512857,-292.96875,-310.546875,116.2109375,159.66796875,0.0
1734589355.5167627,-1000.0,-1000.0,-1000.0,-1000.0,0.0
1734589355.5206685,217.28515625,27.83203125,-624.0234375,-766.6015625,0.0
1734589355.5245743,-942.3828125,-965.8203125,684.5703125,554.6875,0.0
1734589355.5284803,917.48046875,900.390625,-881.34765625,-831.54296875,0.0
1734589355.532386,-144.04296875,-83.984375,534.66796875,531.25,0.0
1734589355.5362918,-1000.0,-1000.0,-926.26953125,-943.359375,0.0
1734589355.5401976,-383.7890625,-523.4375,-902.83203125,-922.8515625,0.0
1734589355.5441034,935.546875,899.90234375,593.26171875,551.26953125,0.0
1734589355.5479736,967.28515625,975.09765625,-869.140625,-844.7265625,0.0
1734589355.5518794,116.69921875,73.73046875,626.953125,666.50390625,0.0
1734589355.5557854,-1000.0,-1000.0,-831.54296875,-834.47265625,0.0
1734589355.5596912,-704.58984375,-756.34765625,-952.1484375,-954.58984375,0.0
1734589355.563597,807.12890625,775.390625,565.91796875,573.2421875,0.0
1734589355.5675027,-961.9140625,-957.03125,-869.62890625,-882.8125,0.0
1734589355.5714085,148.92578125,4.8828125,762.6953125,812.98828125,0.0
1734589355.5753143,-977.05078125,-997.0703125,-731.93359375,-618.65234375,0.0
1734589355.5792203,-853.515625,-862.3046875,-977.5390625,-1000.0,0.0
1734589355.583126,652.34375,593.26171875,575.1953125,401.3671875,0.0
1734589355.5870318,-898.92578125,-880.37109375,-882.32421875,-862.3046875,0.0
1734589355.5909376,196.77734375,258.7890625,811.5234375,814.453125,0.0
1734589355.5947828,-922.8515625,-894.53125,-661.62109375,-570.80078125,0.0
1734589355.5986886,-898.4375,-900.87890625,-1000.0,-1000.0,0.0
1734589355.6025944,539.55078125,534.66796875,545.8984375,205.56640625,0.0
1734589355.6065001,-849.12109375,-833.49609375,-875.48828125,-854.98046875,0.0
1734589355.6104062,508.7890625,529.296875,799.8046875,793.9453125,0.0
1734589355.614312,-838.37890625,-871.09375,-562.01171875,-535.64453125,0.0
1734589355.6182177,-928.22265625,-927.734375,-1000.0,-1000.0,0.0
1734589355.6221235,542.48046875,547.36328125,128.41796875,-293.9453125,0.0
1734589355.6260293,-827.1484375,-834.9609375,-900.390625,982.91015625,0.0
1734589355.6299353,600.09765625,639.16015625,869.140625,932.6171875,0.0
1734589355.633841,-866.2109375,-821.77734375,-470.21484375,-423.33984375,0.0
1734589355.6377468,-998.53515625,-1000.0,-1000.0,-1000.0,0.0
1734589355.6415656,482.91015625,447.265625,-13.18359375,-622.0703125,0.0
1734589355.6454716,-874.0234375,-891.11328125,-958.49609375,789.0625,0.0
1734589355.6493773,812.5,875.9765625,961.9140625,-925.78125,0.0
1734589355.653283,-578.61328125,-466.30859375,-296.875,-264.6484375,0.0
1734589355.657189,-1000.0,-1000.0,-1000.0,-1000.0,0.0
1734589355.6610947,325.68359375,282.71484375,-262.20703125,-696.77734375,0.0
1734589355.6650007,-909.66796875,-903.80859375,919.43359375,673.33984375,0.0
1734589355.6689065,951.171875,934.08203125,-946.77734375,-845.703125,0.0
1734589355.6728122,-276.3671875,-272.94921875,98.6328125,115.234375,0.0
1734589355.676718,-1000.0,-1000.0,-1000.0,-1000.0,0.0
1734589355.6806238,27.34375,-13.671875,-526.85546875,-861.81640625,0.0
1734589355.6845295,-940.91796875,-943.359375,819.3359375,519.53125,0.0
1734589355.6883316,917.96875,896.484375,-907.71484375,-812.98828125,0.0
1734589355.6922376,-146.97265625,-112.79296875,520.99609375,455.078125,0.0
1734589355.6961434,-1000.0,-1000.0,-945.3125,-970.703125,0.0
1734589355.7000492,-375.9765625,-390.625,-848.6328125,-911.1328125,0.0
1734589355.703955,920.41015625,928.7109375,649.4140625,543.9453125,0.0
1734589355.7078607,999.0234375,992.67578125,-876.46484375,-834.9609375,0.0
1734589355.7117665,209.47265625,231.4453125,629.39453125,627.9296875,0.0
1734589355.7156725,-1000.0,-1000.0,-835.9375,-853.515625,0.0
1734589355.7195783,-716.30859375,-751.46484375,-950.68359375,-983.3984375,0.0
1734589355.723484,827.1484375,800.29296875,563.4765625,507.32421875,0.0
1734589355.7273898,998.53515625,-964.35546875,-862.79296875,-861.328125,0.0
1734589355.7312956,78.61328125,14.16015625,736.81640625,764.6484375,0.0
1734589355.7352595,-963.8671875,-1000.0,-760.7421875,-683.10546875,0.0
1734589355.7391653,-863.76953125,-858.3984375,-974.609375,-1000.0,0.0
1734589355.743071,667.96875,612.79296875,566.40625,398.92578125,0.0
1734589355.746977,-929.19921875,-887.6953125,-877.44140625,-862.79296875,0.0
1734589355.7508829,58.59375,170.41015625,794.43359375,812.5,0.0
1734589355.7547886,-935.546875,-930.6640625,-638.18359375,-567.87109375,0.0
1734589355.7586944,-895.01953125,-893.06640625,-1000.0,-1000.0,0.0
1734589355.7626002,543.9453125,533.203125,385.25390625,175.78125,0.0
1734589355.7665062,-857.421875,-829.58984375,-869.140625,-862.3046875,0.0
1734589355.770412,329.58984375,410.15625,811.5234375,803.7109375,0.0
1734589355.7743177,-891.11328125,-927.734375,-608.88671875,-544.921875,0.0
1734589355.7782235,-902.83203125,-907.2265625,-1000.0,-1000.0,0.0
1734589355.782178,531.25,538.57421875,335.9375,-187.98828125,0.0
1734589355.7860837,-827.1484375,-833.49609375,-876.46484375,-968.75,0.0
1734589355.7899895,589.84375,642.578125,848.14453125,890.625,0.0
1734589355.7938952,-848.14453125,-825.68359375,-471.19140625,-462.40234375,0.0
1734589355.797801,-995.60546875,-1000.0,-1000.0,-1000.0,0.0
1734589355.8017068,475.09765625,469.7265625,35.15625,-557.6171875,0.0
1734589355.8056128,-854.98046875,-884.27734375,-937.5,846.19140625,0.0
1734589355.8095186,741.69921875,851.07421875,939.453125,-957.03125,0.0
1734589355.8134243,-655.2734375,-519.04296875,-336.9140625,-308.10546875,0.0
1734589355.8173301,-1000.0,-1000.0,-1000.0,-1000.0,0.0
1734589355.821236,321.77734375,317.3828125,-232.421875,-702.1484375,0.0
1734589355.8251417,-910.15625,-888.18359375,948.2421875,683.10546875,0.0
1734589355.8290684,951.171875,895.5078125,-969.7265625,-857.421875,0.0
1734589355.8329744,-276.3671875,-369.140625,-49.31640625,-29.78515625,0.0
1734589355.8368802,-1000.0,-1000.0,-1000.0,-1000.0,0.0
1734589355.840786,33.69140625,26.3671875,-568.84765625,-845.21484375,0.0
1734589355.8446918,-957.03125,-937.01171875,757.32421875,513.18359375,0.0
1734589355.8485975,968.75,896.484375,-889.16015625,-808.59375,0.0
1734589355.8525033,-82.03125,-145.01953125,492.67578125,359.375,0.0
1734589355.8564093,-1000.0,-1000.0,-977.05078125,-1000.0,0.0
1734589355.860315,-188.96484375,-395.99609375,-778.3203125,-894.53125,0.0
1734589355.8642209,-991.2109375,949.70703125,718.26171875,536.62109375,0.0
1734589355.8681266,914.0625,942.87109375,-892.578125,-833.984375,0.0
1734589355.8720324,143.06640625,51.26953125,613.76953125,632.32421875,0.0
1734589355.8759325,-1000.0,-1000.0,-845.703125,-865.72265625,0.0
1734589355.8798382,-714.35546875,-710.9375,-939.453125,-945.80078125,0.0
1734589355.8837442,821.2890625,817.87109375,573.73046875,566.40625,0.0
1734589355.88765,-997.55859375,-970.703125,-862.3046875,-868.65234375,0.0
1734589355.8915558,126.953125,-52.24609375,716.30859375,765.13671875,0.0
1734589355.8954616,-950.1953125,-1000.0,-774.90234375,-681.640625,0.0
1734589355.8993673,-870.1171875,-839.84375,-979.4921875,-1000.0,0.0
1734589355.9032733,671.38671875,623.046875,552.24609375,399.90234375,0.0
1734589355.907179,-930.6640625,-883.30078125,-877.9296875,-863.28125,0.0
1734589355.911085,68.359375,70.80078125,801.7578125,814.453125,0.0
1734589355.9149907,-931.15234375,-998.53515625,-672.8515625,-570.80078125,0.0
1734589355.9188964,-896.484375,-877.44140625,-1000.0,-1000.0,0.0
1734589355.9227896,0.0,530.2734375,535.64453125,205.56640625,0.0
1734589355.9266953,0.0,-833.984375,-875.0,-857.91015625,0.0
1734589355.9306011,0.0,397.94921875,800.78125,811.5234375,0.0
1734589355.934507,0.0,-919.921875,-634.27734375,-559.5703125,0.0
1734589355.9384127,0.0,-906.73828125,-1000.0,-1000.0,0.0
1734589355.9423187,0.0,536.1328125,412.59765625,7.32421875,0.0
1734589355.9462245,0.0,-827.63671875,-874.0234375,-915.0390625,0.0
1734589355.9501302,0.0,611.81640625,833.984375,889.16015625,0.0
1734589355.954036,0.0,-869.140625,-546.38671875,-592.7734375,0.0
1734589355.9579418,0.0,-970.21484375,-1000.0,-1000.0,0.0
1734589355.9618475,0.0,516.11328125,276.3671875,430.17578125,0.0
1734589355.9657536,0.0,-844.23828125,-874.0234375,-894.53125,0.0
1734589355.9696097,661.62109375,689.94140625,856.93359375,779.78515625,0.0
1734589355.9735155,-787.59765625,-743.1640625,-459.47265625,-373.53515625,0.0
1734589355.9774213,-1000.0,-1000.0,-1000.0,-1000.0,0.0
1734589355.9813273,402.34375,325.68359375,12.20703125,-542.96875,0.0
1734589355.985233,-872.0703125,-861.81640625,-943.84765625,798.828125,0.0
1734589355.9891388,732.91015625,711.9140625,837.40234375,998.046875,0.0
1734589355.9930446,-576.171875,-598.6328125,-367.67578125,-251.953125,0.0
1734589355.9969504,-1000.0,-1000.0,-1000.0,-1000.0,0.0
1734589356.0008562,197.265625,107.421875,-309.5703125,-241.2109375,0.0
1734589356.0047622,-853.02734375,-870.60546875,976.07421875,931.15234375,0.0
1734589356.008668,799.31640625,804.6875,958.0078125,-928.22265625,0.0
1734589356.0125737,-542.96875,-541.015625,-320.80078125,204.58984375,0.0
1734589356.016405,-1000.0,-1000.0,-1000.0,-1000.0,0.0
1734589356.0203109,-194.82421875,-319.3359375,-662.59765625,-865.234375,0.0
1734589356.0242167,-951.171875,-994.62890625,738.76953125,519.53125,0.0
1734589356.0281227,833.49609375,855.46875,-933.10546875,-815.91796875,0.0
1734589356.0320284,-550.78125,-557.6171875,35.15625,549.31640625,0.0
1734589356.0359342,-1000.0,-1000.0,-1000.0,-929.6875,0.0
1734589356.03984,-558.59375,-613.28125,-847.65625,-925.78125,0.0
1734589356.0437458,852.5390625,825.1953125,570.3125,557.6171875,0.0
1734589356.0476518,-997.55859375,-988.28125,-871.09375,-854.4921875,0.0
1734589356.0515575,-263.18359375,-410.64453125,518.5546875,708.984375,0.0
1734589356.0554633,-1000.0,-1000.0,-856.4453125,-794.921875,0.0
1734589356.059369,-734.86328125,-740.234375,-937.01171875,-964.35546875,0.0
1734589356.0631638,709.9609375,667.96875,556.15234375,577.1484375,0.0
1734589356.0670695,-890.13671875,-879.39453125,-860.3515625,-884.765625,0.0
1734589356.0709753,-231.93359375,-232.421875,733.3984375,820.80078125,0.0
1734589356.074881,-1000.0,-1000.0,-762.20703125,-582.03125,0.0
1734589356.078787,-842.7734375,-831.0546875,-969.7265625,-1000.0,0.0
1734589356.0826929,528.80859375,511.71875,567.3828125,309.08203125,0.0
1734589356.0865986,-832.03125,-811.5234375,-859.86328125,-868.65234375,0.0
1734589356.0905044,-21.97265625,163.57421875,721.6796875,848.6328125,0.0
1734589356.0944102,-1000.0,-1000.0,-767.578125,-645.01953125,0.0
1734589356.098316,-840.33203125,-865.234375,-978.02734375,-994.140625,0.0
1734589356.102222,505.37109375,519.53125,553.7109375,583.0078125,0.0
1734589356.1061277,-812.5,-815.4296875,-861.328125,-887.6953125,0.0
1734589356.1099174,548.828125,549.8046875,739.74609375,835.9375,0.0
1734589356.1138232,-929.19921875,-929.19921875,-679.6875,-617.1875,0.0
1734589356.117729,-927.734375,-927.24609375,-1000.0,-1000.0,0.0
1734589356.1216347,551.7578125,554.6875,333.49609375,509.765625,0.0
1734589356.1255405,-839.84375,-847.65625,-881.34765625,-899.90234375,0.0
1734589356.1294465,639.6484375,685.05859375,864.74609375,875.48828125,0.0
1734589356.1333523,-808.59375,-757.8125,-445.3125,-333.984375,0.0
1734589356.137258,-1000.0,-1000.0,-1000.0,-1000.0,0.0
1734589356.1411638,392.578125,358.88671875,51.7578125,-591.30859375,0.0
1734589356.1450696,-864.2578125,-862.3046875,-935.05859375,775.390625,0.0
1734589356.1489754,805.6640625,815.91796875,947.75390625,-877.9296875,0.0
1734589356.1528814,-574.21875,-572.265625,-321.77734375,-243.65234375,0.0
1734589356.1568317,-1000.0,-1000.0,-1000.0,-1000.0,0.0
1734589356.1607378,226.5625,206.0546875,-140.13671875,47.8515625,0.0
1734589356.1646435,-858.88671875,-855.46875,-997.55859375,-988.28125,0.0
1734589356.1685493,805.6640625,799.8046875,974.12109375,-959.9609375,0.0
1734589356.172455,-519.04296875,-542.96875,-123.53515625,233.88671875,0.0
1734589356.1763608,-1000.0,-1000.0,-1000.0,-1000.0,0.0
1734589356.1802666,-196.77734375,-194.82421875,-491.69921875,-381.34765625,0.0
1734589356.1841726,-950.68359375,-950.1953125,889.6484375,896.484375,0.0
1734589356.1880784,841.796875,834.9609375,-983.88671875,-915.52734375,0.0
1734589356.1919842,-559.08203125,-551.26953125,-16.6015625,596.19140625,0.0
1734589356.19589,-1000.0,-1000.0,-1000.0,-984.86328125,0.0
1734589356.1997957,-377.9296875,-550.78125,-745.1171875,-716.30859375,0.0
1734589356.2039135,955.078125,869.140625,679.19921875,785.15625,0.0
1734589356.2078192,927.24609375,-999.0234375,-890.13671875,-896.97265625,0.0
1734589356.211725,-372.55859375,-415.52734375,436.5234375,718.26171875,0.0
1734589356.2156308,-1000.0,-1000.0,-889.6484375,-811.5234375,0.0
1734589356.2195368,-568.359375,-612.3046875,-815.4296875,-800.78125,0.0
1734589356.2234426,812.5,734.86328125,596.19140625,694.3359375,0.0
1734589356.2273483,-948.2421875,-905.76171875,-876.46484375,-921.38671875,0.0
1734589356.231254,-299.8046875,-233.88671875,739.74609375,853.02734375,0.0
1734589356.2351599,-1000.0,-1000.0,-769.04296875,-636.71875,0.0
1734589356.2390656,-837.40234375,-833.0078125,-968.26171875,-994.140625,0.0
1734589356.2429717,523.92578125,515.13671875,568.84765625,583.0078125,0.0
1734589356.2468774,-829.1015625,-815.4296875,-856.4453125,-877.44140625,0.0
1734589356.2507808,-32.71484375,117.1875,707.51953125,799.8046875,0.0
1734589356.2546866,-1000.0,-1000.0,-757.32421875,-543.9453125,0.0
1734589356.2585926,-846.19140625,-862.3046875,-1000.0,-1000.0,0.0
1734589356.2624984,512.6953125,520.01953125,456.0546875,4.39453125,0.0
1734589356.2664042,-809.08203125,-812.98828125,-837.40234375,-895.99609375,0.0
1734589356.27031,358.88671875,469.7265625,681.15234375,815.4296875,0.0
1734589356.2742157,-1000.0,-964.35546875,-738.28125,-545.8984375,0.0
1734589356.2781215,-894.53125,-913.57421875,-1000.0,-1000.0,0.0
1734589356.2820275,536.1328125,547.36328125,262.6953125,-352.5390625,0.0
1734589356.2859333,-830.56640625,-840.8203125,-862.3046875,950.68359375,0.0
1734589356.289839,617.1875,658.203125,811.03515625,973.6328125,0.0
1734589356.2937448,-829.1015625,-791.50390625,-549.8046875,-394.53125,0.0
1734589356.2976282,0.0,-1000.0,-1000.0,-1000.0,0.0
1734589356.301534,0.0,392.08984375,112.79296875,-436.5234375,0.0
1734589356.3054397,0.0,-858.88671875,-916.50390625,853.02734375,0.0
1734589356.3093455,0.0,798.828125,926.26953125,-905.2734375,0.0
1734589356.3132513,0.0,-593.26171875,-353.515625,-232.421875,0.0
1734589356.3171573,0.0,-1000.0,-1000.0,-1000.0,0.0
1734589356.321063,0.0,211.9140625,-120.60546875,41.9921875,0.0
1734589356.3249688,0.0,-855.95703125,-986.81640625,-979.4921875,0.0
1734589356.3288746,0.0,799.8046875,961.42578125,-976.07421875,0.0
1734589356.3327804,0.0,-542.48046875,-184.5703125,128.90625,0.0
1734589356.3366861,0.0,-1000.0,-1000.0,-1000.0,0.0
1734589356.3405921,0.0,-194.82421875,-577.63671875,-837.40234375,0.0
1734589356.3438997,-1000.0,-950.68359375,840.33203125,519.04296875,0.0
1734589356.3478055,388.671875,834.9609375,-978.515625,-817.87109375,0.0
1734589356.3517113,-859.86328125,-551.7578125,-103.515625,565.4296875,0.0
1734589356.355617,791.9921875,-1000.0,-1000.0,-980.95703125,0.0
1734589356.3595228,-617.1875,-547.8515625,-755.37109375,-716.796875,0.0
1734589356.3634286,-1000.0,879.8828125,670.8984375,783.69140625,0.0
1734589356.3673344,304.19921875,974.12109375,-897.94921875,-893.5546875,0.0
1734589356.3712404,-857.421875,-447.75390625,288.0859375,683.10546875,0.0
1734589356.3751462,799.8046875,-1000.0,-949.70703125,-808.10546875,0.0
1734589356.379052,-521.97265625,-714.35546875,-896.97265625,-999.0234375,0.0
1734589356.3829577,-1000.0,706.0546875,542.96875,502.44140625,0.0
1734589356.3868635,-195.80078125,-902.83203125,-852.5390625,-860.83984375,0.0
1734589356.390706,-330.56640625,-280.76171875,714.35546875,765.13671875,0.0
1734589356.3946118,-1000.0,-1000.0,-786.62109375,-683.59375,0.0
1734589356.3985176,-836.42578125,-832.03125,-964.84375,-1000.0,0.0
1734589356.4024234,524.90234375,515.13671875,568.84765625,399.90234375,0.0
1734589356.4063294,-836.42578125,-817.3828125,-862.79296875,-873.046875,0.0
1734589356.4102352,0.9765625,91.30859375,730.46875,844.7265625,0.0
1734589356.414141,-1000.0,-1000.0,-762.6953125,-641.11328125,0.0
1734589356.4180467,-853.515625,-859.375,-968.26171875,-994.140625,0.0
1734589356.4219525,514.6484375,518.5546875,568.359375,583.49609375,0.0
1734589356.4258583,-809.08203125,-812.5,-856.4453125,-889.16015625,0.0
1734589356.429764,359.375,446.77734375,711.9140625,840.8203125,0.0
1734589356.43367,-1000.0,-974.12109375,-734.86328125,-629.8828125,0.0
1734589356.437865,-894.53125,-909.66796875,-1000.0,-1000.0,0.0
1734589356.4417708,536.1328125,544.43359375,403.3203125,566.40625,0.0
1734589356.4456766,-833.0078125,-837.890625,-872.55859375,-905.2734375,0.0
1734589356.4495823,624.51171875,645.5078125,826.66015625,895.5078125,0.0
1734589356.453488,-847.16796875,-812.01171875,-535.15625,-458.49609375,0.0
1734589356.457394,-1000.0,-1000.0,-1000.0,-1000.0,0.0
1734589356.4613,484.86328125,422.36328125,238.76953125,333.984375,0.0
1734589356.4652057,-874.51171875,-857.91015625,-896.484375,-915.52734375,0.0
1734589356.4691114,812.5,786.1328125,915.0390625,948.2421875,0.0
1734589356.4730172,-578.61328125,-607.91015625,-330.56640625,-161.1328125,0.0
1734589356.476923,-1000.0,-1000.0,-1000.0,-1000.0,0.0
1734589356.4808288,303.22265625,213.8671875,-188.96484375,-688.4765625,0.0
1734589356.484798,-855.46875,-856.4453125,-999.51171875,704.1015625,0.0
1734589356.4887037,804.6875,801.26953125,961.42578125,-853.02734375,0.0
1734589356.4926095,-554.19921875,-545.41015625,-266.11328125,-20.01953125,0.0
1734589356.4965153,-1000.0,-1000.0,-1000.0,-1000.0,0.0
1734589356.500421,4.39453125,-159.1796875,-488.28125,-361.81640625,0.0
1734589356.504327,-896.484375,-940.4296875,892.08984375,890.13671875,0.0
1734589356.5082328,813.4765625,830.078125,999.51171875,-906.73828125,0.0
1734589356.5121386,-544.43359375,-548.828125,-195.3125,392.08984375,0.0
1734589356.5160444,-1000.0,-1000.0,-1000.0,-1000.0,0.0
1734589356.5199502,-383.7890625,-550.29296875,-783.69140625,-882.8125,0.0
1734589356.523856,962.40234375,889.16015625,626.953125,549.31640625,0.0
1734589356.527762,919.43359375,949.70703125,-893.5546875,-836.42578125,0.0
1734589356.5317163,-479.4921875,-494.140625,182.6171875,630.859375,0.0
1734589356.5356221,-1000.0,-1000.0,-991.2109375,-860.3515625,0.0
1734589356.539528,-640.625,-704.1015625,-878.41796875,-961.9140625,0.0
1734589356.543434,782.71484375,719.23828125,539.0625,541.015625,0.0
1734589356.5473397,-939.94140625,-915.52734375,-850.09765625,-867.67578125,0.0
1734589356.5512455,-320.3125,-307.6171875,707.51953125,772.94921875,0.0
1734589356.5551512,-1000.0,-1000.0,-793.45703125,-700.68359375,0.0
1734589356.559057,-772.94921875,-825.68359375,-962.890625,-1000.0,0.0
1734589356.5629628,606.4453125,536.62109375,568.359375,493.1640625,0.0
1734589356.5668688,-846.6796875,-828.125,-862.79296875,-879.8828125,0.0
1734589356.5707746,-12.20703125,-13.671875,730.95703125,842.7734375,0.0
1734589356.5746803,-1000.0,-1000.0,-763.18359375,-637.6953125,0.0
1734589356.5786057,-850.5859375,-848.14453125,-968.26171875,-994.140625,0.0
1734589356.5825114,514.16015625,514.6484375,567.3828125,583.0078125,0.0
1734589356.5864174,-809.08203125,-808.59375,-851.5625,-888.18359375,0.0
1734589356.5903232,358.88671875,359.375,691.40625,838.37890625,0.0
1734589356.594229,-1000.0,-1000.0,-750.48828125,-622.55859375,0.0
1734589356.5981348,-895.99609375,-894.53125,-1000.0,-1000.0,0.0
1734589356.6020405,534.1796875,536.62109375,374.51171875,528.3203125,0.0
1734589356.6059463,-818.84765625,-830.078125,-854.98046875,-884.27734375,0.0
1734589356.6098523,541.9921875,618.1640625,775.390625,824.70703125,0.0
1734589356.613758,-910.64453125,-830.078125,-597.65625,-421.38671875,0.0
1734589356.6176639,-984.86328125,-1000.0,-1000.0,-1000.0,0.0
1734589356.6215696,474.12109375,391.11328125,134.765625,-613.28125,0.0
1734589356.6254807,-861.81640625,-848.14453125,-913.0859375,799.8046875,0.0
1734589356.6293864,776.3671875,758.30078125,923.33984375,-912.59765625,0.0
1734589356.6332922,-634.765625,-669.43359375,-375.9765625,-344.23828125,0.0
1734589356.637198,-1000.0,-1000.0,-1000.0,-1000.0,0.0
1734589356.6411037,303.22265625,300.29296875,-37.109375,42.48046875,0.0
1734589356.6450098,-857.421875,-856.4453125,-954.58984375,-977.5390625,0.0
1734589356.6489155,804.6875,801.7578125,941.89453125,-972.16796875,0.0
1734589356.6528213,-554.19921875,-548.33984375,-279.78515625,29.296875,0.0
1734589356.656727,-1000.0,-1000.0,-1000.0,-1000.0,0.0
1734589356.6606328,4.39453125,-64.94140625,-439.94140625,-276.85546875,0.0
1734589356.6645386,-896.484375,-915.0390625,922.8515625,919.43359375,0.0
1734589356.6684446,813.4765625,821.2890625,978.515625,-915.0390625,0.0
1734589356.6725364,0.0,-546.38671875,-306.640625,391.6015625,0.0
1734589356.6764421,0.0,-1000.0,-1000.0,-1000.0,0.0
1734589356.680348,0.0,-452.1484375,-745.60546875,-794.921875,0.0
1734589356.6842537,0.0,933.10546875,627.44140625,570.3125,0.0
1734589356.6881595,0.0,931.640625,-893.06640625,-851.5625,0.0
1734589356.6920655,0.0,-484.86328125,347.16796875,651.3671875,0.0
1734589356.6959713,0.0,-1000.0,-930.6640625,-903.80859375,0.0
1734589356.699877,0.0,-641.11328125,-882.32421875,-812.01171875,0.0
1734589356.7037828,0.0,784.1796875,580.56640625,726.07421875,0.0
1734589356.7076886,0.0,-941.89453125,-857.421875,-898.92578125,0.0
1734589356.7115946,0.0,-329.58984375,705.078125,770.5078125,0.0
1734589356.7155004,0.0,-1000.0,-795.41015625,-679.6875,0.0
1734589356.7193573,-783.203125,-797.36328125,-962.40234375,-1000.0,0.0
1734589356.723263,623.53515625,577.63671875,565.91796875,399.4140625,0.0
1734589356.7271688,-863.28125,-830.078125,-843.75,-850.5859375,0.0
1734589356.7310746,-234.86328125,-66.89453125,680.6640625,802.24609375,0.0
1734589356.7349806,-1000.0,-1000.0,-802.734375,-579.58984375,0.0
1734589356.7388864,-627.44140625,-646.484375,-769.53125,-885.25390625,0.0
1734589356.7427921,575.68359375,587.40234375,629.39453125,330.078125,0.0
1734589356.746698,-839.35546875,-841.796875,-885.7421875,-911.1328125,0.0
1734589356.7506037,364.74609375,375.48828125,714.84375,835.44921875,0.0
1734589356.7545097,-1000.0,-1000.0,-744.140625,-576.66015625,0.0
1734589356.7584155,-894.53125,-895.01953125,-1000.0,-1000.0,0.0
1734589356.7623212,533.203125,536.62109375,363.76953125,-34.1796875,0.0
1734589356.7661607,0.0,-830.078125,-864.74609375,-970.21484375,0.0
1734589356.7700665,0.0,614.2578125,807.6171875,891.6015625,0.0
1734589356.7739725,0.0,-852.05078125,-562.5,-468.75,0.0
1734589356.7778783,0.0,-1000.0,-1000.0,-1000.0,0.0
1734589356.781784,0.0,462.40234375,197.75390625,-404.296875,0.0
1734589356.7856898,0.0,-851.5625,-897.4609375,886.71875,0.0
1734589356.7895956,0.0,748.53515625,905.2734375,-949.21875,0.0
1734589356.7935014,0.0,-676.26953125,-390.13671875,-325.1953125,0.0
1734589356.7974074,0.0,-1000.0,-1000.0,-1000.0,0.0
1734589356.8013132,0.0,302.734375,-61.03515625,-15.13671875,0.0
1734589356.805219,0.0,-857.421875,-958.984375,-994.62890625,0.0
1734589356.8091247,0.0,805.17578125,942.87109375,-964.84375,0.0
1734589356.8129396,-554.19921875,-554.19921875,-306.15234375,22.94921875,0.0
1734589356.8168457,-1000.0,-1000.0,-1000.0,-1000.0,0.0
1734589356.8207514,4.8828125,4.39453125,-397.94921875,-372.0703125,0.0
1734589356.8246572,-899.90234375,-895.5078125,920.41015625,843.75,0.0
1734589356.828563,827.63671875,814.453125,991.69921875,-900.390625,0.0
1734589356.8324687,-544.921875,-543.9453125,-158.69140625,408.203125,0.0
1734589356.8363745,-1000.0,-1000.0,-1000.0,-1000.0,0.0
1734589356.8402805,-189.94140625,-383.30078125,-669.921875,-601.5625,0.0
1734589356.8441863,-960.9375,962.890625,738.28125,829.58984375,0.0
1734589356.848092,849.609375,919.921875,-913.57421875,-893.06640625,0.0
1734589356.8519979,-454.58984375,-479.4921875,271.484375,611.328125,0.0
1734589356.8559036,-1000.0,-1000.0,-969.23828125,-894.53125,0.0
1734589356.8596945,-660.15625,-642.578125,-882.8125,-937.5,0.0
1734589356.8636003,803.7109375,787.59765625,558.10546875,563.4765625,0.0
1734589356.867506,-982.421875,-949.70703125,-852.05078125,-872.0703125,0.0
1734589356.8714118,-416.015625,-345.21484375,668.9453125,778.3203125,0.0
1734589356.8753178,-1000.0,-1000.0,-817.87109375,-714.35546875,0.0
1734589356.8792236,-781.73828125,-774.90234375,-956.0546875,-992.1875,0.0
1734589356.8831294,624.51171875,609.86328125,566.40625,562.98828125,0.0
1734589356.8870351,-879.8828125,-848.14453125,-863.28125,-888.671875,0.0
1734589356.890941,-190.91796875,-82.03125,734.86328125,843.26171875,0.0
1734589356.8948467,-1000.0,-1000.0,-758.7890625,-635.7421875,0.0
1734589356.8987527,-840.8203125,-841.796875,-969.23828125,-994.140625,0.0
1734589356.9026585,514.16015625,512.6953125,567.87109375,583.0078125,0.0
1734589356.9068208,-812.5,-809.08203125,0.0,0.0,0.0
1734589356.9107265,163.57421875,315.4296875,0.0,0.0,0.0
1734589356.9146323,-1000.0,-1000.0,0.0,0.0,0.0
1734589356.918538,-865.234375,-888.18359375,0.0,0.0,0.0
1734589356.9224439,519.04296875,532.71484375,0.0,0.0,0.0
1734589356.9263496,-816.40625,-828.125,0.0,0.0,0.0
1734589356.9302557,548.828125,606.4453125,0.0,0.0,0.0
1734589356.9341614,-929.19921875,-864.74609375,0.0,0.0,0.0
1734589356.9380672,-927.24609375,-990.72265625,0.0,0.0,0.0
1734589356.941973,554.6875,485.83984375,0.0,0.0,0.0
1734589356.9458787,-851.07421875,-850.5859375,0.0,0.0,0.0
1734589356.9497845,693.84765625,733.3984375,0.0,0.0,0.0
1734589356.9537003,-758.30078125,-697.265625,-414.0625,-313.96484375,0.0
1734589356.957606,-1000.0,-1000.0,-1000.0,-1000.0,0.0
1734589356.9615119,395.99609375,323.2421875,95.21484375,240.72265625,0.0
1734589356.9654176,-861.328125,-857.91015625,-913.0859375,-919.43359375,0.0
1734589356.9693234,800.78125,804.6875,909.1796875,971.6796875,0.0
1734589356.9732294,-550.29296875,-553.22265625,-347.65625,-125.9765625,0.0
1734589356.9771352,-1000.0,-1000.0,-1000.0,-1000.0,0.0
1734589356.981041,7.8125,4.39453125,-363.76953125,-626.46484375,0.0
1734589356.9849467,-905.2734375,-895.5078125,924.31640625,637.6953125,0.0
1734589356.9888525,841.30859375,814.453125,994.140625,-841.796875,0.0
1734589356.9927583,-512.20703125,-543.9453125,-140.13671875,372.0703125,0.0
1734589356.9966643,-1000.0,-1000.0,-1000.0,-1000.0,0.0
1734589357.000571,-197.265625,-387.20703125,-732.421875,-895.99609375,0.0
1734589357.0044768,-948.73046875,972.16796875,696.2890625,534.66796875,0.0
1734589357.0083826,833.49609375,892.08984375,-913.57421875,-821.2890625,0.0
1734589357.0122883,-550.78125,-522.94921875,123.046875,562.98828125,0.0
1734589357.0161943,-1000.0,-1000.0,-1000.0,-973.6328125,0.0
1734589357.0201,-565.91796875,-614.2578125,-825.1953125,-750.9765625,0.0
1734589357.024006,860.83984375,818.359375,593.75,756.34765625,0.0
1734589357.0279117,-999.51171875,-974.12109375,-858.88671875,-903.3203125,0.0
1734589357.0318174,-405.2734375,-378.90625,670.8984375,759.27734375,0.0
1734589357.0357232,-1000.0,-1000.0,-815.91796875,-772.94921875,0.0
1734589357.0396292,-710.9375,-727.5390625,-957.03125,-909.1796875,0.0
1734589357.043535,701.171875,674.31640625,566.89453125,662.109375,0.0
1734589357.047416,-897.94921875,-874.0234375,-863.76953125,-904.78515625,0.0
1734589357.0513217,-175.78125,-174.31640625,736.81640625,845.21484375,0.0
1734589357.0552275,-1000.0,-1000.0,-757.8125,-633.7890625,0.0
1734589357.0591333,-844.23828125,-833.984375,-969.7265625,-994.140625,0.0
1734589357.063039,518.5546875,510.7421875,569.82421875,583.0078125,0.0
1734589357.066945,-824.70703125,-809.5703125,-860.83984375,-889.6484375,0.0
1734589357.0708508,204.58984375,245.1171875,725.09765625,843.26171875,0.0
1734589357.0747566,-1000.0,-1000.0,-758.7890625,-635.25390625,0.0
1734589357.0786624,-874.0234375,-877.9296875,-988.28125,-994.140625,0.0
1734589357.0825682,520.5078125,525.87890625,541.015625,583.49609375,0.0
1734589357.086474,-815.91796875,-819.82421875,-863.28125,-885.25390625,0.0
1734589357.09038,548.828125,559.5703125,753.90625,828.61328125,0.0
1734589357.094232,-929.19921875,-914.55078125,-652.83203125,-598.6328125,0.0
1734589357.0981379,-927.24609375,-945.80078125,-1000.0,-1000.0,0.0
1734589357.1020436,554.6875,531.25,297.8515625,416.50390625,0.0
1734589357.1059496,-851.07421875,-844.7265625,-875.48828125,-891.6015625,0.0
1734589357.1098554,693.84765625,687.5,853.02734375,874.0234375,0.0
1734589357.1137612,-758.30078125,-743.65234375,-458.49609375,-336.42578125,0.0
1734589357.117667,-1000.0,-1000.0,-1000.0,-1000.0,0.0
1734589357.1215727,392.578125,310.05859375,-19.04296875,-700.1953125,0.0
1734589357.1254785,-854.4921875,-857.91015625,-938.96484375,709.9609375,0.0
1734589357.1293845,777.83203125,804.6875,915.52734375,-889.6484375,0.0
1734589357.1332903,-606.93359375,-553.7109375,-377.44140625,-224.12109375,0.0
1734589357.137196,-1000.0,-1000.0,-1000.0,-1000.0,0.0
1734589357.1410356,148.4375,4.39453125,-369.140625,-767.578125,0.0
1734589357.1449413,-875.0,-896.97265625,931.15234375,594.7265625,0.0
1734589357.148847,820.80078125,822.75390625,980.95703125,-824.70703125,0.0
1734589357.1527529,-514.16015625,-554.6875,-244.140625,183.10546875,0.0
1734589357.156659,-1000.0,-1000.0,-1000.0,-1000.0,0.0
1734589357.1605647,-194.3359375,-224.609375,-572.75390625,-571.2890625,0.0
1734589357.1644704,-952.1484375,-960.9375,818.84765625,813.4765625,0.0
1734589357.1683762,836.42578125,837.890625,-952.63671875,-881.34765625,0.0
1734589357.172282,-518.06640625,-554.19921875,107.91015625,566.40625,0.0
1734589357.1761878,-1000.0,-1000.0,-1000.0,-928.7109375,0.0
1734589357.1800938,-576.171875,-626.46484375,-856.4453125,-927.24609375,0.0
1734589357.1839995,876.46484375,814.94140625,576.171875,555.17578125,0.0
1734589357.1878147,963.8671875,-985.3515625,-871.58203125,-854.4921875,0.0
1734589357.1917207,-473.6328125,-412.59765625,520.01953125,708.984375,0.0
1734589357.1956265,-1000.0,-1000.0,-856.4453125,-793.9453125,0.0
1734589357.1995323,-708.49609375,-758.30078125,-937.01171875,-967.28515625,0.0
1734589357.203438,700.1953125,648.4375,556.15234375,573.2421875,0.0
1734589357.2073438,-906.73828125,-875.48828125,-861.81640625,-884.27734375,0.0
1734589357.2112496,-124.51171875,-233.3984375,738.28125,820.80078125,0.0
1734589357.2151556,-1000.0,-1000.0,-756.8359375,-581.0546875,0.0
1734589357.2190614,-855.95703125,-831.0546875,-970.703125,-1000.0,0.0
1734589357.2229671,520.01953125,511.71875,567.3828125,305.17578125,0.0
1734589357.226873,-814.94140625,-811.5234375,-856.4453125,-857.91015625,0.0
1734589357.2307787,145.99609375,164.0625,707.03125,812.5,0.0
1734589357.2345717,-1000.0,-1000.0,-759.765625,-572.75390625,0.0
1734589357.2384775,-871.09375,-865.234375,-1000.0,-1000.0,0.0
1734589357.2423832,525.87890625,519.53125,468.26171875,95.21484375,0.0
1734589357.246289,-812.98828125,-815.4296875,-847.16796875,-909.1796875,0.0
1734589357.2501948,358.88671875,546.38671875,719.23828125,825.1953125,0.0
1734589357.2541006,-1000.0,-921.875,-690.4296875,-565.91796875,0.0
1734589357.2580066,-894.53125,-949.21875,-1000.0,-1000.0,0.0
1734589357.2619123,539.55078125,520.5078125,262.20703125,-230.46875,0.0
1734589357.265818,-846.6796875,-846.19140625,-884.765625,934.5703125,0.0
1734589357.269724,693.84765625,694.82421875,883.7890625,-987.79296875,0.0
1734589357.2736297,-758.30078125,-758.7890625,-444.3359375,-450.1953125,0.0
1734589357.2775354,-1000.0,-1000.0,-1000.0,-1000.0,0.0
1734589357.281499,390.625,395.5078125,141.11328125,323.73046875,0.0
1734589357.2854047,-849.609375,-860.3515625,-908.69140625,-917.48046875,0.0
1734589357.2893105,761.23046875,802.24609375,917.96875,960.44921875,0.0
1734589357.2932162,-639.6484375,-573.73046875,-332.03125,-155.2734375,0.0
1734589357.297122,-1000.0,-1000.0,-1000.0,-1000.0,0.0
1734589357.301028,204.58984375,134.27734375,-278.80859375,-620.60546875,0.0
1734589357.3049338,-860.83984375,-870.1171875,979.98046875,670.8984375,0.0
1734589357.3088396,806.15234375,807.6171875,956.0546875,-849.609375,0.0
1734589357.3127453,-527.34375,-546.38671875,-309.08203125,181.15234375,0.0
1734589357.316651,-1000.0,-1000.0,-1000.0,-1000.0,0.0
1734589357.3205569,-195.80078125,-214.84375,-609.375,-750.9765625,0.0
1734589357.324463,-950.1953125,-957.03125,793.45703125,618.65234375,0.0
1734589357.3283963,833.49609375,836.9140625,-953.125,-841.30859375,0.0
1734589357.3323023,-550.78125,-552.734375,-37.109375,557.12890625,0.0
1734589357.336208,-1000.0,-1000.0,-1000.0,-930.17578125,0.0
1734589357.3401139,-573.2421875,-594.23828125,-833.49609375,-927.24609375,0.0
1734589357.3440197,878.90625,842.7734375,568.359375,555.17578125,0.0
1734589357.3479254,952.1484375,-998.046875,-871.09375,-852.5390625,0.0
1734589357.3518312,-498.046875,-417.96875,534.1796875,702.1484375,0.0
1734589357.3557372,-1000.0,-1000.0,-849.12109375,-776.3671875,0.0
1734589357.359643,-717.28515625,-720.703125,-939.94140625,-1000.0,0.0
1734589357.3635488,711.42578125,690.91796875,556.15234375,489.2578125,0.0
1734589357.3674545,-920.8984375,-887.20703125,-856.93359375,-874.0234375,0.0
1734589357.3713603,-331.0546875,-241.2109375,718.26171875,820.3125,0.0
1734589357.3756676,-1000.0,-1000.0,-780.2734375,-583.984375,0.0
1734589357.3795733,-831.0546875,-830.56640625,-966.796875,-1000.0,0.0
1734589357.383479,515.13671875,511.71875,565.91796875,306.640625,0.0
1734589357.387385,-821.2890625,-812.01171875,-858.88671875,-868.1640625,0.0
1734589357.3912907,53.7109375,159.66796875,715.33203125,848.6328125,0.0
1734589357.3951967,-1000.0,-1000.0,-768.06640625,-644.53125,0.0
1734589357.3991024,-857.91015625,-865.72265625,-990.72265625,-995.60546875,0.0
1734589357.4030082,519.04296875,520.5078125,530.76171875,579.58984375,0.0
1734589357.406914,-811.03515625,-815.4296875,-854.98046875,-887.6953125,0.0
1734589357.4108198,358.88671875,523.92578125,726.07421875,835.9375,0.0
1734589357.4147255,-1000.0,-940.4296875,-697.75390625,-617.1875,0.0
1734589357.4186316,-894.53125,-922.8515625,-1000.0,-1000.0,0.0
1734589357.422501,536.1328125,553.22265625,333.49609375,508.30078125,0.0
1734589357.4264069,-830.56640625,-849.609375,-880.37109375,-895.99609375,0.0
1734589357.4303129,617.1875,693.359375,859.86328125,864.74609375,0.0
1734589357.4342186,-829.1015625,-756.34765625,-450.68359375,-345.703125,0.0
1734589357.4381244,-1000.0,-1000.0,-1000.0,-1000.0,0.0
1734589357.4420302,384.765625,384.765625,41.50390625,-634.27734375,0.0
1734589357.445936,-846.19140625,-859.375,-929.19921875,769.04296875,0.0
1734589357.4498417,750.0,800.29296875,927.24609375,-899.4140625,0.0
1734589357.4537477,-653.80859375,-590.33203125,-357.91015625,-222.16796875,0.0
1734589357.4576535,-1000.0,-1000.0,-1000.0,-1000.0,0.0
1734589357.4615593,208.0078125,205.078125,-223.6328125,-600.09765625,0.0
1734589357.465465,-869.62890625,-855.95703125,977.5390625,698.2421875,0.0
1734589357.4693012,834.9609375,800.78125,982.91015625,-847.16796875,0.0
1734589357.473207,-503.90625,-543.45703125,-182.6171875,186.03515625,0.0
1734589357.4771128,-1000.0,-1000.0,-1000.0,-1000.0,0.0
1734589357.4810185,12.20703125,-172.36328125,-511.23046875,-384.765625,0.0
1734589357.4849243,-892.08984375,-945.3125,854.4921875,899.90234375,0.0
1734589357.4888303,609.375,636.23046875,939.94140625,-913.0859375,0.0
1734589357.492736,-611.328125,-625.48828125,42.96875,503.90625,0.0
1734589357.4966419,-1000.0,-1000.0,-1000.0,-966.796875,0.0
1734589357.5005476,-587.40234375,-583.0078125,-851.5625,-914.0625,0.0
1734589357.5044534,881.8359375,870.60546875,583.49609375,548.828125,0.0
1734589357.5083592,955.078125,991.2109375,-875.9765625,-853.515625,0.0
1734589357.5122652,-459.47265625,-423.828125,536.1328125,715.33203125,0.0
1734589357.5162895,-1000.0,-1000.0,-851.5625,-813.4765625,0.0
1734589357.5201952,-645.01953125,-708.0078125,-931.640625,-900.87890625,0.0
1734589357.524101,786.1328125,708.0078125,567.87109375,659.66796875,0.0
1734589357.528007,-946.2890625,-896.97265625,-859.86328125,-895.99609375,0.0
1734589357.5319128,-280.2734375,-258.30078125,722.65625,814.453125,0.0
1734589357.5358186,-1000.0,-1000.0,-776.3671875,-592.7734375,0.0
1734589357.5397243,-846.6796875,-833.49609375,-967.7734375,-1000.0,0.0
1734589357.5436301,526.3671875,516.11328125,566.89453125,312.5,0.0
1734589357.547536,-829.1015625,-816.89453125,-863.28125,-869.140625,0.0
1734589357.551442,-35.64453125,93.75,733.88671875,848.6328125,0.0
1734589357.5553477,-1000.0,-1000.0,-755.37109375,-645.01953125,0.0
1734589357.5592535,-845.703125,-857.421875,-978.515625,-994.140625,0.0
1734589357.5630562,515.625,516.6015625,555.6640625,583.49609375,0.0
1734589357.566962,-816.89453125,-813.4765625,-857.421875,-875.48828125,0.0
1734589357.5708678,386.71875,496.58203125,726.5625,789.55078125,0.0
1734589357.5747736,-976.07421875,-952.1484375,-684.5703125,-530.2734375,0.0
1734589357.5786793,-900.87890625,-918.45703125,-1000.0,-1000.0,0.0
1734589357.5825853,537.109375,549.8046875,279.296875,-166.015625,0.0
1734589357.586491,-830.078125,-843.75,-875.9765625,-973.14453125,0.0
1734589357.590397,617.1875,669.43359375,851.5625,903.80859375,0.0
1734589357.5943027,-829.58984375,-781.25,-486.328125,-433.10546875,0.0
1734589357.5982084,-1000.0,-1000.0,-1000.0,-1000.0,0.0
1734589357.6021144,386.23046875,391.11328125,123.046875,-586.42578125,0.0
1734589357.6060202,-846.6796875,-853.515625,-910.64453125,803.7109375,0.0
1734589357.6098044,751.953125,779.296875,916.015625,-915.0390625,0.0
1734589357.6137102,-657.2265625,-616.69921875,-359.375,-213.8671875,0.0
1734589357.617616,-1000.0,-1000.0,-1000.0,-1000.0,0.0
1734589357.621522,227.05078125,204.58984375,-209.9609375,-734.375,0.0
1734589357.6254277,-864.74609375,-856.93359375,986.81640625,629.8828125,0.0
1734589357.6293335,821.77734375,803.22265625,974.12109375,-823.73046875,0.0
1734589357.6332393,-530.76171875,-547.36328125,-234.86328125,176.26953125,0.0
1734589357.637145,-1000.0,-1000.0,-1000.0,-1000.0,0.0
1734589357.6410508,13.671875,-142.08984375,-471.6796875,-387.6953125,0.0
1734589357.6449568,-912.59765625,-936.03515625,847.16796875,902.34375,0.0
1734589357.6488626,837.40234375,830.078125,-945.3125,-912.59765625,0.0
1734589357.6527684,-378.41796875,-549.8046875,299.8046875,455.078125,0.0
1734589357.6567297,-1000.0,-1000.0,0.0,-1000.0,0.0
1734589357.6606355,-403.80859375,-493.1640625,0.0,-689.453125,0.0
1734589357.6645412,973.6328125,906.73828125,0.0,776.3671875,0.0
1734589357.6684473,916.50390625,957.51953125,0.0,-896.97265625,0.0
1734589357.672353,-478.02734375,-456.54296875,0.0,712.890625,0.0
1734589357.6762588,-1000.0,-1000.0,0.0,-774.90234375,0.0
1734589357.6801646,-640.625,-709.47265625,0.0,-1000.0,0.0
1734589357.6840703,782.71484375,705.56640625,0.0,484.375,0.0
1734589357.6879761,-940.4296875,-898.4375,0.0,-859.86328125,0.0
1734589357.6918821,-312.98828125,-264.16015625,0.0,772.4609375,0.0
1734589357.695788,-1000.0,-1000.0,0.0,-655.2734375,0.0
1734589357.6996937,-774.4140625,-827.63671875,0.0,-1000.0,0.0
1734589357.7036266,605.95703125,525.390625,568.84765625,334.47265625,0.0
1734589357.7075326,-842.28515625,-819.82421875,-869.140625,-860.83984375,0.0
1734589357.7114384,-33.69140625,79.1015625,757.32421875,816.89453125,0.0
1734589357.7153442,-1000.0,-1000.0,-719.23828125,-573.73046875,0.0
1734589357.71925,-846.19140625,-857.421875,-1000.0,-1000.0,0.0
1734589357.7231557,517.08984375,517.578125,524.90234375,205.56640625,0.0
1734589357.7270615,-822.265625,-812.01171875,-862.3046875,-868.1640625,0.0
1734589357.7309675,404.78515625,452.63671875,754.39453125,848.14453125,0.0
1734589357.7348733,-952.63671875,-971.6796875,-681.640625,-632.32421875,0.0
1734589357.738779,-904.78515625,-910.64453125,-1000.0,-1000.0,0.0
1734589357.7426848,537.59765625,546.38671875,393.06640625,501.953125,0.0
1734589357.7465906,-832.03125,-842.28515625,-876.953125,-881.34765625,0.0
1734589357.7505023,625.0,667.96875,842.28515625,825.68359375,0.0
1734589357.7544081,-847.16796875,-789.55078125,-491.69921875,-420.8984375,0.0
1734589357.7583141,-1000.0,-1000.0,-1000.0,-1000.0,0.0
1734589357.76222,477.05078125,414.0625,144.53125,-557.6171875,0.0
1734589357.7661257,-854.00390625,-853.515625,-907.71484375,845.703125,0.0
1734589357.7700315,749.51171875,770.99609375,916.015625,-954.1015625,0.0
1734589357.7739372,-673.828125,-635.25390625,-364.2578125,-308.10546875,0.0
1734589357.777843,-1000.0,-1000.0,-1000.0,-1000.0,0.0
1734589357.781749,314.94140625,239.74609375,-141.11328125,-562.01171875,0.0
1734589357.7856548,-887.20703125,-856.4453125,992.1875,753.90625,0.0
1734589357.7895606,879.39453125,800.29296875,991.2109375,-866.69921875,0.0
1734589357.7934663,-400.390625,-544.921875,-114.74609375,177.734375,0.0
1734589357.7973413,-1000.0,-1000.0,-1000.0,-1000.0,0.0
1734589357.8012471,41.015625,-104.00390625,-520.01953125,-864.74609375,0.0
1734589357.805153,-962.40234375,984.86328125,792.96875,519.53125,0.0
1734589357.8090587,934.5703125,971.6796875,-901.3671875,-815.91796875,0.0
1734589357.8129644,62.01171875,78.61328125,574.70703125,549.31640625,0.0
1734589357.8168705,-1000.0,-1000.0,-896.484375,-929.19921875,0.0
1734589357.8207762,-477.5390625,-577.63671875,-929.19921875,-927.24609375,0.0
1734589357.824682,896.484375,827.1484375,570.3125,555.17578125,0.0
1734589357.8285878,996.09375,-923.828125,-860.3515625,-852.5390625,0.0
1734589357.8324935,364.2578125,455.56640625,657.71484375,702.1484375,0.0
1734589357.8363993,-954.1015625,-968.26171875,-820.3125,-776.3671875,0.0
1734589357.8403053,-799.31640625,-789.0625,-956.0546875,-1000.0,0.0
1734589357.8445542,728.515625,714.35546875,569.3359375,489.2578125,0.0
1734589357.8484602,-919.43359375,-891.11328125,-875.0,-876.46484375,0.0
1734589357.852366,504.8828125,652.83203125,783.69140625,828.125,0.0
1734589357.8562717,-849.609375,-814.453125,-707.51953125,-601.07421875,0.0
1734589357.8601775,-897.4609375,-940.91796875,-980.95703125,-1000.0,0.0
1734589357.8640833,674.31640625,616.2109375,579.1015625,401.85546875,0.0
1734589357.8679893,-925.29296875,-896.97265625,-885.25390625,-871.58203125,0.0
1734589357.871895,449.21875,643.5546875,822.265625,844.7265625,0.0
1734589357.8758008,-757.8125,-714.35546875,-659.1796875,-641.11328125,0.0
1734589357.8797066,-942.87109375,-961.42578125,-990.234375,-994.140625,0.0
1734589357.8836124,557.12890625,565.91796875,583.984375,583.49609375,0.0
1734589357.8875182,-865.72265625,-875.9765625,-887.20703125,-886.71875,0.0
1734589357.891347,614.2578125,793.9453125,828.61328125,833.0078125,0.0
1734589357.8952527,-762.6953125,-676.7578125,-574.21875,-608.88671875,0.0
1734589357.8991585,-949.70703125,-982.421875,-1000.0,-1000.0,0.0
1734589357.9030643,551.7578125,572.265625,361.328125,470.21484375,0.0
1734589357.90697,-836.9140625,-861.328125,-882.8125,-895.99609375,0.0
1734589357.910876,640.13671875,736.328125,873.53515625,875.0,0.0
1734589357.9147818,-827.1484375,-722.65625,-451.171875,-329.1015625,0.0
1734589357.9186876,-1000.0,-1000.0,-1000.0,-1000.0,0.0
1734589357.9225934,485.3515625,468.75,151.85546875,-551.7578125,0.0
1734589357.9264991,-874.0234375,-897.94921875,-919.921875,834.47265625,0.0
1734589357.930405,812.5,897.94921875,940.91796875,-924.8046875,0.0
1734589357.934311,-578.61328125,-420.8984375,-270.5078125,-214.35546875,0.0
1734589357.9381013,-1000.0,-1000.0,-1000.0,-1000.0,0.0
1734589357.942007,326.171875,231.4453125,-326.66015625,-715.8203125,0.0
1734589357.9459128,-909.66796875,-890.13671875,897.4609375,654.78515625,0.0
1734589357.9498188,951.66015625,896.484375,-939.453125,-839.35546875,0.0
1734589357.9537246,-276.3671875,-326.66015625,86.42578125,138.18359375,0.0
1734589357.9576304,-1000.0,-1000.0,-1000.0,-1000.0,0.0
1734589357.9615362,27.34375,-157.71484375,-813.96484375,-862.79296875,0.0
1734589357.965442,-940.4296875,-984.375,562.01171875,519.53125,0.0
1734589357.9693477,918.45703125,907.2265625,-845.703125,-814.453125,0.0
1734589357.9732537,-146.97265625,-115.234375,510.7421875,505.37109375,0.0
1734589357.9771595,-1000.0,-1000.0,-919.921875,-948.73046875,0.0
1734589357.9810653,-380.859375,-552.24609375,-924.31640625,-919.43359375,0.0
1734589357.9850538,930.6640625,853.515625,564.94140625,551.7578125,0.0
1734589357.9889598,978.02734375,-971.19140625,-861.81640625,-851.5625,0.0
1734589357.9928656,148.92578125,259.765625,633.7890625,702.63671875,0.0
1734589357.9967713,-1000.0,-997.0703125,-830.078125,-777.34375,0.0
1734589358.000677,-704.58984375,-791.015625,-952.63671875,-1000.0,0.0
1734589358.004583,806.15234375,753.90625,565.91796875,493.65234375,0.0
1734589358.008489,-959.47265625,-936.5234375,-868.65234375,-875.0,0.0
1734589358.0123947,179.6875,118.65234375,759.765625,819.82421875,0.0
1734589358.0163004,-968.75,-970.21484375,-736.328125,-611.328125,0.0
1734589358.0202062,-852.5390625,-881.34765625,-975.5859375,-1000.0,0.0
1734589358.024112,648.92578125,582.03125,577.1484375,401.85546875,0.0
1734589358.0280178,-896.97265625,-876.46484375,-877.44140625,-856.93359375,0.0
1734589358.0319674,0.0,369.140625,805.17578125,808.10546875,0.0
1734589358.0358732,0.0,-841.30859375,-656.25,-568.84765625,0.0
1734589358.039779,0.0,-819.3359375,-916.50390625,-1000.0,0.0
1734589358.043685,0.0,578.125,567.3828125,239.74609375,0.0
1734589358.0475907,0.0,-861.81640625,-892.08984375,-871.58203125,0.0
1734589358.0514965,0.0,621.09375,815.91796875,807.6171875,0.0
1734589358.0554023,0.0,-815.91796875,-580.078125,-545.41015625,0.0
1734589358.059308,0.0,-944.82421875,-1000.0,-1000.0,0.0
1734589358.063214,0.0,559.08203125,254.8828125,-182.12890625,0.0
1734589358.0671198,0.0,-856.4453125,-881.34765625,-982.421875,0.0
1734589358.0710256,0.0,723.14453125,860.83984375,926.26953125,0.0
1734589358.0749314,0.0,-729.00390625,-450.1953125,-393.5546875,0.0
1734589358.0788534,-1000.0,-1000.0,-1000.0,-1000.0,0.0
1734589358.0827591,486.328125,442.87109375,-48.828125,-553.22265625,0.0
1734589358.086665,-868.1640625,-886.71875,-964.35546875,836.42578125,0.0
1734589358.0905707,806.15234375,880.859375,965.33203125,-931.640625,0.0
1734589358.0944765,-576.66015625,-467.28515625,-327.1484375,-233.3984375,0.0
1734589358.0983822,-1000.0,-1000.0,-1000.0,-1000.0,0.0
1734589358.1022882,359.375,362.79296875,-125.0,-699.21875,0.0
1734589358.106194,-926.7578125,-925.78125,972.16796875,675.78125,0.0
1734589358.1100998,962.40234375,962.40234375,-967.28515625,-847.65625,0.0
1734589358.1140056,-284.1796875,-250.0,79.58984375,109.86328125,0.0
1734589358.1179113,-1000.0,-1000.0,-1000.0,-1000.0,0.0
1734589358.1218174,84.47265625,40.0390625,-419.43359375,-798.33984375,0.0
1734589358.125707,-948.73046875,-970.703125,868.1640625,597.65625,0.0
1734589358.1296127,960.44921875,997.55859375,-918.9453125,-826.171875,0.0
1734589358.1335185,-50.29296875,72.265625,540.0390625,472.16796875,0.0
1734589358.1374242,-1000.0,-1000.0,-949.21875,-962.40234375,0.0
1734589358.1413302,-377.44140625,-381.34765625,-852.5390625,-914.0625,0.0
1734589358.145236,922.8515625,914.0625,644.53125,545.8984375,0.0
1734589358.1491418,-998.53515625,-961.9140625,-874.51171875,-839.35546875,0.0
1734589358.1530476,216.30859375,358.88671875,628.41796875,645.99609375,0.0
1734589358.1569533,-1000.0,-1000.0,-840.8203125,-853.02734375,0.0
1734589358.160859,-699.21875,-710.9375,-940.4296875,-949.21875,0.0
1734589358.1647651,795.8984375,799.8046875,575.68359375,567.87109375,0.0
1734589358.168671,-945.3125,-929.19921875,-861.81640625,-870.1171875,0.0
1734589358.1725492,348.14453125,351.5625,726.07421875,770.01953125,0.0
1734589358.1764553,-922.36328125,-919.43359375,-757.8125,-666.50390625,0.0
1734589358.180361,-873.53515625,-900.390625,-1000.0,-1000.0,0.0
1734589358.1842668,658.69140625,596.19140625,514.16015625,370.1171875,0.0
1734589358.1881726,-906.25,-884.27734375,-870.60546875,-862.3046875,0.0
1734589358.1920784,386.23046875,524.4140625,789.55078125,815.4296875,0.0
1734589358.1959841,-839.84375,-794.921875,-622.55859375,-572.265625,0.0
1734589358.1998901,-931.15234375,-941.89453125,-1000.0,-1000.0,0.0
1734589358.203796,557.12890625,560.546875,293.9453125,205.56640625,0.0
1734589358.2077017,-866.2109375,-877.44140625,-872.0703125,-856.93359375,0.0
1734589358.2116075,569.82421875,782.71484375,825.68359375,806.15234375,0.0
1734589358.2155132,-782.2265625,-675.78125,-594.23828125,-551.7578125,0.0
1734589358.2195616,-942.87109375,-981.4453125,-1000.0,-1000.0,0.0
1734589358.2234674,552.734375,575.1953125,312.98828125,-80.56640625,0.0
1734589358.2273731,-849.609375,-872.0703125,-875.0,-939.94140625,0.0
1734589358.231279,688.4765625,777.83203125,845.703125,876.46484375,0.0
1734589358.235185,-764.16015625,-665.52734375,-456.54296875,-452.1484375,0.0
1734589358.2390907,-1000.0,-1000.0,-1000.0,-1000.0,0.0
1734589358.2429965,486.81640625,446.2890625,-107.91015625,-557.6171875,0.0
1734589358.2469022,-873.046875,-883.7890625,-975.5859375,846.6796875,0.0
1734589358.250808,812.98828125,865.234375,950.68359375,-957.03125,0.0
1734589358.2547138,-578.125,-498.53515625,-352.05078125,-308.10546875,0.0
1734589358.2586198,-1000.0,-1000.0,-1000.0,-1000.0,0.0
1734589358.2625256,325.68359375,292.48046875,-325.68359375,-702.1484375,0.0
1734589358.2663584,-909.66796875,-909.66796875,901.85546875,683.10546875,0.0
1734589358.2702641,950.68359375,955.56640625,-945.3125,-857.421875,0.0
1734589358.2741702,-276.3671875,-260.7421875,1.953125,-29.78515625,0.0
1734589358.278076,-1000.0,-1000.0,-1000.0,-1000.0,0.0
1734589358.2819817,35.15625,-18.06640625,-685.05859375,-842.28515625,0.0
1734589358.2858875,-958.984375,-980.95703125,659.66796875,510.25390625,0.0
1734589358.2897933,966.796875,997.0703125,-862.3046875,-809.5703125,0.0
1734589358.293699,-53.7109375,-7.8125,497.0703125,430.17578125,0.0
1734589358.297605,-1000.0,-1000.0,-949.21875,-981.4453125,0.0
1734589358.3015108,-377.44140625,-374.0234375,-878.41796875,-906.73828125,0.0
1734589358.3054166,922.8515625,906.73828125,607.91015625,542.48046875,0.0
1734589358.3093224,-997.55859375,-951.171875,-866.2109375,-836.9140625,0.0
1734589358.3131242,217.7734375,317.87109375,621.09375,639.6484375,0.0
1734589358.31703,-1000.0,-1000.0,-848.14453125,-858.88671875,0.0
1734589358.3209357,-632.8125,-700.1953125,-936.03515625,-947.75390625,0.0
1734589358.3248415,854.4921875,793.45703125,579.58984375,566.89453125,0.0
1734589358.3287473,-975.5859375,-924.31640625,-862.79296875,-868.65234375,0.0
1734589358.332653,318.84765625,360.3515625,715.33203125,765.13671875,0.0
1734589358.336559,-922.36328125,-932.6171875,-777.83203125,-681.640625,0.0
1734589358.3404648,-870.1171875,-881.8359375,-975.5859375,-1000.0,0.0
1734589358.3443706,653.3203125,603.02734375,559.5703125,399.90234375,0.0
1734589358.3482764,-898.92578125,-881.34765625,-875.48828125,-863.28125,0.0
1734589358.3521821,392.578125,648.92578125,791.9921875,814.453125,0.0
1734589358.3560882,-856.4453125,-762.20703125,-644.04296875,-570.80078125,0.0
1734589358.3598647,-932.6171875,-963.8671875,-1000.0,-1000.0,0.0
1734589358.3637707,561.5234375,572.265625,396.97265625,205.56640625,0.0
1734589358.3676765,-868.65234375,-874.51171875,-865.234375,-855.95703125,0.0
1734589358.3715823,522.94921875,705.56640625,798.33984375,799.8046875,0.0
1734589358.375488,-798.33984375,-721.6796875,-584.9609375,-542.48046875,0.0
1734589358.3793938,-936.03515625,-966.30859375,-1000.0,-1000.0,0.0
1734589358.3832996,548.33984375,566.89453125,158.69140625,-187.98828125,0.0
1734589358.3872056,-840.8203125,-863.76953125,-890.625,-968.75,0.0
1734589358.3911114,641.6015625,747.0703125,857.91015625,890.13671875,0.0
1734589358.3950171,-799.8046875,-710.9375,-482.91015625,-462.40234375,0.0
1734589358.398923,-1000.0,-1000.0,-1000.0,-1000.0,0.0
1734589358.4028287,480.46875,487.3046875,-24.4140625,-557.6171875,0.0
1734589358.4065924,0.0,-884.765625,-948.2421875,846.19140625,0.0
1734589358.4104984,0.0,857.91015625,930.17578125,-957.03125,0.0
1734589358.4144042,0.0,-517.578125,-362.79296875,-308.10546875,0.0
1734589358.41831,0.0,-1000.0,-1000.0,-1000.0,0.0
1734589358.4222157,0.0,316.40625,-318.84765625,-702.1484375,0.0
1734589358.4261215,0.0,-908.203125,910.64453125,683.10546875,0.0
1734589358.4300272,0.0,953.61328125,-950.68359375,-858.3984375,0.0
1734589358.4339333,0.0,-286.1328125,-81.54296875,-23.4375,0.0
1734589358.437839,0.0,-1000.0,-1000.0,-1000.0,0.0
1734589358.4417448,0.0,83.49609375,-380.859375,-781.73828125,0.0
1734589358.4456506,0.0,-948.73046875,868.65234375,595.703125,0.0
1734589358.4495564,0.0,968.26171875,-916.015625,-822.265625,0.0
1734589358.45388,-234.375,-63.4765625,445.3125,361.81640625,0.0
1734589358.4577858,-1000.0,-1000.0,-978.02734375,-1000.0,0.0
1734589358.4616916,-268.5546875,-374.51171875,-897.4609375,-894.53125,0.0
1734589358.4655974,974.12109375,920.8984375,565.4296875,536.62109375,0.0
1734589358.4695034,931.15234375,-987.3046875,-855.46875,-833.984375,0.0
1734589358.4734092,-48.828125,194.3359375,588.8671875,632.32421875,0.0
1734589358.477315,-1000.0,-1000.0,-869.140625,-865.72265625,0.0
1734589358.4812207,-583.984375,-667.48046875,-937.01171875,-951.171875,0.0
1734589358.4851265,836.42578125,781.25,582.03125,572.75390625,0.0
1734589358.4890323,-944.3359375,-900.390625,-863.28125,-873.046875,0.0
1734589358.4929383,320.3125,481.93359375,600.09765625,673.33984375,0.0
1734589358.496844,-993.65234375,-934.08203125,-828.125,-733.88671875,0.0
1734589358.500736,-793.9453125,-848.6328125,-947.265625,-1000.0,0.0
1734589358.5046418,735.3515625,666.015625,565.4296875,484.86328125,0.0
1734589358.5085475,-921.875,-890.13671875,-872.0703125,-867.67578125,0.0
1734589358.5124533,291.50390625,623.046875,784.66796875,812.5,0.0
1734589358.516359,-903.3203125,-781.25,-647.4609375,-567.3828125,0.0
1734589358.5202649,-925.29296875,-964.35546875,-1000.0,-1000.0,0.0
1734589358.5241709,565.91796875,575.1953125,375.9765625,205.56640625,0.0
1734589358.5280766,-879.39453125,-869.62890625,-865.234375,-857.91015625,0.0
1734589358.5319824,413.0859375,569.3359375,801.26953125,811.5234375,0.0
1734589358.5358882,-820.3125,-787.59765625,-621.58203125,-559.5703125,0.0
1734589358.539794,-922.36328125,-942.87109375,-1000.0,-1000.0,0.0
1734589358.5437,543.9453125,558.10546875,314.453125,11.71875,0.0
1734589358.5475686,-851.07421875,-865.72265625,-872.55859375,-914.0625,0.0
1734589358.5514743,682.6171875,758.30078125,841.30859375,870.60546875,0.0
1734589358.55538,-769.53125,-709.47265625,-524.90234375,-456.0546875,0.0
1734589358.559286,-957.03125,-998.046875,-1000.0,-1000.0,0.0
1734589358.563192,562.5,547.8515625,191.89453125,-368.65234375,0.0
1734589358.5670977,-856.4453125,-887.6953125,-898.4375,931.640625,0.0
1734589358.5710034,723.14453125,846.19140625,904.78515625,-995.1171875,0.0
1734589358.5749092,-726.5625,-558.10546875,-398.4375,-301.7578125,0.0
1734589358.578815,-1000.0,-1000.0,-1000.0,-1000.0,0.0
1734589358.582721,412.109375,391.6015625,-2.9296875,-626.953125,0.0
1734589358.5866268,-900.87890625,-905.2734375,-968.26171875,755.859375,0.0
1734589358.5905325,918.45703125,937.5,982.421875,-879.39453125,0.0
1734589358.594375,-389.6484375,-328.61328125,-174.31640625,-45.41015625,0.0
1734589358.5982807,-1000.0,-1000.0,-1000.0,-1000.0,0.0
1734589358.6021864,229.98046875,146.484375,-358.88671875,-783.203125,0.0
1734589358.6060925,-910.64453125,-922.36328125,868.65234375,599.609375,0.0
1734589358.6099982,947.75390625,934.5703125,-919.921875,-824.70703125,0.0
1734589358.613904,-215.8203125,-174.31640625,394.04296875,273.92578125,0.0
1734589358.6178098,-1000.0,-1000.0,-1000.0,-1000.0,0.0
1734589358.6217155,-166.50390625,-239.74609375,-783.69140625,-881.8359375,0.0
1734589358.6256216,991.69921875,961.42578125,673.828125,528.3203125,0.0
1734589358.6295273,954.1015625,994.62890625,-872.0703125,-820.80078125,0.0
1734589358.633433,45.8984375,149.90234375,572.265625,563.4765625,0.0
1734589358.6373389,-1000.0,-1000.0,-885.7421875,-918.45703125,0.0
1734589358.6411536,-585.44921875,-647.94921875,-936.03515625,-930.6640625,0.0
1734589358.6450596,840.8203125,785.64453125,562.5,560.546875,0.0
1734589358.6489654,-958.984375,-908.69140625,-857.91015625,-868.1640625,0.0
1734589358.6528711,380.859375,484.375,677.734375,765.625,0.0
1734589358.656777,-958.0078125,-933.10546875,-811.03515625,-707.03125,0.0
1734589358.6606827,-807.6171875,-847.16796875,-958.984375,-1000.0,0.0
1734589358.6645885,742.1875,674.31640625,571.2890625,490.234375,0.0
1734589358.6684945,-929.6875,-892.08984375,-876.953125,-874.51171875,0.0
1734589358.6724002,313.96484375,576.66015625,790.0390625,823.73046875,0.0
1734589358.676306,-887.6953125,-809.5703125,-698.73046875,-591.30859375,0.0
1734589358.6802118,-931.640625,-960.44921875,-983.3984375,-1000.0,0.0
1734589358.6841176,571.2890625,577.1484375,576.171875,347.16796875,0.0
1734589358.6881168,-889.6484375,-872.0703125,-881.34765625,-858.88671875,0.0
1734589358.6920226,431.640625,497.0703125,809.08203125,810.05859375,0.0
1734589358.6959286,-793.9453125,-812.98828125,-642.08984375,-562.98828125,0.0
1734589358.6998343,-928.22265625,-931.15234375,-1000.0,-1000.0,0.0
1734589358.7037401,545.41015625,551.26953125,472.65625,107.421875,0.0
1734589358.707646,-851.5625,-858.3984375,-876.953125,-884.765625,0.0
1734589358.7115517,683.10546875,729.98046875,828.125,837.40234375,0.0
1734589358.7154574,-769.53125,-743.1640625,-558.10546875,-510.7421875,0.0
1734589358.7193635,-957.03125,-968.75,-1000.0,-1000.0,0.0
1734589358.7232692,560.05859375,574.21875,290.52734375,-179.19921875,0.0
1734589358.727175,-851.5625,-877.44140625,-886.71875,-992.1875,0.0
1734589358.7310808,701.66015625,795.8984375,893.06640625,967.28515625,0.0
1734589358.734852,-776.3671875,-633.7890625,-426.7578125,-397.4609375,0.0
1734589358.7387578,-1000.0,-1000.0,-1000.0,-1000.0,0.0
1734589358.7426636,502.44140625,423.33984375,142.578125,-146.97265625,0.0
1734589358.7465694,-908.203125,-903.3203125,-929.6875,936.03515625,0.0
1734589358.7504754,915.0390625,929.19921875,963.37890625,-977.5390625,0.0
1734589358.7543812,-415.52734375,-368.1640625,-216.796875,-179.19921875,0.0
1734589358.758287,-1000.0,-1000.0,-1000.0,-1000.0,0.0
1734589358.7621927,333.49609375,228.515625,-191.40625,-696.77734375,0.0
1734589358.7660985,-921.38671875,-889.6484375,947.265625,671.38671875,0.0
1734589358.7700043,985.3515625,895.99609375,-953.61328125,-841.30859375,0.0
1734589358.7739103,-176.7578125,-310.05859375,210.9375,169.43359375,0.0
1734589358.777816,-1000.0,-1000.0,-1000.0,-1000.0,0.0
1734589358.7817657,32.71484375,-157.2265625,-590.33203125,-865.234375,0.0
1734589358.7856715,-951.66015625,-999.0234375,797.8515625,519.53125,0.0
1734589358.7895775,925.78125,938.96484375,-902.34375,-815.91796875,0.0
1734589358.7934833,60.546875,0.0,565.4296875,549.31640625,0.0
1734589358.797389,-1000.0,-1000.0,-895.5078125,-929.19921875,0.0
1734589358.8012948,-590.33203125,-604.98046875,-934.5703125,-927.24609375,0.0
1734589358.8052006,852.5390625,816.89453125,562.01171875,555.17578125,0.0
1734589358.8091063,-989.74609375,-934.08203125,-859.375,-853.02734375,0.0
1734589358.8130124,323.2421875,366.2109375,657.2265625,704.1015625,0.0
1734589358.8169181,-959.9609375,-977.5390625,-820.3125,-781.73828125,0.0
1734589358.820824,-771.97265625,-809.08203125,-956.0546875,-1000.0,0.0
1734589358.8247297,795.41015625,750.9765625,568.84765625,513.18359375,0.0
1734589358.828651,-974.12109375,-932.12890625,-874.0234375,-879.39453125,0.0
1734589358.8325567,221.6796875,132.8125,778.80859375,828.61328125,0.0
1734589358.8364625,-905.76171875,-956.54296875,-712.890625,-600.09765625,0.0
1734589358.8403683,-884.765625,-900.390625,-980.95703125,-1000.0,0.0
1734589358.8442743,644.53125,552.24609375,575.68359375,401.85546875,0.0
1734589358.84818,992.1875,-881.8359375,-874.51171875,-859.375,0.0
1734589358.8520858,208.0078125,388.671875,785.15625,801.26953125,0.0
1734589358.8559916,-835.44921875,-845.21484375,-598.14453125,-549.8046875,0.0
1734589358.8598974,-917.96875,-917.48046875,-1000.0,-1000.0,0.0
1734589358.8638031,542.96875,544.921875,179.19921875,4.39453125,0.0
1734589358.8677092,-844.7265625,-857.421875,-881.34765625,-895.5078125,0.0
1734589358.871615,493.1640625,716.30859375,823.2421875,814.453125,0.0
1734589358.8755162,-852.5390625,-744.140625,-551.7578125,-543.9453125,0.0
1734589358.879422,-929.6875,-970.21484375,-1000.0,-1000.0,0.0
1734589358.883328,548.33984375,572.75390625,33.203125,-369.62890625,0.0
1734589358.8872337,-833.0078125,-859.86328125,-927.24609375,942.87109375,0.0
1734589358.8911395,524.90234375,628.90625,795.41015625,869.62890625,0.0
1734589358.8950453,-881.34765625,-751.46484375,-480.46875,-419.43359375,0.0
1734589358.898951,-988.76953125,-1000.0,-1000.0,-1000.0,0.0
1734589358.902857,479.00390625,403.80859375,-78.125,-609.86328125,0.0
1734589358.9067628,-878.41796875,-894.53125,-974.12109375,797.8515625,0.0
1734589358.9106686,830.56640625,910.64453125,973.6328125,-912.109375,0.0
1734589358.9145744,-544.43359375,-402.34375,-271.484375,-212.40234375,0.0
1734589358.9184802,-1000.0,-1000.0,-1000.0,-1000.0,0.0
1734589358.9225454,327.1484375,229.98046875,-337.890625,-696.77734375,0.0
1734589358.9264512,-912.59765625,-908.69140625,883.30078125,671.38671875,0.0
1734589358.9303572,959.9609375,946.2890625,-926.26953125,-841.30859375,0.0
1734589358.934263,-251.46484375,-225.5859375,201.171875,169.43359375,0.0
1734589358.9381688,-1000.0,-1000.0,-1000.0,-1000.0,0.0
1734589358.9420745,26.3671875,-156.25,-757.8125,-865.234375,0.0
1734589358.9459803,-940.4296875,-993.65234375,638.671875,519.53125,0.0
1734589358.949886,918.9453125,937.01171875,-861.81640625,-815.91796875,0.0
1734589358.953792,-135.25390625,-29.78515625,533.69140625,549.31640625,0.0
1734589358.9576979,-1000.0,-1000.0,-926.26953125,-929.19921875,0.0
1734589358.9616036,-385.25390625,-498.046875,-882.32421875,-927.734375,0.0
1734589358.9655094,936.5234375,881.34765625,616.69921875,553.7109375,0.0
1734589358.9693553,967.28515625,-974.609375,-869.62890625,-848.6328125,0.0
1734589358.9732614,116.69921875,285.64453125,640.625,681.640625,0.0
1734589358.9771671,-1000.0,-996.09375,-829.58984375,-820.3125,0.0
1734589358.981073,-704.1015625,-796.38671875,-953.125,-958.0078125,0.0
1734589358.9849787,807.12890625,764.6484375,566.40625,574.21875,0.0
1734589358.9888844,-961.9140625,-942.3828125,-869.140625,-881.8359375,0.0
1734589358.9927905,148.92578125,-1.953125,761.71875,811.03515625,0.0
1734589358.9966962,-977.05078125,-1000.0,-733.3984375,-621.58203125,0.0
1734589359.000602,-853.515625,-875.9765625,-976.5625,-1000.0,0.0
1734589359.0045078,652.34375,563.4765625,575.68359375,401.3671875,0.0
1734589359.0084136,-898.92578125,-864.2578125,-875.9765625,-859.375,0.0
1734589359.0123193,196.77734375,230.46875,790.52734375,801.26953125,0.0
1734589359.0161455,-922.8515625,-935.05859375,-625.9765625,-549.8046875,0.0
1734589359.0200512,-900.87890625,-894.04296875,-1000.0,-1000.0,0.0
1734589359.023957,541.9921875,531.73828125,321.77734375,4.39453125,0.0
1734589359.0278628,-847.16796875,-827.1484375,-871.09375,-896.97265625,0.0
1734589359.0317686,446.2890625,488.76953125,814.94140625,824.21875,0.0
1734589359.0356743,-869.140625,-907.71484375,-608.3984375,-556.640625,0.0
1734589359.0395803,-917.48046875,-919.43359375,-1000.0,-1000.0,0.0
1734589359.043486,537.59765625,545.41015625,330.078125,-184.08203125,0.0
1734589359.047392,-824.70703125,-837.890625,-880.37109375,-983.3984375,0.0
1734589359.0512977,590.33203125,650.390625,864.74609375,940.4296875,0.0
1734589359.0552034,-873.53515625,-824.21875,-482.91015625,-460.44921875,0.0
1734589359.0591094,-996.58203125,-1000.0,-1000.0,-1000.0,0.0
1734589359.0629036,481.93359375,494.140625,221.19140625,-103.02734375,0.0
1734589359.0668094,-874.0234375,-893.06640625,-905.2734375,962.890625,0.0
1734589359.0707152,812.01171875,872.0703125,937.01171875,-999.0234375,0.0
1734589359.074621,-579.1015625,-483.3984375,-316.89453125,-295.8984375,0.0
1734589359.0785267,-1000.0,-1000.0,-1000.0,-1000.0,0.0
1734589359.0824325,325.68359375,317.87109375,-32.2265625,-325.1953125,0.0
1734589359.0863385,-909.66796875,-885.25390625,-992.1875,841.30859375,0.0
1734589359.0902443,956.54296875,893.5546875,-984.86328125,-914.0625,0.0
1734589359.09415,-282.71484375,-381.8359375,1.46484375,-8.30078125,0.0
1734589359.0980558,-1000.0,-1000.0,-1000.0,-1000.0,0.0
1734589359.1019616,128.90625,125.9765625,-331.0546875,-745.60546875,0.0
1734589359.1058676,-911.1328125,-902.34375,890.13671875,547.36328125,0.0
1734589359.1096494,913.57421875,872.0703125,-934.08203125,-824.21875,0.0
1734589359.1135552,-116.69921875,-112.79296875,513.18359375,367.67578125,0.0
1734589359.117461,-1000.0,-1000.0,-942.3828125,-1000.0,0.0
1734589359.121367,-388.18359375,-510.25390625,-913.57421875,-894.53125,0.0
1734589359.1252728,949.70703125,899.90234375,570.3125,536.62109375,0.0
1734589359.1291785,921.875,975.5859375,-863.76953125,-833.984375,0.0
1734589359.1330843,61.5234375,43.45703125,605.95703125,632.32421875,0.0
1734589359.13699,-1000.0,-1000.0,-848.14453125,-865.72265625,0.0
1734589359.1408958,-714.35546875,-711.42578125,-936.03515625,-945.80078125,0.0
1734589359.1448019,824.21875,819.82421875,577.63671875,566.40625,0.0
1734589359.1487076,996.58203125,-966.30859375,-862.3046875,-868.65234375,0.0
1734589359.1526134,52.24609375,-144.53125,718.75,765.13671875,0.0
1734589359.1563606,-970.703125,-1000.0,-778.3203125,-681.640625,0.0
1734589359.1602666,-862.79296875,-818.359375,-969.7265625,-1000.0,0.0
1734589359.1641724,668.9453125,621.58203125,567.3828125,399.90234375,0.0
1734589359.1680782,-927.734375,-880.37109375,-877.9296875,-863.28125,0.0
1734589359.171984,-1.46484375,72.75390625,796.38671875,814.453125,0.0
1734589359.1758897,-961.42578125,-1000.0,-651.85546875,-570.80078125,0.0
1734589359.1797955,-884.27734375,-873.046875,-1000.0,-1000.0,0.0
1734589359.1837015,541.50390625,526.85546875,443.359375,205.56640625,0.0
1734589359.1876073,-864.74609375,-836.9140625,-866.69921875,-855.95703125,0.0
1734589359.191513,374.0234375,498.046875,796.38671875,799.8046875,0.0
1734589359.1954188,-850.09765625,-870.1171875,-586.9140625,-542.96875,0.0
1734589359.1993246,-913.0859375,-923.828125,-1000.0,-1000.0,0.0
1734589359.2032518,536.1328125,543.9453125,180.17578125,-187.5,0.0
1734589359.2071576,-832.51953125,-830.078125,-889.6484375,-969.23828125,0.0
1734589359.2110634,608.88671875,618.65234375,863.28125,894.04296875,0.0
1734589359.2149692,-842.28515625,-851.5625,-510.25390625,-465.8203125,0.0
1734589359.218875,-959.47265625,-1000.0,-1000.0,-1000.0,0.0
1734589359.2227807,537.109375,483.3984375,193.84765625,-477.05078125,0.0
1734589359.2266867,-862.3046875,-868.65234375,-901.85546875,881.34765625,0.0
1734589359.2305925,742.67578125,792.48046875,914.0625,-971.19140625,0.0
1734589359.2344983,-654.296875,-599.609375,-355.95703125,-301.7578125,0.0
1734589359.238404,-1000.0,-1000.0,-1000.0,-1000.0,0.0
1734589359.2423098,327.63671875,316.89453125,-118.1640625,-695.80078125,0.0
1734589359.2462156,-913.0859375,-889.6484375,991.2109375,688.4765625,0.0
1734589359.25011,964.35546875,896.484375,-987.3046875,-859.86328125,0.0
1734589359.2540157,-296.875,-374.51171875,-91.796875,-23.4375,0.0
1734589359.2579215,-1000.0,-1000.0,-1000.0,-1000.0,0.0
1734589359.2618275,236.328125,36.1328125,-353.02734375,-781.73828125,0.0
1734589359.2657332,-918.9453125,-933.59375,877.9296875,596.19140625,0.0
1734589359.269639,952.1484375,899.4140625,-925.29296875,-822.265625,0.0
1734589359.2735448,-52.24609375,-185.05859375,486.328125,361.328125,0.0
1734589359.2774506,-1000.0,-1000.0,-984.375,-1000.0,0.0
1734589359.2813563,-200.1953125,-389.6484375,-808.59375,-894.53125,0.0
1734589359.2852623,-973.14453125,972.16796875,684.5703125,536.62109375,0.0
1734589359.2891681,892.578125,914.0625,-890.13671875,-833.984375,0.0
1734589359.293074,-42.96875,-202.1484375,563.4765625,632.32421875,0.0
1734589359.296958,-1000.0,-1000.0,-862.3046875,-865.72265625,0.0
1734589359.3008637,-644.04296875,-677.734375,-935.546875,-945.80078125,0.0
1734589359.3047695,828.125,802.24609375,568.359375,566.40625,0.0
1734589359.3086753,-987.79296875,-971.19140625,-862.79296875,-871.09375,0.0
1734589359.312581,212.40234375,-76.66015625,702.63671875,772.94921875,0.0
1734589359.316487,-965.33203125,-1000.0,-788.0859375,-699.70703125,0.0
1734589359.3203928,-802.24609375,-821.77734375,-964.35546875,-1000.0,0.0
1734589359.3242986,746.09375,649.90234375,573.73046875,493.1640625,0.0
1734589359.3282044,-940.91796875,-896.484375,-875.9765625,-870.60546875,0.0
1734589359.3321102,149.90234375,38.0859375,789.0625,812.5,0.0
1734589359.336016,-921.38671875,-997.0703125,-655.76171875,-567.3828125,0.0
1734589359.3399217,-907.71484375,-876.953125,-1000.0,-1000.0,0.0
1734589359.3437657,553.7109375,531.25,423.828125,205.56640625,0.0
1734589359.3476715,-869.62890625,-833.984375,-861.81640625,-855.46875,0.0
1734589359.3515773,374.0234375,350.5859375,777.83203125,799.8046875,0.0
1734589359.355483,-850.09765625,-939.94140625,-615.234375,-542.96875,0.0
1734589359.3593888,-913.57421875,-899.4140625,-1000.0,-1000.0,0.0
1734589359.3632946,536.1328125,531.73828125,183.59375,-187.98828125,0.0
1734589359.3672006,-833.49609375,-821.77734375,-880.859375,-969.7265625,0.0
1734589359.3711064,612.3046875,581.54296875,835.9375,898.92578125,0.0
1734589359.3750122,-846.19140625,-884.765625,-548.33984375,-470.703125,0.0
1734589359.378918,-940.91796875,-983.88671875,-1000.0,-1000.0,0.0
1734589359.3828237,556.640625,491.69921875,167.96875,-367.67578125,0.0
1734589359.3867295,-849.609375,-860.3515625,-901.85546875,929.6875,0.0
1734589359.3909588,693.84765625,760.25390625,901.85546875,-989.74609375,0.0
1734589359.3948646,-758.30078125,-647.4609375,-384.765625,-289.55078125,0.0
1734589359.3987703,-1000.0,-1000.0,-1000.0,-1000.0,0.0
1734589359.4026763,416.9921875,336.9140625,-125.0,-626.46484375,0.0
1734589359.406582,-903.3203125,-895.01953125,990.72265625,756.34765625,0.0
1734589359.410488,818.84765625,804.6875,948.2421875,-894.53125,0.0
1734589359.4143937,-423.33984375,-403.3203125,-158.203125,-53.22265625,0.0
1734589359.4182994,-1000.0,-1000.0,-1000.0,-1000.0,0.0
1734589359.4222052,225.5859375,48.33984375,-484.375,-782.2265625,0.0
1734589359.4261112,-901.85546875,-907.2265625,820.80078125,597.65625,0.0
1734589359.430017,823.73046875,808.59375,-925.29296875,-823.73046875,0.0
1734589359.4339228,-287.59765625,-366.69921875,289.55078125,308.59375,0.0
1734589359.4377105,-1000.0,-1000.0,-1000.0,-1000.0,0.0
1734589359.4416163,-182.6171875,-342.7734375,-865.72265625,-887.20703125,0.0
1734589359.445522,-989.2578125,964.35546875,574.21875,531.25,0.0
1734589359.4494278,912.109375,921.875,-858.3984375,-822.75390625,0.0
1734589359.4533336,-50.78125,-103.515625,563.4765625,571.77734375,0.0
1734589359.4572396,-1000.0,-1000.0,-885.25390625,-912.109375,0.0
1734589359.4611454,-595.703125,-619.140625,-915.52734375,-932.6171875,0.0
1734589359.4650512,860.3515625,856.4453125,591.796875,559.5703125,0.0
1734589359.468957,-996.09375,-997.0703125,-865.72265625,-864.2578125,0.0
1734589359.4728627,163.0859375,46.38671875,682.6171875,748.046875,0.0
1734589359.4767685,-997.0703125,-1000.0,-802.24609375,-752.9296875,0.0
1734589359.4806745,-792.96875,-780.2734375,-960.9375,-973.14453125,0.0
1734589359.4844518,740.234375,733.88671875,571.77734375,579.58984375,0.0
1734589359.4883575,-933.59375,-920.8984375,-877.44140625,-887.6953125,0.0
1734589359.4922633,116.69921875,13.671875,791.50390625,831.0546875,0.0
1734589359.496169,-956.0546875,-1000.0,-697.265625,-604.4921875,0.0
1734589359.5000749,-900.390625,-876.953125,-982.421875,-1000.0,0.0
1734589359.5039809,552.24609375,533.69140625,578.61328125,430.17578125,0.0
1734589359.5078866,-869.62890625,-841.30859375,-879.39453125,-862.79296875,0.0
1734589359.5117924,374.0234375,332.03125,800.78125,801.26953125,0.0
1734589359.5156982,-849.609375,-929.19921875,-657.71484375,-549.31640625,0.0
1734589359.519604,-921.875,-898.92578125,-1000.0,-1000.0,0.0
1734589359.5235097,544.43359375,529.296875,494.140625,4.39453125,0.0
1734589359.5274158,-830.078125,-816.40625,-871.09375,-895.99609375,0.0
1734589359.531364,422.36328125,551.7578125,800.78125,813.96484375,0.0
1734589359.5352697,-929.19921875,-914.0625,-558.10546875,-544.43359375,0.0
1734589359.5391755,-908.203125,-954.1015625,-1000.0,-1000.0,0.0
1734589359.5430813,538.0859375,515.13671875,141.11328125,-375.9765625,0.0
1734589359.546987,-829.1015625,-842.7734375,-900.390625,944.82421875,0.0
1734589359.5508928,617.1875,683.10546875,884.27734375,968.75,0.0
1734589359.5547988,-829.1015625,-767.578125,-441.40625,-386.23046875,0.0
1734589359.5587046,-1000.0,-1000.0,-1000.0,-1000.0,0.0
1734589359.5626104,399.4140625,396.484375,4.39453125,-634.765625,0.0
1734589359.5665162,-882.8125,-886.71875,-961.9140625,768.06640625,0.0
1734589359.570422,854.98046875,879.39453125,982.421875,-884.765625,0.0
1734589359.5743277,-472.65625,-451.66015625,-237.79296875,-236.81640625,0.0
1734589359.5782604,-1000.0,-1000.0,-1000.0,-1000.0,0.0
1734589359.5821662,225.09765625,221.19140625,-185.05859375,-262.6953125,0.0
1734589359.586072,-904.296875,-887.20703125,938.4765625,849.12109375,0.0
1734589359.589978,926.26953125,876.953125,-949.70703125,-905.76171875,0.0
1734589359.5938838,-257.8125,-313.4765625,326.171875,211.42578125,0.0
1734589359.5977895,-1000.0,-1000.0,-1000.0,-1000.0,0.0
1734589359.6016953,-126.953125,-188.4765625,-570.80078125,-381.34765625,0.0
1734589359.605601,-978.515625,-971.6796875,838.37890625,896.484375,0.0
1734589359.6095068,907.2265625,875.0,-919.43359375,-915.52734375,0.0
1734589359.6134129,-48.828125,-199.21875,555.6640625,593.26171875,0.0
1734589359.6173186,-1000.0,-1000.0,-912.59765625,-971.19140625,0.0
1734589359.6212244,-563.96484375,-599.609375,-872.0703125,-781.25,0.0
1734589359.6253307,892.08984375,875.0,639.6484375,725.5859375,0.0
1734589359.6292367,962.40234375,993.65234375,-874.51171875,-879.8828125,0.0
1734589359.6331425,83.0078125,-163.0859375,634.765625,702.1484375,0.0
1734589359.6370482,-987.3046875,-1000.0,-816.40625,-772.94921875,0.0
1734589359.640954,-699.70703125,-656.73828125,-855.46875,-920.8984375,0.0
1734589359.6448598,786.62109375,760.7421875,601.07421875,522.94921875,0.0
1734589359.6487656,-978.02734375,-930.17578125,-885.7421875,-890.13671875,0.0
1734589359.6526716,3.90625,-191.89453125,770.01953125,828.61328125,0.0
1734589359.6565773,-979.98046875,-1000.0,-722.16796875,-586.42578125,0.0
1734589359.6604831,-900.390625,-846.6796875,-999.51171875,-1000.0,0.0
1734589359.664389,562.5,528.3203125,533.69140625,305.17578125,0.0
1734589359.6682947,-888.671875,-849.12109375,-873.046875,-855.95703125,0.0
1734589359.6721635,194.82421875,249.0234375,791.50390625,805.17578125,0.0
1734589359.6760693,-889.6484375,-943.84765625,-624.0234375,-554.19921875,0.0
1734589359.679975,-897.94921875,-889.6484375,-1000.0,-1000.0,0.0
1734589359.6838808,534.1796875,526.3671875,320.3125,4.39453125,0.0
1734589359.6877866,-835.9375,-819.3359375,-867.1875,-895.5078125,0.0
1734589359.6916926,462.40234375,533.69140625,813.96484375,814.453125,0.0
1734589359.6955984,-886.23046875,-916.50390625,-572.265625,-543.9453125,0.0
1734589359.6995041,-917.48046875,-925.78125,-1000.0,-1000.0,0.0
1734589359.70341,540.52734375,551.7578125,202.63671875,-375.9765625,0.0
1734589359.7073157,-831.0546875,-844.23828125,-888.671875,944.82421875,0.0
1734589359.7112215,623.53515625,672.8515625,876.953125,969.23828125,0.0
1734589359.7151275,-844.7265625,-778.3203125,-456.0546875,-385.25390625,0.0
1734589359.7189822,-1000.0,-1000.0,-1000.0,-1000.0,0.0
1734589359.722888,479.00390625,399.90234375,94.7265625,-591.30859375,0.0
1734589359.7267938,-888.671875,-875.0,-932.6171875,803.22265625,0.0
1734589359.7306995,853.02734375,841.30859375,954.1015625,-914.55078125,0.0
1734589359.7346056,-480.46875,-511.71875,-264.6484375,-214.84375,0.0
1734589359.7385113,-1000.0,-1000.0,-1000.0,-1000.0,0.0
1734589359.742417,260.7421875,219.23828125,-245.1171875,-744.140625,0.0
1734589359.7463229,-914.55078125,-885.7421875,923.33984375,620.1171875,0.0
1734589359.7502286,958.0078125,876.46484375,-947.75390625,-830.56640625,0.0
1734589359.7541344,-204.1015625,-356.4453125,185.05859375,166.9921875,0.0
1734589359.7580404,-1000.0,-1000.0,-1000.0,-1000.0,0.0
1734589359.7619462,-170.41015625,-179.6875,-764.6484375,-865.234375,0.0
1734589359.7657726,999.0234375,-979.4921875,638.18359375,519.53125,0.0
1734589359.7696784,946.77734375,885.7421875,-867.1875,-816.40625,0.0
1734589359.7735841,-43.9453125,-177.734375,528.80859375,549.31640625,0.0
1734589359.7774901,-1000.0,-1000.0,-907.71484375,-929.19921875,0.0
1734589359.781396,-583.984375,-598.6328125,-922.8515625,-927.24609375,0.0
1734589359.7853017,855.95703125,875.9765625,577.63671875,555.17578125,0.0
1734589359.7892075,995.60546875,979.00390625,-869.140625,-854.00390625,0.0
1734589359.7931132,212.890625,-110.83984375,619.62890625,708.984375,0.0
1734589359.797019,-997.55859375,-1000.0,-830.078125,-794.921875,0.0
1734589359.800925,-729.98046875,-755.859375,-947.265625,-964.35546875,0.0
1734589359.8048308,823.73046875,745.1171875,571.77734375,577.63671875,0.0
1734589359.8087366,-967.7734375,-932.12890625,-869.140625,-884.765625,0.0
1734589359.812542,28.3203125,-171.38671875,759.27734375,820.80078125,0.0
1734589359.8164477,-1000.0,-1000.0,-725.5859375,-581.0546875,0.0
1734589359.8203535,-855.46875,-859.375,-996.09375,-1000.0,0.0
1734589359.8242595,616.2109375,533.69140625,538.57421875,305.17578125,0.0
1734589359.8281653,-886.71875,-843.75,-872.55859375,-856.4453125,0.0
1734589359.832071,165.0390625,121.58203125,785.64453125,807.12890625,0.0
1734589359.8359768,-947.265625,-1000.0,-643.06640625,-557.12890625,0.0
1734589359.8398826,-891.6015625,-872.0703125,-1000.0,-1000.0,0.0
1734589359.8437884,536.1328125,522.4609375,365.234375,31.73828125,0.0
1734589359.8476944,-845.21484375,-816.89453125,-859.86328125,-891.11328125,0.0
1734589359.8516002,493.1640625,441.40625,782.71484375,821.2890625,0.0
1734589359.855506,-852.5390625,-956.54296875,-608.3984375,-554.6875,0.0
1734589359.8592877,-924.31640625,-909.66796875,-1000.0,-1000.0,0.0
1734589359.8631935,541.9921875,543.9453125,205.078125,-181.15234375,0.0
1734589359.8670993,-831.0546875,-838.8671875,-887.20703125,-986.328125,0.0
1734589359.871005,625.0,655.76171875,863.76953125,935.05859375,0.0
1734589359.8749108,-847.16796875,-796.875,-457.03125,-376.46484375,0.0
1734589359.8788166,-1000.0,-1000.0,-1000.0,-1000.0,0.0
1734589359.8827226,484.86328125,416.50390625,-23.92578125,-602.05078125,0.0
1734589359.8866284,-874.51171875,-892.578125,-963.8671875,793.9453125,0.0
1734589359.8905342,813.4765625,889.6484375,976.07421875,-908.203125,0.0
1734589359.89444,-577.63671875,-447.75390625,-296.875,-217.28515625,0.0
1734589359.8983457,-1000.0,-1000.0,-1000.0,-1000.0,0.0
1734589359.9022515,325.68359375,288.0859375,-89.35546875,-625.48828125,0.0
1734589359.9060059,-909.66796875,-898.4375,979.4921875,699.70703125,0.0
1734589359.9099116,951.171875,918.9453125,-969.23828125,-855.46875,0.0
1734589359.9138176,-276.3671875,-289.0625,153.3203125,143.06640625,0.0
1734589359.9177234,-1000.0,-1000.0,-1000.0,-1000.0,0.0
1734589359.9216292,27.34375,-34.1796875,-510.7421875,-864.2578125,0.0
1734589359.925535,-940.91796875,-945.80078125,837.40234375,520.5078125,0.0
1734589359.9294407,917.96875,884.27734375,-913.57421875,-813.96484375,0.0
1734589359.9333465,-146.97265625,-109.86328125,524.90234375,472.16796875,0.0
1734589359.9372525,-1000.0,-1000.0,-921.38671875,-962.890625,0.0
1734589359.9411583,-383.7890625,-577.63671875,-923.828125,-914.0625,0.0
1734589359.945064,935.546875,892.08984375,568.84765625,546.38671875,0.0
1734589359.9489698,967.28515625,969.7265625,-866.2109375,-839.35546875,0.0
1734589359.9529092,116.69921875,-121.58203125,612.79296875,646.484375,0.0
1734589359.956815,-1000.0,-1000.0,-834.47265625,-842.28515625,0.0
1734589359.960721,-698.73046875,-736.328125,-950.1953125,-973.6328125,0.0
1734589359.9646268,806.640625,753.90625,563.4765625,533.203125,0.0
1734589359.9685326,935.05859375,958.984375,-863.76953125,-871.58203125,0.0
1734589359.9724383,106.93359375,-176.26953125,742.1875,791.015625,0.0
1734589359.976344,-959.47265625,-1000.0,-756.8359375,-648.92578125,0.0
1734589359.98025,-865.72265625,-817.3828125,-971.6796875,-1000.0,0.0
1734589359.9841557,661.62109375,623.046875,576.171875,400.390625,0.0
1734589359.9880617,-908.203125,-877.44140625,-876.953125,-862.79296875,0.0
1734589359.9919674,131.34765625,156.73828125,792.96875,814.453125,0.0
1734589359.9958732,-935.546875,-959.47265625,-637.6953125,-570.80078125,0.0
1734589359.999794,-897.4609375,-885.25390625,0.0,-1000.0,0.0
1734589360.0036998,542.96875,526.85546875,0.0,205.56640625,0.0
1734589360.0076056,-849.12109375,-819.3359375,0.0,-854.4921875,0.0
1734589360.0115113,359.375,408.69140625,0.0,789.55078125,0.0
1734589360.015417,-899.4140625,-959.47265625,0.0,-530.2734375,0.0
1734589360.019323,-904.78515625,-904.78515625,0.0,-1000.0,0.0
1734589360.023229,529.78515625,539.0625,0.0,-383.7890625,0.0
1734589360.0271347,-814.453125,-830.078125,0.0,962.890625,0.0
1734589360.0310404,541.50390625,617.67578125,0.0,919.921875,0.0
1734589360.0349462,-910.64453125,-841.30859375,0.0,-479.4921875,0.0
1734589360.038852,-985.3515625,-1000.0,0.0,-1000.0,0.0
1734589360.042758,473.6328125,439.94140625,0.0,-640.625,0.0
1734589360.046654,-855.95703125,-871.58203125,-956.54296875,783.203125,0.0
1734589360.0505598,742.1875,815.4296875,953.125,-938.96484375,0.0
1734589360.0544655,-655.2734375,-567.3828125,-348.14453125,-314.453125,0.0
1734589360.0583713,-1000.0,-1000.0,-1000.0,-1000.0,0.0
1734589360.0622773,322.265625,307.12890625,-136.71875,-702.1484375,0.0
1734589360.066183,-910.15625,-881.8359375,975.09765625,683.10546875,0.0
1734589360.0700889,951.171875,875.0,-975.09765625,-857.421875,0.0
1734589360.0739946,-276.3671875,-407.2265625,7.8125,-29.78515625,0.0
1734589360.0779004,-1000.0,-1000.0,-1000.0,-1000.0,0.0
1734589360.0818062,27.34375,21.97265625,-452.63671875,-845.21484375,0.0
1734589360.085712,-940.91796875,-928.22265625,849.609375,513.18359375,0.0
1734589360.089618,918.45703125,876.953125,-924.8046875,-808.59375,0.0
1734589360.093494,0.0,-214.84375,474.609375,359.86328125,0.0
1734589360.0973997,0.0,-1000.0,-961.42578125,-1000.0,0.0
1734589360.1013055,0.0,-398.4375,-843.26171875,-894.53125,0.0
1734589360.1052115,0.0,957.51953125,650.87890625,536.62109375,0.0
1734589360.1091173,0.0,931.640625,-883.7890625,-833.984375,0.0
1734589360.113023,0.0,-92.28515625,599.609375,632.32421875,0.0
1734589360.1169288,0.0,-1000.0,-846.19140625,-865.72265625,0.0
1734589360.1208346,0.0,-696.77734375,-928.22265625,-945.80078125,0.0
1734589360.1247404,0.0,812.98828125,586.9140625,566.40625,0.0
1734589360.1286464,0.0,-966.30859375,-864.2578125,-870.60546875,0.0
1734589360.1325521,0.0,-193.84765625,720.703125,771.484375,0.0
1734589360.136458,0.0,-1000.0,-778.3203125,-696.2890625,0.0
1734589360.1403022,-823.73046875,-802.24609375,-966.796875,-1000.0,0.0
1734589360.144208,707.51953125,629.8828125,574.70703125,476.07421875,0.0
1734589360.1481137,-937.01171875,-884.765625,-881.34765625,-872.0703125,0.0
1734589360.1520197,38.57421875,84.9609375,806.15234375,820.80078125,0.0
1734589360.1559255,-944.82421875,-986.328125,-678.7109375,-583.984375,0.0
1734589360.1598313,-891.11328125,-879.8828125,-987.3046875,-1000.0,0.0
1734589360.163737,541.015625,528.80859375,574.21875,305.17578125,0.0
1734589360.1676428,-851.07421875,-825.68359375,-867.1875,-854.00390625,0.0
1734589360.1715486,304.6875,362.79296875,758.30078125,793.45703125,0.0
1734589360.1754544,-914.55078125,-958.49609375,-615.234375,-537.59765625,0.0
1734589360.1793604,-897.4609375,-898.92578125,-1000.0,-1000.0,0.0
1734589360.1832662,531.25,535.15625,128.90625,-187.98828125,0.0
1734589360.1870835,-829.58984375,-831.0546875,0.0,-969.23828125,0.0
1734589360.1909893,600.09765625,628.90625,0.0,890.13671875,0.0
1734589360.194895,-834.9609375,-842.28515625,0.0,-462.40234375,0.0
1734589360.1988008,-998.046875,-1000.0,0.0,-1000.0,0.0
1734589360.2027066,475.09765625,481.93359375,0.0,-557.6171875,0.0
1734589360.2066126,-854.98046875,-863.28125,0.0,846.19140625,0.0
1734589360.2105184,742.1875,776.85546875,0.0,-957.03125,0.0
1734589360.2144241,-655.2734375,-625.9765625,0.0,-308.10546875,0.0
1734589360.21833,-1000.0,-1000.0,0.0,-1000.0,0.0
1734589360.2222357,322.265625,321.77734375,0.0,-702.1484375,0.0
1734589360.2261415,-910.15625,-900.390625,0.0,683.10546875,0.0
1734589360.2300472,951.171875,921.38671875,0.0,-857.421875,0.0
1734589360.234067,-276.3671875,-318.84765625,-49.31640625,-29.78515625,0.0
1734589360.237973,-1000.0,-1000.0,-1000.0,-1000.0,0.0
1734589360.2418787,35.15625,28.80859375,-593.26171875,-845.21484375,0.0
1734589360.2457845,-960.44921875,-943.359375,725.5859375,513.18359375,0.0
1734589360.2496903,976.5625,921.38671875,-878.41796875,-808.10546875,0.0
1734589360.253596,-66.40625,-114.74609375,491.2109375,360.83984375,0.0
1734589360.2575018,-1000.0,-1000.0,-986.81640625,-1000.0,0.0
1734589360.2614079,-188.96484375,-368.1640625,-762.20703125,-870.60546875,0.0
1734589360.2653136,-990.234375,957.51953125,731.4453125,558.59375,0.0
1734589360.2692194,915.52734375,945.3125,-895.01953125,-840.8203125,0.0
1734589360.2731252,145.01953125,39.55078125,609.86328125,640.13671875,0.0
1734589360.277031,-1000.0,-1000.0,-855.95703125,-884.765625,0.0
1734589360.2810056,-624.0234375,-680.6640625,-920.8984375,-878.90625,0.0
1734589360.2849114,874.0234375,830.56640625,597.16796875,652.83203125,0.0
1734589360.2888174,995.1171875,-980.95703125,-866.69921875,-885.7421875,0.0
1734589360.2927232,257.8125,38.0859375,704.58984375,774.90234375,0.0
1734589360.296629,-938.4765625,-1000.0,-787.109375,-698.2421875,0.0
1734589360.3005347,-810.546875,-838.37890625,-964.84375,-1000.0,0.0
1734589360.3044405,748.046875,662.59765625,573.73046875,492.67578125,0.0
1734589360.3083463,-938.96484375,-896.484375,-875.48828125,-870.60546875,0.0
1734589360.3122523,139.6484375,0.0,786.62109375,812.5,0.0
1734589360.316158,-933.10546875,-1000.0,-656.73828125,-567.3828125,0.0
1734589360.3200638,-905.76171875,-872.55859375,-1000.0,-1000.0,0.0
1734589360.3239696,552.734375,529.296875,414.55078125,205.56640625,0.0
1734589360.3283298,-866.2109375,-827.1484375,-856.4453125,-855.95703125,0.0
1734589360.3322356,358.88671875,265.625,755.859375,800.29296875,0.0
1734589360.3361413,-864.2578125,-996.09375,-626.953125,-542.96875,0.0
1734589360.3400471,-910.15625,-884.27734375,-1000.0,-1000.0,0.0
1734589360.343953,535.15625,526.3671875,101.5625,-187.5,0.0
1734589360.3478587,-833.49609375,-819.3359375,-895.99609375,-968.75,0.0
1734589360.3517647,612.3046875,574.21875,843.75,890.625,0.0
1734589360.3556705,-846.19140625,-886.23046875,-535.64453125,-462.40234375,0.0
1734589360.3595762,-940.91796875,-991.69921875,-1000.0,-1000.0,0.0
1734589360.363482,556.640625,475.09765625,65.91796875,-557.6171875,0.0
1734589360.3673878,-849.609375,-854.98046875,-925.29296875,846.19140625,0.0
1734589360.3712935,693.84765625,745.60546875,921.875,-956.54296875,0.0
1734589360.3754106,-758.30078125,-673.33984375,-406.73828125,-304.6875,0.0
1734589360.3793166,-1000.0,-1000.0,-1000.0,-1000.0,0.0
1734589360.3832223,416.50390625,358.88671875,29.296875,-625.48828125,0.0
1734589360.387128,-903.3203125,-881.8359375,-961.9140625,753.90625,0.0
1734589360.391034,819.3359375,766.11328125,918.9453125,-875.9765625,0.0
1734589360.3949397,-423.33984375,-489.74609375,-191.40625,-19.04296875,0.0
1734589360.3988457,-1000.0,-1000.0,-1000.0,-1000.0,0.0
1734589360.4027514,217.28515625,96.19140625,-324.21875,-785.64453125,0.0
1734589360.4066572,-895.01953125,-882.8125,913.57421875,601.07421875,0.0
1734589360.410563,910.15625,836.9140625,-959.47265625,-822.265625,0.0
1734589360.4144688,-278.80859375,-472.65625,199.70703125,294.43359375,0.0
1734589360.4183745,-1000.0,-1000.0,-1000.0,-1000.0,0.0
1734589360.4222643,-174.31640625,-198.73046875,-641.11328125,-724.609375,0.0
1734589360.42617,-992.67578125,997.55859375,775.87890625,663.57421875,0.0
1734589360.430076,912.109375,899.90234375,-902.34375,-856.93359375,0.0
1734589360.4339817,-50.78125,-62.01171875,571.77734375,576.66015625,0.0
1734589360.4378874,-1000.0,-1000.0,-888.18359375,-944.3359375,0.0
1734589360.4417932,-595.21484375,-623.53515625,-909.66796875,-852.05078125,0.0
1734589360.4456992,858.88671875,876.46484375,600.5859375,650.87890625,0.0
1734589360.449605,-992.1875,995.60546875,-867.67578125,-872.55859375,0.0
1734589360.4535108,171.38671875,-121.58203125,666.015625,716.796875,0.0
1734589360.4574165,-995.1171875,-1000.0,-811.03515625,-762.6953125,0.0
1734589360.4613223,-803.22265625,-761.23046875,-958.0078125,-1000.0,0.0
1734589360.4652283,756.8359375,719.23828125,568.84765625,489.74609375,0.0
1734589360.4690921,-957.51953125,-896.97265625,-870.60546875,-873.53515625,0.0
1734589360.472998,-48.828125,-200.1953125,765.13671875,820.3125,0.0
1734589360.476904,-994.62890625,-1000.0,-725.5859375,-583.49609375,0.0
1734589360.4808097,-892.08984375,-838.37890625,-979.4921875,-1000.0,0.0
1734589360.4847155,557.6171875,516.6015625,566.89453125,305.17578125,0.0
1734589360.4886212,-882.8125,-820.80078125,-863.28125,-853.515625,0.0
1734589360.492527,170.41015625,196.77734375,740.72265625,793.9453125,0.0
1734589360.4964328,-909.1796875,-1000.0,-636.23046875,-537.59765625,0.0
1734589360.5003388,-892.578125,-872.55859375,-1000.0,-1000.0,0.0
1734589360.5042446,528.80859375,520.99609375,116.69921875,-194.82421875,0.0
1734589360.5081503,-816.40625,-805.17578125,-875.0,-951.171875,0.0
1734589360.512056,412.59765625,536.62109375,801.7578125,842.28515625,0.0
1734589360.5158973,-930.6640625,-923.828125,-602.5390625,-558.59375,0.0
1734589360.519803,-712.40234375,-750.9765625,-1000.0,-1000.0,0.0
1734589360.5237088,613.76953125,600.5859375,234.375,-375.9765625,0.0
1734589360.5276146,-862.79296875,-881.34765625,-924.31640625,944.82421875,0.0
1734589360.5315206,632.8125,714.35546875,898.4375,968.75,0.0
1734589360.5354264,-834.47265625,-753.41796875,-437.01171875,-386.23046875,0.0
1734589360.5393322,-1000.0,-1000.0,-1000.0,-1000.0,0.0
1734589360.543238,399.4140625,384.765625,-7.32421875,-634.27734375,0.0
1734589360.5471437,-882.8125,-871.58203125,-956.54296875,770.01953125,0.0
1734589360.5510495,854.98046875,836.9140625,961.9140625,-904.296875,0.0
1734589360.5549555,-472.65625,-526.85546875,-266.6015625,-219.7265625,0.0
1734589360.5588613,-1000.0,-1000.0,-1000.0,-1000.0,0.0
1734589360.5626595,225.09765625,196.77734375,-329.1015625,-767.578125,0.0
1734589360.5665653,-903.80859375,-865.234375,909.66796875,594.7265625,0.0
1734589360.570471,923.828125,821.2890625,-964.35546875,-825.1953125,0.0
1734589360.5743768,-253.41796875,-492.1875,59.08203125,166.015625,0.0
1734589360.5782826,-1000.0,-1000.0,-1000.0,-1000.0,0.0
1734589360.5821884,-174.8046875,-185.546875,-621.58203125,-865.234375,0.0
1734589360.5860944,-991.69921875,-965.8203125,770.01953125,519.53125,0.0
1734589360.5900002,912.109375,855.46875,-912.59765625,-815.91796875,0.0
1734589360.593906,-50.78125,-360.83984375,492.67578125,549.31640625,0.0
1734589360.5978117,-1000.0,-1000.0,-901.3671875,-929.19921875,0.0
1734589360.6017175,-602.05078125,-600.09765625,-924.31640625,-927.24609375,0.0
1734589360.6056232,875.48828125,839.35546875,565.91796875,555.17578125,0.0
1734589360.6094282,963.8671875,-998.53515625,-862.79296875,-852.5390625,0.0
1734589360.613334,86.9140625,-74.21875,656.73828125,701.66015625,0.0
1734589360.6172397,-988.28125,-1000.0,-815.91796875,-776.3671875,0.0
1734589360.6211455,-799.31640625,-780.2734375,-957.03125,-1000.0,0.0
1734589360.6250513,753.90625,718.26171875,567.87109375,489.2578125,0.0
1734589360.628957,-966.796875,-914.55078125,-869.62890625,-873.53515625,0.0
1734589360.632863,18.5546875,-153.3203125,761.71875,820.3125,0.0
1734589360.6367688,-956.0546875,-1000.0,-726.07421875,-583.49609375,0.0
1734589360.6406746,-905.76171875,-854.98046875,-987.79296875,-1000.0,0.0
1734589360.6445804,563.96484375,531.25,554.6875,305.17578125,0.0
1734589360.6484861,-887.6953125,-849.609375,-877.44140625,-855.95703125,0.0
1734589360.652392,187.98828125,252.9296875,799.31640625,805.6640625,0.0
1734589360.6563709,-895.01953125,-941.40625,-658.69140625,-554.19921875,0.0
1734589360.6602767,-896.484375,-890.625,-1000.0,-1000.0,0.0
1734589360.6641827,530.2734375,525.87890625,484.375,4.39453125,0.0
1734589360.6680884,-826.171875,-815.91796875,-868.1640625,-895.99609375,0.0
1734589360.6719942,422.36328125,509.765625,790.52734375,814.453125,0.0
1734589360.6759,-929.19921875,-936.03515625,-572.265625,-543.9453125,0.0
1734589360.6798058,-908.203125,-921.38671875,-1000.0,-1000.0,0.0
1734589360.6837115,538.0859375,552.24609375,145.5078125,-375.9765625,0.0
1734589360.6876175,-829.1015625,-849.12109375,-897.94921875,944.3359375,0.0
1734589360.6915233,617.1875,690.91796875,875.0,968.75,0.0
1734589360.695429,-829.1015625,-754.39453125,-435.546875,-386.23046875,0.0
1734589360.6993349,-1000.0,-1000.0,-1000.0,-1000.0,0.0
1734589360.7032616,398.92578125,402.83203125,-116.2109375,-634.765625,0.0
1734589360.7071674,-881.34765625,-881.34765625,-992.1875,770.01953125,0.0
1734589360.7110732,851.07421875,862.3046875,984.375,-904.78515625,0.0
1734589360.714979,-480.46875,-479.4921875,-262.20703125,-219.7265625,0.0
1734589360.7188847,-1000.0,-1000.0,-1000.0,-1000.0,0.0
1734589360.7227907,223.14453125,212.890625,-327.1484375,-767.578125,0.0
1734589360.7266965,-901.85546875,-872.0703125,897.94921875,594.7265625,0.0
1734589360.7306023,926.7578125,845.21484375,-945.3125,-825.1953125,0.0
1734589360.734508,-294.921875,-430.6640625,134.765625,166.015625,0.0
1734589360.7384138,-1000.0,-1000.0,-1000.0,-1000.0,0.0
1734589360.7423196,34.1796875,-171.875,-570.80078125,-865.234375,0.0
1734589360.7462256,-955.078125,-989.74609375,803.22265625,519.53125,0.0
1734589360.7501516,0.0,893.06640625,0.0,-815.91796875,0.0
1734589360.7540574,0.0,-99.12109375,0.0,549.31640625,0.0
1734589360.7579632,0.0,-1000.0,0.0,-929.19921875,0.0
1734589360.761869,0.0,-610.3515625,0.0,-927.24609375,0.0
1734589360.7657747,0.0,882.32421875,0.0,555.17578125,0.0
1734589360.7696805,0.0,978.515625,0.0,-852.5390625,0.0
1734589360.7735865,0.0,-127.44140625,0.0,702.1484375,0.0
1734589360.7774923,0.0,-1000.0,0.0,-776.3671875,0.0
1734589360.781398,0.0,-759.27734375,0.0,-1000.0,0.0
1734589360.7853038,0.0,730.46875,0.0,489.2578125,0.0
1734589360.7892096,0.0,-937.5,0.0,-876.46484375,0.0
1734589360.7931154,0.0,-24.90234375,0.0,828.125,0.0
1734589360.7970126,-905.76171875,-1000.0,-709.9609375,-601.07421875,0.0
1734589360.8009186,-872.0703125,-875.0,-980.46875,-1000.0,0.0
1734589360.8048244,663.57421875,558.59375,578.61328125,401.85546875,0.0
1734589360.8087301,-917.48046875,-859.86328125,-879.39453125,-859.375,0.0
1734589360.812636,259.765625,214.84375,801.7578125,801.26953125,0.0
1734589360.8165417,-840.33203125,-945.3125,-638.671875,-549.8046875,0.0
1734589360.8204474,-912.109375,-888.671875,-1000.0,-1000.0,0.0
1734589360.8243535,540.0390625,526.85546875,426.26953125,4.39453125,0.0
1734589360.8282592,-842.7734375,-816.89453125,-866.69921875,-895.5078125,0.0
1734589360.832165,486.81640625,464.35546875,796.875,814.453125,0.0
1734589360.8360708,-859.86328125,-947.265625,-571.2890625,-543.9453125,0.0
1734589360.8399765,-922.8515625,-913.57421875,-1000.0,-1000.0,0.0
1734589360.8438346,541.50390625,547.8515625,143.06640625,-375.9765625,0.0
1734589360.8477404,-831.0546875,-848.14453125,-904.296875,944.82421875,0.0
1734589360.8516462,624.51171875,695.3125,899.4140625,969.7265625,0.0
1734589360.855552,-847.16796875,-761.23046875,-451.171875,-384.27734375,0.0
1734589360.8594577,-1000.0,-1000.0,-1000.0,-1000.0,0.0
1734589360.8633637,487.3046875,428.7109375,154.296875,-551.7578125,0.0
1734589360.8672695,-881.34765625,-884.27734375,-921.875,833.49609375,0.0
1734589360.8711753,829.58984375,860.3515625,948.73046875,-922.8515625,0.0
1734589360.875081,-545.41015625,-475.5859375,-261.23046875,-213.37890625,0.0
1734589360.8789868,-1000.0,-1000.0,-1000.0,-1000.0,0.0
1734589360.8828926,325.1953125,227.5390625,-244.62890625,-767.578125,0.0
1734589360.8867986,-908.69140625,-884.27734375,915.0390625,594.7265625,0.0
1734589360.8906329,951.171875,877.44140625,-940.91796875,-825.1953125,0.0
1734589360.8945386,-276.3671875,-361.328125,225.09765625,165.52734375,0.0
1734589360.8984444,-1000.0,-1000.0,-1000.0,-1000.0,0.0
1734589360.9023502,33.69140625,-148.4375,-685.546875,-865.234375,0.0
1734589360.906256,-949.70703125,-985.83984375,707.03125,519.53125,0.0
1734589360.9101617,926.26953125,906.73828125,-878.90625,-815.91796875,0.0
1734589360.9140677,-42.48046875,-80.078125,557.12890625,549.8046875,0.0
1734589360.9179735,-1000.0,-1000.0,-908.203125,-929.19921875,0.0
1734589360.9218793,-398.4375,-570.3125,-912.59765625,-927.24609375,0.0
1734589360.925785,943.359375,885.7421875,588.8671875,555.17578125,0.0
1734589360.9296908,965.33203125,972.16796875,-868.65234375,-852.5390625,0.0
1734589360.9335966,116.2109375,50.29296875,639.16015625,702.1484375,0.0
1734589360.9376209,-1000.0,-1000.0,-823.2421875,-776.3671875,0.0
1734589360.9415267,-704.1015625,-771.97265625,-954.1015625,-1000.0,0.0
1734589360.9454324,807.12890625,764.6484375,567.87109375,489.2578125,0.0
1734589360.9493382,-961.9140625,-954.58984375,-873.046875,-874.0234375,0.0
1734589360.9532442,148.92578125,-43.45703125,775.87890625,820.3125,0.0
1734589360.95715,-977.05078125,-1000.0,-713.8671875,-583.49609375,0.0
1734589360.9610558,-854.4921875,-873.046875,-983.88671875,-1000.0,0.0
1734589360.9649615,653.80859375,573.73046875,567.3828125,305.17578125,0.0
1734589360.9688673,-900.390625,-871.58203125,-880.859375,-855.95703125,0.0
1734589360.9727733,186.03515625,145.99609375,809.08203125,805.6640625,0.0
1734589360.976679,-925.29296875,-958.0078125,-645.01953125,-554.19921875,0.0
1734589360.9805849,-896.97265625,-882.32421875,-1000.0,-1000.0,0.0
1734589360.9843688,0.0,526.3671875,476.5625,4.39453125,0.0
1734589360.9882746,0.0,-827.63671875,-874.0234375,-896.97265625,0.0
1734589360.9921803,0.0,487.3046875,812.98828125,822.265625,0.0
1734589360.9960861,0.0,-900.87890625,-557.12890625,-553.7109375,0.0
1734589360.999992,0.0,-919.921875,-1000.0,-1000.0,0.0
1734589361.0038977,0.0,544.921875,175.29296875,-222.65625,0.0
1734589361.0078037,0.0,-836.9140625,-896.484375,-1000.0,0.0
1734589361.0117095,0.0,648.4375,885.7421875,940.91796875,0.0
1734589361.0156152,0.0,-822.265625,-469.23828125,-381.8359375,0.0
1734589361.019521,0.0,-1000.0,-1000.0,-1000.0,0.0
1734589361.0234268,0.0,475.5859375,173.828125,-553.22265625,0.0
1734589361.0273325,0.0,-880.859375,-916.9921875,836.9140625,0.0
1734589361.0311007,773.92578125,835.9375,945.3125,-931.15234375,0.0
1734589361.0350065,-620.60546875,-520.01953125,-279.296875,-232.421875,0.0
1734589361.0389123,-1000.0,-1000.0,-1000.0,-1000.0,0.0
1734589361.042818,323.73046875,269.04296875,-171.38671875,-697.265625,0.0
1734589361.0467238,-910.15625,-895.99609375,951.171875,672.36328125,0.0
1734589361.0506299,951.171875,911.1328125,-951.66015625,-834.9609375,0.0
1734589361.0545356,-276.3671875,-325.68359375,153.80859375,137.6953125,0.0
1734589361.0584414,-1000.0,-1000.0,-1000.0,-1000.0,0.0
1734589361.0623472,27.83203125,25.390625,-408.69140625,-527.83203125,0.0
1734589361.066253,-942.3828125,-936.5234375,886.71875,750.0,0.0
1734589361.0701587,922.36328125,894.04296875,-929.19921875,-878.90625,0.0
1734589361.0740647,-139.16015625,-92.7734375,561.03515625,502.9296875,0.0
1734589361.0780087,-1000.0,-1000.0,-947.75390625,-992.1875,0.0
1734589361.0819144,-390.625,-410.15625,-812.01171875,-799.31640625,0.0
1734589361.0858202,954.1015625,960.9375,699.70703125,659.1796875,0.0
1734589361.0897262,911.1328125,935.05859375,-891.11328125,-864.74609375,0.0
1734589361.093632,28.3203125,-25.87890625,629.8828125,649.4140625,0.0
1734589361.0975378,-1000.0,-1000.0,-834.47265625,-856.4453125,0.0
1734589361.1014435,-712.40234375,-703.125,-936.5234375,-948.2421875,0.0
1734589361.1053493,822.265625,814.94140625,584.9609375,566.89453125,0.0
1734589361.109255,996.58203125,-969.7265625,-870.60546875,-868.65234375,0.0
1734589361.1131608,52.24609375,-100.09765625,753.90625,765.13671875,0.0
1734589361.1170669,-970.703125,-1000.0,-743.65234375,-681.640625,0.0
1734589361.1209726,-862.79296875,-818.84765625,-974.12109375,-1000.0,0.0
1734589361.1248832,668.9453125,633.30078125,577.1484375,399.90234375,0.0
1734589361.1287892,-927.734375,-874.0234375,-878.90625,-863.28125,0.0
1734589361.132695,-4.39453125,25.87890625,798.33984375,814.453125,0.0
1734589361.1366007,-962.890625,-1000.0,-645.99609375,-570.80078125,0.0
1734589361.1405065,-884.27734375,-865.72265625,-1000.0,-1000.0,0.0
1734589361.1444123,537.59765625,523.92578125,434.08203125,205.56640625,0.0
1734589361.148318,-848.6328125,-825.1953125,-868.65234375,-855.95703125,0.0
1734589361.152224,297.36328125,385.25390625,800.29296875,799.8046875,0.0
1734589361.1561298,-920.8984375,-949.21875,-577.63671875,-542.96875,0.0
1734589361.1600356,-895.01953125,-902.83203125,-1000.0,-1000.0,0.0
1734589361.1639414,524.90234375,535.64453125,164.55078125,-187.98828125,0.0
1734589361.1678472,-813.96484375,-827.63671875,-894.04296875,-969.23828125,0.0
1734589361.1719692,545.41015625,606.93359375,870.1171875,890.13671875,0.0
1734589361.175875,-906.25,-861.328125,-480.95703125,-462.40234375,0.0
1734589361.1797807,-986.328125,-1000.0,-1000.0,-1000.0,0.0
1734589361.1836865,473.6328125,482.421875,92.7734375,-557.6171875,0.0
1734589361.1875923,-855.95703125,-868.65234375,-927.734375,846.6796875,0.0
1734589361.191498,742.1875,792.48046875,942.3828125,-957.03125,0.0
1734589361.195404,-655.2734375,-599.12109375,-335.9375,-308.10546875,0.0
1734589361.1993098,-1000.0,-1000.0,-1000.0,-1000.0,0.0
1734589361.2032156,321.77734375,321.2890625,-84.9609375,-702.1484375,0.0
1734589361.2071214,-910.15625,-899.4140625,988.28125,682.6171875,0.0
1734589361.2110271,951.171875,918.9453125,-979.98046875,-857.421875,0.0
1734589361.2149332,-276.3671875,-317.3828125,39.55078125,-29.78515625,0.0
1734589361.218789,-1000.0,-1000.0,-1000.0,-1000.0,0.0
1734589361.2226949,35.15625,24.90234375,-489.74609375,-845.21484375,0.0
1734589361.226601,-958.984375,-935.546875,823.73046875,513.18359375,0.0
1734589361.2305067,966.796875,900.87890625,-902.34375,-808.59375,0.0
1734589361.2344124,-53.7109375,-151.85546875,496.58203125,359.375,0.0
1734589361.2383182,-1000.0,-1000.0,-951.171875,-1000.0,0.0
1734589361.242224,-386.71875,-397.94921875,-897.4609375,-894.53125,0.0
1734589361.2461298,945.80078125,956.54296875,584.9609375,536.62109375,0.0
1734589361.2500358,937.01171875,929.19921875,-866.2109375,-833.984375,0.0
1734589361.2539415,102.5390625,-26.3671875,610.3515625,632.32421875,0.0
1734589361.2578473,-1000.0,-1000.0,-849.609375,-865.72265625,0.0
1734589361.261753,-623.53515625,-700.1953125,-928.22265625,-945.80078125,0.0
1734589361.265588,874.0234375,812.98828125,589.35546875,566.40625,0.0
1734589361.2694938,992.67578125,-977.05078125,-866.69921875,-871.09375,0.0
1734589361.2733996,246.09375,0.48828125,722.16796875,772.4609375,0.0
1734589361.2773054,-938.96484375,-1000.0,-774.4140625,-699.70703125,0.0
1734589361.2812111,-812.98828125,-827.1484375,-967.7734375,-1000.0,0.0
1734589361.2851171,753.90625,663.57421875,575.1953125,492.67578125,0.0
1734589361.289023,-948.2421875,-895.99609375,-880.37109375,-873.046875,0.0
1734589361.2929287,110.3515625,24.4140625,803.22265625,820.3125,0.0
1734589361.2968345,-916.015625,-1000.0,-682.12890625,-583.49609375,0.0
1734589361.3007402,-902.83203125,-872.0703125,-986.328125,-1000.0,0.0
1734589361.304646,549.8046875,528.80859375,577.63671875,305.17578125,0.0
1734589361.308552,-867.1875,-836.42578125,-878.41796875,-854.98046875,0.0
1734589361.3123658,0.0,397.4609375,800.29296875,799.8046875,0.0
1734589361.3162715,0.0,-911.1328125,-605.95703125,-545.8984375,0.0
1734589361.3201776,0.0,-907.2265625,-1000.0,-1000.0,0.0
1734589361.3240833,0.0,535.15625,318.359375,-85.44921875,0.0
1734589361.327989,0.0,-823.73046875,-875.0,-940.91796875,0.0
1734589361.3318949,0.0,591.30859375,848.6328125,878.90625,0.0
1734589361.3358006,0.0,-873.53515625,-501.46484375,-457.51953125,0.0
1734589361.3397064,0.0,-996.09375,-1000.0,-1000.0,0.0
1734589361.3436124,0.0,480.46875,169.43359375,-489.74609375,0.0
1734589361.3475182,0.0,-865.234375,-905.2734375,875.9765625,0.0
1734589361.351424,0.0,781.73828125,912.59765625,-968.75,0.0
1734589361.3553298,0.0,-612.79296875,-357.91015625,-302.734375,0.0
1734589361.3591318,-1000.0,-1000.0,-1000.0,-1000.0,0.0
1734589361.3630376,403.3203125,321.77734375,-144.04296875,-702.1484375,0.0
1734589361.3669434,-912.109375,-903.3203125,977.05078125,683.10546875,0.0
1734589361.3708494,951.66015625,934.5703125,-974.609375,-858.3984375,0.0
1734589361.3747551,-315.4296875,-315.4296875,-53.7109375,-23.4375,0.0
1734589361.378661,-1000.0,-1000.0,-1000.0,-1000.0,0.0
1734589361.3825667,232.91015625,85.9375,-331.0546875,-781.73828125,0.0
1734589361.3864725,-913.0859375,-925.29296875,890.13671875,596.19140625,0.0
1734589361.3903782,943.359375,904.78515625,-926.26953125,-822.265625,0.0
1734589361.3942842,-117.1875,-164.55078125,473.6328125,361.81640625,0.0
1734589361.39819,-1000.0,-1000.0,-983.3984375,-1000.0,0.0
1734589361.4020958,-189.94140625,-374.51171875,-850.09765625,-894.53125,0.0
1734589361.40607,-983.3984375,966.796875,629.8828125,536.62109375,0.0
1734589361.409976,910.64453125,918.9453125,-872.55859375,-833.984375,0.0
1734589361.4138818,-31.73828125,-91.30859375,587.40234375,632.32421875,0.0
1734589361.4177876,-1000.0,-1000.0,-860.3515625,-865.72265625,0.0
1734589361.4216933,-597.65625,-687.98828125,-938.4765625,-945.80078125,0.0
1734589361.425599,858.88671875,819.3359375,569.82421875,566.40625,0.0
1734589361.4295049,-988.28125,-986.328125,-862.79296875,-868.65234375,0.0
1734589361.433411,179.6875,-80.078125,694.82421875,765.13671875,0.0
1734589361.4373167,-998.046875,-1000.0,-793.45703125,-681.640625,0.0
1734589361.4412224,-793.45703125,-819.82421875,-963.37890625,-1000.0,0.0
1734589361.4451282,741.2109375,658.203125,573.2421875,399.90234375,0.0
1734589361.449034,-932.6171875,-907.2265625,-878.41796875,-865.234375,0.0
1734589361.4529846,118.1640625,64.453125,796.875,819.3359375,0.0
1734589361.4568903,-956.0546875,-968.75,-672.36328125,-580.56640625,0.0
1734589361.460796,-900.87890625,-885.25390625,-1000.0,-1000.0,0.0
1734589361.464702,552.24609375,536.1328125,515.625,267.08984375,0.0
1734589361.4686077,-869.62890625,-842.28515625,-868.65234375,-855.95703125,0.0
1734589361.4725137,374.0234375,364.74609375,784.66796875,800.78125,0.0
1734589361.4764194,-850.09765625,-911.62109375,-600.09765625,-546.38671875,0.0
1734589361.4803252,-913.57421875,-903.80859375,-1000.0,-1000.0,0.0
1734589361.484231,536.1328125,533.203125,185.05859375,-106.93359375,0.0
1734589361.4881368,-833.49609375,-824.70703125,-885.25390625,-946.77734375,0.0
1734589361.4920425,612.3046875,593.26171875,851.07421875,886.23046875,0.0
1734589361.4959486,-846.19140625,-883.7890625,-542.48046875,-466.796875,0.0
1734589361.4998639,-940.91796875,-950.1953125,-1000.0,-1000.0,0.0
1734589361.5037696,556.640625,547.36328125,241.69921875,-370.1171875,0.0
1734589361.5076754,-849.609375,-866.2109375,-888.671875,934.08203125,0.0
1734589361.5115814,693.359375,755.37109375,889.16015625,999.0234375,0.0
1734589361.5154872,-758.30078125,-656.25,-385.25390625,-318.84765625,0.0
1734589361.519393,-1000.0,-1000.0,-1000.0,-1000.0,0.0
1734589361.5232987,405.76171875,354.98046875,-137.6953125,-707.51953125,0.0
1734589361.5272045,-887.6953125,-895.99609375,993.65234375,692.3828125,0.0
1734589361.5311103,871.58203125,912.59765625,-998.046875,-872.55859375,0.0
1734589361.5350163,-451.171875,-374.51171875,-186.5234375,-123.046875,0.0
1734589361.538922,-1000.0,-1000.0,-1000.0,-1000.0,0.0
1734589361.5428278,228.02734375,151.85546875,-350.5859375,-779.78515625,0.0
1734589361.5467114,-910.15625,-920.41015625,869.140625,601.5625,0.0
1734589361.5506172,948.73046875,923.828125,-912.109375,-821.2890625,0.0
1734589361.5545232,-228.515625,-168.45703125,383.7890625,159.66796875,0.0
1734589361.558429,-1000.0,-1000.0,-1000.0,-1000.0,0.0
1734589361.5623348,-74.70703125,-212.890625,-778.80859375,-765.625,0.0
1734589361.5662405,-957.51953125,-991.69921875,607.91015625,553.22265625,0.0
1734589361.5701463,897.94921875,908.69140625,-872.55859375,-832.03125,0.0
1734589361.574052,-39.0625,0.0,571.2890625,557.6171875,0.0
1734589361.577958,-1000.0,-1000.0,-890.13671875,-932.12890625,0.0
1734589361.5818639,-602.5390625,-627.9296875,-917.48046875,-927.24609375,0.0
1734589361.5857697,875.48828125,890.13671875,594.23828125,555.17578125,0.0
1734589361.5896754,963.8671875,991.69921875,-870.1171875,-852.5390625,0.0
1734589361.5935216,86.9140625,-226.5625,644.53125,702.1484375,0.0
1734589361.5974274,-988.28125,-1000.0,-816.89453125,-776.3671875,0.0
1734589361.6013331,-799.31640625,-754.39453125,-956.0546875,-1000.0,0.0
1734589361.605239,753.90625,703.61328125,568.84765625,489.2578125,0.0
1734589361.6091447,-966.796875,-909.66796875,-875.0,-872.55859375,0.0
1734589361.6130507,19.04296875,-127.9296875,784.1796875,816.40625,0.0
1734589361.6169565,-956.0546875,-1000.0,-693.84765625,-576.171875,0.0
1734589361.6208622,-906.25,-857.421875,-1000.0,-1000.0,0.0
1734589361.624768,563.96484375,529.296875,534.66796875,258.30078125,0.0
1734589361.6286738,-885.7421875,-840.8203125,-870.1171875,-856.93359375,0.0
1734589361.6325796,174.8046875,244.62890625,781.73828125,808.59375,0.0
1734589361.6364856,-904.78515625,-966.796875,-616.2109375,-556.640625,0.0
1734589361.6405442,-893.5546875,-886.23046875,-1000.0,-1000.0,0.0
1734589361.64445,529.296875,524.90234375,235.3515625,4.39453125,0.0
1734589361.6483557,-820.3125,-816.40625,-869.62890625,-895.99609375,0.0
1734589361.6522617,416.50390625,527.83203125,807.6171875,813.96484375,0.0
1734589361.6561675,-927.734375,-926.26953125,-570.80078125,-543.9453125,0.0
1734589361.6600733,-808.59375,-935.05859375,-1000.0,-1000.0,0.0
1734589361.663979,572.265625,538.0859375,135.25390625,-375.9765625,0.0
1734589361.6678848,-845.703125,-849.609375,-916.50390625,944.3359375,0.0
1734589361.6717906,624.51171875,697.265625,901.3671875,968.75,0.0
1734589361.6756966,-832.03125,-748.046875,-443.359375,-386.23046875,0.0
1734589361.6796024,-1000.0,-1000.0,-1000.0,-1000.0,0.0
1734589361.6835082,398.92578125,403.3203125,67.3828125,-634.765625,0.0
1734589361.6873202,-882.8125,-880.859375,-942.87109375,770.01953125,0.0
1734589361.691226,855.46875,862.3046875,958.984375,-904.296875,0.0
1734589361.6951318,-472.65625,-481.4453125,-231.93359375,-219.7265625,0.0
1734589361.6990376,-1000.0,-1000.0,-1000.0,-1000.0,0.0
1734589361.7029433,224.12109375,212.40234375,-389.16015625,-767.578125,0.0
1734589361.7068493,-902.34375,-872.55859375,864.74609375,594.7265625,0.0
1734589361.710755,919.921875,844.7265625,-934.08203125,-825.1953125,0.0
1734589361.714661,-264.16015625,-429.6875,138.671875,166.015625,0.0
1734589361.7185667,-1000.0,-1000.0,-1000.0,-1000.0,0.0
1734589361.7224724,-170.8984375,-186.5234375,-806.15234375,-865.234375,0.0
1734589361.7263782,-999.51171875,-984.375,593.75,519.53125,0.0
1734589361.7302842,928.7109375,882.8125,-858.88671875,-815.91796875,0.0
1734589361.734067,-12.20703125,-189.94140625,540.52734375,549.31640625,0.0
1734589361.7379727,-1000.0,-1000.0,-898.4375,-929.19921875,0.0
1734589361.7418787,-599.609375,-594.7265625,-926.26953125,-927.24609375,0.0
1734589361.7457845,870.60546875,869.62890625,575.1953125,555.17578125,0.0
1734589361.7496903,973.14453125,989.2578125,-866.69921875,-853.02734375,0.0
1734589361.753596,152.34375,-50.78125,645.01953125,703.125,0.0
1734589361.7575018,-975.09765625,-1000.0,-818.359375,-779.296875,0.0
1734589361.7614076,-805.6640625,-770.99609375,-955.56640625,-1000.0,0.0
1734589361.7653136,756.34765625,733.88671875,568.84765625,502.9296875,0.0
1734589361.7692194,-967.7734375,-925.78125,-875.0,-878.41796875,0.0
1734589361.7731252,56.640625,-96.6796875,783.203125,828.125,0.0
1734589361.777031,-957.51953125,-1000.0,-708.0078125,-600.5859375,0.0
1734589361.780841,-863.28125,-870.1171875,-980.46875,-1000.0,0.0
1734589361.7847471,621.09375,533.203125,573.73046875,401.85546875,0.0
1734589361.788653,-869.140625,-818.84765625,-858.88671875,-861.81640625,0.0
1734589361.7925587,102.5390625,51.26953125,745.60546875,834.47265625,0.0
1734589361.7964644,-988.28125,-1000.0,-735.83984375,-642.578125,0.0
1734589361.8003702,-682.6171875,-662.109375,-777.34375,-797.8515625,0.0
1734589361.804276,597.16796875,593.26171875,645.99609375,659.1796875,0.0
1734589361.8081818,-842.7734375,-844.23828125,-891.11328125,-922.36328125,0.0
1734589361.8120878,375.0,426.26953125,732.421875,855.46875,0.0
1734589361.8159935,-1000.0,-995.60546875,-731.4453125,-631.8359375,0.0
1734589361.8198993,-894.53125,-903.3203125,-1000.0,-1000.0,0.0
1734589361.823805,536.1328125,541.9921875,396.484375,552.734375,0.0
1734589361.8277535,-833.0078125,-838.37890625,-880.859375,-897.94921875,0.0
1734589361.8316593,625.0,651.85546875,852.5390625,856.4453125,0.0
1734589361.835565,-847.16796875,-801.7578125,-479.00390625,-360.3515625,0.0
1734589361.8394709,-1000.0,-1000.0,-1000.0,-1000.0,0.0
1734589361.8433766,484.86328125,405.76171875,164.0625,-558.59375,0.0
1734589361.8472826,-874.51171875,-858.88671875,-912.109375,843.26171875,0.0
1734589361.8511884,812.5,790.0390625,936.5234375,-919.43359375,0.0
1734589361.8550942,-578.61328125,-609.375,-329.1015625,-349.12109375,0.0
1734589361.859,-1000.0,-1000.0,-1000.0,-1000.0,0.0
1734589361.8629057,304.19921875,252.9296875,-66.89453125,130.37109375,0.0
1734589361.8668115,-854.4921875,-854.00390625,-977.5390625,-958.984375,0.0
1734589361.8707175,808.10546875,800.78125,971.6796875,-987.3046875,0.0
1734589361.875074,-541.50390625,-550.29296875,-146.97265625,40.52734375,0.0
1734589361.8789797,-1000.0,-1000.0,-1000.0,-1000.0,0.0
1734589361.8828855,65.91796875,-66.89453125,-453.61328125,-361.81640625,0.0
1734589361.8867915,-950.1953125,-933.59375,891.6015625,890.13671875,0.0
1734589361.8906972,884.27734375,732.421875,958.984375,-906.73828125,0.0
1734589361.894603,-246.09375,-586.9140625,40.52734375,408.203125,0.0
1734589361.8985088,-1000.0,-1000.0,-1000.0,-1000.0,0.0
1734589361.9024146,-397.94921875,-391.11328125,-699.70703125,-601.07421875,0.0
1734589361.9063203,959.9609375,964.84375,749.0234375,830.56640625,0.0
1734589361.9102263,931.15234375,921.875,-920.41015625,-900.87890625,0.0
1734589361.914132,-175.29296875,-475.09765625,463.8671875,660.64453125,0.0
1734589361.918038,-1000.0,-1000.0,-879.8828125,-900.87890625,0.0
1734589361.9219143,-680.17578125,-640.625,-899.4140625,-811.5234375,0.0
1734589361.92582,803.22265625,783.203125,590.8203125,726.07421875,0.0
1734589361.929726,-970.703125,-937.98828125,-862.79296875,-898.4375,0.0
1734589361.933632,-114.74609375,-321.2890625,722.16796875,770.99609375,0.0
1734589361.9375377,-1000.0,-1000.0,-779.296875,-679.6875,0.0
1734589361.9414434,-814.94140625,-810.546875,-966.30859375,-1000.0,0.0
1734589361.9453492,631.34765625,557.12890625,570.3125,399.90234375,0.0
1734589361.949255,-880.859375,-833.0078125,-865.234375,-863.28125,0.0
1734589361.9531608,113.76953125,-34.66796875,741.2109375,814.453125,0.0
1734589361.9570668,-985.83984375,-1000.0,-743.65234375,-570.80078125,0.0
1734589361.9609725,-884.27734375,-845.703125,-985.83984375,-1000.0,0.0
1734589361.9648783,531.25,513.671875,543.9453125,205.56640625,0.0
1734589361.9687278,-822.265625,-808.59375,-854.00390625,-861.81640625,0.0
1734589361.9726336,295.8984375,351.07421875,712.40234375,826.66015625,0.0
1734589361.9765394,-1000.0,-1000.0,-723.14453125,-593.26171875,0.0
1734589361.9804451,-888.18359375,-893.5546875,-1000.0,-1000.0,0.0
1734589361.984351,527.83203125,536.1328125,362.79296875,202.1484375,0.0
1734589361.9882567,-816.40625,-831.54296875,-867.1875,-923.828125,0.0
1734589361.9921627,541.50390625,623.046875,813.96484375,883.30078125,0.0
1734589361.9960685,-910.64453125,-847.16796875,-553.7109375,-485.3515625,0.0
1734589361.9999743,-985.83984375,-1000.0,-1000.0,-1000.0,0.0
1734589362.00388,478.515625,471.6796875,217.7734375,-83.49609375,0.0
1734589362.0077858,-873.53515625,-857.91015625,-900.390625,958.0078125,0.0
1734589362.0116916,812.5,767.08984375,919.43359375,994.140625,0.0
1734589362.0155149,-578.61328125,-645.5078125,-350.5859375,-289.55078125,0.0
1734589362.0194206,-1000.0,-1000.0,-1000.0,-1000.0,0.0
1734589362.0233264,316.40625,285.64453125,-71.77734375,-477.5390625,0.0
1734589362.0272324,-887.6953125,-864.2578125,-991.69921875,766.11328125,0.0
1734589362.0311382,888.671875,823.73046875,996.09375,-873.53515625,0.0
1734589362.035044,-388.18359375,-518.5546875,-79.58984375,-17.08984375,0.0
1734589362.0389497,-1000.0,-1000.0,-1000.0,-1000.0,0.0
1734589362.0428555,28.80859375,13.18359375,-370.1171875,-166.015625,0.0
1734589362.0467613,-944.3359375,-911.62109375,900.390625,958.984375,0.0
1734589362.0506673,917.96875,841.30859375,-965.33203125,-937.01171875,0.0
1734589362.054573,-146.97265625,-394.04296875,359.375,423.33984375,0.0
1734589362.0584788,-1000.0,-1000.0,-1000.0,-1000.0,0.0
1734589362.0622885,-406.73828125,-401.85546875,-747.0703125,-600.5859375,0.0
1734589362.0661943,979.00390625,977.05078125,758.30078125,830.56640625,0.0
1734589362.0701,877.9296875,903.80859375,-926.26953125,-899.90234375,0.0
1734589362.0740058,-223.6328125,-496.58203125,431.640625,651.3671875,0.0
1734589362.0779116,-1000.0,-1000.0,-888.18359375,-871.58203125,0.0
1734589362.0818176,-687.98828125,-643.5546875,-907.71484375,-923.33984375,0.0
1734589362.0857234,809.5703125,787.59765625,573.2421875,594.23828125,0.0
1734589362.0896292,-989.2578125,-950.68359375,-858.88671875,-877.9296875,0.0
1734589362.093535,-133.30078125,-346.19140625,710.44921875,780.76171875,0.0
1734589362.0974407,-1000.0,-1000.0,-789.55078125,-717.7734375,0.0
1734589362.1013465,-758.30078125,-771.97265625,-964.35546875,-980.46875,0.0
1734589362.1052525,729.4921875,611.328125,571.77734375,581.0546875,0.0
1734589362.1094577,-927.24609375,-852.05078125,-874.51171875,-891.11328125,0.0
1734589362.1133635,-79.1015625,-34.1796875,778.3203125,843.26171875,0.0
1734589362.1172693,-1000.0,-1000.0,-710.44921875,-635.25390625,0.0
1734589362.121175,-865.72265625,-850.5859375,-979.00390625,-994.140625,0.0
1734589362.125081,522.94921875,515.625,570.80078125,583.49609375,0.0
1734589362.1289868,-820.3125,-809.08203125,-857.421875,-889.6484375,0.0
1734589362.1328926,191.89453125,314.94140625,713.8671875,843.26171875,0.0
1734589362.1367984,-1000.0,-1000.0,-768.5546875,-635.25390625,0.0
1734589362.1407042,-871.09375,-888.18359375,-996.58203125,-995.60546875,0.0
1734589362.14461,520.01953125,532.71484375,533.203125,590.33203125,0.0
1734589362.148516,-815.91796875,-827.1484375,-878.90625,-904.296875,0.0
1734589362.1524217,548.828125,598.6328125,809.5703125,884.765625,0.0
1734589362.1566203,-929.19921875,-872.0703125,0.0,-510.25390625,0.0
1734589362.1605263,-927.24609375,-984.86328125,0.0,-1000.0,0.0
1734589362.164432,554.6875,490.72265625,0.0,418.45703125,0.0
1734589362.1683378,-848.14453125,-847.65625,0.0,-896.484375,0.0
1734589362.1722436,685.546875,719.23828125,0.0,900.87890625,0.0
1734589362.1761494,-741.2109375,-707.03125,0.0,-332.51953125,0.0
1734589362.1800554,-1000.0,-1000.0,0.0,-1000.0,0.0
1734589362.1839612,301.7578125,301.26953125,0.0,-295.41015625,0.0
1734589362.187867,-866.2109375,-857.91015625,0.0,867.67578125,0.0
1734589362.1917727,827.63671875,805.17578125,0.0,-924.31640625,0.0
1734589362.1956785,-527.83203125,-554.19921875,0.0,-1.46484375,0.0
1734589362.1995842,-1000.0,-1000.0,0.0,-1000.0,0.0
1734589362.2035367,0.0,4.39453125,-422.36328125,-831.0546875,0.0
1734589362.2074428,0.0,-895.5078125,925.78125,526.3671875,0.0
