timestamps,TP9,AF7,AF8,TP10,Right AUX
1734583824.1147568,-36.1328125,814.94140625,144.53125,-49.31640625,0.0
1734583824.118663,-61.5234375,609.86328125,43.45703125,-35.15625,0.0
1734583824.122569,-50.78125,644.53125,87.890625,-50.29296875,0.0
1734583824.1264753,-37.109375,741.2109375,208.984375,-43.9453125,0.0
1734583824.1303816,-36.1328125,693.84765625,186.03515625,-23.92578125,0.0
1734583824.1342878,-41.9921875,527.83203125,-30.76171875,-18.06640625,0.0
1734583824.138194,-61.5234375,562.01171875,-89.35546875,-67.3828125,0.0
1734583824.1421003,-62.98828125,901.3671875,216.796875,-76.171875,0.0
1734583824.1460063,-56.15234375,875.0,234.86328125,-40.52734375,0.0
1734583824.1499126,-60.546875,878.90625,239.2578125,-77.1484375,0.0
1734583824.1538188,-59.5703125,951.66015625,296.875,-100.09765625,0.0
1734583824.1560571,-78.125,969.23828125,332.51953125,-81.54296875,0.0
1734583824.1599634,-65.4296875,943.359375,353.02734375,-81.54296875,0.0
1734583824.1638696,-41.9921875,919.43359375,310.546875,-64.94140625,0.0
1734583824.1677759,-49.31640625,960.9375,334.47265625,-43.45703125,0.0
1734583824.1716821,-64.94140625,977.05078125,332.03125,-61.5234375,0.0
1734583824.1755884,-83.49609375,956.0546875,152.34375,-82.03125,0.0
1734583824.1794944,-74.70703125,933.10546875,-282.71484375,-52.24609375,0.0
1734583824.1834006,-64.453125,962.890625,-175.78125,-55.17578125,0.0
1734583824.187307,-53.22265625,971.19140625,-140.625,-60.546875,0.0
1734583824.1912131,-47.8515625,964.84375,-495.60546875,-59.5703125,0.0
1734583824.1951194,-67.3828125,966.30859375,-531.25,-55.6640625,0.0
1734583824.1990254,-49.31640625,954.58984375,-510.25390625,-50.78125,0.0
1734583824.2024386,-21.97265625,979.4921875,-557.6171875,-52.24609375,0.0
1734583824.2063448,-35.15625,815.91796875,-687.5,-26.85546875,0.0
1734583824.210251,-25.87890625,652.34375,-760.7421875,-29.78515625,0.0
1734583824.214157,-48.33984375,489.2578125,-771.97265625,-37.109375,0.0
1734583824.2180634,-76.171875,394.04296875,-822.75390625,-49.31640625,0.0
1734583824.2219696,-48.828125,844.7265625,-863.28125,-41.50390625,0.0
1734583824.2258759,-21.484375,958.984375,-832.51953125,-7.32421875,0.0
1734583824.229782,-43.9453125,831.0546875,-788.0859375,-8.7890625,0.0
1734583824.233688,-50.29296875,314.453125,-857.421875,-22.4609375,0.0
1734583824.2375944,-50.29296875,-282.2265625,-919.43359375,-12.6953125,0.0
1734583824.2415006,-43.45703125,-289.0625,-833.49609375,-18.06640625,0.0
1734583824.2454069,-20.01953125,-353.515625,-783.203125,-36.1328125,0.0
1734583824.2544277,-42.96875,-487.3046875,-823.2421875,-16.11328125,0.0
1734583824.258334,-70.80078125,-509.765625,-882.32421875,-25.390625,0.0
1734583824.2622402,-80.56640625,-514.6484375,-842.28515625,-42.96875,0.0
1734583824.2661464,-72.265625,-441.89453125,-803.22265625,-40.0390625,0.0
1734583824.2700527,-35.64453125,-144.04296875,-805.17578125,-24.4140625,0.0
1734583824.2739587,-47.36328125,-199.21875,-812.01171875,-37.59765625,0.0
1734583824.277865,-107.91015625,-338.8671875,-803.7109375,-39.55078125,0.0
1734583824.2817712,-115.72265625,-493.65234375,-777.34375,-28.80859375,0.0
1734583824.2856774,-92.7734375,-805.6640625,-821.77734375,-22.4609375,0.0
1734583824.2895837,-94.7265625,-991.2109375,-881.8359375,5.37109375,0.0
1734583824.2934897,-114.74609375,-999.51171875,-771.97265625,-24.90234375,0.0
1734583824.297396,-135.25390625,-996.58203125,-747.0703125,-45.41015625,0.0
1734583824.303542,-119.62890625,-1000.0,-810.546875,-11.71875,0.0
1734583824.3074481,-108.3984375,-1000.0,-755.859375,-3.90625,0.0
1734583824.3113544,-120.60546875,-1000.0,-713.37890625,-25.390625,0.0
1734583824.3152606,-117.1875,-1000.0,-732.91015625,-30.76171875,0.0
1734583824.3191667,-114.2578125,-1000.0,-763.671875,-20.99609375,0.0
1734583824.323073,-118.1640625,-1000.0,-758.30078125,-9.27734375,0.0
1734583824.3269792,-116.2109375,-1000.0,-666.50390625,-26.3671875,0.0
1734583824.3308854,-116.2109375,-1000.0,-647.94921875,-44.43359375,0.0
1734583824.3347917,-106.4453125,-1000.0,-758.7890625,-35.15625,0.0
1734583824.338698,-106.4453125,-1000.0,-693.359375,-4.39453125,0.0
1734583824.342604,-140.625,-1000.0,-562.98828125,-14.16015625,0.0
1734583824.3465102,-147.4609375,-1000.0,-604.98046875,-24.4140625,0.0
1734583824.34973,-138.671875,-1000.0,-739.2578125,0.0,0.0
1734583824.3536363,-139.6484375,-1000.0,-576.66015625,-19.53125,0.0
1734583824.3575425,-128.41796875,-1000.0,-466.30859375,-36.62109375,0.0
1734583824.3614488,-122.0703125,-1000.0,-506.8359375,-26.85546875,0.0
1734583824.365355,-125.48828125,-1000.0,-488.76953125,-10.25390625,0.0
1734583824.369261,-139.6484375,-1000.0,-485.3515625,-11.23046875,0.0
1734583824.3731673,-135.7421875,-1000.0,-417.48046875,-5.37109375,0.0
1734583824.3770735,-124.51171875,-1000.0,-422.36328125,-17.08984375,0.0
1734583824.3809798,-142.08984375,-1000.0,-581.54296875,-30.76171875,0.0
1734583824.384886,-157.71484375,-1000.0,-380.859375,-20.5078125,0.0
1734583824.3887923,-125.48828125,-1000.0,-278.80859375,-21.484375,0.0
1734583824.3926983,-94.23828125,-1000.0,-430.6640625,-1.953125,0.0
1734583824.4033608,-117.67578125,-1000.0,-425.29296875,-12.6953125,0.0
1734583824.407267,-119.62890625,-1000.0,-395.01953125,-27.83203125,0.0
1734583824.4111733,-107.91015625,-1000.0,-431.15234375,-48.828125,0.0
1734583824.4150796,-99.12109375,-1000.0,-492.1875,-59.08203125,0.0
1734583824.4189858,-102.05078125,-1000.0,-466.30859375,-28.80859375,0.0
1734583824.422892,-116.2109375,-997.55859375,-495.1171875,-38.0859375,0.0
1734583824.4267983,-101.5625,-1000.0,-536.1328125,-31.73828125,0.0
1734583824.4307044,-93.26171875,-998.046875,-543.9453125,-4.8828125,0.0
1734583824.4346106,-104.00390625,-941.40625,-500.48828125,-0.48828125,0.0
1734583824.4385169,-91.30859375,-979.00390625,-449.21875,-15.13671875,0.0
1734583824.442423,-61.5234375,-1000.0,-481.93359375,-33.69140625,0.0
1734583824.4463294,-72.75390625,-996.09375,-589.35546875,-38.57421875,0.0
1734583824.4448092,0.0,-1000.0,-557.12890625,-30.2734375,0.0
1734583824.4487154,0.0,-1000.0,-495.1171875,-37.59765625,0.0
1734583824.4526215,0.0,-1000.0,-555.17578125,-18.5546875,0.0
1734583824.4565277,0.0,-1000.0,-689.94140625,-17.578125,0.0
1734583824.460434,0.0,-999.0234375,-601.5625,-63.96484375,0.0
1734583824.4643402,0.0,-1000.0,-555.17578125,-34.66796875,0.0
1734583824.4682465,0.0,-1000.0,-593.75,3.41796875,0.0
1734583824.4721527,0.0,-955.078125,-516.11328125,-24.4140625,0.0
1734583824.4760587,0.0,-977.05078125,-468.75,-28.3203125,0.0
1734583824.479965,0.0,-1000.0,-463.8671875,-27.34375,0.0
1734583824.4838712,0.0,-1000.0,-524.90234375,-29.78515625,0.0
1734583824.4877775,0.0,-994.62890625,-639.6484375,-1.953125,0.0
1734583824.4669409,-104.00390625,-907.71484375,-429.6875,-30.76171875,0.0
1734583824.4708471,-110.3515625,-921.875,-367.1875,-34.66796875,0.0
1734583824.4747531,-103.515625,-989.2578125,-485.83984375,-21.97265625,0.0
1734583824.4786594,-114.74609375,-923.33984375,-450.68359375,-50.78125,0.0
1734583824.4825656,-94.23828125,-902.34375,-432.12890625,-34.1796875,0.0
1734583824.4864717,-64.453125,-920.41015625,-478.02734375,-7.32421875,0.0
1734583824.490378,-94.23828125,-924.31640625,-540.0390625,-28.80859375,0.0
1734583824.4942842,-78.61328125,-808.10546875,-479.4921875,-31.73828125,0.0
1734583824.4981904,-57.6171875,-689.94140625,-429.6875,-27.83203125,0.0
1734583824.5020964,-75.68359375,-848.6328125,-535.15625,-19.53125,0.0
1734583824.5060027,-88.37890625,-935.05859375,-566.89453125,-13.671875,0.0
1734583824.509909,-63.96484375,-881.8359375,-494.140625,-27.34375,0.0
1734583824.521934,-76.66015625,-895.99609375,-465.33203125,-34.1796875,0.0
1734583824.5258403,-62.98828125,-948.2421875,-520.99609375,-33.203125,0.0
1734583824.5297465,-62.01171875,-979.4921875,-619.62890625,-26.3671875,0.0
1734583824.5336528,-62.01171875,-947.75390625,-536.62109375,-22.94921875,0.0
1734583824.5375588,-51.7578125,-939.94140625,-480.46875,-37.109375,0.0
1734583824.541465,-56.640625,-995.1171875,-598.6328125,-33.203125,0.0
1734583824.5453713,-82.03125,-988.76953125,-712.40234375,-11.23046875,0.0
1734583824.5492775,-81.0546875,-841.30859375,-550.29296875,-42.96875,0.0
1734583824.5531836,-45.41015625,-826.171875,-472.16796875,-25.390625,0.0
1734583824.5570898,-38.0859375,-934.08203125,-583.49609375,2.44140625,0.0
1734583824.560996,-66.40625,-882.32421875,-549.8046875,-22.4609375,0.0
1734583824.5649023,-50.78125,-827.63671875,-515.13671875,-45.8984375,0.0
1734583824.571683,-32.2265625,-901.85546875,-553.7109375,-44.43359375,0.0
1734583824.5755892,-59.08203125,-970.703125,-583.984375,-11.23046875,0.0
1734583824.5794954,-67.87109375,-944.3359375,-548.828125,-28.3203125,0.0
1734583824.5834017,-55.17578125,-951.171875,-540.52734375,-29.296875,0.0
1734583824.587308,-31.73828125,-998.046875,-567.87109375,-25.87890625,0.0
1734583824.591214,-20.01953125,-1000.0,-647.94921875,-13.18359375,0.0
1734583824.5951202,-38.0859375,-941.89453125,-586.42578125,-9.27734375,0.0
1734583824.5990264,-57.6171875,-952.1484375,-481.4453125,-29.78515625,0.0
1734583824.6029327,-50.78125,-1000.0,-563.96484375,-5.859375,0.0
1734583824.6068387,-51.7578125,-997.55859375,-634.27734375,-5.859375,0.0
1734583824.610745,-49.8046875,-997.55859375,-566.40625,-20.99609375,0.0
1734583824.6146512,-32.2265625,-1000.0,-508.7890625,-30.2734375,0.0
1734583824.6267717,-38.0859375,-1000.0,-538.57421875,-35.64453125,0.0
1734583824.630678,-41.015625,-1000.0,-625.48828125,-10.25390625,0.0
1734583824.6345842,-41.015625,-996.58203125,-562.98828125,2.44140625,0.0
1734583824.6384902,-44.43359375,-996.58203125,-517.578125,-44.921875,0.0
1734583824.6423965,-35.64453125,-996.58203125,-576.66015625,-43.9453125,0.0
1734583824.6463027,-12.20703125,-980.95703125,-582.51953125,-8.30078125,0.0
1734583824.650209,-28.80859375,-945.80078125,-498.046875,3.41796875,0.0
1734583824.6541152,-50.78125,-923.33984375,-459.47265625,-9.27734375,0.0
1734583824.6580215,-34.1796875,-980.95703125,-541.50390625,-20.01953125,0.0
1734583824.6619275,-38.0859375,-983.3984375,-662.109375,-14.16015625,0.0
1734583824.6658337,-44.921875,-832.51953125,-498.046875,-20.01953125,0.0
1734583824.66974,-45.41015625,-839.35546875,-449.70703125,-12.6953125,0.0
1734583824.6784596,-65.91796875,-958.984375,-539.0625,-15.13671875,0.0
1734583824.6823657,-58.59375,-943.359375,-488.28125,-19.04296875,0.0
1734583824.686272,-27.83203125,-866.2109375,-464.35546875,-31.73828125,0.0
1734583824.6901782,-39.0625,-882.8125,-479.4921875,-29.78515625,0.0
1734583824.6940844,-59.5703125,-955.56640625,-514.16015625,7.32421875,0.0
1734583824.6979907,-38.57421875,-947.75390625,-516.11328125,-9.765625,0.0
1734583824.701897,-44.43359375,-873.53515625,-438.4765625,-59.08203125,0.0
1734583824.705803,-50.29296875,-872.55859375,-485.83984375,-57.12890625,0.0
1734583824.7097092,-27.83203125,-945.3125,-582.03125,-5.859375,0.0
1734583824.7136154,-30.76171875,-833.0078125,-494.62890625,-2.44140625,0.0
1734583824.7175217,-50.29296875,-689.453125,-433.10546875,-32.71484375,0.0
1734583824.721428,-62.01171875,-796.875,-545.8984375,-31.73828125,0.0
1734583824.7405815,-53.7109375,-803.22265625,-592.28515625,-45.41015625,0.0
1734583824.7444878,-49.8046875,-674.8046875,-533.69140625,-20.01953125,0.0
1734583824.748394,-35.64453125,-605.46875,-523.4375,-3.41796875,0.0
1734583824.7523003,-21.484375,-608.88671875,-576.66015625,-33.203125,0.0
1734583824.7562065,-38.0859375,-625.48828125,-618.1640625,-16.6015625,0.0
1734583824.7601125,-33.203125,-563.4765625,-608.88671875,8.7890625,0.0
1734583824.7640188,-21.484375,-468.75,-581.54296875,-32.2265625,0.0
1734583824.767925,-12.6953125,-457.51953125,-605.46875,-20.99609375,0.0
1734583824.7718313,-20.01953125,-598.14453125,-726.07421875,5.859375,0.0
1734583824.7757375,-37.109375,-402.34375,-580.56640625,-31.25,0.0
1734583824.7796438,-45.8984375,-355.95703125,-574.70703125,-37.109375,0.0
1734583824.78355,-48.33984375,-417.96875,-625.0,-13.18359375,0.0
1734583824.7784863,-38.0859375,-320.3125,0.0,-26.85546875,0.0
1734583824.7823925,-23.4375,-313.4765625,0.0,-9.27734375,0.0
1734583824.7862988,-20.99609375,-376.953125,0.0,1.46484375,0.0
1734583824.790205,-39.55078125,-412.109375,0.0,-12.20703125,0.0
1734583824.794111,-51.7578125,-374.51171875,0.0,-9.27734375,0.0
1734583824.7980173,-56.15234375,-403.80859375,0.0,-17.578125,0.0
1734583824.8019235,-55.6640625,-380.37109375,0.0,-42.96875,0.0
1734583824.8058298,-55.17578125,-394.53125,0.0,-36.62109375,0.0
1734583824.809736,-64.94140625,-418.45703125,0.0,-18.5546875,0.0
1734583824.8136423,-55.6640625,-413.57421875,0.0,-28.80859375,0.0
1734583824.8175485,-45.41015625,-441.89453125,0.0,-22.94921875,0.0
1734583824.8214548,-48.828125,-565.4296875,0.0,-10.7421875,0.0
1734583824.8204417,-66.40625,-507.32421875,-546.875,-26.3671875,0.0
1734583824.824348,-63.96484375,-472.65625,-471.19140625,-34.1796875,0.0
1734583824.8282542,-55.17578125,-577.63671875,-525.390625,-18.5546875,0.0
1734583824.8321605,-53.7109375,-677.734375,-631.8359375,-17.08984375,0.0
1734583824.8360667,-48.33984375,-557.12890625,-497.55859375,-22.4609375,0.0
1734583824.839973,-66.89453125,-514.16015625,-438.96484375,-18.5546875,0.0
1734583824.8438792,-61.03515625,-614.74609375,-519.04296875,0.9765625,0.0
1734583824.8477852,-33.203125,-680.6640625,-568.84765625,0.9765625,0.0
1734583824.8516915,-55.17578125,-520.01953125,-423.828125,-16.6015625,0.0
1734583824.8555977,-62.01171875,-494.62890625,-365.234375,-8.7890625,0.0
1734583824.859504,-42.48046875,-664.0625,-491.69921875,1.953125,0.0
1734583824.8634102,-65.91796875,-662.109375,-475.09765625,-7.32421875,0.0
1734583824.8710456,-57.12890625,-614.74609375,-461.9140625,-7.32421875,0.0
1734583824.8749518,-38.57421875,-627.44140625,-504.8828125,13.18359375,0.0
1734583824.878858,-35.64453125,-670.8984375,-569.82421875,-6.8359375,0.0
1734583824.8827643,-26.85546875,-622.0703125,-555.17578125,-11.23046875,0.0
1734583824.8866706,-42.48046875,-602.5390625,-532.71484375,-7.32421875,0.0
1734583824.8905768,-38.0859375,-624.51171875,-560.546875,-16.11328125,0.0
1734583824.894483,-29.296875,-646.484375,-595.21484375,-15.13671875,0.0
1734583824.898389,-35.64453125,-571.2890625,-518.06640625,-1.46484375,0.0
1734583824.9022954,-36.62109375,-421.875,-472.16796875,-2.9296875,0.0
1734583824.9062016,-39.55078125,-476.5625,-533.203125,-18.06640625,0.0
1734583824.9101079,-25.390625,-555.6640625,-575.1953125,-2.44140625,0.0
1734583824.914014,-28.80859375,-542.48046875,-498.046875,2.44140625,0.0
1734583824.9110272,-37.59765625,-559.08203125,-428.22265625,-12.20703125,0.0
1734583824.9149334,-21.97265625,-666.015625,-504.39453125,-4.8828125,0.0
1734583824.9188397,-32.2265625,-729.4921875,-589.84375,-3.90625,0.0
1734583824.922746,-31.73828125,-629.8828125,-497.55859375,0.9765625,0.0
1734583824.926652,-8.7890625,-574.70703125,-439.94140625,9.27734375,0.0
1734583824.9305582,-27.34375,-672.36328125,-526.3671875,10.7421875,0.0
1734583824.9344645,-41.015625,-673.828125,-529.78515625,-19.04296875,0.0
1734583824.9383707,-34.1796875,-540.52734375,-433.59375,-35.64453125,0.0
1734583824.942277,-24.4140625,-514.16015625,-411.62109375,2.44140625,0.0
1734583824.9461832,-26.85546875,-554.6875,-446.2890625,12.20703125,0.0
1734583824.9500892,-16.11328125,-658.69140625,-528.3203125,26.85546875,0.0
1734583824.9539955,-25.390625,-471.19140625,-338.8671875,9.765625,0.0
1734583824.9540808,-38.0859375,-413.0859375,-303.22265625,-7.8125,0.0
1734583824.957987,-39.0625,-497.55859375,-403.80859375,-14.16015625,0.0
1734583824.9618933,-41.015625,-420.41015625,-313.4765625,-5.859375,0.0
1734583824.9657996,-43.45703125,-358.3984375,-261.23046875,0.0,0.0
1734583824.9697056,-42.48046875,-379.8828125,-296.38671875,-20.01953125,0.0
1734583824.9736118,-42.48046875,-462.890625,-377.44140625,0.9765625,0.0
1734583824.977518,-59.08203125,-420.41015625,-321.2890625,7.8125,0.0
1734583824.9814243,-62.5,-285.64453125,-147.4609375,-16.11328125,0.0
1734583824.9853306,-43.45703125,-307.12890625,-183.59375,0.9765625,0.0
1734583824.9892366,-22.4609375,-397.4609375,-333.49609375,10.7421875,0.0
1734583824.9931428,-38.0859375,-326.66015625,-248.53515625,-17.578125,0.0
1734583824.997049,-62.98828125,-258.7890625,-225.09765625,-16.11328125,0.0
1734583825.0053139,-71.77734375,-267.578125,-236.328125,-9.27734375,0.0
1734583825.00922,-62.98828125,-343.75,-362.79296875,-19.53125,0.0
1734583825.0131261,-44.43359375,-261.23046875,-226.07421875,-16.6015625,0.0
1734583825.0170324,-45.8984375,-198.2421875,-56.15234375,-11.71875,0.0
1734583825.0209386,-44.43359375,-253.90625,-127.9296875,-21.484375,0.0
1734583825.024845,-41.9921875,-315.4296875,-267.578125,-17.08984375,0.0
1734583825.0287511,-57.12890625,-223.14453125,-97.16796875,-4.39453125,0.0
1734583825.0326571,-59.08203125,-162.59765625,187.01171875,-6.8359375,0.0
1734583825.0365634,-68.359375,-315.4296875,139.6484375,-30.2734375,0.0
1734583825.0404696,-92.7734375,-396.97265625,-50.78125,-40.52734375,0.0
1734583825.044376,-109.375,-235.83984375,236.81640625,-18.06640625,0.0
1734583825.0482821,-111.81640625,-218.26171875,374.51171875,-23.92578125,0.0
1734583825.0540266,-117.1875,-269.53125,242.1875,-40.52734375,0.0
1734583825.0579329,-129.8828125,-256.34765625,188.96484375,-40.52734375,0.0
1734583825.0618389,-136.71875,-259.765625,292.96875,-42.48046875,0.0
1734583825.065745,-175.78125,-312.01171875,248.53515625,-60.05859375,0.0
1734583825.0696514,-312.01171875,-531.25,-269.04296875,-122.55859375,0.0
1734583825.0735576,-423.828125,-685.546875,-563.96484375,-192.3828125,0.0
1734583825.0774639,-487.79296875,-668.45703125,-541.50390625,-230.95703125,0.0
1734583825.08137,-568.359375,-659.66796875,-570.80078125,-268.06640625,0.0
1734583825.0852764,-591.30859375,-733.3984375,-576.171875,-284.66796875,0.0
1734583825.0891824,-522.94921875,-615.72265625,-329.1015625,-253.90625,0.0
1734583825.0930886,-445.3125,-354.00390625,121.09375,-217.7734375,0.0
1734583825.0969949,-419.43359375,-369.62890625,342.7734375,-182.6171875,0.0
1734583825.0998783,0.0,-396.97265625,396.484375,-155.2734375,0.0
1734583825.1037843,0.0,-295.8984375,535.64453125,-128.41796875,0.0
1734583825.1076906,0.0,-246.58203125,654.78515625,-106.4453125,0.0
1734583825.1115968,0.0,-244.62890625,663.0859375,-76.66015625,0.0
1734583825.115503,0.0,-290.52734375,660.15625,-33.203125,0.0
1734583825.1194093,0.0,-257.8125,704.58984375,-25.390625,0.0
1734583825.1233156,0.0,-199.70703125,714.84375,-20.01953125,0.0
1734583825.1272216,0.0,-210.44921875,712.890625,-25.390625,0.0
1734583825.1311278,0.0,-290.52734375,701.171875,-4.8828125,0.0
1734583825.135034,0.0,-205.078125,763.18359375,18.06640625,0.0
1734583825.1389403,0.0,-246.58203125,754.39453125,-4.39453125,0.0
1734583825.1428466,0.0,-373.53515625,742.1875,-0.48828125,0.0
1734583825.1528451,-100.09765625,-326.66015625,772.4609375,0.48828125,0.0
1734583825.1567514,-103.515625,-297.36328125,782.71484375,-5.37109375,0.0
1734583825.1606576,-104.00390625,-351.07421875,770.5078125,11.71875,0.0
1734583825.164564,-94.23828125,-429.19921875,730.95703125,16.6015625,0.0
1734583825.16847,-124.0234375,-397.94921875,750.0,-12.6953125,0.0
1734583825.1723762,-129.39453125,-376.953125,745.60546875,-11.71875,0.0
1734583825.1762824,-113.28125,-298.828125,756.34765625,30.76171875,0.0
1734583825.1801887,-105.95703125,-315.4296875,732.421875,32.2265625,0.0
1734583825.184095,-125.0,-374.51171875,706.0546875,-6.8359375,0.0
1734583825.1880012,-129.39453125,-280.2734375,759.27734375,-18.06640625,0.0
1734583825.1919074,-116.69921875,-266.11328125,765.13671875,9.765625,0.0
1734583825.1958134,-110.3515625,-304.19921875,762.20703125,-4.39453125,0.0
1734583825.193954,-111.81640625,-267.08984375,764.6484375,-20.5078125,0.0
1734583825.1978602,-125.0,-257.8125,737.79296875,-12.6953125,0.0
1734583825.2017663,-125.48828125,-319.82421875,697.265625,-14.6484375,0.0
1734583825.2056725,-116.2109375,-347.65625,688.4765625,-12.20703125,0.0
1734583825.2095788,-108.3984375,-292.96875,717.7734375,16.11328125,0.0
1734583825.213485,-66.89453125,-297.36328125,724.609375,24.4140625,0.0
1734583825.2173913,-64.453125,-349.12109375,674.31640625,-13.18359375,0.0
1734583825.2212975,-123.53515625,-369.62890625,635.7421875,-35.15625,0.0
1734583825.2252035,-114.74609375,-328.125,712.890625,-29.296875,0.0
1734583825.2291098,-91.30859375,-324.21875,741.2109375,-22.4609375,0.0
1734583825.233016,-95.21484375,-392.578125,714.84375,0.48828125,0.0
1734583825.2369223,-90.33203125,-525.87890625,682.12890625,-1.46484375,0.0
1734583825.237642,-111.81640625,-412.59765625,723.6328125,-38.57421875,0.0
1734583825.2415483,-118.1640625,-329.1015625,735.3515625,-39.55078125,0.0
1734583825.2454545,-97.16796875,-389.16015625,725.09765625,-23.4375,0.0
1734583825.2493608,-72.265625,-338.8671875,740.72265625,-5.37109375,0.0
1734583825.2532668,-57.12890625,-331.54296875,727.5390625,-11.23046875,0.0
1734583825.257173,-72.75390625,-384.27734375,698.73046875,-20.99609375,0.0
1734583825.2610793,-83.0078125,-385.25390625,656.73828125,-24.4140625,0.0
1734583825.2649856,-79.58984375,-307.12890625,675.29296875,-36.62109375,0.0
1734583825.2688918,-60.546875,-208.0078125,726.07421875,3.90625,0.0
1734583825.272798,-50.29296875,-260.25390625,686.5234375,29.296875,0.0
1734583825.276704,-62.98828125,-301.26953125,689.94140625,-24.90234375,0.0
1734583825.2806103,-106.4453125,-268.06640625,689.94140625,-48.828125,0.0
1734583825.2815125,-91.30859375,-232.421875,689.94140625,-42.96875,0.0
1734583825.2854187,-62.98828125,-250.0,677.24609375,-30.2734375,0.0
1734583825.289325,-73.2421875,-356.93359375,628.41796875,-3.90625,0.0
1734583825.2932312,-83.984375,-294.921875,655.2734375,-19.53125,0.0
1734583825.2971375,-90.33203125,-244.140625,668.45703125,-26.3671875,0.0
1734583825.3010437,-81.0546875,-338.8671875,609.375,-16.11328125,0.0
1734583825.3049498,-58.10546875,-387.6953125,555.17578125,-11.71875,0.0
1734583825.308856,-44.43359375,-232.421875,643.06640625,-13.671875,0.0
1734583825.3127623,-49.8046875,-199.70703125,639.16015625,-17.578125,0.0
1734583825.3166685,-43.9453125,-292.48046875,604.00390625,-16.6015625,0.0
1734583825.3205748,-47.36328125,-250.0,640.625,-45.8984375,0.0
1734583825.3244808,-54.19921875,-201.171875,627.44140625,-42.96875,0.0
1734583825.3489254,-42.48046875,-226.5625,596.6796875,-15.13671875,0.0
1734583825.3528316,-66.89453125,-275.390625,571.77734375,-20.99609375,0.0
1734583825.3567379,-77.63671875,-250.9765625,571.77734375,-23.4375,0.0
1734583825.360644,-83.984375,-202.1484375,576.171875,-35.15625,0.0
1734583825.3645504,-76.66015625,-200.1953125,582.51953125,-34.66796875,0.0
1734583825.3684566,-59.08203125,-255.37109375,548.33984375,-18.06640625,0.0
1734583825.3723629,-72.265625,-266.6015625,539.55078125,-31.25,0.0
1734583825.3762689,-90.33203125,-204.1015625,566.89453125,-49.8046875,0.0
1734583825.380175,-81.0546875,-200.1953125,553.7109375,-50.78125,0.0
1734583825.3840814,-71.2890625,-215.8203125,528.3203125,-33.69140625,0.0
1734583825.3879876,-52.24609375,-141.6015625,548.828125,-13.18359375,0.0
1734583825.3918939,-53.22265625,-108.3984375,538.0859375,-20.01953125,0.0
1734583825.383218,-55.17578125,-160.15625,487.79296875,-27.83203125,0.0
1734583825.3871243,-57.12890625,-201.66015625,448.2421875,-30.76171875,0.0
1734583825.3910306,-73.73046875,-152.83203125,485.83984375,-28.80859375,0.0
1734583825.3949368,-73.2421875,-171.875,523.92578125,-18.5546875,0.0
1734583825.398843,-78.125,-287.59765625,420.41015625,5.859375,0.0
1734583825.4027493,-90.8203125,-404.296875,275.87890625,-19.04296875,0.0
1734583825.4066553,-99.12109375,-366.69921875,399.4140625,-42.48046875,0.0
1734583825.4105616,-92.28515625,-329.58984375,483.3984375,-17.578125,0.0
1734583825.4144678,-64.453125,-418.45703125,394.04296875,-3.90625,0.0
1734583825.418374,-59.08203125,-463.8671875,292.48046875,-18.06640625,0.0
1734583825.4222803,-71.77734375,-412.59765625,375.0,-36.62109375,0.0
1734583825.4261866,-82.03125,-418.45703125,410.15625,-48.828125,0.0
1734583825.4292445,-78.61328125,-457.51953125,317.87109375,-30.2734375,0.0
1734583825.4331508,-66.89453125,-426.26953125,306.15234375,-7.8125,0.0
1734583825.4370568,-79.1015625,-414.55078125,395.99609375,-21.484375,0.0
1734583825.440963,-89.35546875,-463.37890625,333.984375,-48.33984375,0.0
1734583825.4448693,-82.51953125,-530.76171875,109.86328125,-28.80859375,0.0
1734583825.4487755,-68.359375,-596.19140625,-134.765625,4.8828125,0.0
1734583825.4526818,-35.15625,-422.8515625,236.328125,0.0,0.0
1734583825.456588,-34.66796875,-347.16796875,427.734375,-13.671875,0.0
1734583825.460494,-69.3359375,-472.65625,68.84765625,-24.4140625,0.0
1734583825.4644003,-87.40234375,-435.05859375,-21.484375,-36.1328125,0.0
1734583825.4683065,-75.68359375,-340.8203125,102.05078125,-30.2734375,0.0
1734583825.4722128,-52.734375,-359.86328125,60.546875,-12.20703125,0.0
1734583825.47519,-50.78125,-395.5078125,-71.2890625,-15.13671875,0.0
1734583825.479096,-72.75390625,-373.046875,-102.5390625,-42.96875,0.0
1734583825.4830022,-84.9609375,-359.375,-104.4921875,-37.59765625,0.0
1734583825.4869084,-82.03125,-387.6953125,-160.15625,-22.4609375,0.0
1734583825.4908147,-59.5703125,-394.53125,-191.89453125,-28.3203125,0.0
1734583825.494721,-66.89453125,-370.60546875,-138.671875,-13.671875,0.0
1734583825.4986272,-99.12109375,-340.33203125,-103.02734375,-22.94921875,0.0
1734583825.5025332,-91.30859375,-336.42578125,-171.38671875,-48.828125,0.0
1734583825.5064394,-81.0546875,-417.96875,-349.609375,-45.41015625,0.0
1734583825.5103457,-83.0078125,-302.24609375,-78.61328125,-42.48046875,0.0
1734583825.514252,-46.38671875,-214.35546875,81.54296875,-19.53125,0.0
1734583825.5181582,-69.3359375,-287.109375,-154.78515625,-20.99609375,0.0
1734583825.5211084,-105.95703125,-283.203125,-226.07421875,-44.921875,0.0
1734583825.5250144,-99.12109375,-243.1640625,-103.02734375,-34.66796875,0.0
1734583825.5289207,-79.1015625,-279.78515625,-95.21484375,-29.78515625,0.0
1734583825.532827,-57.6171875,-304.19921875,-130.859375,-17.578125,0.0
1734583825.5367332,-64.453125,-289.55078125,-145.01953125,-9.765625,0.0
1734583825.5406394,-78.125,-325.68359375,-229.4921875,-26.85546875,0.0
1734583825.5445457,-81.0546875,-337.890625,-226.07421875,-35.15625,0.0
1734583825.5484517,-60.546875,-355.46875,-231.93359375,-9.765625,0.0
1734583825.552358,-46.875,-336.9140625,-210.9375,-8.30078125,0.0
1734583825.5562642,-59.08203125,-275.390625,-91.796875,-41.50390625,0.0
1734583825.5601704,-76.171875,-300.78125,-152.34375,-59.08203125,0.0
1734583825.5640767,-67.87109375,-342.28515625,-264.16015625,-52.734375,0.0
1734583825.5738184,-52.734375,-307.6171875,-171.38671875,-27.34375,0.0
1734583825.5777247,-35.15625,-268.5546875,-51.7578125,-11.71875,0.0
1734583825.581631,-27.83203125,-310.546875,-148.92578125,-30.76171875,0.0
1734583825.5855372,-50.78125,-359.375,-304.6875,-33.69140625,0.0
1734583825.5894434,-76.171875,-325.1953125,-251.46484375,-46.875,0.0
1734583825.5933495,-67.3828125,-319.3359375,-212.40234375,-24.4140625,0.0
1734583825.5972557,-46.875,-318.359375,-181.15234375,-5.37109375,0.0
1734583825.601162,-37.109375,-373.046875,-279.78515625,-36.1328125,0.0
1734583825.6050682,-49.31640625,-290.0390625,-139.6484375,-63.4765625,0.0
1734583825.6089745,-49.31640625,-236.328125,-25.87890625,-54.6875,0.0
1734583825.6128807,-56.15234375,-290.52734375,-164.0625,-41.015625,0.0
1734583825.616787,-40.0390625,-251.46484375,-129.8828125,-32.71484375,0.0
1734583825.6148138,-20.99609375,-225.09765625,-61.03515625,-12.20703125,0.0
1734583825.61872,-37.59765625,-261.23046875,-161.62109375,-40.0390625,0.0
1734583825.6226263,-47.36328125,-289.55078125,-257.8125,-44.921875,0.0
1734583825.6265326,-45.41015625,-256.8359375,-194.3359375,-24.4140625,0.0
1734583825.6304388,-24.4140625,-208.49609375,-88.8671875,-16.11328125,0.0
1734583825.6343448,-25.390625,-245.1171875,-176.7578125,-7.32421875,0.0
1734583825.638251,-24.4140625,-284.66796875,-280.2734375,-20.01953125,0.0
1734583825.6421573,-45.41015625,-233.88671875,-206.0546875,-37.59765625,0.0
1734583825.6460636,-71.2890625,-213.37890625,-195.3125,-44.43359375,0.0
1734583825.6499698,-39.0625,-220.21484375,-202.63671875,-37.59765625,0.0
1734583825.653876,-11.71875,-246.58203125,-241.2109375,-20.5078125,0.0
1734583825.657782,-20.99609375,-216.30859375,-235.83984375,-22.4609375,0.0
1734583825.65762,-48.33984375,-151.3671875,-115.72265625,-37.59765625,0.0
1734583825.6615262,-40.0390625,-203.125,-174.31640625,-32.2265625,0.0
1734583825.6654325,-14.16015625,-233.88671875,-225.09765625,-14.6484375,0.0
1734583825.6693385,-20.01953125,-185.546875,-103.02734375,1.46484375,0.0
1734583825.6732447,-45.41015625,-181.640625,-109.375,-10.25390625,0.0
1734583825.677151,-42.96875,-255.37109375,-283.203125,-22.4609375,0.0
1734583825.6810572,-18.06640625,-312.98828125,-390.625,-26.85546875,0.0
1734583825.6849635,-38.57421875,-191.40625,-98.6328125,-24.90234375,0.0
1734583825.6888695,-36.62109375,-127.9296875,66.40625,-16.6015625,0.0
1734583825.6927757,-36.1328125,-206.0546875,-131.34765625,-17.08984375,0.0
1734583825.696682,-58.59375,-228.515625,-225.09765625,-5.859375,0.0
1734583825.7005882,-56.640625,-207.03125,-159.66796875,-25.87890625,0.0
1734583825.702254,-44.43359375,-222.65625,-159.66796875,-34.66796875,0.0
1734583825.70616,-22.4609375,-200.1953125,-153.3203125,-29.78515625,0.0
1734583825.7100663,-25.87890625,-164.55078125,-142.08984375,-47.8515625,0.0
1734583825.7139726,-66.40625,-178.22265625,-177.734375,-75.1953125,0.0
1734583825.7178788,-73.2421875,-188.96484375,-187.5,-57.12890625,0.0
1734583825.721785,-45.41015625,-169.43359375,-267.08984375,-29.296875,0.0
1734583825.725691,-24.90234375,-60.546875,-190.91796875,-6.34765625,0.0
1734583825.7295973,-26.3671875,-28.80859375,-19.53125,8.30078125,0.0
1734583825.7335036,-28.3203125,-187.01171875,-166.015625,-2.9296875,0.0
1734583825.7374098,-60.05859375,-328.125,-289.0625,-54.6875,0.0
1734583825.741316,-66.89453125,-328.61328125,-131.8359375,-62.98828125,0.0
1734583825.745222,-39.0625,-306.15234375,-10.7421875,-40.0390625,0.0
1734583825.7540905,-44.921875,-375.9765625,-88.8671875,-48.828125,0.0
1734583825.7579968,-68.359375,-485.83984375,-293.9453125,-47.8515625,0.0
1734583825.7619028,-75.1953125,-447.265625,-214.35546875,-36.1328125,0.0
1734583825.765809,-72.265625,-417.96875,-114.2578125,-22.94921875,0.0
1734583825.7697153,-79.1015625,-440.91796875,-176.26953125,-26.3671875,0.0
1734583825.7736216,-61.5234375,-480.46875,-291.9921875,-36.62109375,0.0
1734583825.7775278,-64.453125,-427.734375,-237.3046875,-57.6171875,0.0
1734583825.781434,-80.56640625,-351.07421875,-105.95703125,-42.96875,0.0
1734583825.78534,-59.08203125,-405.76171875,-186.03515625,-20.99609375,0.0
1734583825.7892463,-41.50390625,-417.48046875,-252.9296875,-48.33984375,0.0
1734583825.7931526,-52.24609375,-330.078125,-84.9609375,-34.66796875,0.0
1734583825.7970588,-66.40625,-347.16796875,-118.1640625,-23.92578125,0.0
1734583825.810423,-80.56640625,-416.9921875,-260.7421875,-57.6171875,0.0
1734583825.8143291,-80.56640625,-422.8515625,-225.09765625,-45.8984375,0.0
1734583825.8182354,-45.8984375,-389.16015625,-122.55859375,-27.83203125,0.0
1734583825.8221416,-38.57421875,-384.765625,-112.3046875,-35.15625,0.0
1734583825.826048,-64.453125,-433.10546875,-237.3046875,-44.43359375,0.0
1734583825.829954,-77.1484375,-442.87109375,-310.546875,-51.26953125,0.0
1734583825.8338602,-63.4765625,-394.04296875,-233.88671875,-28.3203125,0.0
1734583825.8377664,-57.12890625,-365.234375,-169.921875,-18.06640625,0.0
1734583825.8416727,-40.52734375,-389.6484375,-214.84375,-22.4609375,0.0
1734583825.845579,-45.8984375,-379.8828125,-225.5859375,-35.64453125,0.0
1734583825.8494852,-70.80078125,-305.6640625,-140.13671875,-55.17578125,0.0
1734583825.8533914,-66.89453125,-323.2421875,-180.6640625,-49.8046875,0.0
1734583825.8531249,-62.98828125,-342.7734375,-236.328125,-36.62109375,0.0
1734583825.857031,-60.546875,-291.9921875,-133.7890625,-35.15625,0.0
1734583825.8609374,-73.2421875,-285.15625,-125.0,-54.6875,0.0
1734583825.8648436,-70.80078125,-322.265625,-266.11328125,-55.6640625,0.0
1734583825.8687496,-73.73046875,-345.21484375,-339.84375,-41.015625,0.0
1734583825.8726559,-67.3828125,-319.82421875,-269.04296875,-50.29296875,0.0
1734583825.876562,-43.9453125,-261.71875,-160.15625,-38.0859375,0.0
1734583825.8804684,-34.1796875,-276.3671875,-211.42578125,-11.23046875,0.0
1734583825.8843746,-76.171875,-318.84765625,-288.57421875,-39.0625,0.0
1734583825.8882809,-89.84375,-277.34375,-232.421875,-54.6875,0.0
1734583825.892187,-61.5234375,-258.30078125,-245.60546875,-31.25,0.0
1734583825.8960931,-32.2265625,-266.11328125,-253.90625,-3.90625,0.0
1734583825.8967955,-43.45703125,-331.0546875,-368.65234375,3.41796875,0.0
1734583825.9007018,-58.59375,-253.90625,-278.3203125,-29.78515625,0.0
1734583825.904608,-59.5703125,-241.2109375,-270.5078125,-33.69140625,0.0
1734583825.9085143,-53.7109375,-289.55078125,-366.2109375,-24.4140625,0.0
1734583825.9124205,-21.484375,-252.44140625,-319.82421875,-16.11328125,0.0
1734583825.9163268,-30.2734375,-276.3671875,-361.81640625,-32.2265625,0.0
1734583825.920233,-70.80078125,-281.73828125,-397.94921875,-39.55078125,0.0
1734583825.924139,-60.05859375,-309.08203125,-437.5,-43.9453125,0.0
1734583825.9280453,-44.43359375,-314.453125,-407.2265625,-41.9921875,0.0
1734583825.9319515,-41.9921875,-217.7734375,-327.63671875,-22.4609375,0.0
1734583825.9358578,-44.921875,-208.984375,-367.67578125,-45.41015625,0.0
1734583825.939764,-54.6875,-267.578125,-461.42578125,-47.8515625,0.0
1734583825.9410229,-62.01171875,-270.5078125,-435.546875,-43.9453125,0.0
1734583825.9449291,-71.2890625,-260.7421875,-415.52734375,-58.59375,0.0
1734583825.9488354,-57.6171875,-237.3046875,-426.26953125,-37.109375,0.0
1734583825.9527414,-29.296875,-247.55859375,-454.58984375,-35.15625,0.0
1734583825.9566476,-52.24609375,-255.37109375,-460.44921875,-47.36328125,0.0
1734583825.960554,-59.5703125,-267.08984375,-456.0546875,-41.9921875,0.0
1734583825.9644601,-49.31640625,-279.78515625,-462.40234375,-49.31640625,0.0
1734583825.9683664,-36.1328125,-316.40625,-480.95703125,-46.875,0.0
1734583825.9722726,-14.6484375,-225.5859375,-359.86328125,-26.3671875,0.0
1734583825.9761786,-43.9453125,-208.49609375,-395.99609375,-39.0625,0.0
1734583825.980085,-68.84765625,-300.78125,-490.72265625,-47.36328125,0.0
1734583825.9839911,-73.73046875,-287.109375,-416.9921875,-27.34375,0.0
1734583825.9940598,-56.15234375,-223.14453125,-379.39453125,-39.55078125,0.0
1734583825.997966,-31.73828125,-206.54296875,-424.8046875,-30.76171875,0.0
1734583826.0018723,-55.6640625,-249.0234375,-494.140625,-39.55078125,0.0
1734583826.0057786,-73.2421875,-251.46484375,-464.35546875,-63.96484375,0.0
1734583826.0096848,-72.75390625,-241.69921875,-467.28515625,-52.734375,0.0
1734583826.0135908,-55.6640625,-231.4453125,-475.09765625,-34.66796875,0.0
1734583826.017497,-43.9453125,-248.046875,-479.4921875,-38.0859375,0.0
1734583826.0214033,-64.94140625,-246.58203125,-481.93359375,-53.22265625,0.0
1734583826.0253096,-91.30859375,-198.2421875,-478.515625,-60.05859375,0.0
1734583826.0292158,-94.7265625,-222.65625,-510.25390625,-76.171875,0.0
1734583826.033122,-85.9375,-213.37890625,-515.625,-63.4765625,0.0
1734583826.0370283,-72.75390625,-177.24609375,-503.41796875,-64.453125,0.0
1734583826.0424986,-91.796875,-183.10546875,-512.20703125,-101.07421875,0.0
1734583826.0464048,-121.09375,-241.69921875,-592.28515625,-131.34765625,0.0
1734583826.050311,-135.25390625,-273.4375,-651.3671875,-119.62890625,0.0
1734583826.0542173,-141.6015625,-229.00390625,-594.23828125,-126.953125,0.0
1734583826.0581236,-151.85546875,-206.0546875,-575.1953125,-136.23046875,0.0
1734583826.0620298,-160.15625,-276.85546875,-658.69140625,-134.765625,0.0
1734583826.065936,-175.29296875,-317.87109375,-690.91796875,-163.0859375,0.0
1734583826.0698423,-204.1015625,-272.4609375,-672.36328125,-193.84765625,0.0
1734583826.0737484,-203.125,-217.28515625,-639.16015625,-210.44921875,0.0
1734583826.0776546,-208.49609375,-233.3984375,-667.96875,-180.17578125,0.0
1734583826.0815609,-190.4296875,-320.80078125,-752.9296875,-158.203125,0.0
1734583826.085467,-191.89453125,-233.88671875,-678.22265625,-183.10546875,0.0
1734583826.0817227,-208.0078125,-193.84765625,-673.828125,-171.38671875,0.0
1734583826.085629,-192.3828125,-233.88671875,-720.21484375,-157.71484375,0.0
1734583826.089535,-176.26953125,-206.0546875,-660.64453125,-164.55078125,0.0
1734583826.0934412,-176.7578125,-187.01171875,-660.64453125,-165.52734375,0.0
1734583826.0973475,-183.10546875,-217.28515625,-725.5859375,-158.203125,0.0
1734583826.1012537,-172.36328125,-279.78515625,-746.58203125,-131.8359375,0.0
1734583826.10516,-166.9921875,-258.7890625,-710.44921875,-104.00390625,0.0
1734583826.1090662,-139.16015625,-173.828125,-653.80859375,-83.0078125,0.0
1734583826.1129723,-118.1640625,-175.29296875,-696.2890625,-74.21875,0.0
1734583826.1168785,-125.0,-269.04296875,-768.5546875,-49.31640625,0.0
1734583826.1207848,-120.60546875,-262.6953125,-694.82421875,-34.66796875,0.0
1734583826.124691,-105.46875,-159.66796875,-662.59765625,-61.03515625,0.0
1734583826.1311803,-75.1953125,-174.8046875,-700.68359375,-51.7578125,0.0
1734583826.1350865,-72.75390625,-236.81640625,-750.0,-12.6953125,0.0
1734583826.1389925,-83.0078125,-246.09375,-748.046875,-25.87890625,0.0
1734583826.1428988,-85.44921875,-252.9296875,-726.5625,-23.4375,0.0
1734583826.146805,-70.80078125,-295.8984375,-742.67578125,-17.578125,0.0
1734583826.1507113,-41.50390625,-337.890625,-744.140625,-6.8359375,0.0
1734583826.1546175,-19.53125,-270.99609375,-665.52734375,2.44140625,0.0
1734583826.1585238,-48.828125,-251.953125,-690.4296875,-4.8828125,0.0
1734583826.1624298,-72.265625,-317.87109375,-749.51171875,-13.671875,0.0
1734583826.166336,-57.12890625,-317.87109375,-682.6171875,-26.3671875,0.0
1734583826.1702423,-56.640625,-250.48828125,-653.3203125,-1.953125,0.0
1734583826.1741486,-36.1328125,-226.07421875,-658.203125,32.71484375,0.0
1734583826.1786144,-42.48046875,-289.55078125,-713.8671875,46.38671875,0.0
1734583826.1825206,-43.9453125,-353.515625,-727.5390625,28.80859375,0.0
1734583826.1864269,-61.5234375,-268.06640625,-632.32421875,6.8359375,0.0
1734583826.1903331,-63.4765625,-231.93359375,-629.39453125,27.34375,0.0
1734583826.1942391,-24.4140625,-267.08984375,-648.4375,39.55078125,0.0
1734583826.1981454,-16.6015625,-297.8515625,-669.43359375,42.48046875,0.0
1734583826.2020516,-28.3203125,-295.8984375,-658.203125,32.71484375,0.0
1734583826.205958,-38.57421875,-254.8828125,-634.27734375,1.46484375,0.0
1734583826.2098641,-35.64453125,-308.10546875,-665.52734375,12.6953125,0.0
1734583826.2137704,-17.08984375,-299.8046875,-576.66015625,41.9921875,0.0
1734583826.2176764,-10.7421875,-207.03125,-552.734375,31.25,0.0
1734583826.2215827,-46.38671875,-259.27734375,-632.8125,0.48828125,0.0
1734583826.2246668,-34.1796875,-312.98828125,-658.203125,17.578125,0.0
1734583826.228573,-11.23046875,-268.5546875,-611.81640625,43.45703125,0.0
1734583826.232479,-32.71484375,-226.5625,-548.33984375,15.625,0.0
1734583826.2363853,-32.71484375,-264.16015625,-585.9375,6.8359375,0.0
1734583826.2402916,-31.25,-338.37890625,-698.2421875,-1.46484375,0.0
1734583826.2441978,-13.18359375,-292.96875,-616.2109375,-5.859375,0.0
1734583826.248104,-12.6953125,-250.9765625,-543.45703125,32.71484375,0.0
1734583826.2520103,-16.11328125,-261.71875,-553.22265625,51.26953125,0.0
1734583826.2559164,-12.6953125,-315.91796875,-606.93359375,36.1328125,0.0
1734583826.2598226,-34.1796875,-251.46484375,-544.43359375,14.6484375,0.0
1734583826.2637289,-23.92578125,-208.49609375,-521.484375,7.32421875,0.0
1734583826.267635,-4.39453125,-263.671875,-587.40234375,19.04296875,0.0
1734583826.2936282,-14.6484375,-247.55859375,-505.859375,24.4140625,0.0
1734583826.2975345,-19.04296875,-217.7734375,-510.25390625,37.59765625,0.0
1734583826.3014407,-24.4140625,-270.5078125,-587.890625,19.04296875,0.0
1734583826.305347,-44.43359375,-311.5234375,-604.98046875,-8.7890625,0.0
1734583826.3092532,-41.50390625,-295.41015625,-586.9140625,-2.9296875,0.0
1734583826.3131592,-31.25,-308.59375,-576.171875,23.92578125,0.0
1734583826.3170655,-19.04296875,-309.08203125,-576.66015625,8.7890625,0.0
1734583826.3209717,-35.15625,-358.88671875,-637.6953125,-11.71875,0.0
1734583826.324878,-59.08203125,-392.08984375,-615.72265625,-8.30078125,0.0
1734583826.3287842,-44.43359375,-315.4296875,-558.59375,-24.4140625,0.0
1734583826.3326905,-43.9453125,-296.38671875,-595.21484375,-15.625,0.0
1734583826.3365967,-35.15625,-336.42578125,-655.76171875,17.08984375,0.0
1734583826.3274488,-37.109375,-350.09765625,-670.8984375,13.18359375,0.0
1734583826.331355,-54.19921875,-348.14453125,-674.31640625,-25.390625,0.0
1734583826.3352613,-57.6171875,-371.09375,-700.68359375,-18.06640625,0.0
1734583826.3391676,-41.015625,-383.30078125,-716.30859375,-6.8359375,0.0
1734583826.3430738,-15.625,-348.14453125,-666.015625,-13.671875,0.0
1734583826.3469799,-33.203125,-376.46484375,-698.2421875,-15.625,0.0
1734583826.350886,-53.22265625,-405.76171875,-729.98046875,-17.578125,0.0
1734583826.3547924,-38.57421875,-388.671875,-689.453125,-8.7890625,0.0
1734583826.3586986,-26.85546875,-327.63671875,-642.08984375,-0.9765625,0.0
1734583826.3626049,-2.9296875,-263.18359375,-646.484375,9.765625,0.0
1734583826.366511,-13.18359375,-279.78515625,-705.56640625,4.8828125,0.0
1734583826.3704174,-25.390625,-289.0625,-676.26953125,-11.71875,0.0
1734583826.3661997,-20.01953125,-215.33203125,-636.23046875,-29.296875,0.0
1734583826.3701057,-28.80859375,-207.03125,-646.484375,-24.4140625,0.0
1734583826.374012,1.46484375,-233.88671875,-658.203125,13.671875,0.0
1734583826.3779182,4.39453125,-225.5859375,-610.83984375,13.671875,0.0
1734583826.3818245,-32.71484375,-219.7265625,-628.41796875,-22.94921875,0.0
1734583826.3857307,-32.71484375,-233.88671875,-657.2265625,-42.48046875,0.0
1734583826.389637,-23.92578125,-249.51171875,-632.8125,-36.1328125,0.0
1734583826.393543,-11.23046875,-276.85546875,-644.04296875,-3.90625,0.0
1734583826.3974493,-24.4140625,-187.5,-530.2734375,-8.7890625,0.0
1734583826.4013555,-44.43359375,-179.19921875,-549.31640625,-10.25390625,0.0
1734583826.4052618,-44.921875,-219.23828125,-600.09765625,-30.2734375,0.0
1734583826.409168,-47.36328125,-182.12890625,-530.76171875,-66.89453125,0.0
1734583826.408584,-27.83203125,-136.23046875,-487.79296875,-35.64453125,0.0
1734583826.4124901,-20.99609375,-161.1328125,-525.87890625,0.9765625,0.0
1734583826.4163964,-21.484375,-220.21484375,-597.16796875,-11.23046875,0.0
1734583826.4203026,-30.76171875,-185.546875,-545.41015625,-29.296875,0.0
1734583826.4242089,-45.41015625,-161.1328125,-493.1640625,-24.90234375,0.0
1734583826.4281151,-4.8828125,-198.2421875,-508.7890625,-34.1796875,0.0
1734583826.4320214,5.859375,-248.046875,-576.171875,-18.5546875,0.0
1734583826.4359274,-27.34375,-173.828125,-486.81640625,-29.78515625,0.0
1734583826.4398336,-33.69140625,-145.99609375,-444.82421875,-45.8984375,0.0
1734583826.44374,-20.99609375,-197.265625,-497.0703125,-23.92578125,0.0
1734583826.4476461,-7.32421875,-180.17578125,-427.734375,-26.85546875,0.0
1734583826.4515524,-12.20703125,-160.64453125,-414.55078125,-14.6484375,0.0
1734583826.4520857,-23.4375,-188.96484375,-459.9609375,-18.06640625,0.0
1734583826.455992,-41.50390625,-232.421875,-481.93359375,-40.0390625,0.0
1734583826.4598982,-47.8515625,-220.21484375,-429.6875,-38.0859375,0.0
1734583826.4638042,-31.25,-176.26953125,-378.41796875,-39.55078125,0.0
1734583826.4677105,8.7890625,-177.24609375,-408.203125,-38.0859375,0.0
1734583826.4716167,-15.625,-244.140625,-471.19140625,-17.578125,0.0
1734583826.475523,-44.43359375,-260.7421875,-426.7578125,-31.73828125,0.0
1734583826.4794292,-32.71484375,-177.24609375,-355.46875,-53.22265625,0.0
1734583826.4833353,-31.25,-185.05859375,-406.25,-26.85546875,0.0
1734583826.4872415,-15.625,-231.4453125,-422.8515625,-7.8125,0.0
1734583826.4911478,-24.4140625,-193.84765625,-381.34765625,-16.11328125,0.0
1734583826.495054,-50.78125,-184.5703125,-397.4609375,-36.62109375,0.0
1734583826.5122368,-43.9453125,-220.703125,-431.15234375,-55.17578125,0.0
1734583826.516143,-22.4609375,-243.1640625,-447.265625,-14.6484375,0.0
1734583826.5200493,-16.11328125,-203.125,-388.671875,3.41796875,0.0
1734583826.5239556,-15.13671875,-191.89453125,-379.39453125,-44.43359375,0.0
1734583826.5278616,-27.34375,-248.046875,-430.6640625,-68.359375,0.0
1734583826.5317678,-51.26953125,-306.640625,-484.86328125,-54.19921875,0.0
1734583826.535674,-47.8515625,-255.859375,-399.4140625,-41.50390625,0.0
1734583826.5395803,-20.5078125,-198.73046875,-339.84375,-13.18359375,0.0
1734583826.5434866,-13.671875,-254.39453125,-429.19921875,-3.41796875,0.0
1734583826.5473928,-30.2734375,-325.1953125,-509.765625,-26.3671875,0.0
1734583826.551299,-44.921875,-235.3515625,-403.3203125,-48.828125,0.0
1734583826.555205,-36.1328125,-202.63671875,-364.74609375,-62.98828125,0.0
1734583826.5561352,-9.765625,-242.1875,-401.3671875,-24.90234375,0.0
1734583826.5600414,5.859375,-231.4453125,-365.234375,-3.90625,0.0
1734583826.5639474,-37.59765625,-235.3515625,-376.953125,-46.875,0.0
1734583826.5678537,-68.359375,-251.46484375,-405.76171875,-60.546875,0.0
1734583826.57176,-52.24609375,-270.99609375,-409.1796875,-55.6640625,0.0
1734583826.5756662,-27.83203125,-269.04296875,-376.46484375,-41.9921875,0.0
1734583826.5795724,-11.71875,-223.6328125,-328.61328125,-30.2734375,0.0
1734583826.5834787,-32.2265625,-218.75,-369.62890625,-49.31640625,0.0
1734583826.587385,-50.78125,-289.0625,-425.78125,-36.62109375,0.0
1734583826.591291,-52.734375,-261.71875,-350.5859375,-41.9921875,0.0
1734583826.5951972,-27.83203125,-195.80078125,-286.1328125,-33.69140625,0.0
1734583826.5991035,-22.94921875,-224.609375,-329.58984375,-7.8125,0.0
1734583826.6013992,-31.73828125,-288.0859375,-438.96484375,-44.43359375,0.0
1734583826.6053054,-37.109375,-239.74609375,-354.98046875,-70.80078125,0.0
1734583826.6092114,-76.171875,-175.29296875,-270.99609375,-49.8046875,0.0
1734583826.6131177,-55.17578125,-200.1953125,-321.2890625,-35.64453125,0.0
1734583826.617024,-18.06640625,-210.9375,-366.69921875,-26.3671875,0.0
1734583826.6209302,-19.04296875,-223.6328125,-382.32421875,-12.20703125,0.0
1734583826.6248364,-47.8515625,-210.9375,-350.09765625,-33.203125,0.0
1734583826.6287427,-49.8046875,-191.89453125,-334.47265625,-51.26953125,0.0
1734583826.632649,-30.2734375,-252.9296875,-388.18359375,-13.18359375,0.0
1734583826.636555,-30.76171875,-161.62109375,-189.453125,3.41796875,0.0
1734583826.6404612,-27.83203125,-126.953125,-179.6875,-23.92578125,0.0
1734583826.6443675,-41.015625,-196.2890625,-361.81640625,-61.5234375,0.0
1734583826.646309,-46.875,-190.91796875,-332.51953125,-65.4296875,0.0
1734583826.6502151,-23.92578125,-156.73828125,-235.3515625,-36.1328125,0.0
1734583826.6541214,-22.94921875,-165.52734375,-229.98046875,-15.13671875,0.0
1734583826.6580276,-33.69140625,-187.01171875,-302.734375,-21.97265625,0.0
1734583826.6619337,-43.45703125,-166.50390625,-299.8046875,-41.015625,0.0
1734583826.66584,-52.24609375,-186.03515625,-317.87109375,-48.33984375,0.0
1734583826.6697462,-32.71484375,-170.8984375,-265.13671875,-57.12890625,0.0
1734583826.6736524,-8.30078125,-187.98828125,-254.39453125,-17.578125,0.0
1734583826.6775587,-24.4140625,-216.30859375,-290.0390625,-14.6484375,0.0
1734583826.681465,-47.8515625,-177.24609375,-229.4921875,-56.640625,0.0
1734583826.685371,-42.48046875,-161.62109375,-218.26171875,-69.3359375,0.0
1734583826.6892772,-30.76171875,-205.078125,-264.6484375,-49.31640625,0.0
1734583826.691217,-23.4375,-175.29296875,-138.18359375,-22.94921875,0.0
1734583826.6951232,-26.3671875,-141.6015625,-86.42578125,-24.90234375,0.0
1734583826.6990292,-42.48046875,-194.82421875,-217.28515625,-44.921875,0.0
1734583826.7029355,-48.828125,-245.60546875,-331.54296875,-46.38671875,0.0
1734583826.7068417,-46.875,-193.359375,-205.078125,-33.203125,0.0
1734583826.710748,-39.0625,-173.33984375,-110.83984375,-24.4140625,0.0
1734583826.7146542,-38.57421875,-207.03125,-169.921875,-19.04296875,0.0
1734583826.7185602,-46.38671875,-262.20703125,-320.80078125,-46.875,0.0
1734583826.7224665,-65.91796875,-178.7109375,-155.76171875,-68.84765625,0.0
1734583826.7263727,-64.453125,-126.953125,-31.25,-37.59765625,0.0
1734583826.730279,-23.4375,-164.0625,-102.05078125,-11.23046875,0.0
1734583826.7341852,-39.0625,-141.11328125,-91.796875,-13.671875,0.0
1734583826.7366016,-55.6640625,-132.32421875,-99.12109375,-35.15625,0.0
1734583826.7405078,-61.5234375,-149.4140625,-145.01953125,-36.1328125,0.0
1734583826.744414,-64.94140625,-158.203125,-166.9921875,-42.48046875,0.0
1734583826.74832,-41.9921875,-125.48828125,-67.3828125,-41.9921875,0.0
1734583826.7522264,-20.01953125,-111.81640625,-20.01953125,-23.92578125,0.0
1734583826.7561326,-35.15625,-151.3671875,-119.62890625,-39.55078125,0.0
1734583826.7600389,-60.05859375,-188.4765625,-215.8203125,-55.6640625,0.0
1734583826.763945,-54.19921875,-166.9921875,-176.7578125,-44.43359375,0.0
1734583826.767851,-39.55078125,-91.796875,39.55078125,-41.50390625,0.0
1734583826.7717574,-13.671875,-114.74609375,14.6484375,-23.4375,0.0
1734583826.7756636,-26.3671875,-149.90234375,-94.7265625,-20.01953125,0.0
1734583826.7795699,-61.5234375,-125.48828125,-70.80078125,-58.10546875,0.0
1734583826.7813177,-55.6640625,-104.98046875,-24.90234375,-58.59375,0.0
1734583826.785224,-40.0390625,-117.1875,-32.71484375,-38.0859375,0.0
1734583826.7891302,-20.99609375,-138.18359375,-74.21875,-35.64453125,0.0
1734583826.7930365,-21.484375,-126.46484375,-63.96484375,-46.875,0.0
1734583826.7969425,-38.57421875,-134.765625,-83.984375,-51.26953125,0.0
1734583826.8008487,-46.875,-185.05859375,-173.828125,-44.921875,0.0
1734583826.804755,-41.9921875,-229.00390625,-259.765625,-19.04296875,0.0
1734583826.8086612,-25.87890625,-128.41796875,-27.83203125,-29.78515625,0.0
1734583826.8125675,-21.484375,-91.796875,51.26953125,-48.828125,0.0
1734583826.8164735,-54.19921875,-176.26953125,-160.64453125,-55.17578125,0.0
1734583826.8203797,-52.734375,-185.05859375,-183.10546875,-32.2265625,0.0
1734583826.824286,-14.16015625,-147.4609375,-58.59375,-25.390625,0.0
1734583826.8262105,-9.27734375,-155.76171875,-55.17578125,-15.625,0.0
1734583826.8301167,-18.5546875,-172.36328125,-110.83984375,-2.9296875,0.0
1734583826.834023,-27.83203125,-169.43359375,-125.0,-26.3671875,0.0
1734583826.8379292,-31.73828125,-167.48046875,-105.95703125,-22.4609375,0.0
1734583826.8418355,-22.4609375,-170.8984375,-97.65625,-0.48828125,0.0
1734583826.8457415,-4.39453125,-197.265625,-149.90234375,1.46484375,0.0
1734583826.8496478,2.9296875,-200.68359375,-173.828125,-6.8359375,0.0
1734583826.853554,-12.6953125,-162.59765625,-108.3984375,-46.875,0.0
1734583826.8574603,-31.73828125,-188.4765625,-152.34375,-43.45703125,0.0
1734583826.8613665,-22.94921875,-240.72265625,-235.3515625,-9.27734375,0.0
1734583826.8652725,-13.18359375,-180.17578125,-103.515625,-23.4375,0.0
1734583826.8691788,-20.5078125,-141.6015625,-47.8515625,-28.80859375,0.0
1734583826.87905,-23.4375,-181.640625,-173.33984375,-34.1796875,0.0
1734583826.8829563,-46.38671875,-205.078125,-257.32421875,-56.15234375,0.0
1734583826.8868625,-30.2734375,-179.19921875,-208.984375,-41.9921875,0.0
1734583826.8907688,-7.32421875,-157.71484375,-149.4140625,-17.578125,0.0
1734583826.894675,-16.11328125,-155.2734375,-151.85546875,-12.20703125,0.0
1734583826.8985813,-35.15625,-212.890625,-313.96484375,-47.36328125,0.0
1734583826.9024873,-56.640625,-191.40625,-296.38671875,-72.265625,0.0
1734583826.9063935,-60.546875,-140.625,-178.7109375,-52.24609375,0.0
1734583826.9102998,-29.78515625,-178.7109375,-229.00390625,-33.69140625,0.0
1734583826.914206,-11.23046875,-236.81640625,-342.7734375,-13.671875,0.0
1734583826.9181123,-35.15625,-168.9453125,-230.95703125,-23.4375,0.0
1734583826.9220185,-32.71484375,-156.25,-226.07421875,-37.109375,0.0
1734583826.9276516,-30.2734375,-197.75390625,-330.56640625,-33.203125,0.0
1734583826.931558,-10.7421875,-169.43359375,-268.5546875,-12.20703125,0.0
1734583826.9354641,9.27734375,-140.625,-187.98828125,7.8125,0.0
1734583826.9393704,-4.39453125,-163.0859375,-239.2578125,7.8125,0.0
1734583826.9432766,-24.90234375,-208.0078125,-346.19140625,-2.9296875,0.0
1734583826.947183,-35.15625,-215.8203125,-351.07421875,-19.53125,0.0
1734583826.951089,-22.4609375,-176.26953125,-274.4140625,-9.27734375,0.0
1734583826.9549952,6.34765625,-133.30078125,-194.82421875,4.39453125,0.0
1734583826.9589014,-12.20703125,-203.61328125,-303.22265625,-9.27734375,0.0
1734583826.9628077,-45.8984375,-241.69921875,-311.5234375,-30.2734375,0.0
1734583826.966714,-23.4375,-159.1796875,-188.96484375,-43.9453125,0.0
1734583826.9706202,-17.578125,-169.921875,-236.81640625,-34.1796875,0.0
1734583826.9830763,0.0,-209.47265625,-298.33984375,0.0,0.0
1734583826.9869826,0.0,-203.125,-304.6875,-6.34765625,0.0
1734583826.9908888,0.0,-211.42578125,-329.1015625,-28.3203125,0.0
1734583826.994795,0.0,-248.53515625,-375.9765625,-33.203125,0.0
1734583826.9987013,0.0,-278.80859375,-398.92578125,-35.64453125,0.0
1734583827.0026076,0.0,-279.296875,-355.95703125,-26.85546875,0.0
1734583827.0065136,0.0,-261.71875,-327.1484375,-7.32421875,0.0
1734583827.0104198,0.0,-293.45703125,-379.39453125,-21.97265625,0.0
1734583827.014326,0.0,-380.37109375,-452.63671875,-39.0625,0.0
1734583827.0182323,0.0,-308.59375,-327.1484375,-37.109375,0.0
1734583827.0221386,0.0,-241.2109375,-252.9296875,-26.85546875,0.0
1734583827.0260448,0.0,-290.52734375,-345.21484375,-7.32421875,0.0
1734583827.0249374,-41.50390625,-311.5234375,-375.9765625,8.30078125,0.0
1734583827.0288436,-59.5703125,-302.734375,-362.3046875,-35.64453125,0.0
1734583827.03275,-43.45703125,-320.3125,-365.234375,-45.41015625,0.0
1734583827.0366561,-22.94921875,-326.66015625,-361.328125,-21.484375,0.0
1734583827.0405622,-27.83203125,-320.80078125,-353.515625,-27.34375,0.0
1734583827.0444684,-51.26953125,-352.5390625,-383.7890625,-35.64453125,0.0
1734583827.0483747,-43.45703125,-362.79296875,-395.01953125,-29.78515625,0.0
1734583827.052281,-37.59765625,-350.09765625,-350.09765625,-32.71484375,0.0
1734583827.0561872,-24.90234375,-332.51953125,-294.43359375,-20.99609375,0.0
1734583827.0600934,-12.20703125,-334.47265625,-323.2421875,3.41796875,0.0
1734583827.0639997,-20.5078125,-351.5625,-362.79296875,-4.8828125,0.0
1734583827.0679057,-32.71484375,-428.22265625,-430.6640625,-17.578125,0.0
1734583827.0680532,-24.90234375,-432.12890625,-357.91015625,-11.71875,0.0
1734583827.0719595,-1.953125,-351.5625,-255.859375,-19.04296875,0.0
1734583827.0758655,-5.859375,-374.51171875,-310.05859375,-4.8828125,0.0
1734583827.0797718,-23.92578125,-437.5,-416.9921875,4.8828125,0.0
1734583827.083678,-32.2265625,-435.05859375,-408.203125,-33.203125,0.0
1734583827.0875843,-36.1328125,-440.91796875,-369.62890625,-38.0859375,0.0
1734583827.0914905,-25.87890625,-444.3359375,-366.69921875,-23.92578125,0.0
1734583827.0953968,-13.671875,-479.98046875,-431.640625,-29.296875,0.0
1734583827.0993028,-34.66796875,-419.43359375,-341.30859375,-25.87890625,0.0
1734583827.103209,-43.9453125,-390.13671875,-332.51953125,-35.15625,0.0
1734583827.1071153,-46.38671875,-449.70703125,-409.66796875,-45.41015625,0.0
1734583827.1110215,-23.92578125,-436.5234375,-352.5390625,-40.52734375,0.0
1734583827.1200812,-1.46484375,-400.390625,-312.98828125,-30.76171875,0.0
1734583827.1239874,-39.0625,-425.29296875,-379.8828125,-23.92578125,0.0
1734583827.1278934,-67.87109375,-463.8671875,-428.22265625,-46.875,0.0
1734583827.1317997,-52.24609375,-451.171875,-384.765625,-47.8515625,0.0
1734583827.135706,-35.64453125,-425.29296875,-369.140625,-39.0625,0.0
1734583827.1396122,-18.06640625,-408.69140625,-364.74609375,-32.2265625,0.0
1734583827.1435184,-26.85546875,-442.3828125,-393.06640625,-32.2265625,0.0
1734583827.1474247,-48.828125,-450.1953125,-379.8828125,-29.296875,0.0
1734583827.151331,-56.15234375,-388.671875,-343.75,-24.4140625,0.0
1734583827.155237,-51.7578125,-385.25390625,-367.67578125,-32.2265625,0.0
1734583827.1591432,-18.5546875,-369.62890625,-336.9140625,-41.015625,0.0
1734583827.1630495,-23.92578125,-344.23828125,-323.2421875,-26.3671875,0.0
1734583827.1606653,-62.01171875,-359.375,-358.3984375,-48.828125,0.0
1734583827.1645715,-60.546875,-382.8125,-373.53515625,-48.828125,0.0
1734583827.1684778,-32.2265625,-387.6953125,-393.06640625,-24.4140625,0.0
1734583827.172384,-22.94921875,-336.42578125,-312.01171875,-18.06640625,0.0
1734583827.1762903,-29.296875,-323.2421875,-306.640625,-19.53125,0.0
1734583827.1801965,-39.0625,-391.11328125,-415.0390625,-25.87890625,0.0
1734583827.1841025,-51.7578125,-422.36328125,-433.10546875,-46.875,0.0
1734583827.1880088,-65.91796875,-365.234375,-349.609375,-55.6640625,0.0
1734583827.191915,-41.015625,-302.24609375,-236.81640625,-21.484375,0.0
1734583827.1958213,-18.06640625,-338.37890625,-302.734375,-27.34375,0.0
1734583827.1997275,-57.6171875,-430.17578125,-446.2890625,-36.62109375,0.0
1734583827.2036335,-76.171875,-345.21484375,-282.71484375,-48.828125,0.0
1734583827.203586,0.0,-286.62109375,-227.5390625,-48.33984375,0.0
1734583827.2074924,0.0,-306.640625,-285.15625,-32.71484375,0.0
1734583827.2113986,0.0,-297.36328125,-267.578125,-46.38671875,0.0
1734583827.2153046,0.0,-309.5703125,-300.29296875,-55.6640625,0.0
1734583827.2192109,0.0,-330.078125,-334.9609375,-48.33984375,0.0
1734583827.223117,0.0,-366.69921875,-373.046875,-42.96875,0.0
1734583827.2270234,0.0,-331.54296875,-252.44140625,-38.57421875,0.0
1734583827.2309296,0.0,-256.34765625,-148.92578125,-15.625,0.0
1734583827.2348359,0.0,-292.96875,-286.1328125,-41.015625,0.0
1734583827.2387419,0.0,-359.375,-383.30078125,-71.2890625,0.0
1734583827.2426481,0.0,-339.35546875,-326.171875,-53.7109375,0.0
1734583827.2465544,0.0,-271.484375,-220.21484375,-43.9453125,0.0
1734583827.2484365,-37.59765625,-272.4609375,-197.75390625,-54.19921875,0.0
1734583827.2523425,-58.10546875,-323.73046875,-330.078125,-44.43359375,0.0
1734583827.2562487,-74.21875,-312.01171875,-334.47265625,-50.29296875,0.0
1734583827.260155,-61.03515625,-279.296875,-264.16015625,-50.78125,0.0
1734583827.2640612,-43.45703125,-301.26953125,-274.90234375,-23.4375,0.0
1734583827.2679675,-34.1796875,-346.19140625,-335.9375,-11.23046875,0.0
1734583827.2718735,-50.29296875,-316.89453125,-292.96875,-28.80859375,0.0
1734583827.2757797,-75.1953125,-299.31640625,-254.8828125,-63.4765625,0.0
1734583827.279686,-73.73046875,-337.40234375,-321.77734375,-48.33984375,0.0
1734583827.2835922,-53.22265625,-339.84375,-279.78515625,-25.390625,0.0
1734583827.2874985,-42.96875,-263.671875,-145.5078125,-41.50390625,0.0
1734583827.2914045,-41.015625,-233.3984375,-195.80078125,-51.7578125,0.0
1734583827.301256,-63.96484375,-283.203125,-340.8203125,-60.546875,0.0
1734583827.3051622,-72.265625,-281.73828125,-296.38671875,-47.8515625,0.0
1734583827.3090684,-49.8046875,-206.54296875,-167.96875,-41.9921875,0.0
1734583827.3129747,-25.87890625,-177.734375,-138.18359375,-31.73828125,0.0
1734583827.316881,-26.3671875,-238.76953125,-250.9765625,-18.5546875,0.0
1734583827.3207872,-41.015625,-309.08203125,-379.39453125,-30.2734375,0.0
1734583827.3246932,-67.87109375,-217.7734375,-222.16796875,-53.22265625,0.0
1734583827.3285995,-68.359375,-172.8515625,-126.46484375,-39.55078125,0.0
1734583827.3325057,-37.109375,-237.79296875,-216.796875,-6.34765625,0.0
1734583827.336412,-32.71484375,-243.65234375,-249.0234375,-35.15625,0.0
1734583827.3403182,-42.48046875,-194.82421875,-175.29296875,-68.359375,0.0
1734583827.3442242,-41.9921875,-201.171875,-216.30859375,-76.66015625,0.0
1734583827.34914,0.0,-226.5625,-277.34375,-45.41015625,0.0
1734583827.353046,0.0,-196.2890625,-188.96484375,-28.80859375,0.0
1734583827.3569522,0.0,-183.10546875,-141.11328125,-41.50390625,0.0
1734583827.3608584,0.0,-231.93359375,-249.51171875,-34.1796875,0.0
1734583827.3647647,0.0,-281.73828125,-365.72265625,-40.52734375,0.0
1734583827.368671,0.0,-270.5078125,-330.078125,-66.40625,0.0
1734583827.3725772,0.0,-221.6796875,-202.1484375,-41.50390625,0.0
1734583827.3764832,0.0,-221.19140625,-182.6171875,-26.3671875,0.0
1734583827.3803895,0.0,-320.3125,-368.1640625,-24.90234375,0.0
1734583827.3842957,0.0,-257.8125,-242.1875,-41.9921875,0.0
1734583827.388202,0.0,-205.56640625,-158.69140625,-56.640625,0.0
1734583827.3921082,0.0,-238.28125,-232.421875,-21.97265625,0.0
1734583827.3948948,-10.25390625,-225.09765625,-204.1015625,-21.97265625,0.0
1734583827.398801,-17.578125,-229.98046875,-220.703125,-45.8984375,0.0
1734583827.4027073,-52.24609375,-247.55859375,-282.2265625,-51.7578125,0.0
1734583827.4066136,-62.01171875,-267.578125,-333.984375,-66.40625,0.0
1734583827.4105198,-38.0859375,-244.62890625,-291.015625,-54.6875,0.0
1734583827.4144258,-17.08984375,-246.58203125,-281.73828125,-23.92578125,0.0
1734583827.418332,-35.15625,-260.7421875,-334.47265625,-31.73828125,0.0
1734583827.4222383,-62.01171875,-296.875,-387.20703125,-56.15234375,0.0
1734583827.4261446,-53.7109375,-320.80078125,-359.375,-17.578125,0.0
1734583827.4300508,-50.78125,-248.53515625,-257.8125,-40.52734375,0.0
1734583827.433957,-41.9921875,-230.95703125,-233.88671875,-72.265625,0.0
1734583827.437863,-51.26953125,-290.52734375,-339.84375,-67.3828125,0.0
1734583827.4561684,-67.87109375,-300.29296875,-368.1640625,-85.44921875,0.0
1734583827.4600747,-62.5,-281.73828125,-325.1953125,-74.70703125,0.0
1734583827.463981,-61.5234375,-309.08203125,-349.609375,-40.0390625,0.0
1734583827.4678872,-41.015625,-329.1015625,-371.58203125,-40.0390625,0.0
1734583827.4717932,-12.6953125,-328.125,-353.02734375,-62.98828125,0.0
1734583827.4756994,-56.640625,-357.91015625,-373.046875,-72.75390625,0.0
1734583827.4796057,-68.84765625,-368.1640625,-397.94921875,-62.01171875,0.0
1734583827.483512,-56.640625,-404.296875,-442.3828125,-67.3828125,0.0
1734583827.4874182,-56.640625,-329.58984375,-245.1171875,-66.89453125,0.0
1734583827.4913244,-50.29296875,-296.875,-234.375,-32.71484375,0.0
1734583827.4952307,-46.38671875,-374.0234375,-396.97265625,-40.0390625,0.0
1734583827.499137,-52.24609375,-359.375,-346.19140625,-63.96484375,0.0
1734583827.4929094,-62.5,-302.24609375,-331.54296875,-66.40625,0.0
1734583827.4968157,-10.7421875,-296.38671875,-343.75,-35.64453125,0.0
1734583827.500722,-15.625,-336.42578125,-375.9765625,-33.203125,0.0
1734583827.5046282,-50.78125,-343.26171875,-366.2109375,-57.12890625,0.0
1734583827.5085342,-56.640625,-335.9375,-339.84375,-46.38671875,0.0
1734583827.5124404,-41.50390625,-376.46484375,-364.2578125,-47.8515625,0.0
1734583827.5163467,-26.85546875,-375.48828125,-327.1484375,-48.33984375,0.0
1734583827.520253,-29.78515625,-327.63671875,-301.7578125,-22.94921875,0.0
1734583827.5241592,-32.71484375,-346.19140625,-386.23046875,-48.828125,0.0
1734583827.5280654,-45.8984375,-399.90234375,-448.2421875,-56.15234375,0.0
1734583827.5319717,-23.4375,-407.71484375,-445.80078125,-38.0859375,0.0
1734583827.5358777,-2.9296875,-378.90625,-397.4609375,-27.83203125,0.0
1734583827.5342221,-31.25,-410.15625,-389.6484375,-35.15625,0.0
1734583827.5381284,-33.203125,-506.8359375,-449.70703125,-24.90234375,0.0
1734583827.5420346,-32.2265625,-607.421875,-541.015625,-23.92578125,0.0
1734583827.5459409,-46.38671875,-563.96484375,-433.59375,-43.45703125,0.0
1734583827.549847,-28.80859375,-498.53515625,-361.81640625,-27.83203125,0.0
1734583827.5537531,-3.90625,-554.19921875,-448.2421875,-28.3203125,0.0
1734583827.5576594,0.0,-626.953125,-523.4375,-27.83203125,0.0
1734583827.5615656,-60.546875,-566.40625,-422.36328125,-56.640625,0.0
1734583827.565472,-74.21875,-516.6015625,-383.30078125,-68.84765625,0.0
1734583827.569378,-39.55078125,-546.38671875,-418.45703125,-50.29296875,0.0
1734583827.5732841,-21.97265625,-539.55078125,-379.39453125,-30.76171875,0.0
1734583827.5771904,-28.80859375,-519.04296875,-393.06640625,-16.11328125,0.0
1734583827.5854952,-72.75390625,-520.99609375,-429.6875,-37.59765625,0.0
1734583827.5894015,-68.84765625,-538.57421875,-440.4296875,-39.55078125,0.0
1734583827.5933077,-64.94140625,-524.90234375,-400.87890625,-60.546875,0.0
1734583827.597214,-47.8515625,-492.1875,-369.140625,-78.125,0.0
1734583827.6011202,-32.2265625,-502.9296875,-409.66796875,-44.921875,0.0
1734583827.6050265,-51.26953125,-544.43359375,-437.01171875,-43.9453125,0.0
1734583827.6089325,-45.8984375,-534.1796875,-411.1328125,-67.3828125,0.0
1734583827.6128387,-43.45703125,-472.16796875,-362.3046875,-79.58984375,0.0
1734583827.616745,-40.0390625,-461.9140625,-361.328125,-42.96875,0.0
1734583827.6206512,-33.69140625,-516.6015625,-421.875,-22.4609375,0.0
1734583827.6245575,-57.12890625,-490.72265625,-368.1640625,-36.1328125,0.0
1734583827.6284637,-57.6171875,-438.4765625,-342.28515625,-65.91796875,0.0
1734583827.6333055,-32.71484375,-448.2421875,-375.48828125,-61.5234375,0.0
1734583827.6372118,-21.484375,-463.8671875,-379.39453125,-16.11328125,0.0
1734583827.641118,-26.3671875,-440.4296875,-372.55859375,-30.76171875,0.0
1734583827.645024,-59.08203125,-422.36328125,-363.28125,-68.359375,0.0
1734583827.6489303,-66.89453125,-457.03125,-396.97265625,-67.87109375,0.0
1734583827.6528366,-56.15234375,-507.32421875,-467.28515625,-54.6875,0.0
1734583827.6567428,-41.015625,-423.33984375,-320.3125,-34.1796875,0.0
1734583827.660649,-25.87890625,-377.9296875,-278.80859375,-20.99609375,0.0
1734583827.6645553,-38.0859375,-447.75390625,-412.109375,-37.109375,0.0
1734583827.6684613,-58.59375,-492.67578125,-433.59375,-24.90234375,0.0
1734583827.6723676,-51.26953125,-390.625,-269.53125,-27.34375,0.0
1734583827.6762738,-34.66796875,-325.68359375,-224.609375,-44.921875,0.0
1734583827.6806006,0.0,-356.93359375,0.0,0.0,0.0
1734583827.684507,0.0,-363.28125,0.0,0.0,0.0
1734583827.688413,0.0,-354.4921875,0.0,0.0,0.0
1734583827.6923192,0.0,-353.515625,0.0,0.0,0.0
1734583827.6962254,0.0,-361.81640625,0.0,0.0,0.0
1734583827.7001317,0.0,-373.53515625,0.0,0.0,0.0
1734583827.704038,0.0,-354.98046875,0.0,0.0,0.0
1734583827.7079442,0.0,-322.75390625,0.0,0.0,0.0
1734583827.7118504,0.0,-369.140625,0.0,0.0,0.0
1734583827.7157564,0.0,-355.95703125,0.0,0.0,0.0
1734583827.7196627,0.0,-277.83203125,0.0,0.0,0.0
1734583827.723569,0.0,-331.0546875,0.0,0.0,0.0
1734583827.7261183,-73.2421875,-354.00390625,-349.12109375,-59.5703125,0.0
1734583827.7300246,-70.3125,-307.12890625,-278.80859375,-77.63671875,0.0
1734583827.7339308,-37.59765625,-277.83203125,-210.9375,-54.19921875,0.0
1734583827.737837,-39.55078125,-289.0625,-198.2421875,-24.90234375,0.0
1734583827.7417433,-49.8046875,-329.1015625,-304.6875,-30.2734375,0.0
1734583827.7456496,-56.640625,-346.19140625,-360.3515625,-23.4375,0.0
1734583827.7495556,-60.05859375,-298.33984375,-264.16015625,-55.6640625,0.0
1734583827.7534618,-54.6875,-283.203125,-234.375,-81.0546875,0.0
1734583827.757368,-41.015625,-355.95703125,-366.69921875,-41.015625,0.0
1734583827.7612743,-36.62109375,-290.0390625,-216.796875,-40.0390625,0.0
1734583827.7651806,-58.10546875,-254.8828125,-174.31640625,-66.40625,0.0
1734583827.7690868,-63.4765625,-321.2890625,-312.01171875,-53.7109375,0.0
1734583827.771471,-43.9453125,-306.15234375,0.0,-49.31640625,0.0
1734583827.7753773,-22.4609375,-251.953125,0.0,-40.52734375,0.0
1734583827.7792833,-28.3203125,-290.52734375,0.0,-54.19921875,0.0
1734583827.7831895,-65.4296875,-317.3828125,0.0,-62.98828125,0.0
1734583827.7870958,-83.984375,-290.52734375,0.0,-71.2890625,0.0
1734583827.791002,-69.3359375,-297.8515625,0.0,-82.51953125,0.0
1734583827.7949083,-43.9453125,-270.01953125,0.0,-56.640625,0.0
1734583827.7988145,-52.734375,-294.43359375,0.0,-39.55078125,0.0
1734583827.8027205,-69.3359375,-335.9375,0.0,-58.10546875,0.0
1734583827.8066268,-81.0546875,-277.34375,0.0,-83.49609375,0.0
1734583827.810533,-77.1484375,-253.41796875,0.0,-75.1953125,0.0
1734583827.8144393,-53.7109375,-279.296875,0.0,-47.8515625,0.0
1734583827.8246126,-44.43359375,-270.01953125,-217.28515625,-44.921875,0.0
1734583827.8285189,-90.33203125,-260.25390625,-231.93359375,-74.21875,0.0
1734583827.832425,-91.30859375,-286.1328125,-280.2734375,-73.2421875,0.0
1734583827.8363314,-65.91796875,-295.8984375,-303.7109375,-53.22265625,0.0
1734583827.8402376,-51.7578125,-257.8125,-210.44921875,-44.43359375,0.0
1734583827.8441439,-47.8515625,-261.71875,-215.8203125,-52.734375,0.0
1734583827.84805,-56.15234375,-296.875,-318.84765625,-72.265625,0.0
1734583827.8519561,-56.640625,-336.9140625,-392.08984375,-49.31640625,0.0
1734583827.8558624,-63.4765625,-253.90625,-196.2890625,-48.828125,0.0
1734583827.8597686,-58.10546875,-204.1015625,-71.77734375,-61.5234375,0.0
1734583827.8636749,-53.7109375,-239.74609375,-171.875,-40.0390625,0.0
1734583827.8675811,-54.6875,-248.53515625,-253.41796875,-35.64453125,0.0
1734583827.865356,-78.61328125,-246.09375,-247.0703125,-67.87109375,0.0
1734583827.869262,-89.35546875,-252.44140625,-219.23828125,-67.87109375,0.0
1734583827.8731682,-58.10546875,-264.16015625,-217.7734375,-61.5234375,0.0
1734583827.8770745,-44.921875,-249.0234375,-184.08203125,-48.33984375,0.0
1734583827.8809807,-52.24609375,-250.48828125,-189.453125,-54.6875,0.0
1734583827.884887,-62.01171875,-291.9921875,-290.52734375,-60.05859375,0.0
1734583827.8887932,-68.84765625,-297.36328125,-312.01171875,-53.7109375,0.0
1734583827.8926992,-60.546875,-247.0703125,-182.12890625,-53.7109375,0.0
1734583827.8966055,-24.4140625,-244.140625,-139.6484375,-37.109375,0.0
1734583827.9005117,-31.25,-274.90234375,-239.2578125,-49.8046875,0.0
1734583827.904418,-74.70703125,-311.5234375,-318.359375,-58.10546875,0.0
1734583827.9083242,-72.75390625,-285.15625,-225.5859375,-43.45703125,0.0
1734583827.908275,-47.36328125,-212.40234375,-61.5234375,-52.24609375,0.0
1734583827.9121811,-23.4375,-234.86328125,-95.21484375,-37.59765625,0.0
1734583827.9160874,-33.203125,-286.62109375,-237.79296875,-41.9921875,0.0
1734583827.9199936,-56.15234375,-266.6015625,-236.328125,-60.546875,0.0
1734583827.9238997,-58.10546875,-244.140625,-182.6171875,-62.5,0.0
1734583827.927806,-33.203125,-275.87890625,-244.62890625,-39.0625,0.0
1734583827.9317122,-10.7421875,-300.78125,-308.10546875,-1.953125,0.0
1734583827.9356184,-37.109375,-228.515625,-160.15625,-17.578125,0.0
1734583827.9395247,-56.640625,-212.890625,-110.83984375,-26.85546875,0.0
1734583827.943431,-47.36328125,-265.625,-226.07421875,-39.0625,0.0
1734583827.947337,-32.2265625,-250.0,-207.51953125,-36.1328125,0.0
1734583827.9512432,4.39453125,-226.07421875,-130.37109375,-23.92578125,0.0
1734583827.9525018,-25.87890625,-240.234375,-169.43359375,-34.1796875,0.0
1734583827.956408,-66.89453125,-258.30078125,-244.62890625,-39.0625,0.0
1734583827.9603143,-56.15234375,-249.51171875,-237.3046875,-39.0625,0.0
1734583827.9642205,-51.26953125,-221.19140625,-152.83203125,-29.78515625,0.0
1734583827.9681268,-33.69140625,-213.8671875,-119.140625,-8.7890625,0.0
1734583827.9720328,-21.484375,-270.99609375,-236.328125,-24.4140625,0.0
1734583827.975939,-54.19921875,-280.2734375,-246.09375,-42.48046875,0.0
1734583827.9798453,-65.91796875,-215.8203125,-131.34765625,-42.96875,0.0
1734583827.9837515,-48.828125,-238.76953125,-166.50390625,-30.76171875,0.0
1734583827.9876578,-26.85546875,-271.97265625,-204.1015625,-10.7421875,0.0
1734583827.9915638,-20.5078125,-229.00390625,-139.16015625,-7.8125,0.0
1734583827.99547,-33.203125,-213.8671875,-133.30078125,-37.59765625,0.0
1734583828.0050206,0.0,-246.58203125,-199.21875,-45.41015625,0.0
1734583828.0089269,0.0,-272.94921875,-250.9765625,-34.1796875,0.0
1734583828.012833,0.0,-234.86328125,-158.69140625,-31.25,0.0
1734583828.0167391,0.0,-213.37890625,-110.83984375,-18.5546875,0.0
1734583828.0206454,0.0,-237.79296875,-185.05859375,-33.69140625,0.0
1734583828.0245516,0.0,-287.59765625,-314.453125,-43.45703125,0.0
1734583828.0284579,0.0,-254.8828125,-228.515625,-42.96875,0.0
1734583828.0323641,0.0,-203.61328125,-63.96484375,-37.109375,0.0
1734583828.0362704,0.0,-236.81640625,-138.18359375,-24.4140625,0.0
1734583828.0401764,0.0,-316.89453125,-350.09765625,-25.87890625,0.0
1734583828.0440826,0.0,-248.53515625,-224.12109375,-50.78125,0.0
1734583828.047989,0.0,-207.51953125,-123.046875,-56.640625,0.0
1734583828.0308282,-42.48046875,-242.1875,-185.05859375,-41.50390625,0.0
1734583828.0347345,-34.1796875,-228.02734375,-152.83203125,-24.90234375,0.0
1734583828.0386407,-10.25390625,-223.6328125,-137.20703125,-36.1328125,0.0
1734583828.042547,-4.39453125,-241.69921875,-196.2890625,-50.29296875,0.0
1734583828.046453,-32.71484375,-261.23046875,-252.44140625,-43.45703125,0.0
1734583828.0503592,-40.52734375,-260.7421875,-241.69921875,-38.57421875,0.0
1734583828.0542655,-48.828125,-238.28125,-169.921875,-20.99609375,0.0
1734583828.0581715,-44.921875,-219.23828125,-145.01953125,-43.9453125,0.0
1734583828.0620778,-19.04296875,-272.94921875,-272.94921875,-57.12890625,0.0
1734583828.065984,-19.04296875,-282.71484375,-272.4609375,-45.41015625,0.0
1734583828.0698903,-60.05859375,-188.96484375,-68.84765625,-59.5703125,0.0
1734583828.0737963,-71.2890625,-186.03515625,-86.42578125,-53.22265625,0.0
1734583828.0746133,-38.57421875,-233.88671875,-195.80078125,0.0,0.0
1734583828.0785196,-18.06640625,-228.02734375,-201.66015625,0.0,0.0
1734583828.0824258,-21.97265625,-209.9609375,-166.015625,0.0,0.0
1734583828.0863318,-27.83203125,-221.19140625,-159.1796875,0.0,0.0
1734583828.090238,-37.109375,-229.4921875,-162.59765625,0.0,0.0
1734583828.0941443,-29.78515625,-238.76953125,-195.80078125,0.0,0.0
1734583828.0980506,-20.01953125,-238.76953125,-210.9375,0.0,0.0
1734583828.1019566,-43.9453125,-230.46875,-200.1953125,0.0,0.0
1734583828.1058629,-48.828125,-262.6953125,-258.7890625,0.0,0.0
1734583828.109769,-49.8046875,-229.00390625,-154.296875,0.0,0.0
1734583828.113675,-59.08203125,-188.96484375,-72.75390625,0.0,0.0
1734583828.1175814,-22.94921875,-245.1171875,-214.35546875,0.0,0.0
1734583828.111454,-9.765625,-316.40625,-355.95703125,-28.80859375,0.0
1734583828.1153603,-27.34375,-227.05078125,-140.625,-58.59375,0.0
1734583828.1192665,-42.96875,-174.31640625,-20.99609375,-50.29296875,0.0
1734583828.1231725,-31.73828125,-223.14453125,-124.51171875,-29.78515625,0.0
1734583828.1270788,7.32421875,-238.76953125,-173.33984375,-29.296875,0.0
1734583828.130985,0.48828125,-247.0703125,-199.21875,-40.52734375,0.0
1734583828.134891,-29.78515625,-229.4921875,-139.16015625,-57.12890625,0.0
1734583828.1387973,-41.015625,-239.74609375,-122.0703125,-35.15625,0.0
1734583828.1427035,-31.25,-267.578125,-218.75,-13.18359375,0.0
1734583828.1466095,-17.08984375,-215.33203125,-143.06640625,-37.109375,0.0
1734583828.1505158,-17.578125,-202.1484375,-102.05078125,-54.6875,0.0
1734583828.154422,-24.4140625,-240.72265625,-190.4296875,-32.2265625,0.0
1734583828.1845014,-12.6953125,-230.46875,-156.73828125,-18.06640625,0.0
1734583828.1884077,-19.04296875,-186.5234375,-49.31640625,-22.94921875,0.0
1734583828.192314,-21.484375,-209.9609375,-138.671875,-30.2734375,0.0
1734583828.1962202,-22.94921875,-250.0,-242.1875,-35.15625,0.0
1734583828.2001264,-41.015625,-226.5625,-171.38671875,-39.0625,0.0
1734583828.2040324,-34.66796875,-223.14453125,-127.44140625,-20.5078125,0.0
1734583828.2079387,-4.39453125,-226.07421875,-138.671875,0.0,0.0
1734583828.211845,-15.13671875,-279.296875,-277.34375,-6.8359375,0.0
1734583828.2157512,-32.71484375,-235.3515625,-166.50390625,-24.90234375,0.0
1734583828.2196574,-50.29296875,-176.26953125,-47.36328125,-53.22265625,0.0
1734583828.2235634,-40.0390625,-219.23828125,-135.7421875,-56.15234375,0.0
1734583828.2274697,-18.5546875,-225.09765625,-143.06640625,-30.2734375,0.0
1734583828.2325616,-25.87890625,-200.68359375,-98.6328125,-22.94921875,0.0
1734583828.2364678,-44.921875,-215.33203125,-132.32421875,-47.8515625,0.0
1734583828.2403738,-45.8984375,-246.58203125,-205.078125,-51.7578125,0.0
1734583828.24428,-41.015625,-241.2109375,-201.171875,-38.57421875,0.0
1734583828.2481863,-25.390625,-180.17578125,-58.10546875,-27.34375,0.0
1734583828.2520926,-16.6015625,-211.42578125,-136.71875,-29.78515625,0.0
1734583828.2559988,-42.96875,-242.67578125,-246.09375,-43.9453125,0.0
1734583828.2599049,-55.6640625,-207.03125,-163.57421875,-48.33984375,0.0
1734583828.263811,-33.203125,-211.9140625,-128.41796875,-50.78125,0.0
1734583828.2677174,-28.80859375,-217.7734375,-120.60546875,-9.27734375,0.0
1734583828.2716236,-30.2734375,-254.39453125,-194.82421875,-14.6484375,0.0
1734583828.2755299,-54.6875,-259.765625,-218.26171875,-67.87109375,0.0
1734583828.287859,0.0,-196.77734375,-96.19140625,-50.29296875,0.0
1734583828.2917652,0.0,-209.9609375,-123.046875,-10.7421875,0.0
1734583828.2956712,0.0,-241.2109375,-176.26953125,-20.01953125,0.0
1734583828.2995775,0.0,-225.5859375,-138.671875,-49.31640625,0.0
1734583828.3034837,0.0,-229.00390625,-158.203125,-45.8984375,0.0
1734583828.30739,0.0,-271.484375,-264.16015625,-48.828125,0.0
1734583828.3112962,0.0,-315.91796875,-358.3984375,-55.17578125,0.0
1734583828.3152025,0.0,-235.3515625,-166.50390625,-54.19921875,0.0
1734583828.3191085,0.0,-166.015625,-24.4140625,-49.8046875,0.0
1734583828.3230147,0.0,-223.14453125,-172.36328125,-41.015625,0.0
1734583828.326921,0.0,-241.69921875,-225.5859375,-58.10546875,0.0
1734583828.3308272,0.0,-217.28515625,-148.4375,-56.15234375,0.0
1734583828.3146796,-54.19921875,-204.1015625,-104.4921875,-34.66796875,0.0
1734583828.3185856,-33.203125,-222.65625,-138.18359375,-28.80859375,0.0
1734583828.322492,-26.85546875,-237.79296875,-190.91796875,-34.1796875,0.0
1734583828.3263981,-38.0859375,-230.46875,-190.91796875,-47.8515625,0.0
1734583828.3303044,-54.19921875,-233.3984375,-171.38671875,-50.78125,0.0
1734583828.3342104,-59.08203125,-255.859375,-189.453125,-23.4375,0.0
1734583828.3381166,-52.24609375,-229.4921875,-145.01953125,-28.80859375,0.0
1734583828.342023,-51.26953125,-206.0546875,-120.1171875,-53.22265625,0.0
1734583828.3459291,-23.92578125,-238.76953125,-202.63671875,-64.94140625,0.0
1734583828.3498352,-28.3203125,-291.015625,-311.5234375,-54.6875,0.0
1734583828.3537414,-63.4765625,-264.16015625,-225.5859375,-37.109375,0.0
1734583828.3576477,-49.8046875,-178.7109375,-23.92578125,-41.9921875,0.0
1734583828.374378,-22.94921875,-222.16796875,-114.2578125,-43.45703125,0.0
1734583828.3782842,-54.19921875,-283.203125,-263.671875,-51.26953125,0.0
1734583828.3821905,-56.15234375,-246.58203125,-204.1015625,-46.875,0.0
1734583828.3860967,-33.69140625,-207.03125,-111.81640625,-42.48046875,0.0
1734583828.3900027,-14.6484375,-226.07421875,-133.30078125,-31.73828125,0.0
1734583828.393909,-32.2265625,-275.87890625,-285.15625,-28.80859375,0.0
1734583828.3978152,-60.05859375,-248.53515625,-265.13671875,-63.96484375,0.0
1734583828.4017215,-55.6640625,-215.8203125,-156.73828125,-45.8984375,0.0
1734583828.4056277,-41.015625,-241.69921875,-189.453125,-28.80859375,0.0
1734583828.4095337,-42.48046875,-288.0859375,-290.52734375,-40.52734375,0.0
1734583828.41344,-59.5703125,-217.28515625,-164.0625,-63.96484375,0.0
1734583828.4173462,-56.640625,-213.37890625,-137.6953125,-62.98828125,0.0
1734583828.4258738,-48.828125,-266.6015625,-215.8203125,-34.66796875,0.0
1734583828.4297798,-42.96875,-229.00390625,-182.6171875,-27.34375,0.0
1734583828.433686,-18.06640625,-183.59375,-80.56640625,-27.34375,0.0
1734583828.4375923,-15.13671875,-201.66015625,-108.88671875,-41.015625,0.0
1734583828.4414985,-35.64453125,-245.1171875,-233.3984375,-47.36328125,0.0
1734583828.4454048,-39.55078125,-254.39453125,-259.27734375,-45.41015625,0.0
1734583828.449311,-52.734375,-214.35546875,-173.33984375,-44.921875,0.0
1734583828.453217,-44.43359375,-179.19921875,-66.89453125,-23.4375,0.0
1734583828.4571233,-36.1328125,-256.34765625,-186.03515625,-26.85546875,0.0
1734583828.4610295,-56.15234375,-290.0390625,-288.57421875,-65.4296875,0.0
1734583828.4649358,-68.359375,-199.70703125,-115.72265625,-63.96484375,0.0
1734583828.468842,-67.87109375,-196.77734375,-98.6328125,-47.36328125,0.0
1734583828.473787,-27.83203125,-240.234375,-175.29296875,-42.96875,0.0
1734583828.4776933,-24.4140625,-210.44921875,-126.46484375,-59.5703125,0.0
1734583828.4815993,-56.15234375,-199.21875,-133.7890625,-65.91796875,0.0
1734583828.4855056,-50.29296875,-219.7265625,-188.96484375,-53.7109375,0.0
1734583828.4894118,-50.78125,-237.3046875,-226.5625,-39.0625,0.0
1734583828.493318,-18.06640625,-232.91015625,-173.828125,-19.53125,0.0
1734583828.4972243,-11.23046875,-192.87109375,-87.890625,-25.87890625,0.0
1734583828.5011306,-61.03515625,-211.42578125,-152.83203125,-31.73828125,0.0
1734583828.5050366,-55.6640625,-307.12890625,-357.91015625,-39.55078125,0.0
1734583828.5089428,-52.734375,-225.5859375,-178.22265625,-65.4296875,0.0
1734583828.512849,-45.41015625,-166.9921875,-29.78515625,-62.5,0.0
1734583828.5167553,-37.109375,-195.80078125,-120.1171875,-61.03515625,0.0
1734583828.5204372,-62.98828125,-182.6171875,-147.4609375,-69.82421875,0.0
1734583828.5243435,-72.265625,-202.63671875,-149.90234375,-72.75390625,0.0
1734583828.5282497,-84.47265625,-213.37890625,-159.66796875,-64.453125,0.0
1734583828.532156,-66.89453125,-227.05078125,-155.76171875,-56.15234375,0.0
1734583828.5360622,-35.15625,-215.8203125,-99.609375,-45.41015625,0.0
1734583828.5399683,-42.96875,-242.1875,-163.57421875,-66.40625,0.0
1734583828.5438745,-77.63671875,-237.79296875,-205.078125,-79.1015625,0.0
1734583828.5477808,-79.58984375,-240.234375,-252.44140625,-48.828125,0.0
1734583828.551687,-42.96875,-261.23046875,-265.625,-25.390625,0.0
1734583828.5555933,-48.828125,-178.22265625,-86.42578125,-30.2734375,0.0
1734583828.5594995,-64.94140625,-175.29296875,-106.93359375,-58.10546875,0.0
1734583828.5634055,-89.84375,-250.9765625,-240.72265625,-83.0078125,0.0
1734583828.5660832,-74.21875,-219.23828125,-190.91796875,-59.08203125,0.0
1734583828.5699894,-68.359375,-177.24609375,-80.078125,-70.80078125,0.0
1734583828.5738955,-45.8984375,-199.21875,-78.125,-58.59375,0.0
1734583828.5778017,-23.4375,-242.1875,-210.9375,-40.0390625,0.0
1734583828.581708,-69.3359375,-239.2578125,-213.8671875,-82.03125,0.0
1734583828.5856142,-70.80078125,-230.46875,-211.9140625,-59.5703125,0.0
1734583828.5895205,-45.8984375,-233.88671875,-236.328125,-29.296875,0.0
1734583828.5934267,-51.7578125,-268.5546875,-248.53515625,-43.9453125,0.0
1734583828.5973327,-56.640625,-199.21875,-130.37109375,-58.59375,0.0
1734583828.601239,-82.03125,-179.19921875,-110.83984375,-78.61328125,0.0
1734583828.6051452,-78.125,-231.93359375,-237.3046875,-77.63671875,0.0
1734583828.6090515,-49.8046875,-185.05859375,-189.453125,-61.5234375,0.0
1734583828.611229,-37.59765625,-147.94921875,-64.94140625,-40.0390625,0.0
1734583828.6151352,-50.78125,-186.5234375,-91.30859375,-38.0859375,0.0
1734583828.6190412,-55.17578125,-236.81640625,-230.46875,-57.6171875,0.0
1734583828.6229475,-62.01171875,-219.7265625,-215.33203125,-67.3828125,0.0
1734583828.6268537,-79.58984375,-205.078125,-132.32421875,-44.921875,0.0
1734583828.63076,-50.29296875,-219.7265625,-139.16015625,-36.1328125,0.0
1734583828.6346662,-32.71484375,-238.28125,-218.75,-59.5703125,0.0
1734583828.6385725,-48.828125,-249.0234375,-282.71484375,-61.5234375,0.0
1734583828.6424785,-70.80078125,-194.3359375,-168.9453125,-73.73046875,0.0
1734583828.6463847,-64.94140625,-214.35546875,-185.05859375,-62.01171875,0.0
1734583828.650291,-45.8984375,-214.35546875,-145.01953125,-53.22265625,0.0
1734583828.6541972,-41.50390625,-174.8046875,-58.10546875,-34.1796875,0.0
1734583828.6560073,-46.38671875,-177.24609375,-119.62890625,-28.80859375,0.0
1734583828.6599135,-58.59375,-202.1484375,-229.00390625,-52.24609375,0.0
1734583828.6638198,-50.78125,-226.5625,-245.60546875,-42.48046875,0.0
1734583828.667726,-48.33984375,-184.08203125,-111.81640625,-37.59765625,0.0
1734583828.6716323,-28.3203125,-166.50390625,-81.54296875,-26.3671875,0.0
1734583828.6755383,-51.7578125,-240.234375,-217.28515625,-55.6640625,0.0
1734583828.6794446,-80.56640625,-293.9453125,-337.890625,-81.54296875,0.0
1734583828.6833508,-68.84765625,-197.75390625,-167.48046875,-62.98828125,0.0
1734583828.687257,-57.12890625,-146.484375,-45.8984375,-50.29296875,0.0
1734583828.6911633,-41.9921875,-186.03515625,-128.41796875,-46.38671875,0.0
1734583828.6950693,-56.640625,-212.40234375,-192.87109375,-68.84765625,0.0
1734583828.6989756,-77.63671875,-204.58984375,-191.89453125,-88.8671875,0.0
1734583828.700837,-73.73046875,-197.265625,-175.29296875,-83.0078125,0.0
1734583828.704743,-31.25,-211.42578125,-200.1953125,-48.33984375,0.0
1734583828.7086492,-18.5546875,-194.3359375,-166.015625,-17.08984375,0.0
1734583828.7125554,-45.41015625,-177.734375,-116.2109375,-31.25,0.0
1734583828.7164617,-51.26953125,-208.0078125,-214.84375,-64.94140625,0.0
1734583828.720368,-49.8046875,-221.19140625,-290.52734375,-67.3828125,0.0
1734583828.724274,-33.69140625,-193.359375,-218.26171875,-35.15625,0.0
1734583828.7281802,-28.80859375,-147.94921875,-45.41015625,-31.25,0.0
1734583828.7320864,-47.8515625,-171.38671875,-119.62890625,-35.15625,0.0
1734583828.7359927,-69.82421875,-219.23828125,-254.39453125,-66.89453125,0.0
1734583828.739899,-72.75390625,-200.1953125,-169.43359375,-71.2890625,0.0
1734583828.743805,-49.31640625,-149.4140625,-103.515625,-40.52734375,0.0
1734583828.761788,-34.66796875,-153.80859375,-98.14453125,-40.0390625,0.0
1734583828.765694,-36.1328125,-206.54296875,-194.3359375,-46.38671875,0.0
1734583828.7696002,-52.24609375,-208.984375,-218.75,-50.78125,0.0
1734583828.7735064,-66.89453125,-192.87109375,-174.31640625,-51.26953125,0.0
1734583828.7774127,-54.19921875,-202.63671875,-195.3125,-60.05859375,0.0
1734583828.781319,-33.69140625,-245.60546875,-250.0,-44.921875,0.0
1734583828.7852252,-18.5546875,-210.44921875,-169.921875,-41.50390625,0.0
1734583828.7891314,-36.62109375,-179.19921875,-155.76171875,-59.5703125,0.0
1734583828.7930377,-74.21875,-246.09375,-264.6484375,-74.21875,0.0
1734583828.7969437,-58.10546875,-278.3203125,-343.75,-59.08203125,0.0
1734583828.80085,-37.109375,-188.4765625,-146.97265625,-40.0390625,0.0
1734583828.8047562,-37.59765625,-166.015625,-59.08203125,-44.43359375,0.0
1734583828.8062239,-44.43359375,-223.14453125,-218.26171875,-60.05859375,0.0
1734583828.8101301,-57.12890625,-207.51953125,-231.93359375,-52.734375,0.0
1734583828.8140364,-55.6640625,-175.29296875,-151.85546875,-50.78125,0.0
1734583828.8179426,-42.96875,-185.05859375,-119.140625,-61.5234375,0.0
1734583828.8218486,-59.08203125,-213.8671875,-166.9921875,-62.01171875,0.0
1734583828.825755,-57.6171875,-239.74609375,-254.39453125,-49.31640625,0.0
1734583828.8296611,-39.0625,-225.09765625,-229.98046875,-46.875,0.0
1734583828.8335674,-30.2734375,-195.80078125,-172.8515625,-40.52734375,0.0
1734583828.8374736,-24.4140625,-234.86328125,-214.84375,-24.4140625,0.0
1734583828.84138,-25.390625,-220.21484375,-176.7578125,-30.76171875,0.0
1734583828.8452861,-31.25,-195.3125,-162.109375,-37.109375,0.0
1734583828.8491921,-48.828125,-216.796875,-243.1640625,-37.59765625,0.0
1734583828.8509872,-42.48046875,-245.1171875,-287.109375,-50.78125,0.0
1734583828.8548934,-20.99609375,-209.47265625,-202.63671875,-36.1328125,0.0
1734583828.8587997,-31.73828125,-144.04296875,-63.4765625,-6.8359375,0.0
1734583828.862706,-38.0859375,-197.75390625,-147.4609375,-45.41015625,0.0
1734583828.8666122,-31.73828125,-253.90625,-269.04296875,-62.01171875,0.0
1734583828.8705184,-32.2265625,-250.48828125,-277.83203125,-38.0859375,0.0
1734583828.8744247,-48.828125,-194.82421875,-170.8984375,-43.9453125,0.0
1734583828.8783307,-22.94921875,-200.1953125,-142.578125,-30.2734375,0.0
1734583828.882237,-18.06640625,-297.36328125,-328.125,-10.7421875,0.0
1734583828.8861432,-42.96875,-225.09765625,-228.02734375,-31.25,0.0
1734583828.8900495,-39.55078125,-177.24609375,-123.046875,-54.6875,0.0
1734583828.8939557,-42.48046875,-224.609375,-181.640625,-59.5703125,0.0
1734583828.8955579,-40.0390625,-201.66015625,-132.8125,-43.45703125,0.0
1734583828.8994641,-40.0390625,-202.63671875,-145.01953125,-29.78515625,0.0
1734583828.9033704,-47.36328125,-253.41796875,-244.140625,-64.94140625,0.0
1734583828.9072766,-48.828125,-260.7421875,-251.46484375,-74.70703125,0.0
1734583828.9111826,-41.015625,-230.95703125,-232.421875,-51.7578125,0.0
1734583828.915089,-31.25,-231.93359375,-199.70703125,-53.22265625,0.0
1734583828.9189951,-48.33984375,-226.5625,-171.38671875,-65.4296875,0.0
1734583828.9229014,-65.4296875,-260.7421875,-249.51171875,-70.80078125,0.0
1734583828.9268076,-62.98828125,-313.96484375,-317.3828125,-65.4296875,0.0
1734583828.930714,-53.7109375,-241.2109375,-164.0625,-54.19921875,0.0
1734583828.93462,-33.203125,-215.8203125,-91.30859375,-34.66796875,0.0
1734583828.9385262,-31.73828125,-273.92578125,-202.63671875,-33.203125,0.0
1734583828.9488008,-53.7109375,-277.83203125,-182.12890625,-54.19921875,0.0
1734583828.952707,-70.80078125,-261.71875,-137.6953125,-66.89453125,0.0
1734583828.9566133,-70.3125,-285.15625,-209.47265625,-68.84765625,0.0
1734583828.9605196,-29.78515625,-331.54296875,-272.94921875,-52.24609375,0.0
1734583828.9644258,-35.15625,-292.48046875,-187.5,-41.50390625,0.0
1734583828.968332,-67.3828125,-280.2734375,-205.56640625,-55.17578125,0.0
1734583828.972238,-67.87109375,-321.77734375,-299.31640625,-59.5703125,0.0
1734583828.9761443,-52.24609375,-352.5390625,-355.46875,-62.01171875,0.0
1734583828.9800506,-40.52734375,-265.625,-140.625,-62.98828125,0.0
1734583828.9839568,-32.71484375,-225.5859375,-33.69140625,-48.828125,0.0
1734583828.987863,-36.62109375,-284.66796875,-204.1015625,-51.7578125,0.0
1734583828.9917693,-52.24609375,-291.015625,-250.9765625,-62.5,0.0
1734583829.0067077,0.0,-265.13671875,-179.19921875,-69.82421875,0.0
1734583829.010614,0.0,-253.90625,-133.30078125,-57.6171875,0.0
1734583829.01452,0.0,-269.53125,-169.921875,-42.48046875,0.0
1734583829.0184262,0.0,-266.11328125,-232.421875,-56.640625,0.0
1734583829.0223324,0.0,-278.3203125,-236.328125,-57.6171875,0.0
1734583829.0262387,0.0,-319.82421875,-278.3203125,-54.19921875,0.0
1734583829.030145,0.0,-301.26953125,-250.0,-43.45703125,0.0
1734583829.0340512,0.0,-270.99609375,-176.7578125,-44.43359375,0.0
1734583829.0379574,0.0,-294.921875,-231.4453125,-67.87109375,0.0
1734583829.0418637,0.0,-301.26953125,-281.25,-72.75390625,0.0
1734583829.04577,0.0,-324.70703125,-313.4765625,-62.5,0.0
1734583829.0496762,0.0,-303.22265625,-215.33203125,-38.0859375,0.0
1734583829.0405548,-21.97265625,-214.84375,-54.19921875,-37.109375,0.0
1734583829.044461,-19.04296875,-250.9765625,-164.0625,-51.7578125,0.0
1734583829.048367,-60.05859375,-310.05859375,-321.2890625,-66.89453125,0.0
1734583829.0522733,-82.51953125,-273.4375,-267.08984375,-71.2890625,0.0
1734583829.0561795,-58.10546875,-250.48828125,-207.03125,-60.05859375,0.0
1734583829.0600858,-39.55078125,-301.26953125,-284.1796875,-39.55078125,0.0
1734583829.063992,-56.640625,-320.80078125,-372.55859375,-55.6640625,0.0
1734583829.0678983,-58.59375,-275.390625,-303.7109375,-74.70703125,0.0
1734583829.0718043,-63.4765625,-271.484375,-252.9296875,-54.19921875,0.0
1734583829.0757105,-60.05859375,-294.43359375,-293.9453125,-53.7109375,0.0
1734583829.0796168,-38.57421875,-282.71484375,-278.3203125,-44.43359375,0.0
1734583829.083523,-40.52734375,-283.203125,-262.6953125,-37.109375,0.0
1734583829.0801342,-61.5234375,-266.11328125,-286.1328125,-64.94140625,0.0
1734583829.0840404,-64.453125,-286.1328125,-346.19140625,-74.21875,0.0
1734583829.0879467,-57.12890625,-348.6328125,-396.484375,-44.43359375,0.0
1734583829.0918527,-39.55078125,-250.0,-187.98828125,-34.66796875,0.0
1734583829.095759,-16.11328125,-218.26171875,-173.828125,-32.2265625,0.0
1734583829.0996652,-22.94921875,-292.96875,-368.1640625,-33.69140625,0.0
1734583829.1035714,-38.57421875,-278.3203125,-301.7578125,-38.0859375,0.0
1734583829.1074777,-53.7109375,-198.2421875,-193.84765625,-44.43359375,0.0
1734583829.111384,-39.55078125,-193.359375,-266.6015625,-56.15234375,0.0
1734583829.11529,-27.34375,-226.5625,-334.47265625,-44.921875,0.0
1734583829.1191962,-52.24609375,-208.0078125,-330.078125,-47.36328125,0.0
1734583829.1231024,-77.63671875,-187.01171875,-350.09765625,-71.2890625,0.0
1734583829.1311648,-83.49609375,-193.359375,-367.67578125,-66.89453125,0.0
1734583829.135071,-65.91796875,-208.984375,-393.06640625,-63.4765625,0.0
1734583829.1389773,-57.12890625,-203.125,-395.5078125,-61.03515625,0.0
1734583829.1428835,-70.3125,-194.82421875,-363.28125,-74.70703125,0.0
1734583829.1467898,-84.9609375,-222.65625,-380.859375,-87.40234375,0.0
1734583829.1506958,-107.421875,-299.8046875,-462.890625,-83.49609375,0.0
1734583829.154602,-93.26171875,-296.875,-384.765625,-85.44921875,0.0
1734583829.1585083,-78.61328125,-255.859375,-304.6875,-79.58984375,0.0
1734583829.1624146,-103.515625,-314.94140625,-382.32421875,-89.84375,0.0
1734583829.1663208,-119.140625,-424.31640625,-473.14453125,-105.95703125,0.0
1734583829.170227,-132.32421875,-357.91015625,-369.140625,-132.8125,0.0
1734583829.174133,-119.62890625,-316.89453125,-329.58984375,-131.8359375,0.0
1734583829.1864645,-103.515625,-384.765625,-405.2734375,-116.2109375,0.0
1734583829.1903708,-142.08984375,-415.52734375,-370.1171875,-163.57421875,0.0
1734583829.194277,-184.5703125,-413.57421875,-368.1640625,-195.80078125,0.0
1734583829.1981833,-198.2421875,-429.19921875,-406.25,-201.171875,0.0
1734583829.2020895,-186.03515625,-463.37890625,-412.59765625,-196.77734375,0.0
1734583829.2059958,-170.8984375,-469.7265625,-389.6484375,-176.7578125,0.0
1734583829.209902,-172.8515625,-477.05078125,-404.296875,-176.26953125,0.0
1734583829.213808,-182.6171875,-478.02734375,-403.3203125,-193.84765625,0.0
1734583829.2177143,-187.5,-520.01953125,-448.2421875,-178.7109375,0.0
1734583829.2216206,-163.57421875,-542.96875,-426.26953125,-145.01953125,0.0
1734583829.2255268,-148.4375,-453.125,-329.58984375,-172.36328125,0.0
1734583829.229433,-160.64453125,-488.76953125,-415.52734375,-192.87109375,0.0
1734583829.2364314,-150.87890625,-611.81640625,-472.16796875,-149.4140625,0.0
1734583829.2403376,-138.18359375,-617.67578125,-439.94140625,-131.8359375,0.0
1734583829.2442439,-127.9296875,-586.42578125,-417.48046875,-113.76953125,0.0
1734583829.24815,-90.8203125,-607.91015625,-413.0859375,-82.51953125,0.0
1734583829.2520564,-75.1953125,-650.87890625,-497.55859375,-77.1484375,0.0
1734583829.2559626,-81.54296875,-663.57421875,-510.25390625,-68.84765625,0.0
1734583829.2598689,-71.77734375,-619.140625,-430.17578125,-64.453125,0.0
1734583829.263775,-53.22265625,-609.375,-465.33203125,-63.96484375,0.0
1734583829.2676814,-31.73828125,-676.26953125,-562.98828125,-55.17578125,0.0
1734583829.2715874,-22.4609375,-606.93359375,-454.1015625,-41.9921875,0.0
1734583829.2754936,-34.1796875,-556.15234375,-448.2421875,-21.97265625,0.0
1734583829.2793999,-30.76171875,-607.421875,-518.06640625,-21.484375,0.0
1734583829.2756295,-7.32421875,-597.65625,-462.890625,-20.99609375,0.0
1734583829.2795358,12.20703125,-556.15234375,-437.01171875,11.23046875,0.0
1734583829.283442,25.87890625,-550.78125,-467.7734375,21.484375,0.0
1734583829.287348,28.80859375,-578.61328125,-499.51171875,6.8359375,0.0
1734583829.2912543,-4.8828125,-572.265625,-486.81640625,2.9296875,0.0
1734583829.2951605,-4.8828125,-568.84765625,-487.79296875,6.8359375,0.0
1734583829.2990668,28.3203125,-538.0859375,-439.94140625,24.90234375,0.0
1734583829.302973,31.73828125,-517.08984375,-439.94140625,31.25,0.0
1734583829.3068793,18.5546875,-545.8984375,-478.515625,14.6484375,0.0
1734583829.3107855,-0.9765625,-522.94921875,-457.51953125,8.30078125,0.0
1734583829.3146915,-7.32421875,-480.95703125,-429.6875,-8.30078125,0.0
1734583829.3185978,20.01953125,-534.1796875,-461.42578125,10.7421875,0.0
1734583829.3184497,34.1796875,-500.48828125,-377.9296875,33.203125,0.0
1734583829.3223557,13.18359375,-431.15234375,-368.1640625,-7.32421875,0.0
1734583829.326262,2.9296875,-470.703125,-449.21875,-10.25390625,0.0
1734583829.3301682,2.9296875,-497.55859375,-447.75390625,17.08984375,0.0
1734583829.3340745,21.97265625,-460.44921875,-399.4140625,24.90234375,0.0
1734583829.3379807,55.17578125,-440.4296875,-395.01953125,36.1328125,0.0
1734583829.341887,20.99609375,-455.56640625,-420.41015625,32.71484375,0.0
1734583829.345793,-2.9296875,-503.41796875,-490.72265625,12.20703125,0.0
1734583829.3496993,-8.7890625,-439.94140625,-391.11328125,0.48828125,0.0
1734583829.3536055,-5.859375,-376.953125,-329.58984375,-2.9296875,0.0
1734583829.3575118,20.01953125,-402.34375,-377.9296875,10.7421875,0.0
1734583829.361418,13.671875,-404.78515625,-363.76953125,17.578125,0.0
1734583829.362543,-10.7421875,-387.6953125,-365.234375,-4.39453125,0.0
1734583829.3664494,-7.8125,-381.8359375,-381.8359375,-11.71875,0.0
1734583829.3703556,14.6484375,-396.484375,-385.7421875,25.87890625,0.0
1734583829.3742619,35.15625,-372.55859375,-354.4921875,43.45703125,0.0
1734583829.378168,32.71484375,-324.70703125,-356.4453125,8.30078125,0.0
1734583829.3820744,8.30078125,-363.28125,-400.390625,-11.23046875,0.0
1734583829.3859804,6.8359375,-403.3203125,-416.9921875,-2.9296875,0.0
1734583829.3898866,15.13671875,-397.4609375,-363.76953125,19.53125,0.0
1734583829.3937929,18.06640625,-321.77734375,-247.55859375,20.5078125,0.0
1734583829.397699,22.4609375,-332.03125,-337.890625,11.71875,0.0
1734583829.4016054,18.06640625,-352.05078125,-392.08984375,8.30078125,0.0
1734583829.4055114,0.9765625,-321.2890625,-338.37890625,-5.859375,0.0
1734583829.4070907,-3.41796875,-302.734375,0.0,-6.8359375,0.0
1734583829.410997,22.4609375,-302.24609375,0.0,7.8125,0.0
1734583829.4149032,27.83203125,-362.3046875,0.0,26.3671875,0.0
1734583829.4188092,15.625,-337.890625,0.0,6.8359375,0.0
1734583829.4227154,6.34765625,-305.6640625,0.0,-7.32421875,0.0
1734583829.4266217,12.20703125,-358.88671875,0.0,15.13671875,0.0
1734583829.430528,42.96875,-392.08984375,0.0,40.0390625,0.0
1734583829.4344342,34.66796875,-313.96484375,0.0,33.203125,0.0
1734583829.4383404,18.06640625,-262.6953125,0.0,-7.8125,0.0
1734583829.4422464,22.94921875,-327.1484375,0.0,-8.30078125,0.0
1734583829.4461527,4.39453125,-348.14453125,0.0,-3.90625,0.0
1734583829.450059,12.6953125,-274.90234375,0.0,3.90625,0.0
1734583829.4516678,29.296875,-268.5546875,-260.7421875,17.08984375,0.0
1734583829.455574,10.7421875,-316.40625,-356.93359375,0.48828125,0.0
1734583829.4594803,-15.625,-310.546875,-362.3046875,-21.97265625,0.0
1734583829.4633865,-2.9296875,-289.0625,-306.15234375,-19.04296875,0.0
1734583829.4672925,16.6015625,-271.484375,-264.6484375,3.41796875,0.0
1734583829.4711988,28.80859375,-321.2890625,-344.7265625,16.6015625,0.0
1734583829.475105,22.4609375,-362.79296875,-390.13671875,19.04296875,0.0
1734583829.4790113,-0.48828125,-271.97265625,-270.5078125,13.18359375,0.0
1734583829.4829175,6.8359375,-282.71484375,-309.5703125,-0.9765625,0.0
1734583829.4868236,14.6484375,-312.01171875,-331.0546875,7.8125,0.0
1734583829.4907298,6.8359375,-265.625,-251.953125,7.8125,0.0
1734583829.494636,-22.94921875,-250.48828125,-261.71875,-16.6015625,0.0
1734583829.5042813,-28.80859375,-279.296875,-334.9609375,-24.90234375,0.0
1734583829.5081873,-21.97265625,-305.17578125,-385.25390625,-18.5546875,0.0
1734583829.5120935,-6.34765625,-264.6484375,-288.57421875,-11.23046875,0.0
1734583829.5159998,26.3671875,-232.421875,-209.9609375,-2.44140625,0.0
1734583829.519906,-6.8359375,-262.20703125,-303.22265625,-4.39453125,0.0
1734583829.5238123,-29.78515625,-323.2421875,-417.96875,-5.37109375,0.0
1734583829.5277185,-24.90234375,-286.1328125,-320.80078125,0.48828125,0.0
1734583829.5316246,-21.484375,-226.07421875,-203.125,-3.90625,0.0
1734583829.5355308,-2.44140625,-255.859375,-238.28125,-8.30078125,0.0
1734583829.539437,-8.30078125,-294.43359375,-316.89453125,-6.34765625,0.0
1734583829.5433433,-34.1796875,-251.953125,-270.5078125,-17.08984375,0.0
1734583829.5472496,-33.69140625,-237.3046875,-253.41796875,-26.85546875,0.0
1734583829.553041,-20.99609375,-279.296875,-340.33203125,-6.34765625,0.0
1734583829.5569472,-2.44140625,-293.45703125,-347.65625,6.34765625,0.0
1734583829.5608532,2.44140625,-214.35546875,-195.80078125,-8.7890625,0.0
1734583829.5647595,-22.4609375,-211.42578125,-226.07421875,-10.7421875,0.0
1734583829.5686657,-21.97265625,-261.23046875,-316.89453125,-27.83203125,0.0
1734583829.572572,-21.97265625,-263.671875,-306.15234375,-26.3671875,0.0
1734583829.5764782,-32.71484375,-231.4453125,-229.98046875,-16.6015625,0.0
1734583829.5803845,-29.78515625,-203.125,-185.05859375,-17.578125,0.0
1734583829.5842905,-39.0625,-272.94921875,-324.70703125,-14.16015625,0.0
1734583829.5881968,-50.29296875,-293.9453125,-325.68359375,-27.83203125,0.0
1734583829.592103,-43.45703125,-191.40625,-150.390625,-30.2734375,0.0
1734583829.5960093,-15.625,-185.05859375,-160.15625,-11.71875,0.0
1734583829.5996747,-8.30078125,-233.3984375,-246.58203125,-24.4140625,0.0
1734583829.603581,-40.0390625,-232.91015625,-264.6484375,-46.38671875,0.0
1734583829.6074872,-60.05859375,-217.7734375,-250.48828125,-48.828125,0.0
1734583829.6113935,-48.828125,-231.93359375,-273.4375,-47.36328125,0.0
1734583829.6152997,-33.203125,-235.3515625,-270.01953125,-28.3203125,0.0
1734583829.6192057,-34.1796875,-232.91015625,-243.65234375,-26.85546875,0.0
1734583829.623112,-50.78125,-210.9375,-219.23828125,-42.96875,0.0
1734583829.6270182,-56.15234375,-212.40234375,-235.3515625,-50.78125,0.0
1734583829.6309245,-48.828125,-292.48046875,-370.60546875,-54.19921875,0.0
1734583829.6348307,-43.9453125,-208.0078125,-174.8046875,-47.8515625,0.0
1734583829.638737,-35.15625,-147.4609375,-67.3828125,-43.9453125,0.0
1734583829.642643,-57.6171875,-225.5859375,-231.4453125,-53.22265625,0.0
1734583829.6495662,0.0,-250.48828125,-246.58203125,-53.22265625,0.0
1734583829.6534724,0.0,-197.265625,-174.31640625,-39.0625,0.0
1734583829.6573787,0.0,-174.8046875,-143.06640625,-30.2734375,0.0
1734583829.6612847,0.0,-195.3125,-180.6640625,-17.08984375,0.0
1734583829.665191,0.0,-198.73046875,-236.81640625,-10.7421875,0.0
1734583829.6690972,0.0,-211.42578125,-267.08984375,-28.3203125,0.0
1734583829.6730034,0.0,-216.796875,-266.11328125,-52.24609375,0.0
1734583829.6769097,0.0,-215.8203125,-252.9296875,-35.64453125,0.0
1734583829.680816,0.0,-225.5859375,-255.859375,-21.484375,0.0
1734583829.6847222,0.0,-181.15234375,-158.203125,-40.52734375,0.0
1734583829.6886282,0.0,-181.640625,-177.24609375,-58.10546875,0.0
1734583829.6925344,0.0,-222.16796875,-257.8125,-76.66015625,0.0
1734583829.6954904,-49.31640625,-196.77734375,-182.12890625,-57.12890625,0.0
1734583829.6993966,-26.3671875,-170.8984375,-98.6328125,-33.203125,0.0
1734583829.7033029,-40.52734375,-207.03125,-184.08203125,-43.45703125,0.0
1734583829.707209,-62.01171875,-254.39453125,-311.5234375,-47.8515625,0.0
1734583829.7111151,-62.01171875,-238.76953125,-274.4140625,-48.828125,0.0
1734583829.7150214,-38.57421875,-225.09765625,-244.62890625,-27.34375,0.0
1734583829.7189276,-17.08984375,-224.609375,-228.02734375,2.44140625,0.0
1734583829.7228339,-26.85546875,-272.94921875,-340.33203125,-7.32421875,0.0
1734583829.7267401,-54.6875,-217.28515625,-258.30078125,-50.78125,0.0
1734583829.7306464,-58.10546875,-180.6640625,-185.546875,-61.03515625,0.0
1734583829.7345524,-41.9921875,-222.16796875,-282.71484375,-50.78125,0.0
1734583829.7384586,-32.2265625,-189.94140625,-225.09765625,-46.875,0.0
1734583829.7723584,0.0,-183.59375,0.0,-74.21875,0.0
1734583829.7762647,0.0,-210.9375,0.0,-65.91796875,0.0
1734583829.780171,0.0,-238.28125,0.0,-37.109375,0.0
1734583829.7840772,0.0,-209.47265625,0.0,-35.15625,0.0
1734583829.7879834,0.0,-176.7578125,0.0,-52.24609375,0.0
1734583829.7918897,0.0,-210.44921875,0.0,-63.4765625,0.0
1734583829.795796,0.0,-267.08984375,0.0,-61.03515625,0.0
1734583829.7997022,0.0,-284.66796875,0.0,-24.90234375,0.0
1734583829.8036084,0.0,-201.66015625,0.0,-6.8359375,0.0
1734583829.8075147,0.0,-195.3125,0.0,-29.296875,0.0
1734583829.811421,0.0,-227.05078125,0.0,-38.0859375,0.0
1734583829.8153272,0.0,-218.26171875,0.0,-37.109375,0.0
1734583829.8084285,-70.80078125,-211.42578125,-254.8828125,0.0,0.0
1734583829.8123348,-71.2890625,-246.09375,-322.265625,0.0,0.0
1734583829.816241,-40.0390625,-248.53515625,-319.82421875,0.0,0.0
1734583829.8201473,-34.66796875,-208.0078125,-242.67578125,0.0,0.0
1734583829.8240535,-47.8515625,-226.5625,-268.06640625,0.0,0.0
1734583829.8279598,-52.734375,-282.71484375,-367.1875,0.0,0.0
1734583829.831866,-49.31640625,-313.4765625,-417.48046875,0.0,0.0
1734583829.8357723,-39.55078125,-227.05078125,-211.42578125,0.0,0.0
1734583829.8396785,-23.4375,-174.8046875,-117.67578125,0.0,0.0
1734583829.8435845,-31.25,-242.1875,-269.53125,0.0,0.0
1734583829.8474908,-60.546875,-269.53125,-308.10546875,0.0,0.0
1734583829.851397,-52.734375,-230.95703125,-286.62109375,0.0,0.0
1734583829.8392427,-27.34375,-220.703125,-271.97265625,-38.0859375,0.0
1734583829.843149,-28.80859375,-240.234375,-278.3203125,-23.4375,0.0
1734583829.8470552,-38.0859375,-248.046875,-332.51953125,-37.109375,0.0
1734583829.8509614,-54.6875,-249.0234375,-346.19140625,-58.10546875,0.0
1734583829.8548677,-43.45703125,-264.6484375,-351.5625,-42.96875,0.0
1734583829.858774,-30.2734375,-262.6953125,-361.81640625,-31.73828125,0.0
1734583829.86268,-18.06640625,-223.6328125,-282.71484375,-21.484375,0.0
1734583829.8665862,-23.4375,-215.33203125,-256.8359375,-19.53125,0.0
1734583829.8704925,-57.6171875,-256.8359375,-341.796875,-48.828125,0.0
1734583829.8743987,-53.22265625,-314.453125,-395.5078125,-53.7109375,0.0
1734583829.878305,-43.9453125,-299.31640625,-311.03515625,-32.71484375,0.0
1734583829.8822112,-38.57421875,-203.61328125,-168.9453125,-43.45703125,0.0
1734583829.893422,-23.4375,-215.8203125,-268.06640625,-40.0390625,0.0
1734583829.8973281,-38.57421875,-290.52734375,-411.1328125,-42.48046875,0.0
1734583829.9012344,-54.6875,-263.18359375,-331.0546875,-60.546875,0.0
1734583829.9051406,-38.57421875,-227.5390625,-268.06640625,-46.38671875,0.0
1734583829.909047,-29.78515625,-250.0,-284.1796875,-33.203125,0.0
1734583829.9129531,-37.109375,-304.6875,-400.390625,-43.45703125,0.0
1734583829.9168594,-52.734375,-285.64453125,-392.578125,-55.6640625,0.0
1734583829.9207656,-53.7109375,-250.9765625,-342.7734375,-59.08203125,0.0
1734583829.924672,-40.52734375,-256.8359375,-361.81640625,-43.45703125,0.0
1734583829.928578,-18.5546875,-288.57421875,-404.78515625,-9.27734375,0.0
1734583829.9324841,-16.6015625,-228.515625,-305.6640625,-18.5546875,0.0
1734583829.9363904,-31.73828125,-219.23828125,-323.73046875,-41.015625,0.0
1734583829.9510915,-26.3671875,-269.04296875,-401.85546875,-47.8515625,0.0
1734583829.9549978,-44.921875,-250.9765625,-355.46875,-44.43359375,0.0
1734583829.9589038,-55.17578125,-212.890625,-298.33984375,-36.62109375,0.0
1734583829.96281,-36.1328125,-216.796875,-326.66015625,-27.34375,0.0
1734583829.9667163,-50.29296875,-265.625,-401.3671875,-36.1328125,0.0
1734583829.9706225,-55.6640625,-289.55078125,-399.4140625,-46.875,0.0
1734583829.9745288,-50.78125,-254.8828125,-358.88671875,-40.0390625,0.0
1734583829.978435,-29.296875,-213.37890625,-309.5703125,-29.296875,0.0
1734583829.9823413,4.8828125,-245.60546875,-338.37890625,-15.13671875,0.0
1734583829.9862475,-31.25,-270.5078125,-382.32421875,-15.625,0.0
1734583829.9901538,-55.6640625,-251.46484375,-371.09375,-20.99609375,0.0
1734583829.99406,-41.015625,-228.515625,-334.9609375,-25.87890625,0.0
1734583829.9854856,-14.6484375,-263.671875,-375.48828125,-18.06640625,0.0
1734583829.9893918,0.48828125,-244.62890625,-294.43359375,-5.37109375,0.0
1734583829.993298,-28.3203125,-195.3125,-249.51171875,-24.4140625,0.0
1734583829.9972043,-50.78125,-241.69921875,-362.79296875,-50.78125,0.0
1734583830.0011106,-43.9453125,-279.78515625,-410.64453125,-30.2734375,0.0
1734583830.0050168,-35.15625,-270.5078125,-368.1640625,-23.4375,0.0
1734583830.008923,-13.18359375,-234.375,-302.734375,-24.4140625,0.0
1734583830.012829,-20.5078125,-245.1171875,-346.19140625,-14.6484375,0.0
1734583830.0167353,-44.43359375,-291.015625,-408.203125,-27.83203125,0.0
1734583830.0206416,-45.8984375,-239.2578125,-337.890625,-52.734375,0.0
1734583830.0245478,-42.96875,-204.1015625,-316.89453125,-57.6171875,0.0
1734583830.028454,-34.66796875,-231.4453125,-333.984375,-48.828125,0.0
1734583830.025888,-38.57421875,-252.9296875,-309.5703125,-39.0625,0.0
1734583830.0297942,-50.29296875,-246.58203125,-346.6796875,-58.10546875,0.0
1734583830.0337005,-57.12890625,-226.5625,-341.30859375,-51.7578125,0.0
1734583830.0376067,-31.25,-239.2578125,-350.5859375,-15.625,0.0
1734583830.0415127,-16.6015625,-292.48046875,-405.2734375,-5.37109375,0.0
1734583830.045419,-31.73828125,-243.1640625,-314.94140625,-29.78515625,0.0
1734583830.0493252,-46.38671875,-205.078125,-289.0625,-44.921875,0.0
1734583830.0532315,-57.6171875,-251.953125,-354.4921875,-43.9453125,0.0
1734583830.0571377,-46.38671875,-296.38671875,-367.67578125,-34.66796875,0.0
1734583830.061044,-16.6015625,-208.0078125,-209.9609375,-21.97265625,0.0
1734583830.0649502,-11.71875,-180.17578125,-201.171875,-21.97265625,0.0
1734583830.0688562,-38.0859375,-250.9765625,-337.40234375,-29.78515625,0.0
1734583830.0770867,-42.48046875,-234.375,-298.33984375,-43.45703125,0.0
1734583830.080993,-27.34375,-187.98828125,-233.88671875,-46.875,0.0
1734583830.0848992,-5.37109375,-193.84765625,-216.30859375,-27.34375,0.0
1734583830.0888054,-30.76171875,-231.93359375,-298.33984375,-19.53125,0.0
1734583830.0927117,-60.05859375,-245.1171875,-340.33203125,-35.64453125,0.0
1734583830.096618,-55.17578125,-244.140625,-321.77734375,-49.31640625,0.0
1734583830.1005242,-51.7578125,-246.58203125,-333.49609375,-40.52734375,0.0
1734583830.1044302,-38.0859375,-265.625,-378.41796875,-31.25,0.0
1734583830.1083364,-16.11328125,-196.2890625,-213.37890625,-26.85546875,0.0
1734583830.1122427,-25.390625,-170.8984375,-169.43359375,-44.43359375,0.0
1734583830.116149,-41.50390625,-214.84375,-295.41015625,-45.41015625,0.0
1734583830.1200552,-35.64453125,-214.35546875,-264.16015625,-33.69140625,0.0
1734583830.1165183,0.0,-186.5234375,0.0,-31.73828125,0.0
1734583830.1204245,0.0,-182.6171875,0.0,-32.71484375,0.0
1734583830.1243308,0.0,-222.65625,0.0,-20.99609375,0.0
1734583830.128237,0.0,-230.46875,0.0,-32.2265625,0.0
1734583830.132143,0.0,-214.35546875,0.0,-41.50390625,0.0
1734583830.1360493,0.0,-250.9765625,0.0,-28.3203125,0.0
1734583830.1399555,0.0,-267.08984375,0.0,-28.80859375,0.0
1734583830.1438618,0.0,-267.08984375,0.0,-43.9453125,0.0
1734583830.147768,0.0,-297.8515625,0.0,-55.17578125,0.0
1734583830.1516743,0.0,-301.26953125,0.0,-62.01171875,0.0
1734583830.1555803,0.0,-311.5234375,0.0,-39.0625,0.0
1734583830.1594865,0.0,-301.26953125,0.0,-24.90234375,0.0
1734583830.1620624,-54.6875,-251.953125,-83.0078125,-50.78125,0.0
1734583830.1659687,-71.2890625,-288.57421875,-174.8046875,-66.89453125,0.0
1734583830.169875,-67.87109375,-327.1484375,-274.4140625,-69.82421875,0.0
1734583830.1737812,-67.3828125,-276.3671875,-185.05859375,-37.59765625,0.0
1734583830.1776874,-38.0859375,-246.58203125,-105.46875,-22.94921875,0.0
1734583830.1815937,-9.765625,-299.31640625,-221.19140625,-32.71484375,0.0
1734583830.1854997,-24.90234375,-357.91015625,-360.83984375,-26.3671875,0.0
1734583830.189406,-60.05859375,-292.48046875,-209.47265625,-37.109375,0.0
1734583830.1933122,-60.05859375,-236.81640625,-78.61328125,-43.45703125,0.0
1734583830.1972184,-35.15625,-269.04296875,-121.09375,-36.62109375,0.0
1734583830.2011247,-36.62109375,-304.19921875,-209.9609375,-41.015625,0.0
1734583830.205031,-67.87109375,-310.546875,-242.1875,-40.52734375,0.0
1734583830.2039027,-71.77734375,-285.15625,-193.84765625,-51.7578125,0.0
1734583830.207809,-51.26953125,-285.64453125,-201.66015625,-49.31640625,0.0
1734583830.2117152,-33.69140625,-272.94921875,-153.3203125,-27.34375,0.0
1734583830.2156215,-40.0390625,-265.13671875,-126.953125,-25.87890625,0.0
1734583830.2195277,-54.19921875,-277.34375,-207.03125,-43.45703125,0.0
1734583830.2234337,-51.26953125,-332.51953125,-328.125,-50.78125,0.0
1734583830.22734,-54.6875,-356.93359375,-334.47265625,-44.921875,0.0
1734583830.2312462,-48.828125,-247.55859375,-86.42578125,-44.921875,0.0
1734583830.2351525,-33.203125,-261.71875,-114.74609375,-39.0625,0.0
1734583830.2390587,-62.01171875,-329.58984375,-277.34375,-41.015625,0.0
1734583830.2429647,-85.9375,-296.38671875,-211.42578125,-51.26953125,0.0
1734583830.246871,-84.47265625,-260.25390625,-145.01953125,-59.08203125,0.0
1734583830.255774,-70.3125,-261.23046875,-143.06640625,-63.96484375,0.0
1734583830.25968,-67.87109375,-305.17578125,-215.8203125,-78.61328125,0.0
1734583830.2635863,-74.70703125,-314.94140625,-256.8359375,-84.47265625,0.0
1734583830.2674925,-69.82421875,-269.53125,-201.66015625,-75.1953125,0.0
1734583830.2713988,-84.9609375,-270.5078125,-200.68359375,-63.96484375,0.0
1734583830.275305,-65.91796875,-318.359375,-274.4140625,-55.17578125,0.0
1734583830.2792113,-41.50390625,-279.296875,-185.05859375,-48.33984375,0.0
1734583830.2831173,-63.96484375,-232.421875,-121.09375,-66.40625,0.0
1734583830.2870235,-64.453125,-271.97265625,-235.83984375,-72.265625,0.0
1734583830.2909298,-70.80078125,-326.66015625,-349.12109375,-47.36328125,0.0
1734583830.294836,-60.546875,-235.3515625,-140.13671875,-41.9921875,0.0
1734583830.2987423,-34.66796875,-186.5234375,-16.6015625,-31.25,0.0
1734583830.3037663,-40.0390625,-237.79296875,-162.109375,-20.5078125,0.0
1734583830.3076725,-52.734375,-242.1875,-226.5625,-60.05859375,0.0
1734583830.3115785,-52.24609375,-212.890625,-152.83203125,-67.3828125,0.0
1734583830.3154848,-39.55078125,-196.2890625,-94.23828125,-38.0859375,0.0
1734583830.319391,-26.3671875,-213.8671875,-120.1171875,-16.11328125,0.0
1734583830.3232973,-41.9921875,-238.28125,-184.5703125,-39.0625,0.0
1734583830.3272035,-64.453125,-241.2109375,-220.703125,-61.5234375,0.0
1734583830.3311098,-61.5234375,-197.265625,-144.04296875,-62.01171875,0.0
1734583830.3350158,-45.41015625,-217.28515625,-180.6640625,-55.6640625,0.0
1734583830.338922,-26.3671875,-251.46484375,-241.69921875,-38.57421875,0.0
1734583830.3428283,-14.6484375,-168.9453125,-80.078125,-42.48046875,0.0
1734583830.3467345,-56.15234375,-179.19921875,-130.859375,-62.5,0.0
1734583830.3509073,0.0,-227.5390625,-223.14453125,-66.89453125,0.0
1734583830.3548136,0.0,-194.3359375,-139.16015625,-42.96875,0.0
1734583830.3587198,0.0,-170.8984375,-50.29296875,-48.828125,0.0
1734583830.362626,0.0,-198.2421875,-101.07421875,-57.6171875,0.0
1734583830.366532,0.0,-266.6015625,-291.50390625,-59.5703125,0.0
1734583830.3704383,0.0,-257.8125,-279.296875,-71.2890625,0.0
1734583830.3743446,0.0,-190.4296875,-127.44140625,-59.5703125,0.0
1734583830.3782508,0.0,-189.94140625,-93.75,-46.875,0.0
1734583830.382157,0.0,-283.203125,-290.52734375,-42.48046875,0.0
1734583830.3860633,0.0,-237.79296875,-243.65234375,-66.40625,0.0
1734583830.3899693,0.0,-190.4296875,-144.53125,-83.0078125,0.0
1734583830.3938756,0.0,-229.4921875,-203.61328125,-72.75390625,0.0
1734583830.3738215,-71.77734375,-213.37890625,-158.203125,-51.26953125,0.0
1734583830.3777277,-59.08203125,-192.87109375,-106.4453125,-42.96875,0.0
1734583830.381634,-46.38671875,-222.65625,-176.26953125,-68.359375,0.0
1734583830.3855402,-41.50390625,-243.65234375,-237.3046875,-84.47265625,0.0
1734583830.3894463,-53.7109375,-231.93359375,-184.08203125,-60.546875,0.0
1734583830.3933525,-57.12890625,-230.46875,-130.37109375,-42.48046875,0.0
1734583830.3972588,-68.359375,-221.6796875,-84.47265625,-44.43359375,0.0
1734583830.401165,-62.01171875,-267.08984375,-151.3671875,-58.10546875,0.0
1734583830.405071,-53.7109375,-314.453125,-240.72265625,-72.75390625,0.0
1734583830.4089773,-80.56640625,-243.1640625,-65.4296875,-75.68359375,0.0
1734583830.4128835,-91.796875,-208.0078125,66.40625,-60.05859375,0.0
1734583830.4167895,-63.4765625,-251.46484375,1.953125,-48.828125,0.0
1734583830.431096,-57.6171875,-260.25390625,-35.15625,-58.10546875,0.0
1734583830.4350023,-62.5,-252.44140625,-18.06640625,-66.89453125,0.0
1734583830.4389086,-63.4765625,-270.01953125,-49.31640625,-55.6640625,0.0
1734583830.4428148,-45.8984375,-282.71484375,-56.640625,-33.203125,0.0
1734583830.446721,-23.4375,-250.48828125,8.7890625,-46.875,0.0
1734583830.450627,-49.8046875,-273.4375,-72.75390625,-51.7578125,0.0
1734583830.4545333,-73.73046875,-295.41015625,-130.859375,-32.71484375,0.0
1734583830.4584396,-63.4765625,-326.66015625,-203.61328125,-10.25390625,0.0
1734583830.4623458,-38.0859375,-266.11328125,-39.55078125,-24.90234375,0.0
1734583830.4662519,-32.2265625,-202.1484375,135.25390625,-40.52734375,0.0
1734583830.470158,-46.875,-265.625,-37.109375,-43.45703125,0.0
1734583830.4740644,-65.4296875,-307.12890625,-173.828125,-60.05859375,0.0
1734583830.4815624,-70.3125,-256.8359375,-57.6171875,-64.453125,0.0
1734583830.4854684,-50.78125,-236.81640625,7.32421875,-39.0625,0.0
1734583830.4893746,-34.1796875,-262.20703125,-32.2265625,-17.578125,0.0
1734583830.493281,-40.52734375,-252.44140625,-47.36328125,-23.92578125,0.0
1734583830.4971871,-66.40625,-250.9765625,-83.49609375,-48.33984375,0.0
1734583830.5010934,-60.05859375,-275.87890625,-133.7890625,-49.31640625,0.0
1734583830.5049994,-47.8515625,-293.9453125,-158.69140625,-24.4140625,0.0
1734583830.5089056,-31.25,-289.55078125,-157.2265625,-13.671875,0.0
1734583830.512812,-31.73828125,-226.07421875,-20.99609375,-34.66796875,0.0
1734583830.5167181,-76.171875,-260.25390625,-118.1640625,-50.29296875,0.0
1734583830.5206244,-76.66015625,-277.83203125,-177.24609375,-43.9453125,0.0
1734583830.5245304,-49.8046875,-239.2578125,-88.8671875,-44.43359375,0.0
1734583830.5387287,0.0,-212.40234375,-30.2734375,-41.9921875,0.0
1734583830.542635,0.0,-229.00390625,-83.49609375,-48.828125,0.0
1734583830.5465412,0.0,-286.1328125,-216.30859375,-53.7109375,0.0
1734583830.5504475,0.0,-265.625,-165.0390625,-61.03515625,0.0
1734583830.5543537,0.0,-241.69921875,-110.3515625,-73.2421875,0.0
1734583830.55826,0.0,-267.578125,-155.76171875,-41.50390625,0.0
1734583830.5621662,0.0,-313.4765625,-263.18359375,-16.11328125,0.0
1734583830.5660722,0.0,-270.99609375,-183.59375,-35.15625,0.0
1734583830.5699785,0.0,-223.6328125,-75.1953125,-46.38671875,0.0
1734583830.5738847,0.0,-255.859375,-163.57421875,-38.0859375,0.0
1734583830.577791,0.0,-248.53515625,-145.5078125,-29.78515625,0.0
1734583830.5816972,0.0,-219.23828125,-72.265625,-29.78515625,0.0
1734583830.5657873,-42.96875,-233.88671875,-121.58203125,-48.33984375,0.0
1734583830.5696936,-49.31640625,-268.06640625,-221.6796875,-57.12890625,0.0
1734583830.5735998,-62.01171875,-264.16015625,-218.75,-50.78125,0.0
1734583830.5775058,-62.98828125,-204.1015625,-64.453125,-39.0625,0.0
1734583830.581412,-57.6171875,-204.58984375,-68.359375,-33.69140625,0.0
1734583830.5853183,-34.66796875,-268.06640625,-239.74609375,-35.15625,0.0
1734583830.5892246,-27.83203125,-253.41796875,-249.51171875,-60.546875,0.0
1734583830.5931306,-53.22265625,-208.49609375,-137.20703125,-63.4765625,0.0
1734583830.5970368,-60.05859375,-207.51953125,-97.16796875,-44.921875,0.0
1734583830.600943,-47.8515625,-251.953125,-196.77734375,-41.015625,0.0
1734583830.6048493,-24.4140625,-270.01953125,-268.5546875,-34.66796875,0.0
1734583830.6087554,-7.8125,-199.70703125,-139.16015625,-42.96875,0.0
1734583830.602496,-49.31640625,-197.265625,-152.34375,0.0,0.0
1734583830.606402,-81.0546875,-231.4453125,-219.23828125,0.0,0.0
1734583830.6103082,-70.3125,-196.2890625,-122.0703125,0.0,0.0
1734583830.6142144,-44.921875,-191.89453125,-108.88671875,0.0,0.0
1734583830.6181207,-23.92578125,-229.4921875,-219.7265625,0.0,0.0
1734583830.6220267,-41.015625,-272.94921875,-345.703125,0.0,0.0
1734583830.625933,-62.5,-232.421875,-235.3515625,0.0,0.0
1734583830.6298392,-60.546875,-166.015625,-65.91796875,0.0,0.0
1734583830.6337452,-44.921875,-206.0546875,-181.15234375,0.0,0.0
1734583830.6376514,-36.1328125,-293.9453125,-395.99609375,0.0,0.0
1734583830.6415577,-29.78515625,-232.421875,-229.98046875,0.0,0.0
1734583830.6454637,-43.9453125,-198.73046875,-126.953125,0.0,0.0
1734583830.6657572,-18.5546875,-232.421875,-195.3125,-20.5078125,0.0
1734583830.6696632,-18.5546875,-215.8203125,-183.10546875,-26.3671875,0.0
1734583830.6735694,-43.9453125,-220.21484375,-221.6796875,-47.8515625,0.0
1734583830.6774757,-61.5234375,-239.74609375,-255.37109375,-46.875,0.0
1734583830.681382,-48.828125,-256.34765625,-272.4609375,-31.25,0.0
1734583830.685288,-17.08984375,-246.09375,-243.65234375,-12.6953125,0.0
1734583830.6891942,-20.5078125,-212.40234375,-169.921875,-37.59765625,0.0
1734583830.6931005,-55.17578125,-205.078125,-190.91796875,-56.640625,0.0
1734583830.6970067,-65.91796875,-265.13671875,-309.08203125,-21.484375,0.0
1734583830.700913,-45.41015625,-281.73828125,-293.45703125,-18.06640625,0.0
1734583830.704819,-29.296875,-174.8046875,-71.77734375,-33.203125,0.0
