timestamps,TP9,AF7,AF8,TP10,Right AUX
1734583666.207508,-29.78515625,-36.1328125,-33.203125,-23.4375,0.0
1734583666.2114143,-28.80859375,-45.41015625,-41.015625,-24.4140625,0.0
1734583666.2153203,-46.875,-37.109375,-45.8984375,-48.33984375,0.0
1734583666.2192266,-62.01171875,-31.73828125,-41.9921875,-59.08203125,0.0
1734583666.2231328,-45.8984375,-46.875,-49.31640625,-62.5,0.0
1734583666.2270389,-34.1796875,-30.2734375,-84.47265625,-41.9921875,0.0
1734583666.230945,-33.69140625,-34.1796875,-121.09375,-20.99609375,0.0
1734583666.2348514,-38.0859375,-45.8984375,-74.70703125,-26.3671875,0.0
1734583666.2387574,-32.2265625,-50.78125,-48.828125,-14.6484375,0.0
1734583666.2426636,-5.859375,-48.828125,-65.91796875,0.48828125,0.0
1734583666.2465699,-25.87890625,-43.45703125,-30.76171875,-14.16015625,0.0
1734583666.2473726,-41.50390625,-59.5703125,-0.48828125,-23.92578125,0.0
1734583666.2512789,-35.15625,-50.29296875,0.48828125,-22.94921875,0.0
1734583666.255185,-41.50390625,-34.1796875,-7.32421875,-29.78515625,0.0
1734583666.2590911,-53.22265625,-33.203125,-49.31640625,-60.546875,0.0
1734583666.2629972,-53.22265625,-61.5234375,-60.546875,-58.59375,0.0
1734583666.2669034,-41.9921875,-78.61328125,-49.31640625,-37.109375,0.0
1734583666.2708097,-9.765625,-49.31640625,-57.12890625,-7.32421875,0.0
1734583666.2747157,-5.37109375,-31.73828125,-87.890625,5.859375,0.0
1734583666.278622,-45.41015625,-14.6484375,-107.91015625,-31.25,0.0
1734583666.2825282,-54.19921875,-32.2265625,-82.51953125,-54.6875,0.0
1734583666.2864342,-31.25,-39.55078125,-47.8515625,-46.875,0.0
1734583666.2903404,-55.6640625,-23.92578125,-21.97265625,-45.8984375,0.0
1734583666.2916365,-68.359375,-42.96875,-17.578125,-46.38671875,0.0
1734583666.2955427,-39.0625,-64.94140625,-26.3671875,-29.296875,0.0
1734583666.2994487,-14.6484375,-37.109375,-27.34375,-0.48828125,0.0
1734583666.303355,-34.1796875,-18.5546875,-21.484375,-8.30078125,0.0
1734583666.3072612,-54.6875,-40.52734375,-34.66796875,-39.0625,0.0
1734583666.3111672,-46.875,-62.01171875,-50.78125,-39.0625,0.0
1734583666.3150735,-24.4140625,-62.5,-75.1953125,-13.18359375,0.0
1734583666.3189797,-36.1328125,-66.40625,-46.875,-25.390625,0.0
1734583666.3228858,-42.48046875,-65.91796875,-33.203125,-33.69140625,0.0
1734583666.326792,-22.94921875,-40.0390625,-46.38671875,-12.20703125,0.0
1734583666.330698,-20.99609375,-51.26953125,-37.59765625,-15.625,0.0
1734583666.3346043,-28.80859375,-60.546875,-29.296875,-28.3203125,0.0
1734583666.336256,-42.96875,-45.8984375,-16.11328125,-26.3671875,0.0
1734583666.3401623,-26.85546875,-36.62109375,-9.27734375,-3.90625,0.0
1734583666.3440683,-23.92578125,-48.33984375,-27.83203125,-7.32421875,0.0
1734583666.3479745,-19.53125,-33.69140625,-39.0625,-10.25390625,0.0
1734583666.3518806,-28.3203125,-32.2265625,-54.6875,-22.94921875,0.0
1734583666.3557868,-54.19921875,-79.58984375,-78.61328125,-42.96875,0.0
1734583666.359693,-58.59375,-80.078125,-54.19921875,-51.26953125,0.0
1734583666.363599,-59.08203125,-44.921875,7.32421875,-65.91796875,0.0
1734583666.3675053,-41.50390625,-26.85546875,33.69140625,-58.10546875,0.0
1734583666.3714113,-32.2265625,-34.66796875,17.578125,-14.6484375,0.0
1734583666.3753176,-51.26953125,-42.48046875,-3.41796875,-31.73828125,0.0
1734583666.3792238,-53.7109375,-43.45703125,-34.1796875,-62.98828125,0.0
1734583666.388608,0.0,-50.78125,-71.2890625,-46.38671875,0.0
1734583666.392514,0.0,-59.5703125,-80.56640625,-43.9453125,0.0
1734583666.3964202,0.0,-58.10546875,-60.05859375,-61.03515625,0.0
1734583666.4003265,0.0,-58.10546875,-31.25,-53.22265625,0.0
1734583666.4042325,0.0,-57.12890625,-30.76171875,-44.43359375,0.0
1734583666.4081388,0.0,-60.05859375,-64.94140625,-49.31640625,0.0
1734583666.412045,0.0,-54.6875,-27.34375,-39.0625,0.0
1734583666.415951,0.0,-56.640625,11.71875,-26.3671875,0.0
1734583666.4198573,0.0,-65.4296875,-27.34375,-14.6484375,0.0
1734583666.4237633,0.0,-33.69140625,-49.8046875,3.90625,0.0
1734583666.4276695,0.0,-14.6484375,-37.109375,-10.25390625,0.0
1734583666.4315758,0.0,-24.90234375,-52.734375,-14.16015625,0.0
1734583666.4373171,-25.390625,-33.203125,-65.91796875,0.9765625,0.0
1734583666.4412231,-19.53125,-44.43359375,-30.2734375,-4.39453125,0.0
1734583666.4451294,-26.3671875,-47.36328125,-13.18359375,-16.11328125,0.0
1734583666.4490356,-31.73828125,-39.55078125,-3.41796875,-16.6015625,0.0
1734583666.4529417,-36.62109375,-33.203125,-5.37109375,-38.57421875,0.0
1734583666.456848,-41.015625,-39.55078125,-30.2734375,-51.7578125,0.0
1734583666.4607542,-52.24609375,-65.4296875,-49.31640625,-58.10546875,0.0
1734583666.4646602,-44.921875,-69.82421875,-55.6640625,-65.91796875,0.0
1734583666.4685664,-24.4140625,-43.45703125,-52.24609375,-51.26953125,0.0
1734583666.4724727,-25.87890625,-20.01953125,-39.55078125,-38.57421875,0.0
1734583666.4763787,-20.01953125,-7.8125,-34.66796875,-46.38671875,0.0
1734583666.480285,-28.80859375,-35.64453125,-54.19921875,-53.22265625,0.0
1734583666.484454,-32.71484375,-34.1796875,-19.04296875,-46.875,0.0
1734583666.48836,-38.0859375,-6.34765625,13.671875,-41.9921875,0.0
1734583666.4922662,-66.89453125,-30.76171875,-16.6015625,-64.94140625,0.0
1734583666.4961724,-60.546875,-53.22265625,-64.94140625,-81.0546875,0.0
1734583666.5000784,-43.9453125,-34.1796875,-69.82421875,-77.63671875,0.0
1734583666.5039847,-28.3203125,-34.1796875,-45.8984375,-53.22265625,0.0
1734583666.5078907,-5.37109375,-62.01171875,-44.43359375,-20.01953125,0.0
1734583666.511797,30.2734375,-61.03515625,-32.71484375,0.9765625,0.0
1734583666.5157032,15.625,-38.0859375,-46.875,-8.30078125,0.0
1734583666.5196092,-19.53125,-5.859375,-15.13671875,-29.78515625,0.0
1734583666.5235155,-44.921875,-12.20703125,2.44140625,-49.31640625,0.0
1734583666.5274217,-69.82421875,-59.5703125,-55.17578125,-74.70703125,0.0
1734583666.5304673,-77.63671875,-61.5234375,-84.9609375,-89.35546875,0.0
1734583666.5343735,-70.3125,-29.296875,-60.546875,-58.59375,0.0
1734583666.5382795,-65.4296875,-23.4375,-31.73828125,-29.78515625,0.0
1734583666.5421858,-60.546875,-41.9921875,-63.4765625,-43.45703125,0.0
1734583666.546092,-60.546875,-64.453125,-72.75390625,-47.36328125,0.0
1734583666.549998,-53.7109375,-83.984375,-41.015625,-19.53125,0.0
1734583666.5539043,-31.25,-73.73046875,-52.734375,-9.27734375,0.0
1734583666.5578105,-31.73828125,-41.50390625,-62.01171875,-8.7890625,0.0
1734583666.5617166,-25.390625,8.30078125,-27.34375,4.8828125,0.0
1734583666.5656228,-21.97265625,17.08984375,-5.37109375,-20.99609375,0.0
1734583666.5695288,-50.29296875,-27.83203125,-35.64453125,-48.828125,0.0
1734583666.573435,-72.265625,-75.68359375,-70.3125,-57.12890625,0.0
1734583666.583401,-72.75390625,-65.4296875,-76.171875,-83.49609375,0.0
1734583666.5873072,-55.17578125,-62.98828125,-80.078125,-69.82421875,0.0
1734583666.5912135,-28.80859375,-84.47265625,-112.79296875,-42.48046875,0.0
1734583666.5951195,-35.15625,-65.91796875,-100.5859375,-55.6640625,0.0
1734583666.5990257,-9.27734375,-0.48828125,-26.85546875,-32.2265625,0.0
1734583666.602932,13.18359375,-4.39453125,-6.34765625,-13.671875,0.0
1734583666.606838,-31.73828125,-43.45703125,-57.6171875,-39.0625,0.0
1734583666.6107442,-48.828125,-39.55078125,-91.796875,-36.62109375,0.0
1734583666.6146505,-59.5703125,-42.96875,-71.77734375,-54.6875,0.0
1734583666.6185565,-55.17578125,-83.49609375,-68.359375,-67.87109375,0.0
1734583666.6224627,-29.296875,-83.984375,-75.68359375,-30.2734375,0.0
1734583666.626369,-54.19921875,-72.75390625,-78.125,-39.0625,0.0
1734583666.6249,-46.875,-50.29296875,-68.84765625,-44.43359375,0.0
1734583666.6288064,-44.43359375,-6.8359375,-38.0859375,-32.2265625,0.0
1734583666.6327124,-82.51953125,-18.5546875,-53.7109375,-70.3125,0.0
1734583666.6366186,-82.03125,-33.69140625,-64.94140625,-67.3828125,0.0
1734583666.6405249,-62.98828125,-54.19921875,-38.0859375,-43.9453125,0.0
1734583666.6444309,-36.1328125,-71.77734375,-41.015625,-31.25,0.0
1734583666.6483371,-48.828125,-80.078125,-67.3828125,-32.2265625,0.0
1734583666.6522434,-61.03515625,-91.30859375,-82.03125,-36.62109375,0.0
1734583666.6561494,-43.9453125,-82.51953125,-63.4765625,-30.76171875,0.0
1734583666.6600556,-54.19921875,-37.59765625,-54.19921875,-48.33984375,0.0
1734583666.663962,-51.7578125,-9.27734375,-84.9609375,-53.7109375,0.0
1734583666.667868,-0.48828125,-17.08984375,-39.55078125,1.46484375,0.0
1734583666.6685135,3.41796875,-35.64453125,-12.20703125,9.27734375,0.0
1734583666.6724198,-11.71875,-36.62109375,-62.01171875,-37.109375,0.0
1734583666.6763258,-1.953125,-53.7109375,-63.4765625,-40.0390625,0.0
1734583666.680232,6.8359375,-68.84765625,-46.38671875,-4.8828125,0.0
1734583666.684138,-10.7421875,-46.38671875,-53.7109375,-17.08984375,0.0
1734583666.6880443,-27.83203125,-13.18359375,-77.1484375,-43.45703125,0.0
1734583666.6919506,-23.4375,-6.8359375,-68.84765625,-39.55078125,0.0
1734583666.6958566,-16.6015625,-29.296875,-12.6953125,-37.59765625,0.0
1734583666.6997628,-22.4609375,-51.26953125,-2.44140625,-42.48046875,0.0
1734583666.703669,-35.64453125,-66.89453125,-13.671875,-39.0625,0.0
1734583666.707575,-31.73828125,-92.7734375,-46.38671875,-31.25,0.0
1734583666.7114813,-54.6875,-62.98828125,-61.03515625,-56.640625,0.0
1734583666.7124112,-52.24609375,-13.18359375,-37.109375,-51.7578125,0.0
1734583666.7163172,-48.828125,-14.6484375,-41.50390625,-43.45703125,0.0
1734583666.7202234,-80.56640625,-29.78515625,-53.22265625,-54.6875,0.0
1734583666.7241297,-67.3828125,-44.43359375,-57.6171875,-46.875,0.0
1734583666.7280357,-57.12890625,-46.875,-50.78125,-42.48046875,0.0
1734583666.731942,-75.1953125,-58.59375,-35.64453125,-45.8984375,0.0
1734583666.735848,-93.75,-65.91796875,-27.34375,-75.68359375,0.0
1734583666.7397542,-85.44921875,-55.17578125,-13.671875,-73.2421875,0.0
1734583666.7436604,-67.87109375,-58.10546875,-15.625,-43.9453125,0.0
1734583666.7475665,-36.62109375,-49.31640625,-26.85546875,-22.4609375,0.0
1734583666.7514727,-24.90234375,-38.57421875,-12.20703125,-21.97265625,0.0
1734583666.755379,-29.296875,-11.23046875,-25.390625,-34.1796875,0.0
1734583666.7646463,-19.04296875,9.765625,-34.1796875,-29.296875,0.0
1734583666.7685525,-20.01953125,-23.4375,-43.9453125,-40.0390625,0.0
1734583666.7724588,-38.57421875,-38.57421875,-39.0625,-50.29296875,0.0
1734583666.7763648,-40.52734375,-41.9921875,-17.08984375,-40.52734375,0.0
1734583666.780271,-42.48046875,-45.41015625,-40.52734375,-37.109375,0.0
1734583666.7841773,-29.78515625,-62.01171875,-98.14453125,-25.87890625,0.0
1734583666.7880833,-24.4140625,-51.26953125,-89.84375,-33.203125,0.0
1734583666.7919896,-27.83203125,-57.6171875,-34.66796875,-40.52734375,0.0
1734583666.7958958,-9.27734375,-68.84765625,-28.80859375,-23.4375,0.0
1734583666.7998018,1.46484375,-50.29296875,-41.015625,-23.4375,0.0
1734583666.803708,-14.16015625,-28.80859375,-29.78515625,-48.33984375,0.0
1734583666.807614,-49.31640625,-28.3203125,-43.45703125,-75.1953125,0.0
1734583666.8130987,-79.1015625,-37.109375,-71.2890625,-105.95703125,0.0
1734583666.817005,-89.35546875,-49.31640625,-75.68359375,-120.60546875,0.0
1734583666.8209112,-100.09765625,-55.17578125,-66.89453125,-101.5625,0.0
1734583666.8248172,-106.93359375,-50.29296875,-72.265625,-99.12109375,0.0
1734583666.8287234,-110.3515625,-39.55078125,-84.9609375,-96.6796875,0.0
1734583666.8326297,-96.19140625,-61.03515625,-81.0546875,-80.078125,0.0
1734583666.8365357,-76.66015625,-62.01171875,-51.26953125,-64.94140625,0.0
1734583666.840442,-74.21875,-47.36328125,-49.8046875,-62.5,0.0
1734583666.8443482,-67.87109375,-47.8515625,-62.98828125,-61.03515625,0.0
1734583666.8482542,-64.453125,-24.4140625,-73.73046875,-62.01171875,0.0
1734583666.8521605,-80.56640625,-24.4140625,-61.5234375,-77.1484375,0.0
1734583666.8560665,-91.30859375,-39.0625,-46.38671875,-92.28515625,0.0
1734583666.8598206,-87.40234375,-54.6875,-59.5703125,-89.84375,0.0
1734583666.8637269,-62.01171875,-66.89453125,-72.75390625,-59.5703125,0.0
1734583666.867633,-56.640625,-35.15625,-67.3828125,-57.6171875,0.0
1734583666.871539,-59.08203125,-12.6953125,-82.51953125,-60.05859375,0.0
1734583666.8754454,-53.22265625,-20.5078125,-91.796875,-53.7109375,0.0
1734583666.8793516,-56.15234375,-22.94921875,-41.50390625,-53.7109375,0.0
1734583666.8832576,-38.0859375,6.8359375,4.39453125,-31.25,0.0
1734583666.8871639,-23.4375,-11.23046875,-22.94921875,-16.6015625,0.0
1734583666.89107,-52.24609375,-38.57421875,-81.0546875,-29.78515625,0.0
1734583666.8949761,-46.38671875,2.9296875,-43.9453125,-41.50390625,0.0
1734583666.8988824,-13.671875,-16.11328125,-1.953125,-17.578125,0.0
1734583666.9027884,-60.546875,-47.8515625,-48.33984375,-32.2265625,0.0
1734583666.9058974,-99.609375,-14.16015625,-72.75390625,0.0,0.0
1734583666.9098036,-89.84375,5.859375,-42.96875,0.0,0.0
1734583666.9137099,-80.56640625,-3.90625,-33.69140625,0.0,0.0
1734583666.917616,-57.6171875,-20.5078125,-45.41015625,0.0,0.0
1734583666.9215221,-31.73828125,-19.53125,-41.50390625,0.0,0.0
1734583666.9254284,-41.50390625,-21.484375,-20.99609375,0.0,0.0
1734583666.9293344,-61.5234375,-51.26953125,0.0,0.0,0.0
1734583666.9332407,-41.50390625,-53.7109375,-18.5546875,0.0,0.0
1734583666.9371467,-26.3671875,-43.45703125,-59.08203125,0.0,0.0
1734583666.941053,-46.875,-55.6640625,-75.68359375,0.0,0.0
1734583666.9449592,-86.9140625,-59.5703125,-54.6875,0.0,0.0
1734583666.9488652,-90.33203125,-28.80859375,-48.828125,0.0,0.0
1734583666.9513001,-48.828125,-1.953125,-61.5234375,-67.3828125,0.0
1734583666.9552064,-31.25,5.37109375,-32.71484375,-51.26953125,0.0
1734583666.9591124,-59.5703125,-24.4140625,-30.76171875,-64.453125,0.0
1734583666.9630187,-63.4765625,-53.22265625,-86.9140625,-83.0078125,0.0
1734583666.966925,-40.52734375,-16.6015625,-68.359375,-66.89453125,0.0
1734583666.970831,-59.5703125,-17.08984375,-37.59765625,-64.94140625,0.0
1734583666.9747372,-72.75390625,-27.83203125,-77.63671875,-64.453125,0.0
1734583666.9786434,-55.17578125,0.0,-110.83984375,-72.265625,0.0
1734583666.9825494,-64.94140625,11.23046875,-47.8515625,-91.30859375,0.0
1734583666.9864557,-56.15234375,-6.34765625,-17.578125,-67.3828125,0.0
1734583666.990362,-22.94921875,-41.50390625,-61.03515625,-34.66796875,0.0
1734583666.994268,-34.1796875,-26.3671875,-87.40234375,-48.33984375,0.0
1734583666.9962742,-58.59375,2.9296875,-34.1796875,-73.73046875,0.0
1734583667.0001805,-81.54296875,-48.828125,-26.3671875,-85.9375,0.0
1734583667.0040867,-106.93359375,-53.7109375,-67.3828125,-98.14453125,0.0
1734583667.0079927,-109.86328125,0.48828125,-29.296875,-95.703125,0.0
1734583667.011899,-94.23828125,4.39453125,-11.71875,-78.61328125,0.0
1734583667.015805,-83.49609375,-5.859375,-41.9921875,-68.84765625,0.0
1734583667.0197113,-94.23828125,-6.34765625,-78.61328125,-77.1484375,0.0
1734583667.0236175,-67.87109375,-4.39453125,-59.08203125,-66.89453125,0.0
1734583667.0275235,-101.07421875,-18.06640625,-69.3359375,-98.6328125,0.0
1734583667.0314298,-145.99609375,-47.8515625,-86.42578125,-131.8359375,0.0
1734583667.035336,-121.09375,-44.43359375,-62.5,-104.98046875,0.0
1734583667.039242,-122.55859375,-41.9921875,-52.734375,-121.58203125,0.0
1734583667.048818,-151.85546875,-26.3671875,-10.25390625,-145.99609375,0.0
1734583667.0527244,-150.87890625,-28.3203125,16.11328125,-132.8125,0.0
1734583667.0566304,-125.48828125,-27.34375,-9.765625,-108.3984375,0.0
1734583667.0605366,-106.4453125,0.48828125,-9.27734375,-94.23828125,0.0
1734583667.0644429,-81.54296875,9.27734375,-20.5078125,-86.42578125,0.0
1734583667.068349,-73.2421875,19.04296875,-94.23828125,-63.4765625,0.0
1734583667.0722551,-69.3359375,-2.44140625,-100.09765625,-49.8046875,0.0
1734583667.0761611,-77.1484375,3.41796875,-19.04296875,-78.125,0.0
1734583667.0800674,-91.796875,50.78125,-7.8125,-99.12109375,0.0
1734583667.0839736,-85.44921875,30.2734375,-42.48046875,-103.515625,0.0
1734583667.0878797,-79.58984375,-2.9296875,-44.921875,-88.8671875,0.0
1734583667.091786,-53.7109375,32.71484375,-15.625,-60.546875,0.0
1734583667.0982256,-49.31640625,34.1796875,-40.0390625,-57.12890625,0.0
1734583667.1021318,-59.5703125,9.27734375,-62.5,-62.98828125,0.0
1734583667.106038,-55.6640625,0.48828125,-36.62109375,-63.4765625,0.0
1734583667.109944,-46.875,10.25390625,-6.34765625,-49.31640625,0.0
1734583667.1138504,-48.33984375,25.390625,-3.41796875,-43.45703125,0.0
1734583667.1177566,-63.4765625,2.44140625,-42.48046875,-55.17578125,0.0
1734583667.1216626,-70.80078125,-19.53125,-63.4765625,-62.98828125,0.0
1734583667.1255689,-74.70703125,8.30078125,-70.3125,-88.8671875,0.0
1734583667.129475,-82.51953125,25.87890625,-60.05859375,-97.16796875,0.0
1734583667.1333811,-72.75390625,-5.37109375,-51.7578125,-63.96484375,0.0
1734583667.1372874,-64.453125,-30.2734375,-65.4296875,-69.3359375,0.0
1734583667.1411936,-47.36328125,-19.04296875,-56.640625,-69.3359375,0.0
1734583667.1447508,-25.390625,-14.16015625,-33.69140625,-52.24609375,0.0
1734583667.148657,-36.62109375,6.34765625,-43.45703125,-63.4765625,0.0
1734583667.1525633,-33.69140625,29.78515625,-51.26953125,-53.7109375,0.0
1734583667.1564693,-23.92578125,37.109375,-36.1328125,-52.24609375,0.0
1734583667.1603756,-4.8828125,14.16015625,-53.7109375,-36.62109375,0.0
1734583667.1642818,-15.625,-18.5546875,-92.7734375,-29.296875,0.0
1734583667.1681879,-28.80859375,-14.6484375,-97.16796875,-20.01953125,0.0
1734583667.172094,-17.578125,-16.11328125,-88.8671875,-23.92578125,0.0
1734583667.1760004,-10.25390625,-36.1328125,-75.68359375,-20.01953125,0.0
1734583667.1799064,-14.6484375,-39.55078125,-83.0078125,-19.53125,0.0
1734583667.1838126,-11.23046875,-12.20703125,-78.61328125,-16.11328125,0.0
1734583667.1877189,-8.30078125,-25.87890625,-70.80078125,-19.53125,0.0
1734583667.1907005,-10.25390625,-32.2265625,-78.125,-27.34375,0.0
1734583667.1946068,4.8828125,-17.08984375,-87.40234375,-10.7421875,0.0
1734583667.1985128,10.25390625,-16.6015625,-74.21875,-8.30078125,0.0
1734583667.202419,-10.7421875,-36.62109375,-51.7578125,-12.6953125,0.0
1734583667.2063253,-12.20703125,-40.52734375,-57.12890625,-8.30078125,0.0
1734583667.2102313,-22.94921875,-33.203125,-92.28515625,-10.25390625,0.0
1734583667.2141376,-40.52734375,-19.53125,-74.70703125,-37.59765625,0.0
1734583667.2180438,-41.50390625,-15.13671875,-46.38671875,-51.7578125,0.0
1734583667.2219498,-27.34375,-16.11328125,-87.890625,-36.1328125,0.0
1734583667.225856,-45.8984375,-25.390625,-85.44921875,-57.12890625,0.0
1734583667.2297623,-72.75390625,-60.546875,-68.84765625,-78.61328125,0.0
1734583667.2336683,-57.12890625,-49.8046875,-89.35546875,-53.7109375,0.0
1734583667.2360272,-30.76171875,-34.1796875,-117.67578125,0.0,0.0
1734583667.2399335,-33.69140625,-17.578125,-96.6796875,0.0,0.0
1734583667.2438395,-10.25390625,-2.9296875,-36.1328125,0.0,0.0
1734583667.2477458,-1.46484375,-2.44140625,-61.5234375,0.0,0.0
1734583667.251652,-17.08984375,-32.2265625,-131.34765625,0.0,0.0
1734583667.255558,-20.99609375,-34.66796875,-127.9296875,0.0,0.0
1734583667.2594643,-35.15625,-11.23046875,-118.65234375,0.0,0.0
1734583667.2633705,-29.296875,-9.27734375,-126.46484375,0.0,0.0
1734583667.2672765,8.30078125,-16.11328125,-112.79296875,0.0,0.0
1734583667.2711828,-2.44140625,-30.2734375,-51.7578125,0.0,0.0
1734583667.275089,-40.52734375,-55.6640625,-56.640625,0.0,0.0
1734583667.278995,-25.87890625,-62.5,-88.37890625,0.0,0.0
1734583667.2809618,-7.8125,-40.52734375,-68.359375,-18.06640625,0.0
1734583667.2848678,12.20703125,0.9765625,-64.94140625,-15.13671875,0.0
1734583667.288774,1.953125,-6.34765625,-80.078125,-22.4609375,0.0
1734583667.2926803,-17.08984375,-26.3671875,-79.1015625,-31.25,0.0
1734583667.2965863,-5.859375,-20.99609375,-68.359375,-26.85546875,0.0
1734583667.3004925,-32.2265625,-41.9921875,-69.82421875,-36.1328125,0.0
1734583667.3043988,-34.66796875,-44.921875,-59.08203125,-35.64453125,0.0
1734583667.3083048,-14.16015625,-51.7578125,-96.6796875,-18.5546875,0.0
1734583667.312211,-10.7421875,-47.8515625,-84.47265625,-4.8828125,0.0
1734583667.3161173,-15.13671875,-8.30078125,-37.109375,-24.4140625,0.0
1734583667.3200233,-14.16015625,-27.83203125,-49.31640625,-41.50390625,0.0
1734583667.3239295,-6.34765625,-62.01171875,-55.17578125,-17.578125,0.0
1734583667.32598,1.46484375,-54.19921875,-65.4296875,-7.8125,0.0
1734583667.3298862,0.0,-50.78125,-77.63671875,-31.73828125,0.0
1734583667.3337922,-8.30078125,-44.921875,-92.28515625,-33.69140625,0.0
1734583667.3376985,-1.46484375,-34.1796875,-95.21484375,-20.99609375,0.0
1734583667.3416047,8.7890625,-47.36328125,-90.33203125,-11.23046875,0.0
1734583667.3455107,2.44140625,-33.203125,-74.70703125,14.16015625,0.0
1734583667.349417,-0.48828125,-33.203125,-23.92578125,25.390625,0.0
1734583667.353323,1.953125,-67.3828125,-57.12890625,17.578125,0.0
1734583667.3572292,1.953125,-57.12890625,-75.1953125,14.6484375,0.0
1734583667.3611355,-7.32421875,-54.19921875,-72.265625,15.625,0.0
1734583667.3650415,-5.859375,-73.73046875,-56.15234375,28.3203125,0.0
1734583667.3689477,6.8359375,-70.3125,-20.5078125,12.6953125,0.0
1734583667.371039,0.0,-33.203125,-50.78125,-26.85546875,0.0
1734583667.374945,-24.90234375,-9.765625,-67.87109375,-35.64453125,0.0
1734583667.3788512,-36.62109375,-22.94921875,-71.77734375,-39.0625,0.0
1734583667.3827574,-25.390625,-41.9921875,-74.21875,-31.25,0.0
1734583667.3866634,-21.97265625,-46.38671875,-57.6171875,-23.4375,0.0
1734583667.3905697,-24.4140625,-38.0859375,-53.7109375,-30.76171875,0.0
1734583667.394476,-24.4140625,-53.22265625,-89.35546875,-29.296875,0.0
1734583667.398382,-19.53125,-65.4296875,-83.0078125,-18.5546875,0.0
1734583667.4022882,1.46484375,-35.15625,-44.921875,0.0,0.0
1734583667.4061942,-5.859375,-38.57421875,-70.3125,-6.8359375,0.0
1734583667.4101005,-28.3203125,-55.6640625,-60.546875,-26.3671875,0.0
1734583667.4140067,-23.4375,-49.31640625,-16.6015625,-26.3671875,0.0
1734583667.4161305,-18.06640625,-43.9453125,-10.25390625,-20.01953125,0.0
1734583667.4200368,-41.9921875,-59.5703125,-46.875,-37.109375,0.0
1734583667.4239428,-48.828125,-61.5234375,-63.96484375,-49.31640625,0.0
1734583667.427849,-37.59765625,-55.17578125,-56.15234375,-32.71484375,0.0
1734583667.431755,-23.4375,-70.80078125,-32.71484375,-25.390625,0.0
1734583667.4356613,-29.296875,-87.40234375,-49.8046875,-27.34375,0.0
1734583667.4395676,-13.18359375,-67.87109375,-81.0546875,-3.90625,0.0
1734583667.4434736,-10.25390625,-42.48046875,-34.66796875,-4.8828125,0.0
1734583667.4473798,-26.3671875,-53.22265625,-27.34375,-17.578125,0.0
1734583667.451286,-28.3203125,-72.75390625,-52.24609375,-29.296875,0.0
1734583667.455192,-54.19921875,-85.9375,-51.7578125,-40.52734375,0.0
1734583667.4590983,-48.33984375,-74.70703125,-41.9921875,-29.296875,0.0
1734583667.461435,-20.99609375,-38.57421875,-38.0859375,-16.11328125,0.0
1734583667.4653413,-6.34765625,-12.6953125,-43.45703125,-8.7890625,0.0
1734583667.4692473,-9.27734375,-20.99609375,-44.43359375,-11.23046875,0.0
1734583667.4731536,-20.99609375,-46.875,-77.63671875,-26.85546875,0.0
1734583667.4770598,-19.53125,-67.87109375,-77.1484375,-32.2265625,0.0
1734583667.4809659,-14.6484375,-68.359375,-59.5703125,-17.578125,0.0
1734583667.484872,-6.8359375,-49.31640625,-57.6171875,-6.34765625,0.0
1734583667.488778,7.8125,-11.71875,-19.53125,0.9765625,0.0
1734583667.4926844,16.11328125,-17.578125,-10.7421875,13.18359375,0.0
1734583667.4965906,16.11328125,-52.734375,-45.41015625,13.18359375,0.0
1734583667.5004966,18.5546875,-50.78125,-41.015625,18.06640625,0.0
1734583667.5044029,14.6484375,-53.7109375,-40.0390625,15.625,0.0
1734583667.5210872,19.04296875,-40.52734375,-56.640625,18.5546875,0.0
1734583667.5249934,-8.7890625,-47.36328125,-59.5703125,6.8359375,0.0
1734583667.5288997,-18.5546875,-39.0625,-36.1328125,4.39453125,0.0
1734583667.5328057,4.8828125,-11.71875,-19.04296875,29.78515625,0.0
1734583667.536712,-9.27734375,-43.9453125,-41.9921875,14.6484375,0.0
1734583667.5406182,-21.484375,-83.0078125,-48.33984375,0.9765625,0.0
1734583667.5445244,-15.13671875,-67.3828125,-47.8515625,-0.9765625,0.0
1734583667.5484304,-7.8125,-11.23046875,-28.80859375,-9.765625,0.0
1734583667.5523367,-27.83203125,-11.23046875,-43.9453125,-18.06640625,0.0
1734583667.556243,-41.9921875,-39.55078125,-87.40234375,-9.765625,0.0
1734583667.560149,-33.69140625,-24.4140625,-54.19921875,-22.4609375,0.0
1734583667.5640552,-37.59765625,-20.5078125,-10.7421875,-25.390625,0.0
1734583667.5670264,0.0,-25.390625,0.0,0.0,0.0
1734583667.5709326,0.0,-25.87890625,0.0,0.0,0.0
1734583667.5748386,0.0,-27.83203125,0.0,0.0,0.0
1734583667.578745,0.0,-24.90234375,0.0,0.0,0.0
1734583667.5826511,0.0,-16.6015625,0.0,0.0,0.0
1734583667.5865571,0.0,-18.06640625,0.0,0.0,0.0
1734583667.5904634,0.0,-26.85546875,0.0,0.0,0.0
1734583667.5943696,0.0,-15.625,0.0,0.0,0.0
1734583667.5982757,0.0,-41.015625,0.0,0.0,0.0
1734583667.602182,0.0,-65.4296875,0.0,0.0,0.0
1734583667.6060882,0.0,-75.1953125,0.0,0.0,0.0
1734583667.6099942,0.0,-54.6875,0.0,0.0,0.0
1734583667.6117923,-17.578125,-21.97265625,-69.82421875,-19.53125,0.0
1734583667.6156983,-11.71875,-6.34765625,-31.25,-21.97265625,0.0
1734583667.6196046,-18.06640625,-9.27734375,8.7890625,-17.578125,0.0
1734583667.6235108,-12.20703125,-22.94921875,-17.08984375,-17.08984375,0.0
1734583667.6274168,-14.6484375,-38.57421875,-35.15625,-16.11328125,0.0
1734583667.631323,-26.85546875,-55.6640625,-32.71484375,-28.80859375,0.0
1734583667.6352293,-35.15625,-39.0625,-42.48046875,-25.87890625,0.0
1734583667.6391354,-29.296875,-3.90625,-29.296875,-8.7890625,0.0
1734583667.6430416,-4.39453125,-15.13671875,-3.41796875,7.32421875,0.0
1734583667.6469476,-23.4375,-25.390625,-1.46484375,-7.8125,0.0
1734583667.6508539,-62.98828125,-38.0859375,-24.4140625,-36.62109375,0.0
1734583667.6547601,-50.78125,-56.15234375,-18.06640625,-30.76171875,0.0
1734583667.6570864,-14.16015625,-67.3828125,4.8828125,-8.7890625,0.0
1734583667.6609926,-27.34375,-70.3125,-19.53125,-31.73828125,0.0
1734583667.6648986,-39.0625,-33.203125,-28.3203125,-32.71484375,0.0
1734583667.668805,-37.59765625,-15.13671875,-27.34375,-39.0625,0.0
1734583667.6727111,-42.96875,-38.0859375,-35.64453125,-49.8046875,0.0
1734583667.6766171,-31.73828125,-41.50390625,-44.921875,-23.92578125,0.0
1734583667.6805234,-29.296875,-35.64453125,-41.50390625,-23.4375,0.0
1734583667.6844296,-28.80859375,-32.2265625,-26.3671875,-32.2265625,0.0
1734583667.6883357,-21.484375,-23.4375,-21.484375,-12.20703125,0.0
1734583667.692242,-9.765625,-19.53125,0.9765625,-2.44140625,0.0
1734583667.6961482,13.18359375,-23.92578125,42.96875,19.04296875,0.0
1734583667.7000542,8.30078125,-8.30078125,49.8046875,26.85546875,0.0
1734583667.70188,-45.8984375,-38.57421875,14.16015625,-38.0859375,0.0
1734583667.7057862,-57.12890625,-51.7578125,-3.41796875,-64.453125,0.0
1734583667.7096925,-37.59765625,-16.6015625,0.0,-37.109375,0.0
1734583667.7135985,-41.9921875,-36.62109375,1.953125,-35.64453125,0.0
1734583667.7175047,-45.8984375,-84.9609375,-10.25390625,-43.9453125,0.0
1734583667.7214108,-48.33984375,-78.125,-28.80859375,-46.38671875,0.0
1734583667.725317,-46.38671875,-46.875,-30.2734375,-41.9921875,0.0
1734583667.7292233,-46.38671875,-41.9921875,-32.2265625,-45.8984375,0.0
1734583667.7331293,-51.7578125,-32.2265625,-23.92578125,-60.546875,0.0
1734583667.7370355,-41.9921875,-43.45703125,-8.7890625,-45.41015625,0.0
1734583667.7409418,-36.1328125,-57.6171875,-39.55078125,-33.69140625,0.0
1734583667.7448478,-32.71484375,-46.875,-41.9921875,-14.6484375,0.0
1734583667.7465384,-13.18359375,-42.96875,-1.46484375,21.484375,0.0
1734583667.7504444,-23.92578125,-60.546875,25.87890625,-11.23046875,0.0
1734583667.7543507,-35.15625,-68.84765625,18.06640625,-26.85546875,0.0
1734583667.758257,-41.50390625,-58.59375,-18.06640625,-45.41015625,0.0
1734583667.762163,-49.31640625,-60.05859375,-39.55078125,-60.05859375,0.0
1734583667.7660692,-50.78125,-70.3125,-55.6640625,-48.828125,0.0
1734583667.7699754,-34.1796875,-74.70703125,-51.7578125,-34.1796875,0.0
1734583667.7738814,-30.2734375,-63.96484375,-38.57421875,-23.92578125,0.0
1734583667.7777877,-35.64453125,-57.6171875,-27.34375,-24.4140625,0.0
1734583667.7816937,-20.99609375,-72.265625,-38.0859375,-17.578125,0.0
1734583667.7856,-11.71875,-61.03515625,-41.015625,-16.6015625,0.0
1734583667.7895062,-20.5078125,-47.36328125,-39.55078125,-24.90234375,0.0
1734583667.791649,-31.25,-50.29296875,-42.96875,-33.203125,0.0
1734583667.795555,-37.59765625,-43.9453125,-34.1796875,-38.0859375,0.0
1734583667.7994614,-42.96875,-60.05859375,-50.29296875,-36.1328125,0.0
1734583667.8033676,-29.78515625,-69.82421875,-64.453125,-42.96875,0.0
1734583667.8072736,-16.11328125,-49.8046875,-27.34375,-36.62109375,0.0
1734583667.8111799,-18.06640625,-56.15234375,-12.20703125,-28.3203125,0.0
1734583667.8150861,-31.25,-74.21875,-31.25,-28.80859375,0.0
1734583667.8189921,-32.2265625,-41.015625,-17.578125,-23.92578125,0.0
1734583667.8228984,-16.11328125,-19.04296875,-6.8359375,-24.4140625,0.0
1734583667.8268044,-20.99609375,-43.45703125,-21.484375,-14.16015625,0.0
1734583667.8307106,-18.5546875,-56.15234375,-21.97265625,-13.18359375,0.0
1734583667.834617,-11.71875,-70.3125,-4.8828125,-21.97265625,0.0
1734583667.837411,1.46484375,-33.69140625,0.0,-3.41796875,0.0
1734583667.8413172,-17.578125,-12.20703125,0.0,-14.6484375,0.0
1734583667.8452232,-39.55078125,-44.43359375,0.0,-44.921875,0.0
1734583667.8491294,-34.1796875,-47.36328125,0.0,-45.41015625,0.0
1734583667.8530354,-35.64453125,-36.1328125,0.0,-40.0390625,0.0
1734583667.8569417,-26.85546875,-45.8984375,0.0,-25.87890625,0.0
1734583667.860848,-31.25,-71.77734375,0.0,-30.76171875,0.0
1734583667.864754,-30.76171875,-44.43359375,0.0,-46.38671875,0.0
1734583667.8686602,-23.4375,-16.6015625,0.0,-38.0859375,0.0
1734583667.8725665,-21.484375,-30.76171875,0.0,-16.11328125,0.0
1734583667.8764725,-26.85546875,-57.12890625,0.0,-19.53125,0.0
1734583667.8803787,-39.55078125,-78.125,0.0,-45.8984375,0.0
1734583667.8892214,-40.0390625,-63.4765625,-55.6640625,-46.875,0.0
1734583667.8931277,-15.625,-43.9453125,-42.96875,-33.69140625,0.0
1734583667.8970337,-15.13671875,-36.1328125,-31.25,-27.34375,0.0
1734583667.90094,-32.2265625,-43.45703125,-15.625,-23.92578125,0.0
1734583667.9048462,-44.43359375,-49.31640625,-20.01953125,-26.3671875,0.0
1734583667.9087522,-50.29296875,-69.3359375,-60.546875,-40.0390625,0.0
1734583667.9126585,-41.9921875,-78.61328125,-60.546875,-40.52734375,0.0
1734583667.9165647,-51.26953125,-76.66015625,-40.52734375,-53.7109375,0.0
1734583667.9204707,-60.546875,-86.9140625,-52.734375,-61.03515625,0.0
1734583667.924377,-39.55078125,-64.94140625,-67.3828125,-28.3203125,0.0
1734583667.928283,-17.578125,-18.5546875,-7.8125,-28.3203125,0.0
1734583667.9321892,-31.73828125,-20.01953125,3.41796875,-55.17578125,0.0
1734583667.938202,-43.9453125,-40.52734375,-14.6484375,-53.22265625,0.0
1734583667.942108,-29.78515625,-53.7109375,-20.01953125,-56.15234375,0.0
1734583667.9460142,-48.33984375,-42.48046875,-4.39453125,-52.734375,0.0
1734583667.9499204,-54.19921875,-41.50390625,4.39453125,-33.69140625,0.0
1734583667.9538264,-29.78515625,-53.22265625,6.34765625,-35.15625,0.0
1734583667.9577327,-20.01953125,-43.9453125,17.578125,-18.06640625,0.0
1734583667.961639,-14.16015625,-14.16015625,15.13671875,4.39453125,0.0
1734583667.965545,-25.390625,-25.87890625,15.13671875,-22.4609375,0.0
1734583667.9694512,-49.8046875,-64.94140625,-36.62109375,-51.7578125,0.0
1734583667.9733574,-51.7578125,-58.10546875,-54.6875,-45.8984375,0.0
1734583667.9772635,-45.8984375,-21.484375,-23.4375,-56.640625,0.0
1734583667.9811697,-37.109375,-10.7421875,-15.625,-53.22265625,0.0
1734583667.9923096,-23.4375,-18.5546875,-15.13671875,-36.1328125,0.0
1734583667.9962158,-16.6015625,-32.2265625,-27.34375,-32.71484375,0.0
1734583668.0001218,-26.85546875,-40.52734375,-28.3203125,-27.83203125,0.0
1734583668.004028,-30.2734375,-39.0625,-19.04296875,-20.01953125,0.0
1734583668.0079343,-19.04296875,-42.48046875,-1.46484375,-27.83203125,0.0
1734583668.0118403,-22.94921875,-49.31640625,-5.37109375,-32.71484375,0.0
1734583668.0157466,-42.96875,-35.64453125,-35.64453125,-41.9921875,0.0
1734583668.0196528,-52.24609375,-23.4375,-31.25,-66.89453125,0.0
1734583668.0235589,-36.1328125,-28.3203125,-33.69140625,-33.203125,0.0
1734583668.027465,-30.76171875,-12.6953125,-20.5078125,-24.4140625,0.0
1734583668.0313714,-29.296875,-5.859375,4.8828125,-38.57421875,0.0
1734583668.0352776,-20.99609375,-15.13671875,-1.46484375,-28.80859375,0.0
1734583668.034658,0.0,-20.01953125,-15.13671875,-32.2265625,0.0
1734583668.0385642,0.0,-15.13671875,-10.25390625,-28.80859375,0.0
1734583668.0424702,0.0,-15.625,-16.6015625,-22.94921875,0.0
1734583668.0463765,0.0,-30.76171875,-48.828125,-25.390625,0.0
1734583668.0502827,0.0,-43.9453125,-51.26953125,-40.52734375,0.0
1734583668.0541887,0.0,-34.66796875,-44.921875,-44.43359375,0.0
1734583668.058095,0.0,-28.80859375,-38.57421875,-45.8984375,0.0
1734583668.0620012,0.0,-46.875,-18.06640625,-44.43359375,0.0
1734583668.0659072,0.0,-53.7109375,-2.9296875,-42.96875,0.0
1734583668.0698135,0.0,-46.38671875,5.859375,-39.55078125,0.0
1734583668.0737197,0.0,-33.203125,12.20703125,-26.3671875,0.0
1734583668.0776258,0.0,-57.6171875,-0.9765625,-3.41796875,0.0
1734583668.0781202,-13.18359375,-59.08203125,-5.37109375,-14.16015625,0.0
1734583668.0820265,-55.17578125,-31.73828125,5.859375,-41.9921875,0.0
1734583668.0859327,-45.8984375,-22.94921875,1.953125,-41.50390625,0.0
1734583668.0898387,-31.73828125,-25.390625,8.7890625,-29.296875,0.0
1734583668.093745,-31.25,-36.1328125,20.5078125,-38.57421875,0.0
1734583668.0976512,-26.3671875,-68.84765625,-1.953125,-48.828125,0.0
1734583668.1015573,-49.31640625,-77.1484375,-5.859375,-43.9453125,0.0
1734583668.1054635,-43.45703125,-52.24609375,-8.30078125,-28.3203125,0.0
1734583668.1093698,-29.296875,-33.203125,11.23046875,-21.97265625,0.0
1734583668.1132758,-21.484375,-16.6015625,20.99609375,-21.484375,0.0
1734583668.117182,-16.6015625,-7.32421875,-15.13671875,-19.04296875,0.0
1734583668.1210883,-31.25,-14.6484375,-16.11328125,-25.390625,0.0
1734583668.121983,-22.94921875,-22.94921875,28.80859375,-23.92578125,0.0
1734583668.125889,-15.625,-36.1328125,19.53125,-28.3203125,0.0
1734583668.1297953,-30.2734375,-62.98828125,-28.3203125,-37.109375,0.0
1734583668.1337016,-39.0625,-63.96484375,-27.34375,-39.0625,0.0
1734583668.1376076,-32.2265625,-43.9453125,1.46484375,-34.66796875,0.0
1734583668.1415138,-13.18359375,-23.92578125,-24.4140625,-32.2265625,0.0
1734583668.1454198,-17.578125,-31.73828125,-37.59765625,-24.90234375,0.0
1734583668.149326,-17.08984375,-48.828125,-15.13671875,-25.87890625,0.0
1734583668.1532323,-32.2265625,-45.8984375,2.44140625,-37.59765625,0.0
1734583668.1571383,-42.96875,-33.203125,-17.578125,-38.57421875,0.0
1734583668.1610446,-35.64453125,-29.78515625,-30.76171875,-40.0390625,0.0
1734583668.1649508,-40.0390625,-40.0390625,-21.97265625,-41.50390625,0.0
1734583668.174,-34.1796875,-48.828125,-13.671875,-49.31640625,0.0
1734583668.177906,-22.94921875,-49.31640625,-26.85546875,-51.26953125,0.0
1734583668.1818123,-26.3671875,-61.03515625,-47.8515625,-43.45703125,0.0
1734583668.1857183,-16.11328125,-49.31640625,-26.3671875,-33.69140625,0.0
1734583668.1896245,-5.859375,-27.83203125,-18.06640625,-20.5078125,0.0
1734583668.1935308,-24.4140625,-46.38671875,-42.96875,-16.11328125,0.0
1734583668.1974368,-23.92578125,-74.21875,-46.875,-8.7890625,0.0
1734583668.201343,-14.16015625,-70.80078125,-0.48828125,-13.671875,0.0
1734583668.2052493,-27.83203125,-62.5,27.83203125,-17.08984375,0.0
1734583668.2091553,-24.4140625,-51.26953125,15.13671875,-14.16015625,0.0
1734583668.2130616,-14.6484375,-34.66796875,9.27734375,-24.90234375,0.0
1734583668.2169678,-13.671875,-22.94921875,16.6015625,-22.4609375,0.0
1734583668.222656,0.0,-39.0625,23.4375,-20.99609375,0.0
1734583668.2265623,0.0,-66.89453125,11.71875,-50.78125,0.0
1734583668.2304683,0.0,-47.8515625,17.08984375,-36.62109375,0.0
1734583668.2343745,0.0,-26.85546875,32.71484375,-19.53125,0.0
1734583668.2382808,0.0,-34.1796875,20.5078125,-30.76171875,0.0
1734583668.2421868,0.0,-94.23828125,-10.25390625,-48.33984375,0.0
1734583668.246093,0.0,-105.95703125,-23.4375,-51.26953125,0.0
1734583668.2499993,0.0,-54.6875,-7.32421875,-34.1796875,0.0
1734583668.2539053,0.0,-42.96875,-8.7890625,-34.66796875,0.0
1734583668.2578115,0.0,-47.8515625,-37.109375,-23.4375,0.0
1734583668.2617178,0.0,-34.1796875,-25.390625,-19.53125,0.0
1734583668.2656238,0.0,-34.1796875,7.8125,-31.73828125,0.0
1734583668.248441,-10.25390625,-49.8046875,0.48828125,-33.69140625,0.0
1734583668.252347,-28.3203125,-62.01171875,-23.4375,-39.55078125,0.0
1734583668.2562532,-29.296875,-47.8515625,-10.25390625,-45.8984375,0.0
1734583668.2601593,-9.27734375,-53.7109375,9.27734375,-41.50390625,0.0
1734583668.2640655,-16.6015625,-58.10546875,5.859375,-37.59765625,0.0
1734583668.2679718,-45.8984375,-57.12890625,-0.48828125,-41.50390625,0.0
1734583668.2718778,-43.45703125,-57.12890625,7.8125,-36.62109375,0.0
1734583668.275784,-33.69140625,-49.8046875,18.06640625,-20.01953125,0.0
1734583668.27969,-38.0859375,-62.5,-15.625,-8.30078125,0.0
1734583668.2835963,-20.5078125,-81.0546875,-38.57421875,6.8359375,0.0
1734583668.2875023,-9.27734375,-59.5703125,32.2265625,-10.25390625,0.0
1734583668.2914085,-19.04296875,-38.0859375,42.48046875,-16.6015625,0.0
1734583668.2914643,-22.4609375,-54.6875,-19.04296875,-32.2265625,0.0
1734583668.2953703,-30.2734375,-66.89453125,-30.76171875,-56.640625,0.0
1734583668.2992766,-28.3203125,-73.73046875,7.8125,-48.33984375,0.0
1734583668.3031826,-32.2265625,-64.453125,26.85546875,-46.38671875,0.0
1734583668.3070889,-33.69140625,-48.33984375,0.9765625,-57.12890625,0.0
1734583668.3109949,-26.85546875,-51.26953125,-6.34765625,-62.5,0.0
1734583668.314901,-42.48046875,-71.2890625,18.5546875,-61.03515625,0.0
1734583668.3188074,-39.0625,-78.125,16.11328125,-63.96484375,0.0
1734583668.3227134,-23.92578125,-71.77734375,-1.46484375,-51.7578125,0.0
1734583668.3266196,-21.484375,-68.84765625,6.8359375,-38.0859375,0.0
1734583668.3305256,-17.578125,-33.203125,43.9453125,-29.296875,0.0
1734583668.334432,-2.44140625,-26.3671875,53.22265625,-35.15625,0.0
1734583668.3287632,-30.2734375,-65.91796875,0.0,-49.31640625,0.0
1734583668.3326695,-65.4296875,-72.265625,-9.27734375,-57.6171875,0.0
1734583668.3365755,-37.109375,-58.10546875,17.08984375,-62.98828125,0.0
1734583668.3404818,-30.76171875,-57.6171875,28.3203125,-31.25,0.0
1734583668.3443878,-43.9453125,-81.54296875,12.20703125,-10.25390625,0.0
1734583668.348294,-37.109375,-88.37890625,17.08984375,-7.32421875,0.0
1734583668.3522,-57.12890625,-79.1015625,53.7109375,-13.671875,0.0
1734583668.3561063,-68.359375,-62.01171875,19.53125,-41.9921875,0.0
1734583668.3600123,-54.19921875,-61.5234375,-30.2734375,-44.43359375,0.0
1734583668.3639185,-46.38671875,-58.10546875,55.6640625,-23.4375,0.0
1734583668.3678246,-31.73828125,-46.875,86.9140625,-22.4609375,0.0
1734583668.3717308,-24.90234375,-50.78125,43.9453125,-55.17578125,0.0
1734583668.3686929,-47.8515625,-45.41015625,41.50390625,-75.68359375,0.0
1734583668.372599,-59.08203125,-57.12890625,33.203125,-69.82421875,0.0
1734583668.376505,-52.734375,-68.359375,24.4140625,-63.4765625,0.0
1734583668.3804111,-29.296875,-45.41015625,17.578125,-40.52734375,0.0
1734583668.3843172,-23.4375,-20.99609375,17.08984375,-24.90234375,0.0
1734583668.3882234,-30.76171875,-43.9453125,17.08984375,-42.96875,0.0
1734583668.3921294,-15.625,-68.84765625,20.5078125,-52.734375,0.0
1734583668.3960357,-2.9296875,-60.546875,13.18359375,-33.203125,0.0
1734583668.3999417,-23.92578125,-44.921875,15.625,-44.921875,0.0
1734583668.403848,-29.296875,-62.98828125,30.2734375,-64.453125,0.0
1734583668.407754,-19.53125,-62.01171875,35.15625,-44.43359375,0.0
1734583668.4116602,-37.109375,-43.9453125,7.32421875,-31.73828125,0.0
1734583668.4468606,-50.78125,-29.78515625,-3.90625,-45.8984375,0.0
1734583668.4507666,-52.734375,-25.87890625,22.94921875,-42.48046875,0.0
1734583668.4546728,-34.1796875,-34.1796875,35.15625,-26.3671875,0.0
1734583668.458579,-30.76171875,-28.80859375,23.4375,-32.2265625,0.0
1734583668.462485,-41.9921875,-44.921875,11.71875,-49.31640625,0.0
1734583668.4663913,-38.57421875,-52.24609375,4.8828125,-32.71484375,0.0
1734583668.4702976,-28.3203125,-25.87890625,4.8828125,-24.4140625,0.0
1734583668.4742036,-2.9296875,-20.99609375,11.23046875,-23.4375,0.0
1734583668.4781098,5.859375,-16.11328125,40.52734375,-15.625,0.0
1734583668.4820158,-28.80859375,-12.6953125,32.2265625,-36.1328125,0.0
1734583668.485922,-52.24609375,-16.11328125,3.41796875,-58.10546875,0.0
1734583668.4898283,-32.71484375,-36.1328125,1.953125,-54.19921875,0.0
1734583668.4944692,-29.78515625,-39.55078125,17.08984375,-42.48046875,0.0
1734583668.4983752,-47.8515625,-31.25,38.0859375,-38.57421875,0.0
1734583668.5022814,-42.48046875,-53.7109375,22.94921875,-50.29296875,0.0
1734583668.5061877,-31.73828125,-70.3125,4.39453125,-58.59375,0.0
1734583668.5100937,-43.9453125,-53.7109375,33.203125,-47.8515625,0.0
1734583668.514,-35.15625,-28.3203125,45.8984375,-38.57421875,0.0
1734583668.517906,-26.3671875,-29.78515625,38.57421875,-44.921875,0.0
1734583668.5218122,-39.0625,-41.9921875,49.8046875,-52.24609375,0.0
1734583668.5257185,-51.26953125,-54.6875,30.2734375,-55.17578125,0.0
1734583668.5296245,-48.33984375,-62.5,-2.9296875,-51.26953125,0.0
1734583668.5335307,-30.2734375,-64.453125,2.44140625,-40.0390625,0.0
1734583668.537437,-40.52734375,-61.5234375,44.921875,-38.0859375,0.0
1734583668.5407598,-45.8984375,-51.7578125,67.87109375,-32.71484375,0.0
1734583668.544666,-22.4609375,-54.6875,64.453125,-28.3203125,0.0
1734583668.548572,-20.5078125,-57.12890625,51.26953125,-30.2734375,0.0
1734583668.5524783,-20.99609375,-32.71484375,77.63671875,-26.85546875,0.0
1734583668.5563843,-34.66796875,-34.66796875,107.91015625,-40.0390625,0.0
1734583668.5602906,-56.15234375,-54.6875,86.42578125,-40.0390625,0.0
1734583668.5641968,-64.453125,-43.9453125,63.96484375,-36.1328125,0.0
1734583668.5681028,-64.94140625,-30.2734375,89.84375,-52.734375,0.0
1734583668.572009,-70.3125,-38.57421875,107.91015625,-54.6875,0.0
1734583668.5759153,-73.73046875,-37.59765625,86.42578125,-61.03515625,0.0
1734583668.5798213,-58.59375,-51.7578125,71.2890625,-48.828125,0.0
1734583668.5837276,-61.03515625,-78.61328125,89.84375,-26.85546875,0.0
1734583668.5859776,-60.546875,-68.359375,83.49609375,-16.11328125,0.0
1734583668.5898836,-43.9453125,-47.8515625,63.96484375,-8.30078125,0.0
1734583668.5937898,-27.83203125,-33.69140625,82.51953125,-7.32421875,0.0
1734583668.597696,-40.0390625,-32.2265625,90.33203125,-18.06640625,0.0
1734583668.601602,-48.828125,-33.203125,94.7265625,-20.5078125,0.0
1734583668.6055083,-51.26953125,-43.45703125,83.0078125,-15.13671875,0.0
1734583668.6094143,-52.734375,-52.24609375,75.68359375,-4.8828125,0.0
1734583668.6133206,-40.52734375,-39.55078125,104.4921875,-21.484375,0.0
1734583668.6172268,-46.875,-55.6640625,92.7734375,-28.80859375,0.0
1734583668.6211329,-32.71484375,-65.4296875,60.05859375,17.08984375,0.0
1734583668.625039,-16.11328125,-72.265625,82.51953125,33.203125,0.0
1734583668.628945,-33.69140625,-98.14453125,106.4453125,0.0,0.0
1734583668.6391368,-30.2734375,-57.6171875,108.3984375,-0.9765625,0.0
1734583668.643043,-29.296875,-32.2265625,80.078125,-6.34765625,0.0
1734583668.6469493,-34.66796875,-23.92578125,84.9609375,-18.5546875,0.0
1734583668.6508553,-43.45703125,-18.5546875,99.609375,-22.94921875,0.0
1734583668.6547616,-57.12890625,-41.9921875,73.2421875,-40.52734375,0.0
1734583668.6586678,-64.453125,-52.24609375,57.12890625,-32.71484375,0.0
1734583668.6625738,-67.3828125,-47.8515625,61.03515625,-32.71484375,0.0
1734583668.66648,-67.87109375,-52.734375,60.546875,-34.1796875,0.0
1734583668.6703863,-62.98828125,-48.33984375,52.24609375,-26.3671875,0.0
1734583668.6742923,-51.26953125,-27.34375,52.734375,-22.94921875,0.0
1734583668.6781986,-59.08203125,-14.6484375,73.2421875,-20.5078125,0.0
1734583668.6821048,-53.7109375,-28.80859375,61.5234375,-39.0625,0.0
1734583668.687702,-36.62109375,-41.50390625,63.96484375,-38.0859375,0.0
1734583668.691608,-55.17578125,-62.98828125,77.1484375,-30.76171875,0.0
1734583668.6955142,-55.17578125,-67.87109375,73.73046875,-32.71484375,0.0
1734583668.6994205,-51.7578125,-29.78515625,85.9375,-24.90234375,0.0
1734583668.7033265,-46.875,-32.71484375,83.49609375,-20.5078125,0.0
1734583668.7072327,-41.015625,-53.22265625,65.4296875,-20.99609375,0.0
1734583668.7111387,-33.69140625,-21.97265625,56.15234375,-18.06640625,0.0
1734583668.715045,-53.22265625,-2.9296875,65.4296875,-24.90234375,0.0
1734583668.7189512,-62.98828125,-25.87890625,57.6171875,-29.296875,0.0
1734583668.7228572,-62.5,-25.390625,42.96875,-22.4609375,0.0
1734583668.7267635,-62.5,-3.41796875,65.4296875,-24.4140625,0.0
1734583668.7306697,-59.5703125,-24.4140625,74.70703125,-38.57421875,0.0
1734583668.7344809,-53.7109375,-59.08203125,54.19921875,-42.48046875,0.0
1734583668.738387,-44.43359375,-54.19921875,57.12890625,-34.1796875,0.0
1734583668.7422931,-46.38671875,-46.38671875,75.68359375,-31.73828125,0.0
1734583668.7461994,-50.29296875,-48.828125,85.44921875,-32.2265625,0.0
1734583668.7501056,-54.6875,-43.45703125,62.5,-44.921875,0.0
1734583668.7540116,-51.26953125,-41.9921875,28.3203125,-50.29296875,0.0
1734583668.757918,-47.8515625,-68.359375,39.55078125,-35.64453125,0.0
1734583668.7618241,-58.10546875,-62.5,47.36328125,-31.73828125,0.0
1734583668.7657301,-34.1796875,-39.55078125,26.85546875,-34.66796875,0.0
1734583668.7696364,-33.203125,-35.64453125,58.10546875,-42.48046875,0.0
1734583668.7735426,-58.59375,-35.64453125,77.63671875,-47.36328125,0.0
1734583668.7774487,-39.55078125,-33.203125,56.15234375,-25.390625,0.0
1734583668.7802653,-30.2734375,-17.08984375,37.109375,-34.1796875,0.0
1734583668.7841716,-36.1328125,-2.44140625,46.38671875,-41.015625,0.0
1734583668.7880776,-37.59765625,-16.11328125,64.453125,-30.76171875,0.0
1734583668.7919838,-42.48046875,-47.36328125,66.40625,-35.64453125,0.0
1734583668.79589,-41.50390625,-52.734375,53.7109375,-33.203125,0.0
1734583668.799796,-26.3671875,-40.52734375,62.5,-20.99609375,0.0
1734583668.8037024,-8.30078125,-12.20703125,99.12109375,-7.8125,0.0
1734583668.8076086,-18.06640625,-14.16015625,85.9375,-15.625,0.0
1734583668.8115146,-50.29296875,-51.7578125,59.08203125,-44.921875,0.0
1734583668.8154209,-54.19921875,-71.2890625,57.6171875,-55.17578125,0.0
1734583668.8193269,-49.31640625,-75.1953125,66.40625,-50.78125,0.0
1734583668.8232331,-64.94140625,-58.59375,73.2421875,-53.7109375,0.0
1734583668.8264391,-73.2421875,-59.08203125,68.359375,-69.3359375,0.0
1734583668.8303454,-54.6875,-64.453125,61.5234375,-61.03515625,0.0
1734583668.8342514,-37.109375,-69.3359375,50.78125,-46.38671875,0.0
1734583668.8381577,-46.38671875,-48.33984375,61.5234375,-28.3203125,0.0
1734583668.842064,-61.03515625,-22.4609375,82.51953125,-23.92578125,0.0
1734583668.84597,-73.2421875,-43.45703125,88.8671875,-26.3671875,0.0
1734583668.8498762,-83.49609375,-51.7578125,109.375,-13.671875,0.0
1734583668.8537824,-83.984375,-53.7109375,94.23828125,-19.53125,0.0
1734583668.8576884,-103.02734375,-53.7109375,106.4453125,-55.6640625,0.0
1734583668.8615947,-102.5390625,-43.9453125,163.0859375,-38.57421875,0.0
1734583668.8655007,-79.58984375,-42.48046875,192.3828125,-7.8125,0.0
1734583668.869407,-92.28515625,-55.6640625,175.29296875,-42.48046875,0.0
1734583668.870882,-100.5859375,-52.734375,164.0625,-62.5,0.0
1734583668.8747883,-104.00390625,-58.10546875,155.76171875,-55.6640625,0.0
1734583668.8786943,-94.7265625,-67.3828125,148.92578125,-33.69140625,0.0
1734583668.8826005,-73.2421875,-68.84765625,155.76171875,-10.25390625,0.0
1734583668.8865068,-60.546875,-61.5234375,153.3203125,-17.08984375,0.0
1734583668.8904128,-79.58984375,-19.04296875,145.99609375,-16.6015625,0.0
1734583668.894319,-88.37890625,-21.484375,133.7890625,-14.16015625,0.0
1734583668.898225,-81.54296875,-50.78125,145.99609375,-12.20703125,0.0
1734583668.9021313,-79.58984375,-26.85546875,156.73828125,-32.2265625,0.0
1734583668.9060376,-78.61328125,-25.390625,142.08984375,-32.71484375,0.0
1734583668.9099436,-88.37890625,-28.3203125,143.06640625,-21.97265625,0.0
1734583668.9138498,-97.16796875,-6.34765625,173.33984375,-54.19921875,0.0
1734583668.9159656,-115.234375,-9.27734375,197.75390625,-56.15234375,0.0
1734583668.9198716,-119.62890625,-20.99609375,199.21875,-36.62109375,0.0
1734583668.9237778,-114.2578125,-40.52734375,182.12890625,-27.83203125,0.0
1734583668.927684,-116.2109375,-45.41015625,178.22265625,-27.34375,0.0
1734583668.93159,-107.421875,-28.3203125,185.05859375,-30.76171875,0.0
1734583668.9354963,-105.46875,-31.73828125,174.31640625,-25.390625,0.0
1734583668.9394023,-104.4921875,-46.875,151.85546875,-22.94921875,0.0
1734583668.9433086,-107.421875,-50.29296875,170.41015625,-22.94921875,0.0
1734583668.9472148,-120.1171875,-48.33984375,183.10546875,-42.96875,0.0
1734583668.9511209,-108.3984375,-34.1796875,173.828125,-39.0625,0.0
1734583668.955027,-104.4921875,-31.73828125,187.5,-34.1796875,0.0
1734583668.9589334,-122.0703125,-38.0859375,181.640625,-31.25,0.0
1734583668.9612625,-117.67578125,-39.0625,172.8515625,-12.6953125,0.0
1734583668.9651687,-105.46875,-47.8515625,167.48046875,-31.25,0.0
1734583668.969075,-106.93359375,-56.15234375,171.875,-28.80859375,0.0
1734583668.972981,-108.3984375,-56.640625,185.546875,-31.73828125,0.0
1734583668.9768872,-103.515625,-58.59375,176.26953125,-44.921875,0.0
1734583668.9807932,-106.93359375,-63.96484375,150.390625,-34.1796875,0.0
1734583668.9846995,-121.58203125,-78.125,153.3203125,-34.1796875,0.0
1734583668.9886057,-125.9765625,-62.5,174.8046875,-34.66796875,0.0
1734583668.9925117,-144.53125,-36.1328125,197.75390625,-34.1796875,0.0
1734583668.996418,-143.5546875,-42.96875,211.9140625,-25.390625,0.0
1734583669.0003242,-136.71875,-42.96875,212.890625,-36.62109375,0.0
1734583669.0042303,-139.6484375,-34.1796875,214.84375,-49.31640625,0.0
1734583669.0137875,-132.8125,-49.31640625,209.9609375,-32.2265625,0.0
1734583669.0176935,-109.375,-69.3359375,196.77734375,-20.99609375,0.0
1734583669.0215998,-123.046875,-60.05859375,187.98828125,-53.22265625,0.0
1734583669.025506,-139.16015625,-48.33984375,186.5234375,-49.8046875,0.0
1734583669.029412,-125.9765625,-29.78515625,187.98828125,-30.76171875,0.0
1734583669.0333183,-124.0234375,-41.015625,156.73828125,-27.83203125,0.0
1734583669.0372243,-134.27734375,-80.56640625,130.859375,-28.80859375,0.0
1734583669.0411305,-134.27734375,-68.84765625,151.85546875,-55.6640625,0.0
1734583669.0450368,-132.32421875,-45.8984375,153.80859375,-58.10546875,0.0
1734583669.0489428,-132.8125,-51.7578125,135.25390625,-43.9453125,0.0
1734583669.052849,-119.140625,-46.38671875,166.015625,-37.59765625,0.0
1734583669.0567553,-106.93359375,-63.96484375,169.921875,-37.59765625,0.0
1734583669.0631044,-138.18359375,-65.4296875,143.5546875,-41.015625,0.0
1734583669.0670106,-151.3671875,-17.08984375,149.90234375,-30.2734375,0.0
1734583669.0709167,-143.5546875,-4.39453125,166.9921875,-21.484375,0.0
1734583669.074823,-148.4375,-20.5078125,185.05859375,-28.80859375,0.0
1734583669.0787292,-157.71484375,-29.78515625,197.75390625,-29.78515625,0.0
1734583669.0826352,-167.48046875,-37.109375,189.94140625,-22.4609375,0.0
1734583669.0865414,-163.0859375,-36.62109375,189.453125,-17.08984375,0.0
1734583669.0904477,-140.13671875,-36.1328125,192.87109375,-6.34765625,0.0
1734583669.0943537,-136.23046875,-47.8515625,166.015625,-9.27734375,0.0
1734583669.09826,-144.53125,-55.17578125,155.76171875,-24.90234375,0.0
1734583669.102166,-148.4375,-39.0625,178.22265625,-28.3203125,0.0
1734583669.1060722,-147.94921875,-31.25,184.08203125,-28.80859375,0.0
1734583669.1107984,0.0,-29.296875,176.26953125,0.0,0.0
1734583669.1147046,0.0,-23.4375,178.7109375,0.0,0.0
1734583669.1186109,0.0,-40.52734375,176.7578125,0.0,0.0
1734583669.1225169,0.0,-33.203125,157.71484375,0.0,0.0
1734583669.1264231,0.0,-32.71484375,115.234375,0.0,0.0
1734583669.1303294,0.0,-39.55078125,107.421875,0.0,0.0
1734583669.1342354,0.0,-43.9453125,150.87890625,0.0,0.0
1734583669.1381416,0.0,-63.4765625,168.45703125,0.0,0.0
1734583669.142048,0.0,-64.94140625,130.37109375,0.0,0.0
1734583669.145954,0.0,-21.97265625,133.7890625,0.0,0.0
1734583669.1498601,0.0,-19.04296875,145.5078125,0.0,0.0
1734583669.1537662,0.0,-51.7578125,128.90625,0.0,0.0
1734583669.16372,-142.08984375,-45.41015625,129.8828125,-28.3203125,0.0
1734583669.1676261,-141.11328125,-21.97265625,125.48828125,-31.25,0.0
1734583669.1715324,-140.625,-25.87890625,120.60546875,-30.76171875,0.0
1734583669.1754384,-133.7890625,-36.62109375,117.67578125,-42.96875,0.0
1734583669.1793447,-139.16015625,-34.66796875,106.93359375,-27.83203125,0.0
1734583669.183251,-143.06640625,-37.109375,95.703125,-5.859375,0.0
1734583669.187157,-147.4609375,-41.9921875,100.09765625,-18.06640625,0.0
1734583669.1910632,-148.92578125,-62.01171875,71.2890625,-18.5546875,0.0
1734583669.1949694,-150.390625,-60.546875,74.21875,-25.390625,0.0
1734583669.1988757,-145.01953125,-40.52734375,114.2578125,-53.7109375,0.0
1734583669.2027817,-126.953125,-40.52734375,113.28125,-51.26953125,0.0
1734583669.206688,-143.5546875,-53.7109375,91.796875,-40.0390625,0.0
1734583669.2052755,-154.78515625,-45.8984375,64.94140625,-51.26953125,0.0
1734583669.2091815,-150.390625,-44.921875,65.4296875,-56.640625,0.0
1734583669.2130878,-157.71484375,-54.19921875,72.75390625,-43.45703125,0.0
1734583669.216994,-146.97265625,-45.41015625,71.2890625,-36.62109375,0.0
1734583669.2209,-148.4375,-31.25,92.7734375,-43.9453125,0.0
1734583669.2248063,-154.78515625,-24.4140625,82.03125,-52.24609375,0.0
1734583669.2287123,-149.4140625,-21.484375,74.70703125,-55.6640625,0.0
1734583669.2326186,-129.39453125,-18.5546875,79.1015625,-52.24609375,0.0
1734583669.2365248,-125.48828125,-8.30078125,75.68359375,-45.41015625,0.0
1734583669.2404308,-128.90625,-13.18359375,67.3828125,-42.48046875,0.0
1734583669.244337,-126.46484375,-27.83203125,54.19921875,-55.17578125,0.0
1734583669.2482433,-119.140625,-39.55078125,34.66796875,-40.52734375,0.0
1734583669.24838,-109.375,-35.15625,45.41015625,-29.296875,0.0
1734583669.252286,-112.3046875,-12.6953125,64.94140625,-20.01953125,0.0
1734583669.2561922,-115.234375,-0.48828125,58.59375,-15.625,0.0
1734583669.2600985,-119.140625,-8.7890625,58.10546875,-36.62109375,0.0
1734583669.2640045,-115.234375,-16.6015625,58.59375,-41.9921875,0.0
1734583669.2679107,-115.72265625,-23.4375,64.94140625,-17.08984375,0.0
1734583669.2718167,-107.91015625,-23.4375,64.453125,-12.6953125,0.0
1734583669.275723,-111.81640625,-26.3671875,51.26953125,-41.015625,0.0
1734583669.2796292,-132.32421875,-31.25,67.87109375,-49.8046875,0.0
1734583669.2835352,-125.48828125,-32.2265625,79.58984375,-41.9921875,0.0
1734583669.2874415,-133.30078125,-36.1328125,68.359375,-40.52734375,0.0
1734583669.2913477,-130.859375,-44.921875,72.75390625,-45.41015625,0.0
1734583669.2996025,-115.234375,-62.01171875,74.70703125,-41.9921875,0.0
1734583669.3035088,-106.4453125,-54.19921875,76.66015625,-30.2734375,0.0
1734583669.3074148,-105.46875,-37.59765625,83.984375,-43.9453125,0.0
1734583669.311321,-124.51171875,-39.55078125,96.19140625,-43.9453125,0.0
1734583669.3152273,-125.9765625,-36.1328125,103.515625,-40.0390625,0.0
1734583669.3191333,-104.98046875,-30.2734375,79.58984375,-55.6640625,0.0
1734583669.3230395,-91.30859375,-30.76171875,60.05859375,-37.109375,0.0
1734583669.3269458,-86.42578125,-34.1796875,91.30859375,-28.80859375,0.0
1734583669.3308518,-71.2890625,-41.50390625,116.2109375,-22.94921875,0.0
1734583669.334758,-82.03125,-33.203125,108.3984375,-18.06640625,0.0
1734583669.3386643,-96.6796875,-41.9921875,95.703125,-29.78515625,0.0
1734583669.3425703,-83.49609375,-77.63671875,103.02734375,-35.64453125,0.0
1734583669.3404129,-68.84765625,-68.359375,113.28125,-20.5078125,0.0
1734583669.344319,-81.0546875,-31.73828125,110.83984375,-29.296875,0.0
1734583669.3482254,-88.37890625,-36.1328125,109.86328125,-31.25,0.0
1734583669.3521314,-76.171875,-39.55078125,126.46484375,-14.6484375,0.0
1734583669.3560376,-71.2890625,-32.2265625,116.69921875,-30.76171875,0.0
1734583669.3599439,-93.26171875,-30.76171875,101.07421875,-35.15625,0.0
1734583669.3638499,-102.5390625,-37.109375,111.328125,-32.2265625,0.0
1734583669.3677561,-92.28515625,-45.8984375,122.55859375,-45.41015625,0.0
1734583669.3716624,-110.83984375,-39.55078125,141.11328125,-56.15234375,0.0
1734583669.3755684,-117.1875,-58.10546875,131.8359375,-47.8515625,0.0
1734583669.3794746,-106.93359375,-44.43359375,106.4453125,-32.2265625,0.0
1734583669.3833807,-110.83984375,-18.06640625,136.71875,-55.6640625,0.0
1734583669.4053328,-114.74609375,-33.69140625,172.8515625,-51.7578125,0.0
1734583669.4092388,-107.91015625,-44.921875,161.1328125,-22.4609375,0.0
1734583669.413145,-117.67578125,-35.64453125,141.11328125,-42.48046875,0.0
1734583669.4170513,-121.09375,-32.71484375,131.8359375,-53.7109375,0.0
1734583669.4209576,-118.1640625,-49.8046875,137.6953125,-42.96875,0.0
1734583669.4248636,-107.91015625,-53.7109375,129.8828125,-35.15625,0.0
1734583669.4287698,-88.8671875,-37.59765625,136.71875,-47.8515625,0.0
1734583669.432676,-82.51953125,-41.50390625,147.94921875,-50.29296875,0.0
1734583669.436582,-103.02734375,-59.08203125,133.7890625,-25.87890625,0.0
1734583669.4404883,-107.421875,-58.10546875,116.2109375,-15.13671875,0.0
1734583669.4443946,-98.6328125,-36.1328125,130.37109375,-29.78515625,0.0
1734583669.4483008,-87.890625,-31.73828125,125.0,-41.015625,0.0
1734583669.4453068,-99.12109375,-42.48046875,101.5625,-35.15625,0.0
1734583669.4492128,-122.55859375,-41.9921875,102.05078125,-38.0859375,0.0
1734583669.453119,-121.58203125,-30.76171875,98.14453125,-43.9453125,0.0
1734583669.4570253,-119.62890625,-8.7890625,120.1171875,-31.25,0.0
1734583669.4609313,-132.32421875,-0.48828125,135.25390625,-28.80859375,0.0
1734583669.4648376,-153.80859375,-18.06640625,123.53515625,-60.546875,0.0
1734583669.4687438,-178.22265625,-39.55078125,133.30078125,-84.47265625,0.0
1734583669.47265,-152.34375,-49.8046875,143.5546875,-62.5,0.0
1734583669.476556,-129.8828125,-50.29296875,125.9765625,-60.546875,0.0
1734583669.4804623,-160.15625,-40.52734375,110.3515625,-56.640625,0.0
1734583669.4843686,-187.5,-35.64453125,114.2578125,-54.19921875,0.0
1734583669.4882746,-176.7578125,-46.875,108.3984375,-38.0859375,0.0
1734583669.4879937,-167.96875,-49.8046875,91.796875,-35.15625,0.0
1734583669.4918997,-166.015625,-23.4375,110.83984375,-37.59765625,0.0
1734583669.495806,-160.15625,-4.39453125,105.46875,-30.2734375,0.0
1734583669.4997122,-151.85546875,-9.765625,63.4765625,-50.29296875,0.0
1734583669.5036182,-150.87890625,-12.6953125,31.25,-32.2265625,0.0
1734583669.5075245,-154.296875,-9.27734375,31.73828125,-20.99609375,0.0
1734583669.5114307,-164.55078125,-3.90625,37.109375,-43.45703125,0.0
1734583669.5153368,-171.38671875,-16.6015625,20.5078125,-42.96875,0.0
1734583669.519243,-152.83203125,-50.29296875,8.7890625,-19.04296875,0.0
1734583669.5231493,-164.55078125,-53.7109375,30.76171875,-33.203125,0.0
1734583669.5270553,-166.9921875,-45.8984375,22.4609375,-39.55078125,0.0
1734583669.5309615,-148.4375,-20.5078125,35.64453125,-32.71484375,0.0
1734583669.5318267,-170.8984375,-7.8125,59.5703125,-41.9921875,0.0
1734583669.535733,-184.08203125,-18.5546875,67.87109375,-41.9921875,0.0
1734583669.5396392,-180.6640625,-22.94921875,56.640625,-61.5234375,0.0
1734583669.5435452,-172.36328125,-9.27734375,40.0390625,-64.453125,0.0
1734583669.5474515,-160.15625,-8.30078125,40.52734375,-51.7578125,0.0
1734583669.5513577,-153.3203125,-38.0859375,52.24609375,-43.9453125,0.0
1734583669.5552638,-167.48046875,-38.57421875,66.40625,-38.0859375,0.0
1734583669.55917,-174.31640625,-23.4375,54.19921875,-28.3203125,0.0
1734583669.5630763,-167.96875,-18.5546875,44.921875,-25.87890625,0.0
1734583669.5669823,-173.828125,-13.671875,43.45703125,-40.52734375,0.0
1734583669.5708885,-163.0859375,-11.71875,17.578125,-37.59765625,0.0
1734583669.5747948,-157.2265625,-24.4140625,-3.41796875,-35.15625,0.0
1734583669.5761738,-154.78515625,-41.9921875,-9.765625,-20.01953125,0.0
1734583669.5800798,-146.97265625,-34.66796875,-19.53125,-20.5078125,0.0
1734583669.583986,-143.06640625,-21.484375,-8.30078125,-28.3203125,0.0
1734583669.5878923,-149.90234375,-49.31640625,-10.7421875,-13.18359375,0.0
1734583669.5917983,-150.87890625,-73.2421875,-12.20703125,-5.859375,0.0
1734583669.5957046,-163.0859375,-49.8046875,-52.24609375,-35.64453125,0.0
1734583669.5996108,-185.546875,-31.73828125,-86.9140625,-44.43359375,0.0
1734583669.6035168,-190.4296875,-57.12890625,-69.82421875,-24.90234375,0.0
1734583669.607423,-215.33203125,-40.52734375,-30.76171875,-20.5078125,0.0
1734583669.6113293,-226.5625,-32.2265625,-34.1796875,-35.64453125,0.0
1734583669.6152353,-230.95703125,-39.0625,-71.77734375,-34.66796875,0.0
1734583669.6191416,-235.3515625,-27.83203125,-79.1015625,-31.25,0.0
1734583669.6358097,-235.3515625,-31.73828125,-86.9140625,-29.296875,0.0
1734583669.639716,-240.234375,-43.45703125,-70.3125,-18.5546875,0.0
1734583669.6436222,-244.140625,-41.9921875,-46.38671875,-39.0625,0.0
1734583669.6475282,-248.046875,-51.26953125,-56.640625,-47.8515625,0.0
1734583669.6514344,-216.796875,-44.921875,-58.59375,-36.62109375,0.0
1734583669.6553407,-225.5859375,-40.52734375,-46.38671875,-29.296875,0.0
1734583669.6592467,-229.98046875,-53.7109375,-58.10546875,-32.71484375,0.0
1734583669.663153,-188.4765625,-46.38671875,-77.63671875,-19.04296875,0.0
1734583669.6670592,-205.56640625,-47.36328125,-75.68359375,-11.23046875,0.0
1734583669.6709654,-199.21875,-71.2890625,-100.09765625,-7.8125,0.0
1734583669.6748714,-185.546875,-71.2890625,-151.85546875,-18.5546875,0.0
1734583669.6787777,-186.5234375,-37.59765625,-155.76171875,-15.13671875,0.0
1734583669.6736186,-182.6171875,-15.13671875,-157.2265625,1.46484375,0.0
1734583669.6775246,-182.6171875,-15.625,-174.31640625,0.9765625,0.0
1734583669.6814308,-164.55078125,-24.90234375,-168.9453125,-11.23046875,0.0
1734583669.6853368,-160.64453125,-11.23046875,-178.22265625,-12.20703125,0.0
1734583669.689243,-178.7109375,-9.765625,-208.49609375,-13.18359375,0.0
1734583669.6931493,-184.5703125,-27.34375,-217.7734375,-18.5546875,0.0
1734583669.6970553,-175.78125,-25.390625,-237.79296875,-32.71484375,0.0
1734583669.7009616,-185.05859375,-9.27734375,-259.27734375,-36.1328125,0.0
1734583669.7048678,-188.96484375,-15.625,-257.32421875,-42.48046875,0.0
1734583669.7087739,-167.96875,-41.015625,-275.87890625,-28.80859375,0.0
1734583669.71268,-178.22265625,-46.875,-284.66796875,-36.1328125,0.0
1734583669.7165864,-189.453125,-26.85546875,-271.484375,-42.96875,0.0
1734583669.714895,-184.5703125,-6.34765625,-277.83203125,-26.85546875,0.0
1734583669.7188013,-182.12890625,-16.11328125,-294.43359375,-13.18359375,0.0
1734583669.7227073,-173.828125,-33.69140625,-299.31640625,-6.8359375,0.0
1734583669.7266135,-175.78125,-19.53125,-275.390625,-24.4140625,0.0
1734583669.7305198,-171.875,-17.08984375,-271.97265625,-27.83203125,0.0
1734583669.7344258,-165.52734375,-33.203125,-286.1328125,-20.5078125,0.0
1734583669.738332,-172.36328125,-32.71484375,-278.80859375,-29.296875,0.0
1734583669.742238,-168.45703125,-21.484375,-248.046875,-43.9453125,0.0
1734583669.7461443,-156.73828125,-9.27734375,-246.58203125,-23.4375,0.0
1734583669.7500505,-168.9453125,-21.484375,-260.25390625,-8.30078125,0.0
1734583669.7539566,-186.5234375,-35.15625,-240.234375,-8.7890625,0.0
1734583669.7578628,-172.36328125,-27.83203125,-204.1015625,-37.109375,0.0
1734583669.7654119,-168.45703125,-26.3671875,-182.6171875,-47.8515625,0.0
1734583669.7693179,-179.19921875,-23.4375,-158.203125,-15.13671875,0.0
1734583669.773224,-182.6171875,-23.92578125,-139.6484375,-30.2734375,0.0
1734583669.7771304,-185.546875,-27.83203125,-116.69921875,-48.33984375,0.0
1734583669.7810364,-170.41015625,-39.0625,-107.421875,-40.52734375,0.0
1734583669.7849426,-171.38671875,-60.05859375,-111.81640625,-27.83203125,0.0
1734583669.7888489,-174.8046875,-53.7109375,-61.5234375,-49.8046875,0.0
1734583669.792755,-187.98828125,-27.34375,6.8359375,-44.921875,0.0
1734583669.7966611,-185.546875,-17.578125,45.41015625,-36.1328125,0.0
1734583669.8005674,-167.48046875,-40.0390625,64.94140625,-29.296875,0.0
1734583669.8044734,-178.22265625,-31.25,111.81640625,-39.0625,0.0
1734583669.8083797,-188.96484375,-9.27734375,161.1328125,-56.15234375,0.0
1734583669.8134997,-181.640625,-14.6484375,179.19921875,-38.57421875,0.0
1734583669.8174057,-170.41015625,-31.25,196.77734375,-31.25,0.0
1734583669.821312,-151.85546875,-31.25,216.30859375,-37.109375,0.0
1734583669.825218,-149.4140625,-20.5078125,244.62890625,-36.1328125,0.0
1734583669.8291242,-153.80859375,-14.16015625,283.69140625,-18.06640625,0.0
1734583669.8330305,-142.578125,-14.6484375,312.5,0.0,0.0
1734583669.8369365,-146.97265625,-11.23046875,340.8203125,-17.578125,0.0
1734583669.8408427,-148.92578125,-0.9765625,366.69921875,-20.01953125,0.0
1734583669.844749,-121.58203125,-0.48828125,360.83984375,-7.32421875,0.0
1734583669.848655,-105.95703125,2.44140625,373.046875,1.46484375,0.0
1734583669.8525612,-124.0234375,15.13671875,430.6640625,-11.23046875,0.0
1734583669.8564675,-137.6953125,-5.37109375,451.171875,-40.0390625,0.0
1734583669.8595102,-131.34765625,-11.23046875,451.171875,-18.06640625,0.0
1734583669.8634162,-128.41796875,-16.6015625,470.21484375,-2.44140625,0.0
1734583669.8673224,-125.48828125,-44.43359375,506.34765625,5.37109375,0.0
1734583669.8712287,-112.79296875,-31.73828125,530.76171875,-3.41796875,0.0
1734583669.8751347,-119.62890625,-7.32421875,517.08984375,-12.6953125,0.0
1734583669.879041,-121.58203125,-6.34765625,524.90234375,-15.625,0.0
1734583669.8829472,-114.74609375,12.20703125,596.6796875,-9.765625,0.0
1734583669.8868532,-145.5078125,12.6953125,659.66796875,-15.625,0.0
1734583669.8907595,-169.43359375,-13.671875,654.78515625,-55.6640625,0.0
1734583669.8946657,-159.1796875,19.04296875,674.8046875,-61.03515625,0.0
1734583669.8985717,-136.23046875,39.0625,695.80078125,-33.203125,0.0
1734583669.902478,-126.46484375,14.16015625,700.1953125,-27.34375,0.0
1734583669.9054713,-124.0234375,10.25390625,709.47265625,-28.80859375,0.0
1734583669.9093773,-117.67578125,8.30078125,723.6328125,-26.3671875,0.0
1734583669.9132836,-110.3515625,5.37109375,735.83984375,-25.87890625,0.0
1734583669.9171898,-128.41796875,10.7421875,742.67578125,-39.0625,0.0
1734583669.9210958,-124.0234375,17.08984375,747.0703125,-45.8984375,0.0
1734583669.925002,-104.4921875,9.27734375,735.83984375,-9.27734375,0.0
1734583669.9289083,-100.5859375,-4.39453125,719.23828125,-7.8125,0.0
1734583669.9328144,-109.375,-20.01953125,694.3359375,-21.97265625,0.0
1734583669.9367206,-115.234375,-18.5546875,694.3359375,-9.27734375,0.0
1734583669.9406269,-109.86328125,16.11328125,710.9375,-23.4375,0.0
1734583669.9445329,-115.234375,24.4140625,712.40234375,-12.6953125,0.0
1734583669.9484391,-115.72265625,-2.9296875,700.68359375,-17.08984375,0.0
1734583669.9504128,-113.76953125,0.9765625,686.5234375,-60.546875,0.0
1734583669.954319,-118.1640625,26.3671875,692.87109375,-43.45703125,0.0
1734583669.958225,-123.53515625,16.6015625,680.17578125,-16.11328125,0.0
1734583669.9621313,-117.67578125,-2.9296875,662.59765625,-29.296875,0.0
1734583669.9660375,-100.5859375,-9.765625,663.0859375,-29.296875,0.0
1734583669.9699435,-107.91015625,-7.8125,650.390625,-21.484375,0.0
1734583669.9738498,-104.00390625,8.7890625,649.90234375,-10.7421875,0.0
1734583669.977756,-111.81640625,3.41796875,623.53515625,-12.20703125,0.0
1734583669.981662,-135.25390625,-15.625,625.0,-21.484375,0.0
1734583669.9855683,-137.6953125,-15.13671875,623.046875,-17.578125,0.0
1734583669.9894743,-154.296875,-13.671875,603.515625,-32.2265625,0.0
1734583669.9933805,-154.296875,-21.97265625,593.26171875,-33.203125,0.0
1734583670.003125,-139.6484375,-10.7421875,571.77734375,-17.578125,0.0
1734583670.0070312,-136.71875,2.9296875,565.91796875,-4.39453125,0.0
1734583670.0109372,-129.8828125,0.0,571.2890625,-10.25390625,0.0
1734583670.0148435,-135.7421875,16.6015625,557.12890625,-16.11328125,0.0
1734583670.0187497,-143.5546875,18.5546875,521.484375,-7.32421875,0.0
1734583670.0226557,-119.140625,-7.8125,502.44140625,-4.8828125,0.0
1734583670.026562,-105.95703125,-7.8125,512.6953125,-12.6953125,0.0
1734583670.0304682,-110.3515625,7.8125,523.4375,0.48828125,0.0
1734583670.0343742,-120.60546875,11.23046875,516.6015625,-6.34765625,0.0
1734583670.0382805,-104.00390625,-0.9765625,483.88671875,-5.37109375,0.0
1734583670.0421867,-91.30859375,-14.6484375,483.88671875,14.6484375,0.0
1734583670.0460927,-135.7421875,-31.25,487.79296875,-7.8125,0.0
1734583670.0521133,-133.30078125,-22.94921875,473.14453125,-4.39453125,0.0
1734583670.0560195,-108.3984375,-14.16015625,438.96484375,-1.953125,0.0
1734583670.0599256,-111.81640625,-28.80859375,427.24609375,-5.37109375,0.0
1734583670.0638318,-110.3515625,-17.08984375,457.03125,1.953125,0.0
1734583670.067738,-97.16796875,-11.23046875,439.453125,21.97265625,0.0
1734583670.071644,-88.8671875,-48.33984375,405.76171875,-2.9296875,0.0
1734583670.0755503,-109.375,-33.69140625,411.62109375,-39.55078125,0.0
1734583670.0794566,-122.0703125,20.5078125,416.015625,-13.671875,0.0
1734583670.0833626,-119.140625,17.578125,396.484375,-4.8828125,0.0
1734583670.0872688,-110.83984375,-8.7890625,374.51171875,0.0,0.0
1734583670.091175,-87.40234375,-31.25,352.05078125,3.41796875,0.0
1734583670.095081,-95.21484375,-29.78515625,396.97265625,2.9296875,0.0
1734583670.0915456,-96.6796875,-5.37109375,409.66796875,4.39453125,0.0
1734583670.0954518,-75.68359375,0.9765625,375.9765625,-6.8359375,0.0
1734583670.0993578,-81.54296875,-3.90625,361.328125,-3.90625,0.0
1734583670.103264,-80.078125,-3.41796875,363.28125,-0.9765625,0.0
1734583670.1071703,-58.59375,-14.16015625,371.09375,4.8828125,0.0
1734583670.1110764,-65.91796875,-25.87890625,354.00390625,2.44140625,0.0
1734583670.1149826,-87.890625,-26.3671875,350.5859375,-9.765625,0.0
1734583670.1188889,-80.078125,-19.53125,377.9296875,-21.97265625,0.0
1734583670.1227949,-83.49609375,-7.32421875,404.296875,-10.25390625,0.0
1734583670.126701,-59.5703125,-8.7890625,412.109375,25.390625,0.0
1734583670.1306071,-73.2421875,-16.11328125,397.94921875,-3.90625,0.0
1734583670.1345134,-80.078125,-7.8125,416.9921875,-25.87890625,0.0
1734583670.141342,-82.51953125,-19.04296875,431.640625,-24.4140625,0.0
1734583670.1452482,-79.58984375,-20.5078125,437.01171875,-20.5078125,0.0
1734583670.1491544,-80.078125,3.41796875,470.21484375,3.90625,0.0
1734583670.1530604,-85.9375,5.37109375,495.1171875,-15.625,0.0
1734583670.1569667,-79.1015625,-8.30078125,521.97265625,-16.11328125,0.0
1734583670.160873,-104.00390625,-13.18359375,534.66796875,-20.01953125,0.0
1734583670.164779,-72.265625,-5.37109375,529.296875,-34.1796875,0.0
1734583670.1686852,-38.57421875,5.859375,534.1796875,-39.55078125,0.0
1734583670.1725914,-74.21875,8.30078125,542.48046875,-40.0390625,0.0
1734583670.1764975,-107.91015625,7.8125,530.76171875,-41.9921875,0.0
1734583670.1804037,-78.125,9.765625,555.17578125,-25.87890625,0.0
1734583670.18431,-45.41015625,12.6953125,592.28515625,28.3203125,0.0
1734583670.188295,-91.30859375,8.30078125,587.890625,6.8359375,0.0
1734583670.192201,-116.69921875,4.39453125,556.15234375,-32.2265625,0.0
1734583670.1961071,-100.09765625,27.34375,592.7734375,-42.48046875,0.0
1734583670.2000134,-81.0546875,21.97265625,608.3984375,-39.55078125,0.0
1734583670.2039194,-91.796875,7.32421875,580.078125,-31.73828125,0.0
1734583670.2078257,-112.3046875,11.23046875,580.56640625,-32.2265625,0.0
1734583670.211732,-105.95703125,26.3671875,590.33203125,-41.50390625,0.0
1734583670.215638,-90.8203125,44.43359375,597.65625,-36.1328125,0.0
1734583670.2195442,-52.24609375,24.90234375,614.74609375,-10.25390625,0.0
1734583670.2234504,-84.9609375,2.9296875,663.0859375,-19.53125,0.0
1734583670.2273564,-151.85546875,46.875,707.51953125,-47.36328125,0.0
1734583670.2312627,-133.7890625,63.4765625,705.56640625,-50.78125,0.0
1734583670.2495415,-113.28125,46.38671875,718.26171875,-28.80859375,0.0
1734583670.2534475,-143.5546875,50.78125,707.51953125,-37.59765625,0.0
1734583670.2573538,-148.92578125,55.17578125,685.05859375,-24.4140625,0.0
1734583670.26126,-121.58203125,50.29296875,707.51953125,-25.390625,0.0
1734583670.2651663,-137.20703125,53.7109375,739.2578125,-35.15625,0.0
1734583670.2690723,-125.48828125,77.63671875,765.13671875,-33.69140625,0.0
1734583670.2729785,-137.6953125,114.74609375,763.18359375,-14.16015625,0.0
1734583670.2768848,-171.875,102.5390625,740.234375,2.44140625,0.0
1734583670.2807908,-137.20703125,62.5,701.66015625,-25.390625,0.0
1734583670.284697,-120.1171875,89.84375,706.0546875,-49.31640625,0.0
1734583670.2886033,-131.8359375,95.21484375,708.0078125,-66.40625,0.0
1734583670.2925096,-120.60546875,112.79296875,722.65625,-65.4296875,0.0
1734583670.2881672,-103.515625,629.8828125,777.34375,-57.12890625,0.0
1734583670.2920735,-147.4609375,993.1640625,810.546875,-41.50390625,0.0
1734583670.2959797,-141.6015625,952.63671875,822.265625,-32.2265625,0.0
1734583670.2998857,-124.0234375,966.796875,807.12890625,-66.40625,0.0
1734583670.303792,-165.52734375,971.19140625,801.26953125,-61.5234375,0.0
1734583670.3076982,-131.34765625,969.23828125,881.34765625,-21.484375,0.0
1734583670.3116043,-145.01953125,970.21484375,950.68359375,-18.06640625,0.0
1734583670.3155105,-180.6640625,967.28515625,953.61328125,-61.5234375,0.0
1734583670.3194168,-159.66796875,971.19140625,955.078125,-58.59375,0.0
1734583670.323323,-171.38671875,958.984375,956.0546875,-41.50390625,0.0
1734583670.327229,-172.36328125,891.11328125,951.66015625,-43.45703125,0.0
1734583670.3311353,-136.23046875,820.80078125,958.984375,-15.625,0.0
1734583670.3295224,-175.29296875,778.3203125,962.890625,-16.11328125,0.0
1734583670.3334286,-224.609375,740.72265625,962.890625,-48.828125,0.0
1734583670.3373346,-198.2421875,705.56640625,961.9140625,-55.17578125,0.0
1734583670.341241,-170.8984375,640.625,960.9375,-31.73828125,0.0
1734583670.3451471,-170.8984375,593.75,963.37890625,-16.11328125,0.0
1734583670.3490531,-183.10546875,568.84765625,964.84375,-49.8046875,0.0
1734583670.3529594,-173.828125,533.69140625,964.35546875,-66.89453125,0.0
1734583670.3568656,-181.640625,514.6484375,963.8671875,-54.6875,0.0
1734583670.3607717,-175.29296875,502.44140625,965.8203125,-30.76171875,0.0
1734583670.364678,-165.52734375,466.30859375,967.28515625,3.41796875,0.0
1734583670.3685842,-158.69140625,440.4296875,967.7734375,-24.90234375,0.0
1734583670.3724902,-138.671875,436.5234375,968.26171875,-37.109375,0.0
1734583670.3729632,-169.43359375,425.78125,969.23828125,-34.1796875,0.0
1734583670.3768694,-199.70703125,403.80859375,969.23828125,-48.828125,0.0
1734583670.3807757,-179.6875,387.6953125,969.23828125,-14.16015625,0.0
1734583670.3846817,-141.11328125,384.765625,969.7265625,6.34765625,0.0
1734583670.388588,-134.765625,381.34765625,969.23828125,3.41796875,0.0
1734583670.3924942,-169.43359375,363.76953125,969.23828125,-5.859375,0.0
1734583670.3964002,-190.91796875,338.37890625,969.23828125,-26.85546875,0.0
1734583670.4003065,-194.3359375,316.89453125,969.23828125,-8.30078125,0.0
1734583670.4042127,-197.75390625,313.96484375,969.7265625,2.44140625,0.0
1734583670.4081187,-169.921875,310.546875,969.7265625,2.44140625,0.0
1734583670.412025,-176.26953125,289.55078125,969.7265625,9.765625,0.0
1734583670.4159312,-172.8515625,285.15625,969.23828125,5.37109375,0.0
1734583670.4168003,-151.3671875,281.73828125,969.23828125,-3.90625,0.0
1734583670.4207065,-150.87890625,256.8359375,969.23828125,-0.9765625,0.0
1734583670.4246125,-159.1796875,249.0234375,969.23828125,-14.16015625,0.0
1734583670.4285188,-162.109375,270.5078125,969.23828125,-42.96875,0.0
1734583670.432425,-152.83203125,284.1796875,969.7265625,-26.3671875,0.0
1734583670.436331,-132.32421875,285.15625,969.7265625,20.5078125,0.0
1734583670.4402373,-150.390625,288.57421875,969.7265625,-3.41796875,0.0
1734583670.4441435,-162.59765625,287.59765625,969.23828125,-49.8046875,0.0
1734583670.4480495,-153.3203125,289.55078125,969.23828125,-52.734375,0.0
1734583670.4519558,-147.94921875,285.64453125,969.23828125,-43.9453125,0.0
1734583670.4558618,-146.484375,286.1328125,969.23828125,-35.64453125,0.0
1734583670.459768,-135.25390625,296.875,969.23828125,-27.83203125,0.0
1734583670.468678,-128.41796875,295.41015625,969.7265625,-7.32421875,0.0
1734583670.472584,-145.99609375,288.0859375,969.23828125,-18.5546875,0.0
1734583670.4764903,-124.51171875,280.76171875,969.23828125,-24.4140625,0.0
1734583670.4803965,-126.46484375,271.484375,969.23828125,-19.04296875,0.0
1734583670.4843025,-135.7421875,269.53125,969.23828125,-21.97265625,0.0
1734583670.4882088,-141.11328125,265.13671875,969.23828125,-32.2265625,0.0
1734583670.492115,-137.20703125,266.6015625,969.7265625,-58.10546875,0.0
1734583670.496021,-143.5546875,270.01953125,969.23828125,-71.2890625,0.0
1734583670.4999273,-154.296875,269.04296875,969.23828125,-55.17578125,0.0
1734583670.5038335,-134.765625,258.7890625,969.23828125,-20.01953125,0.0
1734583670.5077395,-138.18359375,238.76953125,969.23828125,-17.578125,0.0
1734583670.5116458,-131.8359375,230.46875,969.23828125,-33.203125,0.0
1734583670.5175962,-130.37109375,251.953125,969.7265625,-16.6015625,0.0
1734583670.5215023,-142.08984375,267.08984375,969.23828125,-32.2265625,0.0
1734583670.5254085,-157.2265625,270.01953125,969.23828125,-49.31640625,0.0
1734583670.5293148,-145.01953125,276.3671875,969.23828125,-44.921875,0.0
1734583670.5332208,-125.0,283.203125,969.23828125,-55.17578125,0.0
1734583670.537127,-125.0,272.94921875,969.23828125,-57.12890625,0.0
1734583670.5410333,-130.37109375,276.85546875,969.23828125,-61.03515625,0.0
1734583670.5449393,-106.4453125,288.0859375,969.23828125,-58.59375,0.0
1734583670.5488455,-122.0703125,284.1796875,969.23828125,-30.2734375,0.0
1734583670.5527518,-159.1796875,276.85546875,969.23828125,-23.4375,0.0
1734583670.5566578,-165.52734375,286.62109375,969.23828125,-42.48046875,0.0
1734583670.560564,-150.87890625,285.64453125,969.23828125,-94.23828125,0.0
1734583670.5643818,-144.04296875,282.71484375,969.23828125,-138.671875,0.0
1734583670.568288,-125.48828125,268.5546875,969.23828125,-148.4375,0.0
1734583670.5721943,-104.4921875,261.71875,969.7265625,-124.0234375,0.0
1734583670.5761003,-176.26953125,259.765625,969.23828125,-131.8359375,0.0
1734583670.5800066,-182.6171875,256.34765625,969.23828125,-98.14453125,0.0
1734583670.5839128,-137.6953125,273.4375,969.23828125,-100.09765625,0.0
1734583670.5878189,-111.81640625,279.296875,969.23828125,-129.8828125,0.0
1734583670.591725,-113.28125,265.13671875,969.7265625,-103.515625,0.0
1734583670.5956314,-128.41796875,258.7890625,969.23828125,-93.75,0.0
1734583670.5995374,-132.32421875,248.046875,968.75,-67.3828125,0.0
1734583670.6034436,-152.83203125,243.1640625,969.23828125,-27.83203125,0.0
1734583670.6073499,-170.8984375,229.00390625,968.75,-27.83203125,0.0
1734583670.610245,-166.015625,217.28515625,968.75,-62.01171875,0.0
1734583670.6141512,-178.7109375,214.84375,967.7734375,-100.5859375,0.0
1734583670.6180575,-181.15234375,224.12109375,967.28515625,-97.65625,0.0
1734583670.6219635,-157.71484375,240.72265625,966.796875,-89.84375,0.0
1734583670.6258698,-165.0390625,239.2578125,964.84375,-100.09765625,0.0
1734583670.629776,-163.0859375,231.93359375,961.9140625,-83.984375,0.0
1734583670.633682,-197.75390625,220.703125,962.890625,-99.12109375,0.0
1734583670.6375883,-210.9375,216.796875,960.44921875,-97.65625,0.0
1734583670.6414945,-173.33984375,202.1484375,944.3359375,-96.6796875,0.0
1734583670.6454005,-214.35546875,180.6640625,926.26953125,-104.4921875,0.0
1734583670.6493068,-206.0546875,182.12890625,925.78125,-6.34765625,0.0
1734583670.6532128,-187.01171875,182.12890625,922.8515625,7.8125,0.0
1734583670.6627774,-239.74609375,154.296875,905.76171875,-93.75,0.0
1734583670.6666834,-222.65625,143.06640625,924.31640625,-107.91015625,0.0
1734583670.6705897,-195.80078125,137.20703125,951.66015625,-108.3984375,0.0
1734583670.674496,-234.86328125,118.1640625,958.0078125,-118.1640625,0.0
1734583670.6784022,-219.23828125,112.3046875,959.9609375,-118.1640625,0.0
1734583670.6823082,-190.91796875,133.7890625,959.9609375,-114.2578125,0.0
1734583670.6862144,-216.796875,154.78515625,960.44921875,-92.28515625,0.0
1734583670.6901207,-243.1640625,144.53125,959.47265625,-73.73046875,0.0
1734583670.6940267,-233.3984375,136.71875,960.44921875,-73.2421875,0.0
1734583670.697933,-226.07421875,155.2734375,964.35546875,-61.5234375,0.0
1734583670.7018392,-231.93359375,162.109375,964.35546875,-25.390625,0.0
1734583670.7057452,-231.4453125,155.2734375,964.84375,-63.96484375,0.0
1734583670.711461,-227.05078125,150.87890625,965.33203125,-36.62109375,0.0
1734583670.7153673,-261.23046875,163.57421875,965.8203125,-30.2734375,0.0
1734583670.7192736,-292.48046875,166.015625,966.796875,-103.515625,0.0
1734583670.7231796,-272.94921875,153.80859375,966.30859375,-135.25390625,0.0
1734583670.7270858,-302.734375,153.3203125,966.796875,-136.23046875,0.0
1734583670.730992,-337.40234375,150.87890625,967.7734375,-98.14453125,0.0
1734583670.7348983,-329.58984375,143.06640625,969.23828125,-77.63671875,0.0
1734583670.7388043,-334.9609375,130.37109375,969.23828125,-46.38671875,0.0
1734583670.7427106,-331.54296875,139.16015625,969.23828125,-61.03515625,0.0
1734583670.7466168,-318.84765625,147.94921875,969.23828125,-114.2578125,0.0
1734583670.7505229,-336.42578125,145.5078125,969.23828125,-143.06640625,0.0
1734583670.754429,-345.703125,148.4375,969.23828125,-140.625,0.0
1734583670.751292,-326.66015625,168.9453125,969.23828125,-144.04296875,0.0
1734583670.755198,-309.08203125,169.921875,969.23828125,-137.6953125,0.0
1734583670.7591043,-329.58984375,136.71875,969.23828125,-102.5390625,0.0
1734583670.7630103,-324.21875,138.18359375,969.23828125,-85.9375,0.0
1734583670.7669165,-295.41015625,149.90234375,969.23828125,-88.37890625,0.0
1734583670.7708228,-284.66796875,136.71875,969.23828125,-78.125,0.0
1734583670.7747288,-278.3203125,137.20703125,969.23828125,-78.61328125,0.0
1734583670.778635,-285.64453125,146.97265625,969.23828125,-84.47265625,0.0
1734583670.7825413,-293.45703125,150.390625,969.23828125,-77.1484375,0.0
1734583670.7864473,-268.5546875,136.71875,969.23828125,-92.28515625,0.0
1734583670.7903535,-253.41796875,121.58203125,969.23828125,-90.33203125,0.0
1734583670.7942598,-263.671875,116.69921875,969.23828125,-74.21875,0.0
1734583670.793565,-250.48828125,133.7890625,969.23828125,-69.82421875,0.0
1734583670.7974713,-248.53515625,134.765625,967.7734375,-78.61328125,0.0
1734583670.8013773,-244.62890625,122.55859375,967.28515625,-68.359375,0.0
1734583670.8052835,-227.05078125,122.0703125,966.30859375,-62.98828125,0.0
1734583670.8091896,-210.44921875,110.83984375,964.84375,-69.3359375,0.0
1734583670.8130958,-204.1015625,88.8671875,962.890625,-84.47265625,0.0
1734583670.817002,-193.84765625,62.01171875,958.0078125,-47.8515625,0.0
1734583670.820908,-187.98828125,62.5,958.49609375,-28.3203125,0.0
1734583670.8248143,-163.57421875,79.1015625,958.0078125,-49.8046875,0.0
1734583670.8287206,-140.625,76.171875,947.265625,-44.43359375,0.0
1734583670.8326266,-161.1328125,43.9453125,916.9921875,-36.1328125,0.0
1734583670.8365328,-140.13671875,31.25,859.86328125,-48.33984375,0.0
1734583670.8371382,-131.8359375,39.55078125,836.9140625,-42.96875,0.0
1734583670.8410442,-164.0625,39.0625,838.8671875,-21.484375,0.0
1734583670.8449504,-143.06640625,44.43359375,813.96484375,-53.7109375,0.0
1734583670.8488567,-125.0,41.50390625,780.76171875,-40.52734375,0.0
1734583670.8527627,-144.04296875,37.59765625,779.296875,-31.25,0.0
1734583670.856669,-129.8828125,14.6484375,756.8359375,-38.0859375,0.0
1734583670.860575,-119.62890625,1.953125,727.5390625,-9.765625,0.0
1734583670.8644812,-125.48828125,27.34375,718.75,-35.64453125,0.0
1734583670.8683875,-114.2578125,34.66796875,686.5234375,-60.05859375,0.0
1734583670.8722935,-116.2109375,8.7890625,652.83203125,-28.80859375,0.0
1734583670.8761997,-122.55859375,-30.2734375,641.6015625,-13.671875,0.0
1734583670.880106,-117.1875,-28.80859375,626.953125,-17.08984375,0.0
1734583670.8884828,-92.7734375,-0.9765625,606.4453125,-51.7578125,0.0
1734583670.892389,-60.05859375,0.0,583.0078125,-45.41015625,0.0
1734583670.8962953,-53.7109375,3.41796875,586.42578125,-12.20703125,0.0
1734583670.9002013,-70.3125,2.44140625,587.40234375,-15.13671875,0.0
1734583670.9041076,-71.2890625,-30.76171875,548.828125,9.765625,0.0
1734583670.9080138,-99.12109375,-49.31640625,518.06640625,31.73828125,0.0
1734583670.9119198,-67.87109375,-21.97265625,506.34765625,-5.37109375,0.0
1734583670.915826,-35.15625,-25.87890625,502.44140625,15.13671875,0.0
1734583670.919732,-101.07421875,-32.71484375,467.28515625,-7.8125,0.0
1734583670.9236383,-93.75,-16.11328125,431.15234375,-40.0390625,0.0
1734583670.9275446,-51.26953125,-1.953125,444.3359375,-12.20703125,0.0
1734583670.9314506,-35.64453125,-4.8828125,438.4765625,-1.46484375,0.0
1734583670.9442763,-59.5703125,-40.0390625,431.640625,3.41796875,0.0
1734583670.9481826,-61.5234375,-62.5,410.64453125,14.6484375,0.0
1734583670.9520888,-64.94140625,-37.109375,395.99609375,7.8125,0.0
1734583670.9559948,-59.08203125,-13.671875,391.11328125,-8.7890625,0.0
1734583670.959901,-41.015625,-27.34375,371.58203125,-6.34765625,0.0
1734583670.9638073,-75.68359375,-53.7109375,355.46875,-6.8359375,0.0
1734583670.9677134,-77.63671875,-55.17578125,352.05078125,-0.9765625,0.0
1734583670.9716196,-31.25,-64.94140625,323.2421875,42.48046875,0.0
1734583670.9755259,-48.33984375,-95.21484375,275.87890625,5.859375,0.0
1734583670.9794319,-62.98828125,-88.37890625,286.62109375,9.765625,0.0
1734583670.983338,-19.53125,-51.26953125,320.80078125,44.921875,0.0
1734583670.9872444,-56.640625,-34.1796875,299.31640625,26.3671875,0.0
1734583670.9873729,-70.80078125,-39.55078125,264.16015625,1.46484375,0.0
1734583670.991279,-82.51953125,-48.828125,263.671875,-20.5078125,0.0
1734583670.9951851,-81.0546875,-72.75390625,263.18359375,-19.04296875,0.0
1734583670.9990914,-39.0625,-64.453125,254.8828125,-5.859375,0.0
1734583671.0029974,-52.24609375,-49.31640625,267.08984375,17.578125,0.0
1734583671.0069036,-72.265625,-52.24609375,284.66796875,-8.7890625,0.0
1734583671.01081,-74.21875,-51.7578125,307.12890625,7.32421875,0.0
1734583671.014716,-76.66015625,-58.10546875,317.87109375,-10.25390625,0.0
1734583671.0186222,-60.05859375,-55.17578125,308.59375,-9.27734375,0.0
1734583671.0225284,-79.1015625,-42.96875,332.03125,7.32421875,0.0
1734583671.0264344,-101.5625,-40.0390625,367.67578125,-36.62109375,0.0
1734583671.0303407,-83.984375,-55.6640625,354.4921875,-52.734375,0.0
1734583671.0314622,-87.890625,-87.40234375,352.5390625,-27.83203125,0.0
1734583671.0353682,-118.1640625,-88.37890625,410.64453125,-51.7578125,0.0
1734583671.0392745,-111.81640625,-38.0859375,450.1953125,-80.078125,0.0
1734583671.0431807,-89.35546875,8.30078125,473.6328125,-32.71484375,0.0
1734583671.0470867,-92.7734375,5.859375,479.00390625,-50.29296875,0.0
1734583671.050993,-99.12109375,-13.18359375,504.8828125,-45.41015625,0.0
1734583671.054899,-120.1171875,-11.23046875,544.921875,-37.59765625,0.0
1734583671.0588052,-112.3046875,-21.97265625,559.5703125,-32.2265625,0.0
1734583671.0627115,-108.3984375,-35.15625,576.66015625,-35.64453125,0.0
1734583671.0666175,-112.79296875,-28.80859375,586.9140625,-71.2890625,0.0
1734583671.0705237,-134.27734375,-27.83203125,589.35546875,-68.84765625,0.0
1734583671.07443,-116.69921875,-30.76171875,594.7265625,-59.08203125,0.0
1734583671.0762167,-82.51953125,-31.25,607.91015625,-57.12890625,0.0
1734583671.080123,-129.39453125,-12.20703125,610.83984375,-46.38671875,0.0
1734583671.0840292,-152.83203125,-6.8359375,606.93359375,-58.59375,0.0
1734583671.0879352,-137.6953125,-23.4375,610.83984375,-85.9375,0.0
1734583671.0918415,-124.0234375,-31.73828125,631.8359375,-95.21484375,0.0
1734583671.0957477,-118.65234375,-29.78515625,643.5546875,-68.84765625,0.0
1734583671.0996537,-93.75,-20.5078125,638.671875,-54.6875,0.0
1734583671.10356,-37.109375,-24.4140625,645.5078125,-55.17578125,0.0
1734583671.107466,-101.5625,-25.87890625,667.48046875,-25.390625,0.0
1734583671.1113722,-118.65234375,-26.3671875,656.25,-27.34375,0.0
1734583671.1152785,-87.890625,-35.15625,645.5078125,-42.96875,0.0
1734583671.1191845,-82.03125,-57.6171875,660.15625,-47.36328125,0.0
1734583671.1211426,-91.796875,-39.55078125,671.875,-48.33984375,0.0
1734583671.1250486,-90.8203125,-7.8125,676.26953125,-39.55078125,0.0
1734583671.128955,-98.6328125,-2.44140625,655.76171875,-39.0625,0.0
1734583671.132861,-108.88671875,-4.39453125,656.73828125,-45.8984375,0.0
1734583671.1367671,-118.1640625,2.9296875,673.828125,-42.96875,0.0
1734583671.1406734,-85.44921875,7.8125,678.22265625,-48.33984375,0.0
1734583671.1445794,-76.66015625,12.6953125,668.45703125,-14.6484375,0.0
1734583671.1484857,-90.8203125,15.625,639.16015625,10.25390625,0.0
1734583671.152392,-102.05078125,20.5078125,634.765625,-12.20703125,0.0
1734583671.156298,-102.5390625,20.99609375,640.13671875,-20.99609375,0.0
1734583671.1602042,-127.44140625,27.83203125,634.765625,-40.0390625,0.0
1734583671.1641104,-137.20703125,32.71484375,623.53515625,-45.8984375,0.0
1734583671.1805122,-111.81640625,36.62109375,612.3046875,-23.92578125,0.0
1734583671.1844184,-111.81640625,43.9453125,598.14453125,2.9296875,0.0
1734583671.1883245,-117.1875,49.31640625,575.1953125,-2.44140625,0.0
1734583671.1922307,-101.07421875,48.828125,574.70703125,-51.7578125,0.0
1734583671.196137,-101.5625,39.55078125,603.515625,-19.04296875,0.0
1734583671.200043,-104.4921875,34.66796875,599.609375,16.11328125,0.0
1734583671.2039492,-95.703125,23.4375,590.33203125,17.578125,0.0
1734583671.2078555,-98.14453125,34.66796875,606.93359375,-18.06640625,0.0
1734583671.2117617,-75.1953125,52.24609375,602.05078125,-8.30078125,0.0
1734583671.2156677,-70.80078125,44.921875,571.77734375,-6.8359375,0.0
1734583671.219574,-78.61328125,35.15625,549.8046875,21.97265625,0.0
1734583671.2234802,-72.75390625,37.59765625,552.24609375,31.73828125,0.0
1734583671.2185862,-67.3828125,39.0625,534.1796875,1.953125,0.0
1734583671.2224925,-67.87109375,39.55078125,502.44140625,25.390625,0.0
1734583671.2263987,-76.66015625,37.109375,498.53515625,25.87890625,0.0
1734583671.2303047,-50.29296875,38.57421875,495.60546875,16.6015625,0.0
1734583671.234211,-46.38671875,35.15625,464.84375,6.8359375,0.0
1734583671.2381172,-90.8203125,20.01953125,435.546875,45.41015625,0.0
1734583671.2420232,-63.4765625,21.97265625,421.38671875,44.921875,0.0
1734583671.2459295,-47.8515625,40.0390625,420.41015625,-5.37109375,0.0
1734583671.2498357,-71.2890625,31.73828125,416.9921875,5.859375,0.0
1734583671.2537417,-51.26953125,28.80859375,404.296875,43.9453125,0.0
1734583671.257648,-33.69140625,38.0859375,393.5546875,6.8359375,0.0
1734583671.261554,-48.33984375,35.15625,384.765625,-11.71875,0.0
1734583671.266732,-72.265625,35.15625,382.8125,16.6015625,0.0
1734583671.270638,-67.3828125,24.4140625,370.60546875,26.85546875,0.0
1734583671.2745442,-47.8515625,15.625,376.46484375,65.91796875,0.0
1734583671.2784505,-41.9921875,30.76171875,378.90625,45.41015625,0.0
1734583671.2823565,-27.34375,26.3671875,352.05078125,12.6953125,0.0
1734583671.2862628,-9.27734375,12.20703125,335.9375,23.4375,0.0
1734583671.290169,1.953125,13.671875,334.9609375,2.9296875,0.0
1734583671.294075,-6.8359375,10.25390625,329.58984375,3.90625,0.0
1734583671.2979813,-12.6953125,-3.41796875,313.96484375,26.3671875,0.0
1734583671.3018875,-2.44140625,-18.06640625,291.9921875,44.43359375,0.0
1734583671.3057935,10.7421875,-8.7890625,299.31640625,52.734375,0.0
1734583671.3096998,30.76171875,-0.48828125,321.77734375,62.98828125,0.0
1734583671.3137138,36.62109375,-3.41796875,330.078125,40.52734375,0.0
1734583671.3176198,37.59765625,0.0,348.14453125,18.06640625,0.0
1734583671.321526,27.34375,2.44140625,359.375,-9.765625,0.0
1734583671.325432,41.015625,-4.8828125,355.95703125,19.04296875,0.0
1734583671.3293383,48.828125,2.9296875,393.5546875,46.38671875,0.0
1734583671.3332446,44.43359375,15.13671875,438.4765625,80.56640625,0.0
1734583671.3371506,62.5,5.37109375,439.94140625,132.8125,0.0
1734583671.3410568,68.84765625,-4.39453125,448.73046875,80.078125,0.0
1734583671.344963,71.77734375,-2.44140625,475.5859375,96.6796875,0.0
1734583671.348869,79.58984375,-11.71875,474.609375,115.234375,0.0
1734583671.3527753,68.359375,-17.08984375,457.51953125,56.640625,0.0
1734583671.3566816,92.7734375,-9.765625,459.9609375,9.27734375,0.0
1734583671.3597157,83.49609375,-2.9296875,457.03125,3.90625,0.0
1734583671.363622,87.890625,-12.20703125,438.4765625,17.578125,0.0
1734583671.367528,126.953125,-33.69140625,421.875,35.64453125,0.0
1734583671.3714342,118.65234375,-32.71484375,443.84765625,46.38671875,0.0
1734583671.3753405,95.703125,-29.296875,459.47265625,29.296875,0.0
1734583671.3792465,113.28125,-33.203125,447.75390625,52.24609375,0.0
1734583671.3831527,230.46875,-37.59765625,461.42578125,179.19921875,0.0
1734583671.387059,240.72265625,-20.01953125,459.47265625,207.03125,0.0
1734583671.390965,125.48828125,-22.94921875,421.875,97.65625,0.0
1734583671.3948712,99.609375,-41.9921875,415.0390625,55.6640625,0.0
1734583671.3987775,102.05078125,-38.57421875,422.36328125,41.015625,0.0
1734583671.4026835,85.9375,-33.203125,413.0859375,13.671875,0.0
1734583671.4121888,73.73046875,-42.48046875,399.90234375,-2.44140625,0.0
1734583671.416095,65.4296875,-41.9921875,404.78515625,10.7421875,0.0
1734583671.420001,70.3125,-34.1796875,406.25,21.97265625,0.0
1734583671.4239073,75.1953125,-45.41015625,409.66796875,9.765625,0.0
1734583671.4278135,28.80859375,-50.78125,417.96875,8.30078125,0.0
1734583671.4317195,34.66796875,-37.109375,406.25,48.828125,0.0
1734583671.4356258,34.66796875,-31.73828125,400.87890625,30.76171875,0.0
1734583671.439532,22.4609375,-39.55078125,393.06640625,5.859375,0.0
1734583671.443438,35.15625,-40.0390625,367.67578125,8.7890625,0.0
1734583671.4473443,4.8828125,-38.57421875,344.7265625,2.9296875,0.0
1734583671.4512506,-12.20703125,-41.9921875,355.95703125,-24.90234375,0.0
1734583671.4551568,-3.90625,-45.41015625,367.1875,-24.4140625,0.0
1734583671.4619517,13.18359375,-54.6875,350.5859375,4.39453125,0.0
1734583671.465858,0.0,-47.8515625,347.16796875,17.08984375,0.0
1734583671.4697642,6.34765625,-26.3671875,352.5390625,23.92578125,0.0
1734583671.4736702,44.921875,-24.90234375,340.33203125,29.296875,0.0
1734583671.4775765,24.4140625,-34.66796875,322.265625,36.62109375,0.0
1734583671.4814827,14.16015625,-32.71484375,291.9921875,23.92578125,0.0
1734583671.4853888,2.44140625,-27.34375,293.45703125,29.78515625,0.0
1734583671.489295,13.671875,-28.80859375,313.96484375,-7.8125,0.0
1734583671.4932013,26.85546875,-31.25,296.875,-9.27734375,0.0
1734583671.4971075,25.390625,-30.2734375,270.5078125,31.73828125,0.0
1734583671.5010135,20.01953125,4.39453125,276.85546875,-31.73828125,0.0
1734583671.5049198,22.4609375,24.4140625,261.71875,-23.4375,0.0
1734583671.5089393,28.3203125,29.296875,268.06640625,35.64453125,0.0
1734583671.5128455,17.08984375,31.73828125,289.0625,-3.41796875,0.0
1734583671.5167515,26.3671875,25.390625,305.6640625,-0.48828125,0.0
1734583671.5206578,24.4140625,20.01953125,331.54296875,16.6015625,0.0
1734583671.524564,-2.44140625,9.27734375,340.8203125,20.99609375,0.0
1734583671.5284703,-14.6484375,4.8828125,346.19140625,30.2734375,0.0
1734583671.5323763,-28.80859375,20.01953125,347.65625,40.0390625,0.0
1734583671.5362825,-30.76171875,24.90234375,341.796875,14.6484375,0.0
1734583671.5401888,-36.62109375,18.06640625,329.58984375,-6.8359375,0.0
1734583671.5440948,-51.26953125,27.34375,342.28515625,-28.3203125,0.0
1734583671.548001,-35.15625,47.36328125,366.69921875,-27.83203125,0.0
1734583671.5519073,-2.9296875,54.19921875,353.02734375,-18.06640625,0.0
1734583671.5554113,10.25390625,47.36328125,340.33203125,-36.62109375,0.0
1734583671.5593176,-9.765625,46.38671875,349.12109375,-63.96484375,0.0
1734583671.5632238,-23.92578125,42.48046875,361.328125,-64.94140625,0.0
1734583671.5671299,-2.9296875,32.71484375,361.81640625,-24.4140625,0.0
1734583671.571036,7.8125,29.296875,365.72265625,20.5078125,0.0
1734583671.5749424,22.4609375,30.2734375,392.08984375,31.73828125,0.0
1734583671.5788484,29.78515625,30.76171875,400.87890625,34.1796875,0.0
1734583671.5827546,-6.8359375,21.484375,395.5078125,16.6015625,0.0
1734583671.5866609,-15.13671875,-5.37109375,389.6484375,2.9296875,0.0
1734583671.5905669,-25.390625,-7.32421875,402.83203125,7.32421875,0.0
1734583671.5944731,-30.2734375,8.30078125,406.73828125,-31.25,0.0
1734583671.5983794,-38.0859375,12.6953125,402.34375,-21.484375,0.0
1734583671.6079094,-48.33984375,13.671875,408.203125,11.71875,0.0
1734583671.6118157,-43.45703125,12.20703125,423.33984375,-7.8125,0.0
1734583671.615722,-40.52734375,5.37109375,427.24609375,-27.34375,0.0
1734583671.619628,-58.59375,-6.34765625,429.6875,-18.06640625,0.0
1734583671.6235342,-65.4296875,-12.20703125,434.5703125,35.15625,0.0
1734583671.6274405,-52.734375,-6.34765625,443.84765625,43.9453125,0.0
1734583671.6313465,-54.19921875,16.11328125,458.49609375,-31.25,0.0
1734583671.6352527,-54.19921875,26.85546875,435.546875,-41.9921875,0.0
1734583671.639159,-55.6640625,19.04296875,433.59375,3.41796875,0.0
1734583671.6430652,-53.22265625,21.484375,464.84375,1.46484375,0.0
1734583671.6469712,-30.76171875,25.390625,475.5859375,-29.78515625,0.0
1734583671.6508775,-31.73828125,27.34375,475.5859375,-20.01953125,0.0
1734583671.6570194,-67.3828125,37.59765625,0.0,11.23046875,0.0
1734583671.6609256,-66.89453125,45.41015625,0.0,7.8125,0.0
1734583671.6648319,-26.3671875,44.43359375,0.0,0.0,0.0
1734583671.6687381,-16.11328125,45.41015625,0.0,31.25,0.0
1734583671.6726441,-13.18359375,55.6640625,0.0,17.08984375,0.0
1734583671.6765504,-14.16015625,48.33984375,0.0,4.8828125,0.0
1734583671.6804566,-24.90234375,38.57421875,0.0,-2.44140625,0.0
1734583671.6843626,-23.92578125,35.15625,0.0,-6.8359375,0.0
1734583671.688269,-41.015625,35.15625,0.0,-12.20703125,0.0
1734583671.6921751,-50.78125,37.109375,0.0,-44.43359375,0.0
1734583671.6960814,-45.41015625,34.1796875,0.0,-21.97265625,0.0
1734583671.6999874,-43.45703125,29.78515625,0.0,-7.8125,0.0
1734583671.6981354,-61.5234375,44.921875,464.35546875,-28.80859375,0.0
1734583671.7020416,-30.2734375,57.12890625,459.9609375,-13.671875,0.0
1734583671.7059479,-12.20703125,47.8515625,445.80078125,-9.27734375,0.0
1734583671.7098541,-49.31640625,43.9453125,451.171875,-21.484375,0.0
1734583671.7137601,-47.36328125,50.29296875,461.9140625,-25.390625,0.0
1734583671.7176664,-35.15625,54.19921875,472.65625,-12.6953125,0.0
1734583671.7215726,-31.73828125,52.734375,460.44921875,16.6015625,0.0
1734583671.7254786,-59.08203125,56.640625,438.96484375,-15.625,0.0
1734583671.729385,-70.3125,71.2890625,437.01171875,-27.83203125,0.0
1734583671.7332911,-76.171875,80.56640625,416.50390625,-26.85546875,0.0
1734583671.7371972,-61.5234375,89.84375,374.0234375,-37.109375,0.0
1734583671.7411034,-35.64453125,104.98046875,346.19140625,-41.9921875,0.0
1734583671.7400558,-36.1328125,100.5859375,336.42578125,-36.62109375,0.0
1734583671.743962,-42.48046875,86.42578125,343.75,-17.08984375,0.0
1734583671.747868,-47.8515625,92.28515625,338.37890625,-43.45703125,0.0
1734583671.7517743,-54.6875,102.05078125,332.03125,-61.5234375,0.0
1734583671.7556806,-77.63671875,100.5859375,333.49609375,-66.89453125,0.0
1734583671.7595866,-73.73046875,88.37890625,340.8203125,-50.29296875,0.0
1734583671.7634928,-51.26953125,83.0078125,327.1484375,-31.73828125,0.0
1734583671.767399,-67.3828125,122.55859375,314.453125,-46.875,0.0
1734583671.771305,-67.3828125,138.671875,332.03125,-71.2890625,0.0
1734583671.7752113,-61.03515625,123.53515625,341.30859375,-41.015625,0.0
1734583671.7791176,-62.5,122.0703125,318.359375,-32.2265625,0.0
1734583671.7830236,-78.61328125,129.8828125,307.6171875,-49.31640625,0.0
1734583671.7838705,-70.80078125,127.9296875,314.453125,-51.7578125,0.0
1734583671.7877767,-57.12890625,115.234375,306.15234375,-65.91796875,0.0
1734583671.791683,-55.6640625,129.8828125,298.828125,-54.6875,0.0
1734583671.795589,-36.1328125,140.13671875,292.96875,-30.2734375,0.0
1734583671.7994952,-40.52734375,131.8359375,291.015625,-46.38671875,0.0
1734583671.8034015,-41.015625,121.09375,299.31640625,-31.25,0.0
1734583671.8073075,-36.62109375,120.60546875,295.8984375,-13.18359375,0.0
1734583671.8112137,-51.26953125,125.48828125,294.43359375,-13.18359375,0.0
1734583671.81512,-46.875,121.58203125,295.41015625,-42.48046875,0.0
1734583671.819026,-28.3203125,111.328125,278.3203125,-28.80859375,0.0
1734583671.8229322,-19.53125,106.93359375,278.3203125,-35.64453125,0.0
1734583671.8268385,-45.41015625,115.234375,304.19921875,-48.828125,0.0
1734583671.8351326,-39.0625,100.09765625,300.78125,-35.15625,0.0
1734583671.8390386,-21.484375,75.68359375,262.6953125,-35.15625,0.0
1734583671.8429449,-33.203125,84.9609375,287.59765625,-33.203125,0.0
1734583671.846851,-42.96875,100.09765625,309.5703125,-65.91796875,0.0
1734583671.8507571,-38.57421875,99.12109375,293.45703125,-55.6640625,0.0
1734583671.8546634,-15.13671875,88.8671875,286.1328125,-9.765625,0.0
1734583671.8585696,-10.7421875,86.9140625,301.7578125,-8.7890625,0.0
1734583671.8624759,-18.5546875,79.58984375,321.2890625,-5.37109375,0.0
1734583671.866382,-26.85546875,60.546875,322.265625,-2.44140625,0.0
1734583671.8702881,-17.578125,46.875,304.6875,1.46484375,0.0
1734583671.8741944,-25.87890625,52.24609375,314.94140625,1.953125,0.0
1734583671.8781004,-37.59765625,44.921875,332.03125,-11.71875,0.0
1734583671.8902133,-22.4609375,34.1796875,338.37890625,-17.578125,0.0
1734583671.8941195,-29.78515625,38.57421875,347.65625,15.625,0.0
1734583671.8980258,-44.921875,38.0859375,342.28515625,17.08984375,0.0
1734583671.901932,-58.59375,30.76171875,348.6328125,-40.0390625,0.0
1734583671.905838,-57.6171875,21.97265625,361.328125,-19.04296875,0.0
1734583671.9097443,-38.57421875,18.06640625,354.98046875,10.7421875,0.0
1734583671.9136505,-25.87890625,16.6015625,349.609375,-21.484375,0.0
1734583671.9175568,-33.69140625,24.90234375,348.14453125,0.48828125,0.0
1734583671.9214628,-31.25,35.15625,335.44921875,56.640625,0.0
1734583671.925369,-0.48828125,44.921875,332.03125,25.87890625,0.0
1734583671.9292753,-16.6015625,52.734375,343.75,-8.7890625,0.0
1734583671.9331813,-18.06640625,47.36328125,335.44921875,37.109375,0.0
1734583671.9335344,-11.23046875,37.109375,323.73046875,55.17578125,0.0
1734583671.9374406,-24.4140625,37.59765625,316.40625,33.69140625,0.0
1734583671.941347,-28.3203125,33.69140625,317.3828125,27.83203125,0.0
1734583671.9452531,-44.43359375,23.92578125,316.89453125,-0.48828125,0.0
1734583671.9491591,-43.9453125,20.01953125,305.17578125,-18.06640625,0.0
1734583671.9530654,-26.3671875,10.25390625,300.78125,-12.6953125,0.0
1734583671.9569716,-37.109375,2.44140625,314.94140625,9.27734375,0.0
1734583671.9608777,-36.1328125,8.30078125,329.1015625,33.69140625,0.0
1734583671.964784,-13.18359375,22.4609375,333.49609375,6.34765625,0.0
1734583671.9686902,-17.578125,31.25,331.0546875,-47.8515625,0.0
1734583671.9725964,-25.87890625,29.78515625,334.9609375,-33.203125,0.0
1734583671.9765024,-20.99609375,23.4375,331.0546875,3.41796875,0.0
1734583671.977854,0.0,13.18359375,0.0,14.6484375,0.0
1734583671.98176,0.0,26.85546875,0.0,15.13671875,0.0
1734583671.9856663,0.0,34.1796875,0.0,4.39453125,0.0
1734583671.9895725,0.0,28.80859375,0.0,4.8828125,0.0
1734583671.9934785,0.0,28.3203125,0.0,4.39453125,0.0
1734583671.9973848,0.0,15.13671875,0.0,27.83203125,0.0
1734583672.001291,0.0,10.25390625,0.0,-1.953125,0.0
1734583672.0051973,0.0,8.7890625,0.0,-50.29296875,0.0
1734583672.0091033,0.0,8.7890625,0.0,-7.32421875,0.0
1734583672.0130095,0.0,26.85546875,0.0,25.87890625,0.0
1734583672.0169158,0.0,20.99609375,0.0,10.25390625,0.0
1734583672.0208218,0.0,6.8359375,0.0,-23.4375,0.0
1734583672.022127,-36.1328125,5.37109375,413.0859375,-28.80859375,0.0
1734583672.026033,-24.90234375,-0.48828125,416.50390625,-40.0390625,0.0
1734583672.0299392,-32.71484375,-1.953125,417.96875,-47.8515625,0.0
1734583672.0338454,-40.0390625,-8.30078125,408.69140625,-68.359375,0.0
1734583672.0377514,-28.3203125,-11.23046875,407.71484375,-68.84765625,0.0
1734583672.0416577,-19.04296875,2.9296875,415.0390625,-60.546875,0.0
1734583672.045564,-20.01953125,4.39453125,409.1796875,-37.59765625,0.0
1734583672.04947,-44.43359375,-18.5546875,405.76171875,-0.9765625,0.0
1734583672.0533762,-65.91796875,-10.25390625,423.828125,-49.8046875,0.0
1734583672.0572824,-31.73828125,-2.44140625,423.33984375,-72.265625,0.0
1734583672.0611885,-35.15625,-17.578125,418.45703125,-39.55078125,0.0
1734583672.0650947,-77.1484375,-22.94921875,428.7109375,-51.26953125,0.0
1734583672.0748792,-64.94140625,-21.484375,441.40625,-64.453125,0.0
1734583672.0787852,-68.84765625,-24.90234375,442.3828125,-40.0390625,0.0
1734583672.0826914,-65.4296875,-21.484375,447.75390625,-40.0390625,0.0
1734583672.0865977,-70.80078125,-13.671875,453.125,-71.77734375,0.0
1734583672.090504,-71.2890625,-6.8359375,415.0390625,-57.12890625,0.0
1734583672.09441,-69.3359375,-10.25390625,389.16015625,-47.36328125,0.0
1734583672.0983162,-63.4765625,-20.01953125,385.25390625,-69.3359375,0.0
1734583672.1022224,-59.5703125,-30.76171875,367.1875,-36.1328125,0.0
1734583672.1061285,-47.8515625,-27.83203125,357.91015625,-22.94921875,0.0
1734583672.1100347,-96.19140625,-37.59765625,335.9375,-62.01171875,0.0
1734583672.113941,-132.8125,-48.33984375,302.24609375,-65.4296875,0.0
1734583672.117847,-94.23828125,-39.55078125,269.04296875,-92.7734375,0.0
1734583672.1299455,-90.8203125,-30.76171875,244.62890625,-71.77734375,0.0
1734583672.1338518,-62.5,-18.06640625,226.5625,-31.73828125,0.0
1734583672.1377578,-22.94921875,-3.90625,213.37890625,-27.83203125,0.0
1734583672.141664,-88.8671875,0.0,209.9609375,-73.2421875,0.0
1734583672.1455703,-115.234375,15.13671875,193.359375,-99.609375,0.0
1734583672.1494765,-77.63671875,22.94921875,164.55078125,-90.8203125,0.0
1734583672.1533825,-92.28515625,16.6015625,166.015625,-114.2578125,0.0
1734583672.1572888,-96.6796875,22.4609375,174.31640625,-93.75,0.0
1734583672.161195,-81.0546875,39.55078125,158.203125,-55.17578125,0.0
1734583672.1651013,-95.21484375,37.59765625,124.0234375,-72.75390625,0.0
1734583672.1690073,-123.046875,21.484375,102.05078125,-61.03515625,0.0
1734583672.1729136,-127.44140625,28.80859375,102.5390625,-99.609375,0.0
1734583672.1665647,-119.140625,28.3203125,76.171875,-115.72265625,0.0
1734583672.170471,-124.51171875,17.578125,52.734375,-111.81640625,0.0
1734583672.174377,-119.140625,15.625,12.6953125,-146.484375,0.0
1734583672.1782832,-129.8828125,0.0,-31.73828125,-129.39453125,0.0
1734583672.1821895,-151.85546875,-16.6015625,-33.203125,-92.28515625,0.0
1734583672.1860955,-149.90234375,-28.80859375,-54.6875,-60.546875,0.0
1734583672.1900017,-124.0234375,-31.25,-102.5390625,-116.69921875,0.0
1734583672.193908,-105.95703125,-20.99609375,-113.28125,-141.6015625,0.0
1734583672.1978142,-119.140625,-33.69140625,-112.79296875,-108.3984375,0.0
1734583672.2017202,-135.25390625,-45.41015625,-115.72265625,-115.234375,0.0
1734583672.2056265,-144.04296875,-26.3671875,-109.375,-115.72265625,0.0
1734583672.2095327,-128.90625,-8.7890625,-97.16796875,-120.60546875,0.0
1734583672.235204,-121.58203125,-19.04296875,-95.21484375,-136.23046875,0.0
1734583672.2391102,-121.09375,-56.640625,-125.48828125,-123.046875,0.0
1734583672.2430165,-113.28125,-58.10546875,-119.140625,-105.46875,0.0
1734583672.2469225,-130.859375,-37.59765625,-86.42578125,-126.953125,0.0
1734583672.2508287,-122.55859375,-41.9921875,-88.8671875,-132.8125,0.0
1734583672.254735,-98.14453125,-35.64453125,-97.65625,-124.0234375,0.0
1734583672.2586412,-110.83984375,-13.671875,-85.44921875,-89.84375,0.0
1734583672.2625475,-117.67578125,-6.34765625,-76.66015625,-85.44921875,0.0
1734583672.2664535,-107.91015625,-14.6484375,-93.75,-121.09375,0.0
1734583672.2703598,-92.28515625,-13.18359375,-103.02734375,-134.27734375,0.0
1734583672.274266,-91.796875,4.39453125,-76.171875,-121.58203125,0.0
1734583672.2781723,-98.6328125,-1.953125,-56.640625,-84.47265625,0.0
1734583672.2725184,-73.73046875,-13.671875,-54.6875,-78.125,0.0
1734583672.2764244,-75.1953125,-1.953125,-43.9453125,-71.77734375,0.0
1734583672.2803307,-72.75390625,8.7890625,-26.85546875,-67.87109375,0.0
1734583672.284237,-69.3359375,8.7890625,-26.85546875,-111.81640625,0.0
1734583672.2881432,-76.66015625,-0.48828125,-38.57421875,-57.12890625,0.0
1734583672.2920492,-73.73046875,-7.32421875,-45.41015625,-50.78125,0.0
1734583672.2959554,-73.2421875,-9.27734375,-26.3671875,-125.0,0.0
1734583672.2998617,-64.453125,-7.8125,-7.32421875,-97.65625,0.0
1734583672.303768,-61.5234375,-9.27734375,-12.20703125,-53.7109375,0.0
1734583672.307674,-58.10546875,-4.8828125,-11.71875,-70.3125,0.0
1734583672.3115802,-62.5,-7.32421875,0.9765625,-66.89453125,0.0
1734583672.3154864,-81.54296875,-16.6015625,-4.39453125,-65.91796875,0.0
1734583672.3126087,-93.26171875,-5.37109375,-13.671875,-65.4296875,0.0
1734583672.3165147,-79.1015625,2.44140625,-0.9765625,-83.984375,0.0
1734583672.320421,-74.21875,-5.859375,9.27734375,-76.66015625,0.0
1734583672.3243272,-81.54296875,-16.6015625,0.0,-74.21875,0.0
1734583672.3282335,-76.66015625,-40.0390625,-15.13671875,-83.49609375,0.0
1734583672.3321395,-60.546875,-41.9921875,-1.953125,-55.6640625,0.0
1734583672.3360457,-47.36328125,-39.0625,25.87890625,-82.03125,0.0
1734583672.339952,-81.0546875,-57.12890625,13.18359375,-112.3046875,0.0
1734583672.3438582,-85.9375,-74.21875,-19.53125,-78.61328125,0.0
1734583672.3477643,-68.84765625,-62.01171875,-14.6484375,-75.68359375,0.0
1734583672.3516705,-80.078125,-32.71484375,-2.9296875,-83.49609375,0.0
1734583672.3555768,-72.265625,-35.64453125,-6.34765625,-105.95703125,0.0
1734583672.3619304,-84.9609375,-50.78125,12.20703125,-106.93359375,0.0
1734583672.3658366,-81.54296875,-50.78125,30.2734375,-99.12109375,0.0
1734583672.3697429,-67.3828125,-53.7109375,26.85546875,-94.7265625,0.0
1734583672.373649,-61.03515625,-57.6171875,29.78515625,-64.94140625,0.0
1734583672.3775551,-70.3125,-66.89453125,53.7109375,-93.75,0.0
1734583672.3814614,-82.51953125,-75.68359375,61.5234375,-105.95703125,0.0
1734583672.3853676,-83.0078125,-69.3359375,69.82421875,-50.29296875,0.0
1734583672.3892736,-88.8671875,-69.82421875,81.54296875,-64.453125,0.0
1734583672.39318,-72.75390625,-73.2421875,75.68359375,-74.70703125,0.0
1734583672.3970861,-72.75390625,-63.96484375,88.37890625,-31.25,0.0
1734583672.4009922,-62.98828125,-57.6171875,112.3046875,-54.6875,0.0
1734583672.4048984,-27.34375,-57.6171875,113.28125,-68.359375,0.0
1734583672.4022648,-54.19921875,-57.6171875,125.9765625,-21.484375,0.0
1734583672.406171,-62.01171875,-54.6875,145.5078125,-22.94921875,0.0
1734583672.4100773,-26.85546875,-46.875,147.94921875,-65.91796875,0.0
1734583672.4139833,-41.9921875,-53.22265625,155.2734375,-56.640625,0.0
1734583672.4178896,-60.546875,-55.6640625,154.296875,-27.34375,0.0
1734583672.4217958,-55.6640625,-54.19921875,147.94921875,7.32421875,0.0
1734583672.4257019,-32.2265625,-62.98828125,145.99609375,8.30078125,0.0
1734583672.429608,-28.3203125,-57.6171875,140.625,-24.90234375,0.0
1734583672.4335144,-26.85546875,-42.96875,153.3203125,-3.41796875,0.0
1734583672.4374206,-16.11328125,-40.52734375,161.62109375,21.97265625,0.0
1734583672.4413266,-27.83203125,-47.36328125,162.109375,9.765625,0.0
1734583672.4452329,-33.69140625,-57.6171875,166.9921875,10.7421875,0.0
1734583672.4447114,-20.99609375,-34.1796875,186.03515625,39.0625,0.0
1734583672.4486175,-10.25390625,-15.13671875,199.70703125,15.13671875,0.0
1734583672.4525237,0.0,-26.3671875,202.63671875,6.8359375,0.0
1734583672.45643,-0.9765625,-37.109375,203.61328125,5.859375,0.0
1734583672.460336,6.8359375,-31.73828125,191.40625,37.59765625,0.0
1734583672.4642422,25.390625,-19.04296875,196.2890625,71.2890625,0.0
1734583672.4681485,5.859375,-20.5078125,205.56640625,40.0390625,0.0
1734583672.4720547,-8.7890625,-24.4140625,209.9609375,51.26953125,0.0
1734583672.4759607,4.39453125,-18.06640625,189.94140625,29.296875,0.0
1734583672.479867,25.87890625,-20.5078125,170.8984375,12.6953125,0.0
1734583672.4837732,-8.7890625,-22.4609375,193.84765625,24.90234375,0.0
1734583672.4876792,-12.6953125,-23.92578125,215.8203125,45.8984375,0.0
1734583672.4880786,20.99609375,-29.78515625,227.5390625,23.92578125,0.0
1734583672.4919846,8.7890625,-29.78515625,231.4453125,-2.44140625,0.0
1734583672.4958909,19.53125,-19.04296875,221.19140625,-2.9296875,0.0
1734583672.499797,1.953125,-9.765625,202.1484375,-21.484375,0.0
1734583672.503703,0.48828125,-10.7421875,193.84765625,-16.11328125,0.0
1734583672.5076094,9.27734375,-14.16015625,186.5234375,-10.7421875,0.0
1734583672.5115156,9.27734375,-13.18359375,172.8515625,-0.9765625,0.0
1734583672.5154216,12.6953125,6.8359375,181.15234375,-2.44140625,0.0
1734583672.5193279,17.578125,21.484375,178.7109375,-5.859375,0.0
1734583672.5232341,13.18359375,24.4140625,166.50390625,-22.94921875,0.0
1734583672.5271401,-4.39453125,15.625,165.52734375,-18.5546875,0.0
1734583672.5310464,11.71875,11.71875,166.50390625,7.8125,0.0
1734583672.5325978,4.8828125,4.39453125,159.66796875,-11.71875,0.0
1734583672.5365038,-3.41796875,-0.9765625,146.484375,14.16015625,0.0
1734583672.54041,-13.671875,9.765625,128.41796875,-19.04296875,0.0
1734583672.5443163,-19.04296875,9.765625,105.46875,-49.31640625,0.0
1734583672.5482223,-18.5546875,1.953125,87.890625,-29.78515625,0.0
1734583672.5521286,0.48828125,-9.27734375,71.2890625,-17.08984375,0.0
1734583672.5560348,11.71875,-11.71875,60.05859375,-15.13671875,0.0
1734583672.5599408,1.953125,-8.30078125,59.5703125,-17.08984375,0.0
1734583672.563847,-4.8828125,-10.25390625,55.6640625,-14.16015625,0.0
1734583672.567753,11.71875,-17.08984375,50.29296875,-20.01953125,0.0
1734583672.5716593,21.97265625,-18.5546875,66.40625,-16.11328125,0.0
1734583672.5755656,-1.46484375,-16.11328125,74.70703125,-13.18359375,0.0
1734583672.5914042,-8.7890625,-24.4140625,63.4765625,-4.8828125,0.0
1734583672.5953104,-6.34765625,-31.25,55.17578125,-60.05859375,0.0
1734583672.5992167,-6.34765625,-24.4140625,61.5234375,-64.94140625,0.0
1734583672.6031227,2.9296875,-29.78515625,65.4296875,-4.39453125,0.0
1734583672.607029,3.41796875,-39.0625,73.73046875,5.37109375,0.0
1734583672.6109352,5.37109375,-34.1796875,82.51953125,-26.85546875,0.0
1734583672.6148415,2.44140625,-29.78515625,90.8203125,-51.26953125,0.0
1734583672.6187475,2.9296875,-24.4140625,95.703125,-38.0859375,0.0
1734583672.6226537,-3.41796875,-24.90234375,91.796875,-10.7421875,0.0
1734583672.62656,1.46484375,-44.43359375,79.58984375,-6.34765625,0.0
1734583672.630466,12.6953125,-31.73828125,76.66015625,-34.66796875,0.0
1734583672.6343722,19.53125,-27.34375,79.1015625,-41.50390625,0.0
1734583672.6365952,23.92578125,-37.109375,79.1015625,-25.87890625,0.0
1734583672.6405013,22.4609375,-39.0625,73.73046875,-39.0625,0.0
1734583672.6444075,13.18359375,-64.453125,55.6640625,-15.13671875,0.0
1734583672.6483138,24.90234375,-86.9140625,61.5234375,-0.9765625,0.0
1734583672.65222,14.6484375,-82.51953125,65.4296875,-25.87890625,0.0
1734583672.656126,-2.9296875,-84.47265625,77.63671875,-17.578125,0.0
1734583672.6600323,0.9765625,-94.7265625,86.9140625,3.41796875,0.0
1734583672.6639385,-8.7890625,-92.28515625,60.05859375,4.8828125,0.0
1734583672.6678445,-12.20703125,-98.14453125,34.1796875,-3.41796875,0.0
1734583672.6717508,-9.765625,-106.93359375,47.36328125,-10.7421875,0.0
1734583672.675657,-30.76171875,-111.81640625,68.84765625,-11.23046875,0.0
1734583672.6795633,-40.0390625,-112.79296875,64.94140625,-54.19921875,0.0
1734583672.6819909,0.0,-127.9296875,44.921875,-36.62109375,0.0
1734583672.6858969,0.0,-135.7421875,44.921875,-0.9765625,0.0
1734583672.6898031,0.0,-120.1171875,53.7109375,-25.87890625,0.0
1734583672.6937094,0.0,-117.67578125,43.9453125,-49.31640625,0.0
1734583672.6976156,0.0,-125.48828125,34.1796875,-22.94921875,0.0
1734583672.7015216,0.0,-138.18359375,39.0625,1.953125,0.0
1734583672.705428,0.0,-145.5078125,35.64453125,-24.90234375,0.0
1734583672.7093341,0.0,-157.71484375,32.2265625,-27.83203125,0.0
1734583672.7132401,0.0,-176.7578125,22.94921875,-10.7421875,0.0
1734583672.7171464,0.0,-169.43359375,30.76171875,-36.1328125,0.0
1734583672.7210526,0.0,-156.73828125,36.1328125,-60.05859375,0.0
1734583672.7249587,0.0,-161.62109375,13.671875,-25.390625,0.0
1734583672.7271142,-49.8046875,-177.24609375,0.0,-31.73828125,0.0
1734583672.7310205,-62.98828125,-187.98828125,0.0,-69.82421875,0.0
1734583672.7349267,-38.57421875,-186.5234375,0.0,-58.10546875,0.0
1734583672.7388327,-44.43359375,-188.96484375,0.0,-25.390625,0.0
1734583672.742739,-63.96484375,-184.5703125,0.0,-27.34375,0.0
1734583672.7466452,-45.8984375,-171.38671875,0.0,-62.5,0.0
1734583672.7505515,-40.0390625,-184.5703125,0.0,-48.33984375,0.0
1734583672.7544575,-62.98828125,-211.9140625,0.0,-15.13671875,0.0
1734583672.7583637,-56.640625,-205.078125,0.0,-30.2734375,0.0
1734583672.76227,-38.57421875,-166.50390625,0.0,-36.62109375,0.0
1734583672.766176,-49.31640625,-160.64453125,0.0,-56.15234375,0.0
1734583672.7700822,-55.17578125,-176.26953125,0.0,-58.10546875,0.0
1734583672.7722318,-51.26953125,-167.48046875,-17.578125,-37.59765625,0.0
1734583672.776138,-61.5234375,-153.80859375,-4.39453125,-36.62109375,0.0
1734583672.780044,-44.43359375,-145.01953125,-1.953125,-38.0859375,0.0
1734583672.7839503,-16.11328125,-144.04296875,-1.46484375,-28.3203125,0.0
1734583672.7878566,-20.5078125,-140.13671875,35.64453125,-24.90234375,0.0
1734583672.7917626,-32.2265625,-136.71875,56.15234375,-15.13671875,0.0
1734583672.7956688,-17.08984375,-133.7890625,56.15234375,41.50390625,0.0
1734583672.799575,5.37109375,-124.0234375,45.41015625,25.87890625,0.0
1734583672.803481,22.94921875,-104.98046875,77.63671875,-30.76171875,0.0
1734583672.8073874,35.15625,-93.26171875,104.00390625,-18.5546875,0.0
1734583672.8112936,27.34375,-106.4453125,91.30859375,28.3203125,0.0
1734583672.8151996,-8.30078125,-104.4921875,68.84765625,-1.46484375,0.0
1734583672.8170214,-11.71875,-92.28515625,71.77734375,-29.78515625,0.0
1734583672.8209276,-26.85546875,-87.40234375,92.7734375,-45.41015625,0.0
1734583672.8248336,-96.19140625,-96.6796875,123.046875,-65.4296875,0.0
1734583672.82874,-127.9296875,-83.0078125,137.20703125,-72.265625,0.0
1734583672.8326461,-114.74609375,-39.0625,153.80859375,-89.84375,0.0
1734583672.8365521,-116.69921875,-21.484375,165.0390625,-74.21875,0.0
1734583672.8404584,-140.625,-40.0390625,155.76171875,-97.16796875,0.0
1734583672.8443646,-158.69140625,-44.921875,196.77734375,-109.375,0.0
1734583672.8482707,-155.76171875,-21.97265625,238.28125,-83.49609375,0.0
1734583672.852177,-126.953125,-34.66796875,223.14453125,-82.51953125,0.0
1734583672.8560832,-114.2578125,-60.05859375,187.01171875,-68.84765625,0.0
1734583672.8599892,-125.48828125,-72.75390625,153.80859375,-64.453125,0.0
1734583672.862178,-96.6796875,-80.078125,118.1640625,-54.6875,0.0
1734583672.8660843,-105.95703125,-97.16796875,81.54296875,-26.85546875,0.0
1734583672.8699903,-83.984375,-112.79296875,43.9453125,-56.15234375,0.0
1734583672.8738966,-76.66015625,-97.65625,23.92578125,-52.24609375,0.0
1734583672.8778028,-85.44921875,-100.5859375,23.92578125,-26.3671875,0.0
1734583672.8817089,-73.2421875,-119.62890625,0.48828125,-24.4140625,0.0
1734583672.885615,-61.5234375,-108.3984375,-40.52734375,-16.6015625,0.0
1734583672.8895214,-55.6640625,-71.2890625,-50.29296875,-33.69140625,0.0
1734583672.8934274,-139.6484375,-62.98828125,-63.4765625,-83.49609375,0.0
1734583672.8973336,-159.66796875,-73.73046875,-83.0078125,-121.58203125,0.0
1734583672.9012399,-146.97265625,-73.2421875,-102.5390625,-132.32421875,0.0
1734583672.905146,-199.21875,-62.5,-120.1171875,-166.9921875,0.0
1734583672.907153,0.0,-62.01171875,0.0,-192.87109375,0.0
1734583672.9110591,0.0,-63.4765625,0.0,-200.1953125,0.0
1734583672.9149652,0.0,-70.3125,0.0,-199.21875,0.0
1734583672.9188714,0.0,-64.453125,0.0,-204.1015625,0.0
1734583672.9227777,0.0,-56.15234375,0.0,-255.859375,0.0
1734583672.9266837,0.0,-63.4765625,0.0,-279.296875,0.0
1734583672.93059,0.0,-61.5234375,0.0,-259.27734375,0.0
1734583672.9344962,0.0,-42.48046875,0.0,-248.046875,0.0
1734583672.9384022,0.0,-44.43359375,0.0,-270.01953125,0.0
1734583672.9423084,0.0,-43.9453125,0.0,-279.296875,0.0
1734583672.9462147,0.0,-27.83203125,0.0,-230.46875,0.0
1734583672.9501207,0.0,-25.87890625,0.0,-263.18359375,0.0
1734583672.9610052,0.0,-37.59765625,0.0,0.0,0.0
1734583672.9649115,0.0,-47.8515625,0.0,0.0,0.0
1734583672.9688175,0.0,-33.69140625,0.0,0.0,0.0
1734583672.9727237,0.0,-15.625,0.0,0.0,0.0
