timestamps,TP9,AF7,AF8,TP10,Right AUX
1734584000.2231395,-71.2890625,-534.66796875,-330.078125,-10.7421875,0.0
1734584000.2270458,-70.80078125,-541.50390625,-292.48046875,-48.33984375,0.0
1734584000.2309518,-83.0078125,-593.75,-380.37109375,-35.15625,0.0
1734584000.234858,-74.70703125,-596.6796875,-370.1171875,-37.59765625,0.0
1734584000.2387643,-85.44921875,-587.40234375,-367.67578125,-57.6171875,0.0
1734584000.2426705,-84.9609375,-502.44140625,-290.0390625,-11.71875,0.0
1734584000.2465768,-64.94140625,-436.03515625,-223.14453125,-6.34765625,0.0
1734584000.2504828,-62.01171875,-486.81640625,-325.68359375,-24.90234375,0.0
1734584000.254389,-60.546875,-421.875,-243.65234375,-21.484375,0.0
1734584000.2582953,-60.05859375,-327.63671875,-97.65625,-7.8125,0.0
1734584000.2622015,-53.7109375,-325.1953125,-30.76171875,-2.44140625,0.0
1734584000.2628622,-60.546875,-412.109375,-271.484375,-3.90625,0.0
1734584000.2667685,-76.66015625,-335.44921875,-201.171875,0.0,0.0
1734584000.2706747,-85.9375,-216.30859375,200.68359375,18.06640625,0.0
1734584000.274581,-103.515625,-250.9765625,175.78125,1.46484375,0.0
1734584000.278487,-105.95703125,-281.25,66.40625,-5.37109375,0.0
1734584000.2823932,-112.79296875,-299.8046875,80.078125,5.37109375,0.0
1734584000.2862995,-122.0703125,-274.90234375,153.3203125,-24.4140625,0.0
1734584000.2902057,-129.39453125,-283.69140625,153.3203125,-41.015625,0.0
1734584000.294112,-132.8125,-408.203125,-136.71875,-31.73828125,0.0
1734584000.298018,-154.78515625,-326.66015625,59.5703125,-52.24609375,0.0
1734584000.3019242,-159.66796875,-239.74609375,318.84765625,-57.6171875,0.0
1734584000.3058305,-152.83203125,-339.84375,223.14453125,-41.50390625,0.0
1734584000.3067143,-161.62109375,-364.74609375,250.9765625,-50.78125,0.0
1734584000.3106205,-184.5703125,-370.60546875,267.578125,-50.29296875,0.0
1734584000.3145268,-159.66796875,-424.31640625,242.67578125,-22.94921875,0.0
1734584000.318433,-122.0703125,-460.44921875,187.01171875,-7.8125,0.0
1734584000.322339,-139.16015625,-449.70703125,219.7265625,-28.3203125,0.0
1734584000.3262453,-155.2734375,-496.58203125,160.15625,-7.8125,0.0
1734584000.3301516,-119.62890625,-498.046875,183.59375,5.859375,0.0
1734584000.3340578,-95.21484375,-497.55859375,99.12109375,-17.08984375,0.0
1734584000.337964,-113.76953125,-504.8828125,-30.76171875,-18.5546875,0.0
1734584000.34187,-116.69921875,-437.01171875,217.7734375,-12.6953125,0.0
1734584000.3457763,-112.3046875,-445.3125,243.1640625,-1.953125,0.0
1734584000.3496826,-95.703125,-481.93359375,146.97265625,-19.53125,0.0
1734584000.3512974,-67.3828125,-453.125,201.66015625,-22.94921875,0.0
1734584000.3552034,-69.82421875,-422.36328125,240.234375,-18.5546875,0.0
1734584000.3591096,-89.35546875,-479.4921875,192.3828125,0.48828125,0.0
1734584000.363016,-93.26171875,-563.4765625,-41.50390625,21.97265625,0.0
1734584000.3669221,-59.08203125,-492.1875,70.80078125,31.73828125,0.0
1734584000.3708284,-33.203125,-483.3984375,183.10546875,27.83203125,0.0
1734584000.3747344,-4.39453125,-522.4609375,71.77734375,40.0390625,0.0
1734584000.3786407,-34.1796875,-569.3359375,-179.6875,16.11328125,0.0
1734584000.382547,-57.12890625,-475.09765625,41.9921875,-20.01953125,0.0
1734584000.3864532,-27.83203125,-422.36328125,231.4453125,-5.37109375,0.0
1734584000.3903592,-40.52734375,-465.33203125,117.1875,20.5078125,0.0
1734584000.3942654,-33.203125,-454.1015625,95.21484375,6.8359375,0.0
1734584000.396561,-20.99609375,-460.44921875,80.56640625,4.8828125,0.0
1734584000.400467,-51.26953125,-478.02734375,61.03515625,11.71875,0.0
1734584000.4043732,-28.80859375,-491.69921875,-35.64453125,2.44140625,0.0
1734584000.4082794,-32.2265625,-470.703125,-147.4609375,-0.9765625,0.0
1734584000.4121857,-56.15234375,-463.37890625,-98.6328125,-20.99609375,0.0
1734584000.416092,-41.50390625,-505.859375,-220.703125,-7.32421875,0.0
1734584000.419998,-31.25,-560.546875,-393.06640625,30.76171875,0.0
1734584000.4239042,-28.80859375,-548.33984375,-344.7265625,32.2265625,0.0
1734584000.4278104,-34.66796875,-408.203125,-81.54296875,23.92578125,0.0
1734584000.4317167,-18.5546875,-420.8984375,-125.48828125,-0.9765625,0.0
1734584000.4356227,-21.484375,-513.671875,-336.42578125,9.765625,0.0
1734584000.439529,-53.22265625,-457.03125,-229.98046875,19.53125,0.0
1734584000.4413517,-32.71484375,-415.52734375,-149.90234375,16.6015625,0.0
1734584000.4452577,-36.1328125,-469.23828125,-261.71875,47.8515625,0.0
1734584000.449164,-50.29296875,-515.13671875,-403.80859375,15.13671875,0.0
1734584000.4530702,-17.578125,-481.93359375,-334.9609375,-4.8828125,0.0
1734584000.4569764,56.15234375,-445.3125,-291.015625,9.27734375,0.0
1734584000.4608827,28.80859375,-478.515625,-370.1171875,14.16015625,0.0
1734584000.4647887,-34.1796875,-557.6171875,-517.578125,29.296875,0.0
1734584000.468695,-26.3671875,-421.875,-289.55078125,22.94921875,0.0
1734584000.4726012,-5.859375,-371.09375,-149.4140625,8.30078125,0.0
1734584000.4765074,5.859375,-454.1015625,-339.35546875,-2.9296875,0.0
1734584000.4804134,-17.578125,-420.8984375,-265.13671875,-20.5078125,0.0
1734584000.4843197,-33.203125,-348.14453125,-100.5859375,-20.99609375,0.0
1734584000.4862168,-5.37109375,-344.7265625,-107.421875,-28.80859375,0.0
1734584000.4901228,25.390625,-387.6953125,-227.5390625,-23.92578125,0.0
1734584000.494029,1.46484375,-363.76953125,-260.7421875,0.0,0.0
1734584000.4979353,-28.80859375,-312.98828125,-94.7265625,7.32421875,0.0
1734584000.5018415,-24.90234375,-309.08203125,-37.109375,-3.41796875,0.0
1734584000.5057476,-8.7890625,-386.23046875,-235.3515625,-10.7421875,0.0
1734584000.5096538,-14.16015625,-383.30078125,-272.94921875,-1.953125,0.0
1734584000.51356,-3.41796875,-250.9765625,19.04296875,12.6953125,0.0
1734584000.5174663,7.8125,-206.54296875,185.546875,5.37109375,0.0
1734584000.5213723,5.37109375,-250.0,49.31640625,21.484375,0.0
1734584000.5252786,60.546875,-215.33203125,108.88671875,30.76171875,0.0
1734584000.5291848,-10.7421875,-155.2734375,250.0,-11.71875,0.0
1734584000.5409355,-66.40625,-148.92578125,188.4765625,-17.08984375,0.0
1734584000.5448418,-37.109375,-185.05859375,122.0703125,16.11328125,0.0
1734584000.548748,-41.015625,-206.0546875,204.1015625,24.4140625,0.0
1734584000.552654,-2.9296875,-243.1640625,284.1796875,30.76171875,0.0
1734584000.5565603,18.5546875,-327.1484375,213.37890625,31.73828125,0.0
1734584000.5604665,-4.8828125,-418.9453125,80.56640625,28.80859375,0.0
1734584000.5643728,-38.57421875,-375.48828125,208.0078125,5.859375,0.0
1734584000.568279,-48.33984375,-283.203125,364.74609375,-19.53125,0.0
1734584000.572185,-39.55078125,-338.8671875,274.4140625,23.4375,0.0
1734584000.5760913,-48.33984375,-460.44921875,-28.3203125,73.73046875,0.0
1734584000.5799975,-29.78515625,-292.48046875,220.703125,43.9453125,0.0
1734584000.5839038,-29.78515625,-164.0625,413.0859375,1.953125,0.0
1734584000.5900772,-51.7578125,-225.5859375,311.5234375,-13.671875,0.0
1734584000.5939834,-38.57421875,-224.609375,344.7265625,-22.4609375,0.0
1734584000.5978897,-23.92578125,-200.1953125,345.703125,-21.484375,0.0
1734584000.601796,-37.109375,-192.87109375,338.8671875,-20.99609375,0.0
1734584000.605702,-56.15234375,-212.890625,302.734375,-17.08984375,0.0
1734584000.6096082,-50.78125,-212.40234375,283.203125,-11.23046875,0.0
1734584000.6135144,-65.4296875,-139.6484375,354.00390625,-5.37109375,0.0
1734584000.6174207,-55.6640625,-96.19140625,416.015625,-20.01953125,0.0
1734584000.621327,-41.9921875,-166.9921875,347.65625,-33.203125,0.0
1734584000.625233,-90.8203125,-161.1328125,361.81640625,-5.859375,0.0
1734584000.6291392,-87.890625,-19.53125,503.41796875,-12.6953125,0.0
1734584000.6330454,-61.5234375,10.25390625,509.765625,-37.109375,0.0
1734584000.63698,-62.98828125,-41.015625,470.703125,-10.25390625,0.0
1734584000.6408863,-58.59375,-8.30078125,526.3671875,-0.9765625,0.0
1734584000.6447923,-42.48046875,87.890625,615.234375,-20.99609375,0.0
1734584000.6486986,-50.29296875,66.40625,603.02734375,-20.5078125,0.0
1734584000.6526048,-55.17578125,10.25390625,575.68359375,0.9765625,0.0
1734584000.656511,-65.4296875,-14.6484375,614.74609375,14.16015625,0.0
1734584000.6604173,-71.77734375,29.78515625,664.55078125,-6.34765625,0.0
1734584000.6643233,-64.453125,62.01171875,657.2265625,-3.90625,0.0
1734584000.6682296,-60.546875,-56.15234375,537.59765625,1.46484375,0.0
1734584000.6721358,-49.8046875,31.25,645.01953125,-9.27734375,0.0
1734584000.676042,-40.52734375,147.4609375,727.05078125,7.32421875,0.0
1734584000.6799483,-23.92578125,104.98046875,697.265625,17.08984375,0.0
1734584000.6821015,-22.94921875,92.28515625,709.9609375,-0.48828125,0.0
1734584000.6860077,-49.8046875,92.7734375,713.8671875,12.6953125,0.0
1734584000.689914,-54.19921875,81.0546875,708.0078125,45.8984375,0.0
1734584000.6938202,-50.29296875,29.78515625,684.5703125,6.8359375,0.0
1734584000.6977265,-27.34375,38.0859375,686.5234375,-12.6953125,0.0
1734584000.7016325,-31.25,84.47265625,691.89453125,-28.80859375,0.0
1734584000.7055387,-22.94921875,84.47265625,695.3125,-24.90234375,0.0
1734584000.709445,10.7421875,22.4609375,677.734375,6.8359375,0.0
1734584000.7133512,-1.46484375,-19.04296875,703.61328125,-5.859375,0.0
1734584000.7172575,-23.4375,-11.71875,725.5859375,-20.01953125,0.0
1734584000.7211635,-31.73828125,-56.15234375,680.6640625,-13.18359375,0.0
1734584000.7250698,-21.484375,-131.8359375,656.25,9.765625,0.0
1734584000.727766,-4.8828125,-83.0078125,647.94921875,16.11328125,0.0
1734584000.7316723,17.08984375,-17.08984375,644.04296875,25.390625,0.0
1734584000.7355783,29.296875,-42.48046875,574.70703125,22.94921875,0.0
1734584000.7394845,-2.9296875,-103.515625,478.515625,23.4375,0.0
1734584000.7433908,-15.13671875,-40.52734375,527.34375,23.4375,0.0
1734584000.747297,-0.48828125,-16.11328125,524.4140625,2.44140625,0.0
1734584000.751203,8.30078125,-57.6171875,408.203125,-2.9296875,0.0
1734584000.7551093,-7.8125,-104.00390625,239.2578125,22.4609375,0.0
1734584000.7590156,-22.94921875,7.32421875,379.39453125,23.92578125,0.0
1734584000.7629218,-13.671875,79.58984375,384.765625,-11.71875,0.0
1734584000.766828,-6.8359375,59.08203125,151.3671875,-1.46484375,0.0
1734584000.770734,15.13671875,85.44921875,-202.1484375,-7.8125,0.0
1734584000.7723963,23.92578125,122.0703125,-410.64453125,-19.04296875,0.0
1734584000.7763023,26.85546875,134.27734375,-474.609375,-16.6015625,0.0
1734584000.7802086,6.34765625,117.1875,-579.1015625,24.90234375,0.0
1734584000.7841148,24.90234375,161.62109375,-572.75390625,24.90234375,0.0
1734584000.788021,19.53125,204.58984375,-539.55078125,-20.01953125,0.0
1734584000.791927,-20.99609375,183.59375,-542.48046875,-13.671875,0.0
1734584000.7958333,-2.44140625,163.0859375,-555.6640625,9.765625,0.0
1734584000.7997396,-11.23046875,187.98828125,-512.20703125,33.69140625,0.0
1734584000.8036458,-42.48046875,297.36328125,-379.39453125,38.57421875,0.0
1734584000.807552,-33.69140625,305.6640625,-388.18359375,83.49609375,0.0
1734584000.811458,-12.20703125,256.8359375,-458.49609375,61.5234375,0.0
1734584000.8153644,19.04296875,299.8046875,-320.3125,-46.875,0.0
1734584000.8174632,11.23046875,337.890625,-84.9609375,-28.3203125,0.0
1734584000.8213694,-9.27734375,306.15234375,68.84765625,27.34375,0.0
1734584000.8252754,16.6015625,251.46484375,29.296875,-20.01953125,0.0
1734584000.8291817,19.04296875,342.28515625,259.765625,-26.85546875,0.0
1734584000.833088,28.80859375,428.22265625,451.66015625,5.859375,0.0
1734584000.8369942,12.6953125,380.37109375,384.27734375,3.90625,0.0
1734584000.8409002,24.4140625,307.6171875,365.234375,8.30078125,0.0
1734584000.8448064,45.8984375,441.40625,607.421875,45.8984375,0.0
1734584000.8487127,29.78515625,543.9453125,720.21484375,17.08984375,0.0
1734584000.852619,35.64453125,512.20703125,787.59765625,-6.8359375,0.0
1734584000.8565252,34.1796875,541.015625,910.64453125,22.4609375,0.0
1734584000.8604312,8.30078125,559.5703125,913.0859375,44.43359375,0.0
1734584000.8707702,-9.27734375,577.63671875,918.9453125,98.6328125,0.0
1734584000.8746765,-3.90625,561.03515625,925.78125,123.046875,0.0
1734584000.8785827,-21.484375,561.5234375,937.5,168.45703125,0.0
1734584000.882489,-19.53125,587.890625,950.68359375,130.37109375,0.0
1734584000.886395,17.578125,585.44921875,964.35546875,5.859375,0.0
1734584000.8903012,-3.41796875,564.453125,967.28515625,-38.0859375,0.0
1734584000.8942075,-41.9921875,603.02734375,966.796875,-54.19921875,0.0
1734584000.8981137,-27.83203125,677.24609375,969.7265625,-88.8671875,0.0
1734584000.90202,-12.20703125,654.78515625,969.23828125,-74.21875,0.0
1734584000.905926,-22.94921875,578.125,968.75,-32.71484375,0.0
1734584000.9098322,-4.39453125,604.98046875,968.75,-3.90625,0.0
1734584000.9137385,-1.953125,672.8515625,967.7734375,19.53125,0.0
1734584000.9191303,-22.4609375,663.57421875,967.28515625,36.62109375,0.0
1734584000.9230363,-30.76171875,625.9765625,963.37890625,68.84765625,0.0
1734584000.9269426,-36.1328125,668.9453125,959.9609375,113.28125,0.0
1734584000.9308488,-69.3359375,706.54296875,966.796875,201.171875,0.0
1734584000.934755,-95.21484375,713.8671875,961.42578125,248.046875,0.0
1734584000.9386613,-71.2890625,722.16796875,947.265625,93.75,0.0
1734584000.9425673,-82.51953125,748.046875,912.59765625,-97.16796875,0.0
1734584000.9464736,-103.02734375,822.75390625,940.4296875,-166.015625,0.0
1734584000.9503798,-99.609375,803.7109375,792.48046875,-186.5234375,0.0
1734584000.954286,-103.02734375,697.75390625,597.65625,-147.4609375,0.0
1734584000.9581923,-134.765625,851.07421875,691.40625,-116.2109375,0.0
1734584000.9620986,-157.2265625,950.1953125,560.05859375,-95.21484375,0.0
1734584000.965753,0.0,890.13671875,645.5078125,-102.5390625,0.0
1734584000.9696593,0.0,917.48046875,898.4375,-108.3984375,0.0
1734584000.9735653,0.0,968.75,914.55078125,-37.109375,0.0
1734584000.9774716,0.0,968.26171875,914.55078125,-4.39453125,0.0
1734584000.9813778,0.0,967.28515625,922.36328125,-37.59765625,0.0
1734584000.985284,0.0,968.26171875,933.59375,-23.92578125,0.0
1734584000.9891903,0.0,969.7265625,945.80078125,-49.8046875,0.0
1734584000.9930964,0.0,969.23828125,948.2421875,-96.19140625,0.0
1734584000.9970026,0.0,969.23828125,946.77734375,-120.1171875,0.0
1734584001.0009089,0.0,966.796875,941.89453125,-102.05078125,0.0
1734584001.004815,0.0,971.19140625,941.89453125,-70.3125,0.0
1734584001.0087214,0.0,969.7265625,944.3359375,-178.22265625,0.0
1734584001.029647,-226.5625,923.33984375,951.66015625,-215.8203125,0.0
1734584001.0335534,-225.5859375,940.4296875,957.51953125,-146.484375,0.0
1734584001.0374596,-250.9765625,973.6328125,960.44921875,-127.44140625,0.0
1734584001.0413659,-233.3984375,967.28515625,957.03125,-104.4921875,0.0
1734584001.0452719,-198.73046875,969.7265625,954.58984375,-61.03515625,0.0
1734584001.0491781,-225.09765625,969.23828125,956.54296875,-26.3671875,0.0
1734584001.0530844,-220.703125,969.23828125,951.171875,-77.1484375,0.0
1734584001.0569906,-185.05859375,969.23828125,947.75390625,-139.6484375,0.0
1734584001.0608969,-171.38671875,969.23828125,944.82421875,-82.03125,0.0
1734584001.0648031,-183.10546875,969.7265625,952.1484375,-59.08203125,0.0
1734584001.0687094,-195.3125,969.23828125,959.9609375,-105.46875,0.0
1734584001.0726156,-205.56640625,969.23828125,958.49609375,-90.8203125,0.0
1734584001.0643268,-197.75390625,969.23828125,962.40234375,-31.73828125,0.0
1734584001.068233,-188.4765625,969.7265625,958.49609375,-0.48828125,0.0
1734584001.0721393,-157.71484375,969.23828125,952.63671875,-71.77734375,0.0
1734584001.0760455,-125.0,969.23828125,952.1484375,-90.8203125,0.0
1734584001.0799518,-117.1875,969.23828125,953.125,16.11328125,0.0
1734584001.083858,-117.1875,969.23828125,947.75390625,15.625,0.0
1734584001.087764,-115.72265625,969.23828125,946.77734375,40.52734375,0.0
1734584001.0916703,-104.98046875,969.7265625,945.80078125,72.75390625,0.0
1734584001.0955765,-99.609375,969.7265625,940.4296875,21.484375,0.0
1734584001.0994828,-81.0546875,969.23828125,941.40625,57.6171875,0.0
1734584001.103389,-49.31640625,969.23828125,937.98828125,23.4375,0.0
1734584001.1072953,-33.69140625,969.7265625,934.5703125,-3.90625,0.0
1734584001.1050582,-53.22265625,969.23828125,935.05859375,-33.203125,0.0
1734584001.1089644,-31.73828125,969.23828125,931.15234375,15.13671875,0.0
1734584001.1128707,-31.25,969.23828125,928.7109375,78.125,0.0
1734584001.1167767,-51.7578125,969.23828125,927.24609375,-6.34765625,0.0
1734584001.120683,2.44140625,969.23828125,924.31640625,-70.3125,0.0
1734584001.1245892,21.484375,969.23828125,919.921875,-48.828125,0.0
1734584001.1284955,-15.13671875,969.23828125,919.43359375,51.7578125,0.0
1734584001.1324017,-42.96875,969.7265625,916.9921875,159.66796875,0.0
1734584001.1363077,-40.0390625,969.7265625,917.48046875,138.18359375,0.0
1734584001.140214,-2.9296875,969.23828125,913.57421875,89.35546875,0.0
1734584001.1441202,-0.48828125,969.23828125,908.69140625,108.3984375,0.0
1734584001.1480265,-3.41796875,969.7265625,910.64453125,107.421875,0.0
1734584001.1491292,0.0,969.23828125,0.0,63.4765625,0.0
1734584001.1530354,0.0,969.7265625,0.0,69.3359375,0.0
1734584001.1569417,0.0,969.7265625,0.0,194.3359375,0.0
1734584001.160848,0.0,969.23828125,0.0,226.07421875,0.0
1734584001.1647542,0.0,969.23828125,0.0,268.5546875,0.0
1734584001.1686602,0.0,969.23828125,0.0,217.28515625,0.0
1734584001.1725664,0.0,969.23828125,0.0,76.66015625,0.0
1734584001.1764727,0.0,969.7265625,0.0,69.3359375,0.0
1734584001.180379,0.0,969.7265625,0.0,126.46484375,0.0
1734584001.184285,0.0,969.7265625,0.0,112.79296875,0.0
1734584001.1881912,0.0,969.7265625,0.0,135.7421875,0.0
1734584001.1920974,0.0,969.23828125,0.0,118.1640625,0.0
1734584001.1927724,73.73046875,969.7265625,916.9921875,90.33203125,0.0
1734584001.1966784,35.64453125,969.7265625,916.9921875,193.84765625,0.0
1734584001.2005847,37.109375,969.23828125,921.875,199.21875,0.0
1734584001.204491,58.10546875,969.23828125,924.8046875,180.17578125,0.0
1734584001.2083972,80.56640625,969.7265625,925.78125,195.80078125,0.0
1734584001.2123032,112.79296875,969.7265625,913.0859375,186.03515625,0.0
1734584001.2162094,148.4375,969.7265625,883.30078125,135.25390625,0.0
1734584001.2201157,136.71875,969.23828125,887.6953125,126.953125,0.0
1734584001.224022,55.6640625,969.23828125,898.92578125,239.74609375,0.0
1734584001.2279282,46.875,969.23828125,899.4140625,187.5,0.0
1734584001.2318342,100.09765625,969.7265625,902.83203125,77.63671875,0.0
1734584001.2357404,119.62890625,969.7265625,895.5078125,124.0234375,0.0
1734584001.237146,127.44140625,969.7265625,886.23046875,208.984375,0.0
1734584001.2410522,142.578125,969.23828125,871.09375,267.08984375,0.0
1734584001.2449584,152.83203125,969.7265625,854.00390625,297.8515625,0.0
1734584001.2488644,172.8515625,969.7265625,863.76953125,244.62890625,0.0
1734584001.2527707,192.3828125,969.23828125,890.625,172.36328125,0.0
1734584001.256677,190.91796875,969.7265625,852.05078125,233.3984375,0.0
1734584001.2605832,168.9453125,969.23828125,831.54296875,348.6328125,0.0
1734584001.2644894,113.28125,969.23828125,888.18359375,335.44921875,0.0
1734584001.2683954,143.5546875,969.7265625,894.53125,200.68359375,0.0
1734584001.2723017,173.33984375,969.23828125,870.60546875,196.2890625,0.0
1734584001.276208,170.41015625,969.23828125,875.9765625,265.13671875,0.0
1734584001.2801142,205.078125,969.7265625,856.4453125,195.3125,0.0
1734584001.2900095,215.33203125,969.7265625,817.3828125,203.125,0.0
1734584001.2939157,175.29296875,969.23828125,831.54296875,209.9609375,0.0
1734584001.2978218,173.33984375,969.23828125,835.9375,147.4609375,0.0
1734584001.301728,192.3828125,969.23828125,837.890625,138.18359375,0.0
1734584001.3056343,207.03125,969.23828125,791.50390625,169.921875,0.0
1734584001.3095405,219.23828125,969.23828125,718.75,216.796875,0.0
1734584001.3134468,178.7109375,969.23828125,718.26171875,189.453125,0.0
1734584001.3173528,197.265625,969.23828125,699.70703125,187.5,0.0
1734584001.321259,187.01171875,969.23828125,620.60546875,274.90234375,0.0
1734584001.3251653,184.5703125,969.23828125,555.17578125,267.08984375,0.0
1734584001.3290715,201.66015625,969.7265625,658.203125,201.66015625,0.0
1734584001.3329775,151.3671875,969.7265625,658.69140625,111.328125,0.0
1734584001.3387823,155.2734375,969.23828125,604.4921875,139.6484375,0.0
1734584001.3426886,178.7109375,969.23828125,614.74609375,208.49609375,0.0
1734584001.3465946,112.79296875,969.7265625,583.0078125,275.87890625,0.0
1734584001.3505008,100.5859375,969.7265625,546.875,309.08203125,0.0
1734584001.354407,188.96484375,969.23828125,493.65234375,177.24609375,0.0
1734584001.3583133,187.5,969.23828125,463.37890625,43.9453125,0.0
1734584001.3622196,206.0546875,969.23828125,531.25,36.62109375,0.0
1734584001.3661256,207.03125,969.23828125,576.66015625,141.11328125,0.0
1734584001.3700318,208.49609375,969.23828125,371.09375,194.3359375,0.0
1734584001.373938,191.40625,969.7265625,229.4921875,234.375,0.0
1734584001.3778443,172.8515625,969.23828125,392.578125,170.8984375,0.0
1734584001.3817503,217.28515625,969.23828125,406.25,110.83984375,0.0
1734584001.3854141,203.61328125,969.7265625,358.3984375,204.58984375,0.0
1734584001.3893204,178.7109375,969.23828125,427.24609375,158.203125,0.0
1734584001.3932266,198.2421875,969.23828125,430.17578125,111.328125,0.0
1734584001.3971326,224.12109375,969.23828125,280.76171875,143.5546875,0.0
1734584001.401039,219.23828125,969.23828125,-26.3671875,156.73828125,0.0
1734584001.4049451,244.62890625,969.23828125,-414.55078125,201.171875,0.0
1734584001.4088514,231.93359375,969.23828125,-593.26171875,222.16796875,0.0
1734584001.4127576,106.4453125,969.23828125,-653.3203125,234.86328125,0.0
1734584001.4166636,154.296875,969.23828125,-744.140625,234.86328125,0.0
1734584001.42057,162.59765625,969.23828125,-687.01171875,189.453125,0.0
1734584001.4244761,181.15234375,969.23828125,-666.50390625,176.7578125,0.0
1734584001.4283824,181.15234375,969.7265625,-725.09765625,113.76953125,0.0
1734584001.4318666,163.0859375,969.7265625,-675.78125,0.0,0.0
1734584001.435773,184.08203125,969.7265625,-644.04296875,0.0,0.0
1734584001.4396791,150.87890625,969.7265625,-663.57421875,0.0,0.0
1734584001.4435854,154.78515625,969.7265625,-706.54296875,0.0,0.0
1734584001.4474914,152.34375,969.7265625,-691.89453125,0.0,0.0
1734584001.4513977,145.01953125,969.7265625,-679.19921875,0.0,0.0
1734584001.455304,178.22265625,969.23828125,-685.546875,0.0,0.0
1734584001.4592102,199.70703125,969.23828125,-676.26953125,0.0,0.0
1734584001.4631164,151.3671875,969.7265625,-619.62890625,0.0,0.0
1734584001.4670224,132.32421875,969.23828125,-589.84375,0.0,0.0
1734584001.4709287,152.83203125,969.7265625,-610.3515625,0.0,0.0
1734584001.474835,129.39453125,969.7265625,-618.65234375,0.0,0.0
1734584001.4868033,0.0,969.23828125,0.0,172.36328125,0.0
1734584001.4907095,0.0,969.7265625,0.0,165.0390625,0.0
1734584001.4946158,0.0,969.7265625,0.0,114.2578125,0.0
1734584001.4985218,0.0,969.23828125,0.0,83.49609375,0.0
1734584001.502428,0.0,969.7265625,0.0,115.72265625,0.0
1734584001.5063343,0.0,969.7265625,0.0,151.3671875,0.0
1734584001.5102406,0.0,969.7265625,0.0,142.08984375,0.0
1734584001.5141468,0.0,968.26171875,0.0,132.8125,0.0
1734584001.518053,0.0,967.7734375,0.0,126.953125,0.0
1734584001.521959,0.0,970.21484375,0.0,117.1875,0.0
1734584001.5258653,0.0,969.23828125,0.0,177.24609375,0.0
1734584001.5297716,0.0,967.28515625,0.0,153.3203125,0.0
1734584001.5257716,161.62109375,969.23828125,-328.61328125,93.26171875,0.0
1734584001.5296779,163.0859375,969.7265625,-289.55078125,152.83203125,0.0
1734584001.533584,160.15625,919.921875,-275.390625,166.015625,0.0
1734584001.5374904,162.59765625,875.0,-262.6953125,56.640625,0.0
1734584001.5413966,185.546875,851.07421875,-240.234375,49.31640625,0.0
1734584001.5453026,159.1796875,801.26953125,-242.1875,125.48828125,0.0
1734584001.5492089,110.3515625,755.37109375,-235.3515625,195.3125,0.0
1734584001.5531151,120.60546875,745.60546875,-168.45703125,233.3984375,0.0
1734584001.5570214,148.92578125,733.88671875,-146.484375,107.91015625,0.0
1734584001.5609276,114.74609375,698.73046875,-188.96484375,0.9765625,0.0
1734584001.5648336,106.4453125,629.39453125,-267.08984375,77.1484375,0.0
1734584001.56874,120.60546875,622.55859375,-199.70703125,166.015625,0.0
1734584001.5682664,140.13671875,657.2265625,-57.6171875,124.0234375,0.0
1734584001.5721726,172.8515625,613.76953125,-114.74609375,77.63671875,0.0
1734584001.5760787,131.34765625,551.7578125,-170.8984375,110.3515625,0.0
1734584001.579985,112.3046875,537.59765625,-123.046875,83.49609375,0.0
1734584001.5838912,99.12109375,550.29296875,-39.55078125,70.80078125,0.0
1734584001.5877974,101.5625,516.11328125,-88.8671875,130.859375,0.0
1734584001.5917037,140.13671875,470.703125,-203.61328125,186.5234375,0.0
1734584001.5956097,142.08984375,522.94921875,-33.69140625,113.28125,0.0
1734584001.599516,112.79296875,528.80859375,26.3671875,32.71484375,0.0
1734584001.6034222,128.41796875,469.7265625,-58.10546875,115.72265625,0.0
1734584001.6073284,127.9296875,469.7265625,28.80859375,111.328125,0.0
1734584001.6112344,73.73046875,461.42578125,73.2421875,66.40625,0.0
1734584001.6130276,0.0,440.4296875,50.78125,89.84375,0.0
1734584001.6169338,0.0,415.52734375,9.765625,62.5,0.0
1734584001.6208398,0.0,404.78515625,25.87890625,43.45703125,0.0
1734584001.624746,0.0,415.0390625,98.6328125,76.66015625,0.0
1734584001.6286523,0.0,405.76171875,91.796875,96.19140625,0.0
1734584001.6325586,0.0,364.74609375,8.7890625,118.1640625,0.0
1734584001.6364646,0.0,350.5859375,40.0390625,89.84375,0.0
1734584001.6403708,0.0,395.01953125,238.28125,34.1796875,0.0
1734584001.644277,0.0,395.01953125,273.4375,89.35546875,0.0
1734584001.6481833,0.0,356.4453125,203.61328125,126.46484375,0.0
1734584001.6520894,0.0,365.72265625,270.5078125,151.85546875,0.0
1734584001.6559956,0.0,391.6015625,344.23828125,106.93359375,0.0
1734584001.6662362,85.9375,374.0234375,312.98828125,-4.8828125,0.0
1734584001.6701424,55.6640625,329.58984375,210.9375,8.7890625,0.0
1734584001.6740487,62.01171875,353.02734375,253.41796875,69.82421875,0.0
1734584001.677955,76.171875,370.60546875,300.29296875,118.1640625,0.0
1734584001.681861,51.7578125,337.40234375,228.02734375,81.54296875,0.0
1734584001.6857672,73.2421875,307.12890625,131.8359375,21.484375,0.0
1734584001.6896734,76.171875,315.4296875,215.33203125,-13.18359375,0.0
1734584001.6935797,58.10546875,334.47265625,321.77734375,10.25390625,0.0
1734584001.697486,91.796875,301.26953125,244.62890625,60.05859375,0.0
1734584001.701392,77.63671875,237.79296875,110.83984375,77.63671875,0.0
1734584001.7052982,43.9453125,279.78515625,247.0703125,89.84375,0.0
1734584001.7092044,48.828125,313.96484375,325.68359375,70.80078125,0.0
1734584001.715581,0.0,280.76171875,240.234375,75.1953125,0.0
1734584001.719487,0.0,279.296875,223.14453125,113.28125,0.0
1734584001.7233932,0.0,300.78125,241.2109375,28.3203125,0.0
1734584001.7272995,0.0,300.29296875,240.72265625,-55.17578125,0.0
1734584001.7312057,0.0,279.296875,209.47265625,-13.18359375,0.0
1734584001.735112,0.0,268.5546875,194.3359375,40.0390625,0.0
1734584001.739018,0.0,291.015625,245.60546875,74.21875,0.0
1734584001.7429242,0.0,325.1953125,284.1796875,41.015625,0.0
1734584001.7468305,0.0,303.7109375,170.41015625,35.15625,0.0
1734584001.7507367,0.0,307.12890625,170.8984375,53.7109375,0.0
1734584001.754643,0.0,361.81640625,320.3125,54.19921875,0.0
1734584001.758549,0.0,343.75,273.92578125,59.5703125,0.0
1734584001.761822,36.62109375,297.8515625,190.4296875,126.953125,0.0
1734584001.7657282,53.7109375,317.87109375,260.7421875,124.51171875,0.0
1734584001.7696345,32.71484375,351.07421875,321.2890625,31.73828125,0.0
1734584001.7735405,11.23046875,333.0078125,263.18359375,-69.82421875,0.0
1734584001.7774467,24.4140625,294.921875,188.96484375,-0.9765625,0.0
1734584001.781353,40.52734375,303.7109375,249.0234375,89.35546875,0.0
1734584001.7852592,36.62109375,331.54296875,323.2421875,31.25,0.0
1734584001.7891655,-1.953125,325.1953125,305.6640625,14.16015625,0.0
1734584001.7930715,8.7890625,272.4609375,166.50390625,25.390625,0.0
1734584001.7969778,21.97265625,306.15234375,257.32421875,3.90625,0.0
1734584001.800884,20.5078125,353.02734375,360.83984375,19.53125,0.0
1734584001.8047903,33.203125,334.9609375,277.34375,52.24609375,0.0
1734584001.806687,21.484375,336.9140625,294.921875,104.00390625,0.0
1734584001.8105931,26.3671875,358.88671875,346.6796875,92.7734375,0.0
1734584001.8144994,48.828125,359.86328125,317.87109375,36.62109375,0.0
1734584001.8184056,24.90234375,338.8671875,278.3203125,81.54296875,0.0
1734584001.8223119,26.85546875,358.3984375,294.43359375,-19.53125,0.0
1734584001.8262181,54.6875,378.41796875,313.96484375,14.16015625,0.0
1734584001.8301241,17.578125,392.578125,353.02734375,146.484375,0.0
1734584001.8340304,9.765625,370.60546875,287.109375,102.5390625,0.0
1734584001.8379366,44.921875,361.328125,246.58203125,43.9453125,0.0
1734584001.841843,34.66796875,413.57421875,404.296875,0.48828125,0.0
1734584001.8457491,5.37109375,390.13671875,381.34765625,-4.8828125,0.0
1734584001.8496552,5.859375,348.14453125,276.3671875,49.31640625,0.0
1734584001.8519166,9.27734375,362.3046875,291.9921875,0.0,0.0
1734584001.8558228,43.45703125,368.1640625,283.203125,0.0,0.0
1734584001.859729,76.66015625,354.98046875,186.5234375,0.0,0.0
1734584001.863635,51.7578125,341.30859375,150.87890625,0.0,0.0
1734584001.8675413,41.015625,346.19140625,171.875,0.0,0.0
1734584001.8714476,41.9921875,324.70703125,109.375,0.0,0.0
1734584001.8753538,13.671875,296.875,28.3203125,0.0,0.0
1734584001.87926,-4.8828125,267.08984375,-41.9921875,0.0,0.0
1734584001.883166,-15.13671875,293.9453125,52.734375,0.0,0.0
1734584001.8870723,-9.27734375,305.6640625,87.890625,0.0,0.0
1734584001.8909786,0.0,286.62109375,35.15625,0.0,0.0
1734584001.8948848,-9.27734375,275.390625,28.3203125,0.0,0.0
1734584001.8720608,-2.44140625,272.4609375,32.2265625,124.0234375,0.0
1734584001.875967,-7.8125,261.23046875,18.06640625,149.90234375,0.0
1734584001.8798733,9.765625,238.28125,-40.0390625,68.359375,0.0
1734584001.8837793,-2.44140625,235.83984375,-67.3828125,-78.61328125,0.0
1734584001.8876855,-1.46484375,231.93359375,-57.6171875,-70.80078125,0.0
1734584001.8915918,20.99609375,220.21484375,-100.09765625,-5.859375,0.0
1734584001.8954978,2.9296875,194.82421875,-165.52734375,-21.97265625,0.0
1734584001.899404,-9.27734375,184.5703125,-186.03515625,-10.25390625,0.0
1734584001.9033103,3.41796875,240.234375,-79.58984375,1.953125,0.0
1734584001.9072163,13.18359375,233.3984375,-125.48828125,10.25390625,0.0
1734584001.9111226,-21.97265625,187.5,-215.33203125,4.8828125,0.0
1734584001.9150288,-20.01953125,186.5234375,-163.0859375,9.27734375,0.0
1734584001.9403436,0.48828125,179.6875,0.0,11.71875,0.0
1734584001.9442499,-11.23046875,160.15625,0.0,30.2734375,0.0
1734584001.948156,-29.78515625,155.2734375,0.0,2.9296875,0.0
1734584001.9520621,-53.7109375,170.41015625,0.0,-7.32421875,0.0
1734584001.9559684,-36.62109375,163.57421875,0.0,0.9765625,0.0
1734584001.9598746,-11.23046875,137.20703125,0.0,5.859375,0.0
1734584001.9637809,-52.24609375,99.12109375,0.0,-17.578125,0.0
1734584001.967687,-63.96484375,144.04296875,0.0,-45.41015625,0.0
1734584001.9715931,-37.59765625,168.9453125,0.0,-46.38671875,0.0
1734584001.9754994,-39.0625,130.37109375,0.0,-45.8984375,0.0
1734584001.9794056,-62.01171875,145.5078125,0.0,-66.40625,0.0
1734584001.9833117,-77.1484375,148.92578125,0.0,-82.51953125,0.0
1734584001.9866707,-93.26171875,120.60546875,-252.9296875,-102.5390625,0.0
1734584001.990577,-97.16796875,103.02734375,-299.31640625,-109.86328125,0.0
1734584001.994483,-93.26171875,108.3984375,-250.0,-111.81640625,0.0
1734584001.9983892,-106.4453125,108.3984375,-208.49609375,-108.3984375,0.0
1734584002.0022955,-124.51171875,88.8671875,-226.5625,-116.69921875,0.0
1734584002.0062017,-130.37109375,44.43359375,-293.45703125,-134.765625,0.0
1734584002.0101078,-138.18359375,26.3671875,-263.671875,-156.73828125,0.0
1734584002.014014,-153.80859375,22.4609375,-197.265625,-178.22265625,0.0
1734584002.0179203,-134.765625,-1.953125,-195.3125,-189.94140625,0.0
1734584002.0218265,-133.7890625,-74.70703125,-263.18359375,-180.6640625,0.0
1734584002.0257325,-179.6875,-116.69921875,-205.56640625,-190.91796875,0.0
1734584002.0296388,-184.5703125,-111.328125,-59.08203125,-196.2890625,0.0
1734584002.0412831,-179.19921875,-156.25,-106.4453125,-198.2421875,0.0
1734584002.0451894,-158.203125,-209.9609375,-167.96875,-196.77734375,0.0
1734584002.0490956,-150.390625,-215.8203125,-106.93359375,-217.28515625,0.0
1734584002.0530019,-172.36328125,-207.51953125,-79.1015625,-222.16796875,0.0
1734584002.0569081,-156.25,-243.65234375,-136.71875,-211.42578125,0.0
1734584002.0608141,-128.90625,-279.78515625,-167.96875,-203.61328125,0.0
1734584002.0647204,-125.0,-261.71875,-92.7734375,-196.77734375,0.0
1734584002.0686266,-154.78515625,-242.1875,-11.71875,-215.8203125,0.0
1734584002.072533,-166.015625,-280.2734375,-67.87109375,-215.33203125,0.0
1734584002.0764391,-120.1171875,-328.61328125,-167.96875,-194.82421875,0.0
1734584002.0803452,-122.0703125,-274.90234375,-20.99609375,-183.10546875,0.0
1734584002.0842514,-136.71875,-260.7421875,35.15625,-189.94140625,0.0
1734584002.0900276,-126.953125,-291.50390625,-19.53125,-208.49609375,0.0
1734584002.0939338,-114.74609375,-283.203125,30.2734375,-203.125,0.0
1734584002.09784,-105.46875,-276.85546875,69.82421875,-152.83203125,0.0
1734584002.1017463,-87.890625,-278.80859375,56.15234375,-150.87890625,0.0
1734584002.1056523,-99.609375,-288.57421875,11.71875,-199.21875,0.0
1734584002.1095586,-105.46875,-295.8984375,-13.671875,-175.29296875,0.0
1734584002.1134648,-95.21484375,-284.66796875,-4.8828125,-177.24609375,0.0
1734584002.117371,-85.9375,-262.6953125,0.9765625,-222.65625,0.0
1734584002.1212773,-45.8984375,-280.2734375,-44.921875,-205.078125,0.0
1734584002.1251833,-69.82421875,-286.1328125,-25.87890625,-162.109375,0.0
1734584002.1290896,-74.70703125,-240.72265625,115.234375,-148.4375,0.0
1734584002.1329958,-44.43359375,-252.44140625,101.5625,-137.6953125,0.0
1734584002.1444833,-50.29296875,-294.43359375,10.7421875,-118.1640625,0.0
1734584002.1483896,-35.64453125,-269.04296875,57.12890625,-121.09375,0.0
1734584002.1522956,-13.671875,-241.2109375,94.7265625,-100.5859375,0.0
1734584002.1562018,-17.578125,-263.18359375,41.50390625,-112.79296875,0.0
1734584002.160108,-13.18359375,-290.0390625,-17.08984375,-117.67578125,0.0
1734584002.1640143,0.48828125,-313.96484375,-20.99609375,-100.09765625,0.0
1734584002.1679206,6.34765625,-327.63671875,25.87890625,-97.16796875,0.0
1734584002.1718268,5.37109375,-353.515625,4.8828125,-98.6328125,0.0
1734584002.1757329,-21.97265625,-442.3828125,-140.13671875,-74.21875,0.0
1734584002.179639,-8.30078125,-426.7578125,-31.25,-77.1484375,0.0
1734584002.1835454,0.9765625,-409.1796875,18.06640625,-91.30859375,0.0
1734584002.1874516,0.48828125,-454.1015625,-87.40234375,-99.12109375,0.0
1734584002.194057,0.0,-449.70703125,-57.12890625,-109.375,0.0
1734584002.1979632,0.0,-460.44921875,-20.5078125,-81.54296875,0.0
1734584002.2018695,0.0,-542.48046875,-52.734375,-54.6875,0.0
1734584002.2057757,0.0,-624.51171875,-87.890625,-39.55078125,0.0
1734584002.209682,0.0,-636.23046875,-77.1484375,-80.56640625,0.0
1734584002.213588,0.0,-645.5078125,-97.16796875,-101.07421875,0.0
1734584002.2174942,0.0,-651.85546875,-109.86328125,-35.15625,0.0
1734584002.2214005,0.0,-654.296875,-130.37109375,-49.8046875,0.0
1734584002.2253067,0.0,-649.90234375,-144.04296875,-64.94140625,0.0
1734584002.229213,0.0,-640.13671875,-173.33984375,-63.96484375,0.0
1734584002.2331192,0.0,-647.94921875,-232.91015625,-60.05859375,0.0
1734584002.2370253,0.0,-689.94140625,-341.30859375,-30.76171875,0.0
1734584002.2312865,66.89453125,-687.5,-298.33984375,-46.38671875,0.0
1734584002.2351928,82.51953125,-661.62109375,-201.66015625,-43.45703125,0.0
1734584002.239099,70.80078125,-703.61328125,-303.7109375,-11.71875,0.0
1734584002.243005,75.1953125,-731.4453125,-375.9765625,-11.71875,0.0
1734584002.2469113,83.0078125,-708.49609375,-322.75390625,-26.85546875,0.0
1734584002.2508175,76.171875,-723.6328125,-343.26171875,-2.44140625,0.0
1734584002.2547238,83.0078125,-760.25390625,-418.9453125,-16.6015625,0.0
1734584002.25863,86.9140625,-771.97265625,-436.03515625,-20.5078125,0.0
1734584002.262536,84.9609375,-772.4609375,-415.0390625,0.9765625,0.0
1734584002.2664423,82.51953125,-777.34375,-404.296875,-29.78515625,0.0
1734584002.2703485,68.359375,-793.9453125,-385.7421875,1.46484375,0.0
1734584002.2742548,82.51953125,-844.7265625,-448.73046875,25.390625,0.0
1734584002.2824461,101.5625,-796.38671875,-333.984375,-15.13671875,0.0
1734584002.2863524,54.6875,-768.06640625,-321.2890625,-1.46484375,0.0
1734584002.2902586,36.1328125,-791.9921875,-423.33984375,20.01953125,0.0
1734584002.294165,81.54296875,-774.4140625,-386.71875,25.87890625,0.0
1734584002.2980711,87.890625,-759.27734375,-353.02734375,9.765625,0.0
1734584002.3019774,58.59375,-764.16015625,-379.8828125,-5.859375,0.0
1734584002.3058834,70.3125,-778.3203125,-435.05859375,23.92578125,0.0
1734584002.3097897,68.84765625,-766.11328125,-435.05859375,2.44140625,0.0
1734584002.313696,67.3828125,-702.63671875,-341.796875,-18.5546875,0.0
1734584002.3176022,57.6171875,-700.1953125,-365.234375,-3.41796875,0.0
1734584002.3215084,39.55078125,-721.6796875,-437.5,-0.48828125,0.0
1734584002.3254144,46.38671875,-696.77734375,-370.1171875,14.6484375,0.0
1734584002.3211212,69.3359375,-667.96875,-282.71484375,16.11328125,0.0
1734584002.3250272,84.9609375,-673.828125,-301.7578125,13.671875,0.0
1734584002.3289335,62.01171875,-687.01171875,-287.109375,8.7890625,0.0
1734584002.3328397,40.0390625,-655.2734375,-169.921875,3.90625,0.0
1734584002.336746,62.01171875,-633.30078125,-155.76171875,13.671875,0.0
1734584002.3406522,75.1953125,-657.2265625,-272.4609375,23.4375,0.0
1734584002.3445582,68.359375,-648.92578125,-309.5703125,13.671875,0.0
1734584002.3484645,57.6171875,-604.00390625,-211.9140625,13.671875,0.0
1734584002.3523707,61.03515625,-600.5859375,-204.1015625,20.01953125,0.0
1734584002.356277,64.94140625,-612.3046875,-259.27734375,12.20703125,0.0
1734584002.360183,57.6171875,-621.09375,-357.421875,24.90234375,0.0
1734584002.3640893,44.921875,-550.29296875,-273.4375,11.71875,0.0
1734584002.3633153,37.109375,-506.34765625,-238.28125,6.34765625,0.0
1734584002.3672216,51.7578125,-526.3671875,-328.125,26.85546875,0.0
1734584002.3711278,73.2421875,-514.6484375,-344.23828125,31.73828125,0.0
1734584002.3750339,41.9921875,-491.2109375,-306.15234375,15.625,0.0
1734584002.37894,17.578125,-486.81640625,-263.671875,10.25390625,0.0
1734584002.3828464,10.25390625,-518.06640625,-285.15625,2.9296875,0.0
1734584002.3867526,17.08984375,-502.9296875,-203.61328125,9.27734375,0.0
1734584002.3906589,9.765625,-448.73046875,-6.8359375,29.78515625,0.0
1734584002.3945649,6.8359375,-449.70703125,44.921875,31.25,0.0
1734584002.398471,-6.34765625,-466.796875,-39.55078125,25.87890625,0.0
1734584002.4023774,-19.04296875,-454.1015625,-14.6484375,9.27734375,0.0
1734584002.4062836,-20.99609375,-433.59375,63.96484375,-14.6484375,0.0
1734584002.424677,-13.671875,-418.45703125,45.41015625,-17.08984375,0.0
1734584002.4285831,-0.9765625,-416.9921875,-20.5078125,-17.08984375,0.0
1734584002.4324894,-22.94921875,-398.4375,-23.4375,-18.06640625,0.0
1734584002.4363956,-34.1796875,-378.90625,-12.6953125,-22.94921875,0.0
1734584002.440302,-29.296875,-384.765625,-59.5703125,-8.30078125,0.0
1734584002.4442081,-14.16015625,-408.69140625,-116.69921875,-8.7890625,0.0
1734584002.4481142,-23.4375,-375.0,-68.359375,-5.859375,0.0
1734584002.4520204,-32.71484375,-333.0078125,-74.21875,1.953125,0.0
1734584002.4559267,-15.13671875,-359.86328125,-128.90625,0.0,0.0
1734584002.459833,-48.33984375,-374.51171875,-49.8046875,-14.6484375,0.0
1734584002.4637392,-64.94140625,-323.2421875,95.21484375,-29.78515625,0.0
1734584002.4676454,-46.875,-302.24609375,135.25390625,-15.13671875,0.0
1734584002.4677298,-61.5234375,-325.68359375,76.171875,-16.6015625,0.0
1734584002.471636,-71.2890625,-340.33203125,13.18359375,-28.3203125,0.0
1734584002.475542,-43.45703125,-305.6640625,122.0703125,-25.390625,0.0
1734584002.4794483,-19.53125,-289.55078125,182.12890625,7.8125,0.0
1734584002.4833546,-33.203125,-291.015625,122.0703125,2.44140625,0.0
1734584002.4872608,-60.546875,-287.109375,84.9609375,-36.1328125,0.0
1734584002.491167,-51.7578125,-259.27734375,118.1640625,-32.2265625,0.0
1734584002.495073,-15.625,-229.4921875,127.9296875,-5.859375,0.0
1734584002.4989793,-23.4375,-240.234375,69.3359375,-10.25390625,0.0
1734584002.5028856,-5.37109375,-221.6796875,106.4453125,-21.484375,0.0
1734584002.5067918,10.7421875,-186.03515625,158.203125,-18.5546875,0.0
1734584002.510698,14.6484375,-182.6171875,136.71875,-0.9765625,0.0
1734584002.5116498,15.13671875,-212.40234375,16.11328125,11.71875,0.0
1734584002.515556,30.76171875,-187.98828125,25.87890625,-19.53125,0.0
1734584002.5194623,51.7578125,-130.859375,78.61328125,-21.484375,0.0
1734584002.5233684,34.66796875,-143.5546875,-35.15625,-18.5546875,0.0
1734584002.5272746,38.0859375,-156.25,-148.4375,-24.4140625,0.0
1734584002.5311809,51.26953125,-137.6953125,-167.96875,-29.78515625,0.0
1734584002.535087,69.82421875,-120.1171875,-162.109375,-9.765625,0.0
1734584002.5389934,66.40625,-115.72265625,-206.0546875,-2.44140625,0.0
1734584002.5428994,73.73046875,-144.04296875,-307.6171875,-19.53125,0.0
1734584002.5468056,83.984375,-95.21484375,-247.0703125,-22.4609375,0.0
1734584002.5507119,58.10546875,-43.45703125,-187.98828125,-22.94921875,0.0
1734584002.5546181,63.96484375,-61.03515625,-274.90234375,-6.34765625,0.0
1734584002.5567818,48.828125,-68.84765625,-308.59375,-7.32421875,0.0
1734584002.560688,73.2421875,-61.03515625,-302.24609375,13.18359375,0.0
1734584002.5645943,99.12109375,-62.98828125,-338.8671875,23.92578125,0.0
1734584002.5685003,43.45703125,-83.0078125,-377.9296875,-13.18359375,0.0
1734584002.5724065,45.41015625,-85.44921875,-367.67578125,9.27734375,0.0
1734584002.5763128,53.22265625,-98.6328125,-383.30078125,14.16015625,0.0
1734584002.580219,40.52734375,-87.40234375,-384.27734375,-1.46484375,0.0
1734584002.5841253,35.15625,-101.07421875,-453.61328125,15.13671875,0.0
1734584002.5880313,49.8046875,-125.9765625,-484.86328125,21.484375,0.0
1734584002.5919375,38.0859375,-78.125,-403.3203125,2.44140625,0.0
1734584002.5958438,25.87890625,-81.0546875,-455.078125,-32.2265625,0.0
1734584002.59975,38.57421875,-115.234375,-532.71484375,-27.34375,0.0
1734584002.6013849,22.94921875,-106.93359375,-525.87890625,-36.62109375,0.0
1734584002.6052911,14.6484375,-96.19140625,-522.94921875,-49.8046875,0.0
1734584002.6091974,7.8125,-116.2109375,-582.03125,-60.05859375,0.0
1734584002.6131036,-0.9765625,-158.69140625,-666.015625,-74.70703125,0.0
1734584002.6170099,-5.859375,-145.5078125,-633.30078125,-55.17578125,0.0
1734584002.620916,-34.66796875,-148.92578125,-625.0,-49.31640625,0.0
1734584002.6248221,-21.97265625,-171.38671875,-637.6953125,-49.31640625,0.0
1734584002.6287284,-21.484375,-192.3828125,-673.33984375,-46.875,0.0
1734584002.6326346,-26.3671875,-163.0859375,-639.6484375,-44.43359375,0.0
1734584002.6365407,-29.296875,-149.90234375,-622.0703125,-37.59765625,0.0
1734584002.640447,-30.2734375,-159.1796875,-647.94921875,-41.50390625,0.0
1734584002.6443532,-34.1796875,-160.64453125,-618.65234375,-38.0859375,0.0
1734584002.6553981,-47.36328125,-158.69140625,-604.98046875,-39.55078125,0.0
1734584002.6593041,-51.26953125,-155.76171875,-625.0,-47.36328125,0.0
1734584002.6632104,-65.4296875,-178.22265625,-644.53125,-47.8515625,0.0
1734584002.6671166,-44.921875,-173.828125,-619.140625,-37.59765625,0.0
1734584002.671023,-63.4765625,-165.0390625,-612.79296875,-46.38671875,0.0
1734584002.6749291,-65.4296875,-184.5703125,-627.9296875,-75.1953125,0.0
1734584002.6788354,-46.875,-208.984375,-637.20703125,-74.21875,0.0
1734584002.6827414,-66.89453125,-215.33203125,-625.0,-46.875,0.0
1734584002.6866477,-84.9609375,-170.8984375,-602.05078125,-69.82421875,0.0
1734584002.690554,-67.3828125,-181.640625,-632.8125,-82.51953125,0.0
1734584002.6944602,-68.84765625,-215.33203125,-643.5546875,-64.94140625,0.0
1734584002.6983664,-94.23828125,-204.58984375,-621.58203125,-77.63671875,0.0
1734584002.6949124,-90.33203125,-189.453125,-609.375,-81.54296875,0.0
1734584002.6988187,-54.19921875,-198.73046875,-619.140625,-62.98828125,0.0
1734584002.702725,-60.546875,-229.00390625,-635.25390625,-51.26953125,0.0
1734584002.7066312,-90.8203125,-211.42578125,-596.19140625,-57.12890625,0.0
1734584002.7105372,-91.796875,-181.640625,-573.2421875,-64.94140625,0.0
1734584002.7144434,-46.875,-205.078125,-603.02734375,-79.58984375,0.0
1734584002.7183497,-45.41015625,-219.7265625,-613.76953125,-81.54296875,0.0
1734584002.722256,-62.98828125,-180.17578125,-575.1953125,-66.40625,0.0
1734584002.7261622,-45.41015625,-179.19921875,-574.21875,-49.8046875,0.0
1734584002.7300682,-35.64453125,-212.40234375,-595.703125,-23.92578125,0.0
1734584002.7339745,-26.85546875,-242.1875,-609.375,-35.64453125,0.0
1734584002.7378807,-51.26953125,-195.3125,-532.2265625,-74.21875,0.0
1734584002.738002,-70.3125,-168.9453125,-527.34375,-53.7109375,0.0
1734584002.741908,-59.5703125,-196.2890625,-565.91796875,-51.26953125,0.0
1734584002.7458143,-46.38671875,-191.40625,-533.69140625,-74.21875,0.0
1734584002.7497206,-37.59765625,-176.7578125,-515.13671875,-47.36328125,0.0
1734584002.7536268,-41.015625,-174.8046875,-508.30078125,-23.4375,0.0
1734584002.7575328,-37.109375,-208.984375,-529.78515625,-50.29296875,0.0
1734584002.761439,-33.203125,-209.47265625,-484.375,-87.40234375,0.0
1734584002.7653453,-39.0625,-158.69140625,-398.92578125,-83.49609375,0.0
1734584002.7692516,-48.33984375,-153.80859375,-403.80859375,-59.5703125,0.0
1734584002.7731576,-49.31640625,-180.17578125,-445.3125,-70.3125,0.0
1734584002.7770638,-54.19921875,-173.828125,-412.109375,-65.91796875,0.0
1734584002.78097,-34.1796875,-156.25,-374.0234375,-48.828125,0.0
1734584002.7908437,-35.15625,-166.50390625,-385.7421875,-70.3125,0.0
1734584002.7947497,-55.17578125,-189.94140625,-417.48046875,-69.3359375,0.0
1734584002.798656,-52.24609375,-177.24609375,-380.859375,-67.87109375,0.0
1734584002.8025622,-58.59375,-164.0625,-343.75,-60.05859375,0.0
1734584002.8064685,-57.6171875,-184.08203125,-397.4609375,-62.01171875,0.0
1734584002.8103747,-46.38671875,-215.8203125,-458.49609375,-46.875,0.0
1734584002.8142807,-53.7109375,-190.4296875,-394.04296875,-49.8046875,0.0
1734584002.818187,-58.59375,-152.34375,-337.40234375,-77.63671875,0.0
1734584002.8220932,-39.0625,-176.7578125,-394.53125,-67.3828125,0.0
1734584002.8259995,-27.34375,-214.84375,-456.0546875,-48.33984375,0.0
1734584002.8299057,-29.296875,-157.71484375,-331.0546875,-56.640625,0.0
1734584002.8338118,-19.04296875,-125.48828125,-277.34375,-65.4296875,0.0
1734584002.8391232,-32.2265625,-149.90234375,-343.75,-52.24609375,0.0
1734584002.8430295,-38.0859375,-143.06640625,-330.56640625,-66.89453125,0.0
1734584002.8469355,-32.71484375,-129.39453125,-304.19921875,-67.3828125,0.0
1734584002.8508418,-42.48046875,-136.71875,-314.453125,-62.01171875,0.0
1734584002.854748,-51.26953125,-158.203125,-330.078125,-70.80078125,0.0
1734584002.8586543,-49.31640625,-168.9453125,-332.51953125,-79.1015625,0.0
1734584002.8625605,-47.8515625,-146.484375,-287.109375,-87.40234375,0.0
1734584002.8664665,-38.57421875,-128.41796875,-255.859375,-71.2890625,0.0
1734584002.8703728,-57.6171875,-169.921875,-315.91796875,-66.40625,0.0
1734584002.874279,-52.734375,-172.36328125,-315.4296875,-71.77734375,0.0
1734584002.8781853,-61.03515625,-117.67578125,-212.40234375,-64.453125,0.0
1734584002.8820913,-59.5703125,-131.34765625,-231.4453125,-72.265625,0.0
1734584002.8946433,-45.41015625,-166.015625,-283.203125,-69.3359375,0.0
1734584002.8985496,-54.6875,-149.90234375,-223.14453125,-67.3828125,0.0
1734584002.9024558,-50.29296875,-132.8125,-179.19921875,-62.01171875,0.0
1734584002.9063618,-57.6171875,-149.90234375,-199.21875,-50.29296875,0.0
1734584002.910268,-66.40625,-172.8515625,-227.05078125,-48.33984375,0.0
1734584002.9141743,-65.91796875,-176.26953125,-233.3984375,-55.17578125,0.0
1734584002.9180806,-69.82421875,-157.2265625,-197.75390625,-74.21875,0.0
1734584002.9219868,-64.453125,-155.76171875,-201.66015625,-92.7734375,0.0
1734584002.925893,-46.38671875,-207.51953125,-306.640625,-81.0546875,0.0
1734584002.929799,-50.29296875,-181.15234375,-226.07421875,-72.265625,0.0
1734584002.9337053,-65.4296875,-138.671875,-143.5546875,-77.63671875,0.0
1734584002.9376116,-61.5234375,-158.69140625,-210.44921875,-85.9375,0.0
1734584002.9351213,-50.29296875,-157.71484375,-218.26171875,-86.42578125,0.0
1734584002.9390273,-61.03515625,-141.6015625,-192.3828125,-79.58984375,0.0
1734584002.9429336,-64.453125,-150.390625,-212.890625,-67.3828125,0.0
1734584002.9468398,-51.26953125,-168.9453125,-247.0703125,-59.5703125,0.0
1734584002.950746,-62.5,-163.0859375,-243.1640625,-88.8671875,0.0
1734584002.9546523,-64.94140625,-166.015625,-258.7890625,-97.16796875,0.0
1734584002.9585583,-50.29296875,-171.38671875,-275.87890625,-84.9609375,0.0
1734584002.9624646,-31.25,-170.41015625,-285.64453125,-81.0546875,0.0
1734584002.9663708,-69.82421875,-166.015625,-266.6015625,-88.37890625,0.0
1734584002.970277,-75.68359375,-156.25,-246.09375,-78.61328125,0.0
1734584002.9741833,-44.43359375,-164.0625,-262.20703125,-66.89453125,0.0
1734584002.9780896,-45.8984375,-204.58984375,-333.49609375,-74.70703125,0.0
1734584002.9786668,-46.875,-212.890625,-311.03515625,0.0,0.0
1734584002.9825728,-64.94140625,-209.9609375,-238.76953125,0.0,0.0
1734584002.986479,-79.1015625,-261.23046875,-291.50390625,0.0,0.0
1734584002.9903853,-66.40625,-301.26953125,-332.51953125,0.0,0.0
1734584002.9942915,-58.10546875,-303.7109375,-327.63671875,0.0,0.0
1734584002.9981978,-63.96484375,-322.75390625,-361.81640625,0.0,0.0
1734584003.0021038,-55.6640625,-349.12109375,-414.55078125,0.0,0.0
1734584003.00601,-56.15234375,-382.32421875,-482.91015625,0.0,0.0
1734584003.0099163,-65.4296875,-352.5390625,-425.78125,0.0,0.0
1734584003.0138226,-61.5234375,-337.890625,-420.8984375,0.0,0.0
1734584003.0177288,-54.6875,-353.02734375,-470.703125,0.0,0.0
1734584003.0216348,-53.7109375,-348.14453125,-481.93359375,0.0,0.0
1734584003.022973,-59.08203125,-344.7265625,-474.12109375,-74.70703125,0.0
1734584003.026879,-62.01171875,-363.28125,-483.3984375,-82.03125,0.0
1734584003.0307853,-67.87109375,-380.37109375,-519.53125,-76.171875,0.0
1734584003.0346916,-83.49609375,-376.953125,-513.18359375,-85.44921875,0.0
1734584003.0385978,-72.75390625,-386.71875,-528.80859375,-80.078125,0.0
1734584003.0425038,-62.98828125,-405.76171875,-574.70703125,-67.3828125,0.0
1734584003.04641,-67.87109375,-419.921875,-594.23828125,-67.87109375,0.0
1734584003.0503163,-85.9375,-424.8046875,-578.125,-69.3359375,0.0
1734584003.0542226,-77.1484375,-378.90625,-559.08203125,-69.3359375,0.0
1734584003.0581288,-61.03515625,-386.71875,-608.3984375,-82.51953125,0.0
1734584003.0620348,-76.171875,-417.48046875,-634.765625,-63.96484375,0.0
1734584003.065941,-62.5,-401.85546875,-626.953125,-60.05859375,0.0
1734584003.0671165,-41.50390625,-391.11328125,-624.51171875,-83.984375,0.0
1734584003.0710227,-59.08203125,-402.34375,-644.53125,-48.828125,0.0
1734584003.0749288,-80.56640625,-418.45703125,-677.24609375,-87.890625,0.0
1734584003.078835,-93.26171875,-387.20703125,-671.875,-110.3515625,0.0
1734584003.0827413,-90.33203125,-369.62890625,-672.8515625,-89.35546875,0.0
1734584003.0866475,-87.40234375,-403.3203125,-699.21875,-86.9140625,0.0
1734584003.0905535,-84.9609375,-448.2421875,-749.51171875,-76.171875,0.0
1734584003.0944598,-88.8671875,-404.296875,-715.33203125,-81.54296875,0.0
1734584003.098366,-95.21484375,-395.01953125,-716.796875,-88.8671875,0.0
1734584003.1022723,-96.6796875,-455.078125,-754.39453125,-78.125,0.0
1734584003.1061785,-78.125,-463.37890625,-725.5859375,-62.01171875,0.0
1734584003.1100845,-69.3359375,-473.14453125,-728.515625,-60.546875,0.0
1734584003.1119206,-86.42578125,-518.5546875,-756.34765625,-70.3125,0.0
1734584003.1158268,-67.3828125,-566.89453125,-780.76171875,-59.5703125,0.0
1734584003.119733,-56.15234375,-587.40234375,-807.6171875,-50.78125,0.0
1734584003.123639,-72.75390625,-605.46875,-836.9140625,-65.91796875,0.0
1734584003.1275454,-70.3125,-636.23046875,-895.99609375,-72.75390625,0.0
1734584003.1314516,-49.8046875,-693.359375,-928.22265625,-60.05859375,0.0
1734584003.1353579,-56.15234375,-719.23828125,-881.34765625,-54.6875,0.0
1734584003.1392639,-89.35546875,-718.75,-897.4609375,-71.2890625,0.0
1734584003.14317,-79.1015625,-775.390625,-947.75390625,-63.4765625,0.0
1734584003.1470764,-68.359375,-853.02734375,-973.6328125,-41.50390625,0.0
1734584003.1509826,-73.2421875,-888.18359375,-963.37890625,-58.59375,0.0
1734584003.1548886,-75.68359375,-898.4375,-970.21484375,-67.3828125,0.0
1734584003.165419,-68.359375,-929.6875,-995.1171875,-63.96484375,0.0
1734584003.1693254,-50.78125,-970.21484375,-999.51171875,-62.01171875,0.0
1734584003.1732314,-57.12890625,-959.47265625,-1000.0,-56.640625,0.0
1734584003.1771376,-62.5,-958.49609375,-1000.0,-49.31640625,0.0
1734584003.1810439,-64.94140625,-986.81640625,-1000.0,-39.0625,0.0
1734584003.18495,-71.77734375,-996.58203125,-1000.0,-24.90234375,0.0
1734584003.1888561,-64.94140625,-964.84375,-1000.0,-47.36328125,0.0
1734584003.1927624,-76.171875,-943.84765625,-1000.0,-94.23828125,0.0
1734584003.1966686,-70.3125,-968.26171875,-1000.0,-106.93359375,0.0
1734584003.2005749,-50.29296875,-983.88671875,-1000.0,-85.44921875,0.0
1734584003.2044811,-62.01171875,-939.94140625,-1000.0,-80.078125,0.0
1734584003.2083871,-51.7578125,-911.1328125,-1000.0,-74.70703125,0.0
1734584003.213772,-20.99609375,-927.24609375,-1000.0,-67.3828125,0.0
1734584003.2176783,-45.41015625,-925.78125,-1000.0,-64.453125,0.0
1734584003.2215846,-57.12890625,-881.8359375,-1000.0,-49.8046875,0.0
1734584003.2254908,-52.24609375,-865.234375,-1000.0,-47.36328125,0.0
1734584003.2293968,-43.45703125,-864.2578125,-1000.0,-53.22265625,0.0
1734584003.233303,-39.55078125,-852.05078125,-1000.0,-62.5,0.0
1734584003.2372093,-37.109375,-824.21875,-999.51171875,-61.5234375,0.0
1734584003.2411156,-39.55078125,-800.78125,-1000.0,-63.4765625,0.0
1734584003.2450218,-34.1796875,-803.22265625,-999.51171875,-63.96484375,0.0
1734584003.2489278,-18.06640625,-781.73828125,-978.02734375,-42.48046875,0.0
1734584003.252834,-40.52734375,-714.84375,-982.91015625,-59.5703125,0.0
1734584003.2567403,-35.64453125,-705.56640625,-982.91015625,-76.66015625,0.0
1734584003.260095,-37.109375,-719.23828125,-981.93359375,-69.3359375,0.0
1734584003.2640011,-31.73828125,-684.5703125,-948.2421875,-44.43359375,0.0
1734584003.2679074,-19.53125,-653.80859375,-923.828125,-59.5703125,0.0
1734584003.2718134,-35.15625,-654.78515625,-921.875,-71.77734375,0.0
1734584003.2757196,-44.921875,-652.34375,-928.22265625,-67.87109375,0.0
1734584003.279626,-46.875,-620.1171875,-885.25390625,-81.0546875,0.0
1734584003.2835321,-23.92578125,-578.61328125,-835.9375,-94.7265625,0.0
1734584003.2874384,-35.15625,-559.5703125,-828.125,-74.21875,0.0
1734584003.2913444,-38.57421875,-596.6796875,-849.609375,-60.05859375,0.0
1734584003.2952507,-20.5078125,-550.78125,-796.875,-67.3828125,0.0
1734584003.299157,-39.55078125,-494.140625,-757.32421875,-54.19921875,0.0
1734584003.3030632,-30.76171875,-483.88671875,-745.60546875,-69.3359375,0.0
1734584003.3061528,-20.99609375,-450.1953125,-699.21875,-87.40234375,0.0
1734584003.310059,-20.99609375,-426.7578125,-688.4765625,-57.6171875,0.0
1734584003.313965,-28.80859375,-417.48046875,-676.7578125,-58.10546875,0.0
1734584003.3178713,-34.66796875,-413.0859375,-669.43359375,-78.125,0.0
1734584003.3217776,-29.296875,-400.390625,-647.4609375,-71.77734375,0.0
1734584003.3256838,-43.45703125,-391.11328125,-631.34765625,-76.171875,0.0
1734584003.32959,-33.203125,-379.39453125,-633.30078125,-64.453125,0.0
1734584003.333496,-12.20703125,-383.30078125,-632.8125,-59.5703125,0.0
1734584003.3374023,-41.015625,-376.46484375,-584.47265625,-62.98828125,0.0
1734584003.3413086,-55.6640625,-322.265625,-560.546875,-59.5703125,0.0
1734584003.3452148,-36.62109375,-317.87109375,-583.984375,-78.61328125,0.0
1734584003.3491209,-44.43359375,-341.796875,-583.984375,-64.453125,0.0
1734584003.3508365,-36.1328125,-335.9375,-570.3125,-57.12890625,0.0
1734584003.3547428,-28.80859375,-320.3125,-560.05859375,-72.75390625,0.0
1734584003.3586488,-40.52734375,-309.08203125,-554.6875,-70.3125,0.0
1734584003.362555,-48.828125,-314.453125,-566.40625,-57.12890625,0.0
1734584003.3664613,-48.33984375,-296.38671875,-546.875,-69.82421875,0.0
1734584003.3703675,-45.41015625,-292.96875,-534.66796875,-79.1015625,0.0
1734584003.3742735,-44.43359375,-300.78125,-536.62109375,-54.19921875,0.0
1734584003.3781798,-34.66796875,-315.4296875,-576.171875,-64.453125,0.0
1734584003.382086,-49.31640625,-279.78515625,-531.73828125,-68.84765625,0.0
1734584003.3859923,-53.7109375,-249.51171875,-507.8125,-56.640625,0.0
1734584003.3898985,-48.33984375,-259.765625,-526.85546875,-68.359375,0.0
1734584003.3938046,-80.56640625,-262.20703125,-511.23046875,-76.171875,0.0
1734584003.3956378,-63.96484375,-239.2578125,-500.0,-55.17578125,0.0
1734584003.399544,-45.41015625,-231.93359375,-531.73828125,-56.15234375,0.0
1734584003.4034503,-76.171875,-244.62890625,-562.5,-66.89453125,0.0
1734584003.4073563,-72.265625,-236.328125,-559.5703125,-57.12890625,0.0
1734584003.4112625,-73.2421875,-245.1171875,-583.984375,-75.68359375,0.0
1734584003.4151688,-73.73046875,-251.953125,-590.33203125,-76.171875,0.0
1734584003.419075,-78.61328125,-276.85546875,-588.37890625,-74.70703125,0.0
1734584003.422981,-76.66015625,-300.78125,-572.265625,-62.5,0.0
1734584003.4268873,-79.1015625,-266.11328125,-553.22265625,-64.94140625,0.0
1734584003.4307935,-87.890625,-274.90234375,-603.02734375,-73.73046875,0.0
1734584003.4346998,-78.61328125,-317.3828125,-637.6953125,-71.77734375,0.0
1734584003.4386058,-91.30859375,-319.3359375,-635.7421875,-72.75390625,0.0
1734584003.4407806,-101.07421875,-317.3828125,-657.71484375,-60.546875,0.0
1734584003.444687,-90.8203125,-352.5390625,-734.86328125,-66.89453125,0.0
1734584003.4485931,-66.89453125,-390.13671875,-823.2421875,-69.82421875,0.0
1734584003.4524992,-52.734375,-380.859375,-861.81640625,-42.96875,0.0
1734584003.4564054,-87.890625,-381.34765625,-904.78515625,-51.26953125,0.0
1734584003.4603117,-83.0078125,-427.734375,-966.30859375,-73.2421875,0.0
1734584003.464218,-75.1953125,-478.02734375,-997.55859375,-62.5,0.0
1734584003.468124,-77.1484375,-455.078125,-1000.0,-44.921875,0.0
1734584003.4720302,-83.49609375,-442.87109375,-1000.0,-50.78125,0.0
1734584003.4759364,-88.37890625,-494.140625,-1000.0,-69.3359375,0.0
1734584003.4798427,-71.77734375,-508.7890625,-1000.0,-53.7109375,0.0
1734584003.4837487,-80.078125,-501.953125,-1000.0,-41.50390625,0.0
1734584003.503581,-90.8203125,-536.62109375,-1000.0,-55.6640625,0.0
1734584003.507487,-79.1015625,-588.8671875,-1000.0,-69.82421875,0.0
1734584003.5113933,-87.890625,-622.55859375,-1000.0,-50.29296875,0.0
1734584003.5152996,-94.7265625,-648.4375,-1000.0,-48.33984375,0.0
1734584003.5192058,-84.9609375,-698.2421875,-1000.0,-58.10546875,0.0
1734584003.523112,-82.03125,-777.34375,-1000.0,-60.546875,0.0
1734584003.5270183,-97.16796875,-822.265625,-1000.0,-62.98828125,0.0
1734584003.5309243,-89.35546875,-811.5234375,-1000.0,-57.12890625,0.0
1734584003.5348306,-78.125,-849.12109375,-1000.0,-56.640625,0.0
1734584003.5387368,-75.68359375,-915.52734375,-1000.0,-71.2890625,0.0
1734584003.542643,-72.75390625,-962.890625,-1000.0,-47.36328125,0.0
1734584003.5465493,-74.21875,-994.62890625,-1000.0,-48.828125,0.0
1734584003.5467064,-67.3828125,-1000.0,-1000.0,-61.03515625,0.0
1734584003.5506124,-81.0546875,-999.0234375,-1000.0,-61.5234375,0.0
1734584003.5545187,-73.73046875,-1000.0,-1000.0,-61.03515625,0.0
1734584003.558425,-61.5234375,-1000.0,-1000.0,-60.546875,0.0
1734584003.5623312,-58.59375,-1000.0,-1000.0,-42.48046875,0.0
1734584003.5662374,-36.62109375,-1000.0,-1000.0,-22.94921875,0.0
1734584003.5701437,-34.1796875,-1000.0,-1000.0,-51.26953125,0.0
1734584003.5740497,-48.828125,-1000.0,-1000.0,-41.50390625,0.0
1734584003.577956,-42.96875,-1000.0,-1000.0,-27.83203125,0.0
1734584003.5818622,-46.38671875,-1000.0,-1000.0,-37.109375,0.0
1734584003.5857685,-66.89453125,-1000.0,-1000.0,-43.9453125,0.0
1734584003.5896747,-54.6875,-1000.0,-1000.0,-41.50390625,0.0
1734584003.6087263,-35.64453125,-1000.0,-1000.0,-49.31640625,0.0
1734584003.6126325,-24.90234375,-1000.0,-1000.0,-24.4140625,0.0
1734584003.6165388,-43.9453125,-1000.0,-1000.0,-29.296875,0.0
1734584003.6204448,-75.1953125,-1000.0,-1000.0,-42.48046875,0.0
1734584003.624351,-53.7109375,-1000.0,-1000.0,-27.83203125,0.0
1734584003.6282573,-32.71484375,-1000.0,-1000.0,-31.73828125,0.0
1734584003.6321635,-33.203125,-1000.0,-1000.0,-24.4140625,0.0
1734584003.6360698,-23.4375,-985.83984375,-1000.0,-33.203125,0.0
1734584003.639976,-35.15625,-986.328125,-1000.0,-20.01953125,0.0
1734584003.6438823,-34.1796875,-962.40234375,-1000.0,-7.8125,0.0
1734584003.6477885,-34.1796875,-894.04296875,-1000.0,-41.50390625,0.0
1734584003.6516948,-34.66796875,-887.6953125,-1000.0,-25.390625,0.0
1734584003.6436791,-30.76171875,-895.01953125,-1000.0,0.0,0.0
1734584003.6475854,-35.64453125,-852.05078125,-1000.0,-22.4609375,0.0
1734584003.6514916,-31.25,-817.3828125,-999.51171875,-37.109375,0.0
1734584003.655398,-30.76171875,-803.7109375,-992.1875,-32.71484375,0.0
1734584003.6593041,-54.6875,-801.7578125,-992.67578125,-21.484375,0.0
1734584003.6632104,-47.36328125,-774.4140625,-973.6328125,-38.57421875,0.0
1734584003.6671164,-29.296875,-737.79296875,-953.61328125,-36.62109375,0.0
1734584003.6710227,-12.6953125,-722.16796875,-936.03515625,-21.484375,0.0
1734584003.674929,-26.85546875,-718.26171875,-929.19921875,-33.203125,0.0
1734584003.6788352,-53.7109375,-682.6171875,-900.87890625,-20.01953125,0.0
1734584003.6827414,-32.2265625,-629.39453125,-881.8359375,-43.45703125,0.0
1734584003.6866477,-36.1328125,-625.48828125,-882.8125,-53.7109375,0.0
1734584003.6844313,-48.828125,-619.140625,-808.10546875,-38.57421875,0.0
1734584003.6883376,-46.875,-572.265625,-818.359375,-65.4296875,0.0
1734584003.6922438,-49.8046875,-549.8046875,-825.68359375,-68.359375,0.0
1734584003.69615,-32.2265625,-558.59375,-821.77734375,-48.33984375,0.0
1734584003.7000563,-17.08984375,-574.21875,-828.125,-44.43359375,0.0
1734584003.7039623,-28.3203125,-524.4140625,-757.8125,-35.64453125,0.0
1734584003.7078686,-20.5078125,-483.3984375,-715.33203125,-44.921875,0.0
1734584003.7117748,-4.8828125,-503.41796875,-752.9296875,-49.31640625,0.0
1734584003.715681,-23.4375,-507.8125,-721.19140625,-43.9453125,0.0
1734584003.7195873,-17.08984375,-436.5234375,-650.87890625,-53.22265625,0.0
1734584003.7234933,-22.4609375,-429.6875,-676.26953125,-50.78125,0.0
1734584003.7273996,-32.71484375,-456.0546875,-693.359375,-35.64453125,0.0
1734584003.736456,-38.57421875,-433.10546875,-653.80859375,-56.15234375,0.0
1734584003.7403622,-41.50390625,-411.1328125,-626.953125,-59.5703125,0.0
1734584003.7442684,-47.8515625,-412.59765625,-647.94921875,-49.31640625,0.0
1734584003.7481747,-50.78125,-422.8515625,-658.203125,-62.01171875,0.0
1734584003.752081,-47.8515625,-402.34375,-612.3046875,-41.50390625,0.0
1734584003.7559872,-45.8984375,-399.4140625,-616.2109375,-34.66796875,0.0
1734584003.7598932,-46.875,-402.83203125,-623.53515625,-47.36328125,0.0
1734584003.7637994,-41.015625,-418.45703125,-652.83203125,-45.8984375,0.0
1734584003.7677057,-33.69140625,-381.34765625,-595.21484375,-28.80859375,0.0
1734584003.771612,-40.52734375,-341.30859375,-554.6875,-11.23046875,0.0
1734584003.7755182,-20.99609375,-343.26171875,-578.125,-51.26953125,0.0
1734584003.7794244,-39.0625,-346.6796875,-562.98828125,-72.265625,0.0
1734584003.7757463,-57.6171875,-322.265625,-544.921875,-42.96875,0.0
1734584003.7796526,-36.62109375,-311.5234375,-551.26953125,-46.38671875,0.0
1734584003.7835588,-30.2734375,-336.9140625,-568.84765625,-40.0390625,0.0
1734584003.7874649,-46.38671875,-335.44921875,-536.1328125,-31.25,0.0
1734584003.791371,-62.98828125,-307.12890625,-519.53125,-38.57421875,0.0
1734584003.7952774,-49.8046875,-317.3828125,-556.640625,-42.96875,0.0
1734584003.7991836,-44.43359375,-333.0078125,-543.45703125,-65.91796875,0.0
1734584003.8030899,-58.59375,-314.94140625,-513.18359375,-82.03125,0.0
1734584003.8069959,-53.22265625,-297.36328125,-517.08984375,-63.4765625,0.0
1734584003.810902,-46.38671875,-295.41015625,-526.3671875,-46.875,0.0
1734584003.8148084,-48.33984375,-330.078125,-554.6875,-46.875,0.0
1734584003.8187146,-56.15234375,-324.70703125,-478.515625,-41.50390625,0.0
1734584003.8183239,-48.33984375,-269.04296875,-501.953125,-40.0390625,0.0
1734584003.82223,-68.359375,-279.78515625,-514.16015625,-43.9453125,0.0
1734584003.8261364,-55.17578125,-302.24609375,-499.0234375,-50.78125,0.0
1734584003.8300426,-37.59765625,-273.92578125,-482.91015625,-56.640625,0.0
1734584003.8339486,-40.0390625,-258.7890625,-497.55859375,-62.98828125,0.0
1734584003.8378549,-37.59765625,-290.0390625,-516.6015625,-53.22265625,0.0
1734584003.841761,-41.50390625,-323.73046875,-509.27734375,-30.76171875,0.0
1734584003.8456674,-58.10546875,-277.83203125,-464.35546875,-41.015625,0.0
1734584003.8495734,-51.7578125,-260.7421875,-463.8671875,-49.31640625,0.0
1734584003.8534796,-46.38671875,-299.31640625,-483.88671875,-48.828125,0.0
1734584003.8573859,-43.45703125,-280.76171875,-441.40625,-30.76171875,0.0
1734584003.8612921,-32.2265625,-261.23046875,-443.84765625,-34.1796875,0.0
1734584003.8679018,0.0,-261.23046875,0.0,-57.12890625,0.0
1734584003.871808,0.0,-269.53125,0.0,-58.10546875,0.0
1734584003.8757143,0.0,-268.06640625,0.0,-68.84765625,0.0
1734584003.8796203,0.0,-245.60546875,0.0,-38.57421875,0.0
1734584003.8835266,0.0,-246.58203125,0.0,-49.31640625,0.0
1734584003.8874328,0.0,-271.97265625,0.0,-61.5234375,0.0
1734584003.891339,0.0,-275.87890625,0.0,-63.4765625,0.0
1734584003.8952453,0.0,-240.72265625,0.0,-65.91796875,0.0
1734584003.8991513,0.0,-225.5859375,0.0,-42.96875,0.0
1734584003.9030576,0.0,-257.32421875,0.0,-25.87890625,0.0
1734584003.9069638,0.0,-250.48828125,0.0,-39.55078125,0.0
1734584003.91087,0.0,-216.30859375,0.0,-56.15234375,0.0
1734584003.9180353,-46.38671875,-228.02734375,-475.5859375,-86.9140625,0.0
1734584003.9219415,-53.22265625,-267.578125,-514.16015625,-83.0078125,0.0
1734584003.9258478,-51.7578125,-243.1640625,-463.37890625,-91.30859375,0.0
1734584003.929754,-51.7578125,-220.21484375,-424.8046875,-91.30859375,0.0
1734584003.93366,-44.43359375,-235.3515625,-456.54296875,-59.5703125,0.0
1734584003.9375663,-49.8046875,-291.9921875,-549.31640625,-75.1953125,0.0
1734584003.9414725,-54.6875,-261.71875,-437.98828125,-91.796875,0.0
1734584003.9453788,-65.91796875,-195.80078125,-342.28515625,-81.54296875,0.0
1734584003.949285,-49.31640625,-224.12109375,-418.9453125,-69.82421875,0.0
1734584003.953191,-46.38671875,-249.51171875,-439.453125,-58.10546875,0.0
1734584003.9570973,-59.5703125,-219.23828125,-389.16015625,-42.96875,0.0
1734584003.9610035,-23.92578125,-198.73046875,-362.79296875,-51.7578125,0.0
1734584003.9648504,-44.921875,-221.6796875,-412.109375,-54.6875,0.0
1734584003.9687567,-69.82421875,-229.00390625,-402.34375,-58.10546875,0.0
1734584003.972663,-49.31640625,-213.37890625,-362.3046875,-55.17578125,0.0
1734584003.976569,-59.08203125,-213.37890625,-372.0703125,-42.96875,0.0
1734584003.9804752,-63.4765625,-228.02734375,-401.85546875,-49.31640625,0.0
1734584003.9843814,-48.828125,-243.1640625,-414.55078125,-62.5,0.0
1734584003.9882877,-49.8046875,-219.23828125,-363.76953125,-40.52734375,0.0
1734584003.992194,-39.0625,-196.2890625,-338.8671875,-46.875,0.0
1734584003.9961,-41.015625,-234.86328125,-386.23046875,-48.828125,0.0
1734584004.0000062,-64.453125,-234.86328125,-361.328125,-34.66796875,0.0
1734584004.0039124,-65.91796875,-214.84375,-347.16796875,-35.64453125,0.0
1734584004.0078187,-48.33984375,-244.140625,-394.53125,-61.5234375,0.0
1734584004.0106025,-58.59375,-266.6015625,-430.17578125,-63.96484375,0.0
1734584004.0145087,-68.359375,-238.28125,-382.32421875,-61.03515625,0.0
1734584004.0184147,-54.6875,-206.54296875,-333.0078125,-67.3828125,0.0
1734584004.022321,-53.22265625,-220.21484375,-376.46484375,-56.640625,0.0
1734584004.0262272,-40.52734375,-262.20703125,-454.1015625,-54.19921875,0.0
1734584004.0301335,-42.48046875,-254.8828125,-412.109375,-41.50390625,0.0
1734584004.0340397,-51.26953125,-220.703125,-330.56640625,-46.875,0.0
1734584004.0379457,-37.109375,-221.19140625,-351.5625,-69.3359375,0.0
1734584004.041852,-32.71484375,-274.90234375,-484.86328125,-52.734375,0.0
1734584004.0457582,-27.83203125,-242.67578125,-387.20703125,-44.921875,0.0
1734584004.0496645,-33.203125,-195.80078125,-308.59375,-42.48046875,0.0
1734584004.0535705,-33.203125,-221.19140625,-402.34375,-27.83203125,0.0
1734584004.0557482,-29.296875,-229.4921875,-415.0390625,-29.78515625,0.0
1734584004.0596545,-53.22265625,-222.16796875,-393.5546875,-45.41015625,0.0
1734584004.0635607,-40.52734375,-234.86328125,-416.9921875,-51.7578125,0.0
1734584004.067467,-14.16015625,-251.953125,-450.1953125,-79.58984375,0.0
1734584004.071373,-21.97265625,-245.1171875,-435.05859375,-98.14453125,0.0
1734584004.0752792,-31.73828125,-252.44140625,-450.68359375,-70.3125,0.0
1734584004.0791855,-20.01953125,-244.140625,-436.03515625,-69.82421875,0.0
1734584004.0830917,-2.9296875,-262.20703125,-464.84375,-61.03515625,0.0
1734584004.086998,-25.87890625,-270.99609375,-453.61328125,-41.015625,0.0
1734584004.090904,-57.6171875,-213.37890625,-377.44140625,-68.359375,0.0
1734584004.0948102,-59.08203125,-211.42578125,-426.26953125,-90.33203125,0.0
1734584004.0987165,-52.24609375,-250.0,-473.14453125,-81.0546875,0.0
1734584004.1007173,-53.7109375,-235.3515625,-424.31640625,-62.5,0.0
1734584004.1046236,-60.05859375,-211.42578125,-424.31640625,-73.73046875,0.0
1734584004.1085298,-49.31640625,-234.86328125,-477.05078125,-77.63671875,0.0
1734584004.112436,-51.26953125,-253.41796875,-485.3515625,-57.12890625,0.0
1734584004.1163423,-55.17578125,-246.09375,-453.125,-41.9921875,0.0
1734584004.1202483,-44.921875,-259.27734375,-451.66015625,-42.48046875,0.0
1734584004.1241546,-59.08203125,-267.578125,-460.44921875,-57.6171875,0.0
1734584004.1280608,-30.76171875,-291.015625,-488.28125,-42.96875,0.0
1734584004.131967,-8.7890625,-258.30078125,-383.7890625,-26.3671875,0.0
1734584004.135873,-66.89453125,-234.375,-354.98046875,-59.08203125,0.0
1734584004.1397793,-71.77734375,-262.20703125,-420.8984375,-83.49609375,0.0
1734584004.1436856,-50.78125,-251.46484375,-371.09375,-54.19921875,0.0
1734584004.1461785,-40.52734375,-220.703125,-297.8515625,-80.078125,0.0
1734584004.1500847,-37.59765625,-221.6796875,-309.5703125,-93.26171875,0.0
1734584004.153991,-41.50390625,-244.140625,-353.515625,-69.82421875,0.0
1734584004.1578972,-46.38671875,-242.1875,-329.58984375,-66.40625,0.0
1734584004.1618032,-38.57421875,-223.14453125,-285.64453125,-69.3359375,0.0
1734584004.1657095,-34.66796875,-230.46875,-298.33984375,-62.01171875,0.0
1734584004.1696157,-26.3671875,-242.67578125,-316.89453125,-53.22265625,0.0
1734584004.173522,-12.6953125,-246.09375,-323.73046875,-51.7578125,0.0
1734584004.177428,-43.45703125,-199.21875,-195.80078125,-48.828125,0.0
1734584004.1813343,-45.41015625,-205.56640625,-197.75390625,-41.9921875,0.0
1734584004.1852405,-20.01953125,-219.23828125,-214.35546875,-39.55078125,0.0
1734584004.1891468,-20.01953125,-192.87109375,-164.55078125,-53.7109375,0.0
1734584004.1998794,-10.7421875,-169.921875,-115.234375,-52.24609375,0.0
1734584004.2037857,-17.08984375,-178.22265625,-113.76953125,-38.0859375,0.0
1734584004.2076917,-22.94921875,-208.984375,-187.01171875,-15.13671875,0.0
1734584004.211598,-20.01953125,-174.8046875,-112.3046875,-15.13671875,0.0
1734584004.2155042,-15.13671875,-149.90234375,-52.24609375,-33.69140625,0.0
1734584004.2194104,-25.390625,-175.78125,-117.67578125,-29.78515625,0.0
1734584004.2233167,-26.85546875,-203.125,-183.10546875,-32.2265625,0.0
1734584004.2272227,-24.4140625,-142.08984375,-31.73828125,-29.296875,0.0
1734584004.231129,-24.4140625,-104.4921875,68.84765625,-35.15625,0.0
1734584004.2350352,-24.90234375,-139.6484375,24.4140625,-47.8515625,0.0
1734584004.2389414,-31.25,-123.046875,101.07421875,-44.43359375,0.0
1734584004.2428477,-37.59765625,-101.5625,170.41015625,-68.84765625,0.0
1734584004.2484314,-45.8984375,-113.28125,161.62109375,-74.21875,0.0
1734584004.2523377,-37.109375,-109.375,190.4296875,-62.01171875,0.0
1734584004.2562437,-25.87890625,-83.0078125,262.20703125,-74.70703125,0.0
1734584004.26015,-54.6875,-69.82421875,314.94140625,-88.8671875,0.0
1734584004.2640562,-84.47265625,-71.77734375,342.28515625,-106.93359375,0.0
1734584004.2679625,-77.63671875,-88.37890625,335.44921875,-112.79296875,0.0
1734584004.2718687,-79.58984375,-60.546875,381.8359375,-120.1171875,0.0
1734584004.275775,-104.00390625,-27.83203125,479.98046875,-131.34765625,0.0
1734584004.279681,-104.98046875,-33.69140625,596.19140625,-142.578125,0.0
1734584004.2835872,-94.23828125,-68.84765625,593.26171875,-145.5078125,0.0
1734584004.2874935,-115.72265625,-64.94140625,584.47265625,-135.7421875,0.0
1734584004.2913997,-107.91015625,-4.39453125,713.8671875,-141.11328125,0.0
1734584004.2951243,-94.23828125,-10.7421875,717.28515625,-140.13671875,0.0
1734584004.2990305,-110.3515625,-41.50390625,725.5859375,-131.8359375,0.0
1734584004.3029368,-119.140625,-25.87890625,758.30078125,-141.11328125,0.0
1734584004.306843,-113.76953125,-20.01953125,770.01953125,-149.90234375,0.0
1734584004.3107493,-100.09765625,-39.55078125,773.92578125,-143.06640625,0.0
1734584004.3146553,-90.8203125,-47.36328125,770.01953125,-132.32421875,0.0
1734584004.3185616,-102.5390625,-5.37109375,802.24609375,-116.2109375,0.0
1734584004.3224678,-114.74609375,33.69140625,826.171875,-115.234375,0.0
1734584004.326374,-92.28515625,19.53125,823.2421875,-107.91015625,0.0
1734584004.3302803,-58.10546875,-15.625,812.98828125,-82.51953125,0.0
1734584004.3341863,-53.22265625,40.52734375,847.65625,-89.35546875,0.0
1734584004.3380926,-70.3125,77.63671875,856.93359375,-106.4453125,0.0
1734584004.349666,-68.84765625,54.6875,856.93359375,-93.75,0.0
1734584004.3535721,-76.171875,61.5234375,865.234375,-99.12109375,0.0
1734584004.3574784,-78.61328125,85.44921875,859.86328125,-104.98046875,0.0
1734584004.3613846,-76.66015625,93.26171875,862.3046875,-86.9140625,0.0
1734584004.3652909,-77.1484375,81.0546875,859.86328125,-101.5625,0.0
1734584004.3691971,-102.05078125,62.5,854.98046875,-115.234375,0.0
1734584004.3731034,-96.19140625,67.87109375,855.95703125,-116.69921875,0.0
1734584004.3770094,-114.74609375,90.33203125,860.83984375,-119.62890625,0.0
1734584004.3809156,-141.6015625,64.94140625,837.40234375,-120.60546875,0.0
1734584004.384822,-140.625,49.31640625,837.890625,-123.046875,0.0
1734584004.3887281,-158.203125,94.7265625,859.86328125,-155.76171875,0.0
1734584004.3926344,-178.22265625,91.796875,845.21484375,-182.6171875,0.0
1734584004.3898304,-204.58984375,52.734375,836.42578125,-201.171875,0.0
1734584004.3937366,-220.21484375,58.59375,836.9140625,-214.35546875,0.0
1734584004.3976429,-215.8203125,74.21875,833.984375,-221.19140625,0.0
1734584004.401549,-221.19140625,57.12890625,813.4765625,-239.2578125,0.0
1734584004.4054554,-226.5625,25.390625,800.78125,-242.1875,0.0
1734584004.4093614,-218.26171875,12.20703125,794.921875,-223.6328125,0.0
1734584004.4132676,-227.05078125,21.484375,796.38671875,-232.421875,0.0
1734584004.4171739,-221.19140625,11.71875,775.87890625,-224.12109375,0.0
1734584004.42108,-199.21875,-30.76171875,726.07421875,-192.3828125,0.0
1734584004.4249864,-194.82421875,-32.2265625,746.09375,-176.7578125,0.0
1734584004.4288924,-173.828125,-21.97265625,752.44140625,-166.015625,0.0
1734584004.4327986,-151.85546875,-45.8984375,712.40234375,-178.7109375,0.0
1734584004.442087,-159.66796875,-94.7265625,642.578125,-151.85546875,0.0
1734584004.4459932,-152.83203125,-60.05859375,681.15234375,-132.32421875,0.0
1734584004.4498994,-141.11328125,-50.29296875,645.01953125,-130.859375,0.0
1734584004.4538057,-138.671875,-88.8671875,474.609375,-127.44140625,0.0
1734584004.4577117,-114.74609375,-90.8203125,342.7734375,-124.0234375,0.0
1734584004.461618,-88.37890625,-104.4921875,206.0546875,-90.33203125,0.0
1734584004.4655242,-87.890625,-103.02734375,125.48828125,-81.54296875,0.0
1734584004.4694304,-74.21875,-130.859375,-11.23046875,-62.98828125,0.0
1734584004.4733367,-75.1953125,-166.9921875,-154.296875,-52.24609375,0.0
1734584004.477243,-89.84375,-127.44140625,-128.90625,-97.16796875,0.0
1734584004.481149,-83.0078125,-147.94921875,-217.7734375,-77.1484375,0.0
1734584004.4850552,-66.40625,-197.75390625,-342.28515625,-46.38671875,0.0
1734584004.481166,-63.4765625,-205.56640625,-392.08984375,-71.77734375,0.0
1734584004.4850721,-59.08203125,-215.8203125,-442.87109375,-69.3359375,0.0
1734584004.4889781,-56.640625,-228.515625,-474.609375,-41.015625,0.0
1734584004.4928844,-40.52734375,-252.44140625,-509.765625,-40.0390625,0.0
1734584004.4967906,-34.1796875,-254.39453125,-514.6484375,-30.2734375,0.0
1734584004.500697,-39.55078125,-266.6015625,-521.484375,-14.16015625,0.0
1734584004.5046031,-31.73828125,-279.78515625,-532.71484375,-27.83203125,0.0
1734584004.5085094,-24.4140625,-280.2734375,-568.359375,-34.1796875,0.0
1734584004.5124154,-22.4609375,-268.5546875,-560.05859375,-25.390625,0.0
1734584004.5163217,-17.578125,-272.4609375,-549.31640625,-24.4140625,0.0
1734584004.520228,-22.4609375,-290.52734375,-588.37890625,-9.27734375,0.0
1734584004.5241342,-5.37109375,-340.33203125,-645.5078125,0.0,0.0
1734584004.5236576,-5.859375,-300.29296875,-594.23828125,-30.2734375,0.0
1734584004.5275638,-36.62109375,-283.69140625,-603.515625,-26.85546875,0.0
1734584004.53147,-26.85546875,-335.9375,-666.50390625,-19.04296875,0.0
1734584004.5353763,-14.16015625,-357.91015625,-654.296875,-10.7421875,0.0
1734584004.5392823,-11.71875,-396.484375,-665.0390625,-7.32421875,0.0
1734584004.5431886,-16.6015625,-426.7578125,-675.29296875,-13.671875,0.0
1734584004.5470948,-5.859375,-459.9609375,-681.640625,-14.16015625,0.0
1734584004.551001,-3.90625,-502.9296875,-673.33984375,-7.8125,0.0
1734584004.554907,-18.5546875,-484.375,-650.87890625,-8.7890625,0.0
1734584004.5588133,-23.92578125,-503.41796875,-676.26953125,-23.92578125,0.0
1734584004.5627196,-10.25390625,-547.8515625,-685.05859375,-11.23046875,0.0
1734584004.5666258,7.32421875,-555.17578125,-662.109375,5.859375,0.0
1734584004.5696762,-2.44140625,-558.59375,-648.92578125,-10.7421875,0.0
1734584004.5735824,-12.20703125,-581.0546875,-653.3203125,-18.06640625,0.0
1734584004.5774887,-17.578125,-601.5625,-679.19921875,-11.71875,0.0
1734584004.581395,-17.578125,-581.0546875,-654.296875,0.0,0.0
1734584004.5853012,-17.578125,-570.3125,-625.0,0.0,0.0
1734584004.5892072,-27.83203125,-601.5625,-649.90234375,-0.9765625,0.0
1734584004.5931134,-29.296875,-658.69140625,-691.89453125,8.30078125,0.0
1734584004.5970197,-32.2265625,-633.30078125,-609.86328125,-15.13671875,0.0
1734584004.600926,-36.62109375,-574.21875,-575.68359375,-37.59765625,0.0
1734584004.604832,-29.296875,-570.3125,-597.16796875,-24.90234375,0.0
1734584004.6087382,-28.3203125,-547.36328125,-549.31640625,-24.90234375,0.0
1734584004.6126444,-19.04296875,-500.9765625,-535.15625,-31.25,0.0
1734584004.6131275,-21.97265625,-472.65625,-534.1796875,-11.23046875,0.0
1734584004.6170337,-22.94921875,-476.07421875,-554.6875,-21.97265625,0.0
1734584004.62094,-16.6015625,-466.796875,-530.2734375,-39.0625,0.0
1734584004.624846,-21.97265625,-431.15234375,-507.32421875,-40.52734375,0.0
1734584004.6287522,-31.73828125,-423.33984375,-506.8359375,-39.0625,0.0
1734584004.6326585,-36.62109375,-434.08203125,-514.6484375,-31.25,0.0
1734584004.6365647,-35.64453125,-422.8515625,-489.74609375,-31.25,0.0
1734584004.6404707,-32.2265625,-372.0703125,-424.31640625,-42.96875,0.0
1734584004.644377,-36.1328125,-357.421875,-425.29296875,-49.8046875,0.0
1734584004.6482832,-36.62109375,-384.765625,-453.125,-43.9453125,0.0
1734584004.6521895,-31.25,-376.953125,-415.0390625,-35.15625,0.0
1734584004.6560957,-34.66796875,-327.1484375,-353.02734375,-44.43359375,0.0
1734584004.6743813,-41.9921875,-314.94140625,-347.16796875,-50.29296875,0.0
1734584004.6782875,-34.1796875,-332.51953125,-376.46484375,-27.34375,0.0
1734584004.6821938,-32.2265625,-311.5234375,-325.68359375,-20.5078125,0.0
1734584004.6860998,-40.0390625,-287.109375,-283.203125,-20.99609375,0.0
1734584004.690006,-35.15625,-292.96875,-304.6875,-41.015625,0.0
1734584004.6939123,-39.55078125,-319.3359375,-342.28515625,-47.8515625,0.0
1734584004.6978185,-31.25,-289.0625,-274.90234375,-39.55078125,0.0
1734584004.7017248,-38.0859375,-249.51171875,-197.265625,-31.73828125,0.0
1734584004.705631,-39.0625,-272.4609375,-252.44140625,-23.92578125,0.0
1734584004.709537,-23.4375,-298.33984375,-341.796875,-23.4375,0.0
1734584004.7134433,-31.25,-232.421875,-213.37890625,-32.71484375,0.0
1734584004.7173495,-38.0859375,-191.40625,-134.765625,-42.96875,0.0
1734584004.730421,0.0,-222.16796875,0.0,0.0,0.0
1734584004.7343273,0.0,-229.4921875,0.0,0.0,0.0
1734584004.7382336,0.0,-196.2890625,0.0,0.0,0.0
1734584004.7421398,0.0,-180.6640625,0.0,0.0,0.0
1734584004.746046,0.0,-192.87109375,0.0,0.0,0.0
1734584004.7499523,0.0,-196.77734375,0.0,0.0,0.0
1734584004.7538586,0.0,-166.015625,0.0,0.0,0.0
1734584004.7577646,0.0,-153.80859375,0.0,0.0,0.0
1734584004.7616708,0.0,-178.7109375,0.0,0.0,0.0
1734584004.765577,0.0,-166.9921875,0.0,0.0,0.0
1734584004.7694833,0.0,-152.34375,0.0,0.0,0.0
1734584004.7733896,0.0,-159.66796875,0.0,0.0,0.0
1734584004.76728,-60.05859375,-195.80078125,-197.265625,-61.5234375,0.0
1734584004.7711864,-75.68359375,-187.98828125,-173.828125,-59.08203125,0.0
1734584004.7750926,-67.3828125,-138.18359375,-60.546875,-58.59375,0.0
1734584004.7789986,-64.453125,-152.34375,-104.00390625,-59.5703125,0.0
1734584004.7829049,-62.98828125,-183.59375,-168.45703125,-64.453125,0.0
1734584004.786811,-60.05859375,-181.640625,-163.0859375,-59.08203125,0.0
1734584004.7907174,-57.6171875,-167.96875,-135.25390625,-58.10546875,0.0
1734584004.7946236,-104.4921875,-187.01171875,-168.9453125,-74.70703125,0.0
1734584004.7985296,-140.625,-258.30078125,-319.82421875,-84.47265625,0.0
1734584004.8024359,-138.671875,-226.07421875,-238.76953125,-94.7265625,0.0
1734584004.8063421,-142.08984375,-173.828125,-121.58203125,-90.33203125,0.0
1734584004.8102484,-156.73828125,-203.125,-185.546875,-99.609375,0.0
1734584004.809372,-170.8984375,-214.84375,-176.7578125,-117.67578125,0.0
1734584004.8132782,-150.390625,-201.171875,-104.4921875,-87.890625,0.0
1734584004.8171844,-113.76953125,-194.3359375,-64.94140625,-71.2890625,0.0
1734584004.8210907,-114.2578125,-206.54296875,-88.8671875,-66.89453125,0.0
1734584004.824997,-105.46875,-218.75,-97.65625,-41.9921875,0.0
1734584004.828903,-78.125,-219.23828125,-83.49609375,-30.2734375,0.0
1734584004.8328092,-77.1484375,-192.87109375,-30.76171875,-35.15625,0.0
1734584004.8367155,-63.96484375,-193.84765625,-12.20703125,-26.85546875,0.0
1734584004.8406217,-54.6875,-214.35546875,-25.87890625,-39.55078125,0.0
1734584004.844528,-70.80078125,-190.91796875,-5.37109375,-57.6171875,0.0
1734584004.848434,-64.453125,-192.3828125,-25.390625,-44.43359375,0.0
1734584004.8523402,-39.55078125,-217.7734375,-70.3125,-25.390625,0.0
1734584004.8527277,-25.87890625,-190.91796875,-18.5546875,-8.30078125,0.0
1734584004.856634,-28.3203125,-166.50390625,4.8828125,3.90625,0.0
1734584004.86054,-35.15625,-205.56640625,-83.984375,-20.5078125,0.0
1734584004.8644462,-30.76171875,-254.39453125,-166.9921875,-32.2265625,0.0
1734584004.8683524,-35.64453125,-233.3984375,-112.79296875,-39.0625,0.0
1734584004.8722587,-17.578125,-222.16796875,-88.37890625,-16.11328125,0.0
1734584004.8761647,-14.6484375,-242.67578125,-147.4609375,-18.5546875,0.0
1734584004.880071,-29.296875,-295.41015625,-288.0859375,-43.45703125,0.0
1734584004.8839772,-39.55078125,-288.0859375,-266.6015625,-30.2734375,0.0
1734584004.8878834,-52.734375,-237.3046875,-143.06640625,-41.015625,0.0
1734584004.8917897,-34.1796875,-238.28125,-145.5078125,-30.2734375,0.0
1734584004.8956957,-18.06640625,-239.2578125,-177.24609375,-10.25390625,0.0
1734584004.9052877,-19.53125,-228.02734375,-199.70703125,-31.25,0.0
1734584004.909194,-31.73828125,-240.72265625,-230.95703125,-44.921875,0.0
1734584004.9131002,-22.94921875,-257.32421875,-255.859375,-41.9921875,0.0
1734584004.9170065,0.48828125,-241.2109375,-204.58984375,-25.87890625,0.0
1734584004.9209127,-9.765625,-236.81640625,-188.96484375,-15.13671875,0.0
1734584004.9248188,-26.85546875,-268.06640625,-263.671875,-37.109375,0.0
1734584004.928725,-37.59765625,-281.73828125,-319.3359375,-37.109375,0.0
1734584004.9326313,-32.2265625,-278.80859375,-328.61328125,-21.97265625,0.0
1734584004.9365375,-19.53125,-225.09765625,-187.98828125,-32.2265625,0.0
1734584004.9404438,-8.30078125,-212.890625,-166.50390625,-36.62109375,0.0
1734584004.9443498,-11.23046875,-251.46484375,-277.83203125,-33.203125,0.0
1734584004.948256,-32.71484375,-246.58203125,-281.25,-40.0390625,0.0
1734584004.9453082,-34.66796875,-227.05078125,-244.62890625,-55.6640625,0.0
1734584004.9492145,-10.7421875,-234.375,-232.91015625,-28.3203125,0.0
1734584004.9531205,2.9296875,-251.953125,-253.90625,-5.37109375,0.0
1734584004.9570267,-20.99609375,-239.74609375,-248.53515625,-36.62109375,0.0
1734584004.960933,-35.15625,-229.98046875,-247.0703125,-57.6171875,0.0
1734584004.9648392,-43.9453125,-259.765625,-304.19921875,-54.19921875,0.0
1734584004.9687455,-41.015625,-268.06640625,-317.87109375,-43.45703125,0.0
1734584004.9726515,-11.71875,-213.37890625,-209.47265625,-29.78515625,0.0
1734584004.9765577,-20.99609375,-218.26171875,-220.703125,-50.78125,0.0
1734584004.980464,-49.31640625,-265.13671875,-323.2421875,-68.84765625,0.0
1734584004.9843702,-37.59765625,-306.15234375,-386.23046875,-43.45703125,0.0
1734584004.9882762,-18.06640625,-267.578125,-249.0234375,-38.57421875,0.0
1734584004.988066,-2.44140625,-237.3046875,-156.25,-61.5234375,0.0
1734584004.9919722,-1.46484375,-255.37109375,-238.76953125,-58.59375,0.0
1734584004.9958782,-39.55078125,-248.046875,-272.94921875,-47.8515625,0.0
1734584004.9997845,-50.78125,-234.375,-247.55859375,-73.2421875,0.0
1734584005.0036907,-35.15625,-222.65625,-231.93359375,-75.68359375,0.0
1734584005.007597,-15.625,-232.421875,-270.99609375,-44.921875,0.0
1734584005.011503,-1.46484375,-237.79296875,-324.21875,-34.1796875,0.0
1734584005.0154092,-23.4375,-196.77734375,-259.765625,-63.96484375,0.0
1734584005.0193155,-62.98828125,-197.265625,-241.69921875,-86.9140625,0.0
1734584005.0232217,-58.59375,-230.46875,-287.59765625,-77.63671875,0.0
1734584005.027128,-22.94921875,-206.0546875,-207.03125,-65.91796875,0.0
1734584005.031034,-45.8984375,-195.3125,-180.17578125,-83.0078125,0.0
1734584005.040829,-68.359375,-223.6328125,-254.8828125,-77.63671875,0.0
1734584005.044735,-61.03515625,-246.09375,-295.41015625,-65.91796875,0.0
1734584005.0486412,-50.29296875,-229.00390625,-243.65234375,-83.0078125,0.0
1734584005.0525475,-31.73828125,-201.171875,-175.78125,-69.3359375,0.0
1734584005.0564537,-40.0390625,-215.33203125,-205.078125,-63.4765625,0.0
1734584005.0603597,-59.08203125,-255.859375,-319.82421875,-61.03515625,0.0
1734584005.064266,-61.5234375,-237.79296875,-298.33984375,-79.58984375,0.0
1734584005.0681722,-55.17578125,-202.1484375,-199.21875,-89.35546875,0.0
1734584005.0720785,-32.71484375,-216.796875,-218.75,-62.01171875,0.0
1734584005.0759847,-17.08984375,-241.69921875,-300.78125,-45.8984375,0.0
1734584005.0798907,-41.015625,-209.9609375,-237.3046875,-82.51953125,0.0
1734584005.083797,-55.6640625,-232.421875,-195.80078125,-97.65625,0.0
1734584005.0889196,-59.08203125,-311.03515625,-262.20703125,-85.44921875,0.0
1734584005.092826,-52.734375,-334.9609375,-244.62890625,-65.4296875,0.0
1734584005.0967321,-32.2265625,-324.70703125,-171.38671875,-59.5703125,0.0
1734584005.1006384,-46.38671875,-347.16796875,-214.84375,-67.87109375,0.0
1734584005.1045444,-71.77734375,-378.90625,-274.90234375,-65.4296875,0.0
1734584005.1084507,-56.640625,-395.01953125,-289.55078125,-69.82421875,0.0
1734584005.112357,-38.0859375,-368.1640625,-229.4921875,-65.4296875,0.0
1734584005.1162632,-20.01953125,-338.8671875,-161.62109375,-45.41015625,0.0
1734584005.1201694,-37.59765625,-380.37109375,-268.5546875,-38.0859375,0.0
1734584005.1240754,-60.546875,-404.78515625,-339.84375,-47.8515625,0.0
1734584005.1279817,-57.6171875,-351.07421875,-229.4921875,-47.36328125,0.0
1734584005.131888,-41.9921875,-346.6796875,-241.69921875,-54.6875,0.0
1734584005.1441064,0.0,-347.16796875,-268.06640625,-46.38671875,0.0
1734584005.1480126,0.0,-327.63671875,-264.16015625,-38.57421875,0.0
1734584005.151919,0.0,-327.1484375,-289.0625,-65.4296875,0.0
1734584005.155825,0.0,-337.40234375,-325.1953125,-78.61328125,0.0
1734584005.1597311,0.0,-354.00390625,-361.81640625,-60.05859375,0.0
1734584005.1636374,0.0,-344.7265625,-332.51953125,-38.0859375,0.0
1734584005.1675436,0.0,-329.58984375,-314.94140625,-23.4375,0.0
1734584005.17145,0.0,-341.30859375,-367.1875,-62.5,0.0
1734584005.1753561,0.0,-403.80859375,-499.0234375,-65.91796875,0.0
1734584005.1792622,0.0,-365.72265625,-394.53125,-62.5,0.0
1734584005.1831684,0.0,-305.17578125,-270.99609375,-67.87109375,0.0
1734584005.1870747,0.0,-314.453125,-371.09375,-55.6640625,0.0
1734584005.170284,-29.78515625,-292.48046875,-427.734375,-71.2890625,0.0
1734584005.1741903,-50.29296875,-262.20703125,-403.80859375,-69.82421875,0.0
1734584005.1780965,-50.29296875,-274.4140625,-426.7578125,-35.64453125,0.0
1734584005.1820025,-57.12890625,-266.6015625,-407.2265625,-26.3671875,0.0
1734584005.1859088,-49.8046875,-247.55859375,-381.34765625,-50.29296875,0.0
1734584005.189815,-16.11328125,-276.85546875,-454.1015625,-56.640625,0.0
1734584005.1937213,-30.2734375,-286.62109375,-464.84375,-62.01171875,0.0
1734584005.1976273,-53.22265625,-284.66796875,-438.4765625,-60.546875,0.0
1734584005.2015336,-43.9453125,-275.390625,-381.34765625,-47.8515625,0.0
1734584005.2054398,-47.8515625,-274.90234375,-353.515625,-43.9453125,0.0
1734584005.209346,-44.921875,-305.6640625,-398.92578125,-49.8046875,0.0
1734584005.213252,-41.9921875,-366.2109375,-479.98046875,-68.84765625,0.0
1734584005.2220764,-46.38671875,-380.37109375,-426.26953125,-71.77734375,0.0
1734584005.2259827,-42.48046875,-330.56640625,-316.89453125,-48.828125,0.0
1734584005.229889,-39.0625,-357.91015625,-369.140625,-36.62109375,0.0
1734584005.2337952,-41.50390625,-424.8046875,-460.9375,-52.734375,0.0
1734584005.2377012,-40.52734375,-445.80078125,-466.30859375,-50.78125,0.0
1734584005.2416074,-35.64453125,-482.421875,-451.66015625,-49.31640625,0.0
1734584005.2455137,-48.33984375,-528.80859375,-446.2890625,-52.24609375,0.0
1734584005.24942,-35.64453125,-566.40625,-482.91015625,-56.640625,0.0
1734584005.253326,-44.921875,-551.26953125,-440.4296875,-66.89453125,0.0
1734584005.2572322,-68.359375,-540.0390625,-420.41015625,-67.87109375,0.0
1734584005.2611384,-59.5703125,-563.96484375,-432.6171875,-69.3359375,0.0
1734584005.2650447,-37.109375,-587.890625,-406.73828125,-55.6640625,0.0
1734584005.2700086,-27.83203125,-587.40234375,-368.1640625,-34.66796875,0.0
1734584005.2739148,-38.57421875,-615.234375,-410.15625,-34.1796875,0.0
1734584005.277821,-41.9921875,-664.55078125,-478.02734375,-41.9921875,0.0
1734584005.281727,-37.59765625,-665.52734375,-446.77734375,-29.78515625,0.0
1734584005.2856333,-28.3203125,-668.45703125,-397.4609375,-14.6484375,0.0
1734584005.2895396,-6.8359375,-706.0546875,-397.4609375,-17.578125,0.0
1734584005.2934458,-10.25390625,-752.44140625,-445.3125,-28.80859375,0.0
1734584005.2973518,-33.203125,-779.296875,-448.73046875,-36.62109375,0.0
1734584005.301258,-35.64453125,-743.1640625,-367.67578125,-51.7578125,0.0
1734584005.3051643,-20.01953125,-749.51171875,-385.25390625,-37.109375,0.0
1734584005.3090706,-2.9296875,-759.27734375,-382.8125,-19.04296875,0.0
1734584005.3129768,-15.13671875,-767.08984375,-383.30078125,-23.4375,0.0
1734584005.3160138,-41.015625,-796.38671875,-416.015625,-41.015625,0.0
1734584005.3199198,-42.96875,-830.078125,-454.1015625,-53.22265625,0.0
1734584005.323826,-35.64453125,-872.55859375,-503.41796875,-41.015625,0.0
1734584005.3277323,-17.578125,-863.76953125,-426.7578125,-28.80859375,0.0
1734584005.3316386,-24.4140625,-889.16015625,-426.7578125,-26.85546875,0.0
1734584005.3355446,-42.96875,-972.16796875,-527.83203125,-31.25,0.0
1734584005.3394508,-25.390625,-1000.0,-574.21875,-34.66796875,0.0
1734584005.343357,-30.76171875,-999.0234375,-458.0078125,-44.921875,0.0
1734584005.3472633,-31.25,-1000.0,-410.15625,-33.69140625,0.0
1734584005.3511693,-11.71875,-1000.0,-491.69921875,-29.78515625,0.0
1734584005.3550756,-41.50390625,-1000.0,-486.328125,-52.24609375,0.0
1734584005.3589818,-63.4765625,-1000.0,-488.76953125,-57.6171875,0.0
1734584005.396171,-52.734375,-1000.0,-521.97265625,-23.92578125,0.0
1734584005.4000773,-32.2265625,-1000.0,-509.765625,-37.109375,0.0
1734584005.4039836,-17.08984375,-1000.0,-500.48828125,-59.5703125,0.0
1734584005.4078898,-26.85546875,-1000.0,-519.04296875,-46.875,0.0
1734584005.411796,-31.73828125,-1000.0,-534.1796875,-33.203125,0.0
1734584005.4157023,-29.296875,-1000.0,-553.22265625,-33.203125,0.0
1734584005.4196086,-20.99609375,-1000.0,-512.20703125,-53.22265625,0.0
1734584005.4235148,-18.5546875,-1000.0,-493.65234375,-66.40625,0.0
1734584005.427421,-32.2265625,-1000.0,-553.22265625,-60.546875,0.0
1734584005.4313273,-43.45703125,-1000.0,-564.94140625,-40.52734375,0.0
1734584005.4352334,-41.9921875,-1000.0,-533.69140625,-28.3203125,0.0
1734584005.4391396,-35.64453125,-1000.0,-534.1796875,-38.0859375,0.0
1734584005.432345,0.0,-1000.0,-553.7109375,0.0,0.0
1734584005.4362512,0.0,-1000.0,-583.984375,0.0,0.0
1734584005.4401574,0.0,-1000.0,-579.58984375,0.0,0.0
1734584005.4440637,0.0,-1000.0,-563.4765625,0.0,0.0
1734584005.44797,0.0,-1000.0,-563.4765625,0.0,0.0
1734584005.4518762,0.0,-1000.0,-623.046875,0.0,0.0
1734584005.4557824,0.0,-1000.0,-612.3046875,0.0,0.0
1734584005.4596884,0.0,-1000.0,-598.6328125,0.0,0.0
1734584005.4635947,0.0,-1000.0,-626.46484375,0.0,0.0
1734584005.467501,0.0,-1000.0,-618.1640625,0.0,0.0
1734584005.4714072,0.0,-1000.0,-601.07421875,0.0,0.0
1734584005.4753134,0.0,-1000.0,-640.13671875,0.0,0.0
1734584005.4716837,-39.55078125,-1000.0,-683.59375,-47.36328125,0.0
1734584005.47559,-64.453125,-1000.0,-631.34765625,-62.98828125,0.0
1734584005.4794962,-61.5234375,-1000.0,-628.41796875,-72.75390625,0.0
1734584005.4834023,-34.1796875,-1000.0,-647.94921875,-39.0625,0.0
1734584005.4873085,-24.90234375,-1000.0,-683.59375,-20.5078125,0.0
1734584005.4912148,-56.15234375,-1000.0,-742.67578125,-37.109375,0.0
1734584005.495121,-60.546875,-1000.0,-674.31640625,-53.7109375,0.0
1734584005.4990273,-39.55078125,-1000.0,-655.76171875,-51.7578125,0.0
1734584005.5029335,-30.2734375,-1000.0,-663.0859375,-30.76171875,0.0
1734584005.5068395,-40.52734375,-1000.0,-650.390625,-29.296875,0.0
1734584005.5107458,-61.03515625,-1000.0,-664.0625,-49.31640625,0.0
1734584005.514652,-55.6640625,-1000.0,-669.43359375,-47.8515625,0.0
1734584005.5152464,0.0,-1000.0,0.0,0.0,0.0
1734584005.5191526,0.0,-1000.0,0.0,0.0,0.0
1734584005.5230587,0.0,-1000.0,0.0,0.0,0.0
1734584005.526965,0.0,-1000.0,0.0,0.0,0.0
1734584005.5308712,0.0,-1000.0,0.0,0.0,0.0
1734584005.5347774,0.0,-1000.0,0.0,0.0,0.0
1734584005.5386837,0.0,-1000.0,0.0,0.0,0.0
1734584005.5425897,0.0,-1000.0,0.0,0.0,0.0
1734584005.546496,0.0,-999.0234375,0.0,0.0,0.0
1734584005.5504022,0.0,-1000.0,0.0,0.0,0.0
1734584005.5543084,0.0,-990.234375,0.0,0.0,0.0
1734584005.5582147,0.0,-964.84375,0.0,0.0,0.0
1734584005.5581968,-49.31640625,-954.58984375,-705.078125,-51.26953125,0.0
1734584005.562103,-60.05859375,-921.38671875,-754.39453125,-66.40625,0.0
1734584005.5660093,-68.84765625,-910.15625,-804.19921875,-70.80078125,0.0
1734584005.5699155,-58.59375,-921.38671875,-819.3359375,-72.265625,0.0
1734584005.5738215,-38.0859375,-905.2734375,-794.921875,-64.94140625,0.0
1734584005.5777278,-28.3203125,-888.18359375,-816.89453125,-49.8046875,0.0
1734584005.581634,-48.33984375,-861.81640625,-840.8203125,-61.03515625,0.0
1734584005.5855403,-58.59375,-868.1640625,-879.39453125,-74.21875,0.0
1734584005.5894465,-63.96484375,-885.25390625,-906.25,-72.75390625,0.0
1734584005.5933526,-75.1953125,-799.8046875,-895.01953125,-69.3359375,0.0
1734584005.5972588,-50.78125,-762.6953125,-922.36328125,-53.7109375,0.0
1734584005.601165,-41.50390625,-790.52734375,-959.47265625,-59.08203125,0.0
1734584005.611074,-56.15234375,-791.015625,-983.88671875,-60.546875,0.0
1734584005.61498,-51.26953125,-759.27734375,-963.37890625,-63.4765625,0.0
1734584005.6188862,-45.8984375,-755.37109375,-958.49609375,-72.265625,0.0
1734584005.6227925,-43.45703125,-785.15625,-989.2578125,-70.3125,0.0
1734584005.6266987,-51.26953125,-786.1328125,-979.4921875,-77.1484375,0.0
1734584005.630605,-55.6640625,-787.59765625,-990.234375,-81.54296875,0.0
1734584005.6345112,-59.08203125,-787.109375,-1000.0,-69.3359375,0.0
1734584005.6384172,-44.43359375,-802.734375,-998.53515625,-53.22265625,0.0
1734584005.6423235,-31.73828125,-754.39453125,-992.67578125,-47.8515625,0.0
1734584005.6462297,-50.29296875,-726.5625,-997.55859375,-63.96484375,0.0
1734584005.650136,-63.4765625,-747.0703125,-1000.0,-78.125,0.0
1734584005.6540422,-60.546875,-741.69921875,-994.62890625,-71.2890625,0.0
1734584005.6512387,0.0,-717.7734375,-998.53515625,-59.08203125,0.0
1734584005.655145,0.0,-692.3828125,-1000.0,-41.9921875,0.0
1734584005.6590512,0.0,-695.3125,-999.51171875,-39.55078125,0.0
1734584005.6629572,0.0,-714.84375,-1000.0,-66.89453125,0.0
1734584005.6668634,0.0,-694.82421875,-1000.0,-84.9609375,0.0
1734584005.6707697,0.0,-691.40625,-1000.0,-61.03515625,0.0
1734584005.674676,0.0,-682.6171875,-1000.0,-50.78125,0.0
1734584005.6785822,0.0,-653.3203125,-1000.0,-56.15234375,0.0
1734584005.6824882,0.0,-654.296875,-998.53515625,-65.4296875,0.0
1734584005.6863945,0.0,-654.78515625,-1000.0,-68.359375,0.0
1734584005.6903007,0.0,-699.21875,-1000.0,-60.05859375,0.0
1734584005.694207,0.0,-700.1953125,-963.37890625,-51.7578125,0.0
1734584005.6934927,-40.0390625,-629.39453125,-979.4921875,-45.41015625,0.0
1734584005.6973987,-50.29296875,-647.94921875,-1000.0,-47.36328125,0.0
1734584005.701305,-58.59375,-683.59375,-999.0234375,-58.59375,0.0
1734584005.7052112,-59.5703125,-660.15625,-999.51171875,-57.6171875,0.0
1734584005.7091174,-50.78125,-638.671875,-991.69921875,-40.0390625,0.0
1734584005.7130234,-43.45703125,-670.41015625,-999.0234375,-25.87890625,0.0
1734584005.7169297,-59.08203125,-726.07421875,-1000.0,-43.9453125,0.0
1734584005.720836,-80.078125,-669.43359375,-972.16796875,-59.5703125,0.0
1734584005.7247422,-88.8671875,-620.1171875,-988.28125,-65.4296875,0.0
1734584005.7286484,-71.77734375,-645.5078125,-996.09375,-48.33984375,0.0
1734584005.7325544,-52.24609375,-623.53515625,-967.28515625,-22.94921875,0.0
1734584005.7364607,-59.08203125,-609.375,-985.3515625,-34.1796875,0.0
1734584005.7457287,-75.1953125,-617.1875,-1000.0,-52.24609375,0.0
1734584005.749635,-71.2890625,-627.44140625,-999.0234375,-49.8046875,0.0
1734584005.7535412,-68.359375,-618.1640625,-987.3046875,-46.38671875,0.0
1734584005.7574475,-71.77734375,-599.12109375,-982.421875,-57.12890625,0.0
1734584005.7613537,-70.80078125,-590.8203125,-991.69921875,-55.6640625,0.0
1734584005.7652597,-69.82421875,-621.58203125,-998.53515625,-61.03515625,0.0
1734584005.769166,-66.40625,-622.0703125,-976.5625,-57.12890625,0.0
1734584005.7730722,-53.7109375,-539.0625,-980.46875,-57.6171875,0.0
1734584005.7769785,-27.34375,-520.99609375,-996.58203125,-46.875,0.0
1734584005.7808845,-39.0625,-581.0546875,-998.53515625,-41.9921875,0.0
1734584005.7847908,-79.58984375,-602.5390625,-993.1640625,-61.5234375,0.0
1734584005.788697,-69.3359375,-580.56640625,-996.09375,-46.38671875,0.0
1734584005.7944303,-26.3671875,-618.65234375,-1000.0,-20.99609375,0.0
1734584005.7983365,-23.4375,-702.1484375,-999.51171875,-22.94921875,0.0
1734584005.8022428,-43.45703125,-734.86328125,-994.140625,-39.55078125,0.0
1734584005.806149,-65.4296875,-750.48828125,-991.2109375,-60.546875,0.0
1734584005.810055,-80.078125,-790.0390625,-988.28125,-62.5,0.0
1734584005.8139613,-44.921875,-835.44921875,-992.67578125,-18.06640625,0.0
1734584005.8178675,-50.78125,-804.6875,-939.453125,-6.34765625,0.0
1734584005.8217738,-87.40234375,-785.15625,-882.8125,-67.3828125,0.0
1734584005.82568,-84.9609375,-824.70703125,-824.70703125,-61.5234375,0.0
1734584005.829586,-80.56640625,-831.0546875,-788.0859375,-31.73828125,0.0
1734584005.8334923,-100.5859375,-709.47265625,-321.2890625,-66.40625,0.0
1734584005.8373985,-38.57421875,-529.296875,286.1328125,-16.6015625,0.0
1734584005.849735,3.41796875,-455.56640625,387.20703125,31.73828125,0.0
1734584005.8536413,-107.421875,-494.62890625,395.01953125,-72.265625,0.0
1734584005.8575475,-151.3671875,-466.30859375,341.796875,-124.51171875,0.0
1734584005.8614538,-152.34375,-400.390625,213.37890625,-129.8828125,0.0
1734584005.8653598,-135.7421875,-357.421875,305.6640625,-129.39453125,0.0
1734584005.869266,-113.28125,-354.4921875,371.58203125,-111.328125,0.0
1734584005.8731723,-143.5546875,-352.05078125,398.4375,-125.48828125,0.0
1734584005.8770785,-161.62109375,-315.4296875,528.3203125,-152.83203125,0.0
1734584005.8809848,-140.625,-345.703125,469.7265625,-133.30078125,0.0
1734584005.884891,-104.98046875,-352.05078125,394.53125,-99.609375,0.0
1734584005.8887973,-112.3046875,-256.34765625,593.26171875,-116.69921875,0.0
1734584005.8927033,-132.8125,-279.78515625,566.40625,-127.9296875,0.0
1734584005.890726,-107.91015625,-312.01171875,0.0,-102.05078125,0.0
1734584005.8946323,-82.03125,-249.0234375,0.0,-80.56640625,0.0
1734584005.8985386,-62.01171875,-197.75390625,0.0,-47.8515625,0.0
1734584005.9024448,-44.43359375,-145.5078125,0.0,-24.90234375,0.0
1734584005.906351,-29.78515625,-112.3046875,0.0,-22.4609375,0.0
1734584005.9102573,-50.29296875,-106.93359375,0.0,-39.55078125,0.0
1734584005.9141634,-58.10546875,-26.85546875,0.0,-41.9921875,0.0
1734584005.9180696,-41.015625,133.30078125,0.0,-16.6015625,0.0
1734584005.9219759,-9.765625,201.171875,0.0,4.8828125,0.0
1734584005.925882,-6.8359375,243.65234375,0.0,7.32421875,0.0
1734584005.9297884,-26.85546875,369.62890625,0.0,-4.8828125,0.0
1734584005.9336944,-14.6484375,448.2421875,0.0,16.11328125,0.0
1734584005.933931,0.0,412.109375,-59.08203125,61.03515625,0.0
1734584005.9378374,0.0,485.3515625,237.79296875,65.4296875,0.0
1734584005.9417436,0.0,511.71875,372.0703125,36.1328125,0.0
1734584005.9456499,0.0,493.1640625,187.98828125,14.6484375,0.0
1734584005.9495559,0.0,587.40234375,203.125,23.92578125,0.0
1734584005.9534621,0.0,700.1953125,134.27734375,44.921875,0.0
1734584005.9573684,0.0,878.41796875,245.1171875,67.3828125,0.0
1734584005.9612746,0.0,977.05078125,160.15625,45.41015625,0.0
1734584005.9651809,0.0,963.8671875,-160.15625,-9.27734375,0.0
1734584005.969087,0.0,969.23828125,131.34765625,-22.4609375,0.0
1734584005.9729931,0.0,969.7265625,274.4140625,-12.20703125,0.0
1734584005.9768994,0.0,969.7265625,228.02734375,-4.8828125,0.0
1734584005.9545097,25.390625,969.23828125,315.4296875,0.0,0.0
1734584005.9584157,41.9921875,969.23828125,329.1015625,0.0,0.0
1734584005.962322,11.71875,969.23828125,304.6875,0.0,0.0
1734584005.9662282,0.48828125,969.23828125,283.203125,0.0,0.0
1734584005.9701343,-7.32421875,969.23828125,382.32421875,0.0,0.0
1734584005.9740405,0.0,969.23828125,397.4609375,0.0,0.0
1734584005.9779468,24.90234375,969.23828125,292.96875,0.0,0.0
1734584005.9818528,3.41796875,969.23828125,158.203125,0.0,0.0
1734584005.985759,-21.484375,969.23828125,306.640625,0.0,0.0
1734584005.9896653,-16.6015625,969.23828125,441.40625,0.0,0.0
1734584005.9935713,-21.484375,969.7265625,414.0625,0.0,0.0
1734584005.9974775,-19.04296875,969.7265625,395.5078125,0.0,0.0
1734584006.0123012,-6.34765625,969.7265625,431.640625,14.6484375,0.0
1734584006.0162072,-32.71484375,969.7265625,438.96484375,-21.97265625,0.0
1734584006.0201135,-21.97265625,970.21484375,442.3828125,-15.13671875,0.0
1734584006.0240197,-7.32421875,968.26171875,481.93359375,2.44140625,0.0
1734584006.027926,-38.57421875,966.30859375,472.16796875,-35.64453125,0.0
1734584006.031832,-53.7109375,970.703125,419.921875,-44.921875,0.0
1734584006.0357382,-50.78125,876.46484375,332.03125,-35.64453125,0.0
1734584006.0396445,-30.76171875,780.76171875,250.9765625,-9.765625,0.0
1734584006.0435505,-20.01953125,798.828125,488.76953125,12.6953125,0.0
1734584006.0474567,-45.41015625,684.5703125,491.2109375,-20.99609375,0.0
1734584006.051363,-60.546875,563.96484375,349.12109375,-25.87890625,0.0
1734584006.0552692,-57.12890625,601.07421875,390.13671875,7.32421875,0.0
1734584006.0628812,-32.2265625,694.3359375,470.703125,16.11328125,0.0
1734584006.0667872,-27.34375,724.12109375,456.0546875,22.94921875,0.0
1734584006.0706935,-36.62109375,722.65625,348.14453125,-3.41796875,0.0
1734584006.0745997,-36.1328125,784.1796875,338.37890625,-25.87890625,0.0
1734584006.078506,-50.78125,820.80078125,335.9375,-62.98828125,0.0
1734584006.082412,-31.73828125,815.4296875,213.37890625,-63.96484375,0.0
1734584006.0863183,-14.6484375,780.2734375,74.21875,9.27734375,0.0
1734584006.0902245,-45.8984375,822.75390625,177.734375,-12.20703125,0.0
1734584006.0941308,-83.49609375,890.13671875,203.125,-63.96484375,0.0
1734584006.0980368,-56.15234375,943.359375,30.2734375,-20.99609375,0.0
1734584006.101943,-25.390625,974.609375,-233.3984375,17.08984375,0.0
1734584006.1058493,-54.6875,966.30859375,15.13671875,-6.34765625,0.0
1734584006.1103158,0.0,969.7265625,189.94140625,2.9296875,0.0
1734584006.1142218,0.0,969.7265625,-115.72265625,-18.5546875,0.0
1734584006.118128,0.0,969.7265625,-312.01171875,-69.3359375,0.0
1734584006.1220343,0.0,969.7265625,-279.296875,-42.48046875,0.0
1734584006.1259406,0.0,969.7265625,-185.546875,-17.578125,0.0
1734584006.1298466,0.0,969.7265625,-348.14453125,-39.0625,0.0
1734584006.1337528,0.0,969.23828125,-513.18359375,-40.0390625,0.0
1734584006.137659,0.0,969.7265625,-394.04296875,6.8359375,0.0
1734584006.1415653,0.0,969.7265625,-364.74609375,37.59765625,0.0
1734584006.1454713,0.0,969.23828125,-397.4609375,55.6640625,0.0
1734584006.1493776,0.0,969.7265625,-396.484375,38.0859375,0.0
1734584006.1532838,0.0,969.7265625,-443.84765625,-1.46484375,0.0
1734584006.1648614,-41.015625,969.23828125,-499.0234375,2.9296875,0.0
1734584006.1687677,-76.171875,969.23828125,-594.7265625,-28.80859375,0.0
1734584006.1726737,-52.734375,969.23828125,-485.3515625,-14.6484375,0.0
1734584006.17658,-13.671875,969.23828125,-351.5625,28.80859375,0.0
1734584006.1804862,-21.97265625,969.7265625,-436.03515625,10.7421875,0.0
1734584006.1843925,-47.8515625,969.7265625,-660.15625,-8.30078125,0.0
1734584006.1882987,-51.26953125,969.23828125,-547.8515625,-18.5546875,0.0
1734584006.1922047,-14.16015625,969.7265625,-330.56640625,11.23046875,0.0
1734584006.196111,-3.41796875,969.7265625,-395.01953125,25.390625,0.0
1734584006.2000172,-15.625,969.7265625,-526.3671875,18.06640625,0.0
1734584006.2039235,-11.71875,969.23828125,-425.78125,13.671875,0.0
1734584006.2078297,-8.30078125,969.7265625,-279.296875,8.30078125,0.0
1734584006.2213578,12.20703125,969.7265625,-303.7109375,31.73828125,0.0
1734584006.2252638,3.90625,969.23828125,-452.1484375,52.24609375,0.0
1734584006.22917,-28.3203125,969.7265625,-246.58203125,0.0,0.0
1734584006.2330763,-26.85546875,969.7265625,-168.9453125,-15.13671875,0.0
1734584006.2369826,-6.8359375,969.7265625,-322.265625,21.484375,0.0
1734584006.2408888,13.671875,969.23828125,-347.65625,57.6171875,0.0
1734584006.2447948,3.41796875,969.23828125,-245.60546875,61.5234375,0.0
1734584006.248701,-14.16015625,969.7265625,-116.2109375,14.16015625,0.0
1734584006.2526073,-33.69140625,969.7265625,-343.26171875,12.6953125,0.0
1734584006.2565136,-41.50390625,969.23828125,-530.76171875,18.06640625,0.0
1734584006.2604198,-30.2734375,969.7265625,-289.55078125,29.296875,0.0
1734584006.264326,-11.23046875,971.19140625,-240.72265625,68.84765625,0.0
1734584006.263518,-17.578125,967.28515625,-333.49609375,44.921875,0.0
1734584006.2674243,-42.48046875,963.37890625,-331.0546875,14.16015625,0.0
1734584006.2713306,-33.203125,963.8671875,-306.640625,33.69140625,0.0
1734584006.2752368,1.46484375,781.25,-290.52734375,58.59375,0.0
1734584006.2791429,26.3671875,376.46484375,-408.69140625,80.56640625,0.0
1734584006.283049,15.625,-117.67578125,-401.85546875,62.98828125,0.0
1734584006.2869554,-18.06640625,-808.10546875,-301.7578125,17.08984375,0.0
1734584006.2908616,-58.59375,-1000.0,-295.8984375,4.39453125,0.0
1734584006.2947679,-54.19921875,-973.6328125,-560.05859375,29.296875,0.0
1734584006.2986739,-30.76171875,-1000.0,-400.390625,27.34375,0.0
1734584006.30258,-44.921875,-1000.0,1.46484375,-4.39453125,0.0
1734584006.3064864,-50.29296875,-1000.0,-159.66796875,0.48828125,0.0
1734584006.3248968,-61.5234375,-1000.0,0.0,7.8125,0.0
1734584006.3288028,-85.44921875,-1000.0,0.0,-10.7421875,0.0
1734584006.332709,-66.40625,-1000.0,0.0,1.953125,0.0
1734584006.3366153,-65.91796875,-1000.0,0.0,0.0,0.0
1734584006.3405216,-75.1953125,-1000.0,0.0,-10.7421875,0.0
1734584006.3444278,-72.75390625,-1000.0,0.0,-5.859375,0.0
1734584006.348334,-69.82421875,-1000.0,0.0,-16.11328125,0.0
1734584006.3522403,-48.33984375,-1000.0,0.0,-10.7421875,0.0
1734584006.3561463,-32.2265625,-1000.0,0.0,17.578125,0.0
1734584006.3600526,-46.875,-1000.0,0.0,-5.859375,0.0
1734584006.3639588,-66.40625,-1000.0,0.0,-32.2265625,0.0
1734584006.367865,-59.5703125,-1000.0,0.0,-29.78515625,0.0
1734584006.359697,-40.0390625,-1000.0,-337.890625,-8.7890625,0.0
1734584006.3636034,-34.1796875,-1000.0,-223.14453125,-11.71875,0.0
1734584006.3675096,-45.8984375,-1000.0,-337.890625,-17.08984375,0.0
1734584006.3714159,-58.10546875,-1000.0,-537.109375,-13.671875,0.0
1734584006.3753219,-65.4296875,-1000.0,-482.91015625,-44.43359375,0.0
1734584006.379228,-46.875,-993.1640625,-400.87890625,-15.13671875,0.0
1734584006.3831344,-18.06640625,-987.79296875,-418.9453125,-4.8828125,0.0
1734584006.3870406,-28.3203125,-995.60546875,-566.89453125,-41.015625,0.0
1734584006.3909469,-51.7578125,-544.43359375,-517.08984375,-46.38671875,0.0
1734584006.394853,-47.8515625,325.1953125,-441.89453125,-36.62109375,0.0
1734584006.3987591,-45.41015625,780.2734375,-395.01953125,-36.62109375,0.0
1734584006.4026654,-29.78515625,874.0234375,-319.3359375,-35.15625,0.0
1734584006.4002416,-41.50390625,932.12890625,-298.33984375,-24.90234375,0.0
1734584006.4041479,-62.98828125,-960.9375,-304.6875,-62.98828125,0.0
1734584006.4080539,-65.4296875,696.2890625,-431.15234375,-46.38671875,0.0
1734584006.4119601,-38.57421875,157.2265625,-607.91015625,-14.16015625,0.0
1734584006.4158664,-18.06640625,781.25,-249.0234375,-19.53125,0.0
1734584006.4197726,-36.62109375,-957.03125,-195.80078125,-37.109375,0.0
1734584006.4236786,-22.94921875,924.31640625,-425.29296875,-36.1328125,0.0
1734584006.427585,-7.32421875,973.14453125,-519.04296875,-33.69140625,0.0
1734584006.4314911,-27.34375,964.84375,-354.00390625,-46.875,0.0
1734584006.4353974,-26.3671875,979.98046875,-40.0390625,-52.734375,0.0
1734584006.4393036,-30.2734375,645.01953125,-72.265625,-75.1953125,0.0
1734584006.4432096,-64.94140625,335.9375,-241.69921875,-94.7265625,0.0
1734584006.4519527,-91.30859375,208.984375,-232.421875,-109.375,0.0
1734584006.455859,-56.640625,-698.2421875,-214.35546875,-95.703125,0.0
1734584006.4597652,-5.37109375,-1000.0,-228.02734375,-56.640625,0.0
1734584006.4636714,-56.640625,-952.1484375,-62.5,-78.61328125,0.0
1734584006.4675777,-83.0078125,-1000.0,-65.91796875,-100.5859375,0.0
1734584006.4714837,-54.6875,-1000.0,-322.265625,-86.9140625,0.0
1734584006.47539,-31.25,-1000.0,-542.96875,-74.70703125,0.0
1734584006.4792962,-10.25390625,-1000.0,-210.44921875,-57.12890625,0.0
1734584006.4832025,-29.296875,-1000.0,148.4375,-88.37890625,0.0
1734584006.4871087,-61.5234375,-1000.0,-116.69921875,-120.1171875,0.0
1734584006.491015,-54.19921875,-1000.0,-201.171875,-106.93359375,0.0
1734584006.494921,-54.19921875,-1000.0,-27.34375,-82.51953125,0.0
1734584006.4914753,-44.43359375,-1000.0,156.25,-84.47265625,0.0
1734584006.4953816,-48.33984375,-1000.0,146.484375,-104.98046875,0.0
1734584006.4992878,-94.7265625,-1000.0,-22.4609375,-109.86328125,0.0
1734584006.5031939,-86.42578125,-1000.0,108.88671875,-88.37890625,0.0
1734584006.5071,-75.68359375,-977.05078125,172.8515625,-70.80078125,0.0
1734584006.5110064,-50.29296875,-1000.0,83.0078125,-71.2890625,0.0
1734584006.5149126,-53.22265625,-798.828125,94.23828125,-83.49609375,0.0
1734584006.5188186,-75.68359375,-159.66796875,202.63671875,-82.03125,0.0
1734584006.5227249,-61.5234375,221.6796875,193.84765625,-83.984375,0.0
1734584006.526631,-96.19140625,743.1640625,6.8359375,-101.5625,0.0
1734584006.5305374,-71.77734375,989.74609375,-120.1171875,-51.26953125,0.0
1734584006.5344436,-25.390625,948.73046875,224.609375,-32.71484375,0.0
1734584006.550976,-39.0625,972.16796875,0.0,-66.40625,0.0
1734584006.5548823,-65.91796875,973.14453125,0.0,-83.49609375,0.0
1734584006.5587883,-57.6171875,955.078125,0.0,-66.89453125,0.0
1734584006.5626945,-33.69140625,975.5859375,0.0,-33.203125,0.0
1734584006.5666008,-29.296875,954.1015625,0.0,-29.296875,0.0
1734584006.570507,-63.4765625,551.26953125,0.0,-45.41015625,0.0
1734584006.5744133,-138.18359375,255.859375,0.0,-87.890625,0.0
1734584006.5783195,-128.41796875,506.8359375,0.0,-110.3515625,0.0
1734584006.5822256,-58.10546875,779.296875,0.0,-86.42578125,0.0
1734584006.5861318,-65.4296875,392.08984375,0.0,-56.15234375,0.0
1734584006.590038,-77.63671875,246.09375,0.0,-44.921875,0.0
1734584006.5939443,-64.453125,399.4140625,0.0,-37.59765625,0.0
1734584006.5936995,-69.3359375,652.34375,175.29296875,-76.66015625,0.0
1734584006.5976057,-100.5859375,899.4140625,233.3984375,-94.7265625,0.0
1734584006.601512,-65.4296875,539.55078125,296.875,-64.94140625,0.0
1734584006.6054182,-70.80078125,20.5078125,285.64453125,-63.96484375,0.0
1734584006.6093245,-91.30859375,-320.80078125,134.765625,-76.171875,0.0
1734584006.6132305,-48.33984375,-658.69140625,-45.8984375,-61.03515625,0.0
1734584006.6171367,-77.63671875,-919.43359375,41.50390625,-58.59375,0.0
1734584006.621043,-62.98828125,-907.2265625,211.9140625,-54.19921875,0.0
1734584006.6249492,-72.265625,-962.40234375,76.171875,-63.4765625,0.0
1734584006.6288555,-91.796875,-1000.0,-119.140625,-84.47265625,0.0
1734584006.6327617,-55.6640625,-1000.0,-25.87890625,-60.05859375,0.0
1734584006.6366677,-81.54296875,-890.625,86.42578125,-48.828125,0.0
1734584006.6379845,-83.49609375,-579.58984375,0.0,-45.8984375,0.0
1734584006.6418908,-53.22265625,-534.1796875,0.0,-40.52734375,0.0
1734584006.645797,-53.7109375,-724.12109375,0.0,-45.8984375,0.0
1734584006.649703,-22.4609375,-928.7109375,0.0,-36.1328125,0.0
1734584006.6536093,-37.109375,-998.53515625,0.0,-50.78125,0.0
1734584006.6575155,-60.546875,-998.53515625,0.0,-63.4765625,0.0
1734584006.6614218,-42.48046875,-1000.0,0.0,-40.52734375,0.0
1734584006.665328,-11.23046875,-1000.0,0.0,-12.20703125,0.0
1734584006.669234,-108.88671875,-1000.0,0.0,-25.87890625,0.0
1734584006.6731403,-101.07421875,-1000.0,0.0,-8.30078125,0.0
1734584006.6770465,6.34765625,-1000.0,0.0,-22.94921875,0.0
1734584006.6809528,-11.71875,-1000.0,0.0,-51.7578125,0.0
1734584006.6585848,0.0,-1000.0,-71.2890625,0.0,0.0
1734584006.662491,0.0,-1000.0,-185.546875,0.0,0.0
1734584006.666397,0.0,-1000.0,23.4375,0.0,0.0
1734584006.6703033,0.0,-1000.0,-81.0546875,0.0,0.0
1734584006.6742096,0.0,-1000.0,-337.890625,0.0,0.0
1734584006.6781156,0.0,-1000.0,-316.40625,0.0,0.0
1734584006.6820219,0.0,-1000.0,-92.28515625,0.0,0.0
1734584006.685928,0.0,-1000.0,-78.125,0.0,0.0
1734584006.6898344,0.0,-1000.0,-524.90234375,0.0,0.0
1734584006.6937404,0.0,-1000.0,-489.74609375,0.0,0.0
1734584006.6976466,0.0,-1000.0,-171.38671875,0.0,0.0
1734584006.7015529,0.0,-1000.0,17.578125,0.0,0.0
1734584006.7173765,-32.71484375,-1000.0,-363.28125,-11.23046875,0.0
1734584006.7212827,-9.27734375,-1000.0,-122.0703125,22.4609375,0.0
1734584006.725189,30.76171875,-1000.0,110.83984375,47.36328125,0.0
1734584006.7290952,16.6015625,-1000.0,-145.99609375,59.08203125,0.0
1734584006.7330012,-43.9453125,-1000.0,-338.37890625,-14.16015625,0.0
1734584006.7369075,-99.609375,-1000.0,-286.1328125,-59.5703125,0.0
1734584006.7408137,-35.15625,-1000.0,-331.54296875,-4.39453125,0.0
1734584006.74472,0.48828125,-1000.0,-294.43359375,-5.37109375,0.0
1734584006.748626,-74.70703125,-1000.0,-12.20703125,-55.17578125,0.0
1734584006.7525322,-78.61328125,-1000.0,-68.359375,-70.80078125,0.0
1734584006.7564385,-75.68359375,-1000.0,-189.94140625,-55.17578125,0.0
1734584006.7603447,-35.64453125,-1000.0,-313.96484375,-2.9296875,0.0
1734584006.7847974,22.94921875,-1000.0,0.0,21.97265625,0.0
1734584006.7887037,-20.5078125,-1000.0,0.0,16.11328125,0.0
1734584006.79261,-48.828125,-1000.0,0.0,-33.203125,0.0
1734584006.796516,-72.75390625,-1000.0,0.0,-116.69921875,0.0
1734584006.8004222,-68.84765625,-1000.0,0.0,-79.1015625,0.0
1734584006.8043284,-22.4609375,-1000.0,0.0,-30.2734375,0.0
1734584006.8082347,-17.08984375,-1000.0,0.0,-14.6484375,0.0
1734584006.812141,-7.8125,-1000.0,0.0,20.01953125,0.0
1734584006.8160472,-17.08984375,-999.51171875,0.0,-5.859375,0.0
1734584006.8199532,-98.14453125,-1000.0,0.0,-54.6875,0.0
1734584006.8238595,15.625,-999.51171875,0.0,22.4609375,0.0
1734584006.8277657,92.7734375,-983.88671875,0.0,49.31640625,0.0
1734584006.8227625,-37.59765625,-991.69921875,381.34765625,-15.625,0.0
1734584006.8266687,-39.55078125,-983.88671875,311.03515625,-44.921875,0.0
1734584006.830575,-16.6015625,-991.2109375,284.1796875,-55.6640625,0.0
1734584006.834481,-29.296875,-887.6953125,378.90625,-14.16015625,0.0
1734584006.8383873,-59.08203125,-808.10546875,426.7578125,-20.5078125,0.0
1734584006.8422935,-70.3125,-946.2890625,278.80859375,-41.50390625,0.0
1734584006.8461998,-38.57421875,-955.078125,118.65234375,-41.9921875,0.0
1734584006.850106,-67.3828125,-728.02734375,295.41015625,-50.29296875,0.0
1734584006.854012,-13.18359375,-687.01171875,437.01171875,-36.62109375,0.0
1734584006.8579183,41.9921875,-718.75,315.91796875,9.765625,0.0
1734584006.8618245,-38.57421875,-729.00390625,171.38671875,-12.20703125,0.0
1734584006.8657308,-75.1953125,-625.48828125,321.77734375,-73.2421875,0.0
1734584006.8646412,-51.26953125,-464.35546875,415.52734375,-63.4765625,0.0
1734584006.8685474,22.94921875,-554.6875,332.03125,5.859375,0.0
1734584006.8724537,32.2265625,-664.55078125,184.08203125,36.62109375,0.0
1734584006.8763597,-41.50390625,-412.59765625,338.8671875,-20.01953125,0.0
1734584006.880266,-37.109375,-408.203125,395.99609375,-5.37109375,0.0
1734584006.8841722,17.578125,-569.82421875,220.703125,32.71484375,0.0
1734584006.8880785,81.0546875,-465.33203125,154.78515625,39.55078125,0.0
1734584006.8919847,16.11328125,-199.21875,403.3203125,-2.44140625,0.0
1734584006.8958907,-0.9765625,-212.40234375,394.53125,11.23046875,0.0
1734584006.899797,-32.71484375,-340.8203125,197.75390625,17.578125,0.0
1734584006.9037032,-30.76171875,-242.1875,263.671875,-37.59765625,0.0
1734584006.9076095,-5.37109375,-150.87890625,352.5390625,-24.90234375,0.0
1734584006.9168491,-92.28515625,-111.81640625,367.1875,-22.4609375,0.0
1734584006.9207554,-67.87109375,-205.078125,303.7109375,-60.546875,0.0
1734584006.9246616,-27.83203125,-274.4140625,247.0703125,-45.41015625,0.0
1734584006.928568,-52.734375,-198.2421875,278.80859375,-26.3671875,0.0
1734584006.9324741,-38.57421875,-169.921875,273.4375,-39.55078125,0.0
1734584006.9363801,14.6484375,-212.890625,188.4765625,-0.48828125,0.0
1734584006.9402864,60.05859375,-152.34375,223.14453125,17.578125,0.0
1734584006.9441926,22.94921875,-99.12109375,282.71484375,-17.08984375,0.0
1734584006.948099,5.37109375,-6.34765625,173.33984375,-23.92578125,0.0
1734584006.9520051,-81.54296875,372.0703125,-35.64453125,-38.57421875,0.0
1734584006.9559112,-22.4609375,670.8984375,202.63671875,-21.484375,0.0
1734584006.9598174,41.50390625,787.59765625,359.375,-1.953125,0.0
1734584006.9643538,-50.29296875,807.6171875,123.046875,-37.59765625,0.0
1734584006.96826,-38.0859375,690.91796875,-263.671875,-50.78125,0.0
1734584006.9721663,-30.2734375,858.88671875,82.51953125,-57.6171875,0.0
1734584006.9760725,15.625,980.95703125,369.140625,-37.109375,0.0
1734584006.9799788,18.5546875,834.47265625,161.1328125,-17.578125,0.0
1734584006.9838848,-29.296875,648.4375,-39.0625,-30.2734375,0.0
