timestamps,TP9,AF7,AF8,TP10,Right AUX
1734410552.787351,-545.8984375,-686.5234375,-548.828125,-556.15234375,0.0
1734410552.7912564,-273.4375,-658.203125,-272.4609375,-278.80859375,0.0
1734410552.7951622,-599.609375,-637.6953125,-589.84375,-594.23828125,0.0
1734410552.799068,-929.6875,-614.74609375,-919.43359375,-924.31640625,0.0
1734410552.8029737,-491.2109375,-631.34765625,-489.2578125,-497.0703125,0.0
1734410552.8068793,-133.7890625,-668.45703125,-125.9765625,-132.32421875,0.0
1734410552.810785,-425.29296875,-664.55078125,-413.57421875,-420.41015625,0.0
1734410552.8146908,-558.10546875,-647.4609375,-548.33984375,-560.05859375,0.0
1734410552.8185966,-333.49609375,-612.79296875,-329.1015625,-338.37890625,0.0
1734410552.8225024,-631.8359375,-632.32421875,-622.55859375,-626.953125,0.0
1734410552.826408,-939.453125,-684.5703125,-926.26953125,-932.6171875,0.0
1734410552.8303227,-479.4921875,-671.875,-476.07421875,-479.98046875,0.0
1734410552.8342283,-110.3515625,-643.06640625,-103.02734375,-108.88671875,0.0
1734410552.838134,-490.234375,-611.81640625,-475.09765625,-488.76953125,0.0
1734410552.8420398,-936.03515625,-625.9765625,-930.6640625,-940.4296875,0.0
1734410552.8459456,-580.078125,-673.33984375,-580.078125,-588.8671875,0.0
1734410552.8498514,144.53125,-662.109375,150.87890625,139.16015625,0.0
1734410552.853757,-91.30859375,-645.5078125,-74.70703125,-87.40234375,0.0
1734410552.8576627,-889.6484375,-626.953125,-869.62890625,-878.90625,0.0
1734410552.8615685,-779.296875,-625.48828125,-771.484375,-781.25,0.0
1734410552.8654742,37.59765625,-661.62109375,42.48046875,29.296875,0.0
1734410552.8693798,-206.54296875,-672.8515625,-196.2890625,-212.40234375,0.0
1734410552.8732855,-582.51953125,-663.57421875,-574.21875,-587.890625,0.0
1734410552.8771996,-558.59375,-631.8359375,-549.8046875,-561.03515625,0.0
1734410552.8811054,-743.1640625,-626.953125,-732.91015625,-746.09375,0.0
1734410552.8850112,-857.91015625,-677.734375,-850.5859375,-865.234375,0.0
1734410552.8889167,-613.28125,-685.546875,-606.93359375,-622.0703125,0.0
1734410552.8928225,-188.96484375,-658.69140625,-183.59375,-194.82421875,0.0
1734410552.8967283,-168.9453125,-632.32421875,-160.15625,-166.9921875,0.0
1734410552.900634,-498.53515625,-627.9296875,-487.3046875,-498.53515625,0.0
1734410552.9045396,-707.03125,-676.26953125,-701.171875,-717.7734375,0.0
1734410552.9084454,-112.79296875,-674.31640625,-112.3046875,-129.8828125,0.0
1734410552.9123511,10.7421875,-647.4609375,19.04296875,6.8359375,0.0
1734410552.916257,-722.65625,-631.8359375,-709.47265625,-721.6796875,0.0
1734410552.9201624,-889.16015625,-613.76953125,-885.7421875,-895.5078125,0.0
1734410552.924076,-226.07421875,-646.97265625,-235.83984375,-247.0703125,0.0
1734410552.9279819,-214.35546875,-673.33984375,-206.54296875,-219.7265625,0.0
1734410552.9318874,-653.80859375,-657.2265625,-640.13671875,-654.296875,0.0
1734410552.9357932,-673.828125,-629.8828125,-667.48046875,-682.6171875,0.0
1734410552.939699,-776.3671875,-609.375,-771.484375,-780.2734375,0.0
1734410552.9436047,-588.8671875,-646.484375,-586.9140625,-593.26171875,0.0
1734410552.9475102,-314.453125,-677.24609375,-307.6171875,-316.89453125,0.0
1734410552.951416,-198.73046875,-656.73828125,-193.359375,-207.03125,0.0
1734410552.9553218,285.64453125,-619.140625,292.96875,277.34375,0.0
1734410552.9592276,-250.48828125,-598.6328125,-233.88671875,-247.0703125,0.0
1734410552.963133,-980.95703125,-641.11328125,-976.07421875,-979.00390625,0.0
1734410552.9670389,-637.6953125,-672.36328125,-639.6484375,-646.97265625,0.0
1734410552.9709518,-363.76953125,-649.90234375,-359.86328125,-373.046875,0.0
1734410552.9748576,-727.5390625,-632.8125,-717.7734375,-725.5859375,0.0
1734410552.9787633,-930.6640625,-605.46875,-923.33984375,-926.7578125,0.0
1734410552.9826689,-706.54296875,-626.46484375,-706.0546875,-714.35546875,0.0
1734410552.9865746,-620.60546875,-673.33984375,-611.81640625,-621.58203125,0.0
1734410552.9904804,-250.0,-650.390625,-243.1640625,-255.859375,0.0
1734410552.9943862,-133.7890625,-627.9296875,-124.51171875,-136.71875,0.0
1734410552.998292,-186.03515625,-595.21484375,-179.19921875,-191.40625,0.0
1734410553.0021975,-270.5078125,-607.421875,-261.23046875,-279.296875,0.0
1734410553.0061033,-743.65234375,-665.52734375,-730.46875,-742.1875,0.0
1734410553.010009,-475.5859375,-646.97265625,-473.14453125,-481.4453125,0.0
1734410553.0139148,-175.78125,-619.140625,-166.9921875,-177.734375,0.0
1734410553.0178273,-692.87109375,-602.05078125,-676.7578125,-679.19921875,0.0
1734410553.0217328,-1000.0,-618.1640625,-1000.0,-1000.0,0.0
1734410553.0256386,-794.921875,-663.0859375,-795.41015625,-798.828125,0.0
1734410553.0295444,-301.7578125,-642.08984375,-292.48046875,-299.31640625,0.0
1734410553.0334501,-484.375,-616.2109375,-470.703125,-481.93359375,0.0
1734410553.0373557,-704.58984375,-590.33203125,-695.3125,-707.51953125,0.0
1734410553.0412614,-461.42578125,-589.84375,-455.56640625,-464.84375,0.0
1734410553.0451672,48.828125,-625.9765625,48.33984375,41.015625,0.0
1734410553.049073,-139.6484375,-633.30078125,-134.765625,-141.11328125,0.0
1734410553.0529785,-308.59375,-619.140625,-303.22265625,-313.4765625,0.0
1734410553.0568843,-403.3203125,-589.35546875,-392.578125,-407.71484375,0.0
1734410553.06079,-811.5234375,-590.8203125,-799.8046875,-811.03515625,0.0
1734410553.0647018,-895.5078125,-646.484375,-888.671875,-899.90234375,0.0
1734410553.0686076,-579.1015625,-645.99609375,-573.2421875,-584.9609375,0.0
1734410553.0725133,-165.0390625,-612.79296875,-160.15625,-167.48046875,0.0
1734410553.0764189,-452.1484375,-591.30859375,-443.359375,-453.61328125,0.0
1734410553.0803246,-865.72265625,-585.9375,-858.88671875,-866.2109375,0.0
1734410553.0842304,-577.1484375,-629.39453125,-576.171875,-582.51953125,0.0
1734410553.0881362,172.8515625,-630.37109375,173.828125,162.109375,0.0
1734410553.0920417,315.91796875,-603.515625,332.03125,318.359375,0.0
1734410553.0959475,-626.46484375,-594.23828125,-607.421875,-616.2109375,0.0
1734410553.0998533,-924.8046875,-575.1953125,-919.921875,-929.6875,0.0
1734410553.103759,-564.453125,-613.28125,-554.19921875,-575.1953125,0.0
1734410553.1076648,-499.0234375,-639.6484375,-485.83984375,-501.953125,0.0
1734410553.1115806,-520.5078125,-617.67578125,-511.23046875,-524.4140625,0.0
1734410553.1154864,-578.125,-586.9140625,-567.87109375,-580.56640625,0.0
1734410553.119392,-641.11328125,-559.08203125,-628.41796875,-635.25390625,0.0
1734410553.1232977,-817.87109375,-603.515625,-810.05859375,-812.98828125,0.0
1734410553.1272035,-730.46875,-636.23046875,-727.5390625,-731.4453125,0.0
1734410553.1311092,-138.671875,-601.07421875,-138.671875,-146.484375,0.0
1734410553.1350148,435.05859375,-561.03515625,436.5234375,427.24609375,0.0
1734410553.1389205,-325.1953125,-544.921875,-310.05859375,-312.5,0.0
1734410553.1428263,-985.3515625,-586.42578125,-983.3984375,-983.88671875,0.0
1734410553.146732,-354.4921875,-617.1875,-359.375,-370.1171875,0.0
1734410553.1506376,-133.7890625,-592.7734375,-122.0703125,-133.30078125,0.0
1734410553.1545434,-698.73046875,-573.73046875,-682.6171875,-689.94140625,0.0
1734410553.1584587,-973.6328125,-551.26953125,-969.7265625,-972.16796875,0.0
1734410553.1623645,-777.83203125,-572.75390625,-779.78515625,-784.1796875,0.0
1734410553.1662703,-598.14453125,-620.60546875,-595.703125,-605.95703125,0.0
1734410553.170176,-519.53125,-611.81640625,-512.6953125,-517.08984375,0.0
1734410553.1740818,-588.37890625,-585.44921875,-583.0078125,-587.890625,0.0
1734410553.1779873,-387.6953125,-544.43359375,-382.32421875,-394.53125,0.0
1734410553.181893,-436.5234375,-558.59375,-417.48046875,-427.24609375,0.0
1734410553.185799,-770.5078125,-609.375,-752.44140625,-760.25390625,0.0
1734410553.1897047,-420.41015625,-591.30859375,-423.33984375,-436.5234375,0.0
1734410553.1936102,169.921875,-551.26953125,167.96875,153.3203125,0.0
1734410553.197516,-106.93359375,-519.53125,-88.37890625,-102.5390625,0.0
1734410553.2014217,-831.0546875,-541.015625,-813.96484375,-824.70703125,0.0
1734410553.2053363,-738.28125,-592.7734375,-738.28125,-748.53515625,0.0
1734410553.209242,-169.43359375,-577.63671875,-166.9921875,-181.15234375,0.0
1734410553.2131479,-357.91015625,-562.01171875,-345.703125,-361.328125,0.0
1734410553.2170537,-821.2890625,-543.45703125,-807.6171875,-818.84765625,0.0
1734410553.2209592,-863.76953125,-544.43359375,-856.93359375,-865.72265625,0.0
1734410553.224865,-405.2734375,-590.33203125,-403.80859375,-412.59765625,0.0
1734410553.2287707,-117.67578125,-593.26171875,-111.81640625,-122.0703125,0.0
1734410553.2326765,-547.36328125,-594.23828125,-534.66796875,-545.8984375,0.0
1734410553.236582,-648.4375,-572.75390625,-645.01953125,-653.3203125,0.0
1734410553.2404878,-23.4375,-553.22265625,-22.94921875,-29.78515625,0.0
1734410553.2443936,-562.98828125,-620.60546875,-551.26953125,-561.03515625,0.0
1734410553.2482994,-753.90625,-639.16015625,-751.46484375,-761.71875,0.0
1734410553.2522132,-225.5859375,-611.328125,-224.609375,-234.375,0.0
1734410553.256119,-552.24609375,-593.26171875,-539.0625,-552.24609375,0.0
1734410553.2600248,-981.93359375,-591.796875,-968.26171875,-970.703125,0.0
1734410553.2639306,-943.359375,-647.94921875,-942.3828125,-938.96484375,0.0
1734410553.2678363,-402.83203125,-658.69140625,-405.76171875,-414.0625,0.0
1734410553.2717419,-34.1796875,-630.37109375,-25.87890625,-35.64453125,0.0
1734410553.2756476,-422.8515625,-614.2578125,-408.203125,-411.1328125,0.0
1734410553.2795534,-970.703125,-606.93359375,-969.7265625,-971.19140625,0.0
1734410553.2834592,-431.640625,-639.6484375,-438.4765625,-448.73046875,0.0
1734410553.2873647,33.69140625,-656.73828125,41.9921875,30.76171875,0.0
1734410553.2912705,-503.41796875,-652.34375,-491.2109375,-501.953125,0.0
1734410553.2951763,-783.69140625,-633.7890625,-778.80859375,-787.59765625,0.0
1734410553.2990994,-653.80859375,-605.95703125,-647.94921875,-656.25,0.0
1734410553.3030052,-843.26171875,-651.3671875,-831.0546875,-838.37890625,0.0
1734410553.3069108,-766.6015625,-678.7109375,-762.6953125,-772.94921875,0.0
1734410553.3108165,-200.1953125,-644.53125,-193.84765625,-203.61328125,0.0
1734410553.3147223,-301.26953125,-617.67578125,-282.71484375,-287.109375,0.0
1734410553.318628,-541.50390625,-586.42578125,-531.25,-542.48046875,0.0
1734410553.3225336,-646.97265625,-611.81640625,-637.20703125,-647.4609375,0.0
1734410553.3264394,-539.55078125,-639.6484375,-535.64453125,-545.41015625,0.0
1734410553.3303452,424.8046875,-594.7265625,420.41015625,410.15625,0.0
1734410553.334251,84.47265625,-569.82421875,98.14453125,82.51953125,0.0
1734410553.3381567,-861.81640625,-551.7578125,-847.65625,-856.93359375,0.0
1734410553.3420622,-805.6640625,-571.77734375,-804.6875,-811.03515625,0.0
1734410553.3459802,-559.08203125,-610.3515625,-557.12890625,-567.3828125,0.0
1734410553.3498857,-521.97265625,-594.23828125,-518.06640625,-523.92578125,0.0
1734410553.3537915,-586.42578125,-571.77734375,-583.49609375,-590.8203125,0.0
1734410553.3576972,-617.67578125,-542.96875,-610.3515625,-621.09375,0.0
1734410553.361603,-779.296875,-570.3125,-771.484375,-780.2734375,0.0
1734410553.3655086,-592.7734375,-629.8828125,-590.8203125,-599.12109375,0.0
1734410553.3694143,-152.83203125,-619.62890625,-152.83203125,-162.109375,0.0
1734410553.37332,-81.54296875,-598.6328125,-77.1484375,-90.8203125,0.0
1734410553.3772259,-564.94140625,-580.56640625,-551.26953125,-565.91796875,0.0
1734410553.3811314,-1000.0,-601.5625,-1000.0,-1000.0,0.0
1734410553.3850372,-755.859375,-658.69140625,-752.9296875,-758.30078125,0.0
1734410553.388943,-51.7578125,-642.08984375,-46.875,-58.10546875,0.0
1734410553.3928554,-269.04296875,-619.62890625,-257.32421875,-264.6484375,0.0
1734410553.3967612,-858.3984375,-599.12109375,-838.37890625,-843.75,0.0
1734410553.4006667,-853.515625,-602.5390625,-841.796875,-851.5625,0.0
1734410553.4045725,-20.5078125,-643.06640625,-23.4375,-36.1328125,0.0
1734410553.4084783,38.57421875,-651.3671875,53.22265625,37.109375,0.0
1734410553.412384,-291.9921875,-632.32421875,-280.2734375,-294.43359375,0.0
1734410553.4162898,-195.3125,-598.6328125,-187.01171875,-200.68359375,0.0
1734410553.4201953,-424.8046875,-596.19140625,-410.64453125,-425.78125,0.0
1734410553.424101,-692.87109375,-654.296875,-685.05859375,-698.73046875,0.0
1734410553.428007,-357.421875,-663.57421875,-351.07421875,-366.69921875,0.0
1734410553.4319127,48.33984375,-623.53515625,54.19921875,37.109375,0.0
1734410553.4358182,191.40625,-578.61328125,202.63671875,181.640625,0.0
1734410553.439735,-689.453125,-576.171875,-675.29296875,-685.546875,0.0
1734410553.4436407,-1000.0,-630.859375,-1000.0,-1000.0,0.0
1734410553.4475465,-435.05859375,-635.25390625,-434.5703125,-446.2890625,0.0
1734410553.451452,-417.96875,-605.95703125,-408.203125,-422.8515625,0.0
1734410553.4553578,-698.73046875,-579.58984375,-684.5703125,-698.73046875,0.0
1734410553.4592636,-677.24609375,-553.7109375,-666.50390625,-679.6875,0.0
1734410553.4631693,-241.69921875,-582.03125,-243.65234375,-255.859375,0.0
1734410553.4670749,75.68359375,-598.14453125,84.9609375,72.265625,0.0
1734410553.4709806,-468.75,-589.84375,-447.75390625,-462.40234375,0.0
1734410553.4748864,-739.2578125,-560.546875,-728.515625,-746.09375,0.0
1734410553.4787922,-669.43359375,-524.4140625,-658.203125,-670.8984375,0.0
1734410553.4826977,-892.08984375,-568.84765625,-880.37109375,-892.08984375,0.0
1734410553.4866087,-782.2265625,-598.6328125,-774.90234375,-787.109375,0.0
1734410553.4905145,-133.7890625,-576.171875,-128.41796875,-139.6484375,0.0
1734410553.4944203,-172.8515625,-553.22265625,-163.57421875,-175.29296875,0.0
1734410553.4983258,-789.0625,-534.66796875,-773.4375,-778.3203125,0.0
1734410553.5022316,-969.23828125,-573.2421875,-952.63671875,-959.47265625,0.0
1734410553.5061374,-336.42578125,-602.5390625,-333.984375,-346.6796875,0.0
1734410553.5100431,215.33203125,-582.03125,221.19140625,206.54296875,0.0
1734410553.513949,-356.4453125,-571.2890625,-339.84375,-359.86328125,0.0
1734410553.5178545,-893.06640625,-546.38671875,-875.48828125,-888.671875,0.0
1734410553.5217602,-454.1015625,-557.6171875,-447.265625,-460.44921875,0.0
1734410553.525666,362.3046875,-591.30859375,365.72265625,350.5859375,0.0
1734410553.5295718,-88.8671875,-596.19140625,-71.2890625,-84.47265625,0.0
1734410553.533487,-580.56640625,-581.0546875,-568.84765625,-580.078125,0.0
1734410553.5373929,-529.296875,-547.36328125,-525.390625,-540.0390625,0.0
1734410553.5412986,-660.15625,-572.75390625,-651.85546875,-666.9921875,0.0
1734410553.5452042,-655.76171875,-631.8359375,-648.4375,-663.57421875,0.0
1734410553.54911,-243.65234375,-619.140625,-242.1875,-260.7421875,0.0
1734410553.5530157,158.203125,-588.37890625,162.109375,147.4609375,0.0
1734410553.5569215,-180.6640625,-562.98828125,-166.9921875,-178.22265625,0.0
1734410553.560827,-944.82421875,-587.40234375,-935.05859375,-940.91796875,0.0
1734410553.5647328,-826.66015625,-646.97265625,-821.2890625,-832.03125,0.0
1734410553.5686386,-125.9765625,-636.23046875,-123.53515625,-140.13671875,0.0
1734410553.5725443,-272.94921875,-614.2578125,-260.7421875,-270.99609375,0.0
1734410553.5764499,-871.58203125,-590.33203125,-855.95703125,-864.74609375,0.0
1734410553.5803647,-871.09375,-584.47265625,-864.2578125,-873.53515625,0.0
1734410553.5842705,-527.34375,-630.37109375,-523.4375,-530.2734375,0.0
1734410553.5881763,-409.66796875,-637.6953125,-406.73828125,-413.57421875,0.0
1734410553.5920818,-535.15625,-623.046875,-528.80859375,-540.52734375,0.0
1734410553.5959876,-616.69921875,-594.23828125,-610.3515625,-622.0703125,0.0
1734410553.5998933,-313.4765625,-583.0078125,-305.6640625,-312.98828125,0.0
1734410553.603799,-390.13671875,-644.53125,-378.41796875,-389.16015625,0.0
1734410553.6077049,-397.94921875,-666.9921875,-389.6484375,-399.4140625,0.0
1734410553.6116104,-18.06640625,-635.25390625,-9.27734375,-17.578125,0.0
1734410553.6155162,288.57421875,-597.16796875,298.828125,281.25,0.0
1734410553.619422,-470.21484375,-602.5390625,-449.70703125,-463.37890625,0.0
1734410553.6233277,-834.47265625,-654.78515625,-820.3125,-832.51953125,0.0
1734410553.6272418,-373.046875,-663.0859375,-371.09375,-387.20703125,0.0
1734410553.6311476,-267.08984375,-638.18359375,-261.71875,-270.01953125,0.0
1734410553.6350534,-606.4453125,-618.1640625,-598.6328125,-604.00390625,0.0
1734410553.6389592,-839.84375,-604.98046875,-837.40234375,-844.7265625,0.0
1734410553.642865,-478.515625,-652.34375,-477.5390625,-484.86328125,0.0
1734410553.6467705,7.8125,-672.36328125,10.25390625,-1.953125,0.0
1734410553.6506763,-38.0859375,-652.34375,-25.390625,-40.52734375,0.0
1734410553.654582,-565.4296875,-644.04296875,-548.33984375,-559.08203125,0.0
1734410553.6584878,-389.16015625,-614.2578125,-387.20703125,-398.4375,0.0
1734410553.6623933,-346.6796875,-650.87890625,-336.42578125,-346.19140625,0.0
1734410553.666299,-631.34765625,-688.4765625,-620.1171875,-634.765625,0.0
1734410553.6702049,-212.40234375,-659.1796875,-205.56640625,-221.6796875,0.0
1734410553.6741183,-262.6953125,-638.18359375,-249.51171875,-258.30078125,0.0
1734410553.678024,-809.5703125,-621.09375,-799.8046875,-805.17578125,0.0
1734410553.6819296,-988.76953125,-656.25,-985.3515625,-994.140625,0.0
1734410553.6858354,-635.25390625,-691.89453125,-634.765625,-645.5078125,0.0
1734410553.6897411,-258.30078125,-672.36328125,-254.8828125,-259.765625,0.0
1734410553.693647,-173.33984375,-648.4375,-169.921875,-176.7578125,0.0
1734410553.6975524,-542.96875,-619.140625,-530.76171875,-540.0390625,0.0
1734410553.7014582,-752.44140625,-639.6484375,-745.60546875,-758.7890625,0.0
1734410553.705364,261.71875,-667.48046875,255.859375,245.60546875,0.0
1734410553.7092698,253.41796875,-665.0390625,263.18359375,248.046875,0.0
1734410553.7131753,-582.51953125,-657.71484375,-567.3828125,-590.33203125,0.0
1734410553.717081,-745.1171875,-623.046875,-737.3046875,-752.44140625,0.0
1734410553.7209942,-870.1171875,-644.04296875,-865.234375,-874.51171875,0.0
1734410553.7249,-841.30859375,-700.1953125,-838.37890625,-853.02734375,0.0
1734410553.7288058,-261.23046875,-687.5,-260.7421875,-274.90234375,0.0
1734410553.7327113,-168.45703125,-667.48046875,-163.57421875,-173.33984375,0.0
1734410553.736617,-704.1015625,-643.06640625,-687.98828125,-697.75390625,0.0
1734410553.7405229,-659.66796875,-645.99609375,-651.85546875,-664.0625,0.0
1734410553.7444286,-460.44921875,-696.2890625,-459.9609375,-472.65625,0.0
1734410553.7483344,38.0859375,-682.6171875,31.73828125,20.01953125,0.0
1734410553.75224,573.2421875,-646.484375,576.66015625,572.265625,0.0
1734410553.7561457,-541.50390625,-638.18359375,-523.92578125,-530.76171875,0.0
1734410553.7600515,-1000.0,-645.5078125,-1000.0,-1000.0,0.0
1734410553.7639573,-417.96875,-687.01171875,-419.921875,-426.26953125,0.0
1734410553.7678695,-442.87109375,-699.70703125,-438.4765625,-455.078125,0.0
1734410553.7717752,-665.52734375,-681.640625,-659.1796875,-677.734375,0.0
1734410553.775681,-704.1015625,-652.83203125,-695.80078125,-710.9375,0.0
1734410553.7795868,-725.09765625,-639.16015625,-713.37890625,-721.6796875,0.0
1734410553.7834923,-812.98828125,-685.05859375,-802.734375,-809.5703125,0.0
1734410553.787398,-493.1640625,-692.3828125,-489.2578125,-496.09375,0.0
1734410553.7913039,-18.5546875,-663.57421875,-12.6953125,-21.484375,0.0
1734410553.7952096,245.1171875,-631.8359375,253.90625,242.1875,0.0
1734410553.7991152,-445.3125,-622.0703125,-427.734375,-441.89453125,0.0
1734410553.803021,-619.62890625,-673.33984375,-610.3515625,-625.9765625,0.0
1734410553.8069267,-295.8984375,-696.2890625,-292.96875,-304.19921875,0.0
1734410553.8108325,-427.734375,-679.6875,-424.31640625,-433.10546875,0.0
1734410553.8147442,0.0,-661.62109375,-795.8984375,-800.78125,0.0
1734410553.81865,0.0,-649.90234375,-993.65234375,-995.1171875,0.0
1734410553.8225555,0.0,-683.10546875,-644.04296875,-653.80859375,0.0
1734410553.8264613,0.0,-709.47265625,-448.73046875,-461.42578125,0.0
1734410553.830367,0.0,-692.3828125,-463.37890625,-475.5859375,0.0
1734410553.8342729,0.0,-664.55078125,-386.23046875,-394.04296875,0.0
1734410553.8381786,0.0,-638.671875,-229.4921875,-235.83984375,0.0
1734410553.8420842,0.0,-673.828125,-169.43359375,-176.7578125,0.0
1734410553.84599,0.0,-708.0078125,-436.5234375,-442.3828125,0.0
1734410553.8498957,0.0,-684.5703125,-480.46875,-488.28125,0.0
1734410553.8538015,0.0,-657.71484375,-451.66015625,-462.40234375,0.0
1734410553.857707,0.0,-634.765625,-811.5234375,-818.84765625,0.0
1734410553.8616183,-1000.0,-663.0859375,-1000.0,-1000.0,0.0
1734410553.8655238,-752.44140625,-705.56640625,-743.1640625,-748.046875,0.0
1734410553.8694296,-301.26953125,-688.96484375,-295.41015625,-302.24609375,0.0
1734410553.8733354,-534.66796875,-671.38671875,-519.04296875,-522.4609375,0.0
1734410553.8772411,-980.95703125,-651.3671875,-972.65625,-974.609375,0.0
1734410553.8811467,-582.03125,-662.109375,-587.890625,-588.37890625,0.0
1734410553.8850524,222.16796875,-698.2421875,223.6328125,216.30859375,0.0
1734410553.8889582,-249.51171875,-709.47265625,-233.88671875,-247.0703125,0.0
1734410553.892864,-728.515625,-694.82421875,-720.21484375,-729.00390625,0.0
1734410553.8967698,-531.73828125,-657.71484375,-524.90234375,-533.69140625,0.0
1734410553.9006753,-792.48046875,-674.31640625,-777.34375,-786.62109375,0.0
1734410553.904581,-715.33203125,-722.16796875,-706.54296875,-714.84375,0.0
1734410553.9084914,-471.6796875,-716.796875,-463.37890625,-471.6796875,0.0
1734410553.9123971,-442.3828125,-696.77734375,-436.5234375,-444.3359375,0.0
1734410553.916303,-699.21875,-672.36328125,-690.91796875,-691.89453125,0.0
1734410553.9202087,-970.21484375,-677.734375,-966.796875,-961.9140625,0.0
1734410553.9241142,-855.46875,-723.6328125,-857.421875,-860.83984375,0.0
1734410553.92802,-198.2421875,-717.28515625,-199.21875,-209.9609375,0.0
1734410553.9319258,54.6875,-697.75390625,66.89453125,55.6640625,0.0
1734410553.9358315,-687.01171875,-677.734375,-663.57421875,-674.31640625,0.0
1734410553.9397373,-946.2890625,-670.41015625,-934.5703125,-942.87109375,0.0
1734410553.9436429,-265.625,-707.03125,-265.625,-277.83203125,0.0
1734410553.9475486,-111.328125,-717.28515625,-98.6328125,-106.4453125,0.0
1734410553.9514544,-604.00390625,-708.0078125,-594.7265625,-603.515625,0.0
1734410553.9553688,-687.01171875,-679.19921875,-684.08203125,-693.84765625,0.0
1734410553.9592745,-613.28125,-664.0625,-603.515625,-613.76953125,0.0
1734410553.9631803,-551.26953125,-708.49609375,-542.96875,-554.6875,0.0
1734410553.967086,-369.140625,-721.6796875,-359.375,-366.2109375,0.0
1734410553.9709916,-292.96875,-699.70703125,-283.69140625,-293.9453125,0.0
1734410553.9748974,-148.4375,-666.50390625,-141.11328125,-146.97265625,0.0
1734410553.9788032,-504.8828125,-655.76171875,-487.3046875,-493.65234375,0.0
1734410553.982709,-917.48046875,-708.984375,-903.3203125,-916.50390625,0.0
1734410553.9866145,-400.87890625,-716.796875,-398.92578125,-416.9921875,0.0
1734410553.9905202,319.82421875,-680.6640625,327.63671875,320.3125,0.0
1734410553.994426,-459.47265625,-672.8515625,-444.82421875,-451.66015625,0.0
1734410553.9983318,-1000.0,-660.15625,-1000.0,-1000.0,0.0
1734410554.002246,-708.0078125,-689.453125,-708.49609375,-713.37890625,0.0
1734410554.0061514,-470.21484375,-711.42578125,-464.84375,-474.609375,0.0
1734410554.0100572,-521.97265625,-697.265625,-510.7421875,-518.06640625,0.0
1734410554.013963,-749.0234375,-678.7109375,-738.28125,-750.0,0.0
1734410554.0178688,-689.94140625,-647.4609375,-685.05859375,-698.2421875,0.0
1734410554.0217743,-427.734375,-670.8984375,-423.33984375,-428.7109375,0.0
1734410554.02568,-259.27734375,-704.58984375,-253.90625,-261.71875,0.0
1734410554.0295858,-131.8359375,-690.4296875,-127.9296875,-141.6015625,0.0
1734410554.0334916,42.48046875,-667.48046875,46.875,30.76171875,0.0
1734410554.0373974,-261.23046875,-638.671875,-249.0234375,-261.71875,0.0
1734410554.041303,-889.6484375,-672.36328125,-878.41796875,-885.7421875,0.0
1734410554.0452087,-514.16015625,-702.1484375,-512.6953125,-520.99609375,0.0
1734410554.0491219,-205.56640625,-681.15234375,-198.2421875,-210.9375,0.0
1734410554.0530276,-641.11328125,-666.50390625,-624.51171875,-638.671875,0.0
1734410554.0569332,-983.3984375,-644.04296875,-974.12109375,-977.05078125,0.0
1734410554.060839,-848.6328125,-657.71484375,-845.703125,-851.5625,0.0
1734410554.0647447,-522.4609375,-692.3828125,-516.11328125,-525.87890625,0.0
1734410554.0686505,-76.171875,-684.08203125,-76.171875,-85.44921875,0.0
1734410554.0725563,-209.9609375,-666.50390625,-202.1484375,-211.42578125,0.0
1734410554.0764618,-651.3671875,-637.20703125,-643.06640625,-652.83203125,0.0
1734410554.0803676,-2.44140625,-632.32421875,-3.90625,-13.671875,0.0
1734410554.0842733,-130.859375,-683.10546875,-124.51171875,-130.37109375,0.0
1734410554.088179,-308.59375,-682.12890625,-302.24609375,-309.5703125,0.0
1734410554.0920846,-261.71875,-660.15625,-256.34765625,-269.04296875,0.0
1734410554.0959976,-768.5546875,-640.625,-758.7890625,-768.5546875,0.0
1734410554.0999033,-1000.0,-647.94921875,-991.2109375,-989.74609375,0.0
1734410554.103809,-885.25390625,-695.3125,-881.8359375,-885.25390625,0.0
1734410554.1077147,-404.78515625,-689.453125,-404.78515625,-418.9453125,0.0
1734410554.1116204,-340.33203125,-672.8515625,-331.54296875,-343.26171875,0.0
1734410554.1155262,-542.48046875,-650.87890625,-532.2265625,-539.0625,0.0
1734410554.119432,-531.73828125,-641.6015625,-528.3203125,-539.55078125,0.0
1734410554.1233375,-186.5234375,-681.15234375,-184.5703125,-199.70703125,0.0
1734410554.1272433,-14.6484375,-693.359375,-0.9765625,-8.30078125,0.0
1734410554.131149,-594.7265625,-687.98828125,-582.03125,-586.9140625,0.0
1734410554.1350548,-875.48828125,-666.015625,-873.53515625,-881.8359375,0.0
1734410554.1389606,-486.328125,-646.484375,-487.79296875,-499.0234375,0.0
1734410554.1428776,-379.8828125,-691.89453125,-375.0,-388.18359375,0.0
1734410554.1467834,-656.73828125,-718.75,-647.4609375,-660.15625,0.0
1734410554.150689,-598.14453125,-695.3125,-588.8671875,-602.05078125,0.0
1734410554.1545947,-604.98046875,-658.69140625,-593.26171875,-605.46875,0.0
1734410554.1585004,-874.0234375,-642.578125,-870.60546875,-875.48828125,0.0
1734410554.1624062,-731.4453125,-677.24609375,-730.46875,-733.88671875,0.0
1734410554.1663117,-273.4375,-685.546875,-271.97265625,-278.3203125,0.0
1734410554.1702175,293.9453125,-661.1328125,291.50390625,281.73828125,0.0
1734410554.1741233,-292.48046875,-650.390625,-275.390625,-285.15625,0.0
1734410554.178029,-742.67578125,-631.34765625,-729.98046875,-741.2109375,0.0
1734410554.1819348,-531.73828125,-663.57421875,-527.34375,-541.9921875,0.0
1734410554.1858404,-548.828125,-693.359375,-540.0390625,-551.26953125,0.0
1734410554.189752,-647.4609375,-674.31640625,-638.18359375,-652.83203125,0.0
1734410554.1936579,-794.43359375,-652.34375,-782.71484375,-791.50390625,0.0
1734410554.1975634,-779.296875,-624.0234375,-770.99609375,-774.90234375,0.0
1734410554.2014692,-675.78125,-653.80859375,-669.921875,-678.22265625,0.0
1734410554.205375,-603.515625,-684.5703125,-592.7734375,-597.16796875,0.0
1734410554.2092807,-293.9453125,-668.9453125,-287.109375,-294.921875,0.0
1734410554.2131865,-132.8125,-650.87890625,-124.51171875,-138.671875,0.0
1734410554.217092,-626.46484375,-627.44140625,-609.375,-620.60546875,0.0
1734410554.2209978,-990.234375,-651.3671875,-981.4453125,-982.421875,0.0
1734410554.2249036,-878.90625,-687.98828125,-876.46484375,-884.27734375,0.0
1734410554.2288094,-76.171875,-664.55078125,-80.078125,-89.35546875,0.0
1734410554.232715,-74.70703125,-644.04296875,-62.5,-71.77734375,0.0
1734410554.2366261,-955.56640625,-622.55859375,-942.3828125,-949.21875,0.0
1734410554.240532,-901.3671875,-631.34765625,-898.92578125,-901.85546875,0.0
1734410554.2444375,-506.8359375,-675.78125,-496.09375,-503.41796875,0.0
1734410554.2483432,-492.67578125,-673.33984375,-483.88671875,-498.53515625,0.0
1734410554.252249,-622.0703125,-656.25,-615.234375,-629.8828125,0.0
1734410554.2561548,-528.3203125,-623.046875,-520.5078125,-530.2734375,0.0
1734410554.2600603,89.84375,-613.28125,88.8671875,79.1015625,0.0
1734410554.263966,-145.99609375,-669.43359375,-135.7421875,-145.5078125,0.0
1734410554.2678719,-520.5078125,-678.22265625,-510.7421875,-526.85546875,0.0
1734410554.2717776,-184.08203125,-648.92578125,-178.7109375,-192.3828125,0.0
1734410554.2756832,-523.4375,-626.46484375,-508.7890625,-517.08984375,0.0
1734410554.279589,-964.35546875,-627.9296875,-954.58984375,-955.56640625,0.0
1734410554.2834992,-892.08984375,-672.36328125,-884.27734375,-884.765625,0.0
1734410554.287405,-466.30859375,-673.828125,-460.9375,-468.75,0.0
1734410554.2913108,-352.5390625,-651.3671875,-346.6796875,-353.02734375,0.0
1734410554.2952166,-804.19921875,-633.30078125,-792.48046875,-794.921875,0.0
1734410554.299122,-1000.0,-632.8125,-1000.0,-1000.0,0.0
1734410554.3030279,-399.90234375,-666.50390625,-400.87890625,-408.203125,0.0
1734410554.3069336,59.5703125,-670.8984375,71.2890625,62.5,0.0
1734410554.3108394,-485.3515625,-664.0625,-471.6796875,-483.88671875,0.0
1734410554.314745,-856.93359375,-641.6015625,-850.09765625,-864.74609375,0.0
1734410554.3186507,-393.5546875,-617.67578125,-389.16015625,-402.34375,0.0
1734410554.3225565,-251.46484375,-660.64453125,-238.28125,-251.953125,0.0
1734410554.3264623,-576.171875,-680.6640625,-562.01171875,-575.68359375,0.0
1734410554.3303814,-423.828125,-660.15625,-420.41015625,-433.59375,0.0
1734410554.334287,-368.65234375,-636.71875,-364.2578125,-376.46484375,0.0
1734410554.3381927,-786.62109375,-621.09375,-775.390625,-784.66796875,0.0
1734410554.3420985,-961.9140625,-664.0625,-949.70703125,-953.61328125,0.0
1734410554.3460042,-551.26953125,-674.31640625,-545.8984375,-555.6640625,0.0
1734410554.3499098,129.39453125,-643.5546875,134.27734375,124.0234375,0.0
1734410554.3538156,-179.19921875,-630.859375,-159.1796875,-166.50390625,0.0
1734410554.3577213,-953.125,-618.65234375,-937.01171875,-939.453125,0.0
1734410554.361627,-705.56640625,-646.484375,-714.35546875,-713.8671875,0.0
1734410554.3655329,132.32421875,-661.1328125,133.7890625,128.90625,0.0
1734410554.3694384,-256.34765625,-653.80859375,-235.3515625,-245.60546875,0.0
1734410554.3733442,-812.98828125,-636.23046875,-796.875,-810.05859375,0.0
1734410554.377258,-685.05859375,-611.328125,-678.22265625,-689.453125,0.0
1734410554.3811638,-516.11328125,-641.6015625,-511.23046875,-517.578125,0.0
1734410554.3850694,-619.140625,-675.29296875,-610.83984375,-616.2109375,0.0
1734410554.3889751,-587.890625,-660.15625,-582.51953125,-589.84375,0.0
1734410554.392881,-472.65625,-636.23046875,-467.28515625,-475.5859375,0.0
1734410554.3967867,-456.0546875,-608.3984375,-447.265625,-458.49609375,0.0
1734410554.4006922,-606.93359375,-630.859375,-594.23828125,-603.02734375,0.0
1734410554.404598,-700.68359375,-672.8515625,-693.84765625,-702.1484375,0.0
1734410554.4085038,-140.625,-657.2265625,-141.6015625,-153.80859375,0.0
1734410554.4124095,-247.0703125,-640.625,-235.83984375,-244.140625,0.0
1734410554.4163153,-911.1328125,-621.58203125,-894.04296875,-894.53125,0.0
1734410554.4202209,-969.23828125,-632.32421875,-966.796875,-968.75,0.0
1734410554.4241347,-80.56640625,-660.15625,-89.84375,-104.4921875,0.0
1734410554.4280403,160.15625,-650.390625,164.55078125,150.390625,0.0
1734410554.431946,-542.48046875,-641.11328125,-527.83203125,-534.66796875,0.0
1734410554.4358518,-649.4140625,-608.3984375,-640.625,-644.53125,0.0
1734410554.4397576,-373.53515625,-610.3515625,-366.2109375,-374.0234375,0.0
1734410554.4436631,-178.7109375,-654.296875,-173.33984375,-187.01171875,0.0
1734410554.447569,-38.0859375,-647.94921875,-30.76171875,-48.33984375,0.0
1734410554.4514747,-84.47265625,-623.53515625,-79.58984375,-94.7265625,0.0
1734410554.4553804,240.234375,-582.51953125,208.0078125,191.40625,0.0
1734410554.4592862,-258.30078125,-589.35546875,-256.34765625,-266.6015625,0.0
1734410554.4631917,-897.94921875,-643.06640625,-887.20703125,-894.04296875,0.0
1734410554.4670975,-341.796875,-637.20703125,-352.05078125,-364.74609375,0.0
1734410554.4710104,-291.015625,-618.1640625,-285.64453125,-299.31640625,0.0
1734410554.4749162,-829.58984375,-597.16796875,-820.80078125,-828.125,0.0
1734410554.478822,-952.63671875,-599.12109375,-953.125,-956.54296875,0.0
1734410554.4827278,-554.19921875,-640.13671875,-557.6171875,-565.4296875,0.0
1734410554.4866333,-322.265625,-640.625,-325.68359375,-339.84375,0.0
1734410554.490539,-136.71875,-615.72265625,-138.18359375,-153.3203125,0.0
1734410554.4944448,-252.9296875,-593.75,-246.09375,-257.8125,0.0
1734410554.4983506,-185.05859375,-576.171875,-178.22265625,-190.91796875,0.0
1734410554.5022562,-77.63671875,-617.1875,-67.87109375,-82.03125,0.0
1734410554.506162,-626.46484375,-645.99609375,-613.76953125,-629.8828125,0.0
1734410554.5100677,-523.92578125,-625.0,-519.04296875,-531.25,0.0
1734410554.5139735,-313.96484375,-596.19140625,-309.08203125,-317.3828125,0.0
1734410554.517886,-722.16796875,-590.33203125,-709.9609375,-717.7734375,0.0
1734410554.5217917,-949.70703125,-638.18359375,-939.453125,-950.68359375,0.0
1734410554.5256972,-522.94921875,-647.4609375,-522.4609375,-536.62109375,0.0
1734410554.529603,-76.66015625,-618.65234375,-68.359375,-79.58984375,0.0
1734410554.5335088,-425.29296875,-602.05078125,-408.69140625,-419.43359375,0.0
1734410554.5374146,-573.73046875,-582.51953125,-563.4765625,-576.66015625,0.0
1734410554.54132,-311.5234375,-614.2578125,-304.19921875,-318.359375,0.0
1734410554.5452259,304.19921875,-631.34765625,303.22265625,289.0625,0.0
1734410554.5491316,129.39453125,-617.67578125,136.23046875,117.1875,0.0
1734410554.5530374,-269.04296875,-603.515625,-257.8125,-275.390625,0.0
1734410554.5569432,-339.35546875,-580.078125,-331.54296875,-346.6796875,0.0
1734410554.5608487,-481.4453125,-607.91015625,-471.19140625,-487.79296875,0.0
1734410554.5647602,-645.99609375,-648.92578125,-634.27734375,-647.4609375,0.0
1734410554.568666,-571.2890625,-636.23046875,-567.87109375,-581.54296875,0.0
1734410554.5725718,-437.5,-611.328125,-434.5703125,-447.75390625,0.0
1734410554.5764775,-664.55078125,-592.28515625,-654.78515625,-666.015625,0.0
1734410554.580383,-851.07421875,-618.1640625,-846.19140625,-858.3984375,0.0
1734410554.5842888,-460.9375,-648.92578125,-461.42578125,-474.609375,0.0
1734410554.5881946,204.1015625,-628.90625,201.66015625,190.91796875,0.0
1734410554.5921004,188.4765625,-614.74609375,206.0546875,198.2421875,0.0
1734410554.5960062,-758.7890625,-606.93359375,-735.83984375,-749.51171875,0.0
1734410554.5999117,-935.546875,-627.9296875,-932.12890625,-943.359375,0.0
1734410554.6038175,-440.4296875,-669.921875,-439.453125,-449.21875,0.0
1734410554.6077232,-365.72265625,-666.9921875,-358.3984375,-377.44140625,0.0
1734410554.6116343,-685.546875,-655.2734375,-666.9921875,-678.22265625,0.0
1734410554.61554,-859.86328125,-631.34765625,-854.00390625,-860.3515625,0.0
1734410554.6194456,-584.47265625,-638.18359375,-584.47265625,-593.26171875,0.0
1734410554.6233513,-642.08984375,-689.94140625,-628.41796875,-634.765625,0.0
1734410554.627257,-703.61328125,-687.01171875,-692.3828125,-701.171875,0.0
1734410554.631163,-232.421875,-655.2734375,-228.02734375,-239.74609375,0.0
1734410554.6350684,243.1640625,-609.86328125,248.53515625,233.3984375,0.0
1734410554.6389742,-505.37109375,-622.0703125,-490.234375,-501.46484375,0.0
1734410554.64288,-876.46484375,-673.828125,-869.62890625,-876.953125,0.0
1734410554.6467857,-188.4765625,-655.76171875,-188.4765625,-197.265625,0.0
1734410554.6506915,-190.91796875,-642.08984375,-183.59375,-192.3828125,0.0
1734410554.654597,-747.55859375,-624.51171875,-734.86328125,-738.76953125,0.0
1734410554.6585124,-941.89453125,-618.1640625,-934.08203125,-935.546875,0.0
1734410554.6624181,-627.9296875,-661.1328125,-627.9296875,-634.765625,0.0
1734410554.666324,-394.04296875,-664.55078125,-389.16015625,-396.97265625,0.0
1734410554.6702297,-451.66015625,-645.5078125,-440.4296875,-445.3125,0.0
1734410554.6741354,-633.30078125,-623.046875,-625.48828125,-633.30078125,0.0
1734410554.678041,-448.2421875,-610.83984375,-442.3828125,-453.61328125,0.0
1734410554.6819468,-170.41015625,-655.2734375,-162.109375,-171.875,0.0
1734410554.6858525,-146.97265625,-666.9921875,-135.25390625,-146.484375,0.0
1734410554.6897583,-382.8125,-650.390625,-369.140625,-381.34765625,0.0
1734410554.6936638,-168.9453125,-623.046875,-166.50390625,-181.15234375,0.0
1734410554.6975696,-265.13671875,-612.3046875,-255.37109375,-268.5546875,0.0
1734410554.7014754,-860.83984375,-666.9921875,-850.5859375,-862.3046875,0.0
1734410554.7053897,-600.5859375,-672.36328125,-602.05078125,-612.3046875,0.0
1734410554.7092955,-161.1328125,-644.04296875,-156.25,-165.0390625,0.0
1734410554.7132013,-517.578125,-642.578125,-507.8125,-519.53125,0.0
1734410554.717107,-982.421875,-636.71875,-976.5625,-979.98046875,0.0
1734410554.7210126,-900.390625,-670.41015625,-902.83203125,-899.90234375,0.0
1734410554.7249184,-230.95703125,-685.546875,-229.4921875,-237.79296875,0.0
1734410554.7288241,-93.75,-668.9453125,-83.49609375,-100.09765625,0.0
1734410554.73273,-725.5859375,-662.59765625,-708.0078125,-717.7734375,0.0
1734410554.7366357,-814.94140625,-637.20703125,-806.15234375,-816.40625,0.0
1734410554.7405412,2.44140625,-653.80859375,6.34765625,-9.765625,0.0
1734410554.744447,-193.359375,-699.70703125,-177.734375,-188.96484375,0.0
1734410554.7483528,-709.9609375,-695.3125,-698.2421875,-709.47265625,0.0
1734410554.752267,-618.1640625,-669.921875,-605.95703125,-617.67578125,0.0
1734410554.7561727,-798.33984375,-648.4375,-789.0625,-793.45703125,0.0
1734410554.7600784,-999.51171875,-682.12890625,-995.60546875,-993.1640625,0.0
1734410554.7639842,-899.4140625,-717.7734375,-894.53125,-898.92578125,0.0
1734410554.7678897,-415.0390625,-687.98828125,-415.52734375,-428.7109375,0.0
1734410554.7717955,-128.41796875,-664.0625,-117.67578125,-127.44140625,0.0
1734410554.7757013,-555.6640625,-654.296875,-533.69140625,-536.1328125,0.0
1734410554.779607,-1000.0,-678.7109375,-1000.0,-1000.0,0.0
1734410554.7835126,-413.0859375,-702.63671875,-418.9453125,-424.8046875,0.0
1734410554.7874184,59.08203125,-687.5,68.84765625,58.10546875,0.0
1734410554.7913241,-630.37109375,-694.3359375,-610.83984375,-623.53515625,0.0
1734410554.79523,-855.46875,-679.19921875,-844.23828125,-851.5625,0.0
1734410554.7991433,-668.9453125,-682.6171875,-661.62109375,-664.55078125,0.0
1734410554.803049,-814.453125,-729.4921875,-795.41015625,-796.875,0.0
1734410554.8069546,-729.98046875,-718.26171875,-713.8671875,-717.7734375,0.0
1734410554.8108604,-504.8828125,-693.84765625,-497.55859375,-507.32421875,0.0
1734410554.8147662,-603.515625,-673.828125,-593.75,-598.6328125,0.0
1734410554.818672,-704.58984375,-676.7578125,-698.73046875,-703.125,0.0
1734410554.8225775,-738.28125,-726.07421875,-728.02734375,-735.83984375,0.0
1734410554.8264832,-618.65234375,-721.6796875,-607.421875,-614.74609375,0.0
1734410554.830389,188.4765625,-679.6875,191.89453125,183.10546875,0.0
1734410554.8342948,-187.98828125,-665.0390625,-170.8984375,-180.6640625,0.0
1734410554.8382006,-972.16796875,-676.7578125,-964.35546875,-965.8203125,0.0
1734410554.842106,-768.5546875,-720.703125,-773.4375,-778.80859375,0.0
1734410554.8460193,-561.5234375,-719.23828125,-554.6875,-561.03515625,0.0
1734410554.8499248,-698.73046875,-693.84765625,-691.40625,-695.80078125,0.0
1734410554.8538306,-851.07421875,-674.8046875,-845.703125,-849.12109375,0.0
1734410554.8577363,-751.953125,-659.66796875,-745.60546875,-748.046875,0.0
1734410554.8616421,-791.9921875,-703.61328125,-780.2734375,-782.71484375,0.0
1734410554.865548,-491.2109375,-704.58984375,-480.46875,-488.76953125,0.0
1734410554.8694534,-293.9453125,-671.38671875,-283.69140625,-292.48046875,0.0
1734410554.8733592,-274.4140625,-645.5078125,-267.578125,-275.390625,0.0
1734410554.877265,-424.31640625,-631.8359375,-406.25,-413.57421875,0.0
1734410554.8811707,-1000.0,-681.640625,-1000.0,-1000.0,0.0
1734410554.8850763,-826.66015625,-688.96484375,-828.125,-839.35546875,0.0
1734410554.888982,-405.2734375,-648.92578125,-396.484375,-407.2265625,0.0
1734410554.8928945,-757.32421875,-645.99609375,-746.09375,-746.09375,0.0
1734410554.8968003,-1000.0,-655.76171875,-1000.0,-1000.0,0.0
1734410554.900706,-885.25390625,-682.12890625,-885.25390625,-887.20703125,0.0
1734410554.9046118,-559.5703125,-691.40625,-554.19921875,-558.10546875,0.0
1734410554.9085174,-606.4453125,-672.8515625,-591.30859375,-596.6796875,0.0
1734410554.9124231,-693.359375,-652.83203125,-678.22265625,-692.3828125,0.0
1734410554.916329,-642.08984375,-634.765625,-632.32421875,-643.06640625,0.0
1734410554.9202347,-216.796875,-656.73828125,-206.54296875,-214.84375,0.0
1734410554.9241405,-501.46484375,-693.84765625,-482.421875,-489.2578125,0.0
1734410554.928046,-546.875,-674.8046875,-534.1796875,-538.0859375,0.0
1734410554.9319518,-533.203125,-660.64453125,-520.01953125,-522.4609375,0.0
1734410554.9358575,-916.9921875,-660.15625,-909.66796875,-912.109375,0.0
1734410554.9397693,-1000.0,-682.6171875,-1000.0,-999.51171875,0.0
1734410554.943675,-945.80078125,-709.9609375,-942.87109375,-943.84765625,0.0
1734410554.9475808,-622.0703125,-688.4765625,-615.72265625,-619.62890625,0.0
1734410554.9514863,-700.1953125,-683.59375,-682.6171875,-684.08203125,0.0
1734410554.9553921,-975.5859375,-684.08203125,-967.28515625,-965.8203125,0.0
1734410554.959298,-953.125,-704.1015625,-944.3359375,-942.3828125,0.0
1734410554.9632037,-455.56640625,-714.84375,-450.1953125,-453.61328125,0.0
1734410554.9671092,-142.578125,-678.7109375,-125.48828125,-128.41796875,0.0
1734410554.971015,-814.453125,-675.78125,-792.48046875,-792.48046875,0.0
1734410554.9749207,-1000.0,-671.38671875,-1000.0,-1000.0,0.0
1734410554.9788265,-832.03125,-678.7109375,-826.66015625,-822.75390625,0.0
1734410554.982732,-890.13671875,-706.0546875,-887.6953125,-888.671875,0.0
1734410554.986643,-862.3046875,-683.10546875,-856.4453125,-861.328125,0.0
1734410554.9905488,-722.16796875,-666.9921875,-708.49609375,-710.44921875,0.0
1734410554.9944546,-663.0859375,-658.203125,-645.99609375,-646.484375,0.0
1734410554.9983604,-929.19921875,-674.8046875,-923.33984375,-918.9453125,0.0
1734410555.002266,-1000.0,-713.8671875,-1000.0,-1000.0,0.0
1734410555.0061717,-401.85546875,-680.17578125,-402.83203125,-406.25,0.0
1734410555.0100775,340.8203125,-642.08984375,340.8203125,335.9375,0.0
1734410555.0139832,-442.3828125,-662.59765625,-418.45703125,-421.38671875,0.0
1734410555.0178888,-1000.0,-695.80078125,-1000.0,-1000.0,0.0
1734410555.0217946,-656.25,-728.02734375,-655.76171875,-662.59765625,0.0
1734410555.0257003,-524.90234375,-723.14453125,-512.6953125,-519.04296875,0.0
1734410555.029606,-664.55078125,-712.890625,-648.4375,-651.85546875,0.0
1734410555.033517,-795.41015625,-717.28515625,-780.2734375,-785.64453125,0.0
1734410555.0374227,-728.02734375,-730.95703125,-718.26171875,-725.09765625,0.0
1734410555.0413282,-821.77734375,-774.4140625,-813.4765625,-814.94140625,0.0
1734410555.045234,-826.66015625,-779.296875,-822.265625,-821.77734375,0.0
1734410555.0491397,-636.23046875,-761.23046875,-633.30078125,-633.30078125,0.0
1734410555.0530455,-334.47265625,-761.71875,-325.68359375,-333.0078125,0.0
1734410555.056951,-467.28515625,-770.99609375,-452.1484375,-456.0546875,0.0
1734410555.0608568,-970.703125,-810.05859375,-964.84375,-959.9609375,0.0
1734410555.0647626,-802.24609375,-810.546875,-803.22265625,-803.22265625,0.0
1734410555.0686684,-108.88671875,-772.4609375,-107.91015625,-116.2109375,0.0
1734410555.0725741,-387.6953125,-780.76171875,-371.09375,-376.46484375,0.0
1734410555.0764797,-1000.0,-804.19921875,-1000.0,-1000.0,0.0
1734410555.0803945,-847.16796875,-834.9609375,-847.65625,-855.46875,0.0
1734410555.0843,-348.6328125,-830.078125,-341.796875,-349.609375,0.0
1734410555.0882058,-355.95703125,-799.8046875,-342.7734375,-351.07421875,0.0
1734410555.0921116,-650.87890625,-799.8046875,-637.20703125,-648.4375,0.0
1734410555.0960174,-622.0703125,-793.9453125,-616.2109375,-621.58203125,0.0
1734410555.099923,-310.05859375,-814.94140625,-303.7109375,-310.05859375,0.0
1734410555.1038287,-208.984375,-825.1953125,-200.1953125,-214.35546875,0.0
1734410555.1077344,-427.734375,-793.9453125,-415.52734375,-428.7109375,0.0
1734410555.1116402,-403.80859375,-791.50390625,-397.4609375,-404.78515625,0.0
1734410555.115546,-48.828125,-788.0859375,-46.875,-54.6875,0.0
1734410555.1194515,-654.296875,-819.3359375,-641.6015625,-653.80859375,0.0
1734410555.1233573,-907.71484375,-837.40234375,-899.4140625,-909.1796875,0.0
1734410555.1272714,-356.4453125,-793.9453125,-356.4453125,-363.76953125,0.0
1734410555.1311772,-393.5546875,-786.1328125,-387.20703125,-396.97265625,0.0
1734410555.135083,-860.83984375,-798.828125,-852.5390625,-855.46875,0.0
1734410555.1389885,-981.93359375,-810.05859375,-976.5625,-972.16796875,0.0
1734410555.1428943,-517.08984375,-810.05859375,-515.625,-519.53125,0.0
1734410555.1468,152.83203125,-765.625,158.69140625,145.01953125,0.0
1734410555.1507058,-41.9921875,-752.9296875,-47.36328125,-59.5703125,0.0
1734410555.1546113,-547.8515625,-760.7421875,-548.828125,-559.5703125,0.0
1734410555.1585171,-281.73828125,-758.7890625,-281.25,-291.9921875,0.0
1734410555.162423,-100.09765625,-764.16015625,-93.26171875,-99.609375,0.0
1734410555.1663287,-437.01171875,-734.375,-424.8046875,-435.546875,0.0
1734410555.1702344,-447.265625,-713.8671875,-444.82421875,-462.890625,0.0
1734410555.1741478,-461.42578125,-716.796875,-454.58984375,-462.40234375,0.0
1734410555.1780536,-844.7265625,-736.328125,-838.8671875,-842.28515625,0.0
1734410555.1819592,-824.21875,-763.18359375,-825.1953125,-835.44921875,0.0
1734410555.185865,-304.19921875,-729.4921875,-305.17578125,-315.4296875,0.0
1734410555.1897707,-34.1796875,-708.0078125,-30.2734375,-40.0390625,0.0
1734410555.1936765,-276.85546875,-724.12109375,-263.18359375,-272.4609375,0.0
1734410555.1975822,-513.671875,-735.83984375,-501.953125,-516.11328125,0.0
1734410555.2014878,-498.53515625,-760.25390625,-493.65234375,-513.18359375,0.0
1734410555.2053936,454.1015625,-717.28515625,451.171875,431.15234375,0.0
1734410555.2092993,401.85546875,-685.546875,409.1796875,391.11328125,0.0
1734410555.213205,-421.875,-707.51953125,-410.64453125,-429.19921875,0.0
1734410555.2171106,-600.5859375,-713.37890625,-593.75,-609.86328125,0.0
1734410555.2210236,-706.54296875,-731.93359375,-699.70703125,-712.890625,0.0
1734410555.2249293,-572.75390625,-705.078125,-574.21875,-590.8203125,0.0
1734410555.228835,-343.26171875,-666.015625,-344.7265625,-361.81640625,0.0
1734410555.2327406,-349.609375,-675.29296875,-346.6796875,-360.3515625,0.0
1734410555.2366464,-713.37890625,-700.68359375,-706.0546875,-719.7265625,0.0
1734410555.2405522,-574.70703125,-729.98046875,-565.91796875,-581.0546875,0.0
1734410555.244458,-164.0625,-708.984375,-158.69140625,-172.8515625,0.0
1734410555.2483635,277.34375,-656.73828125,278.80859375,261.71875,0.0
1734410555.2522693,262.6953125,-653.80859375,272.4609375,242.67578125,0.0
1734410555.256175,-790.52734375,-685.05859375,-771.484375,-790.52734375,0.0
1734410555.2600808,-958.49609375,-715.8203125,-954.58984375,-959.47265625,0.0
1734410555.2639866,-284.66796875,-699.70703125,-286.62109375,-298.33984375,0.0
1734410555.267899,-280.2734375,-664.0625,-271.97265625,-284.66796875,0.0
1734410555.2718048,-579.1015625,-667.48046875,-571.77734375,-584.9609375,0.0
1734410555.2757103,-580.56640625,-667.96875,-576.171875,-585.9375,0.0
1734410555.279616,-622.55859375,-693.84765625,-620.60546875,-633.7890625,0.0
1734410555.283522,-639.6484375,-698.2421875,-637.6953125,-652.83203125,0.0
1734410555.2874277,-208.49609375,-655.2734375,-206.54296875,-217.7734375,0.0
1734410555.2913332,19.53125,-651.3671875,25.390625,8.30078125,0.0
1734410555.295239,5.37109375,-658.203125,14.16015625,-5.37109375,0.0
1734410555.2991447,-547.8515625,-692.87109375,-537.59765625,-555.6640625,0.0
1734410555.3030505,-520.99609375,-699.70703125,-519.53125,-531.73828125,0.0
1734410555.3069563,20.01953125,-652.34375,19.04296875,9.27734375,0.0
1734410555.3108618,-111.328125,-645.99609375,-104.98046875,-118.1640625,0.0
1734410555.3147733,-772.4609375,-669.43359375,-759.27734375,-764.6484375,0.0
1734410555.318679,-999.51171875,-699.21875,-995.60546875,-1000.0,0.0
1734410555.3225849,-514.16015625,-710.44921875,-516.11328125,-531.73828125,0.0
1734410555.3264906,-234.86328125,-677.24609375,-228.515625,-239.74609375,0.0
1734410555.3303962,-461.42578125,-665.0390625,-447.75390625,-454.1015625,0.0
1734410555.334302,-593.75,-671.875,-589.35546875,-603.02734375,0.0
1734410555.3382077,-349.609375,-685.546875,-352.5390625,-362.3046875,0.0
1734410555.3421135,-207.51953125,-698.2421875,-195.80078125,-201.66015625,0.0
1734410555.3460193,-468.75,-663.0859375,-453.61328125,-464.35546875,0.0
1734410555.3499248,-507.32421875,-638.18359375,-496.09375,-506.34765625,0.0
1734410555.3538306,-432.6171875,-646.484375,-427.24609375,-435.546875,0.0
1734410555.3577363,-787.109375,-668.45703125,-783.69140625,-787.109375,0.0
1734410555.3616474,-947.75390625,-692.3828125,-947.75390625,-953.61328125,0.0
1734410555.3655531,-449.21875,-658.203125,-449.21875,-458.0078125,0.0
1734410555.369459,-77.1484375,-622.55859375,-67.3828125,-76.66015625,0.0
1734410555.3733644,-614.2578125,-642.578125,-596.19140625,-603.02734375,0.0
1734410555.3772702,-1000.0,-663.57421875,-1000.0,-1000.0,0.0
1734410555.381176,-580.56640625,-673.33984375,-584.9609375,-592.28515625,0.0
1734410555.3850818,369.62890625,-626.953125,360.83984375,348.6328125,0.0
1734410555.3889875,8.7890625,-608.3984375,18.5546875,8.7890625,0.0
1734410555.392893,-610.3515625,-627.44140625,-595.21484375,-609.375,0.0
1734410555.3967988,-594.23828125,-637.6953125,-585.44921875,-596.19140625,0.0
1734410555.4007046,-716.796875,-670.41015625,-709.9609375,-720.703125,0.0
1734410555.4046104,-697.265625,-655.76171875,-692.3828125,-701.171875,0.0
1734410555.408521,-559.08203125,-624.0234375,-557.12890625,-561.03515625,0.0
1734410555.4124265,-558.10546875,-627.44140625,-556.640625,-566.40625,0.0
1734410555.4163322,-819.82421875,-645.5078125,-812.01171875,-815.4296875,0.0
1734410555.420238,-992.1875,-681.640625,-989.2578125,-983.3984375,0.0
1734410555.4241438,-721.6796875,-660.15625,-728.02734375,-731.93359375,0.0
1734410555.4280496,30.76171875,-606.93359375,25.87890625,21.97265625,0.0
1734410555.431955,-15.13671875,-609.86328125,1.46484375,-2.9296875,0.0
1734410555.4358609,-905.76171875,-638.18359375,-889.16015625,-890.625,0.0
1734410555.4397666,-990.72265625,-670.41015625,-991.69921875,-990.72265625,0.0
1734410555.4436724,-233.88671875,-651.3671875,-235.83984375,-244.140625,0.0
1734410555.447578,-84.47265625,-610.3515625,-76.171875,-84.47265625,0.0
1734410555.4514837,-477.5390625,-613.28125,-466.796875,-474.609375,0.0
1734410555.4553983,-752.44140625,-628.41796875,-745.60546875,-747.55859375,0.0
1734410555.4593039,-733.88671875,-656.25,-725.5859375,-730.46875,0.0
1734410555.4632096,-632.8125,-658.203125,-625.0,-639.6484375,0.0
1734410555.4671154,-553.22265625,-619.140625,-545.8984375,-560.546875,0.0
1734410555.4710212,-423.828125,-613.76953125,-418.9453125,-434.08203125,0.0
1734410555.4749267,-367.67578125,-621.09375,-356.93359375,-368.1640625,0.0
1734410555.4788325,-691.40625,-650.390625,-675.78125,-681.15234375,0.0
1734410555.4827383,-894.53125,-663.57421875,-889.16015625,-899.4140625,0.0
1734410555.486644,-262.20703125,-614.74609375,-267.578125,-277.34375,0.0
1734410555.4905498,377.44140625,-592.28515625,384.765625,374.51171875,0.0
1734410555.4944553,-563.96484375,-617.1875,-547.36328125,-558.10546875,0.0
1734410555.498361,-1000.0,-646.97265625,-1000.0,-1000.0,0.0
1734410555.5022755,-599.12109375,-647.4609375,-596.19140625,-605.95703125,0.0
1734410555.506181,-369.140625,-610.3515625,-358.88671875,-367.1875,0.0
1734410555.5100868,-383.7890625,-597.65625,-373.53515625,-375.0,0.0
1734410555.5139925,-656.73828125,-612.79296875,-643.06640625,-642.08984375,0.0
1734410555.5178983,-791.015625,-638.671875,-782.71484375,-784.66796875,0.0
1734410555.5218039,-303.22265625,-653.3203125,-298.33984375,-307.6171875,0.0
1734410555.5257096,43.45703125,-621.58203125,51.7578125,41.9921875,0.0
1734410555.5296154,-283.203125,-610.83984375,-271.484375,-286.1328125,0.0
1734410555.5335212,-288.57421875,-613.76953125,-281.25,-296.875,0.0
1734410555.537427,-250.0,-628.41796875,-240.72265625,-253.41796875,0.0
1734410555.5413325,-815.91796875,-676.26953125,-805.6640625,-819.82421875,0.0
1734410555.5452383,-557.6171875,-647.4609375,-556.15234375,-566.40625,0.0
1734410555.549152,-51.26953125,-604.98046875,-47.36328125,-56.15234375,0.0
1734410555.5530574,-597.16796875,-623.53515625,-588.8671875,-594.23828125,0.0
1734410555.5569632,-1000.0,-653.3203125,-1000.0,-1000.0,0.0
1734410555.560869,-785.15625,-672.8515625,-785.15625,-791.50390625,0.0
1734410555.5647748,-257.32421875,-639.16015625,-255.859375,-265.625,0.0
1734410555.5686803,-78.61328125,-610.3515625,-68.84765625,-76.66015625,0.0
1734410555.572586,-331.54296875,-620.1171875,-318.359375,-327.63671875,0.0
1734410555.5764918,-544.921875,-636.71875,-534.66796875,-543.9453125,0.0
1734410555.5803976,32.2265625,-655.2734375,34.1796875,20.99609375,0.0
1734410555.5843034,87.40234375,-643.06640625,94.23828125,81.54296875,0.0
1734410555.588209,-379.8828125,-624.51171875,-368.65234375,-379.39453125,0.0
1734410555.5921147,-585.9375,-630.37109375,-575.1953125,-588.37890625,0.0
1734410555.5960279,-880.859375,-645.5078125,-873.53515625,-879.8828125,0.0
1734410555.5999334,-997.0703125,-676.26953125,-997.0703125,-998.53515625,0.0
1734410555.6038392,-699.70703125,-662.59765625,-698.73046875,-712.40234375,0.0
1734410555.607745,-203.125,-624.0234375,-196.77734375,-209.47265625,0.0
1734410555.6116507,-415.0390625,-629.39453125,-403.3203125,-411.62109375,0.0
1734410555.6155565,-709.47265625,-638.18359375,-698.2421875,-709.9609375,0.0
1734410555.619462,-672.8515625,-666.50390625,-664.0625,-678.7109375,0.0
1734410555.6233678,-160.64453125,-652.83203125,-155.76171875,-171.875,0.0
1734410555.6272736,303.22265625,-606.93359375,318.359375,303.7109375,0.0
1734410555.6311793,-271.484375,-615.72265625,-252.9296875,-271.484375,0.0
1734410555.6350849,-832.03125,-636.23046875,-827.63671875,-835.44921875,0.0
1734410555.6389906,-791.9921875,-663.57421875,-791.50390625,-792.96875,0.0
1734410555.642903,0.0,-667.48046875,-688.4765625,-699.70703125,0.0
1734410555.6468089,0.0,-629.8828125,-611.328125,-621.09375,0.0
1734410555.6507146,0.0,-629.39453125,-551.7578125,-558.59375,0.0
1734410555.6546204,0.0,-641.6015625,-593.75,-605.46875,0.0
1734410555.6585262,0.0,-664.55078125,-857.91015625,-868.65234375,0.0
1734410555.6624317,0.0,-668.45703125,-551.7578125,-563.96484375,0.0
1734410555.6663375,0.0,-623.53515625,190.4296875,178.7109375,0.0
1734410555.6702433,0.0,-607.421875,590.8203125,578.61328125,0.0
1734410555.674149,0.0,-632.32421875,-294.43359375,-307.6171875,0.0
1734410555.6780546,0.0,-661.62109375,-776.3671875,-789.0625,0.0
1734410555.6819603,0.0,-675.29296875,-444.3359375,-458.984375,0.0
1734410555.685866,0.0,-640.13671875,-314.453125,-327.1484375,0.0
1734410555.689778,-432.12890625,-626.953125,-422.8515625,-435.05859375,0.0
1734410555.6936839,-809.08203125,-641.6015625,-802.734375,-807.12890625,0.0
1734410555.6975896,-834.47265625,-663.57421875,-832.51953125,-835.9375,0.0
1734410555.7014952,-756.8359375,-687.01171875,-757.32421875,-768.06640625,0.0
1734410555.705401,-603.02734375,-653.80859375,-601.5625,-609.375,0.0
1734410555.7093067,-342.7734375,-626.953125,-337.890625,-346.19140625,0.0
1734410555.7132125,-267.08984375,-627.44140625,-259.765625,-274.4140625,0.0
1734410555.717118,-341.796875,-645.99609375,-331.54296875,-345.21484375,0.0
1734410555.7210238,-889.6484375,-684.5703125,-881.8359375,-889.16015625,0.0
1734410555.7249296,-656.73828125,-654.78515625,-655.2734375,-664.0625,0.0
1734410555.7288353,-134.27734375,-622.0703125,-127.44140625,-140.625,0.0
1734410555.732741,-612.79296875,-639.6484375,-597.16796875,-604.00390625,0.0
1734410555.7366521,-1000.0,-663.57421875,-1000.0,-1000.0,0.0
1734410555.740558,-872.0703125,-687.5,-873.046875,-872.0703125,0.0
1734410555.7444637,-452.1484375,-653.80859375,-450.68359375,-455.078125,0.0
1734410555.7483695,-316.40625,-616.2109375,-309.08203125,-316.89453125,0.0
1734410555.7522752,-677.734375,-632.8125,-658.69140625,-664.0625,0.0
1734410555.7561808,-765.625,-653.80859375,-759.27734375,-762.20703125,0.0
1734410555.7600865,-37.59765625,-666.9921875,-43.45703125,-53.22265625,0.0
1734410555.7639923,-226.5625,-661.1328125,-223.6328125,-236.328125,0.0
1734410555.767898,-506.34765625,-641.6015625,-504.39453125,-513.18359375,0.0
1734410555.7718036,-395.99609375,-645.5078125,-389.6484375,-400.87890625,0.0
1734410555.7757094,-799.8046875,-661.62109375,-790.52734375,-797.8515625,0.0
1734410555.7796152,-1000.0,-700.68359375,-1000.0,-1000.0,0.0
1734410555.7835257,0.0,-688.96484375,-816.89453125,-825.1953125,0.0
1734410555.7874315,0.0,-637.20703125,-386.23046875,-400.87890625,0.0
1734410555.7913373,0.0,-647.4609375,-622.55859375,-626.46484375,0.0
1734410555.7952428,0.0,-675.78125,-1000.0,-1000.0,0.0
1734410555.7991486,0.0,-703.125,-981.4453125,-979.4921875,0.0
1734410555.8030543,0.0,-685.546875,-493.1640625,-495.60546875,0.0
1734410555.80696,0.0,-635.7421875,-17.578125,-24.4140625,0.0
1734410555.8108656,0.0,-637.20703125,-412.109375,-416.015625,0.0
1734410555.8147714,0.0,-658.69140625,-978.02734375,-976.07421875,0.0
1734410555.8186772,0.0,-673.828125,-667.48046875,-673.828125,0.0
1734410555.822583,0.0,-668.45703125,-409.66796875,-417.96875,0.0
1734410555.8264887,0.0,-639.16015625,-609.86328125,-613.28125,0.0
1734410555.8304036,-695.80078125,-640.625,-686.5234375,-694.3359375,0.0
1734410555.834309,-779.78515625,-654.296875,-772.94921875,-779.78515625,0.0
1734410555.8382149,-934.5703125,-685.05859375,-931.15234375,-931.640625,0.0
1734410555.8421206,-939.453125,-699.21875,-935.05859375,-937.98828125,0.0
1734410555.8460264,-421.875,-651.85546875,-419.921875,-423.33984375,0.0
1734410555.849932,36.1328125,-638.671875,48.828125,45.8984375,0.0
1734410555.8538377,-494.62890625,-660.15625,-473.6328125,-490.234375,0.0
1734410555.8577435,-1000.0,-689.94140625,-1000.0,-1000.0,0.0
1734410555.8616493,-688.4765625,-695.3125,-685.05859375,-611.81640625,0.0
1734410555.865555,329.1015625,-632.8125,333.49609375,351.07421875,0.0
1734410555.8694606,-18.5546875,-629.8828125,-3.41796875,-24.90234375,0.0
1734410555.8733664,-908.203125,-667.48046875,-898.4375,-896.97265625,0.0
1734410555.8772805,0.0,-683.10546875,-931.640625,-930.6640625,0.0
1734410555.8811862,0.0,-693.84765625,-800.29296875,-799.8046875,0.0
1734410555.885092,0.0,-653.3203125,-618.1640625,-621.09375,0.0
1734410555.8889978,0.0,-636.71875,-639.16015625,-641.11328125,0.0
1734410555.8929036,0.0,-654.296875,-769.04296875,-770.01953125,0.0
1734410555.896809,0.0,-671.38671875,-646.484375,-650.390625,0.0
1734410555.9007149,0.0,-690.4296875,-584.9609375,-590.33203125,0.0
1734410555.9046206,0.0,-667.48046875,-588.8671875,-592.7734375,0.0
1734410555.9085264,0.0,-631.34765625,-105.46875,-111.328125,0.0
1734410555.912432,0.0,-641.6015625,-197.75390625,-203.61328125,0.0
1734410555.9163377,0.0,-682.12890625,-985.3515625,-986.328125,0.0
1734410555.9202435,0.0,-706.54296875,-960.9375,-963.37890625,0.0
1734410555.924157,-435.546875,-669.43359375,-428.7109375,-434.08203125,0.0
1734410555.9280627,-309.5703125,-635.25390625,-291.9921875,-296.875,0.0
1734410555.9319685,-797.8515625,-649.90234375,-783.69140625,-786.1328125,0.0
1734410555.9358742,-969.23828125,-673.828125,-967.7734375,-966.796875,0.0
1734410555.9397798,-713.8671875,-698.2421875,-711.42578125,-718.26171875,0.0
1734410555.9436855,-374.51171875,-681.640625,-366.69921875,-375.0,0.0
1734410555.9475913,-255.37109375,-652.34375,-242.67578125,-246.09375,0.0
1734410555.951497,-492.1875,-662.109375,-484.375,-490.234375,0.0
1734410555.9554029,-147.4609375,-658.69140625,-144.04296875,-153.3203125,0.0
1734410555.9593084,-351.07421875,-687.01171875,-337.40234375,-343.26171875,0.0
1734410555.9632142,-789.0625,-687.01171875,-782.2265625,-787.59765625,0.0
1734410555.96712,-339.84375,-644.53125,-336.42578125,-343.26171875,0.0
1734410555.9710333,-330.078125,-650.87890625,-310.05859375,-315.91796875,0.0
1734410555.974939,-935.546875,-679.19921875,-928.22265625,-930.6640625,0.0
1734410555.9788446,-1000.0,-711.9140625,-1000.0,-1000.0,0.0
1734410555.9827504,-578.125,-699.70703125,-574.21875,-579.1015625,0.0
1734410555.9866562,-172.8515625,-649.4140625,-168.45703125,-181.640625,0.0
1734410555.990562,-269.53125,-651.3671875,-259.765625,-270.99609375,0.0
1734410555.9944677,-719.23828125,-673.828125,-706.54296875,-713.37890625,0.0
1734410555.9983733,-533.203125,-693.359375,-527.83203125,-541.015625,0.0
1734410556.002279,-109.86328125,-690.4296875,-102.05078125,-112.3046875,0.0
1734410556.0061848,-509.27734375,-664.0625,-497.55859375,-502.9296875,0.0
1734410556.0100906,-779.78515625,-665.52734375,-772.94921875,-783.203125,0.0
1734410556.0139961,-765.625,-675.78125,-760.7421875,-766.6015625,0.0
1734410556.0179083,-911.62109375,-704.1015625,-908.69140625,-907.2265625,0.0
1734410556.021814,-954.58984375,-709.9609375,-957.03125,-958.0078125,0.0
1734410556.02572,-501.46484375,-663.0859375,-503.41796875,-510.7421875,0.0
1734410556.0296257,-340.33203125,-658.203125,-324.70703125,-331.0546875,0.0
1734410556.0335314,-829.58984375,-685.05859375,-818.359375,-819.82421875,0.0
1734410556.037437,-840.33203125,-703.61328125,-834.9609375,-837.40234375,0.0
1734410556.0413427,-415.52734375,-703.61328125,-410.15625,-419.921875,0.0
1734410556.0452485,394.04296875,-648.4375,394.53125,388.18359375,0.0
1734410556.0491543,82.03125,-644.04296875,97.16796875,91.796875,0.0
1734410556.0530598,-584.9609375,-665.0390625,-568.359375,-579.1015625,0.0
1734410556.0569656,-727.05078125,-675.78125,-718.26171875,-729.4921875,0.0
1734410556.0608714,-789.0625,-693.359375,-785.64453125,-794.921875,0.0
1734410556.0647836,-593.75,-659.1796875,-591.30859375,-599.12109375,0.0
1734410556.0686893,-629.39453125,-646.484375,-624.0234375,-630.859375,0.0
1734410556.0725951,-724.12109375,-658.69140625,-716.30859375,-720.21484375,0.0
1734410556.0765007,-867.67578125,-678.7109375,-857.421875,-856.93359375,0.0
1734410556.0804064,-830.078125,-706.0546875,-822.75390625,-824.21875,0.0
1734410556.0843122,-287.109375,-666.9921875,-280.76171875,-287.59765625,0.0
1734410556.088218,219.23828125,-625.48828125,225.5859375,214.84375,0.0
1734410556.0921235,-8.7890625,-640.13671875,11.23046875,0.9765625,0.0
1734410556.0960293,-909.1796875,-682.12890625,-892.08984375,-894.53125,0.0
1734410556.099935,-956.54296875,-705.56640625,-956.0546875,-957.51953125,0.0
1734410556.1038408,-131.8359375,-661.62109375,-134.765625,-140.625,0.0
1734410556.1077466,5.859375,-635.7421875,19.04296875,14.16015625,0.0
1734410556.111658,-779.296875,-665.0390625,-754.8828125,-756.34765625,0.0
1734410556.1155639,-947.75390625,-680.17578125,-945.80078125,-947.75390625,0.0
1734410556.1194694,-553.7109375,-694.3359375,-551.26953125,-557.12890625,0.0
1734410556.1233752,-476.5625,-675.78125,-463.8671875,-472.16796875,0.0
1734410556.127281,-523.4375,-644.04296875,-509.765625,-516.11328125,0.0
1734410556.1311867,-355.95703125,-646.484375,-345.703125,-355.46875,0.0
1734410556.1350923,16.11328125,-651.85546875,20.5078125,4.8828125,0.0
1734410556.138998,-492.1875,-693.359375,-478.02734375,-491.69921875,0.0
1734410556.1429038,-555.17578125,-681.15234375,-547.36328125,-559.5703125,0.0
1734410556.1468096,12.6953125,-627.44140625,18.5546875,12.6953125,0.0
1734410556.1507154,-343.26171875,-640.13671875,-330.078125,-341.796875,0.0
1734410556.154621,-854.4921875,-664.0625,-846.6796875,-855.95703125,0.0
1734410556.1585317,-982.91015625,-696.77734375,-982.421875,-982.421875,0.0
1734410556.1624374,-417.96875,-678.22265625,-419.43359375,-431.15234375,0.0
1734410556.166343,77.1484375,-625.9765625,83.0078125,72.265625,0.0
1734410556.1702487,-463.8671875,-637.20703125,-455.56640625,-462.40234375,0.0
1734410556.1741545,-1000.0,-658.69140625,-1000.0,-1000.0,0.0
1734410556.1780603,-604.00390625,-674.31640625,-568.359375,-575.1953125,0.0
1734410556.181966,-34.66796875,-663.57421875,-20.5078125,-30.76171875,0.0
1734410556.1858716,-245.60546875,-637.20703125,-247.0703125,-259.765625,0.0
1734410556.1897774,-592.28515625,-651.3671875,-583.0078125,-595.21484375,0.0
1734410556.1936831,-401.3671875,-659.1796875,-400.87890625,-411.62109375,0.0
1734410556.197589,-515.625,-680.6640625,-504.39453125,-515.625,0.0
1734410556.2014945,-754.39453125,-693.359375,-742.1875,-754.8828125,0.0
1734410556.2054098,-376.953125,-643.06640625,-373.046875,-382.8125,0.0
1734410556.2093153,-229.00390625,-630.859375,-215.8203125,-223.14453125,0.0
1734410556.213221,-760.7421875,-661.62109375,-747.55859375,-754.39453125,0.0
1734410556.2171268,-1000.0,-689.453125,-1000.0,-1000.0,0.0
1734410556.2210326,-588.37890625,-685.546875,-590.33203125,-594.23828125,0.0
1734410556.2249384,194.3359375,-628.41796875,193.359375,181.640625,0.0
1734410556.228844,151.3671875,-615.234375,160.64453125,146.484375,0.0
1734410556.2327497,-688.4765625,-650.87890625,-671.38671875,-684.5703125,0.0
1734410556.2366555,-802.24609375,-671.875,-799.31640625,-821.77734375,0.0
1734410556.2405612,124.51171875,-658.69140625,124.0234375,108.3984375,0.0
1734410556.244467,-49.31640625,-629.39453125,-43.9453125,-52.24609375,0.0
1734410556.2483726,-503.41796875,-621.58203125,-497.55859375,-512.6953125,0.0
1734410556.2522917,-685.05859375,-646.97265625,-674.8046875,-685.546875,0.0
1734410556.2561972,-899.4140625,-682.6171875,-893.06640625,-896.97265625,0.0
1734410556.260103,-796.38671875,-698.2421875,-792.96875,-797.36328125,0.0
1734410556.2640088,-359.86328125,-649.90234375,-354.4921875,-361.81640625,0.0
1734410556.2679145,-64.94140625,-615.234375,-56.15234375,-66.89453125,0.0
1734410556.27182,-229.4921875,-635.7421875,-215.8203125,-231.4453125,0.0
1734410556.2757258,-603.02734375,-660.15625,-588.37890625,-594.7265625,0.0
1734410556.2796316,-753.41796875,-680.6640625,-751.953125,-765.13671875,0.0
1734410556.2835374,193.359375,-623.53515625,183.59375,168.45703125,0.0
1734410556.2874432,561.5234375,-574.21875,574.70703125,576.66015625,0.0
1734410556.2913487,-651.3671875,-621.58203125,-631.34765625,-636.71875,0.0
1734410556.2952545,-975.09765625,-654.296875,-973.14453125,-978.515625,0.0
1734410556.299168,-418.9453125,-662.109375,-421.38671875,-435.546875,0.0
1734410556.303074,-190.91796875,-631.8359375,-186.5234375,-206.54296875,0.0
1734410556.3069797,-253.90625,-595.703125,-241.69921875,-252.44140625,0.0
1734410556.3108854,-530.2734375,-614.74609375,-520.5078125,-534.66796875,0.0
1734410556.314791,-641.11328125,-644.04296875,-633.7890625,-649.4140625,0.0
1734410556.3186967,-318.84765625,-658.203125,-314.453125,-326.66015625,0.0
1734410556.3226025,-10.25390625,-629.8828125,-6.8359375,-22.94921875,0.0
1734410556.3265083,22.94921875,-591.30859375,21.97265625,7.8125,0.0
1734410556.330414,215.8203125,-590.33203125,220.703125,208.0078125,0.0
1734410556.3343196,-394.53125,-625.48828125,-379.8828125,-389.16015625,0.0
1734410556.3382254,-930.17578125,-664.55078125,-927.24609375,-937.5,0.0
1734410556.3421311,-133.7890625,-633.30078125,-142.578125,-155.2734375,0.0
1734410556.3460438,694.82421875,-564.94140625,701.66015625,694.82421875,0.0
1734410556.3499496,-228.02734375,-592.28515625,-213.8671875,-222.65625,0.0
1734410556.3538554,-1000.0,-640.13671875,-1000.0,-1000.0,0.0
1734410556.3577611,-718.26171875,-659.1796875,-720.703125,-726.5625,0.0
1734410556.361667,-331.54296875,-642.08984375,-333.49609375,-347.65625,0.0
1734410556.3655725,70.80078125,-593.26171875,76.66015625,61.5234375,0.0
1734410556.3694782,-187.01171875,-602.5390625,-174.31640625,-189.453125,0.0
1734410556.373384,-499.0234375,-630.37109375,-493.1640625,-505.37109375,0.0
1734410556.3772898,-317.3828125,-647.4609375,-308.10546875,-318.359375,0.0
1734410556.3811953,-556.15234375,-653.3203125,-550.78125,-568.359375,0.0
1734410556.385101,-303.22265625,-602.5390625,-306.640625,-325.1953125,0.0
1734410556.3890069,-156.73828125,-588.37890625,-146.97265625,-156.73828125,0.0
1734410556.3929198,-788.0859375,-625.48828125,-780.76171875,-782.71484375,0.0
1734410556.3968253,-992.1875,-655.76171875,-994.62890625,-1000.0,0.0
1734410556.400731,-455.56640625,-650.390625,-456.0546875,-466.796875,0.0
1734410556.4046369,181.15234375,-595.21484375,182.6171875,172.36328125,0.0
1734410556.4085426,-242.1875,-590.8203125,-232.91015625,-244.140625,0.0
1734410556.4124484,-738.28125,-627.9296875,-727.05078125,-738.76953125,0.0
1734410556.416354,-572.265625,-652.34375,-571.77734375,-586.42578125,0.0
1734410556.4202597,220.703125,-645.01953125,213.37890625,199.70703125,0.0
1734410556.4241655,291.50390625,-602.5390625,297.36328125,282.2265625,0.0
1734410556.4280713,-111.81640625,-591.796875,-100.5859375,-114.2578125,0.0
1734410556.431977,-520.01953125,-620.1171875,-511.23046875,-522.94921875,0.0
1734410556.4358826,-892.08984375,-652.34375,-886.71875,-893.06640625,0.0
1734410556.4397943,-758.30078125,-667.96875,-758.30078125,-763.18359375,0.0
1734410556.4437,-317.87109375,-627.9296875,-321.2890625,-331.54296875,0.0
1734410556.4476058,-99.12109375,-593.75,-96.6796875,-112.79296875,0.0
1734410556.4515116,-650.87890625,-622.55859375,-641.11328125,-653.3203125,0.0
1734410556.4554174,-995.60546875,-662.109375,-994.62890625,-997.0703125,0.0
1734410556.459323,-467.28515625,-669.43359375,-469.23828125,-480.95703125,0.0
1734410556.4632287,278.3203125,-620.60546875,275.87890625,260.7421875,0.0
1734410556.4671345,350.5859375,-583.0078125,365.234375,351.5625,0.0
1734410556.4710402,-649.90234375,-614.2578125,-626.46484375,-633.30078125,0.0
1734410556.4749458,-1000.0,-648.4375,-1000.0,-1000.0,0.0
1734410556.4788516,-336.42578125,-653.3203125,-342.7734375,-354.4921875,0.0
1734410556.4827573,-1.953125,-616.69921875,0.9765625,-10.25390625,0.0
1734410556.4866683,-327.1484375,-587.40234375,-321.77734375,-336.42578125,0.0
1734410556.4905741,-613.76953125,-609.375,-606.4453125,-622.55859375,0.0
1734410556.4944797,-746.09375,-634.27734375,-733.88671875,-748.046875,0.0
1734410556.4983854,-783.69140625,-656.25,-775.87890625,-794.43359375,0.0
1734410556.5022912,-426.7578125,-627.9296875,-423.33984375,-442.3828125,0.0
1734410556.506197,184.5703125,-574.21875,187.5,171.38671875,0.0
1734410556.5101025,510.25390625,-579.1015625,513.18359375,498.53515625,0.0
1734410556.5140083,-342.7734375,-623.53515625,-324.21875,-341.30859375,0.0
1734410556.517914,-829.58984375,-657.2265625,-822.75390625,-846.6796875,0.0
1734410556.5218198,-2.9296875,-627.9296875,-10.7421875,-29.78515625,0.0
1734410556.5257256,245.1171875,-583.984375,252.9296875,234.375,0.0
1734410556.5296311,-499.0234375,-599.609375,-481.93359375,-499.51171875,0.0
1734410556.5335422,-999.0234375,-632.32421875,-994.140625,-996.58203125,0.0
1734410556.5374477,-685.546875,-650.87890625,-686.5234375,-698.2421875,0.0
1734410556.5413535,-228.02734375,-632.32421875,-225.5859375,-242.1875,0.0
1734410556.5452592,-142.578125,-586.9140625,-141.11328125,-152.83203125,0.0
1734410556.549165,-442.87109375,-597.16796875,-437.5,-452.1484375,0.0
1734410556.5530705,-472.65625,-616.69921875,-470.21484375,-483.3984375,0.0
1734410556.5569763,-244.140625,-635.7421875,-241.2109375,-256.34765625,0.0
1734410556.560882,-368.1640625,-648.92578125,-360.3515625,-376.953125,0.0
1734410556.5647879,-162.109375,-604.98046875,-162.59765625,-179.19921875,0.0
1734410556.5686936,74.70703125,-587.40234375,74.70703125,57.12890625,0.0
1734410556.5725992,-456.0546875,-619.62890625,-449.70703125,-470.21484375,0.0
1734410556.576505,-760.7421875,-663.57421875,-757.8125,-778.80859375,0.0
1734410556.5804198,-366.2109375,-673.33984375,-368.1640625,-389.16015625,0.0
1734410556.5843256,492.67578125,-613.76953125,485.3515625,465.8203125,0.0
1734410556.588231,137.20703125,-607.91015625,142.08984375,125.9765625,0.0
1734410556.5921369,-852.05078125,-650.390625,-843.75,-856.4453125,0.0
1734410556.5960426,-825.68359375,-679.6875,-829.1015625,-837.40234375,0.0
1734410556.5999484,3.41796875,-685.05859375,-1.953125,-15.625,0.0
1734410556.6038542,290.52734375,-643.5546875,294.921875,279.296875,0.0
1734410556.6077597,-299.31640625,-631.34765625,-290.0390625,-302.24609375,0.0
1734410556.6116655,-590.33203125,-642.578125,-584.9609375,-598.6328125,0.0
1734410556.6155713,-52.734375,-642.08984375,-54.19921875,-67.3828125,0.0
1734410556.619477,-240.72265625,-668.9453125,-235.83984375,-249.0234375,0.0
1734410556.6233826,-256.8359375,-633.30078125,-256.34765625,-273.4375,0.0
1734410556.627297,90.8203125,-587.40234375,91.30859375,72.75390625,0.0
1734410556.6312027,-338.37890625,-600.5859375,-327.63671875,-344.7265625,0.0
1734410556.6351082,-855.46875,-617.1875,-846.19140625,-865.72265625,0.0
1734410556.639014,-542.48046875,-617.67578125,-544.43359375,-564.453125,0.0
1734410556.6429198,267.578125,-561.03515625,262.6953125,245.1171875,0.0
1734410556.6468256,645.5078125,-505.37109375,651.3671875,628.41796875,0.0
1734410556.650731,63.96484375,-507.8125,74.70703125,45.41015625,0.0
1734410556.6546369,-661.1328125,-523.4375,-652.34375,-675.29296875,0.0
1734410556.6585426,26.85546875,-524.4140625,21.484375,7.8125,0.0
1734410556.6624484,687.01171875,-487.3046875,693.359375,683.10546875,0.0
1734410556.6663542,183.59375,-454.58984375,195.3125,176.26953125,0.0
1734410556.6702597,-269.53125,-445.3125,-265.13671875,-287.109375,0.0
1734410556.6741734,-321.77734375,-439.94140625,-318.84765625,-338.8671875,0.0
1734410556.6780791,-293.9453125,-458.984375,-293.9453125,-314.453125,0.0
1734410556.681985,-118.1640625,-437.5,-122.55859375,-147.94921875,0.0
1734410556.6858904,202.1484375,-386.23046875,200.1953125,173.33984375,0.0
1734410556.6897962,102.5390625,-375.48828125,107.421875,86.42578125,0.0
1734410556.693702,-182.12890625,-378.41796875,-175.78125,-194.3359375,0.0
1734410556.6976078,-276.3671875,-403.3203125,-267.578125,-292.48046875,0.0
1734410556.7015135,34.66796875,-396.484375,29.296875,4.8828125,0.0
1734410556.705419,812.5,-334.9609375,776.3671875,769.04296875,0.0
1734410556.7093248,296.38671875,-329.58984375,297.8515625,286.62109375,0.0
1734410556.7132306,-809.5703125,-361.81640625,-797.36328125,-814.94140625,0.0
1734410556.7171364,-693.84765625,-394.53125,-703.61328125,-712.40234375,0.0
1734410556.721049,-251.953125,-392.578125,-258.30078125,-278.3203125,0.0
1734410556.7249548,-182.12890625,-354.98046875,-181.640625,-207.51953125,0.0
1734410556.7288606,-403.3203125,-352.05078125,-395.5078125,-415.0390625,0.0
1734410556.7327662,-692.87109375,-360.83984375,-689.94140625,-710.44921875,0.0
1734410556.736672,-733.88671875,-394.04296875,-733.88671875,-754.39453125,0.0
1734410556.7405777,-376.953125,-410.64453125,-378.41796875,-392.578125,0.0
1734410556.7444835,-9.27734375,-379.8828125,-9.765625,-20.5078125,0.0
1734410556.7483892,-97.16796875,-359.86328125,-89.35546875,-107.421875,0.0
1734410556.7522948,-624.51171875,-370.60546875,-615.234375,-625.9765625,0.0
1734410556.7562006,-995.60546875,-436.5234375,-991.69921875,-989.74609375,0.0
1734410556.7601063,-702.1484375,-477.05078125,-707.51953125,-717.28515625,0.0
1734410556.764012,-79.1015625,-438.4765625,-84.47265625,-102.5390625,0.0
1734410556.7679248,-421.875,-425.29296875,-406.73828125,-417.96875,0.0
1734410556.7718306,-1000.0,-441.89453125,-1000.0,-1000.0,0.0
1734410556.7757363,-899.90234375,-473.14453125,-904.296875,-904.78515625,0.0
1734410556.7796419,-682.6171875,-513.671875,-677.24609375,-683.10546875,0.0
1734410556.7835476,-641.11328125,-495.1171875,-634.765625,-643.06640625,0.0
1734410556.7874534,-481.93359375,-457.03125,-476.07421875,-483.88671875,0.0
1734410556.7913592,-604.00390625,-438.96484375,-589.35546875,-596.6796875,0.0
1734410556.795265,-437.01171875,-455.56640625,-430.17578125,-440.91796875,0.0
1734410556.7991705,-659.1796875,-526.3671875,-653.3203125,-661.1328125,0.0
1734410556.8030763,-613.28125,-529.296875,-606.93359375,-616.69921875,0.0
1734410556.806982,-393.5546875,-485.83984375,-381.34765625,-392.08984375,0.0
1734410556.8108878,-821.2890625,-468.26171875,-808.10546875,-812.5,0.0
1734410556.8147995,-1000.0,-496.58203125,-1000.0,-1000.0,0.0
1734410556.8187053,-879.8828125,-561.03515625,-882.8125,-878.41796875,0.0
1734410556.822611,-442.87109375,-553.22265625,-443.84765625,-448.2421875,0.0
1734410556.8265169,-408.203125,-508.7890625,-397.4609375,-405.2734375,0.0
1734410556.8304226,-780.76171875,-466.30859375,-762.20703125,-770.5078125,0.0
1734410556.8343282,-808.10546875,-458.984375,-795.8984375,-804.19921875,0.0
1734410556.838234,-279.78515625,-519.53125,-273.92578125,-280.76171875,0.0
1734410556.8421397,146.97265625,-532.71484375,159.66796875,151.3671875,0.0
1734410556.8460455,-336.9140625,-497.55859375,-317.87109375,-324.21875,0.0
1734410556.849951,-625.0,-443.84765625,-616.69921875,-624.0234375,0.0
1734410556.8538568,-477.05078125,-417.48046875,-474.609375,-482.91015625,0.0
1734410556.8577626,-645.5078125,-496.09375,-641.11328125,-645.99609375,0.0
1734410556.8616786,-739.74609375,-537.109375,0.0,-741.2109375,0.0
1734410556.8655844,-373.53515625,-486.328125,0.0,-380.37109375,0.0
1734410556.8694901,-84.47265625,-413.0859375,0.0,-86.9140625,0.0
1734410556.8733957,-545.8984375,-386.23046875,0.0,-540.0390625,0.0
1734410556.8773015,-798.33984375,-461.42578125,0.0,-802.24609375,0.0
1734410556.8812072,-194.82421875,-520.01953125,0.0,-202.63671875,0.0
1734410556.885113,414.55078125,-480.46875,0.0,406.25,0.0
1734410556.8890185,-3.41796875,-403.3203125,0.0,-5.37109375,0.0
1734410556.8929243,-567.87109375,-355.46875,0.0,-569.82421875,0.0
1734410556.89683,-209.47265625,-418.45703125,0.0,-222.65625,0.0
1734410556.9007359,311.5234375,-484.86328125,0.0,303.7109375,0.0
1734410556.9046416,-45.41015625,-467.28515625,0.0,-46.38671875,0.0
1734410556.9085522,0.0,-395.99609375,-356.93359375,-375.0,0.0
1734410556.912458,0.0,-327.1484375,-311.5234375,-325.68359375,0.0
1734410556.9163637,0.0,-377.9296875,-386.71875,-399.90234375,0.0
1734410556.9202693,0.0,-477.5390625,-516.6015625,-529.296875,0.0
1734410556.924175,0.0,-475.09765625,-399.90234375,-412.59765625,0.0
1734410556.9280808,0.0,-393.5546875,184.5703125,166.9921875,0.0
1734410556.9319866,0.0,-320.3125,121.09375,104.4921875,0.0
1734410556.935892,0.0,-369.140625,-553.7109375,-568.84765625,0.0
1734410556.9397979,0.0,-468.26171875,-392.08984375,-405.76171875,0.0
1734410556.9437037,0.0,-468.75,266.6015625,250.9765625,0.0
1734410556.9476094,0.0,-398.92578125,448.73046875,428.7109375,0.0
1734410556.9515152,0.0,-323.73046875,-357.91015625,-379.39453125,0.0
1734410556.9554298,-630.37109375,-343.26171875,-631.34765625,-650.87890625,0.0
1734410556.9593356,-302.24609375,-449.21875,-305.17578125,-320.80078125,0.0
1734410556.9632413,-242.1875,-486.328125,-244.140625,-259.765625,0.0
1734410556.967147,-265.625,-439.453125,-266.6015625,-285.15625,0.0
1734410556.971053,-233.3984375,-327.63671875,-233.88671875,-252.44140625,0.0
1734410556.9749584,193.359375,-285.64453125,190.4296875,174.31640625,0.0
1734410556.9788642,19.04296875,-413.57421875,25.87890625,8.7890625,0.0
1734410556.98277,-573.2421875,-501.46484375,-564.94140625,-583.984375,0.0
1734410556.9866757,-277.83203125,-464.84375,-280.2734375,-298.828125,0.0
1734410556.9905815,494.140625,-341.30859375,487.79296875,469.7265625,0.0
1734410556.994487,39.0625,-304.19921875,41.50390625,23.4375,0.0
1734410556.9983928,-266.11328125,-424.8046875,-265.625,-282.71484375,0.0
1734410557.0023072,-7.8125,-512.6953125,-5.37109375,-21.484375,0.0
1734410557.006213,-22.94921875,-499.51171875,-14.6484375,-37.59765625,0.0
1734410557.0101187,-316.40625,-399.4140625,-308.59375,-330.56640625,0.0
1734410557.0140245,-524.90234375,-331.54296875,-518.5546875,-536.62109375,0.0
1734410557.01793,-309.08203125,-421.875,-313.96484375,-336.9140625,0.0
1734410557.0218358,36.1328125,-510.7421875,30.76171875,9.765625,0.0
1734410557.0257416,-46.38671875,-499.51171875,-33.69140625,-49.8046875,0.0
1734410557.0296474,-437.01171875,-409.66796875,-427.24609375,-446.2890625,0.0
1734410557.033553,33.69140625,-319.3359375,29.78515625,5.37109375,0.0
1734410557.0374587,293.9453125,-394.53125,305.17578125,277.83203125,0.0
1734410557.0413644,-490.72265625,-513.18359375,-476.07421875,-498.53515625,0.0
1734410557.0452702,-478.02734375,-510.7421875,-475.09765625,-493.1640625,0.0
1734410557.0491836,-55.6640625,-420.8984375,-56.15234375,-72.75390625,0.0
1734410557.0530894,-337.890625,-349.12109375,-332.51953125,-348.14453125,0.0
1734410557.0569952,-518.5546875,-424.31640625,-517.578125,-539.0625,0.0
1734410557.0609007,-203.125,-515.625,-208.0078125,-227.5390625,0.0
1734410557.0648065,-62.98828125,-517.578125,-62.5,-76.66015625,0.0
1734410557.0687122,-63.96484375,-451.66015625,-60.546875,-81.54296875,0.0
1734410557.072618,-188.96484375,-365.234375,-186.03515625,-211.42578125,0.0
1734410557.0765235,-420.8984375,-416.015625,-416.9921875,-440.4296875,0.0
1734410557.0804293,236.81640625,-505.859375,233.88671875,210.9375,0.0
1734410557.084335,306.15234375,-521.484375,307.6171875,288.0859375,0.0
1734410557.0882409,-355.46875,-476.07421875,-348.14453125,-366.69921875,0.0
1734410557.0921466,-386.23046875,-386.71875,-385.25390625,-404.296875,0.0
1734410557.0960596,-437.01171875,-423.33984375,-429.19921875,-449.70703125,0.0
1734410557.0999653,-688.96484375,-541.9921875,-676.26953125,-692.3828125,0.0
1734410557.103871,-644.04296875,-570.80078125,-639.6484375,-656.73828125,0.0
1734410557.1077766,-431.640625,-508.30078125,-430.17578125,-446.2890625,0.0
1734410557.1116824,-491.69921875,-414.55078125,-487.3046875,-499.0234375,0.0
1734410557.1155882,-427.24609375,-449.21875,-420.41015625,-436.03515625,0.0
1734410557.119494,-387.6953125,-558.10546875,-381.34765625,-400.390625,0.0
1734410557.1233995,-104.98046875,-581.0546875,-107.421875,-122.0703125,0.0
1734410557.1273053,97.16796875,-535.15625,101.5625,85.44921875,0.0
1734410557.131211,-612.3046875,-454.1015625,-599.12109375,-614.2578125,0.0
1734410557.1351168,-820.3125,-455.078125,-815.91796875,-829.58984375,0.0
1734410557.1390226,-471.6796875,-563.4765625,-472.65625,-488.28125,0.0
1734410557.1429346,-516.6015625,-611.328125,-514.16015625,-527.83203125,0.0
1734410557.1468403,-702.63671875,-575.1953125,-697.75390625,-717.7734375,0.0
1734410557.1507459,-594.23828125,-477.5390625,-587.890625,-605.46875,0.0
1734410557.1546516,-399.4140625,-452.63671875,-389.16015625,-399.90234375,0.0
1734410557.1585574,-637.20703125,-575.68359375,-626.953125,-644.04296875,0.0
1734410557.1624632,-557.12890625,-638.671875,-550.78125,-566.89453125,0.0
1734410557.166369,-142.578125,-596.6796875,-138.671875,-152.34375,0.0
1734410557.1702745,290.0390625,-490.234375,292.48046875,278.3203125,0.0
1734410557.1741803,-210.44921875,-473.6328125,-197.75390625,-213.37890625,0.0
1734410557.178086,-576.66015625,-577.63671875,-568.359375,-580.56640625,0.0
1734410557.1819918,-285.15625,-633.7890625,-284.66796875,-297.36328125,0.0
1734410557.1858976,-441.40625,-623.53515625,-433.10546875,-450.1953125,0.0
1734410557.189809,-739.2578125,-540.0390625,-729.98046875,-742.67578125,0.0
1734410557.1937149,-742.67578125,-477.05078125,-739.74609375,-753.90625,0.0
1734410557.1976206,-554.19921875,-566.89453125,-552.734375,-566.89453125,0.0
1734410557.2015262,-587.40234375,-658.203125,-573.73046875,-583.0078125,0.0
1734410557.205432,-677.734375,-648.4375,-663.57421875,-671.875,0.0
1734410557.2093377,-366.69921875,-558.59375,-362.3046875,-375.0,0.0
1734410557.2132435,-2.44140625,-478.02734375,0.9765625,-9.765625,0.0
1734410557.2171493,-49.31640625,-559.5703125,-35.64453125,-53.22265625,0.0
1734410557.2210548,-682.6171875,-673.828125,-668.9453125,-688.96484375,0.0
1734410557.2249606,-729.98046875,-670.8984375,-726.5625,-741.69921875,0.0
1734410557.2288663,-199.21875,-578.125,-203.125,-218.75,0.0
1734410557.232772,-353.515625,-505.859375,-348.14453125,-361.81640625,0.0
1734410557.2366834,-692.87109375,-570.80078125,-678.7109375,-690.91796875,0.0
1734410557.2405891,-618.1640625,-666.50390625,-611.328125,-627.44140625,0.0
1734410557.2444947,-473.6328125,-672.8515625,-466.30859375,-479.00390625,0.0
1734410557.2484004,-664.55078125,-607.91015625,-653.80859375,-664.55078125,0.0
1734410557.2523062,-816.89453125,-518.5546875,-809.5703125,-820.80078125,0.0
1734410557.256212,-485.3515625,-557.6171875,-483.88671875,-495.1171875,0.0
1734410557.2601178,21.97265625,-653.80859375,24.4140625,9.765625,0.0
1734410557.2640233,-387.20703125,-679.19921875,-374.51171875,-393.06640625,0.0
1734410557.267929,-728.02734375,-624.51171875,-719.23828125,-735.3515625,0.0
1734410557.2718349,-304.6875,-512.6953125,-301.7578125,-312.98828125,0.0
1734410557.2757406,-385.25390625,-540.52734375,-375.0,-388.671875,0.0
1734410557.2796464,-869.140625,-676.26953125,-854.4921875,-865.72265625,0.0
1734410557.283557,-835.44921875,-711.9140625,-820.80078125,-830.078125,0.0
1734410557.2874627,-512.20703125,-658.203125,-502.44140625,-514.16015625,0.0
1734410557.2913685,-576.66015625,-562.01171875,-565.4296875,-578.125,0.0
1734410557.2952743,-688.96484375,-570.3125,-677.734375,-689.94140625,0.0
1734410557.2991798,-778.3203125,-689.94140625,-768.5546875,-778.3203125,0.0
1734410557.3030856,-357.421875,-722.16796875,-357.421875,-367.1875,0.0
1734410557.3069913,-35.64453125,-670.41015625,-20.01953125,-26.85546875,0.0
1734410557.310897,-727.05078125,-596.19140625,-706.0546875,-716.30859375,0.0
1734410557.3148026,-962.890625,-598.6328125,-963.37890625,-971.19140625,0.0
1734410557.3187084,-621.58203125,-705.078125,-621.58203125,-625.48828125,0.0
1734410557.3226142,-650.390625,-753.41796875,-637.6953125,-648.92578125,0.0
1734410557.32652,-930.6640625,-720.21484375,-918.45703125,-926.7578125,0.0
1734410557.3304348,-859.86328125,-621.58203125,-851.5625,-854.98046875,0.0
1734410557.3343403,-600.5859375,-599.12109375,-590.8203125,-595.703125,0.0
1734410557.338246,-842.28515625,-716.796875,-837.890625,-837.40234375,0.0
1734410557.3421519,-1000.0,-773.4375,-1000.0,-1000.0,0.0
1734410557.3460577,-729.98046875,-738.28125,-724.12109375,-726.5625,0.0
1734410557.3499632,-237.3046875,-645.99609375,-225.09765625,-230.46875,0.0
1734410557.353869,-325.68359375,-612.3046875,-308.59375,-311.5234375,0.0
1734410557.3577747,-871.58203125,-727.5390625,-854.00390625,-855.95703125,0.0
1734410557.3616805,-759.765625,-796.38671875,-747.0703125,-750.9765625,0.0
1734410557.3655863,2.44140625,-752.44140625,10.25390625,3.90625,0.0
1734410557.3694918,-584.47265625,-684.5703125,-563.4765625,-567.87109375,0.0
1734410557.3733976,-1000.0,-651.85546875,-1000.0,-1000.0,0.0
1734410557.377312,-792.48046875,-747.0703125,-788.0859375,-788.0859375,0.0
1734410557.3812177,-734.375,-835.9375,-723.14453125,-728.515625,0.0
1734410557.3851233,-834.47265625,-815.91796875,-820.3125,-822.75390625,0.0
1734410557.389029,-933.10546875,-721.6796875,-923.828125,-922.36328125,0.0
1734410557.3929348,-690.4296875,-657.71484375,-685.05859375,-687.98828125,0.0
1734410557.3968406,-442.3828125,-735.83984375,-431.15234375,-435.546875,0.0
1734410557.400746,-574.70703125,-808.59375,-558.10546875,-569.3359375,0.0
1734410557.4046519,-765.13671875,-784.1796875,-752.9296875,-767.08984375,0.0
1734410557.4085577,-252.44140625,-689.453125,-248.53515625,-257.32421875,0.0
1734410557.4124634,46.38671875,-608.3984375,59.5703125,53.22265625,0.0
1734410557.4163692,-465.33203125,-684.5703125,-448.2421875,-461.9140625,0.0
1734410557.4202747,-491.69921875,-765.13671875,-480.95703125,-494.62890625,0.0
1734410557.4241927,-309.08203125,-745.60546875,-300.78125,-312.5,0.0
1734410557.4280984,-535.15625,-672.8515625,-522.4609375,-535.64453125,0.0
1734410557.4320042,-801.26953125,-596.19140625,-788.57421875,-800.29296875,0.0
1734410557.43591,-801.7578125,-647.94921875,-793.45703125,-803.7109375,0.0
1734410557.4398155,-642.578125,-739.74609375,-630.859375,-633.7890625,0.0
1734410557.4437213,-312.01171875,-720.21484375,-301.7578125,-312.5,0.0
1734410557.447627,-341.30859375,-641.6015625,-327.63671875,-337.40234375,0.0
1734410557.4515328,-666.015625,-568.359375,-652.34375,-662.59765625,0.0
1734410557.4554384,-125.48828125,-592.28515625,-123.53515625,-133.7890625,0.0
1734410557.4593441,-314.94140625,-689.453125,-303.7109375,-313.96484375,0.0
1734410557.46325,-811.5234375,-694.3359375,-797.36328125,-808.59375,0.0
1734410557.4671557,-686.03515625,-629.8828125,-676.26953125,-683.10546875,0.0
1734410557.4710686,-699.21875,-546.875,-688.96484375,-693.359375,0.0
1734410557.4749744,-825.1953125,-562.01171875,-813.96484375,-819.3359375,0.0
1734410557.47888,-914.0625,-675.29296875,-905.2734375,-910.15625,0.0
1734410557.4827857,-729.4921875,-691.89453125,-718.75,-722.65625,0.0
1734410557.4866915,-659.66796875,-634.27734375,-640.625,-643.5546875,0.0
1734410557.4905972,-592.28515625,-554.6875,-580.078125,-589.84375,0.0
1734410557.494503,-672.36328125,-570.80078125,-660.64453125,-669.43359375,0.0
1734410557.4984086,-742.1875,-679.6875,-732.421875,-736.328125,0.0
1734410557.5023143,-659.1796875,-695.80078125,-647.94921875,-656.25,0.0
1734410557.50622,-895.99609375,-646.97265625,-881.8359375,-884.27734375,0.0
1734410557.5101259,-1000.0,-582.51953125,-1000.0,-1000.0,0.0
1734410557.5140316,-589.35546875,-579.1015625,-590.8203125,-593.26171875,0.0
1734410557.517944,-549.31640625,-682.6171875,-531.25,-533.69140625,0.0
1734410557.5218499,-968.75,-725.09765625,-949.70703125,-954.1015625,0.0
1734410557.5257556,-858.3984375,-669.43359375,-848.6328125,-853.02734375,0.0
1734410557.5296614,-725.5859375,-593.26171875,-715.33203125,-717.28515625,0.0
1734410557.533567,-790.52734375,-593.26171875,-787.59765625,-792.96875,0.0
1734410557.5374727,-803.7109375,-699.70703125,-794.43359375,-798.828125,0.0
1734410557.5413785,-525.87890625,-723.6328125,-517.578125,-525.87890625,0.0
1734410557.5452843,78.125,-652.34375,77.63671875,68.84765625,0.0
1734410557.54919,-377.9296875,-597.16796875,-362.79296875,-374.51171875,0.0
1734410557.5530956,-916.50390625,-598.6328125,-900.390625,-910.15625,0.0
1734410557.5570014,-868.65234375,-691.89453125,-859.375,-860.83984375,0.0
1734410557.5609071,-800.29296875,-737.79296875,-788.0859375,-793.9453125,0.0
1734410557.5648186,-781.73828125,-694.82421875,-768.06640625,-774.90234375,0.0
1734410557.5687244,-879.39453125,-630.37109375,-869.140625,-870.60546875,0.0
1734410557.5726302,-829.58984375,-610.83984375,-825.68359375,-827.63671875,0.0
1734410557.576536,-879.8828125,-698.73046875,-868.1640625,-871.58203125,0.0
1734410557.5804415,-845.703125,-744.140625,-831.54296875,-836.42578125,0.0
1734410557.5843472,-354.98046875,-687.98828125,-344.7265625,-353.515625,0.0
1734410557.588253,0.48828125,-610.3515625,13.18359375,5.37109375,0.0
1734410557.5921588,92.28515625,-576.66015625,107.421875,102.5390625,0.0
1734410557.5960646,-581.54296875,-665.0390625,-567.87109375,-575.1953125,0.0
1734410557.59997,-759.27734375,-724.609375,-753.41796875,-760.7421875,0.0
1734410557.6038759,-149.4140625,-674.8046875,-145.99609375,-152.83203125,0.0
1734410557.6077816,-278.3203125,-615.234375,-269.04296875,-275.87890625,0.0
1734410557.611693,-760.25390625,-592.28515625,-751.46484375,-762.20703125,0.0
1734410557.6155987,-741.2109375,-655.2734375,-739.2578125,-750.9765625,0.0
1734410557.6195045,-257.8125,-699.21875,-254.39453125,-265.625,0.0
1734410557.62341,-144.04296875,-654.296875,-137.20703125,-151.3671875,0.0
1734410557.6273158,-307.6171875,-601.07421875,-296.875,-307.6171875,0.0
1734410557.6312215,-188.96484375,-562.98828125,-186.03515625,-198.2421875,0.0
1734410557.6351273,351.07421875,-598.14453125,351.5625,331.54296875,0.0
1734410557.639033,62.5,-659.1796875,74.21875,59.5703125,0.0
1734410557.6429386,-76.66015625,-608.3984375,-71.2890625,-87.890625,0.0
1734410557.6468444,361.328125,-537.59765625,364.74609375,347.65625,0.0
1734410557.6507502,106.93359375,-526.3671875,114.74609375,98.14453125,0.0
1734410557.654656,-306.640625,-589.35546875,-298.828125,-317.87109375,0.0
1734410557.658571,-397.94921875,-647.94921875,-393.06640625,-413.57421875,0.0
1734410557.6624768,94.23828125,-585.9375,92.7734375,69.3359375,0.0
1734410557.6663823,343.26171875,-514.6484375,344.23828125,320.80078125,0.0
1734410557.670288,-129.39453125,-502.9296875,-121.09375,-139.16015625,0.0
1734410557.6741939,-359.375,-546.875,-360.83984375,-385.25390625,0.0
1734410557.6780996,324.21875,-579.1015625,316.40625,296.38671875,0.0
1734410557.6820054,866.2109375,-519.53125,866.69921875,860.3515625,0.0
1734410557.685911,635.25390625,-474.609375,636.23046875,615.234375,0.0
1734410557.6898167,307.6171875,-466.30859375,304.19921875,276.3671875,0.0
1734410557.6937225,435.546875,-494.140625,420.41015625,391.6015625,0.0
1734410557.6976283,492.67578125,-549.31640625,479.4921875,448.73046875,0.0
1734410557.701534,611.328125,-509.765625,597.16796875,566.89453125,0.0
1734410557.7054486,861.81640625,-437.01171875,853.515625,833.0078125,0.0
1734410557.7093544,848.6328125,-411.62109375,850.09765625,839.84375,0.0
1734410557.7132602,664.0625,-445.3125,662.109375,642.08984375,0.0
1734410557.717166,479.98046875,-511.71875,468.75,435.546875,0.0
1734410557.7210717,676.7578125,-483.88671875,666.50390625,635.7421875,0.0
1734410557.7249773,961.42578125,-400.87890625,961.42578125,958.0078125,0.0
1734410557.728883,749.51171875,-396.97265625,756.34765625,753.90625,0.0
1734410557.7327888,35.15625,-458.49609375,34.66796875,4.8828125,0.0
1734410557.7366946,51.26953125,-515.13671875,42.48046875,7.32421875,0.0
1734410557.7406003,844.23828125,-470.703125,842.28515625,830.56640625,0.0
1734410557.744506,759.27734375,-426.26953125,756.8359375,732.421875,0.0
1734410557.7484117,186.03515625,-437.01171875,179.6875,137.6953125,0.0
1734410557.7523255,6.34765625,-469.7265625,0.48828125,-38.0859375,0.0
1734410557.7562313,21.97265625,-535.15625,10.25390625,-33.203125,0.0
1734410557.760137,127.9296875,-536.62109375,114.74609375,73.73046875,0.0
1734410557.7640426,329.58984375,-479.00390625,320.3125,282.2265625,0.0
1734410557.7679484,366.69921875,-464.35546875,356.93359375,317.3828125,0.0
1734410557.7718542,118.1640625,-498.53515625,106.4453125,68.84765625,0.0
1734410557.77576,-95.21484375,-574.70703125,-106.93359375,-136.23046875,0.0
1734410557.7796655,103.02734375,-597.16796875,92.7734375,57.6171875,0.0
1734410557.7835712,557.12890625,-537.109375,551.7578125,520.99609375,0.0
1734410557.787477,506.34765625,-523.4375,516.11328125,508.30078125,0.0
1734410557.7913828,-597.16796875,-585.9375,-587.890625,-611.81640625,0.0
1734410557.7952886,-879.39453125,-659.66796875,-884.765625,-912.109375,0.0
1734410557.799202,-184.5703125,-673.33984375,-191.40625,-214.35546875,0.0
1734410557.8031077,-38.0859375,-623.046875,-41.015625,-72.265625,0.0
1734410557.8070133,-376.953125,-609.375,-374.0234375,-405.2734375,0.0
1734410557.810919,-760.7421875,-634.765625,-753.41796875,-767.578125,0.0
1734410557.8148248,-786.1328125,-688.4765625,-784.1796875,-799.31640625,0.0
1734410557.8187306,-365.72265625,-710.9375,-369.62890625,-394.53125,0.0
1734410557.8226364,-104.00390625,-654.296875,-104.00390625,-122.55859375,0.0
1734410557.826542,-298.33984375,-625.9765625,-293.9453125,-315.91796875,0.0
1734410557.8304477,-87.40234375,-638.671875,-84.47265625,-109.86328125,0.0
1734410557.8343534,-441.40625,-696.77734375,-430.17578125,-446.2890625,0.0
1734410557.8382592,-755.859375,-741.69921875,-750.9765625,-769.04296875,0.0
1734410557.842165,-354.00390625,-689.453125,-354.98046875,-375.9765625,0.0
1734410557.846078,-447.265625,-647.94921875,-438.4765625,-456.54296875,0.0
1734410557.8499837,-956.54296875,-678.22265625,-951.171875,-956.0546875,0.0
1734410557.8538892,-1000.0,-735.83984375,-1000.0,-1000.0,0.0
1734410557.857795,-810.546875,-765.625,-807.12890625,-814.94140625,0.0
1734410557.8617008,-660.15625,-714.35546875,-656.25,-666.50390625,0.0
1734410557.8656065,-525.87890625,-660.64453125,-516.11328125,-521.97265625,0.0
1734410557.8695123,-759.27734375,-669.921875,-741.69921875,-747.0703125,0.0
1734410557.8734179,-927.24609375,-713.8671875,-922.36328125,-927.24609375,0.0
1734410557.8773236,-850.09765625,-744.62890625,-847.16796875,-848.6328125,0.0
1734410557.8812294,-884.27734375,-708.49609375,-877.44140625,-877.44140625,0.0
1734410557.8851352,-882.32421875,-665.52734375,-875.9765625,-876.46484375,0.0
1734410557.889041,-657.71484375,-669.43359375,-651.85546875,-654.296875,0.0
1734410557.8929532,-772.4609375,-713.8671875,-765.625,-767.578125,0.0
1734410557.896859,-1000.0,-769.53125,-1000.0,-1000.0,0.0
1734410557.9007647,-870.60546875,-739.74609375,-869.62890625,-867.67578125,0.0
1734410557.9046705,-617.1875,-685.05859375,-606.4453125,-604.98046875,0.0
1734410557.9085763,-889.16015625,-703.125,-884.27734375,-882.32421875,0.0
1734410557.9124818,-1000.0,-755.859375,-1000.0,-1000.0,0.0
1734410557.9163876,-926.7578125,-804.6875,-926.7578125,-928.7109375,0.0
1734410557.9202933,-329.58984375,-766.11328125,-328.125,-325.1953125,0.0
1734410557.924199,-612.3046875,-711.42578125,-589.84375,-587.890625,0.0
1734410557.9281046,-1000.0,-728.02734375,-1000.0,-1000.0,0.0
1734410557.9320104,-962.890625,-769.04296875,-964.84375,-964.35546875,0.0
1734410557.9359162,-1000.0,-814.453125,-1000.0,-999.51171875,0.0
1734410557.939828,-994.140625,-800.78125,-993.65234375,-993.1640625,0.0
1734410557.9437337,-988.76953125,-747.55859375,-988.28125,-988.76953125,0.0
1734410557.9476395,-984.375,-749.0234375,-983.88671875,-983.3984375,0.0
1734410557.951545,-992.1875,-798.33984375,-991.2109375,-990.72265625,0.0
1734410557.9554508,-987.3046875,-852.05078125,-984.86328125,-985.3515625,0.0
1734410557.9593565,-1000.0,-825.68359375,-1000.0,-1000.0,0.0
1734410557.9632623,-873.046875,-742.1875,-872.0703125,-872.0703125,0.0
1734410557.967168,-801.7578125,-721.6796875,-792.48046875,-791.015625,0.0
1734410557.9710736,-1000.0,-770.99609375,-1000.0,-1000.0,0.0
1734410557.9749794,-1000.0,-816.40625,-1000.0,-1000.0,0.0
1734410557.9788852,-990.234375,-785.15625,-989.2578125,-989.2578125,0.0
1734410557.982791,-995.60546875,-703.61328125,-995.1171875,-995.1171875,0.0
1734410557.986702,-1000.0,-672.8515625,-999.51171875,-999.0234375,0.0
1734410557.9906077,-996.58203125,-682.6171875,-996.58203125,-995.60546875,0.0
1734410557.9945135,-988.28125,-691.40625,-987.3046875,-985.3515625,0.0
1734410557.9984193,-994.62890625,-661.62109375,-993.65234375,-993.65234375,0.0
1734410558.002325,-996.58203125,-566.40625,-994.140625,-993.65234375,0.0
1734410558.0062306,-945.3125,-500.9765625,-937.01171875,-929.19921875,0.0
1734410558.0101364,-795.41015625,-499.0234375,-781.25,-771.97265625,0.0
1734410558.0140421,-930.17578125,-548.828125,-925.29296875,-923.828125,0.0
1734410558.017948,-1000.0,-579.58984375,-1000.0,-1000.0,0.0
1734410558.0218537,-835.44921875,-521.484375,-814.453125,-804.19921875,0.0
1734410558.0257592,-905.2734375,-499.51171875,-890.13671875,-882.32421875,0.0
1734410558.029665,-1000.0,-560.546875,-1000.0,-1000.0,0.0
1734410558.0335753,-1000.0,-641.6015625,-999.51171875,-999.0234375,0.0
1734410558.037481,-938.4765625,-671.875,-929.6875,-923.828125,0.0
1734410558.0413868,-810.546875,-623.046875,-780.76171875,-773.92578125,0.0
1734410558.0452924,-868.1640625,-601.07421875,-840.8203125,-834.9609375,0.0
1734410558.0491982,-1000.0,-651.3671875,-1000.0,-1000.0,0.0
1734410558.053104,-869.62890625,-706.54296875,-867.1875,-862.79296875,0.0
1734410558.0570097,-533.203125,-735.3515625,-513.671875,-503.41796875,0.0
1734410558.0609155,-559.5703125,-715.33203125,-537.109375,-534.66796875,0.0
1734410558.064821,-633.30078125,-697.75390625,-610.3515625,-605.46875,0.0
1734410558.0687268,-600.5859375,-726.5625,-579.58984375,-573.73046875,0.0
1734410558.0726326,-831.54296875,-778.80859375,-825.1953125,-826.171875,0.0
1734410558.0765383,-1000.0,-833.984375,-1000.0,-1000.0,0.0
1734410558.080453,-825.1953125,-806.640625,-821.2890625,-812.5,0.0
1734410558.0843587,-431.640625,-755.37109375,-419.43359375,-413.57421875,0.0
1734410558.0882645,-743.1640625,-788.0859375,-730.95703125,-729.00390625,0.0
1734410558.0921702,-1000.0,-863.28125,-1000.0,-1000.0,0.0
1734410558.0960758,-907.2265625,-918.45703125,-902.83203125,-899.90234375,0.0
1734410558.0999815,-205.56640625,-883.30078125,-201.171875,-195.3125,0.0
1734410558.1038873,-114.74609375,-839.35546875,-97.16796875,-89.84375,0.0
1734410558.107793,-858.88671875,-868.1640625,-840.33203125,-837.40234375,0.0
1734410558.1116989,-925.78125,-904.78515625,-925.78125,-925.29296875,0.0
1734410558.1156044,-243.65234375,-921.875,-241.69921875,-237.79296875,0.0
1734410558.1195102,-407.2265625,-914.0625,-391.6015625,-389.16015625,0.0
1734410558.123416,-615.234375,-874.51171875,-603.02734375,-605.46875,0.0
1734410558.12733,-588.8671875,-878.90625,-578.125,-578.61328125,0.0
1734410558.1312358,-861.81640625,-918.45703125,-855.95703125,-855.46875,0.0
1734410558.1351416,-983.88671875,-954.58984375,-982.421875,-984.375,0.0
1734410558.1390471,-816.40625,-941.40625,-810.05859375,-813.4765625,0.0
1734410558.142953,-364.2578125,-880.37109375,-356.93359375,-357.91015625,0.0
1734410558.1468587,-234.375,-864.74609375,-221.19140625,-221.19140625,0.0
1734410558.1507645,-708.0078125,-891.11328125,-691.40625,-689.94140625,0.0
1734410558.1546702,-1000.0,-924.31640625,-1000.0,-1000.0,0.0
1734410558.1585758,-429.6875,-905.76171875,-431.15234375,-437.98828125,0.0
1734410558.1624815,166.50390625,-832.51953125,176.7578125,176.26953125,0.0
1734410558.1663873,-588.37890625,-831.54296875,-574.21875,-572.265625,0.0
1734410558.170293,-1000.0,-870.1171875,-1000.0,-1000.0,0.0
1734410558.1742067,-665.52734375,-893.5546875,0.0,-671.875,0.0
1734410558.1781125,-673.33984375,-895.99609375,0.0,-665.52734375,0.0
1734410558.182018,-707.03125,-850.09765625,0.0,-704.58984375,0.0
1734410558.1859238,-521.97265625,-825.68359375,0.0,-528.80859375,0.0
1734410558.1898296,-152.34375,-820.3125,0.0,-155.76171875,0.0
1734410558.1937354,-280.2734375,-833.984375,0.0,-274.4140625,0.0
1734410558.1976411,-696.77734375,-856.4453125,0.0,-697.75390625,0.0
1734410558.2015467,-420.41015625,-806.640625,0.0,-433.10546875,0.0
1734410558.2054524,427.24609375,-757.32421875,0.0,416.015625,0.0
1734410558.2093582,-131.34765625,-779.296875,0.0,-125.48828125,0.0
1734410558.213264,-1000.0,-817.87109375,0.0,-1000.0,0.0
1734410558.2171698,-744.140625,-834.47265625,0.0,-747.55859375,0.0
1734410558.2210827,-357.91015625,-786.1328125,-359.86328125,-371.09375,0.0
1734410558.2249882,-463.8671875,-745.60546875,-460.9375,-468.26171875,0.0
1734410558.228894,-815.4296875,-754.8828125,-806.15234375,-805.6640625,0.0
1734410558.2327998,-777.83203125,-769.04296875,-782.2265625,-788.0859375,0.0
1734410558.2367055,-579.58984375,-787.59765625,-579.58984375,-590.33203125,0.0
1734410558.2406113,-167.96875,-741.69921875,-162.109375,-173.33984375,0.0
1734410558.2445168,87.890625,-694.3359375,98.14453125,85.9375,0.0
1734410558.2484226,72.265625,-700.68359375,77.63671875,64.453125,0.0
1734410558.2523284,-11.71875,-712.40234375,0.48828125,-14.6484375,0.0
1734410558.2562342,-674.31640625,-747.0703125,-658.203125,-671.38671875,0.0
1734410558.26014,-607.421875,-722.16796875,-603.02734375,-612.3046875,0.0
1734410558.2640455,16.6015625,-665.52734375,12.6953125,2.9296875,0.0
1734410558.2679584,-391.11328125,-670.41015625,-384.765625,-394.53125,0.0
1734410558.2718642,-885.25390625,-693.359375,-876.46484375,-887.20703125,0.0
1734410558.2757697,-648.92578125,-709.47265625,-645.5078125,-655.76171875,0.0
1734410558.2796755,-274.90234375,-677.24609375,-268.5546875,-275.87890625,0.0
1734410558.2835813,-326.171875,-626.953125,-315.91796875,-326.66015625,0.0
1734410558.287487,-417.48046875,-665.52734375,-406.73828125,-418.9453125,0.0
1734410558.2913928,-488.76953125,-775.390625,-481.93359375,-492.1875,0.0
1734410558.2952983,-186.03515625,-794.921875,-182.6171875,-193.84765625,0.0
1734410558.299204,-355.95703125,-752.9296875,-348.6328125,-361.328125,0.0
1734410558.30311,-705.078125,-777.34375,-700.1953125,-709.47265625,0.0
1734410558.3070157,-908.203125,-891.11328125,-907.2265625,-906.73828125,0.0
1734410558.3109212,-1000.0,-1000.0,-1000.0,-1000.0,0.0
1734410558.3148332,-987.3046875,-805.17578125,-986.81640625,-987.3046875,0.0
1734410558.318739,-1000.0,389.16015625,-1000.0,-1000.0,0.0
1734410558.3226447,-1000.0,-960.44921875,-1000.0,-1000.0,0.0
1734410558.3265502,-962.40234375,926.7578125,-1000.0,-999.0234375,0.0
1734410558.330456,-1000.0,969.23828125,-1000.0,-1000.0,0.0
1734410558.3343618,-894.53125,971.6796875,-1000.0,-984.86328125,0.0
1734410558.3382676,-303.7109375,969.7265625,-1000.0,-981.4453125,0.0
1734410558.3421733,-783.69140625,970.21484375,-1000.0,-1000.0,0.0
1734410558.3460789,-1000.0,970.21484375,-1000.0,-1000.0,0.0
1734410558.3499846,-958.984375,969.7265625,-1000.0,-1000.0,0.0
1734410558.3538904,-1000.0,970.21484375,-1000.0,-1000.0,0.0
1734410558.3577962,-1000.0,970.21484375,-1000.0,-1000.0,0.0
1734410558.3617074,-1000.0,970.21484375,-1000.0,-1000.0,0.0
1734410558.365613,-1000.0,969.7265625,-1000.0,-1000.0,0.0
1734410558.3695188,-1000.0,969.7265625,-1000.0,-1000.0,0.0
1734410558.3734245,-941.89453125,969.7265625,-1000.0,-943.84765625,0.0
1734410558.3773303,-1000.0,969.7265625,-939.94140625,-1000.0,0.0
1734410558.381236,-878.90625,969.7265625,-1000.0,-897.4609375,0.0
1734410558.3851416,578.61328125,969.7265625,-432.6171875,553.22265625,0.0
1734410558.3890474,-914.55078125,969.7265625,900.87890625,-910.15625,0.0
1734410558.3929532,895.01953125,969.7265625,-999.51171875,895.5078125,0.0
1734410558.396859,984.86328125,969.7265625,924.8046875,985.3515625,0.0
1734410558.4007647,969.23828125,969.7265625,981.93359375,969.7265625,0.0
1734410558.4046702,969.23828125,969.7265625,969.7265625,969.7265625,0.0
1734410558.408581,969.23828125,969.7265625,969.7265625,970.21484375,0.0
1734410558.4124868,969.23828125,969.7265625,969.7265625,969.7265625,0.0
1734410558.4163923,968.75,969.7265625,969.7265625,969.7265625,0.0
1734410558.420298,968.75,969.7265625,969.7265625,969.7265625,0.0
1734410558.4242039,968.75,969.7265625,969.7265625,969.7265625,0.0
1734410558.4281096,968.75,969.7265625,969.7265625,969.7265625,0.0
1734410558.4320154,969.23828125,969.7265625,969.7265625,969.7265625,0.0
1734410558.435921,969.23828125,969.7265625,969.7265625,969.7265625,0.0
1734410558.4398267,969.23828125,969.7265625,969.7265625,969.23828125,0.0
1734410558.4437325,968.75,969.7265625,969.7265625,969.7265625,0.0
1734410558.4476383,968.75,969.7265625,961.9140625,969.7265625,0.0
1734410558.451544,969.23828125,969.7265625,953.125,969.7265625,0.0
1734410558.4554589,969.23828125,970.21484375,950.68359375,969.7265625,0.0
1734410558.4593644,969.23828125,969.7265625,943.359375,969.7265625,0.0
1734410558.4632702,969.23828125,969.7265625,937.98828125,969.7265625,0.0
1734410558.467176,969.23828125,969.7265625,934.5703125,969.7265625,0.0
1734410558.4710817,969.23828125,969.7265625,927.24609375,969.23828125,0.0
1734410558.4749875,969.23828125,969.7265625,921.875,969.7265625,0.0
1734410558.478893,968.75,969.7265625,911.1328125,969.7265625,0.0
1734410558.4827988,968.75,969.7265625,901.3671875,969.7265625,0.0
1734410558.4867046,969.23828125,970.21484375,898.92578125,969.7265625,0.0
1734410558.4906104,968.75,969.7265625,891.6015625,969.7265625,0.0
1734410558.4945161,968.75,969.7265625,890.625,969.7265625,0.0
1734410558.4984217,969.23828125,969.7265625,895.01953125,969.7265625,0.0
1734410558.5023355,968.75,969.7265625,889.6484375,969.7265625,0.0
1734410558.5062413,969.23828125,969.7265625,879.39453125,969.7265625,0.0
1734410558.510147,969.23828125,969.7265625,839.84375,969.7265625,0.0
1734410558.5140526,968.75,969.7265625,832.03125,969.7265625,0.0
1734410558.5179584,969.23828125,969.7265625,823.73046875,969.7265625,0.0
1734410558.5218642,969.23828125,969.7265625,757.8125,969.7265625,0.0
1734410558.52577,968.75,969.7265625,710.9375,969.7265625,0.0
1734410558.5296757,969.23828125,969.7265625,602.05078125,969.7265625,0.0
1734410558.5335813,969.23828125,969.7265625,582.51953125,969.7265625,0.0
1734410558.537487,969.23828125,969.7265625,590.33203125,969.7265625,0.0
1734410558.5413928,969.23828125,969.7265625,524.90234375,969.7265625,0.0
1734410558.5452986,969.23828125,969.7265625,565.4296875,969.23828125,0.0
1734410558.5492122,969.23828125,969.7265625,521.97265625,970.703125,0.0
1734410558.553118,969.23828125,969.7265625,501.953125,961.42578125,0.0
1734410558.5570235,969.23828125,969.7265625,558.59375,956.0546875,0.0
1734410558.5609293,969.23828125,969.7265625,541.9921875,968.75,0.0
1734410558.564835,959.47265625,969.7265625,555.6640625,955.078125,0.0
1734410558.5687408,990.234375,969.7265625,509.27734375,999.0234375,0.0
1734410558.5726466,883.30078125,969.7265625,453.125,846.6796875,0.0
1734410558.5765522,719.7265625,969.7265625,479.4921875,590.8203125,0.0
1734410558.580458,917.96875,969.7265625,477.5390625,870.60546875,0.0
1734410558.5843637,773.92578125,969.7265625,411.62109375,700.1953125,0.0
1734410558.5882695,129.8828125,969.7265625,287.59765625,-14.6484375,0.0
1734410558.5921752,-110.3515625,969.7265625,211.42578125,-235.3515625,0.0
1734410558.5960884,-283.203125,969.7265625,271.484375,-403.3203125,0.0
1734410558.5999942,-706.0546875,969.7265625,189.94140625,-818.84765625,0.0
1734410558.6038997,-611.81640625,969.7265625,209.47265625,-719.23828125,0.0
1734410558.6078055,-378.90625,969.7265625,233.88671875,-473.14453125,0.0
1734410558.6117113,-647.4609375,970.21484375,61.5234375,-723.14453125,0.0
1734410558.615617,-538.0859375,969.7265625,188.96484375,-596.6796875,0.0
1734410558.6195228,-238.28125,969.7265625,266.11328125,-305.6640625,0.0
1734410558.6234283,129.39453125,969.7265625,244.140625,55.6640625,0.0
1734410558.627334,229.00390625,969.7265625,168.9453125,176.7578125,0.0
1734410558.63124,-596.19140625,969.7265625,-181.640625,-649.4140625,0.0
1734410558.6351457,-705.56640625,970.21484375,-43.9453125,-764.6484375,0.0
1734410558.6390514,-125.48828125,969.7265625,231.93359375,-171.38671875,0.0
1734410558.6429636,-15.625,966.796875,192.87109375,-56.640625,0.0
1734410558.6468694,-147.4609375,971.19140625,199.21875,-185.546875,0.0
1734410558.6507752,85.9375,932.6171875,99.12109375,44.43359375,0.0
1734410558.654681,299.31640625,796.38671875,200.1953125,258.30078125,0.0
1734410558.6585867,107.421875,670.41015625,222.16796875,67.87109375,0.0
1734410558.6624923,239.74609375,614.2578125,145.01953125,205.56640625,0.0
1734410558.666398,290.52734375,520.99609375,148.4375,258.7890625,0.0
1734410558.6703038,431.640625,392.578125,-129.39453125,391.6015625,0.0
1734410558.6742096,-141.6015625,247.55859375,-342.7734375,-167.96875,0.0
1734410558.6781154,-760.7421875,100.5859375,-334.9609375,-780.76171875,0.0
1734410558.682021,-792.48046875,30.76171875,-397.4609375,-819.3359375,0.0
1734410558.6859267,-814.94140625,7.32421875,-364.74609375,-829.1015625,0.0
1734410558.6898386,-950.68359375,-5.37109375,-473.6328125,-947.75390625,0.0
1734410558.6937444,-1000.0,-68.84765625,-455.56640625,-1000.0,0.0
1734410558.6976502,-768.06640625,-102.05078125,-308.10546875,-778.80859375,0.0
1734410558.7015557,-545.41015625,22.94921875,-323.73046875,-556.640625,0.0
1734410558.7054615,-709.9609375,26.85546875,-176.7578125,-715.8203125,0.0
1734410558.7093673,-553.22265625,0.48828125,-185.546875,-564.453125,0.0
1734410558.713273,-129.8828125,-41.9921875,-165.52734375,-138.671875,0.0
1734410558.7171788,135.25390625,-145.01953125,167.96875,131.8359375,0.0
1734410558.7210844,-414.55078125,-192.87109375,2.44140625,-416.50390625,0.0
1734410558.7249901,-337.890625,-190.4296875,51.7578125,-350.5859375,0.0
1734410558.728896,115.234375,-152.83203125,94.7265625,101.07421875,0.0
1734410558.7328017,-119.62890625,-184.5703125,-212.40234375,-123.53515625,0.0
1734410558.7367127,-322.265625,-255.37109375,-207.51953125,-337.40234375,0.0
1734410558.7406185,-33.69140625,-257.8125,-355.46875,-56.15234375,0.0
1734410558.744524,415.52734375,-234.375,-377.9296875,405.76171875,0.0
1734410558.7484298,352.05078125,-329.1015625,-430.6640625,339.35546875,0.0
1734410558.7523355,165.0390625,-488.28125,-539.55078125,143.06640625,0.0
1734410558.7562413,560.546875,-624.51171875,-427.24609375,526.85546875,0.0
1734410558.760147,772.94921875,-771.484375,-454.58984375,784.66796875,0.0
1734410558.7640526,-596.19140625,-964.84375,-539.0625,-561.03515625,0.0
1734410558.7679584,-1000.0,-1000.0,-640.13671875,-1000.0,0.0
1734410558.7718642,-922.8515625,-993.1640625,-697.265625,-922.8515625,0.0
1734410558.77577,-1000.0,-1000.0,-585.44921875,-1000.0,0.0
1734410558.7796755,-1000.0,-1000.0,-702.63671875,-1000.0,0.0
1734410558.783591,-1000.0,-1000.0,-750.48828125,-1000.0,0.0
1734410558.7874968,-1000.0,-1000.0,-764.16015625,-1000.0,0.0
1734410558.7914026,-1000.0,-1000.0,-869.140625,-1000.0,0.0
1734410558.7953084,-1000.0,-1000.0,-804.6875,-1000.0,0.0
1734410558.7992141,-1000.0,-1000.0,-814.94140625,-1000.0,0.0
1734410558.8031197,-1000.0,-1000.0,-816.40625,-1000.0,0.0
1734410558.8070254,-1000.0,-1000.0,-839.35546875,-1000.0,0.0
1734410558.8109312,-1000.0,-1000.0,-921.38671875,-1000.0,0.0
1734410558.814837,-1000.0,-1000.0,-864.74609375,-1000.0,0.0
1734410558.8187428,-1000.0,-1000.0,-868.65234375,-1000.0,0.0
1734410558.8226483,-1000.0,-1000.0,-923.33984375,-1000.0,0.0
1734410558.826554,-1000.0,-1000.0,-958.49609375,-1000.0,0.0
1734410558.830469,-1000.0,-1000.0,-995.1171875,-1000.0,0.0
1734410558.8343747,-1000.0,-1000.0,-995.60546875,-1000.0,0.0
1734410558.8382804,-1000.0,-1000.0,-996.58203125,-1000.0,0.0
1734410558.842186,-1000.0,-1000.0,-1000.0,-1000.0,0.0
1734410558.8460917,-1000.0,-1000.0,-1000.0,-1000.0,0.0
1734410558.8499975,-1000.0,-1000.0,-1000.0,-1000.0,0.0
1734410558.8539033,-1000.0,-1000.0,-1000.0,-1000.0,0.0
1734410558.857809,-1000.0,-1000.0,-1000.0,-1000.0,0.0
1734410558.8617146,-1000.0,-1000.0,-1000.0,-1000.0,0.0
1734410558.8656204,-1000.0,-1000.0,-998.53515625,-1000.0,0.0
1734410558.8695261,-1000.0,-1000.0,-1000.0,-1000.0,0.0
1734410558.873432,-1000.0,-1000.0,-1000.0,-1000.0,0.0
1734410558.877346,-1000.0,-1000.0,-997.0703125,-1000.0,0.0
1734410558.8812518,-1000.0,-1000.0,-998.53515625,-1000.0,0.0
1734410558.8851576,-1000.0,-1000.0,-991.69921875,-1000.0,0.0
1734410558.8890634,-1000.0,-1000.0,-997.0703125,-1000.0,0.0
1734410558.892969,-1000.0,-1000.0,-987.3046875,-1000.0,0.0
1734410558.8968747,-1000.0,-1000.0,-967.28515625,-1000.0,0.0
1734410558.9007804,-1000.0,-1000.0,-970.703125,-1000.0,0.0
1734410558.9046862,-1000.0,-1000.0,-952.63671875,-1000.0,0.0
1734410558.908592,-1000.0,-1000.0,-958.984375,-1000.0,0.0
1734410558.9124975,-1000.0,-1000.0,-960.44921875,-1000.0,0.0
1734410558.9164033,-1000.0,-1000.0,-928.22265625,-1000.0,0.0
1734410558.920309,-1000.0,-1000.0,-925.29296875,-1000.0,0.0
1734410558.9242227,-1000.0,-1000.0,-869.62890625,-1000.0,0.0
1734410558.9281285,-1000.0,-1000.0,-909.1796875,-1000.0,0.0
1734410558.9320343,-1000.0,-1000.0,-935.05859375,-1000.0,0.0
1734410558.93594,-1000.0,-1000.0,-858.3984375,-1000.0,0.0
1734410558.9398456,-1000.0,-1000.0,-861.81640625,-1000.0,0.0
1734410558.9437513,-1000.0,-1000.0,-839.35546875,-1000.0,0.0
1734410558.947657,-1000.0,-1000.0,-872.0703125,-1000.0,0.0
1734410558.951563,-1000.0,-1000.0,-884.765625,-1000.0,0.0
1734410558.9554687,-1000.0,-1000.0,-753.41796875,-1000.0,0.0
1734410558.9593742,-1000.0,-1000.0,-793.45703125,-1000.0,0.0
1734410558.96328,-1000.0,-1000.0,-841.30859375,-1000.0,0.0
1734410558.9671857,-1000.0,-1000.0,-861.81640625,-1000.0,0.0
1734410558.9710987,-1000.0,-1000.0,-909.66796875,-1000.0,0.0
1734410558.9750044,-1000.0,-1000.0,-870.60546875,-1000.0,0.0
1734410558.9789102,-1000.0,-1000.0,-883.7890625,-1000.0,0.0
1734410558.982816,-1000.0,-1000.0,-915.0390625,-1000.0,0.0
1734410558.9867218,-1000.0,-1000.0,-944.3359375,-1000.0,0.0
1734410558.9906273,-1000.0,-1000.0,-976.5625,-1000.0,0.0
1734410558.994533,-1000.0,-1000.0,-978.02734375,-1000.0,0.0
1734410558.9984388,-1000.0,-1000.0,-991.2109375,-1000.0,0.0
1734410559.0023446,-1000.0,-1000.0,-1000.0,-1000.0,0.0
1734410559.0062504,-1000.0,-1000.0,-1000.0,-1000.0,0.0
1734410559.010156,-1000.0,-1000.0,-1000.0,-1000.0,0.0
1734410559.0140617,-1000.0,-1000.0,-1000.0,-1000.0,0.0
1734410559.0179741,-1000.0,-1000.0,-1000.0,-1000.0,0.0
1734410559.02188,-1000.0,-1000.0,-1000.0,-1000.0,0.0
1734410559.0257854,-1000.0,-1000.0,-1000.0,-1000.0,0.0
1734410559.0296912,-1000.0,-1000.0,-1000.0,-1000.0,0.0
1734410559.033597,-1000.0,-1000.0,-1000.0,-1000.0,0.0
1734410559.0375028,-1000.0,-1000.0,-1000.0,-1000.0,0.0
1734410559.0414085,-1000.0,-1000.0,-1000.0,-1000.0,0.0
1734410559.045314,-1000.0,-1000.0,-1000.0,-1000.0,0.0
1734410559.0492198,-1000.0,-1000.0,-1000.0,-1000.0,0.0
1734410559.0531256,-1000.0,-1000.0,-1000.0,-1000.0,0.0
1734410559.0570314,-1000.0,-1000.0,-1000.0,-1000.0,0.0
1734410559.0609372,-1000.0,-1000.0,-1000.0,-1000.0,0.0
1734410559.064849,-1000.0,-1000.0,-1000.0,-1000.0,0.0
1734410559.0687547,-1000.0,-1000.0,-1000.0,-1000.0,0.0
1734410559.0726604,-1000.0,-1000.0,-1000.0,-1000.0,0.0
1734410559.076566,-1000.0,-1000.0,-1000.0,-1000.0,0.0
1734410559.0804718,-1000.0,-1000.0,-1000.0,-1000.0,0.0
1734410559.0843775,-1000.0,-1000.0,-1000.0,-1000.0,0.0
1734410559.0882833,-1000.0,-1000.0,-1000.0,-1000.0,0.0
1734410559.092189,-1000.0,-1000.0,-1000.0,-1000.0,0.0
1734410559.0960946,-1000.0,-1000.0,-1000.0,-1000.0,0.0
1734410559.1000004,-1000.0,-1000.0,-1000.0,-1000.0,0.0
1734410559.1039062,-1000.0,-1000.0,-1000.0,-1000.0,0.0
1734410559.107812,-1000.0,-1000.0,-1000.0,-1000.0,0.0
1734410559.1117232,-1000.0,-1000.0,-1000.0,-1000.0,0.0
1734410559.1156287,-1000.0,-1000.0,-1000.0,-1000.0,0.0
1734410559.1195345,-1000.0,-1000.0,-1000.0,-1000.0,0.0
1734410559.1234403,-1000.0,-1000.0,-1000.0,-1000.0,0.0
1734410559.127346,-1000.0,-1000.0,-1000.0,-1000.0,0.0
1734410559.1312518,-1000.0,-1000.0,-1000.0,-1000.0,0.0
1734410559.1351573,-1000.0,-1000.0,-1000.0,-1000.0,0.0
1734410559.1390631,-1000.0,-1000.0,-1000.0,-1000.0,0.0
1734410559.142969,-1000.0,-1000.0,-1000.0,-1000.0,0.0
1734410559.1468747,-1000.0,-1000.0,-1000.0,-1000.0,0.0
1734410559.1507804,-1000.0,-1000.0,-1000.0,-1000.0,0.0
1734410559.154686,-1000.0,-1000.0,-1000.0,-1000.0,0.0
1734410559.1585968,-1000.0,-1000.0,-1000.0,-1000.0,0.0
1734410559.1625025,-1000.0,-1000.0,-1000.0,-1000.0,0.0
1734410559.1664083,-1000.0,-1000.0,-1000.0,-1000.0,0.0
1734410559.1703138,-1000.0,-1000.0,-1000.0,-1000.0,0.0
1734410559.1742196,-1000.0,-1000.0,-1000.0,-1000.0,0.0
1734410559.1781254,-1000.0,-1000.0,-1000.0,-1000.0,0.0
1734410559.1820312,-1000.0,-1000.0,-1000.0,-1000.0,0.0
1734410559.185937,-1000.0,-1000.0,-1000.0,-1000.0,0.0
1734410559.1898425,-1000.0,-1000.0,-1000.0,-1000.0,0.0
1734410559.1937482,-1000.0,-1000.0,-1000.0,-1000.0,0.0
1734410559.197654,-1000.0,-1000.0,-1000.0,-1000.0,0.0
1734410559.2015598,-1000.0,-1000.0,-1000.0,-1000.0,0.0
1734410559.2054744,-1000.0,-1000.0,-1000.0,-1000.0,0.0
1734410559.2093801,-1000.0,-1000.0,-1000.0,-1000.0,0.0
1734410559.213286,-1000.0,-1000.0,-1000.0,-1000.0,0.0
1734410559.2171917,-1000.0,-932.6171875,-1000.0,-1000.0,0.0
1734410559.2210972,-1000.0,-1000.0,-1000.0,-1000.0,0.0
1734410559.225003,-1000.0,-762.20703125,-1000.0,-1000.0,0.0
1734410559.2289088,-1000.0,715.33203125,-1000.0,-1000.0,0.0
1734410559.2328146,-1000.0,-938.96484375,-1000.0,-1000.0,0.0
1734410559.2367203,-1000.0,900.87890625,-1000.0,-1000.0,0.0
1734410559.2406259,-1000.0,987.3046875,-1000.0,-1000.0,0.0
1734410559.2445316,-1000.0,969.7265625,-1000.0,-1000.0,0.0
1734410559.2484374,-1000.0,970.21484375,-1000.0,-1000.0,0.0
1734410559.2523518,-1000.0,970.21484375,-1000.0,-1000.0,0.0
1734410559.2562575,-1000.0,970.21484375,-1000.0,-1000.0,0.0
1734410559.2601633,-1000.0,970.21484375,-1000.0,-1000.0,0.0
1734410559.264069,-1000.0,970.21484375,-1000.0,-1000.0,0.0
1734410559.2679746,-1000.0,970.21484375,-1000.0,-1000.0,0.0
1734410559.2718804,-1000.0,970.21484375,-1000.0,-1000.0,0.0
1734410559.2757862,-1000.0,969.7265625,-1000.0,-1000.0,0.0
1734410559.279692,-1000.0,970.21484375,-1000.0,-1000.0,0.0
1734410559.2835977,-1000.0,970.21484375,-1000.0,-1000.0,0.0
1734410559.2875032,-1000.0,970.21484375,-1000.0,-1000.0,0.0
1734410559.291409,-1000.0,969.7265625,-1000.0,-1000.0,0.0
1734410559.2953148,-1000.0,969.7265625,-1000.0,-1000.0,0.0
1734410559.2992282,-1000.0,969.7265625,-1000.0,-1000.0,0.0
1734410559.3031337,-1000.0,969.7265625,-1000.0,-1000.0,0.0
1734410559.3070395,-1000.0,970.21484375,-1000.0,-1000.0,0.0
1734410559.3109453,-1000.0,970.21484375,-1000.0,-1000.0,0.0
1734410559.314851,-1000.0,970.21484375,-1000.0,-1000.0,0.0
1734410559.3187568,-946.77734375,970.21484375,-1000.0,-942.87109375,0.0
1734410559.3226624,-1000.0,970.21484375,-1000.0,-1000.0,0.0
