timestamps,TP9,AF7,AF8,TP10,Right AUX
1734410759.2252607,180.6640625,-377.44140625,191.40625,140.625,0.0
1734410759.2291665,662.109375,-326.171875,149.4140625,630.859375,0.0
1734410759.2330725,513.18359375,-342.28515625,187.5,492.1875,0.0
1734410759.2369783,-36.62109375,-395.5078125,158.203125,-43.9453125,0.0
1734410759.2408843,104.98046875,-417.96875,187.5,85.9375,0.0
1734410759.24479,721.6796875,-388.671875,267.08984375,704.1015625,0.0
1734410759.248696,757.32421875,-341.796875,159.66796875,755.37109375,0.0
1734410759.2526019,218.26171875,-371.09375,144.53125,194.3359375,0.0
1734410759.2565079,-27.83203125,-415.52734375,160.15625,-58.10546875,0.0
1734410759.2604136,-23.4375,-437.98828125,168.9453125,-57.6171875,0.0
1734410759.2643197,-76.66015625,-441.40625,196.77734375,-97.16796875,0.0
1734410759.2682383,145.01953125,-399.4140625,119.62890625,-16.11328125,0.0
1734410759.2721443,519.53125,-384.765625,208.49609375,-92.28515625,0.0
1734410759.27605,300.78125,-426.7578125,203.125,-99.12109375,0.0
1734410759.279956,-202.63671875,-461.42578125,137.6953125,6.8359375,0.0
1734410759.2838619,-117.67578125,-467.7734375,188.4765625,342.28515625,0.0
1734410759.287768,544.921875,-409.1796875,204.1015625,587.40234375,0.0
1734410759.2916737,892.08984375,-377.44140625,255.859375,189.453125,0.0
1734410759.2955797,410.64453125,-433.59375,193.84765625,-251.46484375,0.0
1734410759.2994854,-116.69921875,-476.5625,156.73828125,200.1953125,0.0
1734410759.3033915,128.90625,-478.02734375,203.61328125,673.33984375,0.0
1734410759.3072972,558.10546875,-432.12890625,145.5078125,210.44921875,0.0
1734410759.3112032,304.19921875,-422.36328125,153.80859375,-398.92578125,0.0
1734410759.315115,-3.41796875,-463.37890625,199.70703125,0.0,0.0
1734410759.3190207,-71.2890625,-488.76953125,146.484375,0.0,0.0
1734410759.3229268,-76.66015625,-499.51171875,174.8046875,0.0,0.0
1734410759.3268325,30.2734375,-468.26171875,123.046875,0.0,0.0
1734410759.3307385,366.69921875,-437.01171875,159.1796875,0.0,0.0
1734410759.3346443,597.16796875,-453.125,246.58203125,0.0,0.0
1734410759.3385503,185.05859375,-485.3515625,145.99609375,0.0,0.0
1734410759.342456,-245.60546875,-514.16015625,151.85546875,0.0,0.0
1734410759.346362,230.46875,-478.515625,170.8984375,0.0,0.0
1734410759.350268,693.359375,-423.828125,194.82421875,0.0,0.0
1734410759.354174,208.49609375,-457.51953125,190.91796875,0.0,0.0
1734410759.3580797,-396.484375,-502.9296875,91.796875,0.0,0.0
1734410759.361991,-26.85546875,-509.765625,205.078125,-44.921875,0.0
1734410759.365897,685.546875,-472.65625,225.5859375,655.2734375,0.0
1734410759.3698027,473.14453125,-438.96484375,142.578125,465.8203125,0.0
1734410759.3737087,-26.85546875,-474.12109375,187.98828125,-25.87890625,0.0
1734410759.3776145,121.58203125,-509.27734375,190.4296875,94.23828125,0.0
1734410759.3815205,684.5703125,-510.7421875,265.13671875,668.45703125,0.0
1734410759.3854263,588.8671875,-500.9765625,193.84765625,589.84375,0.0
1734410759.3893323,581.0546875,-462.40234375,141.11328125,557.6171875,0.0
1734410759.393238,825.1953125,-458.0078125,260.7421875,815.91796875,0.0
1734410759.397144,392.08984375,-494.140625,147.4609375,395.5078125,0.0
1734410759.4010499,-390.625,-531.25,86.42578125,-403.3203125,0.0
1734410759.4049559,-143.06640625,-517.08984375,170.41015625,-163.57421875,0.0
1734410759.4088666,381.34765625,-463.8671875,122.55859375,361.81640625,0.0
1734410759.4127724,224.609375,-477.05078125,166.50390625,214.35546875,0.0
1734410759.4166784,-389.6484375,-526.3671875,109.375,-396.484375,0.0
1734410759.4205842,-346.6796875,-534.1796875,145.99609375,-370.1171875,0.0
1734410759.4244902,326.66015625,-498.046875,224.12109375,303.22265625,0.0
1734410759.428396,740.234375,-433.59375,157.71484375,730.46875,0.0
1734410759.432302,541.50390625,-421.875,186.5234375,529.78515625,0.0
1734410759.4362078,-32.2265625,-460.44921875,161.62109375,-48.33984375,0.0
1734410759.4401138,225.5859375,-459.47265625,205.078125,211.42578125,0.0
1734410759.4440196,245.60546875,-445.3125,207.03125,237.79296875,0.0
1734410759.4479256,-5.37109375,-412.59765625,88.37890625,-21.97265625,0.0
1734410759.4518313,391.11328125,-391.11328125,209.9609375,369.140625,0.0
1734410759.455742,198.73046875,-425.78125,213.37890625,185.05859375,0.0
1734410759.4596477,-353.02734375,-458.49609375,114.2578125,-358.3984375,0.0
1734410759.4635534,-273.4375,-460.44921875,176.7578125,-285.64453125,0.0
1734410759.4674594,247.0703125,-406.25,167.96875,235.83984375,0.0
1734410759.4713652,437.01171875,-378.90625,218.26171875,425.29296875,0.0
1734410759.4752712,230.95703125,-409.1796875,221.6796875,224.12109375,0.0
1734410759.479177,107.91015625,-432.12890625,179.19921875,102.5390625,0.0
1734410759.483083,544.43359375,-421.38671875,282.2265625,525.390625,0.0
1734410759.4869888,768.5546875,-369.62890625,218.75,775.87890625,0.0
1734410759.4908948,228.515625,-367.67578125,155.2734375,229.4921875,0.0
1734410759.4948006,-12.20703125,-409.1796875,214.84375,-29.78515625,0.0
1734410759.4987066,58.10546875,-429.6875,157.71484375,41.015625,0.0
1734410759.5026197,14.6484375,-437.01171875,187.98828125,2.44140625,0.0
1734410759.5065258,47.36328125,-405.2734375,138.18359375,34.66796875,0.0
1734410759.5104315,430.17578125,-366.69921875,166.9921875,413.0859375,0.0
1734410759.5143375,394.04296875,-393.5546875,213.37890625,384.27734375,0.0
1734410759.5182433,9.765625,-430.6640625,128.90625,-8.30078125,0.0
1734410759.5221493,192.87109375,-438.4765625,203.125,172.8515625,0.0
1734410759.526055,649.4140625,-397.4609375,198.73046875,630.859375,0.0
1734410759.529961,895.01953125,-335.9375,207.03125,897.94921875,0.0
1734410759.533867,507.32421875,-366.69921875,215.33203125,520.01953125,0.0
1734410759.537773,-39.0625,-431.15234375,111.81640625,-53.7109375,0.0
1734410759.5416787,238.28125,-443.359375,202.63671875,206.0546875,0.0
1734410759.5455847,826.66015625,-400.390625,206.0546875,805.6640625,0.0
1734410759.5494943,796.38671875,-356.93359375,115.72265625,791.015625,0.0
1734410759.5534003,495.1171875,-386.71875,176.7578125,477.05078125,0.0
1734410759.557306,473.6328125,-416.9921875,160.15625,448.2421875,0.0
1734410759.561212,488.28125,-425.78125,181.640625,467.28515625,0.0
1734410759.5651178,524.90234375,-409.66796875,167.48046875,496.58203125,0.0
1734410759.5690238,921.38671875,-348.14453125,153.3203125,906.73828125,0.0
1734410759.5729296,965.8203125,-351.5625,228.02734375,971.6796875,0.0
1734410759.5768356,697.265625,-399.90234375,153.80859375,687.98828125,0.0
1734410759.5807414,341.30859375,-428.22265625,146.97265625,323.2421875,0.0
1734410759.5846474,485.3515625,-421.38671875,166.9921875,461.42578125,0.0
1734410759.5885532,924.8046875,-349.12109375,183.59375,909.1796875,0.0
1734410759.5924592,825.68359375,-343.75,250.48828125,822.75390625,0.0
1734410759.5963683,279.296875,-412.109375,117.67578125,268.06640625,0.0
1734410759.600274,182.6171875,-437.5,144.04296875,154.78515625,0.0
1734410759.60418,650.390625,-417.48046875,210.44921875,605.46875,0.0
1734410759.6080859,795.41015625,-369.62890625,79.1015625,752.9296875,0.0
1734410759.611992,583.49609375,-376.953125,135.7421875,549.8046875,0.0
1734410759.6158977,575.1953125,-412.109375,189.453125,540.0390625,0.0
1734410759.6198037,761.71875,-413.57421875,205.56640625,745.1171875,0.0
1734410759.6237094,610.3515625,-406.25,202.1484375,599.12109375,0.0
1734410759.6276155,538.57421875,-378.90625,64.94140625,500.0,0.0
1734410759.6315212,864.74609375,-367.1875,167.48046875,831.0546875,0.0
1734410759.6354272,630.37109375,-407.2265625,194.3359375,606.93359375,0.0
1734410759.639333,180.6640625,-436.5234375,84.47265625,148.4375,0.0
1734410759.643242,291.50390625,-440.91796875,138.18359375,245.1171875,0.0
1734410759.647148,692.3828125,-394.04296875,144.04296875,671.38671875,0.0
1734410759.6510537,791.015625,-374.51171875,197.265625,790.0390625,0.0
1734410759.6549597,338.37890625,-423.33984375,162.59765625,325.68359375,0.0
1734410759.6588655,139.6484375,-452.63671875,108.3984375,112.3046875,0.0
1734410759.6627715,645.5078125,-440.91796875,251.46484375,617.1875,0.0
1734410759.6666772,976.07421875,-390.625,207.51953125,971.6796875,0.0
1734410759.670583,889.6484375,-379.8828125,175.29296875,892.578125,0.0
1734410759.674489,655.76171875,-423.828125,205.078125,644.04296875,0.0
1734410759.6783948,573.2421875,-440.4296875,155.2734375,559.5703125,0.0
1734410759.6823008,460.9375,-451.171875,195.3125,462.40234375,0.0
1734410759.6862066,245.1171875,-437.5,104.4921875,223.14453125,0.0
1734410759.6901186,530.76171875,-405.2734375,123.046875,497.0703125,0.0
1734410759.6940243,549.8046875,-434.08203125,199.70703125,522.4609375,0.0
1734410759.6979303,100.5859375,-467.28515625,108.3984375,77.1484375,0.0
1734410759.701836,-43.45703125,-483.88671875,139.6484375,-70.3125,0.0
1734410759.7057421,371.58203125,-452.63671875,145.99609375,337.40234375,0.0
1734410759.709648,885.7421875,-400.87890625,179.19921875,867.1875,0.0
1734410759.713554,762.6953125,-424.8046875,231.93359375,764.16015625,0.0
1734410759.7174597,47.8515625,-475.09765625,110.83984375,37.109375,0.0
1734410759.7213657,39.55078125,-489.74609375,161.1328125,3.41796875,0.0
1734410759.7252715,729.00390625,-444.3359375,196.2890625,707.03125,0.0
1734410759.7291775,638.671875,-408.203125,122.55859375,636.23046875,0.0
1734410759.7330832,138.671875,-443.84765625,174.8046875,125.48828125,0.0
1734410759.7369947,55.17578125,-476.5625,164.0625,36.62109375,0.0
1734410759.7409008,80.078125,-491.69921875,196.2890625,57.12890625,0.0
1734410759.7448065,8.30078125,-479.4921875,155.76171875,-19.04296875,0.0
1734410759.7487125,235.83984375,-431.640625,103.515625,212.890625,0.0
1734410759.7526183,492.1875,-436.03515625,212.40234375,470.703125,0.0
1734410759.7565243,515.625,-468.75,187.98828125,497.0703125,0.0
1734410759.76043,246.58203125,-497.0703125,187.98828125,229.00390625,0.0
1734410759.764336,351.5625,-488.28125,188.96484375,326.171875,0.0
1734410759.768242,849.12109375,-417.48046875,173.33984375,837.890625,0.0
1734410759.7721477,740.72265625,-415.52734375,230.46875,742.1875,0.0
1734410759.7760537,-69.82421875,-488.76953125,113.76953125,-84.47265625,0.0
1734410759.7799594,-128.41796875,-513.18359375,146.97265625,-153.80859375,0.0
1734410759.7838707,309.5703125,-496.58203125,192.3828125,289.0625,0.0
1734410759.7877765,342.7734375,-456.0546875,60.05859375,320.3125,0.0
1734410759.7916822,153.3203125,-460.9375,117.1875,134.765625,0.0
1734410759.7955883,-43.9453125,-500.0,155.2734375,-63.4765625,0.0
1734410759.799494,-24.4140625,-511.23046875,156.73828125,-28.80859375,0.0
1734410759.8034,324.70703125,-496.58203125,204.58984375,323.73046875,0.0
1734410759.8073058,521.97265625,-453.61328125,118.65234375,497.0703125,0.0
1734410759.8112118,430.6640625,-444.3359375,167.48046875,403.3203125,0.0
1734410759.8151176,643.06640625,-460.44921875,212.40234375,640.625,0.0
1734410759.8190236,216.796875,-489.2578125,124.0234375,229.4921875,0.0
1734410759.8229294,-233.88671875,-514.6484375,137.20703125,-253.41796875,0.0
1734410759.8268354,357.421875,-459.9609375,132.32421875,332.03125,0.0
1734410759.830749,616.2109375,-431.15234375,178.22265625,594.23828125,0.0
1734410759.8346548,41.50390625,-478.515625,145.99609375,22.4609375,0.0
1734410759.8385608,-179.19921875,-503.90625,85.44921875,-199.21875,0.0
1734410759.8424666,344.23828125,-491.2109375,194.3359375,324.21875,0.0
1734410759.8463726,786.1328125,-438.96484375,145.01953125,757.8125,0.0
1734410759.8502784,870.1171875,-413.57421875,156.25,852.05078125,0.0
1734410759.8541842,625.48828125,-455.078125,208.984375,615.234375,0.0
1734410759.8580902,652.34375,-469.7265625,181.640625,637.20703125,0.0
1734410759.861996,760.25390625,-465.33203125,226.07421875,756.8359375,0.0
1734410759.865902,306.15234375,-454.1015625,71.2890625,293.9453125,0.0
1734410759.8698077,359.375,-427.734375,41.50390625,330.56640625,0.0
1734410759.8737137,382.32421875,-452.1484375,161.1328125,362.79296875,0.0
1734410759.8776238,-0.9765625,-488.76953125,55.17578125,-13.18359375,0.0
1734410759.8815296,-113.76953125,-503.90625,82.51953125,-142.08984375,0.0
1734410759.8854356,317.87109375,-464.35546875,136.71875,285.15625,0.0
1734410759.8893414,731.93359375,-411.1328125,133.7890625,713.37890625,0.0
1734410759.8932474,477.5390625,-437.98828125,168.45703125,470.21484375,0.0
1734410759.8971531,327.63671875,-470.21484375,107.91015625,313.96484375,0.0
1734410759.9010592,541.9921875,-475.5859375,193.84765625,517.08984375,0.0
1734410759.904965,680.17578125,-443.84765625,178.7109375,662.109375,0.0
1734410759.9088707,604.4921875,-403.3203125,66.89453125,599.609375,0.0
1734410759.9127767,240.72265625,-436.03515625,132.32421875,225.09765625,0.0
1734410759.9166825,254.8828125,-466.796875,163.0859375,224.12109375,0.0
1734410759.9205885,764.6484375,-454.58984375,212.40234375,763.18359375,0.0
1734410759.9244983,601.5625,-443.84765625,154.296875,613.76953125,0.0
1734410759.928404,447.265625,-410.64453125,35.64453125,422.36328125,0.0
1734410759.93231,662.109375,-408.203125,164.0625,633.7890625,0.0
1734410759.9362159,397.94921875,-445.3125,143.06640625,379.39453125,0.0
1734410759.9401217,95.703125,-469.7265625,119.140625,62.5,0.0
1734410759.9440277,602.05078125,-450.1953125,196.2890625,577.1484375,0.0
1734410759.9479334,992.1875,-376.46484375,181.640625,993.65234375,0.0
1734410759.9518394,827.63671875,-371.09375,253.41796875,829.58984375,0.0
1734410759.9557452,168.9453125,-438.96484375,98.14453125,157.71484375,0.0
1734410759.9596512,27.83203125,-463.8671875,93.26171875,-0.48828125,0.0
1734410759.963557,534.66796875,-445.80078125,188.4765625,502.9296875,0.0
1734410759.967463,644.53125,-402.34375,43.45703125,610.83984375,0.0
1734410759.9713721,448.2421875,-407.2265625,92.7734375,415.0390625,0.0
1734410759.9752781,335.9375,-447.265625,145.5078125,305.17578125,0.0
1734410759.979184,368.1640625,-465.33203125,150.87890625,347.65625,0.0
1734410759.98309,284.1796875,-464.35546875,177.24609375,264.6484375,0.0
1734410759.9869957,460.9375,-416.9921875,53.7109375,433.59375,0.0
1734410759.9909017,802.24609375,-398.92578125,148.92578125,783.69140625,0.0
1734410759.9948075,858.88671875,-414.55078125,225.09765625,863.28125,0.0
1734410759.9987135,351.5625,-444.3359375,128.41796875,357.421875,0.0
1734410760.0026193,66.40625,-471.19140625,133.30078125,40.0390625,0.0
1734410760.0065253,612.3046875,-416.50390625,117.67578125,577.1484375,0.0
1734410760.010431,853.515625,-390.625,169.921875,843.75,0.0
1734410760.0143368,329.1015625,-437.98828125,148.92578125,317.87109375,0.0
1734410760.018249,171.875,-460.44921875,98.14453125,142.578125,0.0
1734410760.022155,637.6953125,-447.75390625,231.93359375,611.81640625,0.0
1734410760.0260608,883.30078125,-405.2734375,163.0859375,875.48828125,0.0
1734410760.0299668,612.3046875,-392.578125,108.3984375,603.02734375,0.0
1734410760.0338726,357.421875,-428.7109375,174.8046875,331.54296875,0.0
1734410760.0377786,648.4375,-437.98828125,198.2421875,625.9765625,0.0
1734410760.0416844,887.20703125,-434.5703125,256.34765625,877.44140625,0.0
1734410760.0455904,799.31640625,-401.85546875,148.92578125,795.8984375,0.0
1734410760.0494962,665.0390625,-377.44140625,143.06640625,658.203125,0.0
1734410760.0534022,687.5,-399.90234375,211.42578125,674.8046875,0.0
1734410760.057308,372.55859375,-426.7578125,117.1875,375.48828125,0.0
1734410760.061214,-55.17578125,-457.51953125,121.58203125,-75.1953125,0.0
1734410760.0651257,330.56640625,-427.24609375,131.8359375,290.0390625,0.0
1734410760.0690317,777.34375,-376.953125,138.18359375,754.8828125,0.0
1734410760.0729375,410.64453125,-408.203125,172.8515625,399.90234375,0.0
1734410760.0768435,-52.24609375,-451.66015625,91.30859375,-72.75390625,0.0
1734410760.0807493,192.87109375,-454.58984375,169.43359375,161.1328125,0.0
1734410760.0846553,743.65234375,-409.1796875,212.890625,721.19140625,0.0
1734410760.088561,892.08984375,-363.28125,145.99609375,892.578125,0.0
1734410760.092467,423.33984375,-397.94921875,160.15625,416.9921875,0.0
1734410760.0963728,193.84765625,-437.98828125,128.90625,166.015625,0.0
1734410760.1002789,650.87890625,-433.59375,195.80078125,641.11328125,0.0
1734410760.1041846,629.39453125,-416.50390625,167.96875,627.44140625,0.0
1734410760.1080904,416.9921875,-388.671875,70.3125,387.20703125,0.0
1734410760.1120017,567.3828125,-398.92578125,183.10546875,543.45703125,0.0
1734410760.1159077,423.828125,-432.12890625,153.3203125,397.94921875,0.0
1734410760.1198134,15.13671875,-458.0078125,131.8359375,-13.671875,0.0
1734410760.1237195,68.359375,-452.1484375,157.71484375,32.2265625,0.0
1734410760.1276252,630.859375,-393.06640625,145.99609375,604.4921875,0.0
1734410760.1315312,906.25,-381.8359375,231.4453125,899.4140625,0.0
1734410760.135437,608.3984375,-423.828125,183.10546875,593.26171875,0.0
1734410760.139343,415.52734375,-452.1484375,177.734375,393.06640625,0.0
1734410760.1432488,706.0546875,-431.640625,257.8125,689.94140625,0.0
1734410760.1471548,878.90625,-371.09375,170.41015625,879.39453125,0.0
1734410760.1510606,449.21875,-391.6015625,124.51171875,437.98828125,0.0
1734410760.1549666,130.859375,-439.94140625,143.06640625,102.5390625,0.0
1734410760.1588807,145.99609375,-454.58984375,136.23046875,114.74609375,0.0
1734410760.1627867,164.0625,-456.54296875,181.640625,136.23046875,0.0
1734410760.1666925,301.7578125,-424.31640625,67.87109375,265.625,0.0
1734410760.1705985,514.16015625,-411.62109375,134.765625,487.79296875,0.0
1734410760.1745043,463.8671875,-440.4296875,209.47265625,442.3828125,0.0
1734410760.1784103,380.37109375,-458.984375,159.1796875,356.93359375,0.0
1734410760.182316,426.26953125,-458.0078125,186.03515625,403.3203125,0.0
1734410760.186222,650.390625,-418.45703125,140.13671875,624.0234375,0.0
1734410760.1901278,886.23046875,-374.51171875,213.37890625,881.34765625,0.0
1734410760.1940339,451.66015625,-411.62109375,188.96484375,456.0546875,0.0
1734410760.1979396,191.40625,-450.68359375,135.25390625,168.9453125,0.0
1734410760.2018456,569.82421875,-443.84765625,240.72265625,533.69140625,0.0
1734410760.2057562,725.09765625,-408.69140625,165.0390625,696.77734375,0.0
1734410760.209662,520.99609375,-392.578125,134.765625,494.140625,0.0
1734410760.2135677,160.64453125,-431.640625,168.9453125,135.25390625,0.0
1734410760.2174737,167.48046875,-451.171875,137.20703125,146.484375,0.0
1734410760.2213795,344.23828125,-457.51953125,217.7734375,315.91796875,0.0
1734410760.2252855,614.2578125,-424.31640625,168.45703125,595.703125,0.0
1734410760.2291913,932.12890625,-382.32421875,170.41015625,930.17578125,0.0
1734410760.2330973,879.39453125,-400.87890625,243.1640625,887.6953125,0.0
1734410760.237003,383.7890625,-432.6171875,141.6015625,386.71875,0.0
1734410760.240909,-1.46484375,-461.9140625,139.6484375,-25.87890625,0.0
1734410760.2448149,259.765625,-441.40625,131.8359375,225.09765625,0.0
1734410760.248721,813.96484375,-378.90625,194.82421875,796.875,0.0
1734410760.252631,748.53515625,-391.11328125,248.53515625,752.9296875,0.0
1734410760.2565367,247.0703125,-437.98828125,108.3984375,230.46875,0.0
1734410760.2604427,345.703125,-449.21875,180.17578125,313.96484375,0.0
1734410760.2643485,535.15625,-432.6171875,168.45703125,505.37109375,0.0
1734410760.2682545,527.34375,-404.78515625,93.75,498.046875,0.0
1734410760.2721603,637.6953125,-416.015625,186.5234375,607.91015625,0.0
1734410760.276066,541.50390625,-438.4765625,162.59765625,508.7890625,0.0
1734410760.279972,592.7734375,-442.3828125,214.84375,588.37890625,0.0
1734410760.2838778,552.734375,-431.15234375,187.98828125,558.10546875,0.0
1734410760.2877839,305.17578125,-410.15625,68.359375,282.71484375,0.0
1734410760.2916896,471.19140625,-415.52734375,191.40625,442.87109375,0.0
1734410760.2955956,373.046875,-442.3828125,167.48046875,343.75,0.0
1734410760.2995055,15.625,-466.30859375,124.0234375,0.0,0.0
1734410760.3034115,70.80078125,-463.37890625,157.2265625,43.45703125,0.0
1734410760.3073173,573.2421875,-410.15625,136.71875,555.17578125,0.0
1734410760.3112233,709.47265625,-404.78515625,201.66015625,709.9609375,0.0
1734410760.315129,257.32421875,-445.3125,151.3671875,244.140625,0.0
1734410760.319035,282.71484375,-460.9375,172.8515625,257.8125,0.0
1734410760.3229408,689.94140625,-442.87109375,244.140625,672.36328125,0.0
1734410760.3268468,957.03125,-389.6484375,184.08203125,963.8671875,0.0
1734410760.3307526,638.18359375,-399.4140625,176.7578125,645.5078125,0.0
1734410760.3346586,64.453125,-448.2421875,140.13671875,47.8515625,0.0
1734410760.3385644,425.78125,-447.265625,197.75390625,410.64453125,0.0
1734410760.3424704,697.265625,-436.5234375,241.69921875,707.51953125,0.0
1734410760.3463795,340.33203125,-409.1796875,87.890625,333.984375,0.0
1734410760.3502853,450.1953125,-396.484375,162.59765625,426.26953125,0.0
1734410760.3541913,439.94140625,-423.828125,186.5234375,421.875,0.0
1734410760.358097,45.41015625,-451.66015625,109.375,39.55078125,0.0
1734410760.362003,7.32421875,-466.796875,176.7578125,-11.23046875,0.0
1734410760.3659089,642.08984375,-411.1328125,154.296875,620.60546875,0.0
1734410760.3698149,935.05859375,-363.76953125,234.86328125,949.70703125,0.0
1734410760.3737206,522.94921875,-402.34375,219.7265625,524.90234375,0.0
1734410760.3776267,219.7265625,-438.4765625,122.0703125,196.77734375,0.0
1734410760.3815324,385.7421875,-442.87109375,208.984375,363.76953125,0.0
1734410760.3854384,648.4375,-406.73828125,150.390625,624.0234375,0.0
1734410760.3893442,518.5546875,-384.765625,138.18359375,497.55859375,0.0
1734410760.3932533,177.734375,-427.24609375,180.6640625,158.69140625,0.0
1734410760.397159,144.53125,-452.63671875,156.25,116.2109375,0.0
1734410760.401065,337.890625,-458.984375,210.9375,309.08203125,0.0
1734410760.404971,324.70703125,-437.01171875,124.0234375,300.78125,0.0
1734410760.408877,486.81640625,-403.3203125,130.37109375,456.54296875,0.0
1734410760.4127827,833.49609375,-413.0859375,270.99609375,813.4765625,0.0
1734410760.4166884,817.3828125,-434.5703125,204.1015625,816.89453125,0.0
1734410760.4205945,481.93359375,-459.9609375,172.36328125,466.796875,0.0
1734410760.4245002,408.69140625,-442.3828125,148.4375,373.046875,0.0
1734410760.4284062,735.83984375,-389.6484375,175.78125,723.6328125,0.0
1734410760.432312,619.62890625,-405.2734375,219.23828125,621.58203125,0.0
1734410760.436218,181.640625,-452.1484375,125.0,164.0625,0.0
1734410760.4401298,95.21484375,-469.23828125,206.0546875,67.3828125,0.0
1734410760.4440358,407.71484375,-441.89453125,174.31640625,372.0703125,0.0
1734410760.4479415,616.69921875,-401.3671875,100.5859375,582.03125,0.0
1734410760.4518476,276.3671875,-433.10546875,159.66796875,259.765625,0.0
1734410760.4557533,83.49609375,-470.703125,137.20703125,62.5,0.0
1734410760.4596593,443.359375,-473.6328125,220.703125,409.1796875,0.0
1734410760.463565,631.8359375,-449.70703125,199.70703125,606.4453125,0.0
1734410760.4674711,476.07421875,-405.2734375,84.47265625,447.75390625,0.0
1734410760.471377,605.95703125,-412.59765625,203.61328125,568.84765625,0.0
1734410760.475283,691.89453125,-440.4296875,173.828125,679.19921875,0.0
1734410760.4791887,177.734375,-465.8203125,134.765625,179.6875,0.0
1734410760.4830945,105.46875,-466.30859375,165.52734375,82.51953125,0.0
1734410760.487006,729.4921875,-407.71484375,142.578125,710.44921875,0.0
1734410760.4909117,768.06640625,-404.296875,210.9375,772.4609375,0.0
1734410760.4948177,399.4140625,-451.171875,153.3203125,389.16015625,0.0
1734410760.4987235,231.4453125,-474.609375,143.5546875,208.984375,0.0
1734410760.5026295,486.328125,-465.8203125,212.40234375,466.30859375,0.0
1734410760.5065353,941.40625,-408.69140625,180.17578125,943.359375,0.0
1734410760.5104413,911.62109375,-396.484375,206.54296875,909.1796875,0.0
1734410760.514347,633.30078125,-438.96484375,162.59765625,607.91015625,0.0
1734410760.518253,665.52734375,-453.125,182.12890625,648.92578125,0.0
1734410760.5221589,775.87890625,-439.94140625,241.69921875,768.06640625,0.0
1734410760.5260649,454.58984375,-417.48046875,41.9921875,429.19921875,0.0
1734410760.5299706,519.04296875,-416.50390625,134.765625,483.3984375,0.0
1734410760.5338814,604.98046875,-440.91796875,184.5703125,579.1015625,0.0
1734410760.5377874,261.71875,-461.42578125,81.0546875,241.2109375,0.0
1734410760.5416932,17.578125,-474.12109375,150.390625,-15.625,0.0
1734410760.5455992,435.546875,-426.7578125,122.55859375,396.484375,0.0
1734410760.549505,779.296875,-397.94921875,168.9453125,758.7890625,0.0
1734410760.553411,604.00390625,-434.5703125,190.91796875,591.30859375,0.0
1734410760.5573168,420.41015625,-450.1953125,148.92578125,395.5078125,0.0
1734410760.5612228,541.9921875,-454.1015625,205.56640625,507.32421875,0.0
1734410760.5651286,859.86328125,-399.90234375,175.29296875,846.6796875,0.0
1734410760.5690346,738.28125,-370.1171875,157.71484375,737.3046875,0.0
1734410760.5729403,158.203125,-427.24609375,166.9921875,136.71875,0.0
1734410760.5768464,129.39453125,-450.68359375,137.20703125,91.30859375,0.0
1734410760.5807567,347.65625,-456.54296875,201.66015625,313.4765625,0.0
1734410760.5846627,273.4375,-430.6640625,126.46484375,252.44140625,0.0
1734410760.5885684,335.9375,-395.01953125,115.72265625,314.453125,0.0
1734410760.5924745,451.171875,-413.57421875,220.703125,424.8046875,0.0
1734410760.5963802,249.0234375,-441.40625,154.78515625,225.5859375,0.0
1734410760.6002862,245.60546875,-451.66015625,188.96484375,218.26171875,0.0
1734410760.604192,724.609375,-410.64453125,185.546875,696.77734375,0.0
1734410760.608098,998.046875,-356.4453125,215.33203125,993.1640625,0.0
1734410760.6120038,726.5625,-376.46484375,263.18359375,726.5625,0.0
1734410760.6159098,185.546875,-427.24609375,125.0,173.33984375,0.0
1734410760.6198156,28.80859375,-452.1484375,164.0625,7.8125,0.0
1734410760.6237216,413.57421875,-421.38671875,175.29296875,383.7890625,0.0
1734410760.6276317,616.69921875,-372.0703125,125.9765625,594.7265625,0.0
1734410760.6315374,282.2265625,-395.99609375,181.15234375,262.6953125,0.0
1734410760.6354434,76.66015625,-430.6640625,149.90234375,52.24609375,0.0
1734410760.6393492,192.87109375,-441.89453125,179.19921875,166.50390625,0.0
1734410760.6432552,351.07421875,-426.7578125,174.31640625,322.265625,0.0
1734410760.647161,723.14453125,-372.55859375,165.0390625,701.171875,0.0
1734410760.651067,825.68359375,-381.34765625,232.91015625,809.5703125,0.0
1734410760.6549728,708.984375,-418.9453125,193.84765625,710.44921875,0.0
1734410760.6588788,350.09765625,-450.68359375,178.22265625,347.16796875,0.0
1734410760.6627846,69.82421875,-463.8671875,165.0390625,41.50390625,0.0
1734410760.6666903,578.61328125,-408.69140625,135.7421875,548.828125,0.0
1734410760.6705964,739.74609375,-405.76171875,192.3828125,716.796875,0.0
1734410760.674506,366.69921875,-447.265625,163.0859375,352.5390625,0.0
1734410760.6784117,82.03125,-468.26171875,156.73828125,62.5,0.0
1734410760.6823177,300.78125,-457.51953125,222.65625,270.01953125,0.0
1734410760.6862235,604.4921875,-401.85546875,153.3203125,582.51953125,0.0
1734410760.6901295,516.11328125,-394.04296875,173.33984375,496.09375,0.0
1734410760.6940353,397.4609375,-434.5703125,184.5703125,373.046875,0.0
1734410760.6979413,551.7578125,-446.2890625,209.9609375,534.66796875,0.0
1734410760.701847,844.7265625,-427.24609375,261.23046875,839.84375,0.0
1734410760.705753,520.99609375,-404.296875,108.3984375,509.765625,0.0
1734410760.7096589,420.8984375,-407.71484375,176.26953125,397.4609375,0.0
1734410760.7135649,362.79296875,-441.89453125,187.01171875,336.42578125,0.0
1734410760.7174706,74.70703125,-467.28515625,111.328125,50.78125,0.0
1734410760.72138,32.2265625,-472.16796875,177.734375,3.41796875,0.0
1734410760.725286,435.05859375,-428.22265625,140.625,402.83203125,0.0
1734410760.7291918,659.66796875,-403.80859375,185.546875,651.85546875,0.0
1734410760.7330978,469.23828125,-438.96484375,203.61328125,471.19140625,0.0
1734410760.7370036,129.39453125,-471.6796875,151.3671875,109.375,0.0
1734410760.7409096,262.20703125,-477.5390625,215.33203125,232.421875,0.0
1734410760.7448153,823.2421875,-414.55078125,211.42578125,810.546875,0.0
1734410760.7487214,668.45703125,-388.671875,201.171875,664.55078125,0.0
1734410760.7526271,152.83203125,-448.2421875,163.0859375,137.20703125,0.0
1734410760.7565331,49.31640625,-479.00390625,136.71875,23.92578125,0.0
1734410760.760439,250.0,-482.91015625,204.58984375,213.8671875,0.0
1734410760.764345,410.64453125,-449.70703125,148.92578125,381.8359375,0.0
1734410760.7682571,425.29296875,-422.36328125,139.6484375,403.80859375,0.0
1734410760.772163,423.828125,-449.70703125,219.23828125,395.01953125,0.0
1734410760.776069,214.35546875,-476.5625,140.625,193.84765625,0.0
1734410760.7799747,-82.51953125,-494.140625,145.99609375,-101.07421875,0.0
1734410760.7838807,211.42578125,-467.7734375,151.3671875,184.5703125,0.0
1734410760.7877865,826.171875,-400.390625,206.54296875,810.546875,0.0
1734410760.7916925,856.4453125,-405.76171875,268.06640625,859.375,0.0
1734410760.7955983,470.21484375,-456.0546875,148.92578125,466.796875,0.0
1734410760.7995043,346.6796875,-474.12109375,222.65625,321.77734375,0.0
1734410760.80341,583.49609375,-448.2421875,197.75390625,572.265625,0.0
1734410760.807316,741.69921875,-401.3671875,111.81640625,737.79296875,0.0
1734410760.8112218,359.86328125,-425.29296875,170.41015625,342.28515625,0.0
1734410760.8151336,27.83203125,-469.7265625,132.32421875,6.8359375,0.0
1734410760.8190393,132.32421875,-483.3984375,188.96484375,112.3046875,0.0
1734410760.8229454,325.68359375,-460.9375,185.05859375,309.08203125,0.0
1734410760.8268511,479.00390625,-412.109375,104.00390625,456.54296875,0.0
1734410760.8307571,517.578125,-416.015625,198.73046875,497.0703125,0.0
1734410760.834663,595.21484375,-442.87109375,210.44921875,571.77734375,0.0
1734410760.838569,420.41015625,-459.47265625,195.3125,395.5078125,0.0
1734410760.8424747,188.4765625,-460.9375,177.734375,161.62109375,0.0
1734410760.8463807,613.76953125,-405.76171875,144.04296875,584.9609375,0.0
1734410760.8502865,970.21484375,-376.46484375,221.6796875,964.84375,0.0
1734410760.8541925,607.91015625,-421.875,159.1796875,613.28125,0.0
1734410760.8580983,-37.59765625,-467.7734375,123.046875,-51.26953125,0.0
1734410760.8620095,276.3671875,-453.61328125,209.47265625,245.60546875,0.0
1734410760.8659155,822.75390625,-399.4140625,166.50390625,790.0390625,0.0
1734410760.8698213,513.18359375,-401.85546875,174.31640625,493.65234375,0.0
1734410760.873727,50.78125,-445.80078125,154.78515625,30.76171875,0.0
1734410760.877633,127.9296875,-461.42578125,175.29296875,99.12109375,0.0
1734410760.8815389,625.9765625,-445.80078125,259.27734375,591.796875,0.0
1734410760.8854449,872.55859375,-398.4375,167.48046875,853.02734375,0.0
1734410760.8893507,809.5703125,-391.6015625,197.265625,802.734375,0.0
1734410760.8932567,823.73046875,-420.8984375,265.13671875,808.10546875,0.0
1734410760.8971624,650.390625,-433.59375,192.87109375,648.4375,0.0
1734410760.9010684,78.125,-458.984375,145.99609375,65.4296875,0.0
1734410760.9049742,340.33203125,-423.33984375,106.93359375,304.6875,0.0
1734410760.9088852,731.4453125,-393.5546875,169.921875,716.796875,0.0
1734410760.9127913,560.05859375,-426.26953125,200.68359375,559.5703125,0.0
1734410760.916697,40.0390625,-457.03125,80.078125,25.87890625,0.0
1734410760.9206028,43.9453125,-471.19140625,178.22265625,18.5546875,0.0
1734410760.9245088,573.2421875,-429.19921875,177.734375,537.109375,0.0
1734410760.9284146,868.65234375,-391.11328125,183.59375,860.83984375,0.0
1734410760.9323206,496.58203125,-427.734375,201.171875,503.90625,0.0
1734410760.9362264,69.3359375,-469.23828125,121.58203125,41.015625,0.0
1734410760.9401324,534.66796875,-458.49609375,219.7265625,522.4609375,0.0
1734410760.9440382,649.4140625,-420.8984375,144.53125,647.4609375,0.0
1734410760.9479442,350.5859375,-407.2265625,105.46875,320.80078125,0.0
1734410760.95185,372.55859375,-434.5703125,223.14453125,348.14453125,0.0
1734410760.9557605,219.7265625,-463.37890625,155.76171875,208.49609375,0.0
1734410760.9596665,-78.61328125,-482.91015625,150.87890625,-93.75,0.0
1734410760.9635723,145.5078125,-455.56640625,132.32421875,110.83984375,0.0
1734410760.9674783,614.2578125,-406.25,149.90234375,591.796875,0.0
1734410760.971384,746.09375,-420.8984375,241.2109375,741.2109375,0.0
1734410760.97529,399.90234375,-459.9609375,149.90234375,386.71875,0.0
1734410760.9791958,291.015625,-477.5390625,171.875,264.6484375,0.0
1734410760.9831018,757.32421875,-427.734375,245.60546875,730.95703125,0.0
1734410760.9870076,859.375,-364.2578125,221.6796875,859.375,0.0
1734410760.9909136,265.625,-404.78515625,173.828125,256.34765625,0.0
1734410760.9948194,-76.66015625,-454.58984375,107.91015625,-104.00390625,0.0
1734410760.9987254,124.0234375,-465.33203125,159.66796875,91.30859375,0.0
1734410761.0026355,303.22265625,-444.82421875,178.22265625,271.484375,0.0
1734410761.0065415,404.78515625,-396.484375,112.79296875,378.90625,0.0
1734410761.0104473,462.40234375,-407.2265625,194.82421875,442.3828125,0.0
1734410761.0143533,314.94140625,-445.80078125,164.0625,296.875,0.0
1734410761.018259,113.28125,-464.84375,162.109375,99.609375,0.0
1734410761.022165,431.15234375,-444.82421875,212.890625,408.69140625,0.0
1734410761.0260708,844.7265625,-394.53125,166.9921875,818.84765625,0.0
1734410761.0299768,931.640625,-379.39453125,254.8828125,934.08203125,0.0
1734410761.0338826,496.58203125,-417.96875,187.01171875,503.90625,0.0
1734410761.0377886,-157.2265625,-466.30859375,123.53515625,-171.875,0.0
1734410761.0416944,125.0,-458.984375,201.171875,97.65625,0.0
1734410761.0456002,563.96484375,-411.1328125,135.7421875,535.15625,0.0
1734410761.0495102,338.8671875,-413.0859375,158.69140625,319.82421875,0.0
1734410761.053416,30.76171875,-444.3359375,133.7890625,10.25390625,0.0
1734410761.057322,186.5234375,-450.68359375,147.94921875,165.52734375,0.0
1734410761.0612278,276.3671875,-453.61328125,213.37890625,263.18359375,0.0
1734410761.0651338,270.99609375,-437.5,137.20703125,250.0,0.0
1734410761.0690396,621.09375,-432.12890625,197.75390625,596.19140625,0.0
1734410761.0729456,833.984375,-433.59375,250.48828125,815.4296875,0.0
1734410761.0768514,746.09375,-429.19921875,210.44921875,750.9765625,0.0
1734410761.0807574,147.94921875,-458.49609375,166.50390625,148.92578125,0.0
1734410761.0846632,64.94140625,-447.75390625,109.86328125,32.71484375,0.0
1734410761.0885692,530.2734375,-427.734375,162.109375,497.0703125,0.0
1734410761.092475,506.34765625,-442.3828125,187.98828125,494.140625,0.0
1734410761.0963843,44.921875,-452.1484375,94.7265625,38.57421875,0.0
1734410761.1002903,122.55859375,-464.35546875,174.31640625,95.703125,0.0
1734410761.104196,442.87109375,-448.73046875,146.484375,416.015625,0.0
1734410761.108102,372.55859375,-437.5,121.58203125,354.4921875,0.0
1734410761.1120079,205.56640625,-454.1015625,171.38671875,188.4765625,0.0
1734410761.1159139,467.7734375,-434.5703125,131.8359375,439.453125,0.0
1734410761.1198196,793.9453125,-412.109375,234.375,782.71484375,0.0
1734410761.1237257,464.35546875,-421.875,156.25,468.75,0.0
1734410761.1276314,49.31640625,-438.4765625,105.95703125,32.2265625,0.0
1734410761.1315374,256.8359375,-439.94140625,215.8203125,229.98046875,0.0
1734410761.1354432,479.4921875,-423.828125,128.41796875,455.56640625,0.0
1734410761.1393492,164.0625,-439.453125,138.671875,154.78515625,0.0
1734410761.143258,-25.390625,-450.1953125,127.44140625,-36.62109375,0.0
1734410761.1471639,416.50390625,-426.7578125,135.7421875,391.6015625,0.0
1734410761.1510699,768.5546875,-424.31640625,214.35546875,745.60546875,0.0
1734410761.1549757,388.18359375,-427.24609375,107.421875,369.62890625,0.0
1734410761.1588817,209.9609375,-437.5,152.34375,181.640625,0.0
1734410761.1627874,641.6015625,-428.22265625,253.41796875,619.140625,0.0
1734410761.1666934,912.109375,-396.97265625,209.47265625,905.76171875,0.0
1734410761.1705992,596.19140625,-411.62109375,166.50390625,580.078125,0.0
1734410761.1745052,289.55078125,-417.96875,95.21484375,261.23046875,0.0
1734410761.178411,388.671875,-416.50390625,139.6484375,370.60546875,0.0
1734410761.182317,409.66796875,-426.7578125,188.4765625,393.5546875,0.0
1734410761.1862228,265.13671875,-416.015625,99.12109375,249.0234375,0.0
1734410761.1901348,222.16796875,-424.8046875,167.96875,205.56640625,0.0
1734410761.1940405,396.97265625,-421.875,149.4140625,369.140625,0.0
1734410761.1979465,287.59765625,-422.36328125,130.37109375,268.06640625,0.0
1734410761.2018523,-30.76171875,-440.91796875,153.80859375,-44.43359375,0.0
1734410761.2057583,239.74609375,-425.29296875,118.1640625,214.84375,0.0
1734410761.209664,713.37890625,-416.9921875,229.98046875,700.1953125,0.0
1734410761.21357,777.34375,-412.109375,182.6171875,770.5078125,0.0
1734410761.217476,496.09375,-410.64453125,125.48828125,481.4453125,0.0
1734410761.221382,340.33203125,-432.12890625,197.265625,312.01171875,0.0
1734410761.2252877,736.81640625,-406.25,156.25,718.26171875,0.0
1734410761.2291937,546.38671875,-411.1328125,157.2265625,535.64453125,0.0
1734410761.2330995,115.234375,-441.40625,110.3515625,88.37890625,0.0
1734410761.2370107,306.640625,-433.10546875,60.546875,281.73828125,0.0
1734410761.2409167,393.5546875,-440.4296875,180.6640625,369.140625,0.0
1734410761.2448225,183.59375,-437.98828125,91.796875,167.96875,0.0
1734410761.2487285,191.89453125,-439.453125,124.0234375,177.24609375,0.0
1734410761.2526343,548.828125,-431.640625,216.796875,534.1796875,0.0
1734410761.2565403,871.09375,-402.83203125,171.875,861.81640625,0.0
1734410761.260446,724.609375,-415.52734375,182.6171875,704.1015625,0.0
1734410761.264352,747.0703125,-410.15625,152.34375,711.9140625,0.0
1734410761.2682579,896.484375,-389.16015625,223.6328125,884.27734375,0.0
1734410761.2721639,597.16796875,-399.90234375,214.84375,589.35546875,0.0
1734410761.2760696,203.125,-407.2265625,85.44921875,176.7578125,0.0
1734410761.2799757,122.0703125,-428.7109375,145.5078125,88.37890625,0.0
1734410761.2838867,571.77734375,-407.2265625,189.94140625,562.98828125,0.0
1734410761.2877924,687.5,-386.23046875,207.51953125,691.89453125,0.0
1734410761.2916985,223.14453125,-417.48046875,166.50390625,196.2890625,0.0
1734410761.2956042,298.33984375,-409.1796875,110.3515625,273.4375,0.0
1734410761.2995102,433.10546875,-415.0390625,187.5,405.2734375,0.0
1734410761.303416,620.60546875,-412.109375,186.5234375,590.8203125,0.0
1734410761.307322,635.7421875,-400.87890625,171.38671875,616.69921875,0.0
1734410761.3112278,391.11328125,-420.41015625,193.359375,359.375,0.0
1734410761.3151338,714.84375,-390.625,166.9921875,699.21875,0.0
1734410761.3190396,480.95703125,-397.94921875,177.734375,475.5859375,0.0
1734410761.3229456,-17.08984375,-432.6171875,121.58203125,-45.8984375,0.0
1734410761.3268514,335.9375,-411.62109375,156.25,302.24609375,0.0
1734410761.3307621,605.46875,-405.2734375,229.4921875,576.66015625,0.0
1734410761.334668,205.56640625,-412.109375,114.2578125,193.84765625,0.0
1734410761.338574,57.12890625,-421.38671875,148.92578125,42.48046875,0.0
1734410761.3424797,388.671875,-421.38671875,205.56640625,363.76953125,0.0
1734410761.3463857,560.546875,-406.25,156.25,537.109375,0.0
1734410761.3502915,529.296875,-413.0859375,199.21875,504.8828125,0.0
1734410761.3541975,670.8984375,-402.83203125,166.9921875,644.04296875,0.0
1734410761.3581033,910.64453125,-384.27734375,233.3984375,892.578125,0.0
1734410761.3620093,743.1640625,-389.16015625,245.60546875,738.28125,0.0
1734410761.365915,156.25,-404.296875,90.8203125,145.99609375,0.0
1734410761.369821,188.96484375,-417.96875,158.69140625,163.57421875,0.0
1734410761.3737268,525.390625,-408.203125,142.08984375,494.140625,0.0
1734410761.3776371,451.171875,-408.69140625,144.04296875,428.7109375,0.0
1734410761.3815432,102.5390625,-433.10546875,164.55078125,83.984375,0.0
1734410761.385449,229.00390625,-420.8984375,123.046875,198.2421875,0.0
1734410761.389355,542.48046875,-409.66796875,187.01171875,511.23046875,0.0
1734410761.3932607,453.61328125,-407.71484375,148.4375,428.7109375,0.0
1734410761.3971667,570.80078125,-395.99609375,161.1328125,545.8984375,0.0
1734410761.4010725,724.12109375,-411.1328125,215.33203125,693.359375,0.0
1734410761.4049785,788.57421875,-395.5078125,176.7578125,779.78515625,0.0
1734410761.4088843,528.3203125,-394.53125,180.6640625,530.76171875,0.0
1734410761.41279,143.5546875,-417.96875,128.41796875,116.69921875,0.0
1734410761.416696,339.35546875,-406.73828125,150.390625,308.10546875,0.0
1734410761.4206018,431.15234375,-419.921875,206.54296875,405.76171875,0.0
1734410761.424512,209.9609375,-422.8515625,101.5625,190.4296875,0.0
1734410761.4284177,193.84765625,-422.36328125,143.06640625,172.36328125,0.0
1734410761.4323237,463.37890625,-419.921875,198.2421875,434.5703125,0.0
1734410761.4362295,521.484375,-404.78515625,145.01953125,502.44140625,0.0
1734410761.4401355,200.1953125,-430.17578125,160.15625,180.6640625,0.0
1734410761.4440413,436.03515625,-429.6875,146.484375,405.2734375,0.0
1734410761.4479473,845.21484375,-400.390625,243.1640625,822.75390625,0.0
1734410761.451853,903.80859375,-383.7890625,252.44140625,897.94921875,0.0
1734410761.455759,655.76171875,-386.23046875,108.3984375,643.06640625,0.0
1734410761.4596648,288.0859375,-413.0859375,161.1328125,265.13671875,0.0
1734410761.4635708,369.62890625,-410.64453125,135.7421875,343.26171875,0.0
1734410761.4674766,410.15625,-406.25,150.87890625,385.7421875,0.0
1734410761.471386,168.9453125,-422.36328125,171.875,143.5546875,0.0
1734410761.475292,266.6015625,-409.66796875,100.09765625,237.79296875,0.0
1734410761.4791977,399.4140625,-422.36328125,178.7109375,373.046875,0.0
1734410761.4831038,229.98046875,-434.5703125,136.23046875,208.984375,0.0
1734410761.4870095,192.3828125,-425.78125,134.765625,165.52734375,0.0
1734410761.4909155,560.05859375,-421.38671875,215.33203125,519.04296875,0.0
1734410761.4948213,848.14453125,-382.32421875,176.7578125,839.84375,0.0
1734410761.4987273,518.06640625,-399.90234375,202.63671875,526.85546875,0.0
1734410761.502633,144.04296875,-439.453125,125.0,121.09375,0.0
1734410761.506539,496.09375,-420.41015625,116.69921875,458.0078125,0.0
1734410761.5104449,727.5390625,-419.921875,202.63671875,697.265625,0.0
1734410761.514351,375.9765625,-416.9921875,104.4921875,354.4921875,0.0
1734410761.51826,83.0078125,-429.6875,139.6484375,58.10546875,0.0
1734410761.5221658,395.5078125,-437.98828125,202.63671875,367.67578125,0.0
1734410761.5260718,602.5390625,-419.43359375,168.9453125,580.078125,0.0
1734410761.5299776,269.04296875,-433.10546875,178.22265625,254.8828125,0.0
1734410761.5338836,280.76171875,-428.7109375,101.5625,254.8828125,0.0
1734410761.5377893,644.04296875,-414.55078125,203.61328125,619.62890625,0.0
1734410761.5416954,930.17578125,-415.52734375,261.23046875,924.8046875,0.0
1734410761.5456011,759.27734375,-411.1328125,145.99609375,749.0234375,0.0
1734410761.5495071,387.20703125,-426.26953125,184.08203125,358.3984375,0.0
1734410761.553413,541.50390625,-409.66796875,168.9453125,523.4375,0.0
1734410761.557319,572.265625,-402.83203125,172.36328125,574.21875,0.0
1734410761.5612247,129.8828125,-438.96484375,150.87890625,111.328125,0.0
1734410761.5651364,306.640625,-428.7109375,110.3515625,275.87890625,0.0
1734410761.5690424,579.1015625,-427.24609375,187.98828125,555.17578125,0.0
1734410761.5729482,393.5546875,-429.19921875,145.5078125,377.44140625,0.0
1734410761.576854,130.37109375,-428.7109375,118.1640625,112.3046875,0.0
1734410761.58076,182.6171875,-442.87109375,197.75390625,155.2734375,0.0
1734410761.5846658,564.453125,-418.9453125,169.43359375,543.9453125,0.0
1734410761.5885718,568.359375,-413.0859375,185.546875,552.24609375,0.0
1734410761.5924776,237.3046875,-424.31640625,144.53125,212.40234375,0.0
1734410761.5963836,269.04296875,-418.45703125,136.23046875,237.79296875,0.0
1734410761.6002893,606.93359375,-421.875,201.66015625,599.609375,0.0
1734410761.6041954,429.19921875,-421.875,111.81640625,424.31640625,0.0
1734410761.6081011,220.21484375,-432.6171875,154.78515625,197.265625,0.0
1734410761.6120124,461.9140625,-431.640625,205.078125,438.96484375,0.0
1734410761.6159184,551.26953125,-414.0625,151.3671875,526.3671875,0.0
1734410761.6198242,174.31640625,-439.94140625,164.55078125,157.2265625,0.0
1734410761.6237302,134.765625,-440.4296875,118.1640625,109.375,0.0
1734410761.627636,567.87109375,-419.43359375,188.4765625,537.109375,0.0
1734410761.631542,783.203125,-413.0859375,218.75,758.30078125,0.0
1734410761.6354477,733.88671875,-399.4140625,137.20703125,712.890625,0.0
1734410761.6393538,618.1640625,-420.8984375,193.84765625,596.19140625,0.0
1734410761.6432595,777.34375,-413.0859375,202.1484375,762.6953125,0.0
1734410761.6471655,782.71484375,-395.99609375,221.6796875,774.4140625,0.0
1734410761.6510713,272.4609375,-422.36328125,165.0390625,249.51171875,0.0
1734410761.6549773,235.83984375,-417.48046875,54.6875,208.49609375,0.0
1734410761.6588883,383.7890625,-426.7578125,128.41796875,366.2109375,0.0
1734410761.662794,234.375,-439.94140625,126.953125,224.12109375,0.0
1734410761.6667001,168.45703125,-434.5703125,94.23828125,148.92578125,0.0
1734410761.670606,381.34765625,-435.05859375,193.359375,354.4921875,0.0
1734410761.674512,579.1015625,-414.0625,153.3203125,559.5703125,0.0
1734410761.6784177,622.0703125,-416.50390625,185.546875,604.98046875,0.0
1734410761.6823237,556.15234375,-430.6640625,169.43359375,535.15625,0.0
1734410761.6862295,654.78515625,-422.36328125,127.44140625,620.1171875,0.0
1734410761.6901355,856.93359375,-403.80859375,228.515625,841.30859375,0.0
1734410761.6940413,633.30078125,-390.625,141.11328125,634.27734375,0.0
1734410761.6979473,238.28125,-419.921875,125.48828125,213.8671875,0.0
1734410761.701853,430.6640625,-429.6875,185.546875,395.01953125,0.0
1734410761.7057636,0.0,-409.1796875,138.671875,640.13671875,0.0
1734410761.7096696,0.0,-422.36328125,163.57421875,338.37890625,0.0
1734410761.7135754,0.0,-419.921875,115.234375,252.9296875,0.0
1734410761.7174814,0.0,-413.57421875,167.48046875,515.13671875,0.0
1734410761.7213871,0.0,-426.26953125,201.66015625,500.48828125,0.0
1734410761.7252932,0.0,-417.96875,142.08984375,453.125,0.0
1734410761.729199,0.0,-414.55078125,195.80078125,684.08203125,0.0
1734410761.733105,0.0,-389.16015625,211.9140625,914.0625,0.0
1734410761.7370107,0.0,-380.37109375,220.21484375,782.2265625,0.0
1734410761.7409167,0.0,-426.26953125,149.90234375,259.27734375,0.0
1734410761.7448225,0.0,-418.45703125,123.53515625,419.43359375,0.0
1734410761.7487285,0.0,-406.73828125,194.3359375,682.6171875,0.0
1734410761.7526388,462.40234375,-414.55078125,127.44140625,444.82421875,0.0
1734410761.7565448,175.29296875,-416.9921875,90.8203125,155.2734375,0.0
1734410761.7604506,228.02734375,-433.59375,182.6171875,195.80078125,0.0
1734410761.7643566,530.76171875,-417.96875,119.62890625,505.859375,0.0
1734410761.7682624,513.671875,-413.57421875,149.90234375,488.28125,0.0
1734410761.7721684,721.6796875,-405.2734375,182.6171875,704.58984375,0.0
1734410761.7760742,816.40625,-394.04296875,148.4375,813.4765625,0.0
1734410761.7799802,787.59765625,-395.5078125,232.421875,788.57421875,0.0
1734410761.783886,630.37109375,-389.16015625,84.47265625,633.7890625,0.0
1734410761.787792,298.33984375,-411.1328125,47.36328125,272.4609375,0.0
1734410761.7916977,508.30078125,-406.73828125,183.59375,469.7265625,0.0
1734410761.7956038,699.21875,-383.7890625,135.25390625,666.9921875,0.0
1734410761.7995136,356.93359375,-409.66796875,142.578125,333.0078125,0.0
1734410761.8034194,513.18359375,-409.66796875,114.2578125,478.515625,0.0
1734410761.8073254,896.484375,-391.11328125,179.6875,870.60546875,0.0
1734410761.8112311,724.609375,-393.5546875,213.37890625,719.23828125,0.0
1734410761.8151371,454.58984375,-380.859375,89.35546875,439.453125,0.0
1734410761.819043,687.01171875,-383.30078125,158.203125,653.80859375,0.0
1734410761.822949,931.640625,-371.58203125,224.609375,906.25,0.0
1734410761.8268547,959.47265625,-356.4453125,223.6328125,960.9375,0.0
1734410761.8307607,721.6796875,-370.1171875,180.6640625,713.8671875,0.0
1734410761.8346665,438.4765625,-366.69921875,66.89453125,402.83203125,0.0
1734410761.8385725,684.08203125,-362.79296875,167.96875,671.875,0.0
1734410761.8424783,627.44140625,-367.1875,169.43359375,631.34765625,0.0
1734410761.8463879,319.3359375,-373.53515625,97.65625,297.8515625,0.0
1734410761.8502936,485.3515625,-372.0703125,181.640625,453.61328125,0.0
1734410761.8541996,744.140625,-351.5625,145.99609375,729.00390625,0.0
1734410761.8581054,479.4921875,-366.69921875,164.0625,467.7734375,0.0
1734410761.8620114,356.4453125,-380.37109375,165.52734375,326.66015625,0.0
1734410761.8659172,771.484375,-361.328125,171.38671875,736.81640625,0.0
1734410761.869823,948.73046875,-344.23828125,236.328125,937.5,0.0
1734410761.873729,640.13671875,-333.0078125,132.8125,638.18359375,0.0
1734410761.8776348,195.80078125,-363.28125,128.41796875,165.52734375,0.0
1734410761.8815408,383.30078125,-375.9765625,199.21875,342.28515625,0.0
1734410761.8854465,684.5703125,-355.95703125,165.52734375,661.1328125,0.0
1734410761.8893526,434.5703125,-367.1875,187.5,418.9453125,0.0
1734410761.8932614,325.68359375,-365.234375,133.30078125,298.33984375,0.0
1734410761.8971674,474.609375,-367.1875,200.1953125,448.2421875,0.0
1734410761.9010732,478.02734375,-380.37109375,214.84375,451.171875,0.0
1734410761.904979,245.60546875,-369.62890625,98.14453125,221.19140625,0.0
1734410761.908885,267.578125,-376.953125,172.8515625,232.91015625,0.0
1734410761.9127908,699.21875,-356.93359375,219.23828125,669.43359375,0.0
1734410761.9166968,911.1328125,-338.8671875,250.9765625,906.73828125,0.0
1734410761.9206026,636.23046875,-369.62890625,210.44921875,623.53515625,0.0
1734410761.9245086,546.875,-366.69921875,135.7421875,518.06640625,0.0
1734410761.9284143,738.28125,-355.46875,234.375,729.98046875,0.0
1734410761.9323204,568.359375,-363.76953125,190.91796875,572.75390625,0.0
1734410761.9362261,98.14453125,-384.27734375,107.91015625,75.1953125,0.0
1734410761.940138,75.1953125,-399.90234375,0.0,44.921875,0.0
1734410761.944044,355.95703125,-378.90625,0.0,325.1953125,0.0
1734410761.94795,342.7734375,-382.32421875,0.0,313.96484375,0.0
1734410761.951856,15.625,-420.41015625,0.0,-8.7890625,0.0
1734410761.9557617,-80.078125,-438.4765625,0.0,-109.86328125,0.0
1734410761.9596677,487.79296875,-423.33984375,0.0,459.9609375,0.0
1734410761.9635735,811.03515625,-382.32421875,0.0,789.0625,0.0
1734410761.9674795,441.40625,-385.25390625,0.0,417.96875,0.0
1734410761.9713852,217.7734375,-425.29296875,0.0,196.2890625,0.0
1734410761.9752913,522.4609375,-439.453125,0.0,507.8125,0.0
1734410761.979197,387.6953125,-449.70703125,0.0,377.44140625,0.0
1734410761.983103,494.62890625,-409.1796875,0.0,476.5625,0.0
1734410761.9870143,956.54296875,-376.46484375,216.796875,934.5703125,0.0
1734410761.9909203,609.86328125,-418.9453125,216.30859375,589.84375,0.0
1734410761.994826,3.41796875,-461.42578125,91.796875,-12.6953125,0.0
1734410761.998732,-94.7265625,-478.515625,158.69140625,-117.1875,0.0
1734410762.0026379,481.93359375,-431.640625,171.875,464.35546875,0.0
1734410762.0065439,899.90234375,-391.6015625,200.1953125,896.484375,0.0
1734410762.0104496,650.87890625,-431.15234375,221.6796875,639.16015625,0.0
1734410762.0143557,304.19921875,-472.65625,123.53515625,276.85546875,0.0
1734410762.0182614,550.78125,-471.19140625,238.76953125,529.78515625,0.0
1734410762.0221674,820.80078125,-429.19921875,204.1015625,813.96484375,0.0
1734410762.0260732,503.90625,-415.52734375,79.58984375,487.79296875,0.0
1734410762.0299792,438.96484375,-446.77734375,200.1953125,414.0625,0.0
1734410762.0338902,278.3203125,-481.93359375,127.44140625,255.859375,0.0
1734410762.037796,5.859375,-511.23046875,140.13671875,-18.06640625,0.0
1734410762.0417018,273.4375,-495.1171875,145.5078125,238.28125,0.0
1734410762.0456078,795.8984375,-454.1015625,150.390625,764.16015625,0.0
1734410762.0495136,626.953125,-480.95703125,195.80078125,613.28125,0.0
1734410762.0534196,432.12890625,-513.671875,135.25390625,415.0390625,0.0
1734410762.0573254,296.875,-522.4609375,164.55078125,269.53125,0.0
1734410762.0612314,282.71484375,-519.04296875,140.13671875,246.09375,0.0
1734410762.0651371,753.90625,-470.21484375,139.6484375,739.2578125,0.0
1734410762.0690432,417.96875,-480.95703125,196.2890625,419.43359375,0.0
1734410762.072949,-312.5,-531.25,42.96875,-326.66015625,0.0
1734410762.076855,-160.15625,-533.69140625,102.05078125,-180.6640625,0.0
1734410762.0807657,293.45703125,-498.046875,197.265625,261.23046875,0.0
1734410762.0846715,343.26171875,-447.265625,53.22265625,314.94140625,0.0
1734410762.0885775,257.8125,-452.63671875,130.859375,233.3984375,0.0
1734410762.0924833,281.25,-479.00390625,158.203125,255.859375,0.0
1734410762.0963893,240.72265625,-491.2109375,158.203125,220.703125,0.0
1734410762.100295,328.125,-484.86328125,212.890625,305.17578125,0.0
1734410762.104201,703.125,-438.4765625,145.99609375,680.6640625,0.0
1734410762.1081069,970.21484375,-416.50390625,241.69921875,956.0546875,0.0
1734410762.1120129,734.86328125,-440.4296875,219.7265625,741.69921875,0.0
1734410762.1159186,-1.46484375,-484.86328125,88.8671875,-5.37109375,0.0
1734410762.1198246,-12.20703125,-489.74609375,168.9453125,-43.9453125,0.0
1734410762.1237304,540.0390625,-437.98828125,131.8359375,514.16015625,0.0
1734410762.127644,569.82421875,-425.29296875,171.38671875,549.31640625,0.0
1734410762.1315498,88.8671875,-465.33203125,157.2265625,74.70703125,0.0
1734410762.1354558,23.4375,-486.81640625,131.8359375,4.8828125,0.0
1734410762.1393616,313.96484375,-488.28125,193.84765625,286.1328125,0.0
1734410762.1432676,395.5078125,-453.61328125,121.09375,370.1171875,0.0
1734410762.1471734,736.328125,-427.734375,184.08203125,722.16796875,0.0
1734410762.1510794,698.2421875,-453.61328125,204.58984375,689.453125,0.0
1734410762.1549852,598.14453125,-465.33203125,190.4296875,596.19140625,0.0
1734410762.158891,544.43359375,-473.6328125,223.6328125,552.734375,0.0
1734410762.162797,455.56640625,-453.61328125,99.12109375,437.5,0.0
1734410762.1667027,689.94140625,-422.36328125,129.8828125,659.1796875,0.0
1734410762.1706088,570.3125,-452.63671875,187.98828125,547.36328125,0.0
1734410762.1745183,26.3671875,-484.86328125,62.01171875,12.20703125,0.0
1734410762.1784244,-153.80859375,-498.53515625,116.69921875,-172.36328125,0.0
1734410762.1823301,398.4375,-461.42578125,161.62109375,367.67578125,0.0
1734410762.1862361,735.3515625,-428.22265625,172.8515625,704.58984375,0.0
1734410762.190142,299.31640625,-462.890625,174.31640625,280.2734375,0.0
1734410762.194048,221.19140625,-480.95703125,132.8125,198.73046875,0.0
1734410762.1979537,596.6796875,-481.4453125,244.140625,575.68359375,0.0
1734410762.2018595,861.328125,-453.125,225.5859375,871.09375,0.0
1734410762.2057655,637.6953125,-425.29296875,140.625,644.04296875,0.0
1734410762.2096713,275.87890625,-454.58984375,172.36328125,251.46484375,0.0
1734410762.2135773,516.11328125,-463.8671875,178.7109375,504.39453125,0.0
1734410762.217483,501.953125,-470.21484375,207.03125,503.90625,0.0
1734410762.2213926,394.53125,-457.03125,159.66796875,365.72265625,0.0
1734410762.2252984,671.875,-414.55078125,167.96875,638.18359375,0.0
1734410762.2292044,719.23828125,-420.8984375,208.49609375,714.84375,0.0
1734410762.2331102,293.9453125,-451.171875,107.421875,302.24609375,0.0
1734410762.2370162,-6.34765625,-475.09765625,150.87890625,-23.92578125,0.0
1734410762.240922,568.84765625,-451.66015625,202.1484375,536.1328125,0.0
1734410762.244828,934.5703125,-384.27734375,200.1953125,919.921875,0.0
1734410762.2487338,560.05859375,-395.5078125,240.234375,564.94140625,0.0
1734410762.2526398,-40.52734375,-460.44921875,123.046875,-50.78125,0.0
1734410762.2565455,72.75390625,-472.65625,172.36328125,44.921875,0.0
1734410762.2604516,434.5703125,-452.63671875,205.56640625,404.296875,0.0
1734410762.2643573,368.65234375,-414.55078125,108.88671875,347.65625,0.0
1734410762.2682664,238.76953125,-418.45703125,166.9921875,212.890625,0.0
1734410762.2721722,312.01171875,-442.3828125,164.55078125,287.109375,0.0
1734410762.2760782,309.08203125,-458.0078125,176.7578125,285.15625,0.0
1734410762.279984,365.72265625,-456.0546875,208.0078125,342.28515625,0.0
1734410762.28389,534.66796875,-412.109375,110.83984375,508.30078125,0.0
1734410762.2877958,743.1640625,-390.13671875,214.84375,717.7734375,0.0
1734410762.2917018,813.4765625,-403.80859375,248.53515625,813.4765625,0.0
1734410762.2956076,399.90234375,-434.08203125,164.55078125,395.5078125,0.0
1734410762.2995136,174.31640625,-447.265625,176.7578125,143.06640625,0.0
1734410762.3034194,582.03125,-392.08984375,156.73828125,566.89453125,0.0
1734410762.3073254,684.5703125,-378.41796875,212.890625,687.98828125,0.0
1734410762.3112311,59.5703125,-429.6875,144.53125,41.50390625,0.0
1734410762.3151429,-113.28125,-451.171875,116.2109375,-138.18359375,0.0
1734410762.319049,232.91015625,-446.2890625,199.21875,208.0078125,0.0
1734410762.3229547,433.10546875,-405.76171875,118.1640625,415.0390625,0.0
1734410762.3268607,351.5625,-389.6484375,132.32421875,335.44921875,0.0
1734410762.3307664,249.51171875,-419.43359375,184.5703125,223.6328125,0.0
1734410762.3346725,409.66796875,-434.08203125,162.109375,378.90625,0.0
1734410762.3385782,592.7734375,-435.05859375,224.12109375,569.82421875,0.0
1734410762.3424842,516.6015625,-409.1796875,140.13671875,496.09375,0.0
1734410762.34639,525.87890625,-386.23046875,147.94921875,499.51171875,0.0
1734410762.350296,687.01171875,-400.87890625,202.63671875,676.7578125,0.0
1734410762.3542018,232.421875,-432.6171875,95.703125,226.07421875,0.0
1734410762.3581078,-120.1171875,-453.125,138.671875,-133.7890625,0.0
1734410762.362019,356.93359375,-412.109375,165.52734375,327.63671875,0.0
1734410762.365925,659.1796875,-371.09375,176.26953125,627.44140625,0.0
1734410762.3698308,289.55078125,-409.66796875,180.6640625,267.578125,0.0
1734410762.3737369,-86.42578125,-448.73046875,96.19140625,-105.95703125,0.0
1734410762.3776426,211.42578125,-448.73046875,182.6171875,188.4765625,0.0
1734410762.3815486,853.02734375,-408.69140625,194.3359375,833.0078125,0.0
1734410762.3854544,930.6640625,-370.60546875,151.85546875,936.03515625,0.0
1734410762.3893604,662.109375,-398.92578125,219.23828125,668.9453125,0.0
1734410762.3932662,659.1796875,-424.8046875,195.80078125,634.765625,0.0
1734410762.397172,819.82421875,-421.875,241.69921875,797.36328125,0.0
1734410762.401078,589.35546875,-412.59765625,157.2265625,578.125,0.0
1734410762.4049838,574.21875,-383.30078125,109.375,544.921875,0.0
1734410762.408895,601.07421875,-400.390625,180.17578125,574.70703125,0.0
1734410762.4128008,168.9453125,-437.98828125,103.02734375,150.390625,0.0
1734410762.4167068,-124.51171875,-461.42578125,123.53515625,-151.3671875,0.0
1734410762.4206126,177.734375,-445.80078125,161.62109375,145.01953125,0.0
1734410762.4245183,679.19921875,-389.6484375,148.4375,657.71484375,0.0
1734410762.4284244,874.0234375,-393.5546875,218.75,863.76953125,0.0
1734410762.4323301,441.89453125,-440.91796875,145.99609375,420.41015625,0.0
1734410762.4362361,139.16015625,-459.47265625,149.4140625,106.4453125,0.0
1734410762.440142,667.96875,-414.0625,232.91015625,656.73828125,0.0
1734410762.444048,740.72265625,-362.79296875,143.5546875,737.3046875,0.0
1734410762.4479537,328.61328125,-390.13671875,166.015625,300.78125,0.0
1734410762.4518597,271.484375,-429.6875,205.078125,246.58203125,0.0
1734410762.4557703,220.703125,-445.80078125,192.3828125,196.2890625,0.0
1734410762.459676,314.453125,-439.453125,190.91796875,285.64453125,0.0
1734410762.463582,482.91015625,-393.5546875,104.98046875,449.21875,0.0
1734410762.4674878,610.3515625,-384.27734375,191.89453125,581.54296875,0.0
1734410762.4713938,354.4921875,-426.7578125,200.68359375,333.49609375,0.0
1734410762.4752996,106.4453125,-450.68359375,155.76171875,91.796875,0.0
1734410762.4792056,435.05859375,-441.89453125,200.1953125,412.59765625,0.0
1734410762.4831114,860.83984375,-373.046875,207.51953125,839.84375,0.0
1734410762.4870174,774.4140625,-349.12109375,242.67578125,774.90234375,0.0
1734410762.4909232,70.3125,-418.45703125,141.6015625,56.15234375,0.0
1734410762.4948292,-162.59765625,-454.1015625,140.625,-198.73046875,0.0
1734410762.498735,292.96875,-442.87109375,196.2890625,262.6953125,0.0
1734410762.502645,599.12109375,-394.53125,102.5390625,583.984375,0.0
1734410762.5065508,493.65234375,-384.765625,146.97265625,477.05078125,0.0
1734410762.5104568,270.99609375,-426.7578125,193.359375,250.0,0.0
1734410762.5143626,162.109375,-447.75390625,132.8125,140.625,0.0
1734410762.5182686,257.32421875,-447.75390625,198.2421875,238.28125,0.0
1734410762.5221744,619.140625,-403.3203125,165.52734375,596.19140625,0.0
1734410762.5260804,837.890625,-375.48828125,179.6875,818.359375,0.0
1734410762.5299861,803.22265625,-395.99609375,248.53515625,814.94140625,0.0
1734410762.5338922,302.24609375,-425.29296875,149.4140625,312.01171875,0.0
1734410762.537798,-126.953125,-456.0546875,152.83203125,-150.87890625,0.0
1734410762.541704,359.86328125,-414.55078125,159.1796875,324.70703125,0.0
1734410762.5456097,691.40625,-374.0234375,173.33984375,664.55078125,0.0
1734410762.54952,232.91015625,-414.55078125,0.0,223.14453125,0.0
1734410762.5534258,-134.27734375,-448.73046875,0.0,-148.4375,0.0
1734410762.5573318,141.11328125,-449.21875,0.0,107.421875,0.0
1734410762.5612376,544.43359375,-417.96875,0.0,514.16015625,0.0
1734410762.5651436,547.36328125,-385.25390625,0.0,525.87890625,0.0
1734410762.5690494,507.32421875,-409.66796875,0.0,484.375,0.0
1734410762.5729554,647.94921875,-430.17578125,0.0,629.39453125,0.0
1734410762.5768611,863.28125,-429.6875,0.0,857.421875,0.0
1734410762.5807672,761.71875,-415.0390625,0.0,745.60546875,0.0
1734410762.584673,629.39453125,-382.8125,0.0,593.75,0.0
1734410762.588579,825.1953125,-389.16015625,0.0,804.6875,0.0
1734410762.5924847,612.3046875,-421.38671875,0.0,612.3046875,0.0
1734410762.596394,-28.80859375,-454.58984375,105.46875,-43.9453125,0.0
1734410762.6002998,160.64453125,-438.4765625,184.5703125,129.39453125,0.0
1734410762.6042056,665.52734375,-384.765625,125.48828125,646.484375,0.0
1734410762.6081116,471.19140625,-397.4609375,154.296875,462.40234375,0.0
1734410762.6120174,70.3125,-440.91796875,130.37109375,54.19921875,0.0
1734410762.6159234,312.01171875,-448.2421875,175.29296875,286.62109375,0.0
1734410762.6198292,755.859375,-408.69140625,251.46484375,745.60546875,0.0
1734410762.6237352,815.4296875,-363.28125,153.80859375,814.453125,0.0
1734410762.627641,382.32421875,-397.4609375,148.4375,365.72265625,0.0
1734410762.631547,149.4140625,-440.4296875,165.52734375,125.48828125,0.0
1734410762.6354527,377.44140625,-446.77734375,187.98828125,352.5390625,0.0
1734410762.6393588,437.98828125,-432.12890625,191.40625,417.48046875,0.0
1734410762.6432679,394.04296875,-387.6953125,82.03125,374.0234375,0.0
1734410762.6471736,643.06640625,-376.953125,185.05859375,609.86328125,0.0
1734410762.6510797,497.0703125,-411.62109375,187.98828125,467.28515625,0.0
1734410762.6549854,-3.41796875,-438.96484375,107.91015625,-21.97265625,0.0
1734410762.6588912,145.5078125,-438.96484375,162.109375,115.72265625,0.0
1734410762.6627972,739.74609375,-373.046875,187.5,718.26171875,0.0
1734410762.666703,938.4765625,-347.65625,264.16015625,935.546875,0.0
1734410762.670609,633.30078125,-400.87890625,203.61328125,625.0,0.0
1734410762.6745148,216.30859375,-436.5234375,135.25390625,188.96484375,0.0
1734410762.6784208,424.31640625,-431.15234375,220.21484375,402.34375,0.0
1734410762.6823266,782.2265625,-380.859375,136.71875,780.76171875,0.0
1734410762.6862326,442.3828125,-378.41796875,105.95703125,427.24609375,0.0
1734410762.6901445,139.6484375,-420.41015625,180.17578125,116.2109375,0.0
1734410762.6940503,184.5703125,-438.4765625,137.20703125,158.69140625,0.0
1734410762.6979563,427.24609375,-434.5703125,187.98828125,399.4140625,0.0
1734410762.701862,482.91015625,-402.34375,105.46875,455.078125,0.0
1734410762.705768,556.15234375,-379.39453125,130.37109375,524.90234375,0.0
1734410762.709674,718.26171875,-403.80859375,230.95703125,706.0546875,0.0
1734410762.7135797,406.25,-437.5,144.53125,396.484375,0.0
1734410762.7174857,30.2734375,-459.9609375,160.64453125,2.9296875,0.0
1734410762.7213914,402.34375,-424.31640625,152.34375,362.79296875,0.0
1734410762.7252975,876.46484375,-367.1875,162.109375,863.76953125,0.0
1734410762.7292032,446.77734375,-406.73828125,183.59375,454.1015625,0.0
1734410762.7331092,-154.296875,-460.9375,95.703125,-173.828125,0.0
1734410762.7370207,121.09375,-463.37890625,184.08203125,93.26171875,0.0
1734410762.7409265,579.1015625,-427.734375,187.01171875,545.41015625,0.0
1734410762.7448325,560.05859375,-392.578125,127.44140625,527.83203125,0.0
1734410762.7487383,250.0,-422.36328125,186.5234375,227.5390625,0.0
1734410762.7526443,185.05859375,-453.125,152.83203125,159.66796875,0.0
1734410762.75655,489.74609375,-453.61328125,223.14453125,460.44921875,0.0
1734410762.760456,708.49609375,-421.38671875,199.70703125,676.7578125,0.0
1734410762.7643619,890.13671875,-369.62890625,153.80859375,875.0,0.0
1734410762.7682679,960.9375,-379.39453125,264.6484375,961.42578125,0.0
1734410762.7721736,532.71484375,-422.36328125,180.6640625,533.203125,0.0
1734410762.7760797,-20.99609375,-457.03125,139.16015625,-32.71484375,0.0
1734410762.7799854,169.921875,-441.89453125,172.36328125,134.765625,0.0
1734410762.7838964,701.66015625,-376.953125,146.97265625,685.546875,0.0
1734410762.7878022,532.71484375,-384.765625,191.89453125,536.1328125,0.0
1734410762.7917082,-35.15625,-442.87109375,115.72265625,-56.15234375,0.0
1734410762.795614,33.203125,-458.984375,158.203125,2.9296875,0.0
1734410762.79952,439.94140625,-440.4296875,201.66015625,403.3203125,0.0
1734410762.8034258,853.02734375,-384.765625,146.97265625,833.984375,0.0
1734410762.8073318,671.875,-390.13671875,199.70703125,683.59375,0.0
1734410762.8112376,180.17578125,-445.3125,163.57421875,167.96875,0.0
1734410762.8151436,568.84765625,-443.84765625,219.23828125,555.17578125,0.0
1734410762.8190494,606.4453125,-434.08203125,216.30859375,604.4921875,0.0
1734410762.8229554,323.73046875,-410.15625,52.24609375,295.8984375,0.0
1734410762.8268611,544.43359375,-403.80859375,149.90234375,518.5546875,0.0
1734410762.8307717,418.45703125,-443.84765625,181.15234375,393.06640625,0.0
1734410762.8346777,-29.78515625,-469.7265625,123.53515625,-47.8515625,0.0
1734410762.8385835,0.0,-468.75,168.45703125,-23.92578125,0.0
1734410762.8424895,565.4296875,-412.109375,142.08984375,548.828125,0.0
1734410762.8463953,723.14453125,-390.625,200.68359375,723.14453125,0.0
1734410762.8503013,485.83984375,-436.03515625,189.94140625,471.19140625,0.0
1734410762.854207,457.51953125,-459.47265625,146.97265625,426.7578125,0.0
1734410762.858113,678.7109375,-444.82421875,257.8125,657.71484375,0.0
1734410762.8620188,923.828125,-389.6484375,198.2421875,916.015625,0.0
1734410762.8659248,576.66015625,-391.11328125,125.0,567.87109375,0.0
1734410762.8698306,177.24609375,-439.94140625,178.22265625,160.64453125,0.0
1734410762.8737366,309.08203125,-453.61328125,163.0859375,283.69140625,0.0
1734410762.8776467,375.0,-454.58984375,186.5234375,354.98046875,0.0
1734410762.8815527,261.23046875,-422.8515625,104.4921875,246.09375,0.0
1734410762.8854585,439.94140625,-394.04296875,154.296875,416.9921875,0.0
1734410762.8893642,436.5234375,-425.29296875,190.91796875,413.57421875,0.0
1734410762.8932703,97.65625,-456.54296875,101.5625,77.1484375,0.0
1734410762.897176,259.765625,-460.9375,207.03125,228.515625,0.0
1734410762.901082,760.25390625,-417.96875,187.01171875,729.00390625,0.0
1734410762.9049878,903.80859375,-365.234375,198.73046875,902.34375,0.0
1734410762.9088938,509.27734375,-404.296875,220.703125,516.11328125,0.0
1734410762.9127996,-23.4375,-464.35546875,78.61328125,-40.52734375,0.0
1734410762.9167056,94.7265625,-469.23828125,166.015625,65.4296875,0.0
1734410762.9206114,511.71875,-428.7109375,171.875,484.375,0.0
1734410762.9245212,551.7578125,-388.671875,87.890625,527.34375,0.0
1734410762.9284272,281.25,-423.33984375,160.64453125,257.8125,0.0
1734410762.932333,282.2265625,-457.51953125,146.97265625,251.46484375,0.0
1734410762.936239,441.89453125,-465.33203125,187.98828125,412.109375,0.0
1734410762.9401448,334.9609375,-453.61328125,139.16015625,306.15234375,0.0
1734410762.9440508,687.5,-404.296875,130.37109375,666.50390625,0.0
1734410762.9479566,972.65625,-401.3671875,269.04296875,972.65625,0.0
1734410762.9518626,641.11328125,-435.05859375,172.8515625,640.13671875,0.0
1734410762.9557683,64.94140625,-465.33203125,120.60546875,55.6640625,0.0
1734410762.9596744,103.02734375,-454.58984375,152.83203125,74.70703125,0.0
1734410762.9635801,760.25390625,-377.44140625,176.7578125,736.81640625,0.0
1734410762.9674861,790.0390625,-374.51171875,231.4453125,794.921875,0.0
1734410762.9713953,63.4765625,-443.359375,110.3515625,59.5703125,0.0
1734410762.9753013,-80.078125,-461.9140625,158.69140625,-106.4453125,0.0
1734410762.979207,518.5546875,-430.17578125,209.9609375,506.34765625,0.0
1734410762.983113,686.03515625,-378.90625,103.02734375,686.03515625,0.0
1734410762.9870188,393.06640625,-388.671875,165.0390625,371.58203125,0.0
1734410762.9909248,314.453125,-425.29296875,188.96484375,281.25,0.0
1734410762.9948306,660.64453125,-420.41015625,228.515625,648.92578125,0.0
1734410762.9987366,627.9296875,-407.71484375,229.00390625,624.51171875,0.0
1734410763.0026424,291.50390625,-380.859375,89.35546875,264.16015625,0.0
1734410763.0065484,594.7265625,-364.74609375,193.359375,568.84765625,0.0
1734410763.0104542,422.36328125,-403.3203125,185.05859375,407.2265625,0.0
1734410763.0143602,-111.328125,-437.98828125,116.2109375,-119.62890625,0.0
1734410763.0182724,-44.921875,-437.5,158.69140625,-67.3828125,0.0
1734410763.0221782,555.6640625,-381.34765625,142.08984375,527.83203125,0.0
1734410763.0260842,812.98828125,-361.81640625,215.33203125,806.640625,0.0
1734410763.02999,289.55078125,-412.59765625,163.57421875,280.2734375,0.0
1734410763.033896,-33.69140625,-437.5,103.02734375,-58.10546875,0.0
1734410763.0378017,472.65625,-417.96875,253.90625,452.1484375,0.0
1734410763.0417078,987.3046875,-352.5390625,218.75,986.328125,0.0
1734410763.0456135,843.26171875,-340.33203125,168.9453125,849.12109375,0.0
1734410763.0495195,300.29296875,-397.4609375,180.6640625,287.109375,0.0
1734410763.0534253,271.484375,-422.36328125,135.25390625,244.62890625,0.0
1734410763.0573313,318.359375,-431.640625,187.01171875,299.31640625,0.0
1734410763.061237,201.66015625,-406.25,109.86328125,176.7578125,0.0
1734410763.065149,454.58984375,-376.46484375,152.34375,430.17578125,0.0
1734410763.0690548,448.73046875,-407.71484375,193.359375,431.640625,0.0
1734410763.0729606,97.16796875,-436.03515625,90.8203125,77.63671875,0.0
1734410763.0768666,-81.0546875,-447.265625,153.80859375,-106.93359375,0.0
1734410763.0807724,380.37109375,-412.59765625,156.73828125,343.26171875,0.0
1734410763.0846784,844.23828125,-366.2109375,191.89453125,835.9375,0.0
1734410763.0885842,757.32421875,-392.08984375,230.95703125,770.5078125,0.0
1734410763.0924902,266.11328125,-434.5703125,107.421875,259.765625,0.0
1734410763.096396,156.25,-451.66015625,158.69140625,129.39453125,0.0
1734410763.100302,725.5859375,-400.87890625,212.40234375,712.40234375,0.0
1734410763.1042078,732.421875,-358.88671875,160.15625,738.76953125,0.0
1734410763.1081138,234.375,-406.73828125,168.9453125,223.14453125,0.0
1734410763.112025,168.45703125,-438.96484375,145.01953125,144.04296875,0.0
1734410763.115931,278.3203125,-445.80078125,194.82421875,246.58203125,0.0
1734410763.1198368,251.953125,-431.640625,163.0859375,227.05078125,0.0
1734410763.1237428,376.46484375,-397.94921875,128.90625,349.12109375,0.0
1734410763.1276486,590.8203125,-407.2265625,232.91015625,566.89453125,0.0
1734410763.1315546,722.65625,-430.17578125,185.546875,719.7265625,0.0
1734410763.1354604,516.6015625,-445.3125,187.5,505.859375,0.0
1734410763.1393664,566.89453125,-438.4765625,189.94140625,534.1796875,0.0
1734410763.1432722,866.2109375,-384.27734375,197.265625,841.30859375,0.0
1734410763.1471782,751.46484375,-380.859375,256.34765625,754.8828125,0.0
1734410763.151084,27.34375,-445.3125,105.46875,15.625,0.0
1734410763.15499,-198.73046875,-475.09765625,132.8125,-229.4921875,0.0
1734410763.1589007,229.00390625,-456.54296875,203.125,206.0546875,0.0
1734410763.1628067,470.703125,-406.25,120.60546875,443.359375,0.0
1734410763.1667125,317.87109375,-410.15625,157.71484375,290.52734375,0.0
1734410763.1706185,181.640625,-448.73046875,166.015625,154.296875,0.0
1734410763.1745243,304.19921875,-459.9609375,189.453125,274.4140625,0.0
1734410763.1784303,606.93359375,-440.4296875,216.796875,577.63671875,0.0
1734410763.182336,748.53515625,-391.6015625,126.46484375,738.28125,0.0
1734410763.186242,593.75,-394.04296875,172.8515625,576.171875,0.0
1734410763.1901479,701.66015625,-411.1328125,210.9375,687.98828125,0.0
1734410763.194054,300.78125,-433.10546875,166.015625,308.59375,0.0
1734410763.1979597,-107.91015625,-455.56640625,169.43359375,-126.46484375,0.0
1734410763.2018657,401.85546875,-404.78515625,144.53125,366.2109375,0.0
1734410763.2057762,675.78125,-389.16015625,197.75390625,646.484375,0.0
1734410763.2096822,190.4296875,-434.08203125,165.0390625,167.96875,0.0
1734410763.213588,-192.3828125,-461.42578125,100.09765625,-216.796875,0.0
1734410763.217494,164.0625,-460.9375,196.77734375,144.53125,0.0
1734410763.2213998,629.39453125,-409.1796875,164.0625,600.09765625,0.0
1734410763.2253058,787.59765625,-381.8359375,171.38671875,770.5078125,0.0
1734410763.2292116,728.02734375,-418.45703125,197.265625,714.35546875,0.0
1734410763.2331176,771.97265625,-435.05859375,206.0546875,750.9765625,0.0
1734410763.2370234,775.87890625,-432.6171875,245.1171875,775.390625,0.0
1734410763.2409291,446.2890625,-422.36328125,104.4921875,431.640625,0.0
1734410763.2448351,512.6953125,-407.2265625,151.85546875,484.375,0.0
1734410763.248741,545.8984375,-427.24609375,205.56640625,513.18359375,0.0
1734410763.252651,201.171875,-450.68359375,67.87109375,173.33984375,0.0
1734410763.256557,-106.93359375,-472.65625,123.53515625,-122.55859375,0.0
1734410763.2604628,227.5390625,-442.87109375,145.01953125,188.96484375,0.0
1734410763.2643688,676.26953125,-400.390625,140.625,656.25,0.0
1734410763.2682745,444.3359375,-431.15234375,201.66015625,443.359375,0.0
1734410763.2721806,245.1171875,-456.0546875,129.39453125,221.6796875,0.0
1734410763.2760863,340.33203125,-460.9375,152.34375,311.03515625,0.0
1734410763.2799923,714.35546875,-416.015625,201.66015625,707.51953125,0.0
1734410763.283898,724.12109375,-377.44140625,159.66796875,730.95703125,0.0
1734410763.2878041,212.890625,-424.31640625,145.99609375,196.77734375,0.0
1734410763.29171,218.26171875,-444.82421875,128.90625,188.4765625,0.0
1734410763.295616,353.515625,-448.73046875,165.0390625,329.58984375,0.0
1734410763.2995255,265.625,-438.96484375,132.8125,249.51171875,0.0
1734410763.3034313,366.69921875,-395.99609375,81.54296875,344.23828125,0.0
1734410763.3073373,589.35546875,-399.90234375,207.03125,557.12890625,0.0
1734410763.311243,410.64453125,-430.6640625,153.3203125,391.11328125,0.0
1734410763.315149,-88.8671875,-462.40234375,130.859375,-107.421875,0.0
1734410763.3190548,307.12890625,-446.77734375,180.17578125,274.4140625,0.0
1734410763.3229609,898.92578125,-375.48828125,189.453125,877.9296875,0.0
1734410763.3268666,848.6328125,-365.72265625,255.859375,853.02734375,0.0
1734410763.3307726,221.6796875,-416.9921875,96.6796875,219.23828125,0.0
1734410763.3346784,-130.37109375,-451.171875,98.6328125,-158.203125,0.0
1734410763.3385844,384.27734375,-436.5234375,194.82421875,369.62890625,0.0
1734410763.3424902,649.4140625,-387.6953125,98.14453125,646.97265625,0.0
1734410763.3463995,381.34765625,-394.04296875,124.51171875,358.88671875,0.0
1734410763.3503053,357.421875,-419.43359375,145.99609375,331.0546875,0.0
1734410763.3542113,314.453125,-430.6640625,147.4609375,292.48046875,0.0
1734410763.358117,173.33984375,-437.5,153.80859375,149.4140625,0.0
1734410763.362023,352.05078125,-399.90234375,19.53125,321.77734375,0.0
1734410763.365929,753.41796875,-383.30078125,129.39453125,722.65625,0.0
1734410763.369835,921.875,-389.6484375,227.05078125,911.62109375,0.0
1734410763.3737407,469.23828125,-409.66796875,125.0,476.5625,0.0
1734410763.3776467,-36.1328125,-445.80078125,125.48828125,-52.734375,0.0
1734410763.3815525,268.06640625,-414.0625,74.21875,238.76953125,0.0
1734410763.3854585,641.6015625,-390.625,132.8125,615.234375,0.0
1734410763.3893642,322.75390625,-419.43359375,155.76171875,307.6171875,0.0
1734410763.393273,-97.16796875,-440.91796875,12.6953125,-104.00390625,0.0
1734410763.3971791,177.24609375,-438.4765625,140.13671875,146.97265625,0.0
1734410763.401085,581.0546875,-402.34375,139.16015625,541.50390625,0.0
1734410763.404991,413.0859375,-397.4609375,94.7265625,390.625,0.0
1734410763.4088967,336.42578125,-421.38671875,178.7109375,315.91796875,0.0
1734410763.4128027,618.1640625,-413.0859375,186.5234375,597.65625,0.0
1734410763.4167085,798.33984375,-413.57421875,220.21484375,787.109375,0.0
1734410763.4206145,771.97265625,-397.4609375,153.80859375,754.8828125,0.0
1734410763.4245203,649.4140625,-382.8125,146.97265625,625.48828125,0.0
1734410763.428426,773.4375,-392.578125,243.1640625,751.953125,0.0
1734410763.432332,678.7109375,-400.87890625,162.109375,678.7109375,0.0
1734410763.4362378,-28.80859375,-436.03515625,126.46484375,-39.55078125,0.0
1734410763.4401498,109.86328125,-423.33984375,136.71875,79.1015625,0.0
1734410763.4440556,611.81640625,-392.578125,134.765625,585.9375,0.0
1734410763.4479616,535.15625,-404.78515625,165.0390625,508.7890625,0.0
1734410763.4518673,155.2734375,-416.50390625,61.5234375,128.41796875,0.0
1734410763.4557734,126.953125,-428.7109375,131.8359375,92.28515625,0.0
1734410763.4596791,656.73828125,-403.80859375,201.66015625,645.5078125,0.0
1734410763.4635851,751.953125,-371.09375,146.484375,760.25390625,0.0
1734410763.467491,359.375,-395.01953125,165.52734375,341.30859375,0.0
1734410763.471397,419.43359375,-407.2265625,145.01953125,393.5546875,0.0
1734410763.4753027,685.05859375,-407.71484375,182.6171875,672.36328125,0.0
1734410763.4792087,500.48828125,-405.2734375,154.78515625,491.69921875,0.0
1734410763.4831145,269.53125,-383.30078125,46.38671875,247.55859375,0.0
1734410763.487026,621.09375,-382.8125,169.921875,592.7734375,0.0
1734410763.4909317,607.421875,-396.97265625,148.4375,581.0546875,0.0
1734410763.4948378,44.921875,-425.78125,109.375,18.06640625,0.0
1734410763.4987435,-17.08984375,-432.12890625,152.34375,-47.36328125,0.0
1734410763.5026495,506.34765625,-386.23046875,137.20703125,472.65625,0.0
1734410763.5065553,913.0859375,-376.953125,227.05078125,898.92578125,0.0
1734410763.5104613,658.203125,-395.5078125,165.52734375,658.203125,0.0
1734410763.514367,435.546875,-412.109375,158.203125,410.64453125,0.0
1734410763.518273,737.79296875,-401.85546875,251.953125,709.47265625,0.0
1734410763.522179,811.5234375,-351.5625,189.453125,808.59375,0.0
1734410763.526085,350.5859375,-370.60546875,141.11328125,333.0078125,0.0
1734410763.5299907,327.1484375,-403.3203125,156.73828125,293.9453125,0.0
1734410763.5339017,339.35546875,-414.55078125,153.80859375,313.96484375,0.0
1734410763.5378077,164.0625,-425.29296875,161.1328125,142.08984375,0.0
1734410763.5417135,244.140625,-385.25390625,64.94140625,216.30859375,0.0
1734410763.5456195,472.16796875,-360.83984375,147.94921875,441.40625,0.0
1734410763.5495253,410.15625,-388.671875,188.96484375,391.11328125,0.0
1734410763.5534313,339.84375,-410.15625,160.64453125,319.3359375,0.0
1734410763.557337,307.12890625,-416.50390625,197.265625,285.15625,0.0
1734410763.561243,364.2578125,-385.25390625,109.86328125,334.47265625,0.0
1734410763.5651488,796.875,-344.23828125,221.6796875,789.0625,0.0
1734410763.5690548,435.546875,-375.9765625,210.44921875,452.63671875,0.0
1734410763.5729606,-206.54296875,-420.8984375,88.8671875,-212.40234375,0.0
1734410763.5768666,29.296875,-414.55078125,194.3359375,3.41796875,0.0
1734410763.5807772,525.87890625,-360.83984375,151.85546875,494.62890625,0.0
1734410763.5846832,467.7734375,-337.890625,140.13671875,454.58984375,0.0
1734410763.588589,319.3359375,-363.28125,193.84765625,301.26953125,0.0
1734410763.592495,365.234375,-370.60546875,177.24609375,338.37890625,0.0
1734410763.5964007,271.97265625,-375.9765625,223.6328125,246.58203125,0.0
1734410763.6003067,528.3203125,-337.40234375,176.7578125,497.55859375,0.0
1734410763.6042125,859.86328125,-300.29296875,188.96484375,847.65625,0.0
1734410763.6081185,951.171875,-317.3828125,285.15625,947.75390625,0.0
1734410763.6120243,666.015625,-335.9375,215.8203125,664.0625,0.0
1734410763.6159303,-53.7109375,-373.046875,164.0625,-67.3828125,0.0
1734410763.619836,63.4765625,-352.05078125,154.296875,25.87890625,0.0
1734410763.623742,598.6328125,-301.7578125,160.64453125,573.73046875,0.0
1734410763.6276522,361.81640625,-332.51953125,199.21875,351.5625,0.0
1734410763.6315582,-249.0234375,-381.8359375,122.55859375,-267.08984375,0.0
1734410763.635464,-245.60546875,-400.87890625,187.01171875,-274.4140625,0.0
1734410763.63937,376.46484375,-360.3515625,177.734375,349.609375,0.0
1734410763.6432757,648.92578125,-323.73046875,145.01953125,629.8828125,0.0
1734410763.6471817,482.91015625,-357.421875,233.3984375,469.7265625,0.0
1734410763.6510875,301.26953125,-388.18359375,167.48046875,280.76171875,0.0
1734410763.6549935,562.98828125,-389.16015625,240.72265625,558.59375,0.0
1734410763.6588993,534.1796875,-374.0234375,221.19140625,540.0390625,0.0
1734410763.6628053,202.63671875,-354.00390625,109.375,181.15234375,0.0
1734410763.666711,317.3828125,-369.140625,221.19140625,292.96875,0.0
1734410763.670617,117.67578125,-408.203125,159.66796875,92.28515625,0.0
1734410763.674527,-177.734375,-433.59375,152.83203125,-197.75390625,0.0
1734410763.6784327,-53.22265625,-427.24609375,185.546875,-79.1015625,0.0
1734410763.6823387,520.5078125,-369.62890625,174.8046875,487.79296875,0.0
1734410763.6862445,720.703125,-368.65234375,246.09375,722.65625,0.0
1734410763.6901505,71.2890625,-425.78125,151.3671875,66.40625,0.0
1734410763.6940563,46.875,-445.80078125,178.7109375,14.6484375,0.0
1734410763.6979623,612.3046875,-412.109375,281.25,593.75,0.0
1734410763.701868,937.5,-343.26171875,195.80078125,937.98828125,0.0
1734410763.705774,595.703125,-363.76953125,173.33984375,583.0078125,0.0
1734410763.7096798,249.0234375,-415.0390625,170.8984375,226.07421875,0.0
1734410763.7135859,205.078125,-429.6875,156.25,182.12890625,0.0
1734410763.7174916,248.53515625,-429.6875,206.0546875,218.75,0.0
1734410763.7214012,296.38671875,-390.625,115.72265625,274.4140625,0.0
1734410763.725307,438.96484375,-377.44140625,171.875,414.0625,0.0
1734410763.729213,334.47265625,-414.55078125,187.01171875,313.4765625,0.0
1734410763.7331188,-54.6875,-446.77734375,115.234375,-71.2890625,0.0
1734410763.7370248,4.39453125,-449.21875,181.15234375,-26.3671875,0.0
1734410763.7409306,577.63671875,-397.94921875,163.0859375,542.96875,0.0
1734410763.7448366,938.96484375,-351.5625,246.09375,929.19921875,0.0
1734410763.7487423,427.24609375,-390.13671875,206.54296875,432.12890625,0.0
1734410763.7526484,-289.0625,-446.77734375,102.5390625,-301.26953125,0.0
1734410763.7565541,-24.4140625,-447.75390625,219.7265625,-47.36328125,0.0
1734410763.7604601,472.65625,-395.01953125,142.08984375,449.21875,0.0
1734410763.764366,412.59765625,-370.60546875,134.27734375,396.97265625,0.0
1734410763.7682748,330.078125,-404.78515625,188.96484375,309.08203125,0.0
1734410763.7721808,291.015625,-428.7109375,139.6484375,268.06640625,0.0
1734410763.7760866,243.65234375,-438.96484375,188.96484375,223.6328125,0.0
1734410763.7799926,264.16015625,-406.73828125,118.1640625,243.65234375,0.0
1734410763.7838984,389.16015625,-378.90625,125.9765625,354.4921875,0.0
1734410763.7878044,680.6640625,-402.34375,252.9296875,646.484375,0.0
1734410763.7917101,798.33984375,-416.9921875,203.61328125,776.85546875,0.0
1734410763.7956161,513.671875,-434.08203125,194.82421875,488.76953125,0.0
1734410763.799522,471.6796875,-418.9453125,130.37109375,438.96484375,0.0
1734410763.803428,795.41015625,-375.48828125,160.64453125,783.69140625,0.0
1734410763.8073337,605.46875,-403.3203125,239.74609375,604.4921875,0.0
1734410763.8112397,-51.26953125,-459.9609375,31.25,-71.77734375,0.0
1734410763.8151517,-16.11328125,-473.6328125,90.8203125,-46.875,0.0
1734410763.8190575,476.5625,-442.3828125,166.9921875,441.89453125,0.0
1734410763.8229632,602.05078125,-404.296875,83.49609375,570.80078125,0.0
1734410763.8268692,544.921875,-425.78125,175.78125,521.484375,0.0
1734410763.830775,309.5703125,-462.40234375,137.20703125,291.015625,0.0
1734410763.834681,375.0,-474.12109375,176.26953125,352.05078125,0.0
1734410763.8385868,637.20703125,-453.125,189.94140625,619.140625,0.0
1734410763.8424928,528.80859375,-422.36328125,78.125,512.6953125,0.0
1734410763.8463986,417.48046875,-442.87109375,166.015625,385.7421875,0.0
1734410763.8503046,540.52734375,-468.75,154.296875,506.8359375,0.0
1734410763.8542104,290.52734375,-492.67578125,126.46484375,265.625,0.0
1734410763.8581164,89.35546875,-493.65234375,142.08984375,61.5234375,0.0
1734410763.862028,688.4765625,-430.17578125,115.234375,666.50390625,0.0
1734410763.8659337,792.48046875,-432.6171875,185.546875,788.57421875,0.0
1734410763.8698397,125.9765625,-491.2109375,105.46875,117.67578125,0.0
1734410763.8737454,-175.29296875,-518.06640625,103.02734375,-204.1015625,0.0
1734410763.8776515,361.328125,-495.1171875,198.2421875,317.87109375,0.0
1734410763.8815572,952.63671875,-432.12890625,169.43359375,938.4765625,0.0
1734410763.8854632,846.6796875,-432.6171875,195.80078125,852.5390625,0.0
1734410763.889369,464.35546875,-479.4921875,151.3671875,448.73046875,0.0
1734410763.893275,584.9609375,-495.60546875,192.3828125,563.4765625,0.0
1734410763.8971808,775.390625,-479.98046875,244.62890625,770.5078125,0.0
1734410763.9010868,442.87109375,-448.2421875,37.59765625,435.546875,0.0
1734410763.9049926,384.765625,-446.77734375,110.3515625,364.2578125,0.0
1734410763.9089034,0.0,-479.98046875,171.875,371.58203125,0.0
1734410763.9128094,0.0,-503.90625,88.37890625,72.75390625,0.0
1734410763.9167151,0.0,-507.8125,142.578125,-73.2421875,0.0
1734410763.9206212,0.0,-456.0546875,115.72265625,381.8359375,0.0
1734410763.924527,0.0,-427.734375,181.640625,686.5234375,0.0
1734410763.928433,0.0,-459.9609375,197.75390625,530.76171875,0.0
1734410763.9323387,0.0,-482.91015625,141.11328125,235.83984375,0.0
1734410763.9362447,0.0,-489.2578125,183.59375,156.25,0.0
1734410763.9401505,0.0,-426.7578125,169.921875,662.59765625,0.0
1734410763.9440565,0.0,-389.6484375,200.68359375,854.00390625,0.0
1734410763.9479623,0.0,-445.3125,188.4765625,268.5546875,0.0
1734410763.9518683,0.0,-474.12109375,124.0234375,-29.78515625,0.0
1734410763.955779,192.87109375,-475.5859375,184.5703125,164.55078125,0.0
1734410763.9596848,247.55859375,-443.84765625,125.48828125,225.5859375,0.0
1734410763.9635906,320.3125,-414.0625,119.140625,293.9453125,0.0
1734410763.9674966,348.14453125,-444.82421875,195.80078125,327.63671875,0.0
1734410763.9714024,125.0,-479.98046875,148.4375,105.46875,0.0
1734410763.9753084,197.265625,-486.328125,194.3359375,168.9453125,0.0
1734410763.9792142,688.96484375,-444.82421875,180.6640625,662.59765625,0.0
1734410763.9831202,978.515625,-394.53125,221.19140625,969.7265625,0.0
1734410763.987026,699.70703125,-406.73828125,256.8359375,699.70703125,0.0
1734410763.990932,-24.4140625,-463.37890625,66.40625,-38.0859375,0.0
1734410763.9948378,-135.7421875,-483.88671875,127.44140625,-162.109375,0.0
1734410763.9987438,375.9765625,-443.84765625,169.921875,348.6328125,0.0
1734410764.002654,696.2890625,-400.390625,128.90625,672.36328125,0.0
1734410764.0065598,536.1328125,-425.29296875,191.40625,519.53125,0.0
1734410764.0104659,103.02734375,-466.30859375,143.06640625,87.890625,0.0
1734410764.0143716,202.63671875,-476.5625,171.38671875,177.24609375,0.0
1734410764.0182776,459.47265625,-452.1484375,166.9921875,425.29296875,0.0
1734410764.0221834,730.46875,-394.04296875,142.08984375,718.26171875,0.0
1734410764.0260894,638.18359375,-410.15625,190.4296875,636.71875,0.0
1734410764.0299952,610.83984375,-438.96484375,187.5,600.5859375,0.0
1734410764.0339012,426.7578125,-451.66015625,188.96484375,427.24609375,0.0
1734410764.037807,19.04296875,-462.40234375,144.04296875,-1.953125,0.0
1734410764.041713,568.359375,-403.3203125,120.60546875,533.203125,0.0
1734410764.0456188,721.19140625,-397.94921875,186.5234375,707.03125,0.0
1734410764.0495286,69.82421875,-448.73046875,104.00390625,61.5234375,0.0
1734410764.0534346,-239.2578125,-478.515625,106.93359375,-264.16015625,0.0
1734410764.0573404,223.14453125,-459.9609375,210.9375,193.84765625,0.0
1734410764.0612464,663.0859375,-403.80859375,130.37109375,638.18359375,0.0
1734410764.0651522,723.6328125,-401.85546875,154.296875,699.70703125,0.0
1734410764.0690582,541.50390625,-444.82421875,164.55078125,519.53125,0.0
1734410764.072964,615.234375,-456.0546875,197.265625,597.65625,0.0
1734410764.07687,858.3984375,-432.12890625,250.48828125,850.09765625,0.0
1734410764.0807757,569.3359375,-397.94921875,23.92578125,552.734375,0.0
1734410764.0846817,440.4296875,-401.85546875,75.1953125,410.64453125,0.0
1734410764.0885875,368.1640625,-439.453125,163.0859375,346.19140625,0.0
1734410764.0924935,52.24609375,-460.9375,67.87109375,35.64453125,0.0
1734410764.096403,-69.82421875,-467.28515625,130.37109375,-102.5390625,0.0
1734410764.1003087,390.13671875,-416.9921875,71.2890625,356.93359375,0.0
1734410764.1042147,738.76953125,-389.6484375,129.39453125,715.33203125,0.0
1734410764.1081204,335.44921875,-436.03515625,169.43359375,319.82421875,0.0
1734410764.1120265,-93.75,-468.75,84.9609375,-115.72265625,0.0
1734410764.1159322,311.03515625,-458.49609375,190.4296875,279.78515625,0.0
1734410764.1198382,770.5078125,-400.87890625,148.92578125,759.27734375,0.0
1734410764.123744,819.82421875,-380.859375,145.99609375,806.15234375,0.0
1734410764.12765,391.11328125,-435.546875,175.29296875,367.1875,0.0
1734410764.1315558,33.69140625,-469.7265625,91.30859375,6.34765625,0.0
1734410764.1354618,639.6484375,-456.0546875,192.87109375,630.37109375,0.0
1734410764.1393676,810.05859375,-417.48046875,134.765625,809.5703125,0.0
1734410764.143277,410.64453125,-397.4609375,101.07421875,390.625,0.0
1734410764.1471827,346.6796875,-431.15234375,198.73046875,329.1015625,0.0
1734410764.1510887,183.10546875,-461.9140625,118.1640625,163.0859375,0.0
1734410764.1549945,-130.859375,-479.4921875,116.2109375,-157.2265625,0.0
1734410764.1589005,171.38671875,-448.2421875,116.69921875,139.16015625,0.0
1734410764.1628063,817.87109375,-386.71875,180.6640625,784.1796875,0.0
1734410764.1667123,839.35546875,-405.2734375,248.53515625,818.84765625,0.0
1734410764.170618,363.28125,-452.63671875,135.25390625,354.98046875,0.0
1734410764.174524,83.49609375,-472.65625,153.80859375,58.10546875,0.0
1734410764.1784298,422.8515625,-436.5234375,178.7109375,405.2734375,0.0
1734410764.1823359,869.62890625,-382.32421875,170.41015625,860.83984375,0.0
1734410764.1862416,573.2421875,-414.0625,178.22265625,552.24609375,0.0
1734410764.1901536,62.5,-457.03125,59.5703125,31.73828125,0.0
1734410764.1940594,322.265625,-456.54296875,106.4453125,293.9453125,0.0
1734410764.1979654,485.3515625,-440.4296875,159.66796875,469.7265625,0.0
1734410764.2018712,276.3671875,-419.921875,26.85546875,250.9765625,0.0
1734410764.2057772,253.90625,-440.91796875,122.55859375,221.6796875,0.0
1734410764.209683,727.05078125,-419.921875,222.65625,710.9375,0.0
1734410764.213589,789.55078125,-392.578125,214.84375,793.45703125,0.0
1734410764.2174947,134.765625,-437.5,140.625,118.65234375,0.0
1734410764.2214007,219.23828125,-435.546875,103.02734375,188.4765625,0.0
1734410764.2253065,491.2109375,-431.640625,188.4765625,468.75,0.0
1734410764.2292125,239.2578125,-435.05859375,89.35546875,223.14453125,0.0
1734410764.2331183,13.671875,-434.5703125,48.828125,-4.8828125,0.0
1734410764.2370298,231.93359375,-444.3359375,182.6171875,201.171875,0.0
1734410764.2409358,575.1953125,-430.17578125,112.3046875,537.109375,0.0
1734410764.2448416,528.80859375,-438.96484375,132.8125,506.8359375,0.0
1734410764.2487476,236.81640625,-454.1015625,120.1171875,214.35546875,0.0
1734410764.2526534,410.15625,-438.96484375,118.1640625,379.8828125,0.0
1734410764.2565594,732.421875,-440.91796875,228.02734375,706.0546875,0.0
1734410764.2604651,646.484375,-437.5,140.13671875,626.46484375,0.0
1734410764.2643712,616.69921875,-439.453125,143.5546875,589.84375,0.0
1734410764.268277,767.578125,-433.10546875,214.84375,746.58203125,0.0
1734410764.272183,754.8828125,-411.1328125,180.6640625,757.8125,0.0
1734410764.2760887,162.109375,-447.265625,130.37109375,155.76171875,0.0
1734410764.2799947,93.26171875,-453.125,24.4140625,63.4765625,0.0
1734410764.2839057,410.64453125,-437.5,76.66015625,381.8359375,0.0
1734410764.2878118,269.04296875,-448.2421875,165.52734375,242.67578125,0.0
1734410764.2917175,31.25,-444.3359375,37.59765625,4.39453125,0.0
1734410764.2956235,61.5234375,-453.61328125,112.3046875,36.62109375,0.0
1734410764.2995293,363.76953125,-447.265625,155.76171875,333.0078125,0.0
1734410764.3034353,640.13671875,-429.6875,174.31640625,610.83984375,0.0
1734410764.307341,653.3203125,-430.6640625,204.58984375,628.41796875,0.0
1734410764.311247,562.5,-422.8515625,125.48828125,531.73828125,0.0
1734410764.315153,691.89453125,-420.41015625,209.9609375,685.546875,0.0
1734410764.319059,535.64453125,-422.36328125,113.28125,542.48046875,0.0
1734410764.3229647,109.86328125,-438.4765625,-14.16015625,84.47265625,0.0
1734410764.3268707,249.0234375,-451.66015625,163.57421875,217.7734375,0.0
1734410764.3307812,384.27734375,-433.10546875,78.61328125,366.2109375,0.0
1734410764.334687,145.99609375,-449.21875,72.265625,130.859375,0.0
1734410764.338593,115.72265625,-462.890625,107.421875,90.8203125,0.0
1734410764.3424988,479.00390625,-437.98828125,79.58984375,452.63671875,0.0
1734410764.3464048,650.87890625,-440.91796875,183.10546875,625.9765625,0.0
1734410764.3503106,582.03125,-434.5703125,124.0234375,557.6171875,0.0
1734410764.3542166,706.0546875,-432.6171875,169.43359375,676.26953125,0.0
1734410764.3581223,830.078125,-426.26953125,235.83984375,808.10546875,0.0
1734410764.3620284,929.19921875,-398.92578125,215.33203125,928.7109375,0.0
1734410764.3659341,400.87890625,-429.6875,166.50390625,386.71875,0.0
1734410764.3698401,76.171875,-439.453125,30.2734375,43.45703125,0.0
1734410764.373746,346.6796875,-429.19921875,78.125,324.70703125,0.0
1734410764.377656,302.24609375,-435.05859375,152.34375,282.71484375,0.0
1734410764.381562,83.49609375,-428.7109375,-22.4609375,58.10546875,0.0
1734410764.3854678,146.484375,-436.5234375,104.00390625,117.1875,0.0
1734410764.3893738,406.25,-422.36328125,124.51171875,376.46484375,0.0
1734410764.3932796,321.2890625,-419.43359375,84.9609375,294.43359375,0.0
1734410764.3971856,477.5390625,-433.10546875,190.91796875,448.73046875,0.0
1734410764.4010913,692.87109375,-423.33984375,137.6953125,666.50390625,0.0
1734410764.4049973,784.1796875,-410.64453125,222.16796875,774.90234375,0.0
1734410764.4089031,594.7265625,-404.78515625,123.046875,592.7734375,0.0
1734410764.4128091,100.09765625,-420.8984375,-38.0859375,73.2421875,0.0
1734410764.416715,210.44921875,-434.08203125,111.328125,176.26953125,0.0
1734410764.420621,699.21875,-414.55078125,134.765625,662.59765625,0.0
1734410764.4245305,628.41796875,-421.38671875,136.71875,609.86328125,0.0
1734410764.4284365,145.5078125,-437.98828125,63.4765625,130.37109375,0.0
1734410764.4323423,345.703125,-423.33984375,58.10546875,310.546875,0.0
1734410764.4362483,481.4453125,-430.6640625,181.15234375,454.1015625,0.0
1734410764.440154,210.9375,-432.12890625,7.32421875,185.546875,0.0
1734410764.44406,437.01171875,-428.7109375,55.6640625,403.80859375,0.0
1734410764.4479659,824.21875,-418.9453125,226.5625,798.828125,0.0
1734410764.4518719,752.9296875,-397.94921875,171.875,753.90625,0.0
1734410764.4557776,198.2421875,-428.7109375,137.20703125,186.5234375,0.0
1734410764.4596837,82.51953125,-434.08203125,15.625,57.12890625,0.0
1734410764.4635894,395.5078125,-421.38671875,39.55078125,369.140625,0.0
1734410764.4674954,440.91796875,-430.17578125,152.83203125,411.62109375,0.0
1734410764.4714048,169.921875,-427.734375,-35.15625,147.4609375,0.0
1734410764.4753106,136.71875,-435.05859375,50.78125,106.4453125,0.0
1734410764.4792166,556.15234375,-420.41015625,137.20703125,520.99609375,0.0
1734410764.4831223,650.87890625,-412.109375,125.0,621.09375,0.0
1734410764.4870284,291.50390625,-430.17578125,142.578125,270.99609375,0.0
1734410764.4909341,442.3828125,-417.48046875,69.82421875,413.0859375,0.0
1734410764.4948401,809.5703125,-408.69140625,222.65625,797.8515625,0.0
1734410764.498746,559.5703125,-412.59765625,99.609375,562.98828125,0.0
1734410764.502652,139.6484375,-430.6640625,-88.8671875,114.74609375,0.0
1734410764.5065577,246.09375,-442.87109375,104.00390625,212.890625,0.0
1734410764.5104637,297.8515625,-431.15234375,23.92578125,274.4140625,0.0
1734410764.5143695,59.08203125,-442.87109375,23.4375,48.828125,0.0
1734410764.5182786,-34.66796875,-452.63671875,52.24609375,-54.6875,0.0
1734410764.5221846,327.63671875,-431.15234375,-16.6015625,300.29296875,0.0
1734410764.5260904,498.53515625,-433.10546875,148.92578125,482.421875,0.0
1734410764.5299964,119.62890625,-438.4765625,16.11328125,113.28125,0.0
1734410764.5339022,-17.578125,-447.265625,9.27734375,-35.64453125,0.0
1734410764.5378082,541.50390625,-429.19921875,202.63671875,516.6015625,0.0
1734410764.541714,889.16015625,-387.6953125,186.5234375,887.20703125,0.0
1734410764.54562,631.8359375,-406.73828125,161.1328125,621.09375,0.0
1734410764.5495257,561.5234375,-408.69140625,97.16796875,541.015625,0.0
1734410764.5534317,571.77734375,-409.66796875,120.1171875,545.8984375,0.0
1734410764.5573375,400.390625,-429.19921875,142.08984375,382.32421875,0.0
1734410764.5612435,196.77734375,-422.8515625,8.30078125,177.24609375,0.0
1734410764.5651553,191.40625,-427.734375,86.9140625,159.1796875,0.0
1734410764.5690613,393.5546875,-422.36328125,104.4921875,369.62890625,0.0
1734410764.572967,300.78125,-424.8046875,6.8359375,284.1796875,0.0
1734410764.576873,90.33203125,-443.359375,74.70703125,72.265625,0.0
1734410764.5807788,222.65625,-427.734375,-28.3203125,200.1953125,0.0
1734410764.5846848,686.5234375,-418.9453125,95.703125,668.45703125,0.0
1734410764.5885906,680.17578125,-419.43359375,136.23046875,670.8984375,0.0
1734410764.5924966,140.625,-429.19921875,-49.31640625,134.27734375,0.0
1734410764.5964024,200.68359375,-447.75390625,103.02734375,176.7578125,0.0
1734410764.6003084,711.9140625,-418.9453125,145.99609375,702.63671875,0.0
1734410764.6042142,553.22265625,-414.0625,143.06640625,559.08203125,0.0
1734410764.6081202,105.95703125,-426.26953125,40.0390625,88.37890625,0.0
1734410764.6120315,271.97265625,-415.0390625,-62.01171875,240.72265625,0.0
1734410764.6159372,463.37890625,-430.17578125,121.09375,431.640625,0.0
1734410764.6198432,215.33203125,-434.5703125,3.90625,191.89453125,0.0
1734410764.623749,138.671875,-433.59375,-3.41796875,110.3515625,0.0
1734410764.627655,442.87109375,-426.7578125,159.1796875,419.43359375,0.0
1734410764.6315608,790.52734375,-407.2265625,138.18359375,774.90234375,0.0
1734410764.6354668,723.6328125,-422.36328125,187.5,706.0546875,0.0
1734410764.6393726,617.1875,-422.36328125,47.36328125,592.28515625,0.0
1734410764.6432786,808.10546875,-405.76171875,101.5625,787.59765625,0.0
1734410764.6471844,789.55078125,-405.2734375,217.7734375,784.1796875,0.0
1734410764.6510904,276.3671875,-419.43359375,-87.890625,264.16015625,0.0
1734410764.6549962,108.3984375,-448.2421875,-9.765625,82.51953125,0.0
1734410764.6589072,505.859375,-437.01171875,0.0,474.609375,0.0
1734410764.6628132,568.84765625,-427.734375,0.0,548.33984375,0.0
1734410764.666719,224.12109375,-451.66015625,0.0,203.61328125,0.0
1734410764.670625,239.74609375,-438.4765625,0.0,212.40234375,0.0
1734410764.6745307,429.6875,-441.89453125,0.0,395.99609375,0.0
1734410764.6784368,668.9453125,-442.3828125,0.0,641.6015625,0.0
1734410764.6823425,605.46875,-434.08203125,0.0,581.54296875,0.0
1734410764.6862485,389.16015625,-448.2421875,0.0,355.95703125,0.0
1734410764.6901543,699.21875,-419.43359375,0.0,690.4296875,0.0
1734410764.6940603,504.8828125,-427.24609375,0.0,510.7421875,0.0
1734410764.697966,-42.48046875,-459.9609375,0.0,-58.10546875,0.0
1734410764.701872,335.9375,-439.94140625,0.0,304.6875,0.0
1734410764.7057827,581.0546875,-430.17578125,90.8203125,542.96875,0.0
1734410764.7096887,266.11328125,-432.12890625,-46.875,239.74609375,0.0
1734410764.7135944,153.80859375,-444.3359375,-91.30859375,129.8828125,0.0
1734410764.7175004,474.12109375,-440.4296875,115.234375,439.94140625,0.0
1734410764.7214062,725.09765625,-418.9453125,79.1015625,692.87109375,0.0
1734410764.7253122,645.99609375,-421.875,111.81640625,620.1171875,0.0
1734410764.729218,666.50390625,-413.57421875,72.265625,637.6953125,0.0
1734410764.733124,796.875,-408.203125,132.8125,773.4375,0.0
1734410764.7370298,797.8515625,-408.203125,194.82421875,793.45703125,0.0
1734410764.7409358,293.9453125,-416.9921875,-111.328125,284.1796875,0.0
1734410764.7448416,209.47265625,-432.12890625,-25.87890625,182.12890625,0.0
1734410764.7487476,489.2578125,-421.38671875,86.42578125,465.33203125,0.0
1734410764.7526577,417.96875,-422.36328125,4.39453125,399.4140625,0.0
1734410764.7565637,137.20703125,-443.84765625,71.77734375,115.72265625,0.0
1734410764.7604694,211.9140625,-429.19921875,-55.17578125,183.59375,0.0
1734410764.7643752,444.82421875,-422.8515625,31.25,421.875,0.0
1734410764.7682812,434.5703125,-418.9453125,52.24609375,413.0859375,0.0
1734410764.772187,575.1953125,-410.15625,-29.78515625,544.43359375,0.0
1734410764.776093,662.109375,-422.8515625,111.328125,634.27734375,0.0
1734410764.7799988,863.28125,-388.18359375,142.08984375,849.609375,0.0
1734410764.7839048,748.53515625,-388.671875,195.3125,749.0234375,0.0
1734410764.7878106,146.484375,-419.43359375,22.4609375,126.953125,0.0
1734410764.7917166,238.76953125,-402.83203125,-105.46875,203.61328125,0.0
1734410764.7956223,472.16796875,-409.1796875,83.49609375,435.05859375,0.0
1734410764.7995358,273.92578125,-404.78515625,-47.36328125,248.53515625,0.0
1734410764.8034418,182.6171875,-405.76171875,-81.54296875,158.203125,0.0
1734410764.8073475,452.1484375,-401.3671875,116.2109375,416.50390625,0.0
1734410764.8112535,537.109375,-383.30078125,31.25,508.30078125,0.0
1734410764.8151593,281.73828125,-400.87890625,56.640625,253.90625,0.0
1734410764.8190653,451.66015625,-395.01953125,89.84375,417.48046875,0.0
1734410764.822971,815.91796875,-367.67578125,185.05859375,792.96875,0.0
1734410764.826877,841.796875,-358.3984375,216.796875,841.796875,0.0
1734410764.830783,334.47265625,-372.0703125,-60.546875,326.66015625,0.0
1734410764.834689,164.55078125,-391.6015625,13.671875,137.20703125,0.0
1734410764.8385947,654.78515625,-357.91015625,100.09765625,637.20703125,0.0
1734410764.8425004,713.8671875,-329.1015625,37.109375,712.40234375,0.0
1734410764.8464098,137.20703125,-375.48828125,85.44921875,123.046875,0.0
1734410764.8503156,-136.23046875,-408.203125,-33.203125,-163.57421875,0.0
1734410764.8542216,216.796875,-406.25,59.08203125,186.5234375,0.0
1734410764.8581274,484.375,-367.67578125,78.61328125,461.42578125,0.0
1734410764.8620334,519.04296875,-333.49609375,-41.50390625,498.046875,0.0
1734410764.8659391,627.44140625,-362.3046875,134.27734375,603.02734375,0.0
1734410764.8698452,299.31640625,-397.94921875,116.2109375,284.66796875,0.0
1734410764.873751,46.875,-410.15625,110.3515625,34.66796875,0.0
1734410764.877657,324.70703125,-380.859375,55.6640625,299.8046875,0.0
1734410764.8815627,629.8828125,-339.35546875,-48.33984375,598.6328125,0.0
1734410764.8854687,849.609375,-346.6796875,167.96875,850.09765625,0.0
1734410764.8893745,285.15625,-396.484375,52.24609375,294.43359375,0.0
1734410764.8932903,-92.28515625,-431.640625,-18.06640625,-119.62890625,0.0
1734410764.8971963,590.8203125,-390.13671875,156.25,570.80078125,0.0
1734410764.901102,919.43359375,-343.26171875,64.453125,918.45703125,0.0
1734410764.905008,448.73046875,-378.41796875,78.61328125,442.3828125,0.0
1734410764.9089139,7.8125,-435.05859375,0.0,-10.25390625,0.0
1734410764.9128199,435.546875,-434.08203125,92.28515625,416.015625,0.0
1734410764.9167256,986.328125,-388.671875,236.81640625,978.515625,0.0
1734410764.9206316,910.64453125,-350.5859375,61.5234375,915.0390625,0.0
1734410764.9245374,541.50390625,-380.859375,95.703125,538.57421875,0.0
1734410764.9284432,397.4609375,-431.15234375,112.79296875,375.9765625,0.0
1734410764.9323492,304.6875,-454.1015625,48.828125,285.15625,0.0
1734410764.936255,321.2890625,-449.21875,66.40625,286.1328125,0.0
1734410764.9401667,745.1171875,-395.99609375,-81.0546875,708.0078125,0.0
1734410764.9440727,854.00390625,-390.13671875,13.671875,839.84375,0.0
1734410764.9479785,369.140625,-446.2890625,44.43359375,354.98046875,0.0
1734410764.9518845,19.53125,-478.02734375,-117.67578125,-7.8125,0.0
1734410764.9557903,458.49609375,-456.54296875,62.01171875,424.8046875,0.0
1734410764.9596963,927.24609375,-390.13671875,109.86328125,909.66796875,0.0
1734410764.963602,907.2265625,-384.27734375,165.52734375,909.1796875,0.0
1734410764.967508,337.890625,-450.1953125,82.03125,335.44921875,0.0
1734410764.9714139,114.2578125,-480.46875,-65.4296875,84.9609375,0.0
1734410764.9753199,596.19140625,-458.0078125,97.65625,568.84765625,0.0
1734410764.9792256,811.5234375,-411.62109375,-49.31640625,789.0625,0.0
1734410764.9831316,703.125,-410.15625,-75.1953125,684.5703125,0.0
1734410764.987043,318.359375,-464.84375,50.29296875,296.875,0.0
1734410764.9909487,592.28515625,-486.81640625,42.48046875,576.66015625,0.0
1734410764.9948547,549.31640625,-494.140625,114.2578125,545.41015625,0.0
1734410764.9987605,359.375,-465.8203125,-108.3984375,326.171875,0.0
1734410765.0026665,740.72265625,-437.01171875,-124.0234375,720.21484375,0.0
1734410765.0065722,754.8828125,-472.16796875,113.28125,750.9765625,0.0
1734410765.0104783,382.32421875,-498.046875,-12.6953125,360.83984375,0.0
1734410765.014384,556.640625,-490.72265625,34.66796875,520.01953125,0.0
1734410765.01829,932.6171875,-422.36328125,134.27734375,913.57421875,0.0
1734410765.0221958,842.7734375,-373.53515625,153.80859375,847.65625,0.0
1734410765.0261018,224.12109375,-435.546875,98.14453125,218.75,0.0
1734410765.0300076,-162.109375,-474.609375,-143.5546875,-193.84765625,0.0
1734410765.0339184,308.10546875,-462.40234375,-13.671875,266.11328125,0.0
1734410765.0378244,608.3984375,-423.828125,24.90234375,574.21875,0.0
1734410765.0417302,471.19140625,-393.5546875,-143.5546875,435.546875,0.0
1734410765.0456362,302.734375,-423.33984375,59.5703125,272.94921875,0.0
1734410765.049542,166.50390625,-454.58984375,13.18359375,137.20703125,0.0
1734410765.053448,466.30859375,-450.1953125,62.5,435.546875,0.0
1734410765.0573537,695.80078125,-410.15625,100.09765625,664.55078125,0.0
1734410765.0612597,685.05859375,-369.140625,-83.49609375,644.53125,0.0
1734410765.0651655,816.89453125,-377.9296875,140.625,810.546875,0.0
1734410765.0690715,406.25,-416.9921875,38.0859375,411.1328125,0.0
1734410765.0729773,4.39453125,-445.80078125,-120.1171875,-24.90234375,0.0
1734410765.0768833,550.78125,-411.1328125,88.8671875,517.578125,0.0
1734410765.0807939,900.87890625,-353.515625,13.18359375,889.6484375,0.0
1734410765.0846999,492.1875,-380.37109375,5.859375,479.4921875,0.0
1734410765.0886056,-28.3203125,-437.98828125,-67.3828125,-56.640625,0.0
1734410765.0925117,163.0859375,-446.2890625,-31.73828125,133.30078125,0.0
1734410765.0964174,720.21484375,-406.25,99.609375,684.5703125,0.0
1734410765.1003234,924.31640625,-348.14453125,-53.22265625,908.69140625,0.0
1734410765.1042292,789.0625,-364.74609375,92.7734375,785.64453125,0.0
1734410765.1081352,756.34765625,-405.2734375,135.25390625,725.5859375,0.0
1734410765.112041,749.51171875,-418.45703125,139.6484375,744.140625,0.0
1734410765.115947,295.8984375,-429.19921875,120.60546875,289.0625,0.0
1734410765.1198528,375.0,-393.5546875,-114.2578125,334.9609375,0.0
1734410765.1237588,586.9140625,-394.53125,-3.90625,566.40625,0.0
1734410765.1276722,156.73828125,-451.171875,26.3671875,144.04296875,0.0
1734410765.131578,-240.234375,-483.88671875,-145.01953125,-263.671875,0.0
1734410765.135484,257.8125,-462.890625,46.875,224.12109375,0.0
1734410765.1393898,809.08203125,-399.90234375,31.73828125,799.31640625,0.0
1734410765.1432958,573.73046875,-403.80859375,23.92578125,569.82421875,0.0
1734410765.1472015,292.48046875,-457.51953125,116.2109375,270.99609375,0.0
1734410765.1511075,312.01171875,-484.375,28.80859375,287.59765625,0.0
1734410765.1550133,700.1953125,-456.0546875,171.875,687.5,0.0
1734410765.1589193,789.55078125,-400.390625,28.80859375,788.0859375,0.0
1734410765.162825,433.10546875,-411.62109375,-120.1171875,409.1796875,0.0
1734410765.166731,212.890625,-458.0078125,53.7109375,180.6640625,0.0
1734410765.170637,134.765625,-485.3515625,-0.48828125,105.46875,0.0
1734410765.1745498,146.97265625,-486.81640625,16.6015625,116.2109375,0.0
1734410765.1784556,391.11328125,-437.01171875,-117.1875,354.98046875,0.0
1734410765.1823616,794.43359375,-407.71484375,-101.5625,760.7421875,0.0
1734410765.1862674,571.2890625,-451.171875,104.4921875,553.7109375,0.0
1734410765.1901734,20.01953125,-487.79296875,-90.33203125,-3.41796875,0.0
1734410765.1940792,413.0859375,-481.93359375,34.66796875,376.953125,0.0
1734410765.1979852,851.07421875,-426.26953125,123.046875,834.47265625,0.0
1734410765.201891,946.77734375,-388.671875,100.09765625,942.3828125,0.0
1734410765.205797,722.16796875,-429.6875,179.6875,710.9375,0.0
1734410765.2097027,20.5078125,-477.05078125,-62.5,-1.953125,0.0
1734410765.2136087,343.75,-469.7265625,44.921875,319.82421875,0.0
1734410765.2175145,949.70703125,-410.64453125,173.33984375,943.84765625,0.0
1734410765.2214239,588.37890625,-392.578125,-75.68359375,568.84765625,0.0
1734410765.2253296,236.81640625,-434.08203125,16.11328125,213.37890625,0.0
1734410765.2292356,130.37109375,-464.35546875,-47.36328125,107.91015625,0.0
1734410765.2331414,90.8203125,-470.703125,-39.55078125,64.453125,0.0
1734410765.2370474,279.78515625,-438.96484375,-6.8359375,247.55859375,0.0
1734410765.2409532,827.1484375,-385.25390625,-74.70703125,819.3359375,0.0
1734410765.2448592,737.79296875,-404.78515625,87.890625,750.9765625,0.0
1734410765.248765,71.77734375,-456.0546875,-81.54296875,58.10546875,0.0
1734410765.2526708,27.34375,-472.65625,-103.02734375,-3.41796875,0.0
1734410765.2565768,599.609375,-435.546875,93.26171875,567.3828125,0.0
1734410765.2604825,871.09375,-376.46484375,76.171875,863.76953125,0.0
1734410765.2643886,395.99609375,-406.73828125,104.00390625,393.06640625,0.0
1734410765.2682977,-238.76953125,-468.75,-70.3125,-257.32421875,0.0
1734410765.2722034,-6.34765625,-477.5390625,-41.9921875,-42.48046875,0.0
1734410765.2761095,650.87890625,-440.4296875,160.15625,629.39453125,0.0
1734410765.2800152,659.66796875,-396.484375,-70.3125,655.76171875,0.0
1734410765.2839212,391.6015625,-414.0625,-44.921875,370.60546875,0.0
1734410765.287827,530.76171875,-444.3359375,129.39453125,500.9765625,0.0
1734410765.291733,775.87890625,-446.77734375,174.8046875,756.34765625,0.0
1734410765.2956388,680.6640625,-436.5234375,145.99609375,666.015625,0.0
1734410765.2995448,657.2265625,-394.53125,-120.1171875,632.8125,0.0
1734410765.3034506,674.8046875,-397.4609375,-3.90625,658.69140625,0.0
1734410765.3073566,265.625,-448.73046875,69.82421875,258.7890625,0.0
1734410765.3112624,-154.296875,-479.4921875,-137.6953125,-173.33984375,0.0
1734410765.3151774,308.59375,-462.890625,61.5234375,274.4140625,0.0
1734410765.3190835,804.6875,-397.94921875,73.2421875,791.015625,0.0
1734410765.3229892,583.49609375,-390.13671875,47.36328125,577.63671875,0.0
1734410765.3268952,-62.01171875,-448.73046875,12.20703125,-85.9375,0.0
1734410765.330801,-160.64453125,-467.7734375,-131.34765625,-183.59375,0.0
1734410765.334707,529.78515625,-439.94140625,83.0078125,501.953125,0.0
1734410765.3386128,895.99609375,-389.16015625,13.671875,878.90625,0.0
1734410765.3425188,536.62109375,-386.23046875,-86.42578125,531.73828125,0.0
1734410765.3464246,155.2734375,-431.640625,-19.04296875,140.625,0.0
1734410765.3503306,353.515625,-449.70703125,-7.8125,325.68359375,0.0
1734410765.3542364,371.09375,-451.171875,117.67578125,344.23828125,0.0
1734410765.3581424,302.734375,-410.64453125,-88.8671875,278.80859375,0.0
1734410765.3620539,629.39453125,-375.9765625,-97.65625,599.12109375,0.0
1734410765.3659596,657.71484375,-404.296875,134.765625,648.4375,0.0
1734410765.3698657,36.1328125,-447.75390625,-88.8671875,34.66796875,0.0
1734410765.3737714,95.703125,-454.1015625,-17.08984375,66.89453125,0.0
1734410765.3776774,751.46484375,-392.578125,82.03125,725.09765625,0.0
1734410765.3815832,927.24609375,-355.46875,50.78125,925.78125,0.0
1734410765.3854892,549.8046875,-399.4140625,155.2734375,545.41015625,0.0
1734410765.389395,171.38671875,-435.546875,41.9921875,152.83203125,0.0
1734410765.393301,485.3515625,-439.94140625,159.1796875,458.0078125,0.0
1734410765.3972068,639.6484375,-407.2265625,58.10546875,614.74609375,0.0
1734410765.4011128,403.80859375,-376.46484375,-154.78515625,380.37109375,0.0
1734410765.4050186,227.5390625,-412.109375,51.26953125,204.58984375,0.0
1734410765.4089298,476.07421875,-437.01171875,103.515625,450.68359375,0.0
1734410765.4128358,668.9453125,-441.40625,151.3671875,655.2734375,0.0
1734410765.4167416,179.6875,-432.6171875,-8.30078125,167.96875,0.0
1734410765.4206476,320.80078125,-393.06640625,-193.84765625,293.9453125,0.0
1734410765.4245534,408.69140625,-417.96875,35.64453125,388.671875,0.0
1734410765.4284594,190.4296875,-458.0078125,35.15625,167.96875,0.0
1734410765.4323652,173.828125,-471.6796875,15.625,146.97265625,0.0
1734410765.4362712,428.7109375,-448.2421875,52.24609375,404.78515625,0.0
1734410765.440177,809.08203125,-382.32421875,22.4609375,805.6640625,0.0
1734410765.444083,441.89453125,-405.76171875,137.6953125,448.2421875,0.0
1734410765.4479887,-331.54296875,-475.09765625,-126.953125,-347.16796875,0.0
1734410765.4518948,-190.91796875,-485.83984375,-140.625,-220.703125,0.0
1734410765.4558117,237.3046875,-460.44921875,27.34375,624.51171875,0.0
1734410765.4597178,353.02734375,-411.62109375,-169.921875,52.734375,0.0
1734410765.4636235,75.68359375,-429.19921875,-109.86328125,-1.953125,0.0
1734410765.4675295,-109.86328125,-469.23828125,-106.4453125,458.0078125,0.0
1734410765.4714353,23.92578125,-477.5390625,-130.37109375,769.53125,0.0
1734410765.4753413,339.35546875,-459.9609375,67.3828125,874.0234375,0.0
1734410765.479247,785.15625,-401.85546875,-69.3359375,800.78125,0.0
1734410765.483153,951.66015625,-389.6484375,30.76171875,708.984375,0.0
1734410765.4870589,780.76171875,-418.9453125,148.4375,581.0546875,0.0
1734410765.490965,264.6484375,-448.2421875,-104.4921875,687.98828125,0.0
1734410765.4948707,452.1484375,-435.546875,-22.4609375,977.5390625,0.0
1734410765.4987767,846.19140625,-372.55859375,-113.76953125,777.34375,0.0
1734410765.5026872,617.1875,-367.1875,-158.69140625,0.0,0.0
1734410765.506593,60.05859375,-420.8984375,-137.20703125,0.0,0.0
1734410765.510499,24.90234375,-437.5,-249.0234375,0.0,0.0
1734410765.5144048,486.328125,-416.9921875,-89.35546875,0.0,0.0
1734410765.5183108,793.45703125,-357.91015625,-184.08203125,0.0,0.0
1734410765.5222166,891.11328125,-328.125,-152.83203125,0.0,0.0
1734410765.5261226,809.5703125,-365.234375,81.0546875,0.0,0.0
1734410765.5300283,722.65625,-380.859375,-67.3828125,0.0,0.0
1734410765.5339344,599.12109375,-373.53515625,-123.046875,0.0,0.0
1734410765.5378401,725.5859375,-336.9140625,-234.375,0.0,0.0
1734410765.5417461,995.60546875,-299.31640625,-207.51953125,0.0,0.0
1734410765.545652,767.08984375,-324.70703125,29.296875,0.0,0.0
1734410765.5495617,314.453125,-366.2109375,-160.15625,294.43359375,0.0
1734410765.5534675,611.328125,-368.1640625,-64.94140625,569.3359375,0.0
1734410765.5573735,977.05078125,-313.96484375,29.296875,955.56640625,0.0
1734410765.5612793,926.26953125,-266.6015625,38.57421875,933.59375,0.0
1734410765.5651853,577.63671875,-313.96484375,38.0859375,579.1015625,0.0
1734410765.569091,412.59765625,-364.74609375,-182.6171875,385.7421875,0.0
1734410765.572997,708.0078125,-361.81640625,34.1796875,682.6171875,0.0
1734410765.5769029,928.7109375,-303.22265625,137.20703125,930.17578125,0.0
1734410765.5808089,670.8984375,-279.296875,-104.00390625,661.62109375,0.0
1734410765.5847147,205.078125,-336.42578125,-109.86328125,167.48046875,0.0
1734410765.5886207,230.46875,-370.60546875,-126.953125,189.94140625,0.0
1734410765.5925264,285.64453125,-384.27734375,-75.1953125,256.8359375,0.0
1734410765.596436,174.8046875,-369.140625,-120.1171875,143.5546875,0.0
1734410765.600342,445.3125,-327.63671875,-214.84375,416.015625,0.0
1734410765.6042478,492.67578125,-349.609375,-1.953125,460.9375,0.0
1734410765.6081538,-42.48046875,-398.4375,-90.33203125,-51.26953125,0.0
1734410765.6120596,-92.7734375,-421.38671875,-79.58984375,-91.30859375,0.0
1734410765.6159654,424.8046875,-395.5078125,108.88671875,387.20703125,0.0
1734410765.6198714,856.4453125,-325.68359375,98.14453125,841.796875,0.0
1734410765.6237772,443.84765625,-350.5859375,196.2890625,450.68359375,0.0
1734410765.6276832,-424.31640625,-425.78125,-21.484375,-437.98828125,0.0
1734410765.631589,-391.6015625,-448.2421875,-76.66015625,-413.57421875,0.0
1734410765.635495,99.609375,-431.15234375,102.05078125,73.2421875,0.0
1734410765.6394007,271.97265625,-382.32421875,-88.37890625,246.58203125,0.0
1734410765.6433132,31.25,-398.92578125,-49.8046875,12.20703125,0.0
1734410765.6472192,-60.546875,-444.3359375,117.1875,-76.171875,0.0
1734410765.651125,-56.640625,-463.37890625,109.375,-69.82421875,0.0
1734410765.655031,-91.30859375,-461.9140625,117.67578125,-104.00390625,0.0
1734410765.6589367,230.95703125,-411.1328125,-72.75390625,216.796875,0.0
1734410765.6628428,719.23828125,-396.97265625,61.5234375,703.61328125,0.0
1734410765.6667485,729.4921875,-432.12890625,202.1484375,728.02734375,0.0
1734410765.6706545,186.5234375,-470.703125,95.21484375,182.12890625,0.0
1734410765.6745603,217.7734375,-475.09765625,155.2734375,191.40625,0.0
1734410765.6784663,603.02734375,-416.9921875,37.109375,590.8203125,0.0
1734410765.682372,445.80078125,-416.50390625,53.7109375,448.73046875,0.0
1734410765.686278,-282.71484375,-484.375,29.78515625,-290.0390625,0.0
1734410765.69019,0.0,-516.6015625,-107.91015625,-600.5859375,0.0
1734410765.6940958,0.0,-502.9296875,62.01171875,-126.46484375,0.0
1734410765.6980019,0.0,-449.70703125,-63.96484375,303.7109375,0.0
1734410765.7019076,0.0,-438.96484375,-138.18359375,183.59375,0.0
1734410765.7058136,0.0,-488.28125,-7.8125,-151.85546875,0.0
1734410765.7097194,0.0,-507.32421875,26.85546875,-15.13671875,0.0
1734410765.7136254,0.0,-495.60546875,139.6484375,302.24609375,0.0
1734410765.7175312,0.0,-460.9375,-75.1953125,271.97265625,0.0
1734410765.7214372,0.0,-443.359375,-122.55859375,331.0546875,0.0
1734410765.725343,0.0,-462.890625,135.25390625,604.98046875,0.0
1734410765.729249,0.0,-489.74609375,-19.04296875,331.0546875,0.0
1734410765.7331548,0.0,-512.6953125,0.48828125,-57.12890625,0.0
1734410765.7370663,320.80078125,-465.33203125,-12.20703125,300.29296875,0.0
1734410765.740972,659.1796875,-420.8984375,-114.74609375,627.44140625,0.0
1734410765.744878,83.984375,-467.28515625,17.578125,71.77734375,0.0
1734410765.7487838,-431.640625,-510.7421875,-146.484375,-439.453125,0.0
1734410765.7526898,-82.51953125,-506.34765625,-59.5703125,-109.375,0.0
1734410765.7565956,625.48828125,-455.078125,93.26171875,599.12109375,0.0
1734410765.7605016,849.12109375,-410.64453125,-28.3203125,834.9609375,0.0
1734410765.7644074,490.72265625,-449.21875,82.03125,474.12109375,0.0
1734410765.7683134,410.15625,-480.46875,67.87109375,380.37109375,0.0
1734410765.7722192,589.35546875,-473.6328125,127.9296875,570.80078125,0.0
1734410765.7761252,191.89453125,-459.47265625,12.6953125,181.640625,0.0
1734410765.780031,257.32421875,-423.33984375,-196.77734375,227.05078125,0.0
1734410765.7839453,429.19921875,-440.91796875,-15.625,408.69140625,0.0
1734410765.7878513,52.24609375,-483.3984375,-84.47265625,37.59765625,0.0
1734410765.791757,-55.17578125,-499.51171875,-71.2890625,-71.2890625,0.0
1734410765.795663,232.91015625,-468.75,14.16015625,209.9609375,0.0
1734410765.799569,524.4140625,-414.0625,-128.41796875,501.953125,0.0
1734410765.803475,515.625,-426.26953125,46.38671875,502.44140625,0.0
1734410765.8073807,149.4140625,-469.7265625,81.0546875,141.6015625,0.0
1734410765.8112867,-102.5390625,-500.0,-22.94921875,-122.55859375,0.0
1734410765.8151925,507.8125,-461.9140625,135.7421875,496.58203125,0.0
