timestamps,TP9,AF7,AF8,TP10,Right AUX
1734407883.3443153,0.0,-1000.0,160.64453125,-1000.0,0.0
1734407883.348221,0.0,-767.578125,235.83984375,-402.83203125,0.0
1734407883.3521268,0.0,-444.82421875,277.83203125,898.92578125,0.0
1734407883.3560326,0.0,-589.35546875,227.05078125,-895.01953125,0.0
1734407883.3599384,0.0,-935.05859375,148.92578125,112.79296875,0.0
1734407883.3638442,0.0,-1000.0,146.484375,-1000.0,0.0
1734407883.36775,0.0,-919.43359375,206.54296875,-625.9765625,0.0
1734407883.3716557,0.0,-894.04296875,238.76953125,735.83984375,0.0
1734407883.3755615,0.0,-825.1953125,201.171875,-846.19140625,0.0
1734407883.3794672,0.0,-734.86328125,243.65234375,148.4375,0.0
1734407883.383373,0.0,-877.44140625,243.1640625,-1000.0,0.0
1734407883.3872788,0.0,-864.2578125,266.6015625,-858.88671875,0.0
1734407883.3911302,298.828125,-901.3671875,286.62109375,459.9609375,0.0
1734407883.395036,307.12890625,-473.6328125,384.765625,-796.38671875,0.0
1734407883.3989418,-237.79296875,-164.55078125,380.37109375,146.484375,0.0
1734407883.4028475,-643.06640625,-590.8203125,282.2265625,-1000.0,0.0
1734407883.4067533,-358.3984375,-481.93359375,356.93359375,-1000.0,0.0
1734407883.410659,235.3515625,-259.765625,411.62109375,161.62109375,0.0
1734407883.4145648,358.3984375,-158.203125,438.4765625,-774.4140625,0.0
1734407883.4184709,-148.92578125,-437.5,279.296875,189.94140625,0.0
1734407883.4223766,-613.28125,-792.48046875,269.53125,-1000.0,0.0
1734407883.4262824,-436.5234375,-158.203125,492.67578125,-1000.0,0.0
1734407883.4301882,195.80078125,215.8203125,479.98046875,-74.70703125,0.0
1734407883.434094,466.30859375,-446.77734375,251.953125,-795.8984375,0.0
1734407883.4379277,-84.47265625,-929.19921875,201.171875,0.0,0.0
1734407883.4418335,-691.89453125,-432.12890625,395.5078125,0.0,0.0
1734407883.4457393,-534.66796875,-325.1953125,354.98046875,0.0,0.0
1734407883.4496453,138.18359375,-351.07421875,374.51171875,0.0,0.0
1734407883.453551,351.07421875,-272.94921875,383.30078125,0.0,0.0
1734407883.4574568,-107.91015625,-706.0546875,257.8125,0.0,0.0
1734407883.4613626,-562.01171875,-978.02734375,252.44140625,0.0,0.0
1734407883.4652684,-576.66015625,-985.3515625,152.83203125,0.0,0.0
1734407883.4691741,14.6484375,-495.60546875,286.1328125,0.0,0.0
1734407883.47308,391.11328125,68.359375,476.07421875,0.0,0.0
1734407883.4769857,6.34765625,-368.1640625,368.65234375,0.0,0.0
1734407883.4808915,-564.453125,-797.36328125,350.5859375,0.0,0.0
1734407883.4852276,0.0,-324.70703125,458.0078125,-1000.0,0.0
1734407883.4891334,0.0,308.59375,549.31640625,-208.984375,0.0
1734407883.4930391,0.0,46.38671875,446.77734375,-969.23828125,0.0
1734407883.496945,0.0,-282.2265625,402.83203125,943.359375,0.0
1734407883.5008507,0.0,-109.375,447.75390625,-296.38671875,0.0
1734407883.5047565,0.0,-259.765625,440.91796875,-1000.0,0.0
1734407883.5086622,0.0,-571.2890625,334.9609375,-269.53125,0.0
1734407883.512568,0.0,-680.6640625,330.56640625,966.796875,0.0
1734407883.5164738,0.0,-144.53125,468.26171875,-944.3359375,0.0
1734407883.5203795,0.0,-80.56640625,411.62109375,-38.57421875,0.0
1734407883.5242856,0.0,-497.55859375,384.27734375,-1000.0,0.0
1734407883.5281913,0.0,-333.0078125,416.50390625,-407.2265625,0.0
1734407883.5320044,384.27734375,-41.015625,410.15625,894.04296875,0.0
1734407883.5359104,280.2734375,-482.91015625,294.921875,-892.578125,0.0
1734407883.5398161,-343.75,-926.7578125,222.16796875,133.30078125,0.0
1734407883.543722,-709.47265625,-828.125,264.16015625,-1000.0,0.0
1734407883.5476277,-211.9140625,-579.1015625,296.38671875,-582.03125,0.0
1734407883.5515335,386.23046875,-795.8984375,201.171875,794.921875,0.0
1734407883.5554392,323.73046875,-962.890625,141.11328125,-854.4921875,0.0
1734407883.559345,-302.734375,-876.953125,158.203125,168.9453125,0.0
1734407883.5632508,-696.77734375,-951.171875,146.484375,-1000.0,0.0
1734407883.5671566,-252.44140625,-969.7265625,129.39453125,-826.171875,0.0
1734407883.5710623,395.5078125,-996.09375,0.48828125,512.20703125,0.0
1734407883.574968,416.9921875,-987.79296875,46.875,-803.7109375,0.0
1734407883.579082,0.0,-994.62890625,64.94140625,169.921875,0.0
1734407883.5829878,0.0,-1000.0,-284.66796875,-1000.0,0.0
1734407883.5868936,0.0,-995.1171875,-387.6953125,-987.3046875,0.0
1734407883.5907993,0.0,-987.79296875,-16.11328125,242.67578125,0.0
1734407883.594705,0.0,-1000.0,-110.3515625,-777.34375,0.0
1734407883.5986109,0.0,-999.51171875,-425.78125,255.37109375,0.0
1734407883.6025167,0.0,-1000.0,-703.125,-989.2578125,0.0
1734407883.6064224,0.0,-992.1875,-465.8203125,-1000.0,0.0
1734407883.6103282,0.0,-980.46875,-28.3203125,-0.48828125,0.0
1734407883.614234,0.0,-1000.0,-139.6484375,-791.015625,0.0
1734407883.6181397,0.0,-1000.0,-305.6640625,385.25390625,0.0
1734407883.6220458,0.0,-998.53515625,-243.65234375,-920.8984375,0.0
1734407883.6256387,-207.03125,-1000.0,-190.91796875,-1000.0,0.0
1734407883.6295445,-658.203125,-998.53515625,-201.66015625,-170.8984375,0.0
1734407883.6334505,-350.5859375,-950.68359375,-11.71875,-844.7265625,0.0
1734407883.6373563,274.90234375,-929.19921875,111.328125,540.0390625,0.0
1734407883.641262,433.59375,-965.8203125,85.44921875,-819.3359375,0.0
1734407883.6451678,-155.76171875,-995.1171875,113.76953125,-1000.0,0.0
1734407883.6490736,-625.48828125,-861.81640625,214.84375,-228.515625,0.0
1734407883.6529794,-452.1484375,-543.9453125,338.37890625,-886.71875,0.0
1734407883.6568851,187.01171875,-487.79296875,290.0390625,663.0859375,0.0
1734407883.660791,470.703125,-645.99609375,253.90625,-702.1484375,0.0
1734407883.6646967,-82.51953125,-670.8984375,327.63671875,-1000.0,0.0
1734407883.6686025,-619.62890625,-227.05078125,416.50390625,-284.66796875,0.0
1734407883.6725142,437.5,47.8515625,438.4765625,-954.58984375,0.0
1734407883.67642,138.18359375,-668.9453125,356.4453125,821.2890625,0.0
1734407883.680326,-530.2734375,-439.453125,423.33984375,-502.44140625,0.0
1734407883.6842318,-702.1484375,130.37109375,475.09765625,-1000.0,0.0
1734407883.6881375,-64.453125,3.90625,411.1328125,-412.109375,0.0
1734407883.6920433,449.70703125,-234.375,382.32421875,917.96875,0.0
1734407883.695949,210.9375,-135.25390625,419.921875,-970.703125,0.0
1734407883.6998549,-392.08984375,123.046875,469.23828125,-196.2890625,0.0
1734407883.7037606,-657.2265625,-396.97265625,276.85546875,-1000.0,0.0
1734407883.7076664,-151.85546875,-781.25,215.8203125,-551.26953125,0.0
1734407883.7115722,364.74609375,-69.3359375,450.1953125,777.34375,0.0
1734407883.715478,267.578125,146.97265625,441.40625,-870.1171875,0.0
1734407883.71935,-326.171875,-320.80078125,381.8359375,41.015625,0.0
1734407883.7232559,-689.453125,-447.265625,367.67578125,-1000.0,0.0
1734407883.727162,-215.8203125,-75.1953125,415.52734375,-710.44921875,0.0
1734407883.7310677,382.32421875,88.37890625,414.0625,629.8828125,0.0
1734407883.7349734,374.51171875,-223.14453125,353.515625,-825.68359375,0.0
1734407883.7388792,-224.609375,-660.64453125,286.62109375,140.13671875,0.0
1734407883.742785,-673.33984375,-687.98828125,309.08203125,-1000.0,0.0
1734407883.7466908,-292.96875,-365.234375,370.1171875,-903.80859375,0.0
1734407883.7505965,338.8671875,-642.578125,232.91015625,389.6484375,0.0
1734407883.7545023,377.9296875,-585.9375,276.85546875,-788.0859375,0.0
1734407883.758408,-224.609375,-558.10546875,291.50390625,151.85546875,0.0
1734407883.7623138,-670.41015625,-956.0546875,214.35546875,-1000.0,0.0
1734407883.7661738,0.0,-872.0703125,271.97265625,-1000.0,0.0
1734407883.7700796,0.0,-345.703125,339.84375,125.0,0.0
1734407883.7739854,0.0,-106.93359375,354.4921875,-773.92578125,0.0
1734407883.7778912,0.0,-595.703125,181.15234375,198.73046875,0.0
1734407883.781797,0.0,-897.4609375,169.43359375,-1000.0,0.0
1734407883.7857027,0.0,-787.59765625,261.23046875,-1000.0,0.0
1734407883.7896085,0.0,-659.1796875,292.96875,-104.98046875,0.0
1734407883.7935143,0.0,-765.625,105.95703125,-801.7578125,0.0
1734407883.79742,0.0,-1000.0,-47.8515625,328.61328125,0.0
1734407883.8013258,0.0,-879.39453125,203.125,-958.984375,0.0
1734407883.8052318,0.0,-717.7734375,214.84375,-1000.0,0.0
1734407883.8091376,0.0,-828.125,187.98828125,-192.3828125,0.0
1734407883.8129613,471.6796875,-783.69140625,202.1484375,-864.74609375,0.0
1734407883.816867,26.85546875,-804.19921875,127.44140625,627.9296875,0.0
1734407883.820773,-549.31640625,-1000.0,24.90234375,-737.3046875,0.0
1734407883.8246787,-545.8984375,-996.09375,-123.046875,-1000.0,0.0
1734407883.8285844,112.3046875,-955.56640625,-39.55078125,-165.0390625,0.0
1734407883.8324904,502.44140625,-985.83984375,-83.984375,-969.23828125,0.0
1734407883.8363962,91.30859375,-1000.0,-366.2109375,967.28515625,0.0
1734407883.840302,-488.76953125,-998.046875,-501.953125,-237.3046875,0.0
1734407883.8442078,-601.07421875,-1000.0,-397.94921875,-1000.0,0.0
1734407883.8481135,33.203125,-1000.0,-294.921875,-168.45703125,0.0
1734407883.8520193,523.92578125,-1000.0,-454.58984375,996.58203125,0.0
1734407883.855925,220.703125,-1000.0,-551.7578125,-933.59375,0.0
1734407883.8600793,-400.87890625,-1000.0,-525.390625,42.48046875,0.0
1734407883.863985,-596.6796875,-1000.0,-527.34375,-1000.0,0.0
1734407883.8678908,16.11328125,-1000.0,-608.3984375,-208.49609375,0.0
1734407883.8717966,530.2734375,-1000.0,-606.93359375,-968.75,0.0
1734407883.8757024,229.98046875,-1000.0,-611.328125,971.6796875,0.0
1734407883.8796082,-416.015625,-1000.0,-725.5859375,-20.01953125,0.0
1734407883.883514,-609.86328125,-1000.0,-799.8046875,-1000.0,0.0
1734407883.88742,-81.0546875,-1000.0,-757.32421875,-319.82421875,0.0
1734407883.8913257,436.5234375,-1000.0,-533.203125,946.77734375,0.0
1734407883.8952315,351.07421875,-1000.0,-615.72265625,-907.71484375,0.0
1734407883.8991373,-262.20703125,-1000.0,-727.05078125,195.3125,0.0
1734407883.903043,-677.734375,-1000.0,-668.9453125,-1000.0,0.0
1734407883.9071648,-232.421875,-1000.0,-611.81640625,-557.6171875,0.0
1734407883.9110706,386.23046875,-1000.0,-625.0,811.03515625,0.0
1734407883.9149764,357.91015625,-1000.0,-713.8671875,-861.81640625,0.0
1734407883.9188821,-288.57421875,-1000.0,-700.68359375,181.15234375,0.0
1734407883.922788,-708.0078125,-1000.0,-686.03515625,-1000.0,0.0
1734407883.9266937,-276.85546875,-1000.0,-709.47265625,-814.453125,0.0
1734407883.9305995,360.3515625,-1000.0,-642.578125,522.94921875,0.0
1734407883.9345055,399.4140625,-1000.0,-587.40234375,-805.17578125,0.0
1734407883.9384112,-176.7578125,-1000.0,-678.22265625,200.68359375,0.0
1734407883.942317,-623.53515625,-1000.0,-752.9296875,-1000.0,0.0
1734407883.9462228,-329.58984375,-1000.0,-710.9375,-1000.0,0.0
1734407883.9501286,276.3671875,-1000.0,-621.09375,207.03125,0.0
1734407883.9538743,406.25,-1000.0,-552.734375,-778.80859375,0.0
1734407883.9577801,-118.65234375,-1000.0,-753.90625,274.90234375,0.0
1734407883.961686,-623.53515625,-1000.0,-859.375,-979.98046875,0.0
1734407883.9655917,-487.79296875,-1000.0,-603.515625,-1000.0,0.0
1734407883.9694974,178.22265625,-1000.0,-577.63671875,-23.4375,0.0
1734407883.9734032,480.95703125,-1000.0,-745.60546875,-805.17578125,0.0
1734407883.977309,-50.29296875,-1000.0,-792.96875,459.47265625,0.0
1734407883.9812148,-625.9765625,-1000.0,-687.01171875,-873.046875,0.0
1734407883.9851205,-517.08984375,-1000.0,-700.1953125,-1000.0,0.0
1734407883.9890265,152.34375,-1000.0,-731.93359375,-138.671875,0.0
1734407883.9929323,487.79296875,-1000.0,-720.703125,-877.9296875,0.0
1734407883.996838,13.18359375,-1000.0,-781.73828125,701.171875,0.0
1734407884.0007415,-594.7265625,-1000.0,0.0,-642.578125,0.0
1734407884.0046473,-581.54296875,-1000.0,0.0,-1000.0,0.0
1734407884.008553,55.17578125,-1000.0,0.0,-175.78125,0.0
1734407884.0124588,459.47265625,-1000.0,0.0,-962.890625,0.0
1734407884.0163646,112.79296875,-1000.0,0.0,948.2421875,0.0
1734407884.0202703,-526.85546875,-1000.0,0.0,-281.73828125,0.0
1734407884.0241761,-669.921875,-1000.0,0.0,-1000.0,0.0
1734407884.028082,-5.37109375,-1000.0,0.0,-166.9921875,0.0
1734407884.0319877,492.1875,-1000.0,0.0,989.2578125,0.0
1734407884.0358934,187.01171875,-1000.0,0.0,-926.26953125,0.0
1734407884.0397992,-464.84375,-1000.0,0.0,83.0078125,0.0
1734407884.043705,-673.828125,-1000.0,0.0,-1000.0,0.0
1734407884.0475912,-36.1328125,-1000.0,-940.91796875,-186.5234375,0.0
1734407884.051497,495.1171875,-1000.0,-968.26171875,997.55859375,0.0
1734407884.0554028,237.79296875,-1000.0,-941.40625,-918.9453125,0.0
1734407884.0593085,-401.3671875,-1000.0,-942.87109375,196.2890625,0.0
1734407884.0632143,-650.87890625,-1000.0,-945.80078125,-1000.0,0.0
1734407884.06712,-75.1953125,-1000.0,-944.3359375,-258.30078125,0.0
1734407884.071026,461.9140625,-1000.0,-916.015625,979.98046875,0.0
1734407884.0749319,305.17578125,-1000.0,-915.0390625,-915.52734375,0.0
1734407884.0788376,-292.48046875,-1000.0,-969.7265625,234.86328125,0.0
1734407884.0827434,-674.31640625,-1000.0,-982.91015625,-1000.0,0.0
1734407884.0866492,-249.0234375,-1000.0,-895.99609375,-435.546875,0.0
1734407884.090555,366.69921875,-1000.0,-893.5546875,900.87890625,0.0
1734407884.0944314,343.26171875,-1000.0,-922.36328125,-887.20703125,0.0
1734407884.0983372,-287.59765625,-1000.0,-911.1328125,253.41796875,0.0
1734407884.1022432,-725.09765625,-1000.0,-906.25,-1000.0,0.0
1734407884.106149,-313.4765625,-1000.0,-893.06640625,-738.76953125,0.0
1734407884.1100547,329.58984375,-1000.0,-894.04296875,632.32421875,0.0
1734407884.1139605,395.5078125,-1000.0,-894.04296875,-823.2421875,0.0
1734407884.1178663,-237.3046875,-1000.0,-870.60546875,245.1171875,0.0
1734407884.121772,-729.00390625,-1000.0,-862.79296875,-1000.0,0.0
1734407884.1256778,-402.83203125,-1000.0,-829.1015625,-1000.0,0.0
1734407884.1295836,210.9375,-1000.0,-723.6328125,229.00390625,0.0
1734407884.1334894,390.13671875,-1000.0,-729.4921875,-779.78515625,0.0
1734407884.1373951,-142.578125,-1000.0,-834.9609375,282.71484375,0.0
1734407884.1414225,-708.984375,-1000.0,-800.29296875,-965.8203125,0.0
1734407884.1453285,-574.70703125,-1000.0,-625.48828125,-1000.0,0.0
1734407884.1492343,109.375,-1000.0,-544.921875,-85.44921875,0.0
1734407884.15314,417.96875,-1000.0,-593.75,-804.19921875,0.0
1734407884.1570458,-108.3984375,-1000.0,-673.33984375,382.8125,0.0
1734407884.1609516,-690.91796875,-1000.0,-626.953125,-925.78125,0.0
1734407884.1648574,-628.41796875,-1000.0,-437.01171875,-1000.0,0.0
1734407884.1687632,88.37890625,-1000.0,-493.65234375,-227.5390625,0.0
1734407884.172669,439.94140625,-1000.0,-541.50390625,-852.05078125,0.0
1734407884.1765747,-109.86328125,-1000.0,-304.6875,521.97265625,0.0
1734407884.1804805,-696.77734375,-1000.0,-328.125,-846.19140625,0.0
1734407884.1843863,-703.125,-1000.0,-355.46875,-1000.0,0.0
1734407884.1882052,-28.80859375,-993.65234375,-136.23046875,-236.81640625,0.0
1734407884.192111,436.5234375,-993.1640625,79.1015625,-902.34375,0.0
1734407884.1960168,55.6640625,-1000.0,-19.04296875,711.42578125,0.0
1734407884.1999226,-589.35546875,-1000.0,-185.546875,-642.578125,0.0
1734407884.2038283,-750.0,-1000.0,-22.94921875,-1000.0,0.0
1734407884.207734,-70.3125,-1000.0,146.97265625,-285.64453125,0.0
1734407884.21164,487.3046875,-1000.0,141.11328125,-993.65234375,0.0
1734407884.2155457,155.2734375,-1000.0,78.125,935.05859375,0.0
1734407884.2194517,-520.01953125,-999.0234375,100.5859375,-327.63671875,0.0
1734407884.2233574,-738.76953125,-989.2578125,181.15234375,-1000.0,0.0
1734407884.2272632,-118.65234375,-1000.0,117.67578125,-396.97265625,0.0
1734407884.231169,440.91796875,-990.72265625,-71.2890625,909.66796875,0.0
1734407884.2351365,0.0,-908.203125,63.4765625,-931.640625,0.0
1734407884.2390423,0.0,-923.828125,216.30859375,-80.56640625,0.0
1734407884.2429483,0.0,-1000.0,127.44140625,-1000.0,0.0
1734407884.246854,0.0,-820.80078125,220.703125,-574.70703125,0.0
1734407884.2507598,0.0,-516.11328125,324.21875,761.71875,0.0
1734407884.2546656,0.0,-814.453125,298.828125,-859.86328125,0.0
1734407884.2585714,0.0,-1000.0,47.36328125,87.40234375,0.0
1734407884.2624772,0.0,-943.84765625,21.97265625,-1000.0,0.0
1734407884.266383,0.0,-507.32421875,414.55078125,-765.13671875,0.0
1734407884.2702887,0.0,-82.51953125,458.49609375,573.2421875,0.0
1734407884.2741945,0.0,-435.05859375,405.76171875,-813.96484375,0.0
1734407884.2781003,0.0,-653.80859375,398.92578125,143.5546875,0.0
1734407884.2818832,-810.05859375,-490.72265625,423.828125,-1000.0,0.0
1734407884.285789,-367.67578125,-423.33984375,474.609375,-959.47265625,0.0
1734407884.2896948,310.546875,-312.01171875,560.546875,294.43359375,0.0
1734407884.2936006,378.90625,20.01953125,578.125,-779.78515625,0.0
1734407884.2975063,-258.7890625,173.33984375,556.15234375,152.83203125,0.0
1734407884.301412,-734.86328125,-199.21875,529.296875,-1000.0,0.0
1734407884.3053179,-428.7109375,-195.80078125,585.44921875,-1000.0,0.0
1734407884.3092237,242.67578125,449.70703125,672.36328125,41.9921875,0.0
1734407884.3131294,436.03515625,867.1875,682.6171875,-778.3203125,0.0
1734407884.3170352,-154.296875,492.67578125,626.953125,230.95703125,0.0
1734407884.320941,-691.89453125,-528.3203125,504.39453125,-998.046875,0.0
1734407884.3248467,-522.4609375,-156.73828125,624.51171875,-1000.0,0.0
1734407884.3287802,187.98828125,928.22265625,749.0234375,-119.62890625,0.0
1734407884.332686,513.18359375,721.19140625,684.5703125,-810.546875,0.0
1734407884.3365917,-59.5703125,334.9609375,646.97265625,416.9921875,0.0
1734407884.3404975,-671.875,190.4296875,619.140625,-913.0859375,0.0
1734407884.3444033,-581.0546875,356.4453125,646.484375,-1000.0,0.0
1734407884.348309,151.85546875,180.17578125,582.51953125,-188.96484375,0.0
1734407884.3522148,521.484375,-125.48828125,558.10546875,-875.9765625,0.0
1734407884.3561206,0.0,331.54296875,631.8359375,666.015625,0.0
1734407884.3600264,-603.02734375,357.421875,605.95703125,-695.3125,0.0
1734407884.3639321,-639.16015625,-7.8125,542.48046875,-1000.0,0.0
1734407884.367838,34.1796875,186.5234375,603.515625,-195.3125,0.0
1734407884.3717437,493.1640625,671.38671875,648.92578125,-951.66015625,0.0
1734407884.3756568,0.0,374.51171875,0.0,904.78515625,0.0
1734407884.3795626,0.0,-70.3125,0.0,-368.65234375,0.0
1734407884.3834686,0.0,38.0859375,0.0,-1000.0,0.0
1734407884.3873744,0.0,493.1640625,0.0,-201.171875,0.0
1734407884.3912802,0.0,573.73046875,0.0,-986.328125,0.0
1734407884.395186,0.0,4.39453125,0.0,-999.0234375,0.0
1734407884.3990917,0.0,-318.359375,0.0,-166.9921875,0.0
1734407884.4029975,0.0,123.53515625,0.0,-1000.0,0.0
1734407884.4069033,0.0,595.21484375,0.0,-327.63671875,0.0
1734407884.410809,0.0,592.28515625,0.0,942.87109375,0.0
1734407884.4147148,0.0,471.19140625,0.0,-929.19921875,0.0
1734407884.4186206,0.0,526.85546875,0.0,-13.671875,0.0
1734407884.4225075,-757.8125,488.76953125,686.5234375,-1000.0,0.0
1734407884.4264133,-155.2734375,264.16015625,684.5703125,-537.109375,0.0
1734407884.430319,428.22265625,779.78515625,771.97265625,803.7109375,0.0
1734407884.4342248,275.87890625,-941.89453125,771.97265625,-865.72265625,0.0
1734407884.4381306,-372.55859375,634.765625,661.62109375,121.09375,0.0
1734407884.4420364,-739.74609375,162.109375,618.1640625,-1000.0,0.0
1734407884.4459422,-232.421875,460.44921875,691.40625,-726.07421875,0.0
1734407884.449848,407.2265625,-934.08203125,771.97265625,627.44140625,0.0
1734407884.4537537,392.08984375,410.15625,584.9609375,-824.70703125,0.0
1734407884.4576595,-259.27734375,-429.6875,505.37109375,164.0625,0.0
1734407884.4615653,-747.55859375,266.6015625,653.80859375,-1000.0,0.0
1734407884.465471,-333.984375,719.7265625,663.57421875,-866.69921875,0.0
1734407884.4693584,347.16796875,544.43359375,656.73828125,444.3359375,0.0
1734407884.4732642,441.89453125,526.3671875,650.390625,-796.38671875,0.0
1734407884.47717,-170.8984375,513.18359375,606.93359375,215.8203125,0.0
1734407884.4810758,-696.2890625,212.890625,572.265625,-1000.0,0.0
1734407884.4849815,-418.9453125,57.6171875,569.82421875,-1000.0,0.0
1734407884.4888873,290.0390625,10.25390625,556.15234375,211.9140625,0.0
1734407884.492793,465.8203125,-12.20703125,540.52734375,-780.76171875,0.0
1734407884.4966989,-156.73828125,-23.4375,506.8359375,333.49609375,0.0
1734407884.5006049,-662.59765625,-601.5625,370.1171875,-956.0546875,0.0
1734407884.5045106,-453.125,-434.5703125,470.21484375,-1000.0,0.0
1734407884.5084164,252.44140625,67.87109375,535.15625,11.23046875,0.0
1734407884.5123222,520.01953125,-222.65625,465.33203125,-808.10546875,0.0
1734407884.5161757,0.0,-283.69140625,483.3984375,496.58203125,0.0
1734407884.5200815,0.0,-59.08203125,498.53515625,-836.9140625,0.0
1734407884.5239873,0.0,191.89453125,536.1328125,-1000.0,0.0
1734407884.527893,0.0,123.53515625,493.1640625,-162.109375,0.0
1734407884.5317988,0.0,79.58984375,507.8125,-875.9765625,0.0
1734407884.5357046,0.0,-17.08984375,505.859375,676.7578125,0.0
1734407884.5396104,0.0,-204.1015625,503.90625,-676.26953125,0.0
1734407884.5435162,0.0,-395.5078125,422.8515625,-1000.0,0.0
1734407884.547422,0.0,-592.28515625,432.12890625,-202.63671875,0.0
1734407884.5513277,0.0,250.48828125,607.91015625,-943.359375,0.0
1734407884.5552335,0.0,544.921875,556.15234375,875.48828125,0.0
1734407884.5591393,0.0,-10.25390625,508.7890625,-414.55078125,0.0
1734407884.5629487,-674.31640625,29.296875,536.1328125,-1000.0,0.0
1734407884.5668545,-10.25390625,502.9296875,574.70703125,-203.61328125,0.0
1734407884.5707603,504.8828125,274.4140625,513.18359375,-991.2109375,0.0
1734407884.574666,181.15234375,-151.3671875,462.40234375,-993.1640625,0.0
1734407884.578572,-470.21484375,-169.43359375,458.984375,-153.3203125,0.0
1734407884.5824778,-675.78125,-335.9375,427.734375,-1000.0,0.0
1734407884.5863836,-52.24609375,-203.125,468.26171875,-356.4453125,0.0
1734407884.5902894,480.46875,-471.19140625,354.00390625,939.453125,0.0
1734407884.5941951,213.37890625,-453.125,387.6953125,-940.4296875,0.0
1734407884.598101,-462.40234375,68.359375,490.72265625,-74.70703125,0.0
1734407884.6020067,-713.8671875,-361.328125,402.34375,-1000.0,0.0
1734407884.6059124,-141.6015625,-345.703125,452.63671875,-619.62890625,0.0
1734407884.6099048,412.109375,297.36328125,540.52734375,718.75,0.0
1734407884.6138105,311.03515625,514.16015625,563.96484375,-850.09765625,0.0
1734407884.6177163,-347.65625,75.68359375,480.95703125,88.37890625,0.0
1734407884.621622,-757.32421875,-142.578125,479.00390625,-1000.0,0.0
1734407884.6255279,-256.34765625,348.6328125,572.265625,-774.90234375,0.0
1734407884.6294339,402.34375,387.6953125,562.01171875,561.03515625,0.0
1734407884.6333396,433.59375,-213.8671875,405.2734375,-812.5,0.0
1734407884.6372454,-228.02734375,-649.4140625,366.2109375,153.80859375,0.0
1734407884.6411512,-745.60546875,-23.4375,544.921875,-1000.0,0.0
1734407884.645057,-344.7265625,504.8828125,585.44921875,-937.98828125,0.0
1734407884.6489627,343.26171875,254.8828125,513.18359375,334.47265625,0.0
1734407884.6528685,424.31640625,237.3046875,530.76171875,-783.203125,0.0
1734407884.6566424,-199.21875,480.95703125,561.5234375,180.17578125,0.0
1734407884.6605482,-683.10546875,317.87109375,533.203125,-1000.0,0.0
1734407884.664454,-388.18359375,32.2265625,556.640625,-1000.0,0.0
1734407884.6683598,257.32421875,353.515625,598.14453125,101.5625,0.0
1734407884.6722655,450.1953125,799.8046875,607.421875,-779.296875,0.0
1734407884.6761713,-113.76953125,273.92578125,518.5546875,320.3125,0.0
1734407884.680077,-669.43359375,-144.53125,506.34765625,-958.984375,0.0
1734407884.6839828,-487.3046875,84.47265625,570.3125,-1000.0,0.0
1734407884.6878886,197.265625,571.2890625,602.05078125,-62.01171875,0.0
1734407884.6917944,495.1171875,801.7578125,603.02734375,-812.98828125,0.0
1734407884.6957004,-28.80859375,-237.79296875,440.4296875,475.09765625,0.0
1734407884.6996062,-639.16015625,-397.4609375,499.51171875,-862.79296875,0.0
1734407884.703544,-574.70703125,590.33203125,633.7890625,-1000.0,0.0
1734407884.7074497,130.859375,652.83203125,615.234375,-180.17578125,0.0
1734407884.7113554,488.28125,548.33984375,625.48828125,-888.671875,0.0
1734407884.7152612,-31.25,686.03515625,609.86328125,712.890625,0.0
1734407884.719167,-617.67578125,656.25,614.2578125,-635.7421875,0.0
1734407884.7230728,-583.0078125,161.62109375,550.78125,-1000.0,0.0
1734407884.7269785,77.1484375,161.1328125,612.3046875,-190.4296875,0.0
1734407884.7308846,456.54296875,911.62109375,715.33203125,-962.890625,0.0
1734407884.7347903,68.359375,-973.14453125,669.43359375,940.4296875,0.0
1734407884.738696,-515.13671875,304.6875,500.9765625,-304.19921875,0.0
1734407884.7426019,-626.46484375,-91.30859375,500.0,-1000.0,0.0
1734407884.7465076,-38.57421875,695.80078125,679.6875,-188.96484375,0.0
1734407884.750411,410.15625,997.55859375,679.6875,-998.53515625,0.0
1734407884.7543168,128.41796875,693.359375,643.5546875,-960.9375,0.0
1734407884.7582226,-484.375,573.73046875,631.34765625,-59.5703125,0.0
1734407884.7621284,-689.453125,761.71875,651.85546875,-1000.0,0.0
1734407884.7660341,-66.40625,938.96484375,667.96875,-290.52734375,0.0
1734407884.76994,486.328125,654.296875,625.0,952.1484375,0.0
1734407884.7738457,242.67578125,587.40234375,628.90625,-915.52734375,0.0
1734407884.7777514,-437.98828125,811.03515625,656.73828125,108.88671875,0.0
1734407884.7816572,-708.49609375,739.74609375,626.46484375,-1000.0,0.0
1734407884.785563,-130.859375,242.1875,544.43359375,-453.125,0.0
1734407884.7894688,395.5078125,270.01953125,615.72265625,879.8828125,0.0
1734407884.7933745,266.6015625,934.08203125,689.94140625,-882.32421875,0.0
1734407884.7976227,-319.3359375,678.7109375,612.79296875,0.0,0.0
1734407884.8015285,-675.78125,270.99609375,610.83984375,0.0,0.0
1734407884.8054342,-240.234375,734.375,675.78125,0.0,0.0
1734407884.80934,337.890625,-960.9375,701.171875,0.0,0.0
1734407884.813246,338.8671875,749.51171875,641.11328125,0.0,0.0
1734407884.8171518,-260.25390625,231.93359375,566.40625,0.0,0.0
1734407884.8210576,-704.1015625,317.3828125,609.375,0.0,0.0
1734407884.8249633,-335.9375,919.921875,689.453125,0.0,0.0
1734407884.828869,350.09765625,559.5703125,552.734375,0.0,0.0
1734407884.8327749,419.921875,-2.44140625,522.94921875,0.0,0.0
1734407884.8366807,-233.3984375,590.33203125,643.06640625,0.0,0.0
1734407884.8405864,-648.4375,695.80078125,611.81640625,0.0,0.0
1734407884.844461,-374.0234375,454.1015625,619.62890625,-1000.0,0.0
1734407884.8483667,217.28515625,652.34375,638.18359375,150.87890625,0.0
1734407884.8522725,404.78515625,835.44921875,614.74609375,-783.203125,0.0
1734407884.8561785,-97.65625,373.046875,506.34765625,362.79296875,0.0
1734407884.8600843,-569.82421875,-106.4453125,477.05078125,-939.453125,0.0
1734407884.86399,-425.29296875,-144.04296875,511.23046875,-1000.0,0.0
1734407884.8678958,174.8046875,263.18359375,557.12890625,-19.04296875,0.0
1734407884.8718016,436.03515625,433.59375,538.57421875,-822.265625,0.0
1734407884.8757074,-63.96484375,-139.6484375,423.828125,549.8046875,0.0
1734407884.8796132,-582.51953125,-165.52734375,477.5390625,-790.0390625,0.0
1734407884.883519,-479.4921875,-187.01171875,441.40625,-1000.0,0.0
1734407884.8874247,105.95703125,-397.4609375,393.06640625,-141.6015625,0.0
1734407884.8914392,412.109375,-390.13671875,425.78125,-901.3671875,0.0
1734407884.895345,-8.30078125,-284.66796875,409.66796875,775.87890625,0.0
1734407884.8992507,-540.0390625,-174.31640625,418.9453125,-541.50390625,0.0
1734407884.9031565,-533.69140625,-455.56640625,333.49609375,-1000.0,0.0
1734407884.9070623,76.171875,-827.1484375,281.25,-178.7109375,0.0
1734407884.910968,437.5,-675.78125,350.09765625,-969.7265625,0.0
1734407884.9148738,89.35546875,-728.02734375,298.828125,968.26171875,0.0
1734407884.9187799,-445.3125,-956.0546875,101.07421875,-238.76953125,0.0
1734407884.9226856,-572.75390625,-902.34375,120.60546875,-1000.0,0.0
1734407884.9265914,-57.6171875,-309.08203125,392.578125,-196.2890625,0.0
1734407884.9304972,410.64453125,-85.9375,386.71875,-999.0234375,0.0
1734407884.934403,173.33984375,-625.48828125,272.4609375,-957.51953125,0.0
1734407884.9387724,-391.6015625,-766.6015625,427.734375,-789.0625,0.0
1734407884.9426782,-589.35546875,-461.9140625,569.3359375,553.22265625,0.0
1734407884.946584,-48.33984375,-288.0859375,500.0,-811.5234375,0.0
1734407884.9504898,435.546875,-383.7890625,493.65234375,150.390625,0.0
1734407884.9543955,237.3046875,-445.80078125,549.8046875,-1000.0,0.0
1734407884.9583013,-342.7734375,-677.734375,569.82421875,-968.26171875,0.0
1734407884.962207,-625.0,-948.2421875,515.13671875,276.3671875,0.0
1734407884.9661129,-153.3203125,-683.59375,522.94921875,-778.80859375,0.0
1734407884.9700186,372.55859375,-147.4609375,630.859375,171.875,0.0
1734407884.9739246,320.80078125,-156.25,642.578125,-1000.0,0.0
1734407884.9778304,-251.953125,-599.12109375,584.47265625,-1000.0,0.0
1734407884.9817362,-672.8515625,-877.9296875,647.94921875,1.953125,0.0
1734407884.9855669,-287.109375,-280.2734375,0.0,0.0,0.0
1734407884.9894726,338.8671875,497.55859375,0.0,0.0,0.0
1734407884.9933784,365.72265625,267.578125,0.0,0.0,0.0
1734407884.9972842,-242.1875,30.76171875,0.0,0.0,0.0
1734407885.0011902,-693.359375,295.8984375,0.0,0.0,0.0
1734407885.005096,-337.40234375,450.1953125,0.0,0.0,0.0
1734407885.0090017,307.6171875,188.96484375,0.0,0.0,0.0
1734407885.0129075,401.85546875,22.94921875,0.0,0.0,0.0
1734407885.0168133,-215.8203125,687.98828125,0.0,0.0,0.0
1734407885.020719,-653.3203125,949.70703125,0.0,0.0,0.0
1734407885.0246248,-389.6484375,644.04296875,0.0,0.0,0.0
1734407885.0285306,198.2421875,715.33203125,0.0,0.0,0.0
1734407885.0324836,0.0,991.69921875,0.0,-784.1796875,0.0
1734407885.0363894,0.0,942.3828125,0.0,280.2734375,0.0
1734407885.0402951,0.0,702.63671875,0.0,-973.14453125,0.0
1734407885.044201,0.0,800.29296875,0.0,-1000.0,0.0
1734407885.048107,0.0,972.16796875,0.0,-166.9921875,0.0
1734407885.0520127,0.0,-945.3125,0.0,-828.125,0.0
1734407885.0559185,0.0,429.6875,0.0,469.23828125,0.0
1734407885.0598242,0.0,204.58984375,0.0,-877.44140625,0.0
1734407885.06373,0.0,-995.60546875,0.0,-1000.0,0.0
1734407885.0676358,0.0,979.4921875,0.0,-218.26171875,0.0
1734407885.0715415,0.0,919.43359375,0.0,-883.7890625,0.0
1734407885.0754473,0.0,963.37890625,0.0,662.59765625,0.0
1734407885.079204,-597.65625,985.3515625,739.74609375,-700.68359375,0.0
1734407885.0831099,-593.75,914.55078125,720.703125,-1000.0,0.0
1734407885.0870156,37.109375,885.7421875,725.5859375,-204.1015625,0.0
1734407885.0909214,412.109375,967.28515625,741.2109375,-951.171875,0.0
1734407885.0948272,64.453125,987.3046875,755.37109375,891.6015625,0.0
1734407885.098733,-469.7265625,677.24609375,636.71875,-375.48828125,0.0
1734407885.1026387,-615.234375,676.7578125,650.390625,-1000.0,0.0
1734407885.1065447,-62.98828125,955.56640625,774.90234375,-242.67578125,0.0
1734407885.1104505,368.65234375,-939.453125,779.78515625,985.83984375,0.0
1734407885.1143563,159.1796875,618.1640625,599.12109375,-968.75,0.0
1734407885.118262,-381.34765625,80.56640625,537.109375,-100.09765625,0.0
1734407885.1221678,-640.13671875,714.35546875,695.3125,-1000.0,0.0
1734407885.1262467,-115.72265625,-989.2578125,696.2890625,-362.79296875,0.0
1734407885.1301525,389.16015625,850.5859375,676.7578125,912.59765625,0.0
1734407885.1340582,207.51953125,866.69921875,647.94921875,-891.6015625,0.0
1734407885.137964,-397.94921875,784.66796875,598.14453125,56.15234375,0.0
1734407885.1418698,-628.41796875,528.3203125,572.75390625,-1000.0,0.0
1734407885.1457756,-114.74609375,240.72265625,546.875,-359.375,0.0
1734407885.1496813,354.4921875,175.29296875,535.15625,811.5234375,0.0
1734407885.1535873,256.8359375,335.44921875,544.921875,-869.62890625,0.0
1734407885.157493,-316.40625,289.55078125,489.74609375,167.48046875,0.0
1734407885.161399,-661.62109375,-473.14453125,409.1796875,-1000.0,0.0
1734407885.1653047,-298.828125,-505.37109375,463.8671875,-762.20703125,0.0
1734407885.1692104,198.73046875,185.546875,508.30078125,591.796875,0.0
1734407885.173081,218.75,37.109375,442.87109375,-815.91796875,0.0
1734407885.176987,-293.45703125,-429.19921875,358.3984375,151.3671875,0.0
1734407885.1808927,-721.19140625,-396.97265625,360.83984375,-1000.0,0.0
1734407885.1847985,-436.03515625,-163.57421875,413.0859375,-985.3515625,0.0
1734407885.1887043,165.52734375,-289.55078125,331.54296875,239.2578125,0.0
1734407885.19261,276.85546875,-823.2421875,221.6796875,-778.3203125,0.0
1734407885.1965158,-229.98046875,-799.8046875,249.0234375,197.265625,0.0
1734407885.2004216,-623.53515625,-650.390625,299.8046875,-1000.0,0.0
1734407885.2043273,-383.30078125,-877.9296875,151.3671875,-1000.0,0.0
1734407885.208233,161.1328125,-662.59765625,184.5703125,46.38671875,0.0
1734407885.212139,328.125,-290.0390625,347.65625,-784.1796875,0.0
1734407885.216045,-166.50390625,-480.46875,306.640625,336.42578125,0.0
1734407885.21991,-594.7265625,-915.52734375,55.17578125,-950.1953125,0.0
1734407885.2238157,-426.7578125,-879.8828125,44.921875,-1000.0,0.0
1734407885.2277215,126.46484375,-313.4765625,356.4453125,-101.07421875,0.0
1734407885.2316275,383.30078125,-319.3359375,286.1328125,-833.984375,0.0
1734407885.2355332,-56.640625,-819.82421875,188.96484375,544.921875,0.0
1734407885.239439,-571.2890625,-1000.0,207.03125,-801.26953125,0.0
1734407885.2433448,-569.3359375,-910.15625,245.1171875,-1000.0,0.0
1734407885.2472506,51.7578125,-754.8828125,237.79296875,-177.734375,0.0
1734407885.2511563,433.10546875,-852.05078125,-5.859375,-910.15625,0.0
1734407885.255062,1.46484375,-927.24609375,16.11328125,784.1796875,0.0
1734407885.2589679,-552.734375,-945.80078125,158.69140625,-537.59765625,0.0
1734407885.2628736,-586.42578125,-1000.0,76.171875,-1000.0,0.0
1734407885.266706,-0.48828125,-844.7265625,166.015625,-183.59375,0.0
1734407885.2706118,393.5546875,-519.04296875,271.97265625,-976.07421875,0.0
1734407885.2745175,63.4765625,-623.53515625,213.8671875,980.95703125,0.0
1734407885.2784233,-477.05078125,-919.43359375,60.05859375,-213.37890625,0.0
1734407885.282329,-601.5625,-987.3046875,36.1328125,-1000.0,0.0
1734407885.2862349,-52.24609375,-995.1171875,119.62890625,-201.171875,0.0
1734407885.2901409,360.83984375,-831.54296875,266.6015625,994.62890625,0.0
1734407885.2940466,138.18359375,-821.77734375,13.18359375,-948.73046875,0.0
1734407885.2979524,-410.15625,-952.63671875,-102.5390625,-0.48828125,0.0
1734407885.3018582,-643.06640625,-642.08984375,323.2421875,-1000.0,0.0
1734407885.305764,-84.9609375,-289.55078125,357.91015625,-336.42578125,0.0
1734407885.3096697,370.60546875,-389.6484375,337.890625,936.5234375,0.0
1734407885.3140383,180.17578125,-433.59375,343.75,-909.66796875,0.0
1734407885.317944,-376.953125,-494.140625,313.96484375,108.88671875,0.0
1734407885.3218498,-647.4609375,-711.42578125,308.10546875,-1000.0,0.0
1734407885.3257556,-169.43359375,-372.0703125,418.45703125,-569.3359375,0.0
1734407885.3296614,364.2578125,35.15625,464.84375,783.69140625,0.0
1734407885.3335671,297.8515625,-238.76953125,373.046875,-857.91015625,0.0
1734407885.3374732,-278.80859375,-573.73046875,344.23828125,156.73828125,0.0
1734407885.341379,-611.328125,-850.5859375,242.67578125,-1000.0,0.0
1734407885.3452847,-241.69921875,-392.08984375,368.1640625,-797.8515625,0.0
1734407885.3491905,317.87109375,460.9375,563.4765625,541.9921875,0.0
1734407885.3530962,360.83984375,30.2734375,424.31640625,-810.546875,0.0
1734407885.357002,-228.515625,-338.37890625,400.390625,157.71484375,0.0
1734407885.3608394,-628.41796875,-29.78515625,453.61328125,0.0,0.0
1734407885.3647451,-258.7890625,184.5703125,473.14453125,0.0,0.0
1734407885.3686512,315.4296875,42.48046875,441.40625,0.0,0.0
1734407885.372557,352.05078125,-169.43359375,406.25,0.0,0.0
1734407885.3764627,-160.64453125,-401.3671875,332.03125,0.0,0.0
1734407885.3803685,-580.078125,-677.734375,322.75390625,0.0,0.0
1734407885.3842742,-346.19140625,-753.41796875,260.25390625,0.0,0.0
1734407885.38818,264.6484375,-514.6484375,270.99609375,0.0,0.0
1734407885.3920858,419.921875,-113.76953125,389.16015625,0.0,0.0
1734407885.3959916,-92.7734375,-346.19140625,295.41015625,0.0,0.0
1734407885.3998973,-546.38671875,-789.0625,125.0,0.0,0.0
1734407885.4038033,-412.109375,-685.05859375,193.84765625,0.0,0.0
1734407885.4075537,176.7578125,-193.84765625,367.1875,-44.43359375,0.0
1734407885.4114594,456.54296875,-279.78515625,320.3125,-842.7734375,0.0
1734407885.4153655,25.87890625,-785.15625,128.41796875,614.74609375,0.0
1734407885.4192712,-491.69921875,-900.390625,133.7890625,-751.46484375,0.0
1734407885.423177,-438.4765625,-728.515625,213.37890625,-1000.0,0.0
1734407885.4270828,185.05859375,-893.06640625,176.7578125,-58.59375,0.0
1734407885.4309886,542.48046875,-1000.0,-187.01171875,-926.7578125,0.0
1734407885.4348943,115.72265625,-998.046875,-469.7265625,818.84765625,0.0
1734407885.4388,-496.09375,-990.72265625,-29.78515625,-476.5625,0.0
1734407885.4427059,-494.140625,-986.81640625,51.26953125,-1000.0,0.0
1734407885.4466116,150.390625,-994.62890625,-92.28515625,-178.7109375,0.0
1734407885.4505174,525.390625,-951.171875,66.89453125,-981.93359375,0.0
1734407885.4542656,149.4140625,-967.28515625,31.73828125,-997.55859375,0.0
1734407885.4581716,-390.625,-1000.0,-312.98828125,-164.55078125,0.0
1734407885.4620774,-475.09765625,-999.51171875,-419.921875,-1000.0,0.0
1734407885.4659832,108.88671875,-1000.0,-267.578125,-189.94140625,0.0
1734407885.469889,558.59375,-1000.0,-255.37109375,989.74609375,0.0
1734407885.4737947,330.56640625,-1000.0,-544.43359375,-930.6640625,0.0
1734407885.4777005,-291.9921875,-1000.0,-652.34375,74.70703125,0.0
1734407885.4816062,-581.0546875,-1000.0,-398.4375,-1000.0,0.0
1734407885.485512,2.9296875,-1000.0,-362.3046875,-300.78125,0.0
1734407885.4894178,532.71484375,-1000.0,-399.90234375,957.51953125,0.0
1734407885.4933236,319.82421875,-1000.0,-368.1640625,-915.0390625,0.0
1734407885.4972296,-298.828125,-999.51171875,-303.22265625,140.13671875,0.0
1734407885.5011702,0.0,-1000.0,-203.61328125,0.0,0.0
1734407885.505076,0.0,-1000.0,-160.64453125,0.0,0.0
1734407885.5089817,0.0,-948.73046875,-18.06640625,0.0,0.0
1734407885.5128875,0.0,-945.3125,101.5625,0.0,0.0
1734407885.5167933,0.0,-999.51171875,-15.625,0.0,0.0
1734407885.5206993,0.0,-1000.0,-240.234375,0.0,0.0
1734407885.524605,0.0,-997.0703125,-138.671875,0.0,0.0
1734407885.5285108,0.0,-861.328125,143.5546875,0.0,0.0
1734407885.5324166,0.0,-861.81640625,106.4453125,0.0,0.0
1734407885.5363224,0.0,-996.09375,-115.234375,0.0,0.0
1734407885.5402281,0.0,-1000.0,-41.015625,0.0,0.0
1734407885.544134,0.0,-917.48046875,202.1484375,0.0,0.0
1734407885.5480123,394.53125,-862.3046875,194.82421875,261.71875,0.0
1734407885.551918,487.79296875,-838.8671875,197.75390625,-780.2734375,0.0
1734407885.5558238,-98.6328125,-715.33203125,204.58984375,221.19140625,0.0
1734407885.5597296,-584.9609375,-719.7265625,211.9140625,-1000.0,0.0
1734407885.5636353,-282.2265625,-767.08984375,219.23828125,-1000.0,0.0
1734407885.5675411,368.65234375,-839.84375,223.14453125,102.5390625,0.0
1734407885.571447,501.46484375,-554.19921875,324.70703125,-798.33984375,0.0
1734407885.5753527,-51.7578125,-265.13671875,382.8125,321.2890625,0.0
1734407885.5792584,-516.6015625,-666.50390625,154.78515625,-948.73046875,0.0
1734407885.5831642,-378.41796875,-860.3515625,148.4375,-1000.0,0.0
1734407885.5870702,195.3125,-69.3359375,466.30859375,-180.6640625,0.0
1734407885.590976,491.69921875,239.74609375,459.9609375,-833.49609375,0.0
1734407885.594837,2.9296875,-241.69921875,398.92578125,474.12109375,0.0
1734407885.5987427,-572.75390625,-289.55078125,425.29296875,-874.51171875,0.0
1734407885.6026485,-540.52734375,47.36328125,467.28515625,-1000.0,0.0
1734407885.6065543,125.9765625,-27.34375,443.84765625,-224.609375,0.0
1734407885.61046,503.90625,-57.6171875,473.14453125,-891.6015625,0.0
1734407885.6143658,67.3828125,-259.27734375,410.64453125,692.87109375,0.0
1734407885.6182718,-541.50390625,-315.91796875,413.0859375,-669.921875,0.0
1734407885.6221776,-558.59375,-6.8359375,459.9609375,-1000.0,0.0
1734407885.6260834,97.16796875,-472.16796875,323.2421875,-212.40234375,0.0
1734407885.6299891,462.890625,-323.2421875,413.57421875,-954.1015625,0.0
1734407885.633895,59.5703125,-10.7421875,430.17578125,893.5546875,0.0
1734407885.6378007,-530.2734375,-519.04296875,338.8671875,-376.46484375,0.0
1734407885.641633,-641.11328125,-398.92578125,428.7109375,-1000.0,0.0
1734407885.6455388,-21.97265625,219.23828125,503.41796875,-290.0390625,0.0
1734407885.6494446,458.0078125,520.5078125,532.2265625,967.28515625,0.0
1734407885.6533504,191.89453125,81.54296875,416.9921875,-966.30859375,0.0
1734407885.6572561,-412.59765625,-370.1171875,346.19140625,-111.81640625,0.0
1734407885.661162,-641.11328125,-375.9765625,414.55078125,-1000.0,0.0
1734407885.6650677,-83.0078125,-186.03515625,455.56640625,-420.8984375,0.0
1734407885.6689734,431.640625,-301.7578125,340.8203125,882.8125,0.0
1734407885.6728792,230.46875,-311.03515625,356.93359375,-895.99609375,0.0
1734407885.676785,-380.859375,-21.484375,459.47265625,69.3359375,0.0
1734407885.6806908,-671.38671875,51.26953125,466.30859375,-1000.0,0.0
1734407885.6845968,-156.73828125,-376.46484375,335.44921875,-628.41796875,0.0
1734407885.6887813,368.65234375,-465.8203125,363.28125,724.12109375,0.0
1734407885.692687,253.90625,301.26953125,523.92578125,-844.7265625,0.0
1734407885.696593,-311.03515625,83.0078125,428.7109375,136.71875,0.0
1734407885.7004988,-686.5234375,-283.69140625,421.38671875,-1000.0,0.0
1734407885.7044046,-252.9296875,-11.23046875,472.16796875,-862.79296875,0.0
1734407885.7083104,333.49609375,30.2734375,435.546875,449.21875,0.0
1734407885.7122161,339.35546875,-153.80859375,436.03515625,-796.875,0.0
1734407885.716122,-218.75,-626.46484375,210.9375,149.4140625,0.0
1734407885.7200277,-683.10546875,-861.81640625,189.453125,-1000.0,0.0
1734407885.7239335,-375.48828125,-199.21875,460.9375,-997.0703125,0.0
1734407885.7278392,263.18359375,-110.83984375,414.55078125,211.9140625,0.0
1734407885.731745,356.93359375,-256.34765625,378.90625,-776.85546875,0.0
1734407885.7355344,0.0,-194.3359375,0.0,218.26171875,0.0
1734407885.7394402,0.0,-244.62890625,0.0,-1000.0,0.0
1734407885.743346,0.0,-312.01171875,0.0,-1000.0,0.0
1734407885.7472517,0.0,-189.94140625,0.0,-10.25390625,0.0
1734407885.7511578,0.0,140.13671875,0.0,-791.9921875,0.0
1734407885.7550635,0.0,-332.03125,0.0,356.93359375,0.0
1734407885.7589693,0.0,-884.765625,0.0,-936.03515625,0.0
1734407885.762875,0.0,-637.20703125,0.0,-1000.0,0.0
1734407885.7667809,0.0,147.94921875,0.0,-167.48046875,0.0
1734407885.7706866,0.0,450.68359375,0.0,-844.23828125,0.0
1734407885.7745924,0.0,-275.390625,0.0,541.9921875,0.0
1734407885.7784982,0.0,-753.90625,0.0,-815.4296875,0.0
1734407885.7822657,-539.55078125,-184.5703125,456.54296875,-1000.0,0.0
1734407885.7861714,85.9375,256.34765625,484.375,-209.9609375,0.0
1734407885.7900772,455.56640625,-356.93359375,309.08203125,-904.296875,0.0
1734407885.793983,13.671875,-804.19921875,272.94921875,740.234375,0.0
1734407885.797889,-567.87109375,-270.01953125,416.015625,-603.02734375,0.0
1734407885.8017948,-579.1015625,-338.37890625,374.0234375,-1000.0,0.0
1734407885.8057005,24.90234375,-754.8828125,271.97265625,-199.70703125,0.0
1734407885.8096063,377.44140625,-498.046875,357.421875,-966.30859375,0.0
1734407885.813512,35.64453125,107.91015625,476.5625,940.91796875,0.0
1734407885.8174179,-445.3125,-133.7890625,376.46484375,-291.50390625,0.0
1734407885.8213236,-569.3359375,-578.125,341.796875,-1000.0,0.0
1734407885.8252294,-68.84765625,-306.15234375,416.015625,-260.7421875,0.0
1734407885.8291502,344.23828125,234.86328125,466.796875,968.75,0.0
1734407885.833056,127.9296875,-204.58984375,351.07421875,-944.3359375,0.0
1734407885.8369617,-400.390625,-675.29296875,303.7109375,-24.90234375,0.0
1734407885.8408675,-615.234375,-307.12890625,393.5546875,-1000.0,0.0
1734407885.8447733,-91.30859375,88.8671875,452.1484375,-388.671875,0.0
1734407885.8486793,416.9921875,-355.46875,318.84765625,906.25,0.0
1734407885.852585,221.19140625,-720.703125,259.27734375,-897.4609375,0.0
1734407885.8564909,-388.671875,-237.3046875,416.015625,114.74609375,0.0
1734407885.8603966,-639.16015625,-38.0859375,435.546875,-1000.0,0.0
1734407885.8643024,-181.15234375,-254.39453125,340.8203125,-600.5859375,0.0
1734407885.8682082,295.8984375,-207.03125,382.8125,751.46484375,0.0
1734407885.872114,202.63671875,163.57421875,485.83984375,-851.07421875,0.0
1734407885.876195,-297.36328125,51.26953125,430.6640625,157.71484375,0.0
1734407885.8801007,-587.40234375,-302.24609375,418.45703125,-1000.0,0.0
1734407885.8840065,-234.375,-55.17578125,483.3984375,-830.56640625,0.0
1734407885.8879123,258.7890625,390.13671875,515.625,492.1875,0.0
1734407885.8918183,268.5546875,158.69140625,468.75,-802.734375,0.0
1734407885.895724,-229.4921875,-362.79296875,388.18359375,172.36328125,0.0
1734407885.8996298,-607.91015625,-479.00390625,392.08984375,-1000.0,0.0
1734407885.9035356,-338.8671875,72.75390625,515.13671875,-999.51171875,0.0
1734407885.9074414,203.125,411.1328125,526.85546875,209.9609375,0.0
1734407885.9113472,335.9375,-390.625,347.16796875,-779.296875,0.0
1734407885.915253,-167.96875,-729.4921875,351.5625,240.72265625,0.0
1734407885.9191587,-590.8203125,-20.99609375,499.51171875,-1000.0,0.0
1734407885.9230492,0.0,165.0390625,515.625,-1000.0,0.0
1734407885.926955,0.0,109.375,511.23046875,15.13671875,0.0
1734407885.9308608,0.0,366.69921875,527.34375,-796.875,0.0
1734407885.9347665,0.0,368.1640625,504.39453125,399.90234375,0.0
1734407885.9386725,0.0,-138.18359375,404.78515625,-914.55078125,0.0
1734407885.9425783,0.0,-500.9765625,377.44140625,-1000.0,0.0
1734407885.946484,0.0,-18.06640625,488.28125,-114.2578125,0.0
1734407885.9503899,0.0,156.25,490.234375,-851.07421875,0.0
1734407885.9542956,0.0,-508.30078125,267.578125,607.421875,0.0
1734407885.9582014,0.0,-563.4765625,299.8046875,-741.2109375,0.0
1734407885.9621072,0.0,-83.0078125,449.21875,-1000.0,0.0
1734407885.966013,0.0,102.05078125,479.00390625,-187.98828125,0.0
1734407885.9698718,405.2734375,-367.1875,324.70703125,-920.41015625,0.0
1734407885.9737775,7.8125,-791.50390625,242.67578125,806.640625,0.0
1734407885.9776833,-508.30078125,-244.62890625,414.55078125,-503.41796875,0.0
1734407885.981589,-520.99609375,-215.8203125,364.2578125,-1000.0,0.0
1734407885.9854949,-11.23046875,-355.46875,382.32421875,-185.05859375,0.0
1734407885.9894006,326.171875,-417.96875,375.48828125,-979.4921875,0.0
1734407885.9933064,53.7109375,-430.6640625,346.19140625,989.2578125,0.0
1734407885.9972124,-417.48046875,-375.0,343.26171875,-186.5234375,0.0
1734407886.0011182,-499.0234375,-789.55078125,168.9453125,-1000.0,0.0
1734407886.005024,-20.99609375,-588.8671875,269.04296875,-254.39453125,0.0
1734407886.0089297,331.0546875,-266.11328125,391.6015625,971.6796875,0.0
1734407886.0128355,155.76171875,-644.53125,288.57421875,-936.03515625,0.0
1734407886.016679,-311.03515625,-727.5390625,295.41015625,16.6015625,0.0
1734407886.0205848,-537.59765625,-442.87109375,351.5625,-1000.0,0.0
1734407886.0244906,-112.79296875,-95.21484375,407.71484375,-395.5078125,0.0
1734407886.0283964,320.3125,-236.328125,327.1484375,905.2734375,0.0
1734407886.0323021,175.78125,-511.23046875,291.9921875,-895.5078125,0.0
1734407886.036208,-312.5,-714.35546875,257.32421875,128.90625,0.0
1734407886.0401137,-560.05859375,-722.65625,281.73828125,-1000.0,0.0
1734407886.0440195,-113.76953125,-687.5,219.7265625,-599.609375,0.0
1734407886.0479252,331.54296875,-823.2421875,197.75390625,757.32421875,0.0
1734407886.0518312,195.80078125,-252.44140625,395.99609375,-851.5625,0.0
1734407886.055737,-272.4609375,-135.7421875,351.07421875,157.2265625,0.0
1734407886.0596428,-553.7109375,-554.6875,303.7109375,-1000.0,0.0
1734407886.0638375,0.0,-667.96875,0.0,0.0,0.0
1734407886.0677435,0.0,-339.35546875,0.0,0.0,0.0
1734407886.0716493,0.0,-169.43359375,0.0,0.0,0.0
1734407886.075555,0.0,-553.7109375,0.0,0.0,0.0
1734407886.0794609,0.0,-684.5703125,0.0,0.0,0.0
1734407886.0833666,0.0,-646.484375,0.0,0.0,0.0
1734407886.0872724,0.0,-617.1875,0.0,0.0,0.0
1734407886.0911782,0.0,-832.51953125,0.0,0.0,0.0
1734407886.095084,0.0,-860.3515625,0.0,0.0,0.0
1734407886.0989897,0.0,-521.97265625,0.0,0.0,0.0
1734407886.1028957,0.0,-777.34375,0.0,0.0,0.0
1734407886.1068015,0.0,-724.12109375,0.0,0.0,0.0
1734407886.1105964,304.6875,-351.07421875,320.80078125,-797.36328125,0.0
1734407886.1145022,-153.80859375,-381.8359375,295.8984375,397.4609375,0.0
1734407886.118408,-514.6484375,-752.9296875,182.6171875,-909.1796875,0.0
1734407886.1223137,-393.06640625,-993.1640625,142.08984375,-1000.0,0.0
1734407886.1262195,93.75,-529.78515625,304.6875,-157.2265625,0.0
1734407886.1301253,348.14453125,-423.33984375,342.7734375,-855.95703125,0.0
1734407886.134031,-28.80859375,-844.7265625,133.7890625,599.609375,0.0
1734407886.137937,-511.23046875,-812.5,158.69140625,-756.34765625,0.0
1734407886.1418428,-510.25390625,-385.7421875,374.51171875,-1000.0,0.0
1734407886.1457486,39.0625,-61.03515625,390.13671875,-208.49609375,0.0
1734407886.1496544,377.44140625,-446.77734375,215.33203125,-911.1328125,0.0
1734407886.1535602,20.5078125,-681.15234375,193.84765625,764.6484375,0.0
1734407886.1573215,-478.515625,-435.05859375,329.1015625,-568.359375,0.0
1734407886.1612272,-527.83203125,-359.375,343.75,-1000.0,0.0
1734407886.165133,16.6015625,-728.515625,145.99609375,-207.51953125,0.0
1734407886.1690388,343.26171875,-829.58984375,162.59765625,-974.12109375,0.0
1734407886.1729445,25.87890625,-472.16796875,300.29296875,953.61328125,0.0
1734407886.1768503,-426.26953125,-807.12890625,194.82421875,-260.25390625,0.0
1734407886.180756,-543.9453125,-1000.0,4.8828125,-1000.0,0.0
1734407886.184662,-68.359375,-766.11328125,91.796875,-295.8984375,0.0
1734407886.1885679,338.37890625,-254.8828125,375.0,951.171875,0.0
1734407886.1924736,161.1328125,-470.703125,214.35546875,-932.12890625,0.0
1734407886.1963794,-353.515625,-946.2890625,58.59375,0.48828125,0.0
1734407886.2002852,-596.19140625,-916.50390625,138.18359375,-1000.0,0.0
1734407886.2040484,-125.48828125,-569.3359375,249.0234375,-426.7578125,0.0
1734407886.2079542,366.2109375,-648.4375,171.875,881.34765625,0.0
1734407886.21186,217.28515625,-920.8984375,132.8125,-887.6953125,0.0
1734407886.215766,-335.9375,-903.3203125,118.65234375,136.23046875,0.0
1734407886.2196717,-602.5390625,-974.609375,112.79296875,-1000.0,0.0
1734407886.2235775,-102.5390625,-1000.0,-86.42578125,-580.56640625,0.0
1734407886.2274833,380.859375,-946.2890625,-148.4375,774.90234375,0.0
1734407886.231389,260.7421875,-842.28515625,147.4609375,-854.98046875,0.0
1734407886.2352948,-264.16015625,-937.98828125,58.59375,174.31640625,0.0
1734407886.2392006,-589.35546875,-1000.0,-135.7421875,-1000.0,0.0
1734407886.2431064,-213.37890625,-919.921875,-13.671875,-796.875,0.0
1734407886.2470121,311.5234375,-773.4375,147.4609375,539.55078125,0.0
1734407886.2509248,328.125,-892.08984375,50.78125,-810.05859375,0.0
1734407886.2548306,-238.28125,-1000.0,-171.875,212.890625,0.0
1734407886.2587364,-613.28125,-1000.0,-230.46875,-1000.0,0.0
1734407886.2626424,-302.24609375,-982.421875,-11.71875,-966.796875,0.0
1734407886.2665482,235.83984375,-946.2890625,72.75390625,286.62109375,0.0
1734407886.270454,364.74609375,-993.65234375,-134.27734375,-784.66796875,0.0
1734407886.2743597,-158.203125,-1000.0,-272.94921875,304.19921875,0.0
1734407886.2782655,-599.609375,-991.69921875,-86.9140625,-972.16796875,0.0
1734407886.2821712,-357.91015625,-1000.0,16.11328125,-1000.0,0.0
1734407886.286077,219.7265625,-989.74609375,-150.390625,44.921875,0.0
1734407886.2899828,397.4609375,-982.421875,-69.82421875,-797.36328125,0.0
1734407886.2938886,-93.26171875,-995.60546875,-14.6484375,448.2421875,0.0
1734407886.297767,-553.22265625,-1000.0,-77.1484375,-872.0703125,0.0
1734407886.3016727,-430.6640625,-970.703125,8.7890625,-1000.0,0.0
1734407886.3055785,141.11328125,-737.79296875,136.23046875,-146.484375,0.0
1734407886.3094842,409.66796875,-653.80859375,202.1484375,-866.2109375,0.0
1734407886.31339,4.39453125,-870.1171875,12.20703125,642.578125,0.0
1734407886.3172958,-500.9765625,-1000.0,-139.6484375,-705.56640625,0.0
1734407886.3212016,-517.578125,-963.37890625,83.0078125,-1000.0,0.0
1734407886.3251073,59.5703125,-595.21484375,273.4375,-198.73046875,0.0
1734407886.3290133,451.171875,-688.4765625,-21.484375,-922.8515625,0.0
1734407886.3329191,60.546875,-1000.0,-179.19921875,809.5703125,0.0
1734407886.336825,-527.34375,-862.3046875,160.15625,-502.44140625,0.0
1734407886.3407307,-522.94921875,-803.22265625,148.4375,-1000.0,0.0
1734407886.3445864,71.77734375,-874.51171875,0.0,-197.265625,0.0
1734407886.3484921,408.203125,-827.1484375,0.0,-985.3515625,0.0
1734407886.352398,74.70703125,-899.90234375,0.0,994.62890625,0.0
1734407886.3563037,-449.21875,-995.60546875,0.0,-178.22265625,0.0
1734407886.3602095,-557.6171875,-986.328125,0.0,-1000.0,0.0
1734407886.3641152,-2.9296875,-985.83984375,0.0,-280.76171875,0.0
1734407886.368021,376.953125,-915.52734375,0.0,959.47265625,0.0
1734407886.3719268,112.3046875,-864.2578125,0.0,-933.59375,0.0
1734407886.3758326,-362.3046875,-984.86328125,0.0,21.484375,0.0
1734407886.3797383,-592.28515625,-852.5390625,0.0,-1000.0,0.0
1734407886.383644,-125.9765625,-619.62890625,0.0,-475.5859375,0.0
1734407886.38755,370.1171875,-709.47265625,0.0,852.5390625,0.0
1734407886.3913913,185.05859375,-629.8828125,316.40625,-882.32421875,0.0
1734407886.395297,-368.65234375,-356.4453125,339.35546875,105.46875,0.0
1734407886.3992028,-588.8671875,-255.859375,349.609375,-1000.0,0.0
1734407886.4031086,-170.41015625,-288.57421875,348.14453125,-708.49609375,0.0
1734407886.4070144,265.625,-328.61328125,356.4453125,638.18359375,0.0
1734407886.4109201,206.54296875,-354.4921875,346.19140625,-826.66015625,0.0
1734407886.414826,-282.2265625,-531.25,320.3125,150.390625,0.0
1734407886.418732,-561.03515625,-800.78125,218.75,-1000.0,0.0
1734407886.4226377,-220.703125,-750.9765625,250.48828125,-916.015625,0.0
1734407886.4265435,220.703125,-15.13671875,466.30859375,360.3515625,0.0
1734407886.4304492,232.421875,244.140625,444.82421875,-789.55078125,0.0
1734407886.434355,-226.5625,-248.046875,363.28125,172.36328125,0.0
1734407886.438357,-541.9921875,-377.44140625,364.2578125,-1000.0,0.0
1734407886.442263,-257.32421875,103.02734375,445.3125,-1000.0,0.0
1734407886.4461687,232.91015625,246.58203125,453.61328125,181.640625,0.0
1734407886.4500744,307.6171875,22.4609375,427.24609375,-780.2734375,0.0
1734407886.4539802,-166.015625,-186.03515625,350.5859375,280.76171875,0.0
1734407886.457886,-534.66796875,-532.71484375,274.4140625,-981.93359375,0.0
1734407886.4617918,-336.9140625,-565.4296875,309.5703125,-1000.0,0.0
1734407886.4656975,179.6875,-767.08984375,163.57421875,-6.34765625,0.0
1734407886.4696033,335.9375,-658.203125,222.65625,-804.19921875,0.0
1734407886.473509,-106.93359375,-121.58203125,365.72265625,443.359375,0.0
1734407886.4774148,-515.625,-528.3203125,256.8359375,-878.41796875,0.0
1734407886.4813209,-432.12890625,-732.421875,279.78515625,-1000.0,0.0
1734407886.4851816,66.89453125,-222.16796875,354.98046875,-147.94921875,0.0
1734407886.4890873,323.2421875,66.40625,407.2265625,-869.140625,0.0
1734407886.492993,-5.859375,-414.0625,246.58203125,649.4140625,0.0
1734407886.496899,-463.37890625,-806.640625,196.2890625,-692.3828125,0.0
1734407886.5008047,-470.703125,-516.6015625,304.19921875,-1000.0,0.0
1734407886.5047104,59.08203125,-547.36328125,273.92578125,-201.171875,0.0
1734407886.5086162,347.16796875,-804.19921875,161.62109375,-928.22265625,0.0
1734407886.512522,-6.34765625,-769.04296875,162.109375,824.21875,0.0
1734407886.5164278,-467.7734375,-435.05859375,319.3359375,-477.05078125,0.0
1734407886.5203335,-483.3984375,-278.80859375,356.93359375,-1000.0,0.0
1734407886.5242395,52.24609375,-663.57421875,144.53125,-199.70703125,0.0
1734407886.5281453,367.1875,-813.96484375,119.62890625,-985.3515625,0.0
1734407886.5319264,56.640625,-363.76953125,319.82421875,991.69921875,0.0
1734407886.5358322,-392.08984375,-475.09765625,229.98046875,-174.31640625,0.0
1734407886.539738,-505.859375,-801.7578125,250.0,-1000.0,0.0
1734407886.5436437,-45.41015625,-524.4140625,317.87109375,-293.9453125,0.0
1734407886.5475495,331.0546875,-189.94140625,297.8515625,947.75390625,0.0
1734407886.5514553,152.83203125,-690.4296875,217.28515625,-920.41015625,0.0
1734407886.5553613,-334.47265625,-1000.0,-119.140625,66.40625,0.0
1734407886.559267,-575.1953125,-934.5703125,-82.03125,-1000.0,0.0
1734407886.5631728,-112.3046875,-566.89453125,297.36328125,-447.75390625,0.0
1734407886.5670786,336.42578125,-501.46484375,210.9375,873.53515625,0.0
1734407886.5709844,185.05859375,-914.55078125,83.0078125,-884.765625,0.0
1734407886.5748901,-308.59375,-937.98828125,126.953125,143.5546875,0.0
1734407886.578634,0.0,-804.6875,176.7578125,-1000.0,0.0
1734407886.5825398,0.0,-949.21875,149.90234375,-663.57421875,0.0
1734407886.5864456,0.0,-870.1171875,199.70703125,695.80078125,0.0
1734407886.5903513,0.0,-506.8359375,248.53515625,-837.890625,0.0
1734407886.594257,0.0,-591.796875,240.234375,160.64453125,0.0
1734407886.598163,0.0,-927.24609375,61.5234375,-1000.0,0.0
1734407886.6020687,0.0,-1000.0,1.46484375,-884.27734375,0.0
1734407886.6059744,0.0,-659.66796875,261.71875,414.55078125,0.0
1734407886.6098802,0.0,-301.26953125,343.26171875,-792.48046875,0.0
1734407886.613786,0.0,-686.5234375,27.83203125,191.89453125,0.0
1734407886.617692,0.0,-907.71484375,29.78515625,-1000.0,0.0
1734407886.6215978,0.0,-430.6640625,352.05078125,-1000.0,0.0
1734407886.6255093,187.98828125,-216.30859375,312.98828125,142.08984375,0.0
1734407886.629415,303.7109375,-537.109375,291.9921875,-781.25,0.0
1734407886.6333208,-156.25,-636.23046875,268.06640625,292.48046875,0.0
1734407886.6372266,-518.06640625,-659.1796875,221.6796875,-974.12109375,0.0
1734407886.6411324,-328.125,-777.83203125,232.91015625,-1000.0,0.0
1734407886.6450381,146.484375,-833.49609375,245.60546875,-35.15625,0.0
1734407886.648944,326.171875,-619.62890625,301.26953125,-807.6171875,0.0
1734407886.6528497,-75.68359375,-268.5546875,336.42578125,441.89453125,0.0
1734407886.6567554,-483.3984375,-448.2421875,267.08984375,-879.8828125,0.0
1734407886.6606615,-381.34765625,-683.10546875,264.16015625,-1000.0,0.0
1734407886.6645672,106.93359375,-671.875,299.31640625,-166.50390625,0.0
1734407886.668473,312.98828125,-345.703125,327.1484375,-872.55859375,0.0
1734407886.6723642,-45.8984375,-418.9453125,269.53125,652.34375,0.0
1734407886.6762702,-478.02734375,-740.72265625,245.60546875,-693.359375,0.0
1734407886.680176,-459.9609375,-392.578125,334.47265625,-1000.0,0.0
1734407886.6840818,48.828125,-63.4765625,361.328125,-201.171875,0.0
1734407886.6879876,329.1015625,-270.01953125,296.875,-930.17578125,0.0
1734407886.6918933,22.4609375,-825.68359375,168.9453125,829.58984375,0.0
1734407886.695799,-417.96875,-986.328125,166.50390625,-466.30859375,0.0
1734407886.699705,-490.234375,-622.55859375,306.15234375,-1000.0,0.0
1734407886.7036107,6.8359375,-615.234375,162.109375,-212.40234375,0.0
1734407886.7075164,334.9609375,-834.47265625,117.1875,-992.67578125,0.0
1734407886.7114222,73.73046875,-475.09765625,311.5234375,-998.046875,0.0
1734407886.715328,-351.07421875,-484.86328125,247.0703125,-157.71484375,0.0
1734407886.7191947,-513.18359375,-765.13671875,242.67578125,-1000.0,0.0
1734407886.7231004,-62.5,-592.28515625,287.59765625,-301.26953125,0.0
1734407886.7270062,305.17578125,-281.25,305.6640625,945.80078125,0.0
1734407886.730912,119.62890625,-438.96484375,260.7421875,-919.43359375,0.0
1734407886.7348177,-309.5703125,-802.24609375,143.5546875,61.03515625,0.0
1734407886.7387235,-490.234375,-1000.0,121.09375,-1000.0,0.0
1734407886.7426293,-98.6328125,-690.4296875,246.09375,-476.07421875,0.0
1734407886.746535,294.43359375,-294.43359375,332.51953125,852.05078125,0.0
1734407886.750441,185.05859375,-725.09765625,23.4375,-879.39453125,0.0
1734407886.7543468,-298.828125,-1000.0,-34.1796875,132.32421875,0.0
1734407886.7582526,-534.66796875,-954.1015625,195.80078125,-1000.0,0.0
1734407886.7621584,-124.51171875,-790.0390625,247.0703125,-700.68359375,0.0
1734407886.76676,0.0,-466.796875,322.265625,0.0,0.0
1734407886.770666,0.0,-331.0546875,310.05859375,0.0,0.0
1734407886.774572,0.0,-371.58203125,293.45703125,0.0,0.0
1734407886.7784777,0.0,-671.38671875,222.16796875,0.0,0.0
1734407886.7823834,0.0,-622.55859375,284.1796875,0.0,0.0
1734407886.7862892,0.0,-265.13671875,370.1171875,0.0,0.0
1734407886.790195,0.0,-459.47265625,357.421875,0.0,0.0
1734407886.7941008,0.0,-779.78515625,168.9453125,0.0,0.0
1734407886.7980065,0.0,-841.796875,139.6484375,0.0,0.0
1734407886.8019123,0.0,-222.65625,430.17578125,0.0,0.0
1734407886.805818,0.0,168.45703125,433.10546875,0.0,0.0
1734407886.809724,0.0,-318.84765625,336.42578125,0.0,0.0
1734407886.8137684,-143.06640625,-608.3984375,316.40625,272.94921875,0.0
1734407886.8176742,-530.76171875,-227.05078125,384.27734375,-979.00390625,0.0
1734407886.82158,-323.2421875,-42.48046875,413.57421875,-1000.0,0.0
1734407886.8254857,157.71484375,-120.60546875,417.96875,-97.16796875,0.0
1734407886.8293915,261.71875,-88.37890625,417.48046875,-817.87109375,0.0
1734407886.8332973,-118.1640625,-335.9375,326.171875,466.796875,0.0
1734407886.837203,-495.60546875,-743.65234375,273.92578125,-870.1171875,0.0
1734407886.8411088,-425.78125,-710.9375,327.1484375,-1000.0,0.0
1734407886.8450148,94.7265625,-235.3515625,379.8828125,-170.8984375,0.0
1734407886.8489206,337.40234375,57.12890625,413.0859375,-901.85546875,0.0
1734407886.8528264,-29.296875,-467.28515625,279.296875,639.16015625,0.0
1734407886.8567321,-450.68359375,-812.01171875,197.75390625,-669.921875,0.0
1734407886.860508,0.0,-451.66015625,315.4296875,-1000.0,0.0
1734407886.8644137,0.0,-135.7421875,359.375,-200.1953125,0.0
1734407886.8683195,0.0,-449.21875,264.16015625,-935.05859375,0.0
1734407886.8722253,0.0,-800.78125,219.7265625,843.75,0.0
1734407886.876131,0.0,-571.2890625,272.4609375,-441.89453125,0.0
1734407886.8800368,0.0,-684.08203125,279.296875,-1000.0,0.0
1734407886.8839426,0.0,-889.6484375,177.734375,-226.5625,0.0
1734407886.8878484,0.0,-668.9453125,212.40234375,999.0234375,0.0
1734407886.8917544,0.0,-252.9296875,346.19140625,-988.28125,0.0
1734407886.8956602,0.0,-279.296875,340.8203125,-139.16015625,0.0
1734407886.899566,0.0,-647.94921875,126.46484375,-1000.0,0.0
1734407886.9034717,0.0,-1000.0,-147.4609375,-311.5234375,0.0
1734407886.9072301,316.40625,-639.16015625,207.51953125,946.2890625,0.0
1734407886.911136,147.94921875,-131.8359375,380.37109375,-924.8046875,0.0
1734407886.9150417,-292.96875,-565.4296875,267.578125,37.59765625,0.0
1734407886.9189475,-528.3203125,-565.4296875,323.73046875,-1000.0,0.0
1734407886.9228532,-108.3984375,-231.4453125,343.26171875,-498.53515625,0.0
1734407886.926759,284.66796875,-384.765625,336.42578125,832.03125,0.0
1734407886.9306648,181.15234375,-825.68359375,149.4140625,-874.0234375,0.0
1734407886.9345706,-300.29296875,-791.015625,176.7578125,146.97265625,0.0
1734407886.9384763,-561.03515625,-162.109375,401.85546875,-1000.0,0.0
1734407886.942382,-131.34765625,-88.37890625,326.66015625,-661.62109375,0.0
1734407886.946288,314.453125,-604.00390625,233.3984375,708.984375,0.0
1734407886.950194,210.44921875,-485.3515625,312.5,-837.40234375,0.0
1734407886.9539378,-284.1796875,-139.6484375,341.30859375,168.45703125,0.0
1734407886.9578435,-546.38671875,-525.87890625,263.18359375,-1000.0,0.0
1734407886.9617493,-233.3984375,-684.5703125,292.48046875,-895.99609375,0.0
1734407886.965655,229.00390625,-160.15625,351.07421875,392.08984375,0.0
1734407886.9695609,281.73828125,-69.3359375,375.48828125,-791.9921875,0.0
1734407886.9734666,-146.484375,-700.1953125,83.984375,223.14453125,0.0
1734407886.9773724,-511.71875,-926.7578125,-40.0390625,-1000.0,0.0
1734407886.9812782,-314.453125,-562.5,284.1796875,-1000.0,0.0
1734407886.9851842,190.91796875,-526.85546875,281.25,138.18359375,0.0
1734407886.98909,313.96484375,-740.234375,156.73828125,-783.203125,0.0
1734407886.9929957,-148.4375,-719.7265625,166.50390625,313.96484375,0.0
1734407886.9969015,-546.38671875,-512.6953125,286.1328125,-956.0546875,0.0
1734407887.000822,-355.46875,-419.43359375,300.29296875,-1000.0,0.0
1734407887.0047278,119.140625,-609.375,271.484375,-83.984375,0.0
1734407887.0086336,287.109375,-542.48046875,297.36328125,-826.171875,0.0
1734407887.0125394,-110.83984375,-315.91796875,311.5234375,511.23046875,0.0
1734407887.0164452,-458.49609375,-506.8359375,264.6484375,-851.5625,0.0
1734407887.020351,-319.82421875,-845.703125,230.46875,-1000.0,0.0
1734407887.024257,98.14453125,-834.9609375,233.88671875,-91.796875,0.0
1734407887.0281627,291.015625,-406.73828125,319.82421875,-888.18359375,0.0
1734407887.0320685,-47.8515625,-350.09765625,274.4140625,661.1328125,0.0
1734407887.0359743,-438.96484375,-826.171875,106.93359375,-686.5234375,0.0
1734407887.03988,-425.29296875,-885.7421875,242.67578125,-1000.0,0.0
1734407887.0437858,51.26953125,-481.93359375,346.6796875,-205.56640625,0.0
1734407887.0476794,376.953125,-433.59375,0.0,-935.05859375,0.0
1734407887.0515854,28.80859375,-600.5859375,0.0,839.35546875,0.0
1734407887.0554912,-481.4453125,-372.55859375,0.0,-448.2421875,0.0
1734407887.059397,-518.06640625,-167.96875,0.0,-1000.0,0.0
1734407887.0633028,-1.953125,-226.07421875,0.0,-256.8359375,0.0
1734407887.0672085,375.0,-489.2578125,0.0,997.0703125,0.0
1734407887.0711143,115.72265625,-332.51953125,0.0,990.72265625,0.0
1734407887.07502,-435.05859375,-1.953125,0.0,-195.80078125,0.0
1734407887.0789258,-555.6640625,-458.984375,0.0,-1000.0,0.0
1734407887.0828316,-77.63671875,-675.78125,0.0,-387.20703125,0.0
1734407887.0867374,280.2734375,223.6328125,0.0,905.76171875,0.0
1734407887.0906434,137.20703125,449.70703125,0.0,-915.0390625,0.0
1734407887.094494,-350.5859375,-32.71484375,428.7109375,5.859375,0.0
1734407887.0983999,-600.5859375,-271.97265625,411.62109375,-1000.0,0.0
1734407887.1023057,-165.52734375,134.27734375,480.95703125,-580.078125,0.0
1734407887.1062114,322.265625,491.2109375,515.13671875,756.8359375,0.0
1734407887.1101172,196.77734375,170.41015625,470.21484375,-855.95703125,0.0
1734407887.114023,-351.5625,-309.5703125,387.6953125,127.44140625,0.0
1734407887.1179287,-641.11328125,-233.88671875,415.0390625,-1000.0,0.0
1734407887.1218345,-209.47265625,267.08984375,483.88671875,-787.59765625,0.0
1734407887.1257405,310.05859375,-320.80078125,312.98828125,545.8984375,0.0
1734407887.1296463,225.09765625,-389.16015625,382.32421875,-812.98828125,0.0
1734407887.133552,-302.734375,-14.16015625,428.7109375,151.85546875,0.0
1734407887.1374578,-628.41796875,-409.66796875,342.28515625,-1000.0,0.0
1734407887.1412873,451.171875,-181.640625,231.4453125,-933.59375,0.0
1734407887.145193,-75.1953125,274.90234375,213.37890625,330.078125,0.0
1734407887.1490989,-582.03125,390.625,159.66796875,-785.64453125,0.0
1734407887.1530046,-488.76953125,-141.6015625,200.68359375,213.37890625,0.0
1734407887.1569104,156.25,-699.70703125,226.5625,-1000.0,0.0
1734407887.1608162,492.1875,-651.3671875,197.75390625,-1000.0,0.0
1734407887.164722,3.90625,-276.85546875,126.953125,142.08984375,0.0
1734407887.1686277,-529.296875,-407.71484375,-116.2109375,-782.71484375,0.0
1734407887.1725335,-553.22265625,-946.77734375,14.6484375,340.33203125,0.0
1734407887.1764393,69.82421875,-553.7109375,256.8359375,-949.21875,0.0
1734407887.180345,500.48828125,-236.328125,140.13671875,-1000.0,0.0
1734407887.184251,50.29296875,-461.42578125,86.9140625,-39.55078125,0.0
1734407887.188117,0.0,-505.859375,0.0,-823.2421875,0.0
1734407887.1920228,0.0,-525.87890625,0.0,525.87890625,0.0
1734407887.1959286,0.0,-777.34375,0.0,-812.5,0.0
1734407887.1998343,0.0,-875.0,0.0,-1000.0,0.0
1734407887.2037401,0.0,-625.0,0.0,-157.2265625,0.0
1734407887.207646,0.0,-696.2890625,0.0,-885.7421875,0.0
1734407887.2115517,0.0,-1000.0,0.0,712.890625,0.0
1734407887.2154574,0.0,-1000.0,0.0,-626.46484375,0.0
1734407887.2193632,0.0,-849.609375,0.0,-1000.0,0.0
1734407887.223269,0.0,-500.48828125,0.0,-202.63671875,0.0
1734407887.2271748,0.0,-730.95703125,0.0,-939.453125,0.0
1734407887.2310808,0.0,-958.0078125,0.0,859.375,0.0
1734407887.2348902,-582.51953125,-785.64453125,158.69140625,-424.8046875,0.0
1734407887.2387962,-640.625,-602.5390625,239.74609375,-1000.0,0.0
1734407887.242702,53.22265625,-625.48828125,210.9375,-233.88671875,0.0
1734407887.2466078,497.55859375,-767.08984375,216.796875,995.60546875,0.0
1734407887.2505136,162.59765625,-551.26953125,250.9765625,-986.81640625,0.0
1734407887.2544193,-427.24609375,-798.33984375,177.734375,-139.6484375,0.0
1734407887.258325,-615.234375,-1000.0,30.2734375,-1000.0,0.0
1734407887.2622309,-7.8125,-984.375,-176.26953125,-323.73046875,0.0
1734407887.2661366,438.4765625,-576.171875,154.296875,935.05859375,0.0
1734407887.2700424,209.9609375,-532.71484375,269.04296875,-914.0625,0.0
1734407887.2739482,-369.62890625,-942.87109375,66.89453125,73.73046875,0.0
1734407887.277854,-654.78515625,-805.17578125,152.83203125,-1000.0,0.0
1734407887.2816064,-130.37109375,-447.265625,268.5546875,-516.11328125,0.0
1734407887.2855122,432.6171875,-349.609375,263.18359375,825.68359375,0.0
1734407887.289418,323.2421875,-730.95703125,171.38671875,-869.140625,0.0
1734407887.2933238,-308.59375,-871.58203125,144.04296875,153.80859375,0.0
1734407887.2972295,-651.3671875,-811.03515625,149.90234375,-1000.0,0.0
1734407887.3011353,-172.8515625,-885.7421875,184.5703125,-722.16796875,0.0
1734407887.305041,421.38671875,-969.7265625,-41.9921875,631.8359375,0.0
1734407887.3089468,377.44140625,-835.9375,-25.87890625,-825.1953125,0.0
1734407887.3128529,-259.27734375,-612.79296875,250.9765625,159.66796875,0.0
1734407887.3167586,-658.203125,-749.0234375,154.296875,-1000.0,0.0
1734407887.3206644,-255.37109375,-901.85546875,129.39453125,-930.6640625,0.0
1734407887.3245702,346.19140625,-541.50390625,278.3203125,336.42578125,0.0
1734407887.3283086,413.57421875,-499.51171875,268.06640625,-785.64453125,0.0
1734407887.3322144,-170.8984375,-925.29296875,113.76953125,218.26171875,0.0
1734407887.3361201,-666.015625,-903.3203125,153.3203125,-1000.0,0.0
1734407887.340026,-387.20703125,-519.53125,273.4375,-1000.0,0.0
1734407887.3439317,271.97265625,-332.51953125,299.31640625,112.3046875,0.0
1734407887.3478377,498.53515625,-726.5625,89.84375,-783.69140625,0.0
1734407887.3517435,-93.26171875,-995.1171875,-38.57421875,335.9375,0.0
1734407887.3556492,-643.5546875,-822.75390625,158.69140625,-948.73046875,0.0
1734407887.359555,-408.203125,-582.03125,247.0703125,-1000.0,0.0
1734407887.3634608,262.6953125,-733.88671875,12.6953125,-72.75390625,0.0
1734407887.3673666,484.86328125,-856.4453125,4.8828125,-828.125,0.0
1734407887.3712723,-55.17578125,-652.34375,202.63671875,536.62109375,0.0
1734407887.3753734,-562.98828125,-829.1015625,127.9296875,-804.6875,0.0
1734407887.3792791,-500.9765625,-931.15234375,134.765625,-1000.0,0.0
1734407887.383185,142.08984375,-747.55859375,155.2734375,-171.875,0.0
1734407887.3870907,475.09765625,-758.30078125,177.734375,-900.87890625,0.0
1734407887.3909965,2.44140625,-911.62109375,89.84375,753.90625,0.0
1734407887.3949022,-556.15234375,-981.4453125,-142.578125,-572.75390625,0.0
1734407887.398808,-589.35546875,-1000.0,-49.31640625,-1000.0,0.0
1734407887.4027138,65.91796875,-744.140625,194.82421875,-195.3125,0.0
1734407887.4066195,515.625,-631.34765625,161.62109375,-956.54296875,0.0
1734407887.4105256,137.20703125,-931.15234375,-111.328125,918.9453125,0.0
1734407887.4144313,-504.8828125,-1000.0,-121.58203125,-329.58984375,0.0
1734407887.418337,-638.671875,-918.9453125,102.5390625,-1000.0,0.0
1734407887.4222322,26.3671875,-817.3828125,164.0625,-219.23828125,0.0
1734407887.426138,507.32421875,-797.36328125,182.6171875,987.79296875,0.0
1734407887.4300437,182.6171875,-655.76171875,168.9453125,-951.171875,0.0
1734407887.4339495,-483.88671875,-708.0078125,169.43359375,-72.75390625,0.0
1734407887.4378552,-638.18359375,-901.3671875,85.44921875,-1000.0,0.0
1734407887.441761,14.6484375,-936.5234375,54.19921875,-262.6953125,0.0
1734407887.4456668,473.6328125,-866.2109375,159.66796875,916.015625,0.0
1734407887.4495726,248.046875,-919.43359375,181.640625,-909.1796875,0.0
1734407887.4534786,-376.953125,-983.3984375,41.50390625,83.0078125,0.0
1734407887.4573843,-669.43359375,-807.12890625,114.74609375,-1000.0,0.0
1734407887.4612901,-148.4375,-369.62890625,352.05078125,-579.58984375,0.0
1734407887.465196,408.203125,-2.44140625,411.62109375,770.01953125,0.0
1734407887.4690673,344.7265625,-520.99609375,142.08984375,-856.4453125,0.0
1734407887.472973,-287.59765625,-898.92578125,27.34375,141.6015625,0.0
1734407887.476879,-709.9609375,-489.74609375,334.9609375,-1000.0,0.0
1734407887.4807847,-221.6796875,-298.828125,341.30859375,-790.0390625,0.0
1734407887.4846904,409.66796875,-294.921875,362.79296875,545.41015625,0.0
1734407887.4885964,377.9296875,-473.14453125,343.75,-812.01171875,0.0
1734407887.4925022,-258.7890625,-576.66015625,302.734375,157.2265625,0.0
1734407887.496408,-692.3828125,-465.33203125,318.84765625,-1000.0,0.0
1734407887.5003138,-270.01953125,-748.53515625,159.66796875,-947.75390625,0.0
1734407887.5042195,363.28125,-543.9453125,231.4453125,304.19921875,0.0
1734407887.5081253,417.48046875,-190.91796875,371.58203125,-783.203125,0.0
1734407887.512031,-158.203125,-627.44140625,245.1171875,223.14453125,0.0
1734407887.5164607,0.0,-724.609375,0.0,-1000.0,0.0
1734407887.5203667,0.0,-306.15234375,0.0,-1000.0,0.0
1734407887.5242724,0.0,73.73046875,0.0,65.91796875,0.0
1734407887.5281782,0.0,-187.5,0.0,-786.1328125,0.0
1734407887.532084,0.0,-619.140625,0.0,354.98046875,0.0
1734407887.5359898,0.0,-851.5625,0.0,-938.96484375,0.0
1734407887.5398955,0.0,-622.0703125,0.0,-1000.0,0.0
1734407887.5438013,0.0,-491.69921875,0.0,-96.6796875,0.0
1734407887.547707,0.0,-945.80078125,0.0,-838.37890625,0.0
1734407887.5516129,0.0,-643.5546875,0.0,565.4296875,0.0
1734407887.5555186,0.0,-512.6953125,0.0,-781.73828125,0.0
1734407887.5594244,0.0,-850.5859375,0.0,-1000.0,0.0
1734407887.5632768,-649.90234375,-577.1484375,0.0,-171.38671875,0.0
1734407887.5671825,-381.34765625,-197.75390625,0.0,-913.57421875,0.0
1734407887.5710883,284.1796875,-529.78515625,0.0,796.38671875,0.0
1734407887.574994,475.5859375,-914.0625,0.0,-514.6484375,0.0
1734407887.5788999,-88.37890625,-907.2265625,0.0,-1000.0,0.0
1734407887.5828056,-638.671875,-903.80859375,0.0,-187.01171875,0.0
1734407887.5867116,-494.140625,-973.14453125,0.0,-974.12109375,0.0
1734407887.5906174,223.14453125,-991.2109375,0.0,976.07421875,0.0
1734407887.5945232,528.3203125,-983.3984375,0.0,-220.703125,0.0
1734407887.598429,-60.546875,-906.25,0.0,-1000.0,0.0
1734407887.6023347,-596.19140625,-955.56640625,0.0,-202.63671875,0.0
1734407887.6062405,-487.3046875,-959.47265625,0.0,991.69921875,0.0
1734407887.6095188,142.578125,-902.34375,153.80859375,-945.80078125,0.0
1734407887.6134245,498.53515625,-974.609375,302.734375,11.23046875,0.0
1734407887.6173303,68.359375,-1000.0,154.296875,-1000.0,0.0
1734407887.621236,-542.96875,-847.65625,20.01953125,-340.33203125,0.0
1734407887.6251419,-580.078125,-653.3203125,61.5234375,932.12890625,0.0
1734407887.6290476,89.35546875,-936.03515625,106.93359375,-905.76171875,0.0
1734407887.6329536,488.76953125,-1000.0,101.5625,134.27734375,0.0
1734407887.6368594,107.91015625,-1000.0,-10.25390625,-1000.0,0.0
1734407887.6407652,-488.28125,-845.21484375,4.8828125,-565.91796875,0.0
1734407887.644671,-598.14453125,-386.71875,103.515625,790.52734375,0.0
1734407887.6485767,58.59375,-676.26953125,38.0859375,-859.86328125,0.0
1734407887.6524825,497.55859375,-994.62890625,36.62109375,157.2265625,0.0
1734407887.6562605,-685.546875,-747.0703125,166.9921875,-1000.0,0.0
1734407887.6601663,-204.1015625,-516.6015625,208.0078125,-786.62109375,0.0
1734407887.664072,383.7890625,-617.1875,229.00390625,552.734375,0.0
1734407887.6679778,349.12109375,-657.2265625,212.40234375,-812.01171875,0.0
1734407887.6718836,-225.5859375,-772.94921875,98.6328125,169.43359375,0.0
1734407887.6757894,-644.53125,-1000.0,76.171875,-1000.0,0.0
1734407887.6796951,-266.11328125,-1000.0,-124.0234375,-957.03125,0.0
1734407887.683601,322.75390625,-813.4765625,-76.66015625,289.0625,0.0
1734407887.6875067,369.62890625,-541.9921875,241.69921875,-783.203125,0.0
1734407887.6914124,-189.94140625,-772.94921875,64.94140625,232.421875,0.0
1734407887.6953182,-660.15625,-1000.0,-37.59765625,-1000.0,0.0
1734407887.6992242,-415.0390625,-817.87109375,153.3203125,-1000.0,0.0
1734407887.7029805,233.3984375,-328.61328125,267.08984375,62.5,0.0
1734407887.7068863,484.375,-504.8828125,166.9921875,-787.59765625,0.0
1734407887.710792,-75.68359375,-957.51953125,94.23828125,367.67578125,0.0
1734407887.714698,-607.421875,-835.44921875,123.53515625,-930.6640625,0.0
1734407887.7186038,-428.22265625,-654.296875,197.75390625,-1000.0,0.0
1734407887.7225096,204.58984375,-809.5703125,43.9453125,-110.3515625,0.0
1734407887.7264154,453.61328125,-957.03125,-50.78125,-841.30859375,0.0
1734407887.7303212,-66.40625,-918.9453125,69.82421875,562.98828125,0.0
1734407887.734227,-571.77734375,-870.1171875,104.98046875,-782.71484375,0.0
1734407887.7381327,-481.93359375,-895.99609375,0.0,-1000.0,0.0
1734407887.7420385,83.0078125,-720.21484375,41.50390625,-187.5,0.0
1734407887.7459443,399.4140625,-464.84375,229.98046875,-912.109375,0.0
1734407887.7498777,32.2265625,-637.6953125,139.16015625,780.76171875,0.0
1734407887.7537835,-504.39453125,-881.34765625,57.12890625,-539.0625,0.0
1734407887.7576892,-568.84765625,-852.5390625,103.02734375,-1000.0,0.0
1734407887.761595,25.390625,-516.11328125,206.0546875,-196.2890625,0.0
1734407887.7655008,447.75390625,-507.32421875,202.63671875,-966.30859375,0.0
1734407887.7694066,110.3515625,-898.4375,-17.08984375,944.82421875,0.0
1734407887.7733126,-477.5390625,-988.28125,-35.64453125,-273.92578125,0.0
1734407887.7772183,-616.69921875,-784.1796875,169.43359375,-1000.0,0.0
1734407887.781124,-28.80859375,-662.59765625,174.31640625,-259.765625,0.0
1734407887.78503,428.22265625,-856.4453125,-50.29296875,973.6328125,0.0
1734407887.7889357,147.4609375,-1000.0,-67.3828125,-950.1953125,0.0
1734407887.7928414,-431.640625,-947.265625,82.51953125,-39.0625,0.0
1734407887.7967377,-595.703125,-959.47265625,79.1015625,-1000.0,0.0
1734407887.8006434,-71.2890625,-813.96484375,140.13671875,-397.94921875,0.0
1734407887.8045492,389.16015625,-504.39453125,208.49609375,896.484375,0.0
1734407887.808455,210.9375,-519.04296875,206.54296875,-895.5078125,0.0
1734407887.812361,-323.73046875,-771.484375,33.69140625,113.28125,0.0
1734407887.8162668,-557.6171875,-1000.0,-77.1484375,-1000.0,0.0
1734407887.8201725,-135.25390625,-867.67578125,106.4453125,-614.74609375,0.0
1734407887.8240783,305.17578125,-536.62109375,241.2109375,736.328125,0.0
1734407887.827984,244.62890625,-722.65625,-13.671875,-847.65625,0.0
1734407887.8318899,-259.765625,-1000.0,-255.37109375,157.2265625,0.0
1734407887.8357956,-614.2578125,-851.5625,55.6640625,-1000.0,0.0
1734407887.8397014,-198.2421875,-601.07421875,183.10546875,-825.68359375,0.0
1734407887.8435736,331.54296875,-768.06640625,0.0,494.62890625,0.0
1734407887.8474793,267.578125,-816.89453125,0.0,-805.17578125,0.0
1734407887.851385,-274.90234375,-708.49609375,0.0,170.8984375,0.0
1734407887.855291,-595.703125,-858.88671875,0.0,-1000.0,0.0
1734407887.8591967,-272.4609375,-950.1953125,0.0,-980.46875,0.0
1734407887.8631024,241.2109375,-987.79296875,0.0,241.69921875,0.0
1734407887.8670082,316.89453125,-937.98828125,0.0,-782.2265625,0.0
1734407887.870914,-172.8515625,-912.109375,0.0,246.58203125,0.0
1734407887.8748198,-568.359375,-996.09375,0.0,-996.09375,0.0
1734407887.8787255,-385.7421875,-883.7890625,0.0,-1000.0,0.0
1734407887.8826313,163.57421875,-724.609375,0.0,2.9296875,0.0
1734407887.886537,347.16796875,-855.46875,0.0,-796.38671875,0.0
1734407887.8907883,-131.8359375,-899.90234375,100.09765625,368.1640625,0.0
1734407887.894694,-552.734375,-705.078125,138.18359375,-928.22265625,0.0
1734407887.8985999,-394.53125,-547.8515625,190.91796875,-1000.0,0.0
1734407887.9025056,165.0390625,-697.265625,126.953125,-150.87890625,0.0
1734407887.9064114,374.0234375,-751.953125,134.765625,-845.703125,0.0
1734407887.9103172,-76.171875,-817.3828125,70.3125,549.8046875,0.0
1734407887.914223,-550.29296875,-947.75390625,97.16796875,-798.33984375,0.0
1734407887.9181287,-467.7734375,-913.0859375,0.0,-1000.0,0.0
1734407887.9220347,111.328125,-897.94921875,-95.703125,-206.0546875,0.0
1734407887.9259405,380.37109375,-502.44140625,217.28515625,-904.296875,0.0
1734407887.9298463,-20.5078125,-416.9921875,165.0390625,740.234375,0.0
1734407887.933752,-513.18359375,-779.78515625,57.6171875,-591.796875,0.0
1734407887.9377882,0.0,-819.3359375,0.0,-1000.0,0.0
1734407887.941694,0.0,-442.87109375,0.0,-247.0703125,0.0
1734407887.9455998,0.0,-327.1484375,0.0,-963.8671875,0.0
1734407887.9495056,0.0,-751.953125,0.0,886.23046875,0.0
1734407887.9534113,0.0,-903.80859375,0.0,-383.7890625,0.0
1734407887.957317,0.0,-872.55859375,0.0,-1000.0,0.0
1734407887.961223,0.0,-933.59375,0.0,-315.91796875,0.0
1734407887.9651287,0.0,-847.16796875,0.0,954.1015625,0.0
1734407887.9690344,0.0,-554.6875,0.0,-962.890625,0.0
1734407887.9729402,0.0,-525.390625,0.0,-104.98046875,0.0
1734407887.976846,0.0,-946.77734375,0.0,-1000.0,0.0
1734407887.980752,0.0,-824.21875,0.0,-494.62890625,0.0
1734407887.9847586,382.32421875,-333.984375,253.41796875,823.2421875,0.0
1734407887.9886644,208.49609375,-248.53515625,268.06640625,-879.8828125,0.0
1734407887.9925702,-338.8671875,-640.625,123.046875,69.3359375,0.0
1734407887.996476,-623.046875,-1000.0,-110.83984375,-1000.0,0.0
1734407888.0003817,-184.08203125,-571.2890625,134.765625,-688.4765625,0.0
1734407888.0042875,337.890625,-408.69140625,291.9921875,652.34375,0.0
1734407888.0081933,299.31640625,-806.15234375,74.70703125,-832.51953125,0.0
1734407888.012099,-288.57421875,-846.19140625,88.8671875,136.71875,0.0
1734407888.0160048,-664.0625,-742.67578125,173.33984375,-1000.0,0.0
1734407888.0199106,-227.05078125,-460.44921875,280.2734375,-871.09375,0.0
1734407888.0238163,388.671875,-507.32421875,108.3984375,428.7109375,0.0
1734407888.0277221,371.58203125,-812.98828125,-26.3671875,-795.41015625,0.0
1734407888.0316732,-286.1328125,-462.890625,263.671875,156.25,0.0
1734407888.035579,-686.03515625,-457.51953125,220.21484375,-1000.0,0.0
1734407888.0394847,-338.37890625,-604.00390625,244.62890625,-1000.0,0.0
1734407888.0433905,268.06640625,-330.078125,316.40625,156.25,0.0
1734407888.0472963,397.94921875,-115.72265625,273.92578125,-779.78515625,0.0
1734407888.051202,-142.08984375,-688.4765625,120.60546875,243.65234375,0.0
1734407888.0551078,-636.23046875,-979.00390625,143.5546875,-993.65234375,0.0
1734407888.0590136,-427.24609375,-495.60546875,297.8515625,-1000.0,0.0
1734407888.0629194,195.3125,-63.96484375,330.078125,-51.7578125,0.0
1734407888.0668252,413.57421875,-133.30078125,284.66796875,-802.24609375,0.0
1734407888.0707312,-113.76953125,-716.796875,55.6640625,386.71875,0.0
1734407888.074637,-627.44140625,-1000.0,94.23828125,-926.26953125,0.0
1734407888.0783744,0.0,-543.45703125,296.875,-1000.0,0.0
1734407888.0822802,0.0,-175.78125,310.05859375,-160.64453125,0.0
1734407888.086186,0.0,-456.54296875,273.92578125,-853.02734375,0.0
1734407888.0900917,0.0,-385.25390625,291.50390625,579.58984375,0.0
1734407888.0939977,0.0,-272.94921875,293.45703125,-773.92578125,0.0
1734407888.0979035,0.0,-731.93359375,177.734375,-1000.0,0.0
1734407888.1018093,0.0,-673.33984375,228.515625,-201.171875,0.0
1734407888.105715,0.0,-9.27734375,379.39453125,-919.43359375,0.0
1734407888.1096208,0.0,-49.8046875,341.30859375,793.45703125,0.0
1734407888.1135266,0.0,-635.25390625,64.453125,-520.01953125,0.0
1734407888.1174324,0.0,-850.09765625,23.92578125,-1000.0,0.0
1734407888.1213381,0.0,-140.13671875,382.8125,-208.0078125,0.0
1734407888.1252403,458.49609375,199.70703125,392.578125,-979.00390625,0.0
1734407888.129146,100.09765625,-322.75390625,285.15625,967.28515625,0.0
1734407888.1330519,-512.20703125,-726.5625,240.72265625,-225.09765625,0.0
1734407888.1369576,-645.5078125,-366.2109375,316.40625,-1000.0,0.0
1734407888.1408634,-15.625,54.19921875,366.2109375,-284.1796875,0.0
1734407888.1447692,475.5859375,-297.36328125,309.5703125,960.44921875,0.0
1734407888.148675,207.51953125,-528.3203125,281.25,-937.98828125,0.0
1734407888.1525807,-419.43359375,-257.8125,312.98828125,-3.90625,0.0
1734407888.1564865,-670.8984375,-291.015625,282.2265625,-1000.0,0.0
1734407888.1603923,-91.30859375,-644.04296875,208.0078125,-426.26953125,0.0
1734407888.164298,434.5703125,-711.9140625,252.44140625,876.46484375,0.0
1734407888.168204,250.0,-274.4140625,329.1015625,-888.18359375,0.0
1734407888.1721096,0.0,-358.88671875,267.08984375,129.8828125,0.0
1734407888.1760154,0.0,-608.3984375,244.62890625,-1000.0,0.0
1734407888.1799212,0.0,-233.3984375,330.56640625,-633.30078125,0.0
1734407888.183827,0.0,35.64453125,342.7734375,717.7734375,0.0
1734407888.1877327,0.0,-335.44921875,239.2578125,-844.23828125,0.0
1734407888.1916387,0.0,-915.52734375,120.1171875,169.43359375,0.0
1734407888.1955445,0.0,-1000.0,136.71875,-1000.0,0.0
1734407888.1994503,0.0,-514.6484375,297.36328125,-824.21875,0.0
1734407888.203356,0.0,-473.14453125,145.01953125,495.60546875,0.0
1734407888.2072618,0.0,-865.234375,10.25390625,-805.17578125,0.0
1734407888.2111676,0.0,-573.2421875,221.6796875,213.8671875,0.0
1734407888.2150733,0.0,-492.1875,210.44921875,-1000.0,0.0
1734407888.2191567,-303.7109375,-704.1015625,123.046875,-977.5390625,0.0
1734407888.2230625,297.8515625,-567.87109375,160.64453125,253.90625,0.0
1734407888.2269683,389.6484375,-308.10546875,248.53515625,-788.0859375,0.0
1734407888.2308743,-161.62109375,-474.609375,172.8515625,329.58984375,0.0
1734407888.23478,-627.44140625,-855.46875,120.60546875,-958.984375,0.0
1734407888.2386858,-360.3515625,-1000.0,105.95703125,-1000.0,0.0
1734407888.2425916,272.4609375,-634.27734375,197.265625,26.3671875,0.0
1734407888.2464974,449.70703125,-478.02734375,253.90625,-815.91796875,0.0
1734407888.2504032,-87.40234375,-903.80859375,-114.74609375,501.953125,0.0
1734407888.254309,-641.11328125,-863.28125,-70.80078125,-823.2421875,0.0
1734407888.2582147,-495.1171875,-692.3828125,234.375,-1000.0,0.0
1734407888.2621205,189.453125,-723.14453125,182.6171875,-143.06640625,0.0
1734407888.2663643,468.75,-542.96875,242.1875,-863.28125,0.0
1734407888.27027,-42.48046875,-344.7265625,255.37109375,623.53515625,0.0
1734407888.274176,-588.37890625,-284.1796875,281.73828125,-720.703125,0.0
1734407888.2780817,-530.2734375,-357.91015625,296.875,-1000.0,0.0
1734407888.2819874,95.703125,-332.03125,306.640625,-205.56640625,0.0
1734407888.2858932,457.03125,-228.515625,345.703125,-916.9921875,0.0
1734407888.289799,30.76171875,-371.58203125,292.96875,781.25,0.0
1734407888.2937047,-557.6171875,-720.21484375,204.1015625,-533.69140625,0.0
1734407888.2976108,-634.765625,-605.95703125,279.296875,-1000.0,0.0
1734407888.3015165,-0.48828125,182.12890625,453.61328125,-250.0,0.0
1734407888.3054223,471.6796875,364.2578125,466.30859375,-982.91015625,0.0
1734407888.309328,144.04296875,-339.84375,257.8125,937.5,0.0
1734407888.3131363,-480.95703125,-641.11328125,267.578125,-288.0859375,0.0
1734407888.317042,-696.2890625,245.60546875,529.78515625,-1000.0,0.0
1734407888.320948,-68.359375,680.17578125,543.45703125,-402.83203125,0.0
1734407888.3248537,420.41015625,399.90234375,524.90234375,901.85546875,0.0
1734407888.3287594,155.2734375,367.1875,514.16015625,-937.01171875,0.0
1734407888.3326652,-432.6171875,277.83203125,469.7265625,-79.58984375,0.0
1734407888.336571,-651.3671875,48.828125,467.7734375,-1000.0,0.0
1734407888.3404768,-74.70703125,150.390625,522.4609375,-562.98828125,0.0
1734407888.3443825,429.19921875,596.19140625,569.82421875,762.20703125,0.0
1734407888.3482883,274.90234375,863.28125,552.734375,-861.81640625,0.0
1734407888.352194,-309.5703125,282.2265625,442.87109375,98.6328125,0.0
1734407888.3561,-685.546875,-103.02734375,408.69140625,-1000.0,0.0
1734407888.3599086,-195.80078125,310.05859375,507.32421875,-726.07421875,0.0
1734407888.3638144,431.640625,559.08203125,524.4140625,609.86328125,0.0
1734407888.3677201,374.0234375,372.55859375,458.984375,-823.73046875,0.0
1734407888.371626,-274.4140625,-430.6640625,350.09765625,155.76171875,0.0
1734407888.3755317,-740.234375,-274.90234375,430.17578125,-1000.0,0.0
1734407888.3794374,-298.33984375,289.0625,486.81640625,-903.3203125,0.0
1734407888.3833432,382.32421875,82.03125,415.52734375,378.90625,0.0
1734407888.387249,412.109375,-232.421875,414.0625,-791.015625,0.0
1734407888.3911548,-265.13671875,107.421875,471.6796875,184.08203125,0.0
1734407888.3950605,-696.77734375,424.31640625,470.21484375,-1000.0,0.0
1734407888.3989666,-305.6640625,184.5703125,403.3203125,-1000.0,0.0
1734407888.4028723,328.125,342.28515625,439.94140625,149.90234375,0.0
1734407888.4066377,428.7109375,656.73828125,490.234375,-785.15625,0.0
1734407888.4105434,-186.03515625,444.82421875,426.7578125,320.80078125,0.0
1734407888.4144495,-679.6875,23.4375,408.203125,-960.9375,0.0
1734407888.4183552,-434.08203125,-37.59765625,402.83203125,-1000.0,0.0
1734407888.422261,257.32421875,197.75390625,388.18359375,-29.296875,0.0
1734407888.4261668,506.34765625,84.9609375,393.5546875,-824.21875,0.0
1734407888.4300725,-63.96484375,-618.1640625,130.859375,520.99609375,0.0
1734407888.4339783,-650.87890625,-731.93359375,132.32421875,-813.96484375,0.0
1734407888.437884,-515.13671875,-51.26953125,391.6015625,-1000.0,0.0
1734407888.4417899,238.76953125,130.37109375,313.96484375,-144.53125,0.0
1734407888.4456956,549.8046875,-249.0234375,255.37109375,-880.37109375,0.0
1734407888.4496014,13.671875,-417.48046875,227.5390625,688.4765625,0.0
1734407888.4533439,-576.66015625,-359.375,218.75,-644.53125,0.0
1734407888.4572496,-555.6640625,-612.3046875,192.3828125,-1000.0,0.0
1734407888.4611554,124.0234375,-658.69140625,173.828125,-185.05859375,0.0
1734407888.4650612,514.16015625,-350.5859375,206.54296875,-947.75390625,0.0
1734407888.468967,72.75390625,-566.89453125,138.671875,891.11328125,0.0
1734407888.4728727,-513.671875,-948.2421875,-91.796875,-354.98046875,0.0
1734407888.4767787,-601.5625,-1000.0,-287.109375,-1000.0,0.0
1734407888.4806845,-1.953125,-723.14453125,48.828125,-218.26171875,0.0
1734407888.4845903,485.83984375,-244.62890625,278.3203125,-995.1171875,0.0
1734407888.488496,150.87890625,-548.33984375,62.98828125,-990.234375,0.0
1734407888.4924018,-494.140625,-972.65625,0.0,-129.8828125,0.0
1734407888.4963076,-684.08203125,-781.73828125,158.69140625,-1000.0,0.0
1734407888.500228,0.0,-283.69140625,254.8828125,-320.3125,0.0
1734407888.5041337,0.0,-377.44140625,229.98046875,940.91796875,0.0
1734407888.5080395,0.0,-512.6953125,192.87109375,-921.38671875,0.0
1734407888.5119452,0.0,-467.28515625,187.98828125,47.36328125,0.0
1734407888.515851,0.0,-533.203125,184.5703125,-1000.0,0.0
1734407888.519757,0.0,-758.30078125,175.78125,-514.6484375,0.0
1734407888.5236628,0.0,-675.78125,224.12109375,815.91796875,0.0
1734407888.5275686,0.0,-276.85546875,253.90625,-871.09375,0.0
1734407888.5314744,0.0,-553.22265625,159.1796875,127.44140625,0.0
1734407888.5353801,0.0,-949.70703125,-52.24609375,-1000.0,0.0
1734407888.539286,0.0,-804.19921875,54.19921875,-760.25390625,0.0
1734407888.5431917,0.0,-296.875,311.03515625,575.68359375,0.0
1734407888.5470831,377.44140625,-195.3125,257.32421875,-818.359375,0.0
1734407888.550989,-287.59765625,-709.9609375,140.625,159.66796875,0.0
1734407888.5548947,-737.3046875,-627.9296875,219.7265625,-1000.0,0.0
1734407888.5588007,-284.66796875,-83.984375,327.1484375,-904.296875,0.0
1734407888.5627065,401.85546875,-123.046875,251.46484375,374.51171875,0.0
1734407888.5666122,465.33203125,-626.953125,167.96875,-791.50390625,0.0
1734407888.570518,-221.6796875,-742.67578125,157.2265625,220.703125,0.0
1734407888.5744238,-740.234375,-511.71875,210.9375,-1000.0,0.0
1734407888.5783296,-343.75,-687.01171875,48.828125,-1000.0,0.0
1734407888.5822353,369.62890625,-882.32421875,-21.484375,217.28515625,0.0
1734407888.586141,402.34375,-435.05859375,227.05078125,-890.13671875,0.0
1734407888.590047,-214.35546875,-592.28515625,72.265625,188.96484375,0.0
1734407888.5938952,-656.73828125,-980.46875,-110.3515625,-913.0859375,0.0
1734407888.5978012,-426.7578125,-776.3671875,35.64453125,-1000.0,0.0
1734407888.601707,280.76171875,-369.62890625,192.87109375,-37.59765625,0.0
1734407888.6056128,512.6953125,-399.4140625,159.66796875,-825.68359375,0.0
1734407888.6095185,-89.35546875,-835.9375,-39.0625,524.90234375,0.0
1734407888.6134243,-670.8984375,-1000.0,-145.5078125,-807.6171875,0.0
1734407888.61733,-532.71484375,-954.58984375,66.40625,-1000.0,0.0
1734407888.6212358,188.96484375,-584.9609375,213.37890625,-164.55078125,0.0
1734407888.6251416,568.84765625,-738.28125,-83.49609375,-881.34765625,0.0
1734407888.6290474,19.53125,-895.99609375,-103.02734375,684.08203125,0.0
1734407888.6329532,-645.99609375,-838.37890625,134.27734375,-656.25,0.0
1734407888.636859,-631.34765625,-928.7109375,131.34765625,-1000.0,0.0
1734407888.6408947,93.75,-489.2578125,0.0,-214.35546875,0.0
1734407888.6448004,517.578125,72.265625,0.0,-933.59375,0.0
1734407888.6487062,65.4296875,-96.19140625,0.0,825.68359375,0.0
1734407888.652612,-576.171875,-590.33203125,0.0,-466.30859375,0.0
1734407888.6565177,-665.0390625,-498.53515625,0.0,-1000.0,0.0
1734407888.6604235,35.15625,-104.00390625,0.0,-267.578125,0.0
1734407888.6643293,533.69140625,300.78125,0.0,988.28125,0.0
1734407888.668235,180.6640625,82.51953125,0.0,999.0234375,0.0
1734407888.6721408,-538.0859375,-518.06640625,0.0,-174.31640625,0.0
1734407888.6760466,-796.875,173.33984375,0.0,-1000.0,0.0
1734407888.6799526,-81.0546875,816.89453125,0.0,-412.109375,0.0
1734407888.6838584,538.0859375,465.33203125,0.0,883.30078125,0.0
1734407888.687676,0.0,257.32421875,416.50390625,-900.87890625,0.0
1734407888.691582,0.0,408.69140625,457.51953125,41.9921875,0.0
1734407888.6954877,0.0,335.44921875,446.77734375,-1000.0,0.0
1734407888.6993935,0.0,123.53515625,452.1484375,-568.359375,0.0
1734407888.7032993,0.0,267.08984375,473.14453125,768.5546875,0.0
1734407888.707205,0.0,363.76953125,460.44921875,-858.3984375,0.0
1734407888.7111108,0.0,-67.87109375,371.58203125,135.25390625,0.0
1734407888.7150166,0.0,-401.3671875,382.8125,-1000.0,0.0
1734407888.7189224,0.0,25.390625,452.63671875,-772.94921875,0.0
1734407888.7228281,0.0,483.3984375,456.54296875,562.01171875,0.0
1734407888.726734,0.0,134.27734375,405.76171875,-815.91796875,0.0
1734407888.7306397,0.0,-628.41796875,161.1328125,174.31640625,0.0
1734407888.7344234,-809.08203125,-594.7265625,209.47265625,-1000.0,0.0
1734407888.7383294,-356.4453125,75.68359375,395.5078125,-909.1796875,0.0
1734407888.7422352,415.0390625,-49.31640625,304.19921875,369.140625,0.0
1734407888.746141,484.375,-318.84765625,277.83203125,-792.96875,0.0
1734407888.7500467,-243.1640625,-369.62890625,194.3359375,271.484375,0.0
1734407888.7539525,-769.04296875,-817.3828125,119.62890625,-1000.0,0.0
1734407888.7578583,-415.52734375,-979.98046875,45.8984375,-1000.0,0.0
1734407888.761764,348.14453125,-969.7265625,-117.1875,211.9140625,0.0
1734407888.7656698,535.64453125,-823.2421875,49.8046875,-796.875,0.0
1734407888.7695756,-139.6484375,-762.20703125,101.07421875,421.875,0.0
1734407888.7734814,-716.796875,-965.33203125,-156.25,-897.94921875,0.0
1734407888.7773871,-477.5390625,-945.3125,-140.625,-1000.0,0.0
1734407888.781176,272.4609375,-750.9765625,47.8515625,19.04296875,0.0
1734407888.7850819,596.6796875,-804.6875,-23.4375,-849.609375,0.0
1734407888.7889876,3.90625,-995.1171875,-309.08203125,650.87890625,0.0
1734407888.7928934,-684.5703125,-1000.0,-400.87890625,-724.609375,0.0
1734407888.7967992,-529.78515625,-994.62890625,-364.2578125,-1000.0,0.0
1734407888.800705,276.85546875,-1000.0,-404.296875,74.70703125,0.0
1734407888.8046107,598.14453125,-1000.0,-560.546875,-934.5703125,0.0
1734407888.8085165,30.76171875,-1000.0,-648.4375,836.42578125,0.0
1734407888.8124225,-687.01171875,-1000.0,-475.09765625,-453.61328125,0.0
1734407888.8163283,-651.85546875,-1000.0,-479.00390625,-1000.0,0.0
1734407888.820234,159.66796875,-1000.0,-524.4140625,-73.73046875,0.0
1734407888.8241398,609.86328125,-1000.0,-465.8203125,-978.02734375,0.0
1734407888.8279004,115.234375,-1000.0,-450.68359375,974.12109375,0.0
1734407888.8318062,-606.93359375,-1000.0,-569.82421875,-197.75390625,0.0
1734407888.835712,-740.72265625,-1000.0,-579.58984375,-1000.0,0.0
1734407888.8396177,-1.953125,-1000.0,-457.03125,-207.51953125,0.0
1734407888.8435235,568.359375,-1000.0,-382.8125,986.328125,0.0
1734407888.8474293,250.48828125,-1000.0,-594.23828125,-937.5,0.0
1734407888.851335,-481.4453125,-999.51171875,-710.44921875,49.8046875,0.0
1734407888.8552408,-776.3671875,-1000.0,-467.7734375,-1000.0,0.0
1734407888.8591468,-67.87109375,-995.60546875,-402.34375,-339.35546875,0.0
1734407888.8630526,604.98046875,-990.234375,-422.36328125,939.94140625,0.0
1734407888.8669584,325.1953125,-1000.0,-477.05078125,-910.15625,0.0
1734407888.8708642,-494.62890625,-995.60546875,-416.9921875,111.81640625,0.0
1734407888.874772,-828.61328125,-1000.0,-364.2578125,-1000.0,0.0
1734407888.8786778,-169.921875,-987.79296875,-333.49609375,-572.75390625,0.0
1734407888.8825836,501.46484375,-855.46875,-103.515625,774.90234375,0.0
1734407888.8864894,367.1875,-872.55859375,12.6953125,-858.88671875,0.0
1734407888.8903952,-388.671875,-974.12109375,-213.37890625,129.39453125,0.0
1734407888.894301,-828.125,-1000.0,-397.4609375,-1000.0,0.0
1734407888.8982067,-276.85546875,-910.64453125,-127.44140625,-838.8671875,0.0
1734407888.9021125,452.63671875,-570.80078125,163.0859375,473.14453125,0.0
1734407888.9060185,456.0546875,-605.95703125,100.09765625,-801.7578125,0.0
1734407888.9099243,-289.55078125,-910.64453125,-164.55078125,146.484375,0.0
1734407888.91383,-838.37890625,-1000.0,-108.3984375,-1000.0,0.0
1734407888.9177358,-384.27734375,-852.05078125,175.29296875,-988.76953125,0.0
1734407888.9216294,414.55078125,-547.8515625,181.15234375,221.19140625,0.0
1734407888.9255352,507.8125,-629.39453125,142.08984375,-780.76171875,0.0
1734407888.929441,-252.44140625,-618.65234375,164.55078125,204.1015625,0.0
1734407888.9333467,-817.3828125,-687.98828125,130.859375,-1000.0,0.0
1734407888.9372525,-430.17578125,-888.671875,92.28515625,-1000.0,0.0
1734407888.9411583,361.81640625,-964.35546875,82.03125,68.359375,0.0
1734407888.945064,537.59765625,-688.96484375,154.78515625,-785.64453125,0.0
1734407888.9489698,-154.296875,-519.04296875,211.42578125,313.96484375,0.0
1734407888.9528756,-761.71875,-852.05078125,-19.53125,-954.1015625,0.0
1734407888.9567814,-560.05859375,-955.078125,-150.390625,-1000.0,0.0
1734407888.9606872,224.609375,-436.03515625,179.6875,-145.99609375,0.0
1734407888.964593,583.984375,-239.2578125,235.83984375,-833.0078125,0.0
1734407888.9684494,-44.921875,-720.703125,47.8515625,499.0234375,0.0
1734407888.9723551,-734.375,-863.76953125,85.9375,-848.14453125,0.0
1734407888.976261,-637.6953125,-478.515625,237.3046875,-1000.0,0.0
1734407888.9801667,187.98828125,-188.4765625,251.953125,-195.3125,0.0
1734407888.9840724,623.53515625,-378.41796875,244.140625,-893.5546875,0.0
1734407888.9879782,55.6640625,-847.16796875,103.515625,714.84375,0.0
1734407888.991884,-654.296875,-985.83984375,33.69140625,-631.8359375,0.0
1734407888.99579,-701.171875,-907.2265625,130.37109375,-1000.0,0.0
1734407888.9996958,89.35546875,-941.40625,-54.19921875,-197.265625,0.0
1734407889.0036016,644.53125,-733.88671875,2.9296875,-954.1015625,0.0
1734407889.0075073,158.69140625,-683.59375,163.57421875,907.2265625,0.0
1734407889.011413,-626.953125,-977.5390625,38.57421875,-347.65625,0.0
1734407889.0156646,-774.4140625,-878.41796875,85.9375,-1000.0,0.0
1734407889.0195704,25.390625,-427.24609375,200.68359375,-241.2109375,0.0
1734407889.0234761,635.7421875,-137.6953125,277.34375,978.515625,0.0
1734407889.027382,267.08984375,-548.828125,63.4765625,-952.1484375,0.0
1734407889.0312877,-525.87890625,-960.9375,-97.65625,-48.33984375,0.0
1734407889.0351934,-826.171875,-1000.0,28.80859375,-1000.0,0.0
1734407889.0390992,-91.796875,-712.890625,182.12890625,-383.30078125,0.0
1734407889.043005,610.83984375,-589.84375,66.40625,910.15625,0.0
1734407889.046911,380.37109375,-959.47265625,-169.921875,-901.85546875,0.0
1734407889.0508168,-438.4765625,-973.14453125,-6.34765625,83.0078125,0.0
1734407889.0547225,-853.02734375,-863.76953125,96.6796875,-1000.0,0.0
1734407889.0586283,-167.48046875,-828.61328125,-14.16015625,-542.96875,0.0
1734407889.0626407,548.828125,-666.9921875,19.53125,797.36328125,0.0
1734407889.0665464,392.578125,-439.453125,195.3125,-863.28125,0.0
1734407889.0704522,-380.37109375,-696.2890625,95.21484375,153.3203125,0.0
1734407889.074358,-843.75,-948.2421875,-75.1953125,-1000.0,0.0
1734407889.0782638,-219.23828125,-708.0078125,24.90234375,-774.90234375,0.0
1734407889.0821695,546.875,-639.6484375,139.6484375,567.87109375,0.0
1734407889.0860753,497.0703125,-915.0390625,59.5703125,-815.91796875,0.0
1734407889.0899813,-306.640625,-990.72265625,-103.515625,178.7109375,0.0
1734407889.093887,-884.765625,-854.4921875,-17.578125,-1000.0,0.0
1734407889.0977929,-392.08984375,-519.04296875,201.171875,-896.484375,0.0
1734407889.1016986,445.80078125,-540.52734375,130.859375,391.6015625,0.0
1734407889.1056044,598.14453125,-768.5546875,113.76953125,-793.9453125,0.0
1734407889.1094012,-170.8984375,-882.8125,62.98828125,220.703125,0.0
1734407889.113307,-821.77734375,-740.72265625,93.26171875,-1000.0,0.0
1734407889.1172128,-466.796875,-584.9609375,195.80078125,-1000.0,0.0
1734407889.1211185,356.4453125,-851.07421875,51.7578125,86.9140625,0.0
1734407889.1250243,578.125,-581.0546875,126.953125,-786.1328125,0.0
1734407889.12893,-115.72265625,-642.578125,183.10546875,357.91015625,0.0
1734407889.1328359,-762.20703125,-1000.0,-41.50390625,-931.15234375,0.0
1734407889.1367416,-562.98828125,-832.51953125,-0.9765625,-1000.0,0.0
1734407889.1406474,265.13671875,-313.4765625,238.76953125,-135.25390625,0.0
1734407889.1445534,583.0078125,-190.4296875,300.78125,-840.8203125,0.0
1734407889.1484592,-60.546875,-661.1328125,-62.01171875,545.41015625,0.0
1734407889.152365,-755.859375,-936.5234375,-195.80078125,-805.17578125,0.0
1734407889.156147,-734.375,-549.8046875,247.55859375,-1000.0,0.0
1734407889.1600528,166.9921875,-151.85546875,291.015625,-201.66015625,0.0
1734407889.1639585,690.91796875,-449.70703125,229.00390625,-897.4609375,0.0
1734407889.1678643,96.19140625,-763.671875,161.62109375,725.09765625,0.0
1734407889.17177,-683.10546875,-570.3125,186.5234375,-622.55859375,0.0
1734407889.1756759,-726.07421875,-667.48046875,220.21484375,-1000.0,0.0
1734407889.1795816,132.32421875,-937.5,35.15625,-197.75390625,0.0
1734407889.1834874,668.9453125,-723.6328125,101.07421875,-954.1015625,0.0
1734407889.1873932,152.83203125,-251.46484375,286.1328125,907.71484375,0.0
1734407889.191299,-581.0546875,-491.2109375,150.87890625,-346.6796875,0.0
1734407889.1952047,-722.16796875,-895.99609375,107.421875,-1000.0,0.0
1734407889.1991105,24.4140625,-549.8046875,247.0703125,-253.41796875,0.0
1734407889.2028515,645.99609375,110.83984375,380.37109375,972.16796875,0.0
1734407889.2067573,307.12890625,-140.625,256.34765625,-947.75390625,0.0
1734407889.210663,-523.92578125,-657.71484375,184.5703125,-43.9453125,0.0
1734407889.2145689,-844.23828125,-442.87109375,273.4375,-1000.0,0.0
1734407889.2184746,-98.6328125,-32.71484375,336.42578125,-375.9765625,0.0
1734407889.2223804,625.9765625,-286.1328125,242.67578125,912.59765625,0.0
1734407889.2262862,373.53515625,-878.41796875,100.09765625,-901.3671875,0.0
1734407889.230192,-483.3984375,-786.62109375,172.36328125,98.14453125,0.0
1734407889.2340977,-880.37109375,-317.3828125,306.640625,-1000.0,0.0
1734407889.2380035,-145.99609375,-481.4453125,174.31640625,-586.9140625,0.0
1734407889.2419095,581.0546875,-509.765625,185.05859375,763.671875,0.0
1734407889.2458153,426.26953125,-14.6484375,347.16796875,-854.00390625,0.0
1734407889.2497659,0.0,-243.1640625,247.0703125,0.0,0.0
1734407889.2536716,0.0,-708.49609375,167.48046875,0.0,0.0
1734407889.2575774,0.0,-497.0703125,255.859375,0.0,0.0
1734407889.2614832,0.0,34.1796875,369.140625,0.0,0.0
1734407889.265389,0.0,41.015625,322.75390625,0.0,0.0
1734407889.2692947,0.0,-609.375,177.734375,0.0,0.0
1734407889.2732005,0.0,-895.5078125,173.33984375,0.0,0.0
1734407889.2771063,0.0,-334.9609375,308.59375,0.0,0.0
1734407889.281012,0.0,-178.22265625,312.01171875,0.0,0.0
1734407889.2849178,0.0,-611.328125,187.98828125,0.0,0.0
1734407889.2888236,0.0,-916.9921875,152.83203125,0.0,0.0
1734407889.2927296,0.0,-541.015625,283.203125,0.0,0.0
1734407889.2966285,-502.44140625,-274.90234375,314.453125,-1000.0,0.0
1734407889.3005342,373.53515625,-191.40625,333.0078125,13.18359375,0.0
1734407889.30444,623.53515625,153.3203125,401.85546875,-791.9921875,0.0
1734407889.3083458,-99.609375,64.94140625,350.09765625,365.72265625,0.0
1734407889.3122516,-800.29296875,-392.578125,275.87890625,-932.6171875,0.0
1734407889.3161573,-612.79296875,-690.4296875,278.80859375,-1000.0,0.0
1734407889.320063,239.74609375,-207.51953125,373.046875,-148.4375,0.0
1734407889.323969,617.1875,367.67578125,469.23828125,-851.07421875,0.0
1734407889.3278747,20.5078125,-195.3125,233.88671875,583.984375,0.0
1734407889.3317804,-720.21484375,-837.890625,144.53125,-767.08984375,0.0
1734407889.3356862,-720.703125,-249.0234375,412.59765625,-1000.0,0.0
1734407889.339592,182.6171875,-15.13671875,380.37109375,-200.1953125,0.0
1734407889.3434644,654.78515625,-199.21875,328.61328125,-18.06640625,0.0
1734407889.3473701,43.9453125,-112.3046875,337.40234375,-1000.0,0.0
1734407889.351276,-713.8671875,-21.97265625,361.81640625,-396.97265625,0.0
1734407889.355182,-759.765625,-23.4375,385.7421875,901.85546875,0.0
1734407889.3590877,92.28515625,-33.69140625,405.76171875,-895.5078125,0.0
1734407889.3629935,657.71484375,-143.5546875,372.0703125,122.55859375,0.0
1734407889.3668993,169.921875,-105.95703125,342.7734375,-1000.0,0.0
1734407889.370805,-605.46875,-39.55078125,363.28125,-590.8203125,0.0
1734407889.3747108,-742.1875,-682.6171875,163.57421875,765.625,0.0
1734407889.3786166,10.7421875,-485.83984375,239.74609375,-852.5390625,0.0
1734407889.3825223,620.60546875,112.3046875,409.66796875,166.9921875,0.0
1734407889.386428,283.203125,-314.453125,271.97265625,-1000.0,0.0
1734407889.390295,-515.625,-484.375,261.71875,0.0,0.0
1734407889.3942008,-825.68359375,-420.41015625,298.33984375,0.0,0.0
1734407889.3981066,-120.60546875,-93.75,353.02734375,0.0,0.0
1734407889.4020123,606.93359375,84.47265625,364.2578125,0.0,0.0
1734407889.4059181,406.73828125,-214.84375,310.05859375,0.0,0.0
1734407889.409824,-431.640625,-602.5390625,227.05078125,0.0,0.0
1734407889.4137297,-861.328125,-580.56640625,267.578125,0.0,0.0
1734407889.4176354,-151.85546875,-391.11328125,276.3671875,0.0,0.0
1734407889.4215412,598.14453125,-627.9296875,222.65625,0.0,0.0
1734407889.425447,441.89453125,-157.2265625,355.46875,0.0,0.0
1734407889.4293528,-337.890625,-93.26171875,317.3828125,0.0,0.0
1734407889.4332585,-847.65625,-707.03125,96.19140625,0.0,0.0
1734407889.4370728,-306.640625,-537.109375,187.5,-821.2890625,0.0
1734407889.4409788,483.3984375,89.35546875,378.90625,505.859375,0.0
1734407889.4448845,509.765625,41.9921875,330.078125,-805.17578125,0.0
1734407889.4487903,-277.83203125,-523.4375,172.8515625,186.03515625,0.0
1734407889.452696,-878.90625,-875.48828125,122.55859375,-1000.0,0.0
1734407889.4566019,-423.33984375,-736.328125,207.51953125,-984.375,0.0
1734407889.4605076,455.078125,-415.52734375,314.94140625,246.09375,0.0
1734407889.4644134,639.6484375,-637.20703125,115.72265625,-780.76171875,0.0
1734407889.4683192,-145.5078125,-961.9140625,-18.5546875,254.8828125,0.0
1734407889.472225,-832.03125,-560.546875,247.0703125,-994.140625,0.0
1734407889.4761307,-493.65234375,-588.37890625,209.47265625,-1000.0,0.0
1734407889.4800365,364.74609375,-475.5859375,240.234375,21.484375,0.0
1734407889.484067,620.1171875,-65.4296875,328.61328125,0.0,0.0
1734407889.4879727,-120.60546875,-210.9375,247.0703125,0.0,0.0
1734407889.4918787,-798.828125,-664.0625,162.59765625,0.0,0.0
1734407889.4957845,-575.1953125,-692.3828125,232.421875,0.0,0.0
1734407889.4996903,299.31640625,-102.5390625,312.01171875,0.0,0.0
1734407889.503596,661.1328125,-223.6328125,282.71484375,0.0,0.0
1734407889.5075018,-18.06640625,-816.40625,53.22265625,0.0,0.0
1734407889.5114076,-757.32421875,-972.16796875,-78.125,0.0,0.0
1734407889.5153134,-738.28125,-507.8125,248.046875,0.0,0.0
1734407889.5192192,145.5078125,106.4453125,397.4609375,0.0,0.0
1734407889.523125,658.69140625,-68.84765625,270.01953125,0.0,0.0
1734407889.5270307,75.68359375,-390.13671875,238.28125,0.0,0.0
1734407889.5308049,-713.37890625,-291.015625,295.8984375,-561.03515625,0.0
1734407889.5347106,-778.80859375,-176.7578125,315.4296875,-1000.0,0.0
1734407889.5386164,75.68359375,-160.64453125,364.2578125,-204.1015625,0.0
1734407889.5425222,646.97265625,26.85546875,411.62109375,-974.609375,0.0
1734407889.546428,173.828125,36.62109375,349.12109375,958.0078125,0.0
1734407889.5503337,-622.0703125,-507.8125,231.4453125,-250.0,0.0
1734407889.5542395,-816.40625,-816.40625,282.71484375,-1000.0,0.0
1734407889.5581453,-4.8828125,-214.84375,409.1796875,-296.38671875,0.0
1734407889.562051,617.1875,254.8828125,403.3203125,958.49609375,0.0
1734407889.5659568,260.25390625,-152.83203125,300.29296875,-944.3359375,0.0
1734407889.5698626,-486.81640625,-785.64453125,-29.78515625,-39.0625,0.0
1734407889.5737684,-841.30859375,-946.77734375,62.98828125,-1000.0,0.0
1734407889.5780954,-125.9765625,-199.21875,407.2265625,-466.796875,0.0
1734407889.5820012,625.9765625,0.48828125,336.42578125,851.5625,0.0
1734407889.5859072,408.203125,-387.20703125,298.828125,-881.34765625,0.0
1734407889.589813,-478.515625,-357.421875,297.36328125,113.28125,0.0
1734407889.5937188,-916.015625,-349.12109375,290.0390625,-1000.0,0.0
1734407889.5976245,-191.40625,-590.33203125,218.75,-629.39453125,0.0
1734407889.6015303,601.5625,-858.3984375,223.6328125,728.02734375,0.0
1734407889.605436,481.4453125,-466.30859375,338.8671875,-843.75,0.0
1734407889.6093419,-353.02734375,-224.12109375,308.59375,161.62109375,0.0
1734407889.6132476,-882.32421875,-676.26953125,172.36328125,-1000.0,0.0
1734407889.6171534,-329.58984375,-573.73046875,239.2578125,-863.28125,0.0
1734407889.6210592,512.20703125,39.0625,380.859375,447.75390625,0.0
1734407889.624982,575.1953125,-173.33984375,298.828125,0.0,0.0
1734407889.6288881,-252.9296875,-764.6484375,167.48046875,0.0,0.0
1734407889.632794,-864.74609375,-718.26171875,204.1015625,0.0,0.0
1734407889.6366997,-444.82421875,-257.8125,337.40234375,0.0,0.0
1734407889.6406054,412.109375,-56.15234375,338.37890625,0.0,0.0
1734407889.6445112,607.421875,-489.2578125,281.73828125,0.0,0.0
1734407889.648417,-203.125,-860.83984375,237.3046875,0.0,0.0
1734407889.6523228,-875.48828125,-531.73828125,291.50390625,0.0,0.0
1734407889.6562285,-579.1015625,-193.84765625,352.5390625,0.0,0.0
1734407889.6601343,303.7109375,-223.6328125,380.37109375,0.0,0.0
1734407889.66404,641.11328125,-263.18359375,374.51171875,0.0,0.0
1734407889.6679459,-94.7265625,-253.90625,342.7734375,0.0,0.0
1734407889.6718378,-799.31640625,-207.03125,360.3515625,-916.50390625,0.0
1734407889.6757436,-594.23828125,-603.515625,262.6953125,-1000.0,0.0
1734407889.6796494,260.25390625,-203.125,370.60546875,-184.08203125,0.0
1734407889.6835551,666.9921875,272.94921875,455.078125,-862.79296875,0.0
1734407889.687461,4.8828125,-232.421875,333.984375,605.46875,0.0
1734407889.691367,-767.08984375,-622.0703125,297.36328125,-750.9765625,0.0
1734407889.6952727,-755.859375,-394.53125,366.69921875,-1000.0,0.0
1734407889.6991785,129.39453125,327.1484375,479.98046875,-207.51953125,0.0
1734407889.7030842,713.8671875,118.1640625,342.7734375,-920.8984375,0.0
1734407889.70699,126.46484375,-714.35546875,224.12109375,798.33984375,0.0
1734407889.7108958,-738.76953125,-363.28125,373.53515625,-521.97265625,0.0
1734407889.7148015,-810.546875,75.68359375,410.64453125,-1000.0,0.0
1734407889.719294,57.12890625,-82.03125,346.19140625,-887.6953125,0.0
1734407889.7231998,662.59765625,34.1796875,377.9296875,143.5546875,0.0
1734407889.7271056,230.46875,184.5703125,386.71875,-1000.0,0.0
1734407889.7310114,-568.84765625,-119.140625,312.5,-642.578125,0.0
1734407889.7349172,-788.0859375,-462.890625,325.1953125,720.703125,0.0
1734407889.738823,-3.90625,-404.78515625,355.95703125,-841.796875,0.0
1734407889.742729,669.43359375,-187.98828125,345.21484375,167.96875,0.0
1734407889.7466347,327.63671875,-421.875,281.25,-1000.0,0.0
1734407889.7505405,-540.0390625,-767.08984375,130.37109375,-858.3984375,0.0
1734407889.7544463,-889.16015625,-626.46484375,194.82421875,456.0546875,0.0
1734407889.758352,-116.69921875,-322.75390625,354.98046875,-797.8515625,0.0
1734407889.7622578,637.20703125,-287.59765625,311.5234375,206.54296875,0.0
1734407889.766142,428.7109375,-479.00390625,243.65234375,0.0,0.0
1734407889.7700477,-438.4765625,-493.1640625,252.9296875,0.0,0.0
1734407889.7739534,-909.1796875,-260.25390625,284.1796875,0.0,0.0
1734407889.7778592,-211.42578125,-244.140625,293.45703125,0.0,0.0
1734407889.781765,582.51953125,-611.81640625,259.765625,0.0,0.0
1734407889.785671,482.91015625,-698.2421875,226.07421875,0.0,0.0
1734407889.7895768,-354.98046875,-587.890625,209.47265625,0.0,0.0
1734407889.7934825,-885.25390625,-753.90625,77.1484375,0.0,0.0
1734407889.7973883,-298.828125,-847.65625,69.3359375,0.0,0.0
1734407889.801294,505.37109375,-389.6484375,266.6015625,0.0,0.0
1734407889.8051999,561.03515625,-110.3515625,299.8046875,0.0,0.0
1734407889.8091056,-244.62890625,-590.33203125,-3.41796875,0.0,0.0
1734407889.8129213,-901.85546875,-906.25,0.0,-1000.0,0.0
1734407889.816827,-502.9296875,-518.5546875,0.0,-1000.0,0.0
1734407889.8207328,395.5078125,-165.52734375,0.0,215.8203125,0.0
1734407889.8246386,647.4609375,-498.53515625,0.0,-780.76171875,0.0
1734407889.8285444,-151.3671875,-889.6484375,0.0,303.22265625,0.0
1734407889.8324502,-858.3984375,-969.7265625,0.0,-969.23828125,0.0
1734407889.836356,-569.82421875,-937.5,0.0,-1000.0,0.0
1734407889.8402617,354.98046875,-908.69140625,0.0,-0.48828125,0.0
1734407889.8441675,702.1484375,-964.35546875,0.0,-802.734375,0.0
1734407889.8480732,-90.33203125,-743.1640625,0.0,453.61328125,0.0
1734407889.851979,-812.98828125,-874.51171875,0.0,-872.0703125,0.0
1734407889.855885,-652.34375,-1000.0,0.0,-1000.0,0.0
1734407889.859666,215.33203125,-570.3125,143.06640625,-151.3671875,0.0
1734407889.863572,670.8984375,-203.61328125,222.16796875,-870.60546875,0.0
1734407889.8674777,28.3203125,-643.06640625,17.578125,658.69140625,0.0
1734407889.8713837,-756.34765625,-986.81640625,-74.21875,-688.4765625,0.0
1734407889.8752894,-746.58203125,-833.49609375,70.80078125,-1000.0,0.0
1734407889.8791952,172.8515625,-769.04296875,111.328125,-200.68359375,0.0
1734407889.883101,750.48828125,-851.5625,21.97265625,-928.22265625,0.0
1734407889.8870068,154.78515625,-991.2109375,-241.69921875,829.1015625,0.0
1734407889.8909125,-720.703125,-931.15234375,-38.0859375,-479.00390625,0.0
1734407889.8948183,-825.68359375,-685.546875,166.015625,-1000.0,0.0
1734407889.898724,69.82421875,-647.94921875,79.58984375,-203.125,0.0
1734407889.9026299,714.35546875,-525.390625,153.80859375,-987.79296875,0.0
1734407889.90639,0.0,-369.140625,168.9453125,997.55859375,0.0
1734407889.9102957,0.0,-694.82421875,90.33203125,-175.78125,0.0
1734407889.9142015,0.0,-977.05078125,41.9921875,-1000.0,0.0
1734407889.9181073,0.0,-552.734375,154.296875,-296.875,0.0
1734407889.922013,0.0,-168.45703125,242.1875,949.70703125,0.0
1734407889.9259188,0.0,-649.90234375,150.87890625,-924.8046875,0.0
1734407889.9298248,0.0,-1000.0,-238.28125,32.2265625,0.0
1734407889.9337306,0.0,-903.3203125,-232.421875,-1000.0,0.0
1734407889.9376364,0.0,-377.9296875,282.71484375,-494.140625,0.0
1734407889.9415421,0.0,-161.1328125,236.81640625,843.75,0.0
1734407889.945448,0.0,-716.796875,83.49609375,-877.44140625,0.0
1734407889.9493537,0.0,-933.10546875,89.84375,110.3515625,0.0
1734407889.9530993,-945.3125,-650.390625,161.1328125,-1000.0,0.0
1734407889.957005,-244.62890625,-576.171875,165.0390625,-722.65625,0.0
1734407889.9609108,602.05078125,-535.15625,193.359375,626.46484375,0.0
1734407889.9648166,529.78515625,-300.29296875,243.1640625,-825.1953125,0.0
1734407889.9687223,-354.4921875,-566.40625,151.3671875,156.73828125,0.0
1734407889.972628,-928.7109375,-976.07421875,37.109375,-1000.0,0.0
1734407889.976534,-346.6796875,-907.71484375,105.46875,-890.625,0.0
1734407889.9804397,495.1171875,-388.18359375,284.66796875,411.1328125,0.0
1734407889.9843454,583.984375,-20.01953125,367.67578125,-790.52734375,0.0
1734407889.9882512,-198.2421875,-577.63671875,28.80859375,173.33984375,0.0
1734407889.992157,-868.1640625,-863.28125,-83.0078125,-1000.0,0.0
1734407889.9960628,-483.3984375,-288.0859375,325.1953125,-1000.0,0.0
1734407889.9999847,442.87109375,117.1875,368.65234375,132.8125,0.0
1734407890.0038905,692.87109375,-138.18359375,282.2265625,-776.85546875,0.0
1734407890.0077963,-143.5546875,-475.09765625,237.79296875,270.99609375,0.0
1734407890.0117023,-886.71875,-355.95703125,286.62109375,-978.515625,0.0
1734407890.015608,-591.30859375,-209.9609375,312.5,-1000.0,0.0
1734407890.0195138,335.44921875,-412.59765625,299.31640625,-75.1953125,0.0
1734407890.0234196,664.0625,-344.7265625,347.65625,-807.12890625,0.0
1734407890.0273254,-90.33203125,-297.8515625,279.296875,426.7578125,0.0
1734407890.0312312,-846.19140625,-710.9375,214.84375,-899.4140625,0.0
1734407890.035137,-700.68359375,-794.921875,203.125,-1000.0,0.0
1734407890.0390427,215.8203125,-511.71875,261.71875,-181.15234375,0.0
1734407890.0429485,699.70703125,-37.59765625,397.94921875,-868.65234375,0.0
1734407890.0468452,45.8984375,-147.4609375,290.0390625,635.7421875,0.0
1734407890.050751,-751.953125,-475.5859375,250.9765625,-723.6328125,0.0
1734407890.0546567,-751.46484375,-191.40625,358.3984375,-1000.0,0.0
1734407890.0585625,153.80859375,313.96484375,423.33984375,-201.171875,0.0
1734407890.0624683,701.171875,173.828125,366.69921875,-944.82421875,0.0
1734407890.066374,128.41796875,-562.5,197.75390625,854.98046875,0.0
1734407890.0702798,-701.171875,-643.5546875,234.86328125,-431.640625,0.0
1734407890.0741856,-866.69921875,-156.73828125,371.09375,-1000.0,0.0
1734407890.0780914,36.1328125,-179.6875,277.34375,-204.1015625,0.0
1734407890.0819972,714.35546875,-562.01171875,228.515625,-993.1640625,0.0
1734407890.085903,246.09375,-529.296875,231.4453125,-989.74609375,0.0
1734407890.0898087,-626.953125,-443.359375,250.0,-145.5078125,0.0
1734407890.0941057,-867.67578125,-747.55859375,47.36328125,-1000.0,0.0
1734407890.0980115,-43.45703125,-678.22265625,35.64453125,-300.78125,0.0
1734407890.1019173,651.3671875,-19.53125,368.1640625,947.265625,0.0
1734407890.105823,391.6015625,-92.28515625,279.78515625,-920.41015625,0.0
1734407890.1097288,-464.35546875,-659.1796875,172.36328125,55.17578125,0.0
1734407890.1136346,-868.1640625,-1000.0,107.421875,-1000.0,0.0
1734407890.1175404,-134.27734375,-691.40625,191.40625,-467.7734375,0.0
1734407890.1214464,653.3203125,-302.24609375,302.24609375,860.83984375,0.0
1734407890.1253521,510.25390625,-743.1640625,-80.078125,-878.90625,0.0
1734407890.129258,-407.2265625,-1000.0,-185.05859375,155.2734375,0.0
1734407890.1331637,-935.546875,-977.5390625,93.26171875,-1000.0,0.0
1734407890.1370695,-278.3203125,-771.97265625,106.4453125,-664.55078125,0.0
1734407890.1409268,553.7109375,-615.72265625,142.578125,702.63671875,0.0
1734407890.1448326,525.87890625,-626.953125,170.41015625,-837.890625,0.0
1734407890.1487384,-336.9140625,-607.91015625,165.0390625,170.8984375,0.0
1734407890.1526442,-920.41015625,-881.8359375,59.08203125,-1000.0,0.0
1734407890.15655,-354.00390625,-847.65625,86.9140625,-864.74609375,0.0
1734407890.1604557,528.3203125,-592.7734375,178.7109375,448.2421875,0.0
1734407890.1643615,612.3046875,-770.01953125,162.59765625,-795.8984375,0.0
1734407890.1682673,-211.42578125,-986.328125,-88.8671875,217.28515625,0.0
1734407890.172173,-900.390625,-921.38671875,-148.92578125,-1000.0,0.0
1734407890.1760788,-500.9765625,-562.98828125,204.58984375,-1000.0,0.0
1734407890.1799846,444.3359375,-213.8671875,285.64453125,178.7109375,0.0
1734407890.1838906,708.49609375,-571.77734375,34.1796875,-779.78515625,0.0
1734407890.1877067,-137.6953125,-871.09375,-27.34375,318.84765625,0.0
1734407890.1916125,-893.5546875,-642.08984375,159.1796875,-954.58984375,0.0
1734407890.1955183,-593.75,-425.29296875,250.48828125,-1000.0,0.0
1734407890.199424,380.859375,-675.78125,37.59765625,-59.5703125,0.0
1734407890.2033298,718.75,-928.22265625,-50.29296875,-815.4296875,0.0
1734407890.2072356,-87.890625,-791.50390625,165.0390625,491.69921875,0.0
1734407890.2111413,-819.82421875,-837.890625,168.9453125,-848.6328125,0.0
