timestamps,TP9,AF7,AF8,TP10,Right AUX
1734583048.6602063,0.0,27.34375,300.29296875,146.97265625,0.0
1734583048.6641114,0.0,-2.9296875,123.046875,104.4921875,0.0
1734583048.6680167,0.0,-49.8046875,-154.296875,-109.86328125,0.0
1734583048.6719217,0.0,-61.03515625,-305.6640625,-222.16796875,0.0
1734583048.6758268,0.0,-16.6015625,-15.625,-91.796875,0.0
1734583048.6797318,0.0,4.39453125,278.3203125,144.04296875,0.0
1734583048.683637,0.0,-38.0859375,25.390625,157.2265625,0.0
1734583048.687542,0.0,-90.8203125,-471.19140625,-31.73828125,0.0
1734583048.691447,0.0,-28.3203125,-324.70703125,-178.22265625,0.0
1734583048.695352,0.0,5.37109375,42.96875,-105.46875,0.0
1734583048.6992571,0.0,0.48828125,257.8125,137.6953125,0.0
1734583048.7032008,91.30859375,-22.94921875,154.296875,166.50390625,0.0
1734583048.7071059,-93.26171875,-64.453125,-280.76171875,-49.8046875,0.0
1734583048.711011,-181.640625,-40.52734375,-247.0703125,-208.984375,0.0
1734583048.714916,-91.30859375,-15.625,79.1015625,-156.25,0.0
1734583048.718821,103.02734375,3.90625,295.8984375,83.49609375,0.0
1734583048.722726,92.7734375,-37.59765625,124.51171875,150.390625,0.0
1734583048.7266312,-88.8671875,-71.77734375,-242.67578125,-40.52734375,0.0
1734583048.7305362,-182.6171875,-81.54296875,-434.08203125,-195.80078125,0.0
1734583048.7344413,-114.2578125,-46.38671875,-167.96875,-166.015625,0.0
1734583048.7383466,89.35546875,32.71484375,343.26171875,57.12890625,0.0
1734583048.7422516,105.46875,-0.48828125,222.16796875,170.41015625,0.0
1734583048.7461567,-65.91796875,-61.5234375,-276.3671875,5.859375,0.0
1734583048.750097,-173.828125,-47.8515625,-268.06640625,-178.7109375,0.0
1734583048.754002,-127.44140625,-24.90234375,17.578125,-180.17578125,0.0
1734583048.7579072,65.91796875,-5.859375,244.62890625,50.29296875,0.0
1734583048.7618124,100.09765625,-27.83203125,134.765625,174.31640625,0.0
1734583048.7657175,-66.40625,-56.15234375,-35.64453125,11.23046875,0.0
1734583048.7696226,-191.40625,-68.359375,-261.71875,-171.875,0.0
1734583048.7735276,-157.71484375,-60.05859375,-303.22265625,-210.9375,0.0
1734583048.7774327,38.0859375,-55.17578125,-81.54296875,4.39453125,0.0
1734583048.7813377,102.05078125,-21.97265625,155.2734375,174.8046875,0.0
1734583048.7852428,-44.921875,-28.3203125,20.01953125,24.90234375,0.0
1734583048.7891479,-174.31640625,-63.4765625,-302.734375,-174.8046875,0.0
1734583048.793053,-166.50390625,-39.55078125,-175.29296875,-207.03125,0.0
1734583048.7969937,21.97265625,-10.7421875,0.0,-20.99609375,0.0
1734583048.8008988,116.2109375,-42.96875,0.0,153.3203125,0.0
1734583048.804804,-26.3671875,-80.56640625,0.0,50.78125,0.0
1734583048.8087091,-155.2734375,-68.359375,0.0,-151.3671875,0.0
1734583048.8126142,-151.85546875,-47.8515625,0.0,-219.7265625,0.0
1734583048.8165193,16.11328125,-22.94921875,0.0,-41.9921875,0.0
1734583048.8204243,126.953125,-46.38671875,0.0,169.921875,0.0
1734583048.8243294,0.0,-73.2421875,0.0,91.796875,0.0
1734583048.8282344,-144.04296875,-27.34375,0.0,-128.41796875,0.0
1734583048.8321395,-162.109375,-29.296875,0.0,-229.00390625,0.0
1734583048.8360445,-9.27734375,-23.92578125,0.0,-93.75,0.0
1734583048.8399496,127.44140625,3.41796875,0.0,142.08984375,0.0
1734583048.8439982,27.34375,-19.04296875,107.421875,-201.66015625,0.0
1734583048.8479033,-129.39453125,-51.26953125,-194.82421875,-146.484375,0.0
1734583048.8518085,-171.38671875,-53.22265625,-336.9140625,84.47265625,0.0
1734583048.8557136,-32.2265625,7.8125,115.72265625,157.2265625,0.0
1734583048.8596187,135.7421875,20.01953125,366.2109375,-30.2734375,0.0
1734583048.8635237,53.22265625,-55.6640625,-55.6640625,-187.01171875,0.0
1734583048.8674288,-119.62890625,-110.83984375,-506.34765625,-159.1796875,0.0
1734583048.8713338,-175.78125,-47.8515625,-388.18359375,60.546875,0.0
1734583048.875239,-61.5234375,4.39453125,-35.64453125,175.29296875,0.0
1734583048.879144,126.46484375,15.13671875,286.1328125,12.20703125,0.0
1734583048.883049,79.1015625,-13.671875,113.76953125,-174.8046875,0.0
1734583048.886954,-101.5625,-39.55078125,-218.75,-183.10546875,0.0
1734583048.890922,0.0,-36.1328125,-328.61328125,0.0,0.0
1734583048.8948271,0.0,-24.4140625,-157.71484375,0.0,0.0
1734583048.8987322,0.0,14.16015625,270.01953125,0.0,0.0
1734583048.9026372,0.0,-5.37109375,211.9140625,0.0,0.0
1734583048.9065425,0.0,-48.828125,-109.375,0.0,0.0
1734583048.9104476,0.0,-87.890625,-410.64453125,0.0,0.0
1734583048.9143527,0.0,-51.7578125,-221.19140625,0.0,0.0
1734583048.9182577,0.0,26.3671875,308.10546875,0.0,0.0
1734583048.9221628,0.0,-17.578125,199.70703125,0.0,0.0
1734583048.9260678,0.0,-81.0546875,-285.15625,0.0,0.0
1734583048.929973,0.0,-71.2890625,-397.4609375,0.0,0.0
1734583048.933878,0.0,-41.015625,-197.75390625,0.0,0.0
1734583048.9378345,67.3828125,-22.4609375,168.9453125,25.87890625,0.0
1734583048.9417396,113.28125,-49.31640625,131.8359375,186.5234375,0.0
1734583048.9456446,-43.45703125,-60.05859375,-99.609375,51.7578125,0.0
1734583048.9495497,-167.96875,-60.546875,-260.7421875,-157.2265625,0.0
1734583048.9534547,-147.94921875,-51.26953125,-220.703125,-194.3359375,0.0
1734583048.95736,46.38671875,-38.0859375,17.578125,8.7890625,0.0
1734583048.961265,132.32421875,-19.53125,163.0859375,178.7109375,0.0
1734583048.9651701,-13.18359375,-26.85546875,-18.5546875,61.03515625,0.0
1734583048.9690752,-151.3671875,-77.63671875,-370.60546875,-139.16015625,0.0
1734583048.9729803,-144.04296875,-92.7734375,-457.03125,-202.1484375,0.0
1734583048.9768853,40.52734375,5.859375,124.0234375,-20.5078125,0.0
1734583048.9807904,145.5078125,7.32421875,308.10546875,187.01171875,0.0
1734583048.9847424,-2.9296875,-68.359375,-122.0703125,88.37890625,0.0
1734583048.9886475,-151.3671875,-95.703125,-423.33984375,-125.48828125,0.0
1734583048.9925525,-162.109375,-68.359375,-344.7265625,-210.44921875,0.0
1734583048.9964576,10.7421875,-9.765625,130.859375,-56.640625,0.0
1734583049.0003626,141.11328125,-22.94921875,221.6796875,169.921875,0.0
1734583049.0042677,17.08984375,-75.1953125,-212.890625,115.234375,0.0
1734583049.0081728,-129.8828125,-66.89453125,-354.98046875,-98.14453125,0.0
1734583049.0120778,-153.80859375,-42.96875,-215.8203125,-210.9375,0.0
1734583049.015983,-2.44140625,-56.640625,-51.7578125,-80.078125,0.0
1734583049.0198882,138.671875,-49.31640625,67.87109375,157.2265625,0.0
1734583049.0237932,47.8515625,-25.87890625,89.35546875,132.8125,0.0
1734583049.0276983,-122.55859375,-61.5234375,-245.1171875,-84.9609375,0.0
1734583049.031645,-179.19921875,-79.58984375,-441.40625,-226.5625,0.0
1734583049.03555,-38.57421875,-28.3203125,-19.53125,-125.9765625,0.0
1734583049.0394554,120.1171875,-4.8828125,304.6875,114.2578125,0.0
1734583049.0433605,56.15234375,-50.29296875,57.6171875,130.37109375,0.0
1734583049.0472655,-105.95703125,-84.9609375,-326.66015625,-64.453125,0.0
1734583049.0511706,-173.33984375,-69.3359375,-396.484375,-208.0078125,0.0
1734583049.0550756,-63.96484375,-32.71484375,-161.62109375,-149.90234375,0.0
1734583049.0589807,117.67578125,-21.97265625,125.0,93.75,0.0
1734583049.0628858,87.890625,-45.8984375,-28.3203125,158.69140625,0.0
1734583049.0667908,-82.03125,-51.26953125,-258.30078125,-46.875,0.0
1734583049.0706959,-161.62109375,-44.43359375,-267.08984375,-209.47265625,0.0
1734583049.0746012,-67.87109375,-47.8515625,-100.09765625,-159.66796875,0.0
1734583049.078544,120.60546875,-62.5,52.734375,70.80078125,0.0
1734583049.082449,108.88671875,-53.22265625,38.57421875,166.50390625,0.0
1734583049.086354,-64.453125,-56.640625,-192.87109375,-0.48828125,0.0
1734583049.090259,-168.9453125,-71.77734375,-366.2109375,-180.6640625,0.0
1734583049.0941641,-104.00390625,-51.26953125,-123.53515625,-175.78125,0.0
1734583049.0980692,100.09765625,-43.9453125,224.609375,53.7109375,0.0
1734583049.1019742,114.74609375,-68.84765625,119.62890625,167.96875,0.0
1734583049.1058795,-73.2421875,-112.3046875,-323.73046875,-7.32421875,0.0
1734583049.1097846,-191.89453125,-119.62890625,-473.14453125,-186.5234375,0.0
1734583049.1136897,-150.390625,-46.38671875,-121.58203125,-201.66015625,0.0
1734583049.1175947,47.8515625,-20.99609375,270.5078125,10.7421875,0.0
1734583049.1214998,100.5859375,-63.96484375,182.12890625,166.9921875,0.0
1734583049.1254382,-54.19921875,-74.70703125,-63.96484375,22.4609375,0.0
1734583049.1293433,-162.59765625,-64.453125,-218.26171875,-179.6875,0.0
1734583049.1332483,-138.18359375,-56.640625,-126.46484375,-222.16796875,0.0
1734583049.1371534,55.17578125,-29.296875,165.52734375,-13.18359375,0.0
1734583049.1410587,142.08984375,-20.99609375,253.41796875,179.19921875,0.0
1734583049.1449637,-8.30078125,-68.359375,-106.93359375,71.77734375,0.0
1734583049.1488688,-144.04296875,-90.8203125,-401.3671875,-133.7890625,0.0
1734583049.1527739,-150.390625,-100.5859375,-465.8203125,-199.70703125,0.0
1734583049.156679,14.16015625,-19.04296875,86.9140625,-36.1328125,0.0
1734583049.160584,137.6953125,5.859375,359.86328125,159.66796875,0.0
1734583049.164489,7.8125,-69.3359375,-47.36328125,68.84765625,0.0
1734583049.168394,-144.53125,-83.49609375,-300.29296875,-134.765625,0.0
1734583049.1723304,-155.76171875,-71.77734375,-304.19921875,-204.58984375,0.0
1734583049.1762354,21.484375,-42.48046875,-3.90625,-65.4296875,0.0
1734583049.1801405,161.62109375,-24.4140625,251.953125,157.71484375,0.0
1734583049.1840456,37.59765625,-47.8515625,55.6640625,106.4453125,0.0
1734583049.1879506,-127.44140625,-63.4765625,-249.51171875,-107.91015625,0.0
1734583049.1918557,-165.0390625,-62.5,-293.9453125,-214.35546875,0.0
1734583049.195761,-21.484375,-59.08203125,-94.23828125,-81.0546875,0.0
1734583049.199666,130.859375,-42.96875,68.84765625,157.2265625,0.0
1734583049.203571,38.57421875,-22.4609375,121.58203125,127.9296875,0.0
1734583049.2074761,-130.859375,-53.7109375,-187.01171875,-83.0078125,0.0
1734583049.2113812,-183.59375,-64.453125,-346.19140625,-210.44921875,0.0
1734583049.2152863,-47.36328125,-16.6015625,76.66015625,-123.53515625,0.0
1734583049.2192168,133.30078125,0.9765625,366.2109375,120.1171875,0.0
1734583049.223122,61.03515625,-43.45703125,133.7890625,151.3671875,0.0
1734583049.227027,-123.53515625,-81.0546875,-323.2421875,-57.12890625,0.0
1734583049.230932,-187.5,-62.01171875,-388.18359375,-193.84765625,0.0
1734583049.234837,-68.359375,-6.34765625,35.15625,-130.859375,0.0
1734583049.2387424,122.0703125,-9.27734375,227.05078125,104.00390625,0.0
1734583049.2426474,89.84375,-78.125,-250.48828125,184.08203125,0.0
1734583049.2465525,-86.9140625,-41.50390625,-374.51171875,-23.4375,0.0
1734583049.2504575,-175.78125,5.37109375,-200.1953125,-199.21875,0.0
1734583049.2543626,-83.984375,0.0,30.2734375,-134.27734375,0.0
1734583049.2582676,124.0234375,14.6484375,299.8046875,109.86328125,0.0
1734583049.2621727,127.44140625,-0.48828125,228.02734375,193.359375,0.0
1734583049.2660975,-56.640625,-49.8046875,-76.66015625,-5.859375,0.0
1734583049.2700026,-163.57421875,-67.87109375,-352.5390625,-180.17578125,0.0
1734583049.2739077,-98.6328125,-20.99609375,-135.25390625,-168.45703125,0.0
1734583049.2778127,96.6796875,19.53125,307.6171875,43.45703125,0.0
1734583049.281718,122.55859375,-7.8125,237.3046875,166.9921875,0.0
1734583049.285623,-53.7109375,-83.49609375,-280.76171875,9.765625,0.0
1734583049.2895281,-175.29296875,-92.7734375,-460.44921875,-166.9921875,0.0
1734583049.2934332,-136.23046875,-20.99609375,-105.46875,-190.4296875,0.0
1734583049.2973382,62.98828125,6.34765625,264.6484375,7.32421875,0.0
1734583049.3012433,123.53515625,-39.55078125,168.9453125,170.8984375,0.0
1734583049.3051484,-41.9921875,-66.40625,-74.21875,41.50390625,0.0
1734583049.3090537,-166.015625,-62.01171875,-257.32421875,-157.71484375,0.0
1734583049.3130088,-145.5078125,-48.33984375,-128.90625,-196.2890625,0.0
1734583049.3169138,45.41015625,-32.71484375,159.66796875,4.8828125,0.0
1734583049.320819,139.6484375,-28.3203125,230.95703125,182.6171875,0.0
1734583049.324724,-3.90625,-49.31640625,30.76171875,66.40625,0.0
1734583049.3286293,-142.578125,-74.70703125,-257.32421875,-134.27734375,0.0
1734583049.3325343,-140.13671875,-82.51953125,-330.56640625,-190.91796875,0.0
1734583049.3364394,47.36328125,-14.6484375,95.703125,-9.27734375,0.0
1734583049.3403444,161.1328125,7.8125,344.23828125,196.77734375,0.0
1734583049.3442495,22.4609375,-68.359375,-46.875,113.76953125,0.0
1734583049.3481545,-134.27734375,-125.9765625,-536.62109375,-99.12109375,0.0
1734583049.3520596,-162.59765625,-52.734375,-311.03515625,-214.84375,0.0
1734583049.355965,4.8828125,7.32421875,207.03125,-77.63671875,0.0
1734583049.3599172,153.80859375,-27.34375,250.0,160.64453125,0.0
1734583049.3638222,48.828125,-66.89453125,-44.921875,122.0703125,0.0
1734583049.3677273,-107.421875,-57.12890625,-263.18359375,-95.21484375,0.0
1734583049.3716323,-155.76171875,-41.9921875,-243.65234375,-211.9140625,0.0
1734583049.3755374,-20.01953125,-35.15625,49.8046875,-96.6796875,0.0
1734583049.3794425,149.90234375,-29.78515625,220.21484375,147.4609375,0.0
1734583049.3833477,61.03515625,-44.43359375,28.80859375,143.06640625,0.0
1734583049.3872528,-111.81640625,-62.01171875,-214.84375,-71.2890625,0.0
1734583049.3911579,-174.8046875,-103.515625,-416.9921875,-205.56640625,0.0
1734583049.395063,-60.05859375,-75.68359375,-156.73828125,-115.72265625,0.0
1734583049.398968,127.9296875,-1.46484375,328.125,121.58203125,0.0
1734583049.402873,70.80078125,-45.8984375,145.01953125,140.13671875,0.0
1734583049.406822,-104.4921875,-105.95703125,-375.48828125,-50.78125,0.0
1734583049.4107273,-174.8046875,-73.73046875,-376.953125,-198.2421875,0.0
1734583049.4146323,-74.70703125,-24.4140625,72.265625,-138.671875,0.0
1734583049.4185374,116.2109375,-25.390625,287.109375,104.98046875,0.0
1734583049.4224424,101.07421875,-63.4765625,26.3671875,155.76171875,0.0
1734583049.4263475,-78.125,-104.4921875,-342.28515625,-30.76171875,0.0
1734583049.4302526,-170.41015625,-77.1484375,-342.7734375,-189.453125,0.0
1734583049.4341576,-88.8671875,-39.55078125,-49.8046875,-168.9453125,0.0
1734583049.438063,117.1875,-62.98828125,0.9765625,71.77734375,0.0
1734583049.441968,122.0703125,-30.76171875,123.53515625,177.734375,0.0
1734583049.445873,-61.5234375,-39.0625,-2.44140625,-3.41796875,0.0
1734583049.449778,-166.015625,-74.21875,-333.49609375,-188.96484375,0.0
1734583049.4537237,-114.74609375,-53.7109375,0.0,-190.4296875,0.0
1734583049.4576287,83.984375,-21.484375,0.0,34.1796875,0.0
1734583049.4615338,134.765625,-23.92578125,0.0,182.6171875,0.0
1734583049.4654388,-26.85546875,-76.66015625,0.0,37.59765625,0.0
1734583049.469344,-150.390625,-88.37890625,0.0,-173.33984375,0.0
1734583049.473249,-126.953125,-57.12890625,0.0,-199.21875,0.0
1734583049.477154,67.87109375,-3.41796875,0.0,0.9765625,0.0
1734583049.4810593,135.25390625,-37.59765625,0.0,169.43359375,0.0
1734583049.4849644,-30.76171875,-89.35546875,0.0,54.19921875,0.0
1734583049.4888694,-167.96875,-45.41015625,0.0,-156.73828125,0.0
1734583049.4927745,-158.203125,-42.96875,0.0,-222.16796875,0.0
1734583049.4966795,30.76171875,-43.45703125,0.0,-32.71484375,0.0
1734583049.5006192,0.0,-31.73828125,272.94921875,182.6171875,0.0
1734583049.5045245,0.0,-60.546875,9.27734375,91.30859375,0.0
1734583049.5084295,0.0,-85.9375,-304.19921875,-120.60546875,0.0
1734583049.5123346,0.0,-75.68359375,-278.3203125,-200.68359375,0.0
1734583049.5162396,0.0,-29.78515625,148.92578125,-59.5703125,0.0
1734583049.5201447,0.0,-31.73828125,264.6484375,158.69140625,0.0
1734583049.5240498,0.0,-78.125,-118.1640625,116.2109375,0.0
1734583049.5279548,0.0,-117.67578125,-545.41015625,-103.02734375,0.0
1734583049.53186,0.0,-40.52734375,-291.015625,-210.9375,0.0
1734583049.5357652,0.0,24.4140625,199.21875,-86.9140625,0.0
1734583049.5396702,0.0,-6.34765625,271.484375,140.13671875,0.0
1734583049.5435753,0.0,-35.64453125,75.68359375,121.58203125,0.0
1734583049.5475104,-132.32421875,-60.546875,-250.48828125,-96.6796875,0.0
1734583049.5514154,-174.31640625,-63.96484375,-368.1640625,-214.35546875,0.0
1734583049.5553207,-40.52734375,-23.4375,-53.7109375,-115.72265625,0.0
1734583049.5592258,117.67578125,5.859375,285.15625,107.91015625,0.0
1734583049.5631309,47.36328125,-25.87890625,124.0234375,136.71875,0.0
1734583049.567036,-125.48828125,-75.1953125,-262.6953125,-65.91796875,0.0
1734583049.570941,-195.80078125,-83.0078125,-387.20703125,-219.7265625,0.0
1734583049.574846,-68.84765625,-23.4375,-44.43359375,-148.92578125,0.0
1734583049.578751,124.51171875,16.6015625,321.77734375,93.75,0.0
1734583049.5826564,82.51953125,-23.92578125,138.18359375,150.390625,0.0
1734583049.5865614,-97.16796875,-92.28515625,-405.2734375,-36.62109375,0.0
1734583049.5904665,-180.6640625,-62.01171875,-417.96875,-185.546875,0.0
1734583049.5943978,-96.19140625,7.8125,37.109375,-154.78515625,0.0
1734583049.5983028,97.16796875,6.34765625,297.36328125,73.2421875,0.0
1734583049.602208,102.05078125,-37.59765625,53.7109375,172.8515625,0.0
1734583049.6061132,-74.70703125,-47.36328125,-245.1171875,-2.9296875,0.0
1734583049.6100183,-173.33984375,-31.25,-277.83203125,-187.98828125,0.0
1734583049.6139233,-113.28125,-55.17578125,-245.60546875,-198.2421875,0.0
1734583049.6178284,75.1953125,-73.73046875,-140.13671875,41.9921875,0.0
1734583049.6217334,107.91015625,-21.97265625,105.95703125,172.36328125,0.0
1734583049.6256385,-64.453125,-20.01953125,-16.6015625,6.34765625,0.0
1734583049.6295435,-205.078125,-62.98828125,-360.3515625,-196.2890625,0.0
1734583049.6334488,-182.6171875,-45.8984375,-206.54296875,-239.2578125,0.0
1734583049.637354,32.71484375,9.27734375,264.6484375,-15.13671875,0.0
1734583049.6412807,92.28515625,-15.625,206.0546875,141.11328125,0.0
1734583049.6451857,-96.19140625,-85.9375,-300.78125,-10.25390625,0.0
1734583049.6490908,-240.234375,-78.61328125,-412.109375,-221.19140625,0.0
1734583049.652996,-209.47265625,-30.76171875,-155.76171875,-266.11328125,0.0
1734583049.6569011,-6.8359375,-6.8359375,219.23828125,-75.68359375,0.0
1734583049.6608062,78.125,-49.8046875,88.37890625,100.09765625,0.0
1734583049.6647112,-66.40625,-73.73046875,-322.265625,19.04296875,0.0
1734583049.6686163,-208.984375,-41.9921875,-319.82421875,-187.5,0.0
1734583049.6725214,-218.75,-38.0859375,-203.61328125,-275.390625,0.0
1734583049.6764264,-52.734375,-48.828125,92.28515625,-103.02734375,0.0
1734583049.6803317,71.2890625,-35.64453125,238.28125,113.76953125,0.0
1734583049.6842368,-41.015625,-44.921875,-29.78515625,49.31640625,0.0
1734583049.688194,-185.546875,-69.82421875,-315.4296875,-167.48046875,0.0
1734583049.692099,-209.47265625,-64.94140625,-351.07421875,-270.99609375,0.0
1734583049.6960042,-58.10546875,-19.04296875,110.3515625,-129.8828125,0.0
1734583049.6999094,75.68359375,-18.06640625,330.56640625,95.21484375,0.0
1734583049.7038145,-30.76171875,-72.75390625,-38.0859375,57.6171875,0.0
1734583049.7077196,-187.98828125,-104.4921875,-427.734375,-148.92578125,0.0
1734583049.7116246,-228.02734375,-73.2421875,-418.9453125,-260.7421875,0.0
1734583049.7155297,-101.07421875,-17.08984375,13.18359375,-168.9453125,0.0
1734583049.7194347,62.01171875,-24.90234375,265.625,55.17578125,0.0
1734583049.72334,-16.11328125,-104.00390625,-285.15625,72.75390625,0.0
1734583049.727245,-183.59375,-74.21875,-407.71484375,-129.39453125,0.0
1734583049.7311502,-222.65625,-27.83203125,-215.8203125,-269.53125,0.0
1734583049.7351024,-85.9375,-10.25390625,18.06640625,-177.24609375,0.0
1734583049.7390077,75.1953125,-17.08984375,239.2578125,64.453125,0.0
1734583049.7429128,-8.7890625,-48.33984375,85.44921875,68.359375,0.0
1734583049.7468178,-180.6640625,-76.171875,-208.49609375,-138.671875,0.0
1734583049.750723,-226.07421875,-86.9140625,-372.55859375,-274.4140625,0.0
1734583049.754628,-101.07421875,-51.7578125,-196.77734375,-199.70703125,0.0
1734583049.758533,58.59375,-7.32421875,212.40234375,31.73828125,0.0
1734583049.7624383,-1.46484375,-30.76171875,130.37109375,70.80078125,0.0
1734583049.7663434,-153.3203125,-101.07421875,-385.7421875,-93.26171875,0.0
1734583049.7702484,-232.421875,-81.54296875,-444.82421875,-235.83984375,0.0
1734583049.7741535,-164.55078125,-8.30078125,-26.85546875,-222.16796875,0.0
1734583049.7780585,48.33984375,-7.8125,278.80859375,25.87890625,0.0
1734583049.7820094,58.10546875,-51.26953125,-0.48828125,126.46484375,0.0
1734583049.7859147,-126.953125,-51.26953125,-315.4296875,-71.77734375,0.0
1734583049.7898197,-240.72265625,-40.0390625,-271.97265625,-247.0703125,0.0
1734583049.7937248,-180.17578125,-41.015625,-76.66015625,-242.1875,0.0
1734583049.7976298,36.1328125,-34.1796875,161.1328125,-8.30078125,0.0
1734583049.801535,62.5,-65.91796875,56.640625,130.859375,0.0
1734583049.80544,-103.515625,-74.70703125,-251.46484375,-9.27734375,0.0
1734583049.809345,-217.28515625,-66.89453125,-367.67578125,-194.3359375,0.0
1734583049.8132503,-204.58984375,-93.26171875,-455.56640625,-228.02734375,0.0
1734583049.8171554,0.0,-17.08984375,84.47265625,-22.94921875,0.0
1734583049.8210604,84.9609375,-8.7890625,284.66796875,126.953125,0.0
1734583049.8249655,-76.66015625,-66.89453125,-145.99609375,5.859375,0.0
1734583049.8289099,-207.51953125,-66.89453125,-375.0,-185.546875,0.0
1734583049.832815,-181.15234375,-40.0390625,-269.53125,-233.3984375,0.0
1734583049.83672,-5.859375,-0.48828125,168.9453125,-55.17578125,0.0
1734583049.840625,71.77734375,-40.52734375,200.68359375,126.953125,0.0
1734583049.8445303,-54.6875,-88.8671875,-143.06640625,44.43359375,0.0
1734583049.8484354,-192.3828125,-83.984375,-395.01953125,-169.921875,0.0
1734583049.8523405,-196.2890625,-40.0390625,-256.8359375,-251.46484375,0.0
1734583049.8562455,-11.71875,-21.97265625,95.21484375,-63.96484375,0.0
1734583049.8601506,83.0078125,-44.921875,75.68359375,136.23046875,0.0
1734583049.8640556,-29.78515625,-26.3671875,15.13671875,64.453125,0.0
1734583049.867961,-162.109375,-33.203125,-196.77734375,-135.25390625,0.0
1734583049.871866,-210.9375,-51.7578125,-334.47265625,-250.0,0.0
1734583049.8758073,-31.25,6.34765625,123.53515625,-96.19140625,0.0
1734583049.8797123,130.859375,21.484375,367.67578125,148.92578125,0.0
1734583049.8836176,-0.9765625,-63.4765625,-11.71875,83.984375,0.0
1734583049.8875227,-176.26953125,-95.703125,-368.1640625,-144.04296875,0.0
1734583049.8914278,-205.078125,-67.3828125,-309.08203125,-238.28125,0.0
1734583049.8953328,-53.7109375,-50.78125,33.203125,-108.3984375,0.0
1734583049.8992379,118.1640625,-37.59765625,213.8671875,122.55859375,0.0
1734583049.903143,41.015625,-90.8203125,-291.9921875,125.0,0.0
1734583049.9070482,-160.15625,-81.54296875,-383.30078125,-105.46875,0.0
1734583049.9109533,-228.515625,-56.15234375,-151.3671875,-250.48828125,0.0
1734583049.9148583,-73.73046875,-45.8984375,95.21484375,-145.99609375,0.0
1734583049.9187634,110.3515625,-13.671875,327.1484375,90.33203125,0.0
1734583049.9227002,36.62109375,-45.41015625,63.4765625,109.375,0.0
1734583049.9266052,-138.671875,-89.35546875,-336.9140625,-84.9609375,0.0
1734583049.9305105,-208.49609375,-79.1015625,-381.34765625,-228.515625,0.0
1734583049.9344156,-99.609375,-26.3671875,-48.828125,-160.64453125,0.0
1734583049.9383206,107.421875,-9.765625,284.66796875,90.33203125,0.0
1734583049.9422257,99.609375,-56.15234375,75.1953125,156.25,0.0
1734583049.9461308,-95.21484375,-83.49609375,-351.5625,-37.109375,0.0
1734583049.9500358,-205.56640625,-81.54296875,-461.42578125,-212.40234375,0.0
1734583049.953941,-106.4453125,-8.30078125,-57.12890625,-172.8515625,0.0
1734583049.9578462,95.703125,12.6953125,300.29296875,60.05859375,0.0
1734583049.9617512,79.1015625,-42.96875,63.96484375,146.97265625,0.0
1734583049.9656563,-106.4453125,-53.22265625,-247.0703125,-30.2734375,0.0
1734583049.9695878,-196.2890625,-54.19921875,-277.34375,-198.2421875,0.0
1734583049.9734929,-134.27734375,-64.94140625,-68.359375,-198.73046875,0.0
1734583049.977398,66.89453125,-53.7109375,162.109375,-1.953125,0.0
1734583049.9813032,112.79296875,-42.48046875,178.7109375,153.80859375,0.0
1734583049.9852083,-75.68359375,-68.359375,-51.7578125,10.25390625,0.0
1734583049.9891133,-214.84375,-108.3984375,-381.8359375,-202.63671875,0.0
1734583049.9930184,-176.7578125,-116.69921875,-453.125,-218.75,0.0
1734583049.9969234,26.85546875,-20.99609375,134.27734375,-13.18359375,0.0
1734583050.0008285,123.53515625,-6.34765625,266.11328125,157.71484375,0.0
1734583050.0047338,-10.25390625,-67.87109375,-202.63671875,49.8046875,0.0
1734583050.0086389,-170.41015625,-61.5234375,-349.12109375,-162.59765625,0.0
1734583050.012544,-170.41015625,-36.62109375,-135.25390625,-219.23828125,0.0
1734583050.0164711,49.8046875,-21.484375,206.54296875,-21.484375,0.0
1734583050.0203762,153.3203125,-35.15625,187.01171875,166.50390625,0.0
1734583050.0242813,-17.08984375,-49.8046875,-27.83203125,60.546875,0.0
1734583050.0281866,-179.19921875,-62.01171875,-237.79296875,-159.1796875,0.0
1734583050.0320916,-168.9453125,-62.5,-180.17578125,-226.5625,0.0
1734583050.0359967,22.94921875,-57.6171875,43.9453125,-33.203125,0.0
1734583050.0399017,159.66796875,-22.94921875,99.12109375,188.4765625,0.0
1734583050.0438068,20.01953125,-8.30078125,51.26953125,105.46875,0.0
1734583050.0477118,-168.9453125,-36.62109375,-187.98828125,-134.27734375,0.0
1734583050.0516171,-190.4296875,-58.10546875,-302.734375,-223.6328125,0.0
1734583050.0555222,-3.90625,-29.296875,93.26171875,-60.546875,0.0
1734583050.0594273,153.3203125,-0.48828125,333.0078125,164.55078125,0.0
1734583050.0633845,23.92578125,-68.84765625,-53.7109375,112.3046875,0.0
1734583050.0672896,-145.01953125,-96.19140625,-468.75,-104.4921875,0.0
1734583050.0711946,-177.734375,-53.7109375,-321.2890625,-222.16796875,0.0
1734583050.0750997,-60.546875,-21.97265625,123.046875,-125.48828125,0.0
1734583050.0790048,109.375,-28.80859375,270.01953125,121.58203125,0.0
1734583050.08291,48.828125,-97.65625,-191.40625,141.6015625,0.0
1734583050.086815,-113.76953125,-98.6328125,-416.015625,-65.91796875,0.0
1734583050.0907202,-193.84765625,-58.59375,-237.3046875,-229.00390625,0.0
1734583050.0946252,-78.125,-67.3828125,-8.7890625,-159.1796875,0.0
1734583050.0985303,128.41796875,-82.51953125,34.66796875,118.1640625,0.0
1734583050.1024356,66.89453125,-32.2265625,58.10546875,142.578125,0.0
1734583050.1063406,-101.07421875,-25.87890625,-148.4375,-64.94140625,0.0
1734583050.1102984,-173.33984375,-68.84765625,0.0,-202.63671875,0.0
1734583050.1142035,-108.3984375,-51.26953125,0.0,-179.19921875,0.0
1734583050.1181085,90.8203125,3.41796875,0.0,57.6171875,0.0
1734583050.1220136,104.98046875,-29.296875,0.0,166.9921875,0.0
1734583050.1259186,-95.21484375,-62.5,0.0,-27.34375,0.0
1734583050.129824,-216.796875,-55.6640625,0.0,-221.6796875,0.0
1734583050.133729,-121.58203125,-14.16015625,0.0,-191.40625,0.0
1734583050.137634,67.87109375,13.18359375,0.0,39.55078125,0.0
1734583050.141539,67.3828125,-69.3359375,0.0,151.3671875,0.0
1734583050.1454442,-87.40234375,-88.8671875,0.0,3.41796875,0.0
1734583050.1493492,-175.29296875,-25.390625,0.0,-169.43359375,0.0
1734583050.1532545,-121.09375,-28.3203125,0.0,-177.24609375,0.0
1734583050.1572168,42.96875,-11.23046875,144.04296875,21.97265625,0.0
1734583050.1611218,78.125,-5.859375,228.515625,153.3203125,0.0
1734583050.1650271,-48.33984375,-34.1796875,-7.8125,36.62109375,0.0
1734583050.1689322,-168.45703125,-48.33984375,-204.58984375,-158.203125,0.0
1734583050.1728373,-146.484375,-31.73828125,-226.5625,-194.82421875,0.0
1734583050.1767423,63.96484375,6.34765625,127.44140625,21.484375,0.0
1734583050.1806474,137.20703125,-12.6953125,219.23828125,199.21875,0.0
1734583050.1845527,-26.3671875,-59.5703125,-145.01953125,65.4296875,0.0
1734583050.1884577,-162.109375,-98.6328125,-552.734375,-153.80859375,0.0
1734583050.1923628,-136.23046875,-33.203125,-196.2890625,-180.17578125,0.0
1734583050.1962678,69.3359375,25.87890625,323.2421875,15.625,0.0
1734583050.200173,184.08203125,-10.25390625,261.71875,208.49609375,0.0
1734583050.2041168,36.1328125,-44.921875,-32.71484375,123.046875,0.0
1734583050.2080219,-99.609375,-44.921875,-289.55078125,-77.63671875,0.0
1734583050.211927,-100.5859375,-19.04296875,-106.93359375,-152.34375,0.0
1734583050.215832,80.078125,-5.859375,219.7265625,16.11328125,0.0
1734583050.2197373,248.046875,2.9296875,298.33984375,257.8125,0.0
1734583050.2236423,138.671875,-34.66796875,-19.53125,211.42578125,0.0
1734583050.2275474,-34.66796875,-51.26953125,-288.57421875,-7.8125,0.0
1734583050.2314525,-65.4296875,-62.5,-322.75390625,-97.65625,0.0
1734583050.2353575,111.81640625,-49.8046875,-63.4765625,59.5703125,0.0
1734583050.2392628,309.5703125,-2.44140625,340.33203125,311.5234375,0.0
1734583050.2431679,241.2109375,-66.89453125,27.34375,315.91796875,0.0
1734583050.247073,73.2421875,-104.98046875,-375.9765625,110.3515625,0.0
1734583050.2510123,41.50390625,-90.8203125,-149.90234375,9.765625,0.0
1734583050.2549174,217.7734375,-66.40625,258.30078125,154.78515625,0.0
1734583050.2588227,415.0390625,-60.546875,304.6875,400.87890625,0.0
1734583050.2627277,341.30859375,-105.95703125,64.94140625,413.0859375,0.0
1734583050.2666328,152.83203125,-124.51171875,-47.36328125,198.73046875,0.0
1734583050.2705379,103.02734375,-134.765625,-212.40234375,64.94140625,0.0
1734583050.274443,228.515625,-129.39453125,-89.35546875,149.90234375,0.0
1734583050.2783482,415.0390625,-147.4609375,90.33203125,413.57421875,0.0
1734583050.2822533,397.94921875,-140.625,112.3046875,473.14453125,0.0
1734583050.2861583,232.91015625,-152.83203125,56.640625,272.94921875,0.0
1734583050.2900634,129.39453125,-181.15234375,-86.9140625,113.76953125,0.0
1734583050.2939684,208.49609375,-144.53125,13.671875,151.85546875,0.0
1734583050.297903,403.80859375,-131.8359375,281.73828125,388.18359375,0.0
1734583050.301808,398.92578125,-200.1953125,132.32421875,460.44921875,0.0
1734583050.3057132,229.00390625,-253.41796875,-275.390625,290.0390625,0.0
1734583050.3096182,142.578125,-225.5859375,-263.18359375,129.8828125,0.0
1734583050.3135235,187.5,-186.5234375,76.171875,104.4921875,0.0
1734583050.3174286,352.05078125,-174.31640625,260.25390625,306.15234375,0.0
1734583050.3213336,377.44140625,-207.51953125,71.2890625,433.10546875,0.0
1734583050.3252387,188.96484375,-235.3515625,-305.6640625,268.06640625,0.0
1734583050.3291438,57.6171875,-181.15234375,-191.40625,52.24609375,0.0
1734583050.333049,85.9375,-150.390625,85.9375,19.53125,0.0
1734583050.336954,260.25390625,-150.87890625,247.0703125,218.75,0.0
1734583050.3408592,316.40625,-151.85546875,234.375,356.93359375,0.0
1734583050.3447897,142.08984375,-170.41015625,23.92578125,214.35546875,0.0
1734583050.3486948,3.90625,-181.15234375,-197.265625,11.71875,0.0
1734583050.3525999,24.90234375,-171.875,-276.3671875,-35.64453125,0.0
1734583050.356505,205.56640625,-115.72265625,187.01171875,155.2734375,0.0
1734583050.3604102,291.9921875,-109.375,304.6875,329.58984375,0.0
1734583050.3643153,148.92578125,-149.4140625,-142.08984375,226.07421875,0.0
1734583050.3682203,5.37109375,-165.52734375,-529.296875,35.15625,0.0
1734583050.3721254,-2.9296875,-99.609375,-291.015625,-47.8515625,0.0
1734583050.3760304,173.828125,-30.2734375,257.32421875,103.515625,0.0
1734583050.3799357,291.015625,-39.0625,266.6015625,303.22265625,0.0
1734583050.3838408,145.01953125,-46.38671875,-97.65625,213.8671875,0.0
1734583050.3877459,-28.3203125,-43.45703125,-205.078125,-9.27734375,0.0
1734583050.3916855,-57.6171875,-59.08203125,-113.28125,-116.2109375,0.0
1734583050.3955905,102.05078125,-49.31640625,123.53515625,20.99609375,0.0
1734583050.3994958,247.0703125,-18.5546875,295.8984375,248.046875,0.0
1734583050.403401,134.27734375,-38.57421875,100.09765625,194.82421875,0.0
1734583050.407306,-46.875,-78.61328125,-173.33984375,-23.92578125,0.0
1734583050.411211,-95.703125,-115.234375,-386.71875,-130.37109375,0.0
1734583050.415116,47.36328125,-82.03125,-109.375,-24.4140625,0.0
1734583050.4190214,210.9375,-43.9453125,306.15234375,188.96484375,0.0
1734583050.4229264,130.859375,-99.12109375,51.26953125,195.3125,0.0
1734583050.4268315,-44.43359375,-111.328125,-354.98046875,-9.765625,0.0
1734583050.4307365,-99.609375,-57.6171875,-258.30078125,-150.87890625,0.0
1734583050.4346416,29.296875,0.0,162.109375,-71.77734375,0.0
1734583050.4386005,208.0078125,27.34375,307.12890625,176.26953125,0.0
1734583050.4425056,152.34375,4.39453125,54.6875,213.8671875,0.0
1734583050.446411,-26.3671875,19.04296875,-158.69140625,9.27734375,0.0
1734583050.450316,-102.5390625,54.6875,-139.16015625,-155.2734375,0.0
1734583050.454221,-0.9765625,79.58984375,90.33203125,-101.07421875,0.0
1734583050.458126,187.5,75.68359375,105.95703125,155.76171875,0.0
1734583050.4620311,165.52734375,62.5,78.61328125,229.00390625,0.0
1734583050.4659364,-16.11328125,60.546875,21.484375,27.83203125,0.0
1734583050.4698415,-117.1875,57.12890625,-236.81640625,-139.16015625,0.0
1734583050.4737465,-39.0625,60.546875,-377.9296875,-106.4453125,0.0
1734583050.4776516,158.203125,188.96484375,160.64453125,119.140625,0.0
1734583050.4815567,152.34375,251.953125,203.125,212.890625,0.0
1734583050.485516,-37.59765625,207.51953125,-316.89453125,24.4140625,0.0
1734583050.4894211,-143.5546875,259.765625,-318.359375,-158.203125,0.0
1734583050.4933264,-90.8203125,374.51171875,67.87109375,-152.83203125,0.0
1734583050.4972315,112.79296875,456.0546875,302.734375,63.96484375,0.0
1734583050.5011365,148.4375,458.49609375,124.0234375,187.5,0.0
1734583050.5050416,-23.92578125,408.69140625,-298.33984375,31.73828125,0.0
1734583050.5089467,-142.578125,423.33984375,-285.64453125,-146.97265625,0.0
1734583050.512852,-108.3984375,453.61328125,94.7265625,-164.55078125,0.0
1734583050.516757,86.9140625,409.66796875,207.03125,39.0625,0.0
1734583050.520662,158.203125,417.48046875,96.6796875,206.0546875,0.0
1734583050.5245671,7.32421875,482.91015625,74.70703125,76.66015625,0.0
1734583050.5284722,-125.9765625,486.328125,31.25,-125.48828125,0.0
1734583050.53242,-116.69921875,452.1484375,-30.76171875,-176.26953125,0.0
1734583050.536325,68.359375,459.9609375,205.078125,11.71875,0.0
1734583050.54023,158.203125,467.7734375,245.60546875,182.6171875,0.0
1734583050.5441353,25.390625,562.98828125,38.57421875,78.125,0.0
1734583050.5480404,-108.88671875,712.40234375,-230.46875,-109.375,0.0
1734583050.5519454,-118.1640625,739.2578125,-272.94921875,-176.26953125,0.0
1734583050.5558505,62.5,749.51171875,202.63671875,-23.92578125,0.0
1734583050.5597556,187.98828125,790.0390625,354.00390625,186.5234375,0.0
1734583050.5636609,47.36328125,804.19921875,-274.4140625,128.90625,0.0
1734583050.567566,-112.79296875,932.12890625,-267.578125,-84.9609375,0.0
1734583050.571471,-129.8828125,977.05078125,86.42578125,-184.08203125,0.0
1734583050.575376,14.6484375,969.23828125,191.40625,-58.10546875,0.0
1734583050.5793202,110.83984375,945.80078125,300.29296875,114.2578125,0.0
1734583050.5832253,-36.1328125,850.09765625,28.80859375,30.76171875,0.0
1734583050.5871303,-203.61328125,822.265625,-152.83203125,-181.640625,0.0
1734583050.5910356,-276.85546875,741.69921875,-105.95703125,-317.87109375,0.0
1734583050.5949407,-200.1953125,680.6640625,157.2265625,-249.0234375,0.0
1734583050.5988457,-28.3203125,699.70703125,301.7578125,-31.25,0.0
1734583050.6027508,-85.9375,692.3828125,69.3359375,-2.44140625,0.0
1734583050.6066558,-327.63671875,527.34375,-327.1484375,-255.859375,0.0
1734583050.6105611,-491.2109375,339.84375,-324.21875,-505.859375,0.0
1734583050.6144662,-391.6015625,449.21875,200.1953125,-465.8203125,0.0
1734583050.6183712,-177.734375,523.92578125,372.55859375,-201.171875,0.0
1734583050.6222763,-222.16796875,492.67578125,151.3671875,-155.2734375,0.0
1734583050.6262207,-379.8828125,549.31640625,60.546875,-331.0546875,0.0
1734583050.6301258,-423.33984375,667.48046875,153.80859375,-442.87109375,0.0
1734583050.6340308,-312.01171875,914.55078125,274.90234375,-363.28125,0.0
1734583050.6379359,-93.26171875,984.86328125,376.953125,-92.28515625,0.0
1734583050.6418412,-73.73046875,958.49609375,359.375,31.25,0.0
1734583050.6457462,-214.84375,971.6796875,181.15234375,-107.91015625,0.0
1734583050.6496513,-280.2734375,969.7265625,125.48828125,-249.0234375,0.0
1734583050.6535563,-185.05859375,969.7265625,136.23046875,-200.1953125,0.0
1734583050.6574614,33.69140625,969.7265625,436.5234375,34.1796875,0.0
1734583050.6613667,82.51953125,969.7265625,490.72265625,180.6640625,0.0
1734583050.6652718,-60.05859375,969.7265625,353.02734375,60.05859375,0.0
1734583050.6691768,-148.92578125,969.23828125,381.34765625,-103.02734375,0.0
1734583050.673111,-90.8203125,969.7265625,462.40234375,-98.14453125,0.0
1734583050.677016,113.28125,969.7265625,566.40625,143.5546875,0.0
1734583050.6809213,195.80078125,969.7265625,573.2421875,322.265625,0.0
1734583050.6848264,55.6640625,969.7265625,515.625,201.66015625,0.0
1734583050.6887314,-66.89453125,969.7265625,506.34765625,19.04296875,0.0
1734583050.6926365,-36.62109375,969.7265625,540.0390625,-84.47265625,0.0
1734583050.6965418,166.015625,969.7265625,570.80078125,89.84375,0.0
1734583050.7004468,249.51171875,969.7265625,529.78515625,293.9453125,0.0
1734583050.704352,99.609375,970.21484375,526.85546875,173.33984375,0.0
1734583050.708257,-31.73828125,969.7265625,486.81640625,-32.71484375,0.0
1734583050.712162,-13.18359375,969.7265625,482.421875,-85.44921875,0.0
1734583050.7160673,172.8515625,969.7265625,595.703125,99.609375,0.0
1734583050.7199988,283.203125,969.7265625,608.3984375,314.94140625,0.0
1734583050.723904,140.625,969.7265625,445.3125,233.88671875,0.0
1734583050.7278092,-12.6953125,969.7265625,306.15234375,3.90625,0.0
1734583050.7317142,-8.30078125,969.7265625,402.34375,-81.54296875,0.0
1734583050.7356193,165.0390625,969.7265625,583.49609375,92.7734375,0.0
1734583050.7395244,277.34375,969.7265625,522.4609375,309.08203125,0.0
1734583050.7434297,169.921875,969.7265625,207.03125,248.53515625,0.0
1734583050.7473347,13.671875,969.23828125,314.94140625,28.3203125,0.0
1734583050.7512398,-34.1796875,969.7265625,447.265625,-89.84375,0.0
1734583050.7551448,117.67578125,970.21484375,492.1875,38.57421875,0.0
1734583050.75905,275.390625,969.7265625,562.01171875,269.53125,0.0
1734583050.7629552,178.7109375,969.7265625,478.02734375,247.55859375,0.0
1734583050.7668862,0.0,969.7265625,334.47265625,17.578125,0.0
1734583050.7707913,0.0,969.7265625,312.01171875,-67.87109375,0.0
1734583050.7746964,0.0,969.23828125,470.21484375,95.703125,0.0
1734583050.7786014,0.0,969.7265625,542.48046875,287.59765625,0.0
1734583050.7825065,0.0,969.7265625,465.8203125,201.66015625,0.0
1734583050.7864118,0.0,969.7265625,288.57421875,-1.953125,0.0
1734583050.7903168,0.0,969.7265625,275.87890625,-86.42578125,0.0
1734583050.7942219,0.0,969.7265625,472.65625,-51.7578125,0.0
1734583050.798127,0.0,969.7265625,590.33203125,129.8828125,0.0
1734583050.8020322,0.0,969.7265625,440.4296875,153.80859375,0.0
1734583050.8059373,0.0,969.7265625,329.58984375,-66.89453125,0.0
1734583050.8098423,0.0,969.7265625,383.30078125,-257.8125,0.0
1734583050.8138003,-96.6796875,969.7265625,454.1015625,-222.65625,0.0
1734583050.8177054,41.015625,969.7265625,556.640625,2.44140625,0.0
1734583050.8216105,-20.5078125,969.7265625,519.53125,44.921875,0.0
1734583050.8255155,-248.53515625,969.7265625,425.29296875,-208.0078125,0.0
1734583050.8294208,-351.5625,969.7265625,365.234375,-385.7421875,0.0
1734583050.8333259,-257.8125,969.7265625,336.9140625,-324.21875,0.0
1734583050.837231,-85.44921875,969.7265625,543.45703125,-98.14453125,0.0
1734583050.841136,-59.5703125,969.23828125,595.21484375,12.6953125,0.0
1734583050.845041,-190.4296875,969.7265625,419.43359375,-131.8359375,0.0
1734583050.8489463,-268.5546875,969.7265625,254.8828125,-281.25,0.0
1734583050.8528514,-222.16796875,969.7265625,494.62890625,-280.2734375,0.0
1734583050.8567564,-9.765625,969.7265625,676.7578125,-37.59765625,0.0
1734583050.8607132,0.0,969.7265625,566.89453125,150.87890625,0.0
1734583050.8646183,0.0,969.23828125,465.33203125,41.015625,0.0
1734583050.8685234,0.0,969.7265625,498.046875,-149.90234375,0.0
1734583050.8724287,0.0,969.7265625,545.41015625,-199.70703125,0.0
1734583050.8763337,0.0,969.7265625,609.375,20.01953125,0.0
1734583050.8802388,0.0,969.7265625,573.73046875,245.60546875,0.0
1734583050.8841438,0.0,969.7265625,498.046875,134.765625,0.0
1734583050.8880491,0.0,969.7265625,511.71875,-88.8671875,0.0
1734583050.8919542,0.0,969.7265625,453.125,-109.375,0.0
1734583050.8958592,0.0,969.7265625,514.6484375,97.16796875,0.0
1734583050.8997643,0.0,969.7265625,651.85546875,282.71484375,0.0
1734583050.9036694,0.0,969.7265625,529.78515625,191.40625,0.0
1734583050.9075198,78.61328125,969.7265625,402.34375,-40.52734375,0.0
1734583050.911425,-54.6875,969.7265625,466.30859375,-130.37109375,0.0
1734583050.9153302,-157.2265625,969.23828125,608.88671875,26.3671875,0.0
1734583050.9192352,-117.67578125,969.23828125,608.88671875,239.2578125,0.0
1734583050.9231403,95.703125,969.7265625,424.31640625,192.3828125,0.0
1734583050.9270453,192.87109375,969.7265625,335.44921875,-48.828125,0.0
1734583050.9309506,47.8515625,969.7265625,393.06640625,-199.21875,0.0
1734583050.9348557,-53.7109375,970.21484375,505.859375,-61.03515625,0.0
1734583050.9387608,-11.23046875,969.7265625,445.80078125,195.80078125,0.0
1734583050.9426658,156.25,969.7265625,440.91796875,171.875,0.0
1734583050.946571,270.5078125,969.7265625,408.69140625,-99.12109375,0.0
1734583050.9504762,147.94921875,969.23828125,375.9765625,-251.953125,0.0
1734583050.95442,68.84765625,969.7265625,476.5625,-109.375,0.0
1734583050.9583254,220.703125,969.7265625,547.36328125,147.94921875,0.0
1734583050.9622304,154.78515625,969.7265625,439.453125,167.96875,0.0
1734583050.9661355,-6.8359375,969.7265625,328.125,-48.828125,0.0
1734583050.9700406,-69.3359375,969.7265625,355.95703125,-221.19140625,0.0
1734583050.9739456,54.6875,969.7265625,441.40625,-99.609375,0.0
1734583050.977851,250.48828125,969.7265625,556.15234375,183.10546875,0.0
1734583050.981756,217.28515625,969.7265625,404.78515625,248.046875,0.0
1734583050.985661,21.97265625,969.7265625,181.15234375,21.97265625,0.0
1734583050.989566,-97.16796875,969.7265625,332.51953125,-200.1953125,0.0
1734583050.9934714,-25.87890625,969.7265625,446.77734375,-165.0390625,0.0
1734583050.9973764,177.24609375,969.7265625,523.92578125,109.375,0.0
1734583051.0013175,0.0,969.7265625,0.0,221.6796875,0.0
1734583051.0052228,0.0,969.7265625,0.0,18.5546875,0.0
1734583051.0091279,0.0,969.7265625,0.0,-193.84765625,0.0
1734583051.013033,0.0,969.7265625,0.0,-225.5859375,0.0
1734583051.016938,0.0,969.7265625,0.0,-21.484375,0.0
1734583051.0208433,0.0,969.7265625,0.0,95.21484375,0.0
1734583051.0247483,0.0,969.23828125,0.0,-103.515625,0.0
1734583051.0286534,0.0,969.7265625,0.0,-329.58984375,0.0
1734583051.0325584,0.0,969.7265625,0.0,-354.4921875,0.0
1734583051.0364635,0.0,969.7265625,0.0,-112.3046875,0.0
1734583051.0403688,0.0,969.7265625,0.0,42.48046875,0.0
1734583051.0442739,0.0,969.7265625,0.0,-148.4375,0.0
1734583051.0481074,172.8515625,969.7265625,202.1484375,-383.7890625,0.0
1734583051.0520124,4.8828125,969.7265625,202.63671875,-371.09375,0.0
1734583051.0559177,-69.82421875,969.7265625,406.73828125,-104.98046875,0.0
1734583051.0598228,-60.05859375,969.7265625,464.35546875,64.453125,0.0
1734583051.0637279,63.96484375,969.7265625,279.296875,-78.125,0.0
1734583051.067633,62.5,969.7265625,206.54296875,-326.171875,0.0
1734583051.0715382,-132.32421875,969.7265625,180.17578125,-410.15625,0.0
1734583051.0754433,-262.6953125,969.7265625,293.45703125,-169.921875,0.0
1734583051.0793483,-224.12109375,969.7265625,518.06640625,125.0,0.0
1734583051.0832534,-49.31640625,969.7265625,401.3671875,87.40234375,0.0
1734583051.0871584,-41.9921875,969.7265625,275.390625,-121.58203125,0.0
1734583051.0910637,-209.9609375,969.7265625,360.3515625,-220.703125,0.0
1734583051.094996,21.484375,969.7265625,525.87890625,-48.828125,0.0
1734583051.098901,173.33984375,969.7265625,542.96875,237.3046875,0.0
1734583051.102806,89.35546875,969.7265625,336.9140625,223.14453125,0.0
1734583051.1067114,-44.43359375,969.7265625,305.6640625,-18.5546875,0.0
1734583051.1106164,-63.96484375,969.23828125,360.3515625,-149.90234375,0.0
1734583051.1145215,65.4296875,969.23828125,388.671875,16.6015625,0.0
1734583051.1184266,237.79296875,969.7265625,362.3046875,312.98828125,0.0
1734583051.1223319,175.78125,969.7265625,369.62890625,312.5,0.0
1734583051.126237,12.6953125,969.7265625,307.12890625,50.78125,0.0
1734583051.130142,-40.0390625,969.7265625,267.08984375,-139.6484375,0.0
1734583051.134047,59.08203125,969.7265625,375.9765625,-57.12890625,0.0
1734583051.137952,223.14453125,969.7265625,501.46484375,236.328125,0.0
1734583051.1418805,192.3828125,969.7265625,378.41796875,289.55078125,0.0
1734583051.1457858,36.1328125,970.21484375,160.64453125,32.2265625,0.0
1734583051.1496909,-33.203125,969.7265625,208.984375,-163.0859375,0.0
1734583051.153596,51.7578125,969.7265625,346.19140625,-119.140625,0.0
1734583051.157501,216.796875,969.7265625,490.72265625,177.734375,0.0
1734583051.1614063,195.80078125,969.23828125,228.02734375,281.73828125,0.0
1734583051.1653113,39.55078125,969.7265625,-35.15625,37.59765625,0.0
1734583051.1692164,-38.57421875,969.23828125,162.59765625,-168.45703125,0.0
1734583051.1731215,28.80859375,969.7265625,282.71484375,-135.7421875,0.0
1734583051.1770265,182.6171875,969.7265625,384.27734375,134.765625,0.0
1734583051.1809318,182.6171875,969.7265625,320.3125,237.79296875,0.0
1734583051.1848369,32.71484375,970.21484375,162.59765625,16.6015625,0.0
1734583051.1888075,-73.73046875,969.7265625,120.1171875,-200.68359375,0.0
1734583051.1927125,-37.109375,970.703125,94.23828125,-181.640625,0.0
1734583051.1966176,145.5078125,965.8203125,305.6640625,98.14453125,0.0
1734583051.2005227,189.453125,974.12109375,360.3515625,260.25390625,0.0
1734583051.204428,34.1796875,954.1015625,121.58203125,73.73046875,0.0
1734583051.208333,-82.03125,846.6796875,-249.0234375,-181.640625,0.0
1734583051.212238,-47.36328125,798.33984375,-142.578125,-256.34765625,0.0
1734583051.2161431,125.48828125,812.01171875,375.0,-32.71484375,0.0
1734583051.2200484,187.01171875,710.9375,308.10546875,197.265625,0.0
1734583051.2239535,41.015625,555.6640625,-303.22265625,65.4296875,0.0
1734583051.2278585,-82.51953125,534.66796875,-183.10546875,-218.75,0.0
1734583051.2317636,-81.54296875,508.7890625,155.76171875,-286.62109375,0.0
1734583051.2357166,77.1484375,464.35546875,242.1875,-30.76171875,0.0
1734583051.2396216,169.921875,430.6640625,246.58203125,194.82421875,0.0
1734583051.243527,29.78515625,379.39453125,96.6796875,62.5,0.0
1734583051.247432,-106.4453125,307.12890625,8.30078125,-183.10546875,0.0
1734583051.251337,-111.81640625,230.46875,-86.42578125,-275.390625,0.0
1734583051.255242,40.0390625,186.5234375,78.61328125,-83.0078125,0.0
1734583051.2591474,147.4609375,144.04296875,228.02734375,172.8515625,0.0
1734583051.2630525,36.1328125,101.5625,77.63671875,85.44921875,0.0
1734583051.2669575,-125.0,21.484375,-301.7578125,-199.21875,0.0
1734583051.2708626,-171.38671875,-33.69140625,-343.26171875,-314.94140625,0.0
1734583051.2747679,-25.390625,27.34375,199.21875,-144.04296875,0.0
1734583051.278673,103.02734375,5.37109375,347.16796875,115.72265625,0.0
1734583051.282621,-4.8828125,-106.93359375,-54.6875,64.94140625,0.0
1734583051.2865262,-180.17578125,-123.53515625,-314.94140625,-226.5625,0.0
1734583051.2904313,-256.34765625,-119.62890625,-241.69921875,-416.50390625,0.0
1734583051.2943363,-170.41015625,-159.66796875,45.8984375,-305.6640625,0.0
1734583051.2982414,-22.94921875,-205.078125,185.05859375,-22.94921875,0.0
1734583051.3021467,-94.23828125,-280.2734375,-110.3515625,-49.8046875,0.0
1734583051.3060517,-309.08203125,-331.0546875,-348.6328125,-337.40234375,0.0
1734583051.3099568,-416.015625,-357.91015625,-356.4453125,-527.83203125,0.0
1734583051.3138618,-311.03515625,-361.81640625,-380.37109375,-410.64453125,0.0
1734583051.317767,-132.8125,-265.625,143.06640625,-108.88671875,0.0
1734583051.3216722,-180.17578125,-291.50390625,178.7109375,-83.0078125,0.0
1734583051.3255773,-346.6796875,-351.07421875,-287.59765625,-333.984375,0.0
1734583051.32952,-406.73828125,-331.0546875,-397.4609375,-496.58203125,0.0
1734583051.333425,-304.6875,-316.40625,-156.73828125,-403.3203125,0.0
1734583051.33733,-115.234375,-334.47265625,254.39453125,-112.3046875,0.0
1734583051.3412352,-104.98046875,-431.15234375,131.8359375,10.25390625,0.0
1734583051.3451405,-255.859375,-479.98046875,-212.40234375,-203.61328125,0.0
1734583051.3490455,-335.44921875,-476.5625,-374.0234375,-390.13671875,0.0
1734583051.3529506,-247.0703125,-464.84375,-99.609375,-317.87109375,0.0
1734583051.3568556,-51.26953125,-472.16796875,227.5390625,-17.578125,0.0
1734583051.360761,-24.90234375,-509.27734375,41.9921875,159.1796875,0.0
1734583051.364666,-168.45703125,-525.87890625,65.4296875,-21.484375,0.0
1734583051.368571,-248.53515625,-571.77734375,74.70703125,-215.33203125,0.0
1734583051.372476,-185.546875,-597.16796875,33.69140625,-213.8671875,0.0
1734583051.3764193,1.46484375,-540.0390625,0.0,34.66796875,0.0
1734583051.3803244,82.51953125,-520.5078125,0.0,275.87890625,0.0
1734583051.3842294,-29.296875,-557.6171875,0.0,167.48046875,0.0
1734583051.3881345,-126.46484375,-546.38671875,0.0,-93.75,0.0
1734583051.3920398,-99.609375,-494.62890625,0.0,-184.08203125,0.0
1734583051.3959448,64.453125,-472.65625,0.0,65.4296875,0.0
1734583051.39985,136.23046875,-484.375,0.0,299.31640625,0.0
1734583051.403755,4.39453125,-522.4609375,0.0,173.33984375,0.0
1734583051.4076602,-111.81640625,-490.72265625,0.0,-67.3828125,0.0
1734583051.4115653,-95.703125,-452.63671875,0.0,-127.9296875,0.0
1734583051.4154704,78.61328125,-443.84765625,0.0,100.09765625,0.0
1734583051.4193754,183.59375,-446.77734375,0.0,355.95703125,0.0
1734583051.4233146,64.453125,-491.69921875,199.21875,264.6484375,0.0
1734583051.4272196,-91.796875,-520.01953125,-36.1328125,18.5546875,0.0
1734583051.4311247,-101.07421875,-497.55859375,37.109375,-115.72265625,0.0
1734583051.4350297,68.359375,-437.5,349.609375,-6.34765625,0.0
1734583051.438935,193.84765625,-414.55078125,393.06640625,276.85546875,0.0
1734583051.44284,107.421875,-450.1953125,174.8046875,266.11328125,0.0
1734583051.4467452,-32.71484375,-474.609375,-150.390625,-4.8828125,0.0
1734583051.4506502,-66.40625,-457.03125,-243.1640625,-137.6953125,0.0
1734583051.4545555,68.84765625,-388.671875,273.4375,38.0859375,0.0
1734583051.4584606,214.35546875,-382.8125,437.5,309.5703125,0.0
1734583051.4623656,135.25390625,-411.62109375,170.8984375,271.484375,0.0
1734583051.4662707,-9.765625,-384.765625,70.3125,7.32421875,0.0
1734583051.4702044,-45.8984375,-336.9140625,127.9296875,-159.1796875,0.0
1734583051.4741094,62.98828125,-314.94140625,282.71484375,-35.64453125,0.0
1734583051.4780145,213.8671875,-339.84375,337.40234375,279.296875,0.0
1734583051.4819198,163.57421875,-360.3515625,239.2578125,301.7578125,0.0
1734583051.4858248,6.34765625,-379.8828125,96.6796875,35.64453125,0.0
1734583051.48973,-61.03515625,-416.50390625,-85.9375,-147.4609375,0.0
1734583051.493635,20.01953125,-429.6875,-152.83203125,-59.08203125,0.0
1734583051.4975402,178.7109375,-373.53515625,232.421875,234.86328125,0.0
1734583051.5014453,170.8984375,-360.83984375,345.21484375,313.96484375,0.0
1734583051.5053504,15.13671875,-407.2265625,6.34765625,57.6171875,0.0
1734583051.5092554,-62.98828125,-426.26953125,-141.6015625,-159.1796875,0.0
1734583051.5131607,2.44140625,-395.01953125,204.1015625,-88.8671875,0.0
1734583051.5170882,166.9921875,-394.04296875,402.34375,231.93359375,0.0
1734583051.5209932,178.7109375,-439.453125,194.82421875,354.4921875,0.0
1734583051.5248983,26.85546875,-450.68359375,35.64453125,104.00390625,0.0
1734583051.5288033,-58.10546875,-450.1953125,41.9921875,-149.4140625,0.0
1734583051.5327086,-4.8828125,-436.03515625,184.5703125,-140.13671875,0.0
1734583051.5366137,157.2265625,-453.125,285.15625,145.5078125,0.0
1734583051.5405188,182.12890625,-504.8828125,211.9140625,288.57421875,0.0
1734583051.5444238,38.0859375,-533.69140625,91.796875,93.75,0.0
1734583051.548329,-58.10546875,-547.8515625,22.4609375,-143.5546875,0.0
1734583051.5522342,-26.85546875,-556.640625,19.04296875,-155.2734375,0.0
1734583051.5561392,136.23046875,-530.2734375,263.671875,117.1875,0.0
1734583051.5600443,187.01171875,-528.3203125,355.95703125,280.2734375,0.0
1734583051.5640054,0.0,-597.16796875,69.82421875,98.6328125,0.0
1734583051.5679107,0.0,-639.6484375,-243.65234375,-149.90234375,0.0
1734583051.5718157,0.0,-603.515625,11.23046875,-191.89453125,0.0
1734583051.5757208,0.0,-555.6640625,395.01953125,87.40234375,0.0
1734583051.5796258,0.0,-579.1015625,328.61328125,311.5234375,0.0
1734583051.5835311,0.0,-646.97265625,-181.15234375,163.0859375,0.0
1734583051.5874362,0.0,-633.7890625,-312.5,-107.421875,0.0
1734583051.5913413,0.0,-591.796875,83.0078125,-223.14453125,0.0
1734583051.5952463,0.0,-585.44921875,277.34375,-21.97265625,0.0
1734583051.5991516,0.0,-599.609375,86.9140625,249.0234375,0.0
1734583051.6030567,0.0,-571.2890625,81.0546875,175.78125,0.0
1734583051.6069617,0.0,-569.3359375,44.921875,-91.796875,0.0
1734583051.6108108,40.0390625,-573.2421875,-114.74609375,-188.96484375,0.0
1734583051.614716,-73.2421875,-541.015625,83.984375,6.34765625,0.0
1734583051.618621,-52.734375,-512.20703125,356.4453125,250.9765625,0.0
1734583051.6225262,103.515625,-534.1796875,197.75390625,173.33984375,0.0
1734583051.6264312,165.52734375,-582.03125,-146.97265625,-95.21484375,0.0
1734583051.6303365,34.1796875,-589.84375,-286.1328125,-217.7734375,0.0
1734583051.6342416,-87.40234375,-562.5,46.38671875,-86.9140625,0.0
1734583051.6381466,-96.19140625,-530.2734375,351.07421875,186.5234375,0.0
1734583051.6420517,56.640625,-568.84765625,24.90234375,198.73046875,0.0
1734583051.645957,161.1328125,-589.84375,-349.12109375,-63.96484375,0.0
1734583051.649862,63.96484375,-525.390625,-155.2734375,-255.859375,0.0
1734583051.653767,-75.68359375,-497.0703125,180.17578125,-146.484375,0.0
1734583051.657717,134.765625,-514.6484375,280.76171875,185.05859375,0.0
1734583051.661622,91.30859375,-529.296875,154.78515625,211.9140625,0.0
1734583051.665527,-57.6171875,-533.203125,-89.84375,-54.19921875,0.0
1734583051.6694322,-135.7421875,-552.24609375,-329.1015625,-235.3515625,0.0
1734583051.6733375,-45.8984375,-561.03515625,-164.55078125,-134.27734375,0.0
1734583051.6772425,106.4453125,-557.6171875,185.546875,162.59765625,0.0
1734583051.6811476,80.56640625,-576.66015625,124.0234375,242.1875,0.0
1734583051.6850526,-65.4296875,-643.5546875,-197.265625,19.53125,0.0
1734583051.688958,-138.18359375,-714.35546875,-550.29296875,-187.01171875,0.0
1734583051.692863,-71.77734375,-673.33984375,-133.30078125,-162.109375,0.0
1734583051.696768,101.5625,-654.296875,380.859375,124.0234375,0.0
1734583051.700673,123.53515625,-709.47265625,175.78125,244.62890625,0.0
1734583051.7046175,-35.64453125,-761.71875,-231.4453125,23.92578125,0.0
1734583051.7085226,-127.44140625,-745.60546875,-332.03125,-194.3359375,0.0
1734583051.7124279,-65.4296875,-651.3671875,-62.98828125,-174.8046875,0.0
1734583051.716333,75.68359375,-592.28515625,258.30078125,99.12109375,0.0
1734583051.720238,91.30859375,-541.015625,254.39453125,275.390625,0.0
1734583051.724143,-66.40625,-533.69140625,-119.62890625,54.6875,0.0
1734583051.7280483,-200.68359375,-527.83203125,-333.984375,-217.7734375,0.0
1734583051.7319534,-208.0078125,-534.66796875,-288.0859375,-269.04296875,0.0
1734583051.7358584,-59.08203125,-579.58984375,-37.109375,-49.31640625,0.0
1734583051.7397635,-9.27734375,-591.30859375,267.578125,129.8828125,0.0
1734583051.7436688,-168.45703125,-634.765625,-11.71875,-57.12890625,0.0
1734583051.7475739,-297.36328125,-672.36328125,-407.71484375,-342.28515625,0.0
1734583051.7515154,-307.6171875,-664.0625,0.0,-434.5703125,0.0
1734583051.7554204,-159.1796875,-653.3203125,0.0,-212.40234375,0.0
1734583051.7593257,-52.24609375,-674.8046875,0.0,37.109375,0.0
1734583051.7632308,-171.38671875,-723.6328125,0.0,-53.22265625,0.0
1734583051.7671359,-320.80078125,-723.6328125,0.0,-319.3359375,0.0
1734583051.771041,-321.77734375,-693.84765625,0.0,-405.76171875,0.0
1734583051.7749462,-136.23046875,-685.546875,0.0,-167.48046875,0.0
1734583051.7788513,-2.9296875,-723.14453125,0.0,124.0234375,0.0
1734583051.7827563,-110.83984375,-722.65625,0.0,72.75390625,0.0
1734583051.7866614,-228.02734375,-740.72265625,0.0,-201.66015625,0.0
1734583051.7905667,-212.890625,-786.62109375,0.0,-344.7265625,0.0
1734583051.7944717,-49.8046875,-767.08984375,0.0,-136.71875,0.0
1734583051.7984064,73.2421875,-807.12890625,323.73046875,150.87890625,0.0
1734583051.8023114,-28.80859375,-942.87109375,4.39453125,118.65234375,0.0
1734583051.8062165,-153.3203125,-1000.0,-356.4453125,-136.71875,0.0
1734583051.8101215,-160.64453125,-983.3984375,-212.890625,-264.6484375,0.0
1734583051.8140268,-18.06640625,-946.2890625,203.61328125,-99.12109375,0.0
1734583051.817932,144.04296875,-949.21875,324.21875,193.359375,0.0
1734583051.821837,89.35546875,-979.98046875,-0.9765625,230.46875,0.0
1734583051.8257422,-55.17578125,-980.46875,-396.484375,-13.18359375,0.0
1734583051.8296473,-101.5625,-928.7109375,-176.26953125,-229.00390625,0.0
1734583051.8335524,10.7421875,-890.625,211.42578125,-105.95703125,0.0
1734583051.8374574,176.26953125,-894.53125,300.29296875,233.3984375,0.0
1734583051.8413627,138.671875,-890.13671875,164.0625,283.203125,0.0
1734583051.8452928,-17.08984375,-877.9296875,10.25390625,19.04296875,0.0
1734583051.8491979,-86.9140625,-875.0,-236.81640625,-185.546875,0.0
1734583051.853103,-5.37109375,-835.9375,-129.8828125,-113.28125,0.0
1734583051.8570082,165.0390625,-772.4609375,329.1015625,189.453125,0.0
1734583051.8609133,161.1328125,-765.625,269.53125,299.31640625,0.0
1734583051.8648183,11.23046875,-799.31640625,-195.80078125,69.82421875,0.0
1734583051.8687236,-71.77734375,-807.12890625,-494.140625,-157.2265625,0.0
1734583051.8726287,-9.27734375,-721.19140625,-56.640625,-143.5546875,0.0
1734583051.8765337,156.73828125,-646.484375,406.73828125,160.64453125,0.0
1734583051.8804388,173.33984375,-671.875,232.421875,322.75390625,0.0
1734583051.884344,28.80859375,-703.61328125,-116.2109375,114.2578125,0.0
1734583051.8882492,-69.3359375,-687.5,-60.546875,-98.14453125,0.0
1734583051.892174,-28.3203125,-673.828125,109.375,-100.5859375,0.0
1734583051.896079,137.20703125,-650.87890625,247.55859375,142.578125,0.0
1734583051.8999841,185.546875,-625.9765625,280.2734375,295.8984375,0.0
1734583051.9038892,44.43359375,-629.39453125,66.40625,84.9609375,0.0
1734583051.9077945,-83.984375,-631.8359375,-139.6484375,-157.71484375,0.0
1734583051.9116995,-61.5234375,-609.86328125,-226.5625,-168.9453125,0.0
1734583051.9156046,104.4921875,-545.8984375,95.703125,92.7734375,0.0
1734583051.9195096,163.0859375,-495.60546875,323.73046875,297.8515625,0.0
1734583051.923415,23.4375,-515.13671875,71.2890625,142.08984375,0.0
1734583051.92732,-97.65625,-553.7109375,-285.15625,-126.953125,0.0
1734583051.931225,-96.6796875,-519.53125,-152.34375,-192.87109375,0.0
1734583051.9351304,68.359375,-460.9375,331.0546875,56.640625,0.0
1734583051.9390876,170.8984375,-482.91015625,367.67578125,292.96875,0.0
1734583051.9429927,48.828125,-536.62109375,-79.1015625,155.76171875,0.0
1734583051.946898,-85.44921875,-524.90234375,-209.47265625,-119.62890625,0.0
1734583051.950803,-95.703125,-490.234375,70.80078125,-207.03125,0.0
1734583051.954708,53.7109375,-474.609375,272.94921875,2.44140625,0.0
1734583051.9586132,158.69140625,-497.0703125,162.109375,252.44140625,0.0
1734583051.9625185,47.8515625,-495.60546875,34.1796875,179.19921875,0.0
1734583051.9664235,-99.609375,-484.375,-51.7578125,-87.40234375,0.0
1734583051.9703286,-130.37109375,-491.69921875,-259.27734375,-215.8203125,0.0
1734583051.9742336,6.34765625,-473.6328125,-169.921875,-42.48046875,0.0
1734583051.978139,151.3671875,-422.8515625,293.45703125,277.34375,0.0
1734583051.982044,76.66015625,-433.59375,239.2578125,241.2109375,0.0
1734583051.9859974,-86.9140625,-477.05078125,-144.53125,-98.14453125,0.0
1734583051.9899025,-144.04296875,-475.5859375,-265.625,-242.67578125,0.0
1734583051.9938078,-26.85546875,-433.59375,165.52734375,-80.56640625,0.0
1734583051.9977129,128.90625,-417.48046875,400.390625,194.3359375,0.0
1734583052.001618,73.73046875,-450.68359375,100.09765625,201.171875,0.0
1734583052.005523,-90.33203125,-471.19140625,-300.29296875,-72.75390625,0.0
1734583052.0094283,-153.80859375,-448.73046875,-293.45703125,-255.37109375,0.0
1734583052.0133333,-70.3125,-399.4140625,177.734375,-127.9296875,0.0
1734583052.0172384,95.21484375,-400.87890625,229.4921875,201.171875,0.0
1734583052.0211437,50.78125,-443.84765625,-74.21875,236.328125,0.0
1734583052.0250487,-143.5546875,-426.26953125,-104.98046875,-57.12890625,0.0
1734583052.0289538,-237.79296875,-428.22265625,-298.828125,-307.12890625,0.0
1734583052.0329096,0.0,-413.57421875,-201.171875,-275.390625,0.0
1734583052.0368147,0.0,-370.1171875,254.39453125,28.80859375,0.0
1734583052.0407197,0.0,-373.53515625,237.3046875,121.58203125,0.0
1734583052.044625,0.0,-398.4375,-125.0,-153.3203125,0.0
1734583052.04853,0.0,-418.9453125,-397.4609375,-417.48046875,0.0
1734583052.0524352,0.0,-409.1796875,-282.2265625,-393.06640625,0.0
1734583052.0563402,0.0,-381.8359375,195.80078125,-95.703125,0.0
1734583052.0602455,0.0,-408.203125,185.546875,22.4609375,0.0
1734583052.0641506,0.0,-465.8203125,-457.03125,-179.19921875,0.0
1734583052.0680556,0.0,-418.9453125,-419.43359375,-396.484375,0.0
1734583052.0719607,0.0,-379.39453125,-55.6640625,-437.01171875,0.0
1734583052.075866,0.0,-388.18359375,239.74609375,-190.91796875,0.0
1734583052.0798106,-146.97265625,-403.80859375,218.75,20.99609375,0.0
1734583052.0837157,-264.16015625,-426.26953125,-198.2421875,-104.4921875,0.0
1734583052.087621,-354.98046875,-429.6875,-379.39453125,-341.796875,0.0
1734583052.091526,-344.23828125,-411.62109375,-222.65625,-396.484375,0.0
1734583052.095431,-137.6953125,-375.0,225.09765625,-96.19140625,0.0
1734583052.0993364,-39.0625,-403.3203125,259.27734375,147.94921875,0.0
1734583052.1032414,-181.15234375,-438.4765625,-92.28515625,7.8125,0.0
1734583052.1071465,-285.15625,-453.125,-364.74609375,-248.046875,0.0
1734583052.1110516,-280.2734375,-454.1015625,-289.55078125,-341.796875,0.0
1734583052.1149569,-92.7734375,-390.13671875,242.67578125,-86.9140625,0.0
1734583052.118862,29.78515625,-384.27734375,359.86328125,203.125,0.0
1734583052.122767,-88.8671875,-431.15234375,-74.70703125,72.265625,0.0
1734583052.1267078,-197.75390625,-414.0625,-217.7734375,-196.2890625,0.0
1734583052.1306129,-202.1484375,-368.65234375,49.31640625,-269.04296875,0.0
1734583052.134518,-53.7109375,-354.4921875,259.27734375,-50.29296875,0.0
1734583052.1384232,75.68359375,-372.0703125,241.2109375,254.39453125,0.0
1734583052.1423283,-6.8359375,-376.953125,76.66015625,177.24609375,0.0
1734583052.1462333,-138.671875,-367.67578125,-221.19140625,-110.83984375,0.0
1734583052.1501386,-164.55078125,-356.4453125,-330.078125,-215.8203125,0.0
1734583052.1540437,-20.5078125,-346.19140625,-213.8671875,-32.2265625,0.0
1734583052.1579487,133.30078125,-289.0625,218.26171875,229.00390625,0.0
1734583052.1618538,60.546875,-287.109375,231.4453125,214.35546875,0.0
1734583052.165759,-90.8203125,-326.66015625,-150.87890625,-6.8359375,0.0
1734583052.1696641,-123.53515625,-304.6875,-176.7578125,-165.0390625,0.0
1734583052.1735976,-10.7421875,-270.5078125,170.41015625,-47.8515625,0.0
1734583052.1775026,147.94921875,-260.25390625,316.89453125,253.41796875,0.0
1734583052.181408,111.328125,-279.78515625,129.8828125,284.1796875,0.0
1734583052.185313,-40.0390625,-291.015625,-176.26953125,24.90234375,0.0
1734583052.189218,-102.5390625,-283.69140625,-118.65234375,-138.671875,0.0
1734583052.193123,-4.39453125,-277.34375,166.015625,-58.10546875,0.0
1734583052.1970284,174.31640625,-276.85546875,225.09765625,208.49609375,0.0
1734583052.2009335,154.296875,-307.12890625,-183.10546875,284.66796875,0.0
1734583052.2048385,-10.25390625,-301.26953125,-290.52734375,54.6875,0.0
1734583052.2087438,-91.30859375,-297.8515625,-156.73828125,-140.625,0.0
1734583052.2126489,-6.34765625,-291.015625,94.7265625,-102.05078125,0.0
1734583052.216554,177.734375,-267.08984375,340.33203125,171.875,0.0
1734583052.2204833,187.01171875,-288.57421875,275.390625,293.9453125,0.0
1734583052.2243884,39.0625,-333.0078125,6.8359375,72.75390625,0.0
1734583052.2282934,-63.4765625,-344.23828125,-268.06640625,-155.76171875,0.0
1734583052.2321987,-12.20703125,-305.6640625,15.13671875,-140.13671875,0.0
1734583052.2361038,169.921875,-272.94921875,379.39453125,140.13671875,0.0
1734583052.2400088,199.70703125,-311.5234375,155.76171875,304.6875,0.0
1734583052.243914,59.5703125,-365.72265625,-423.33984375,122.0703125,0.0
1734583052.2478192,-47.36328125,-328.61328125,-359.375,-121.58203125,0.0
1734583052.2517242,-22.4609375,-292.96875,101.5625,-149.90234375,0.0
1734583052.2556293,148.92578125,-301.26953125,287.59765625,116.2109375,0.0
1734583052.2595346,198.73046875,-320.3125,227.5390625,291.50390625,0.0
1734583052.2634397,46.875,-353.02734375,-9.765625,105.46875,0.0
1734583052.2673666,-66.40625,-372.0703125,-295.8984375,-132.32421875,0.0
1734583052.271272,-42.48046875,-360.83984375,-249.0234375,-180.6640625,0.0
1734583052.275177,119.62890625,-329.58984375,230.95703125,48.828125,0.0
1734583052.279082,210.9375,-329.1015625,341.796875,299.8046875,0.0
1734583052.2829874,98.6328125,-372.0703125,37.109375,181.640625,0.0
1734583052.2868924,-38.57421875,-417.48046875,-320.3125,-109.375,0.0
1734583052.2907975,-56.640625,-403.3203125,-259.765625,-206.54296875,0.0
1734583052.2947025,87.890625,-337.890625,265.625,-5.859375,0.0
1734583052.2986078,196.77734375,-342.7734375,363.28125,244.62890625,0.0
1734583052.302513,93.75,-400.87890625,-88.37890625,172.36328125,0.0
1734583052.306418,-55.17578125,-396.484375,-262.6953125,-101.07421875,0.0
1734583052.3103232,-82.03125,-371.58203125,23.4375,-238.28125,0.0
1734583052.314281,74.70703125,-360.83984375,246.09375,-43.9453125,0.0
1734583052.318186,201.171875,-369.140625,249.0234375,230.46875,0.0
1734583052.3220913,100.5859375,-393.06640625,50.29296875,180.6640625,0.0
1734583052.3259964,-39.55078125,-398.4375,-266.6015625,-84.47265625,0.0
1734583052.3299015,-75.68359375,-380.859375,-185.546875,-223.14453125,0.0
1734583052.3338065,44.921875,-376.46484375,30.2734375,-51.26953125,0.0
1734583052.3377118,195.80078125,-347.16796875,241.69921875,243.1640625,0.0
1734583052.3416169,128.90625,-350.09765625,197.265625,229.4921875,0.0
1734583052.345522,-27.34375,-391.11328125,-199.70703125,-34.1796875,0.0
1734583052.3494272,-87.40234375,-416.015625,-467.7734375,-190.4296875,0.0
1734583052.3533323,21.97265625,-370.1171875,34.1796875,-73.73046875,0.0
1734583052.3572373,180.17578125,-349.609375,389.16015625,213.37890625,0.0
1734583052.3611917,136.23046875,-389.6484375,73.2421875,218.75,0.0
1734583052.365097,-18.06640625,-404.78515625,-302.734375,-42.48046875,0.0
1734583052.369002,-89.84375,-379.39453125,-250.48828125,-208.0078125,0.0
1734583052.3729072,0.0,-356.4453125,111.81640625,-154.78515625,0.0
1734583052.3768125,181.640625,-351.07421875,274.4140625,139.6484375,0.0
1734583052.3807175,163.0859375,-392.08984375,56.15234375,242.67578125,0.0
1734583052.3846226,-3.90625,-420.8984375,-283.203125,0.48828125,0.0
1734583052.3885279,-90.33203125,-396.97265625,-272.4609375,-221.6796875,0.0
1734583052.392433,-7.8125,-369.140625,-148.92578125,-141.11328125,0.0
1734583052.396338,168.45703125,-345.703125,4.8828125,165.0390625,0.0
1734583052.400243,172.36328125,-335.9375,204.58984375,258.30078125,0.0
1734583052.4041483,16.11328125,-379.8828125,-42.48046875,28.80859375,0.0
1734583052.4081056,-89.35546875,-412.59765625,-379.39453125,-203.61328125,0.0
1734583052.4120107,-50.78125,-391.6015625,-136.23046875,-207.03125,0.0
1734583052.4159157,114.74609375,-363.76953125,310.546875,55.6640625,0.0
1734583052.419821,154.296875,-360.3515625,188.4765625,222.65625,0.0
1734583052.423726,-7.32421875,-386.23046875,-324.21875,45.41015625,0.0
1734583052.4276311,-135.7421875,-407.71484375,-471.6796875,-206.54296875,0.0
1734583052.4315362,-130.37109375,-393.06640625,-168.9453125,-271.484375,0.0
1734583052.4354415,4.39453125,-381.34765625,227.5390625,-59.08203125,0.0
1734583052.4393466,41.9921875,-431.15234375,-79.1015625,128.41796875,0.0
1734583052.4432516,-125.0,-435.05859375,-380.37109375,-43.9453125,0.0
1734583052.447157,-277.83203125,-416.9921875,-302.24609375,-304.19921875,0.0
1734583052.451062,-288.0859375,-411.62109375,-219.7265625,-383.7890625,0.0
1734583052.4550083,-139.16015625,-400.390625,63.4765625,-219.7265625,0.0
1734583052.4589136,-85.44921875,-421.875,187.98828125,-27.83203125,0.0
1734583052.4628186,-210.44921875,-438.4765625,-56.640625,-135.7421875,0.0
1734583052.4667237,-323.2421875,-439.453125,-351.5625,-408.69140625,0.0
1734583052.470629,-357.421875,-423.828125,-256.34765625,-513.671875,0.0
1734583052.474534,-195.3125,-415.0390625,94.23828125,-308.10546875,0.0
1734583052.478439,-45.41015625,-420.8984375,215.33203125,-31.73828125,0.0
1734583052.4823442,-155.2734375,-455.078125,-89.84375,-83.0078125,0.0
1734583052.4862494,-281.73828125,-469.23828125,-402.83203125,-328.125,0.0
1734583052.4901545,-284.1796875,-427.24609375,-152.34375,-425.78125,0.0
1734583052.4940596,-138.18359375,-416.50390625,215.33203125,-226.07421875,0.0
1734583052.4979649,26.3671875,-438.96484375,272.94921875,78.125,0.0
1734583052.501904,-34.66796875,-465.33203125,60.546875,70.80078125,0.0
1734583052.505809,-167.48046875,-470.703125,-238.28125,-151.85546875,0.0
1734583052.5097141,-173.33984375,-463.37890625,-149.4140625,-270.01953125,0.0
1734583052.5136194,-50.29296875,-457.03125,130.37109375,-151.85546875,0.0
1734583052.5175245,106.93359375,-431.15234375,296.875,141.11328125,0.0
1734583052.5214295,68.84765625,-452.1484375,81.54296875,175.29296875,0.0
1734583052.5253348,-79.58984375,-481.4453125,-283.69140625,-64.453125,0.0
1734583052.52924,-122.0703125,-499.0234375,-490.72265625,-205.078125,0.0
1734583052.533145,-2.9296875,-434.5703125,-53.22265625,-95.21484375,0.0
1734583052.5370502,177.734375,-386.23046875,399.4140625,213.37890625,0.0
1734583052.5409553,141.6015625,-437.01171875,144.04296875,261.23046875,0.0
1734583052.5448604,-16.11328125,-460.9375,-165.52734375,-6.8359375,0.0
1734583052.5487936,-78.125,-450.68359375,-188.4765625,-189.453125,0.0
1734583052.5526986,20.5078125,-433.59375,-39.0625,-128.41796875,0.0
1734583052.556604,208.0078125,-408.69140625,280.2734375,161.1328125,0.0
1734583052.560509,191.40625,-415.52734375,230.46875,299.31640625,0.0
1734583052.564414,22.4609375,-443.84765625,-203.125,62.01171875,0.0
1734583052.5683193,-51.7578125,-434.08203125,-322.75390625,-172.8515625,0.0
1734583052.5722244,19.53125,-416.9921875,-159.1796875,-148.4375,0.0
1734583052.5761294,196.77734375,-408.203125,29.78515625,146.484375,0.0
1734583052.5800347,225.09765625,-384.765625,225.5859375,282.2265625,0.0
1734583052.5839398,64.94140625,-409.66796875,57.6171875,76.66015625,0.0
1734583052.5878448,-56.640625,-431.640625,-250.0,-145.01953125,0.0
1734583052.5917501,-9.765625,-405.2734375,-54.19921875,-164.0625,0.0
1734583052.5956795,180.17578125,-368.65234375,337.890625,125.0,0.0
1734583052.5995848,230.46875,-385.7421875,265.625,331.0546875,0.0
1734583052.6034899,89.84375,-429.6875,-139.6484375,160.64453125,0.0
1734583052.607395,-30.76171875,-416.9921875,-249.51171875,-102.05078125,0.0
1734583052.6113,-10.25390625,-393.5546875,0.48828125,-166.9921875,0.0
1734583052.6152053,161.1328125,-389.6484375,209.47265625,92.7734375,0.0
1734583052.6191103,228.515625,-432.6171875,-91.30859375,318.359375,0.0
1734583052.6230154,88.8671875,-435.546875,-361.81640625,163.57421875,0.0
1734583052.6269207,-38.57421875,-394.53125,-251.953125,-99.12109375,0.0
1734583052.6308258,-43.45703125,-402.34375,-125.9765625,-142.08984375,0.0
1734583052.6347308,110.83984375,-385.25390625,186.03515625,73.2421875,0.0
1734583052.638636,212.40234375,-365.72265625,323.2421875,250.48828125,0.0
1734583052.6425598,103.02734375,-395.99609375,5.859375,156.25,0.0
1734583052.6464648,-32.2265625,-417.48046875,-351.5625,-59.5703125,0.0
1734583052.65037,-51.7578125,-391.6015625,-242.67578125,-156.25,0.0
1734583052.654275,98.14453125,-353.02734375,213.8671875,-16.11328125,0.0
1734583052.6581802,224.609375,-356.4453125,331.0546875,221.6796875,0.0
1734583052.6620853,119.140625,-406.25,-89.84375,196.77734375,0.0
1734583052.6659904,-35.64453125,-407.2265625,-377.44140625,-47.8515625,0.0
1734583052.6698956,-68.359375,-365.72265625,-180.17578125,-188.4765625,0.0
1734583052.6738007,61.5234375,-349.12109375,180.6640625,-57.12890625,0.0
1734583052.6777058,196.2890625,-375.9765625,266.11328125,207.03125,0.0
1734583052.681611,110.83984375,-411.62109375,-46.875,198.2421875,0.0
1734583052.685516,-39.0625,-397.4609375,-277.34375,-50.78125,0.0
1734583052.6894739,-79.1015625,-374.0234375,-172.36328125,-208.49609375,0.0
1734583052.6933792,30.76171875,-365.72265625,67.3828125,-82.51953125,0.0
1734583052.6972842,193.84765625,-349.609375,292.48046875,205.56640625,0.0
1734583052.7011893,145.99609375,-370.60546875,182.6171875,210.44921875,0.0
1734583052.7050946,-14.6484375,-400.390625,-162.109375,-43.45703125,0.0
1734583052.7089996,-90.33203125,-418.45703125,-454.1015625,-211.9140625,0.0
1734583052.7129047,-6.34765625,-383.7890625,-122.55859375,-129.8828125,0.0
1734583052.71681,172.36328125,-337.890625,369.140625,189.94140625,0.0
1734583052.720715,153.3203125,-377.9296875,145.99609375,286.62109375,0.0
1734583052.72462,-5.37109375,-431.640625,-460.44921875,40.0390625,0.0
1734583052.7285254,-86.42578125,-392.578125,-398.4375,-178.7109375,0.0
1734583052.7324305,-20.5078125,-363.76953125,7.8125,-151.3671875,0.0
1734583052.736392,0.0,-367.1875,248.046875,125.0,0.0
1734583052.7402973,0.0,-389.6484375,39.55078125,239.2578125,0.0
1734583052.7442024,0.0,-395.5078125,-304.19921875,40.52734375,0.0
1734583052.7481074,0.0,-378.90625,-305.17578125,-166.50390625,0.0
1734583052.7520127,0.0,-377.9296875,-164.0625,-176.26953125,0.0
1734583052.7559178,0.0,-372.0703125,117.1875,77.63671875,0.0
1734583052.7598228,0.0,-367.1875,162.59765625,250.9765625,0.0
1734583052.7637281,0.0,-371.58203125,-35.64453125,63.4765625,0.0
1734583052.7676332,0.0,-405.2734375,-373.046875,-182.12890625,0.0
1734583052.7715383,0.0,-395.5078125,-290.52734375,-211.9140625,0.0
1734583052.7754433,0.0,-324.21875,249.51171875,31.25,0.0
1734583052.7793486,0.0,-328.61328125,236.81640625,220.21484375,0.0
1734583052.783297,31.73828125,-374.0234375,-196.77734375,75.68359375,0.0
1734583052.7872021,-95.703125,-373.046875,-339.84375,-156.73828125,0.0
1734583052.7911074,-75.1953125,-350.09765625,-108.3984375,-234.86328125,0.0
1734583052.7950125,90.8203125,-342.7734375,194.82421875,4.8828125,0.0
1734583052.7989175,167.96875,-368.1640625,111.328125,253.41796875,0.0
1734583052.8028228,45.8984375,-391.11328125,-204.1015625,143.06640625,0.0
1734583052.806728,-84.9609375,-392.578125,-374.0234375,-110.83984375,0.0
1734583052.810633,-91.30859375,-381.34765625,-328.125,-208.49609375,0.0
1734583052.814538,62.5,-378.90625,-180.17578125,6.34765625,0.0
1734583052.8184433,157.71484375,-354.00390625,156.25,245.60546875,0.0
1734583052.8223484,41.015625,-356.93359375,80.56640625,167.48046875,0.0
1734583052.8262534,-98.14453125,-385.25390625,-262.6953125,-86.9140625,0.0
1734583052.8301976,-124.51171875,-387.6953125,-294.43359375,-231.4453125,0.0
1734583052.8341026,15.625,-363.28125,23.92578125,-42.48046875,0.0
1734583052.8380077,145.99609375,-354.00390625,278.80859375,231.4453125,0.0
1734583052.841913,51.26953125,-385.7421875,-15.625,158.203125,0.0
1734583052.845818,-104.00390625,-402.34375,-306.15234375,-104.00390625,0.0
1734583052.849723,-144.53125,-403.80859375,-355.46875,-235.83984375,0.0
1734583052.8536284,-15.13671875,-374.0234375,6.8359375,-95.21484375,0.0
1734583052.8575335,132.8125,-383.30078125,181.640625,182.6171875,0.0
1734583052.8614385,67.3828125,-416.50390625,-281.73828125,182.12890625,0.0
1734583052.8653438,-82.03125,-373.53515625,-304.6875,-62.01171875,0.0
1734583052.8692489,-132.32421875,-366.69921875,-234.375,-220.703125,0.0
1734583052.873154,-22.94921875,-374.51171875,-71.77734375,-123.046875,0.0
1734583052.8770933,137.6953125,-352.5390625,270.99609375,160.64453125,0.0
1734583052.8809984,92.7734375,-354.4921875,183.10546875,219.23828125,0.0
1734583052.8849034,-71.77734375,-379.8828125,-182.6171875,-20.99609375,0.0
1734583052.8888087,-138.671875,-393.5546875,-404.78515625,-210.44921875,0.0
1734583052.8927138,-52.24609375,-362.3046875,-66.89453125,-133.30078125,0.0
1734583052.8966188,124.0234375,-346.6796875,241.2109375,146.484375,0.0
1734583052.9005241,114.2578125,-375.9765625,26.85546875,197.75390625,0.0
1734583052.9044292,-46.875,-416.015625,-462.890625,-3.41796875,0.0
1734583052.9083343,-130.859375,-378.41796875,-404.78515625,-176.26953125,0.0
1734583052.9122393,-60.05859375,-328.125,12.6953125,-166.9921875,0.0
1734583052.9161446,119.140625,-335.9375,278.3203125,114.2578125,0.0
1734583052.9200497,126.46484375,-366.2109375,104.4921875,250.48828125,0.0
1734583052.9239838,-32.71484375,-377.44140625,-238.76953125,31.73828125,0.0
1734583052.927889,-137.6953125,-383.7890625,-385.7421875,-201.66015625,0.0
1734583052.9317942,-90.8203125,-364.2578125,-268.06640625,-211.9140625,0.0
1734583052.9356992,91.30859375,-323.2421875,206.0546875,43.45703125,0.0
1734583052.9396045,128.90625,-337.40234375,232.421875,216.796875,0.0
1734583052.9435096,-16.11328125,-379.39453125,-251.46484375,48.828125,0.0
1734583052.9474146,-127.44140625,-395.01953125,-479.98046875,-193.84765625,0.0
1734583052.95132,-100.5859375,-380.37109375,-367.67578125,-213.37890625,0.0
1734583052.955225,81.54296875,-318.84765625,173.828125,49.31640625,0.0
1734583052.95913,140.625,-327.1484375,270.5078125,227.05078125,0.0
1734583052.9630353,-8.30078125,-378.90625,-167.48046875,77.1484375,0.0
1734583052.9669404,-121.58203125,-380.859375,-370.1171875,-137.6953125,0.0
1734583052.9708717,-106.93359375,-352.05078125,-201.66015625,-205.56640625,0.0
1734583052.9747767,66.89453125,-337.40234375,168.9453125,8.30078125,0.0
1734583052.9786818,147.94921875,-365.72265625,125.0,236.328125,0.0
1734583052.982587,13.671875,-374.0234375,-120.1171875,81.0546875,0.0
1734583052.9864922,-119.140625,-371.58203125,-261.71875,-161.62109375,0.0
1734583052.9903972,-129.39453125,-380.859375,-363.76953125,-219.7265625,0.0
1734583052.9943025,32.71484375,-376.46484375,-293.45703125,-22.94921875,0.0
1734583052.9982076,142.578125,-340.33203125,116.2109375,227.5390625,0.0
1734583053.0021126,37.59765625,-342.28515625,81.54296875,128.41796875,0.0
1734583053.006018,-95.21484375,-383.30078125,-332.03125,-140.13671875,0.0
1734583053.009923,-118.1640625,-374.51171875,-308.10546875,-233.88671875,0.0
1734583053.013828,22.94921875,-325.1953125,135.7421875,-49.8046875,0.0
1734583053.0177522,164.0625,-318.84765625,280.2734375,213.8671875,0.0
1734583053.0216572,68.359375,-367.67578125,-115.234375,187.5,0.0
1734583053.0255623,-92.7734375,-371.09375,-365.234375,-56.15234375,0.0
1734583053.0294676,-136.23046875,-350.09765625,-305.6640625,-219.7265625,0.0
1734583053.0333726,-17.578125,-328.125,15.13671875,-116.2109375,0.0
1734583053.0372777,131.34765625,-342.7734375,151.85546875,162.109375,0.0
1734583053.041183,69.82421875,-377.9296875,-259.27734375,183.59375,0.0
1734583053.045088,-89.35546875,-353.02734375,-349.12109375,-55.17578125,0.0
1734583053.048993,-153.80859375,-340.8203125,-293.9453125,-219.7265625,0.0
1734583053.0528984,-55.17578125,-351.07421875,-199.21875,-110.83984375,0.0
1734583053.0568035,109.375,-332.03125,183.10546875,164.0625,0.0
1734583053.0607085,82.03125,-326.171875,161.62109375,169.921875,0.0
1734583053.0646672,-78.125,-355.46875,-259.27734375,-73.2421875,0.0
1734583053.0685723,-143.06640625,-372.55859375,-472.65625,-219.23828125,0.0
1734583053.0724773,-44.43359375,-345.703125,-138.18359375,-125.48828125,0.0
1734583053.0763826,118.1640625,-317.87109375,264.16015625,112.3046875,0.0
1734583053.0802877,80.56640625,-347.16796875,63.96484375,165.52734375,0.0
1734583053.0841928,-78.61328125,-399.4140625,-444.3359375,-5.859375,0.0
1734583053.088098,-171.875,-389.16015625,-470.21484375,-231.4453125,0.0
1734583053.092003,-121.58203125,-348.14453125,-113.28125,-237.79296875,0.0
1734583053.0959082,66.40625,-344.7265625,189.453125,67.87109375,0.0
1734583053.0998135,75.1953125,-386.23046875,-212.890625,233.88671875,0.0
1734583053.1037185,-90.33203125,-366.2109375,-425.29296875,-4.39453125,0.0
1734583053.1076236,-182.6171875,-350.5859375,-307.12890625,-274.4140625,0.0
1734583053.1115854,-130.859375,-356.93359375,-290.52734375,-251.46484375,0.0
1734583053.1154904,53.7109375,-346.6796875,-1.46484375,37.109375,0.0
1734583053.1193955,107.421875,-332.51953125,195.80078125,222.16796875,0.0
1734583053.1233008,-35.15625,-344.23828125,-110.3515625,84.47265625,0.0
1734583053.1272058,-159.66796875,-367.67578125,-413.57421875,-148.4375,0.0
1734583053.131111,-145.01953125,-366.69921875,-356.93359375,-212.890625,0.0
1734583053.1350162,35.15625,-329.1015625,84.47265625,16.6015625,0.0
1734583053.1389213,120.60546875,-317.87109375,245.60546875,190.4296875,0.0
1734583053.1428263,-14.6484375,-374.51171875,-238.76953125,40.0390625,0.0
1734583053.1467316,-148.92578125,-380.37109375,-492.1875,-157.2265625,0.0
1734583053.1506367,-134.765625,-311.5234375,-220.703125,-222.65625,0.0
1734583053.1545417,45.41015625,-297.36328125,145.01953125,-37.59765625,0.0
1734583053.1584904,135.25390625,-326.171875,157.71484375,190.4296875,0.0
1734583053.1623955,1.953125,-336.42578125,-112.3046875,108.3984375,0.0
1734583053.1663008,-126.46484375,-330.56640625,-307.12890625,-154.296875,0.0
1734583053.1702058,-134.27734375,-331.0546875,-321.77734375,-287.59765625,0.0
1734583053.174111,33.69140625,-324.21875,-10.7421875,-31.25,0.0
1734583053.1780162,135.25390625,-322.75390625,141.6015625,225.09765625,0.0
1734583053.1819212,22.94921875,-328.125,-163.57421875,145.01953125,0.0
1734583053.1858263,-114.74609375,-328.61328125,-358.88671875,-95.703125,0.0
1734583053.1897316,-144.04296875,-347.16796875,-521.97265625,-215.8203125,0.0
1734583053.1936367,-10.7421875,-289.55078125,-56.640625,-54.6875,0.0
1734583053.197542,129.39453125,-255.859375,351.5625,192.87109375,0.0
1734583053.201447,57.6171875,-300.78125,-44.921875,171.38671875,0.0
1734583053.2053907,-97.16796875,-315.4296875,-370.60546875,-60.546875,0.0
1734583053.209296,-163.57421875,-310.05859375,-366.69921875,-210.44921875,0.0
1734583053.213201,-44.921875,-278.3203125,-22.4609375,-119.62890625,0.0
1734583053.217106,131.34765625,-277.83203125,255.37109375,151.85546875,0.0
1734583053.2210114,66.89453125,-308.59375,68.359375,192.87109375,0.0
1734583053.2249165,-103.515625,-333.0078125,-350.09765625,-60.546875,0.0
1734583053.2288215,-161.1328125,-321.2890625,-374.0234375,-254.39453125,0.0
1734583053.2327268,-55.17578125,-304.19921875,-165.0390625,-158.203125,0.0
1734583053.2366319,118.1640625,-300.78125,-12.20703125,138.671875,0.0
1734583053.240537,94.23828125,-280.76171875,122.0703125,199.70703125,0.0
1734583053.2444422,-75.1953125,-305.6640625,-223.14453125,-46.875,0.0
1734583053.2483473,-156.73828125,-325.1953125,-475.09765625,-250.48828125,0.0
1734583053.2522883,-68.84765625,-294.43359375,-135.7421875,-181.640625,0.0
1734583053.2561936,123.53515625,-260.25390625,309.5703125,124.0234375,0.0
1734583053.2600987,119.62890625,-284.66796875,121.58203125,234.86328125,0.0
1734583053.2640038,-56.15234375,-333.49609375,-381.34765625,8.7890625,0.0
1734583053.267909,-151.85546875,-323.73046875,-409.66796875,-215.33203125,0.0
1734583053.271814,-88.37890625,-306.640625,-223.6328125,-204.58984375,0.0
1734583053.2757192,102.05078125,-298.33984375,84.9609375,82.51953125,0.0
1734583053.2796245,133.30078125,-329.1015625,-184.5703125,245.1171875,0.0
1734583053.2835295,-35.15625,-327.63671875,-426.26953125,58.10546875,0.0
1734583053.2874346,-151.3671875,-306.640625,-309.5703125,-163.0859375,0.0
1734583053.2913399,-107.421875,-312.5,-262.6953125,-204.1015625,0.0
1734583053.295245,96.19140625,-289.55078125,105.46875,28.3203125,0.0
1734583053.2991788,147.4609375,-302.24609375,171.875,241.69921875,0.0
1734583053.3030841,-22.4609375,-346.19140625,-309.08203125,74.21875,0.0
1734583053.3069892,-149.90234375,-340.8203125,-469.7265625,-170.8984375,0.0
1734583053.3108943,-126.953125,-304.19921875,-251.953125,-199.70703125,0.0
1734583053.3147995,68.84765625,-271.97265625,189.453125,12.6953125,0.0
1734583053.3187046,156.73828125,-286.62109375,206.54296875,207.51953125,0.0
1734583053.3226097,9.27734375,-327.1484375,-323.2421875,91.30859375,0.0
1734583053.326515,-120.60546875,-331.0546875,-576.171875,-157.2265625,0.0
1734583053.33042,-129.39453125,-278.3203125,-263.671875,-244.62890625,0.0
1734583053.334325,42.48046875,-260.25390625,163.57421875,-35.15625,0.0
1734583053.3382304,165.52734375,-298.33984375,196.77734375,209.9609375,0.0
1734583053.3421354,36.62109375,-323.73046875,-122.55859375,121.09375,0.0
1734583053.346087,-124.51171875,-325.1953125,-313.96484375,-159.66796875,0.0
1734583053.349992,-145.01953125,-324.70703125,-301.26953125,-267.578125,0.0
1734583053.3538973,23.92578125,-321.2890625,-83.49609375,-75.1953125,0.0
1734583053.3578024,157.2265625,-305.6640625,269.53125,192.3828125,0.0
1734583053.3617074,47.8515625,-328.125,16.6015625,138.18359375,0.0
1734583053.3656127,-104.4921875,-358.3984375,-427.734375,-122.0703125,0.0
1734583053.3695178,-136.23046875,-366.69921875,-603.02734375,-250.9765625,0.0
1734583053.3734229,3.41796875,-308.10546875,-146.484375,-91.796875,0.0
1734583053.3773282,150.87890625,-273.4375,342.28515625,190.4296875,0.0
1734583053.3812332,70.3125,-328.61328125,0.0,160.15625,0.0
1734583053.3851383,-93.75,-348.6328125,-368.65234375,-69.3359375,0.0
1734583053.3890436,-146.484375,-317.87109375,-300.78125,-219.7265625,0.0
1734583053.3929698,-23.4375,-305.17578125,-42.96875,-146.97265625,0.0
1734583053.396875,146.97265625,-308.59375,199.70703125,150.87890625,0.0
1734583053.4007802,91.796875,-321.77734375,37.109375,191.89453125,0.0
1734583053.4046853,-83.984375,-325.68359375,-271.97265625,-65.4296875,0.0
1734583053.4085903,-158.203125,-324.70703125,-305.6640625,-229.4921875,0.0
1734583053.4124956,-41.9921875,-328.61328125,-238.76953125,-141.11328125,0.0
1734583053.4164007,138.671875,-308.59375,-7.32421875,126.46484375,0.0
1734583053.4203057,110.3515625,-290.0390625,131.34765625,194.82421875,0.0
1734583053.424211,-61.5234375,-310.05859375,-246.09375,-56.640625,0.0
1734583053.428116,-150.87890625,-334.9609375,-434.5703125,-276.85546875,0.0
1734583053.4320211,-67.3828125,-312.98828125,-134.27734375,-212.40234375,0.0
1734583053.4359264,121.58203125,-272.4609375,312.5,86.9140625,0.0
1734583053.4398842,127.44140625,-295.8984375,170.41015625,201.171875,0.0
1734583053.4437895,-55.6640625,-346.19140625,-383.30078125,3.90625,0.0
1734583053.4476945,-164.55078125,-338.37890625,-420.41015625,-218.26171875,0.0
1734583053.4515996,-103.02734375,-309.08203125,-101.5625,-215.33203125,0.0
1734583053.455505,91.30859375,-305.17578125,196.2890625,75.1953125,0.0
1734583053.45941,125.9765625,-336.42578125,-84.47265625,245.1171875,0.0
1734583053.463315,-45.41015625,-343.26171875,-442.3828125,37.109375,0.0
1734583053.4672203,-163.57421875,-313.4765625,-333.0078125,-214.84375,0.0
1734583053.4711254,-122.0703125,-306.640625,-239.74609375,-245.60546875,0.0
1734583053.4750304,74.21875,-317.87109375,-84.9609375,41.50390625,0.0
1734583053.4789357,137.6953125,-295.8984375,171.875,261.71875,0.0
1734583053.4828408,-17.08984375,-310.05859375,-65.91796875,74.21875,0.0
1734583053.4867923,-150.87890625,-345.703125,-430.17578125,-198.2421875,0.0
1734583053.4906976,-142.08984375,-336.42578125,-364.2578125,-264.6484375,0.0
1734583053.4946027,57.6171875,-288.57421875,180.6640625,-10.25390625,0.0
1734583053.498508,162.59765625,-290.0390625,315.91796875,239.2578125,0.0
1734583053.502413,8.30078125,-335.9375,-158.203125,111.328125,0.0
1734583053.506318,-156.73828125,-357.91015625,-471.19140625,-160.15625,0.0
1734583053.5102234,-161.1328125,-334.47265625,-334.9609375,-269.04296875,0.0
1734583053.5141284,22.4609375,-293.45703125,170.8984375,-34.66796875,0.0
1734583053.5180335,156.73828125,-310.546875,186.5234375,253.41796875,0.0
1734583053.5219388,35.64453125,-342.7734375,-297.36328125,161.62109375,0.0
1734583053.5258439,-134.27734375,-320.80078125,-351.5625,-149.90234375,0.0
1734583053.529749,-156.25,-316.40625,-274.90234375,-299.8046875,0.0
1734583053.5336962,-2.9296875,-306.640625,19.53125,-105.95703125,0.0
1734583053.5376012,145.99609375,-288.57421875,330.56640625,229.00390625,0.0
1734583053.5415065,54.19921875,-311.5234375,95.21484375,201.171875,0.0
1734583053.5454116,-113.28125,-334.9609375,-286.62109375,-132.32421875,0.0
1734583053.5493166,-172.36328125,-340.8203125,-435.546875,-312.98828125,0.0
1734583053.553222,-31.73828125,-317.3828125,-141.11328125,-123.046875,0.0
1734583053.557127,149.4140625,-285.15625,275.390625,213.8671875,0.0
1734583053.561032,72.265625,-312.98828125,104.98046875,214.84375,0.0
1734583053.5649374,-120.1171875,-385.25390625,-497.0703125,-62.98828125,0.0
1734583053.5688424,-177.734375,-339.35546875,-442.3828125,-258.30078125,0.0
1734583053.5727475,-40.52734375,-282.71484375,-3.41796875,-171.38671875,0.0
1734583053.5766528,154.78515625,-291.015625,250.0,141.6015625,0.0
1734583053.5806005,104.00390625,-306.15234375,76.171875,221.6796875,0.0
1734583053.5845056,-87.890625,-321.77734375,-350.09765625,-35.15625,0.0
1734583053.5884106,-166.50390625,-309.5703125,-371.09375,-251.46484375,0.0
1734583053.592316,-74.21875,-302.24609375,-95.21484375,-175.29296875,0.0
1734583053.596221,126.46484375,-283.69140625,314.453125,137.6953125,0.0
1734583053.6001263,119.62890625,-303.22265625,139.6484375,244.62890625,0.0
1734583053.6040313,-63.4765625,-330.56640625,-330.078125,-16.6015625,0.0
1734583053.6079364,-162.59765625,-336.9140625,-470.21484375,-275.87890625,0.0
1734583053.6118417,-94.7265625,-324.70703125,-306.15234375,-244.62890625,0.0
1734583053.6157467,108.3984375,-264.16015625,269.53125,72.265625,0.0
1734583053.6196518,132.8125,-276.3671875,243.1640625,235.83984375,0.0
1734583053.623557,-56.15234375,-326.66015625,-320.80078125,25.390625,0.0
1734583053.6274965,-173.33984375,-311.03515625,-410.64453125,-222.16796875,0.0
1734583053.6314018,-116.2109375,-272.94921875,-145.99609375,-227.5390625,0.0
1734583053.6353068,85.9375,-265.625,179.6875,55.17578125,0.0
1734583053.639212,134.765625,-289.55078125,166.015625,256.8359375,0.0
1734583053.6431172,-45.41015625,-315.4296875,-151.3671875,68.84765625,0.0
1734583053.6470222,-178.7109375,-331.54296875,-430.6640625,-206.54296875,0.0
1734583053.6509273,-143.06640625,-316.40625,-353.02734375,-259.765625,0.0
1734583053.6548326,57.6171875,-300.78125,-55.6640625,15.13671875,0.0
1734583053.6587377,141.6015625,-280.76171875,183.59375,250.9765625,0.0
1734583053.662643,-4.39453125,-281.25,-29.78515625,91.796875,0.0
1734583053.666548,-149.90234375,-312.01171875,-378.41796875,-179.6875,0.0
1734583053.670453,-160.15625,-302.24609375,-280.2734375,-240.72265625,0.0
1734583053.6743875,37.109375,-278.80859375,183.59375,-7.32421875,0.0
1734583053.6782928,197.265625,-300.78125,243.65234375,220.703125,0.0
1734583053.6821978,58.10546875,-308.59375,-131.34765625,117.1875,0.0
1734583053.6861029,-160.15625,-290.52734375,-354.4921875,-189.453125,0.0
1734583053.6900082,-205.56640625,-283.69140625,-297.8515625,-322.75390625,0.0
1734583053.6939132,-20.01953125,-259.765625,109.375,-87.40234375,0.0
1734583053.6978185,120.60546875,-266.11328125,196.77734375,186.5234375,0.0
1734583053.7017236,-15.13671875,-290.0390625,-353.515625,82.51953125,0.0
1734583053.7056286,-198.2421875,-251.953125,-369.140625,-235.83984375,0.0
1734583053.709534,-235.83984375,-242.1875,-250.9765625,-383.30078125,0.0
1734583053.713439,-93.26171875,-233.3984375,9.765625,-222.65625,0.0
1734583053.717344,60.05859375,-201.171875,332.03125,71.77734375,0.0
1734583053.7212772,0.0,-214.35546875,111.328125,62.98828125,0.0
1734583053.7251823,0.0,-236.81640625,-285.15625,-218.26171875,0.0
1734583053.7290874,0.0,-238.76953125,-454.1015625,-366.69921875,0.0
1734583053.7329926,0.0,-192.87109375,-6.8359375,-233.88671875,0.0
1734583053.7368977,0.0,-164.55078125,379.39453125,45.41015625,0.0
1734583053.7408028,0.0,-207.03125,-17.578125,53.7109375,0.0
1734583053.744708,0.0,-253.41796875,-574.70703125,-219.7265625,0.0
1734583053.748613,0.0,-217.28515625,-442.3828125,-425.29296875,0.0
1734583053.7525184,0.0,-179.19921875,-30.76171875,-351.07421875,0.0
1734583053.7564235,0.0,-176.26953125,239.74609375,-25.87890625,0.0
1734583053.7603285,0.0,-175.78125,105.95703125,64.94140625,0.0
1734583053.7642338,0.0,-195.3125,-226.5625,-180.6640625,0.0
1734583053.7681625,-259.765625,-203.125,-386.23046875,-372.0703125,0.0
1734583053.7720675,-181.15234375,-184.08203125,-194.82421875,-336.9140625,0.0
1734583053.7759726,48.33984375,-156.73828125,284.1796875,-20.99609375,0.0
1734583053.779878,76.66015625,-167.96875,230.46875,142.578125,0.0
1734583053.783783,-113.76953125,-198.2421875,-188.4765625,-79.58984375,0.0
1734583053.787688,-214.84375,-222.16796875,-453.61328125,-318.84765625,0.0
1734583053.7915933,-139.6484375,-198.2421875,-190.91796875,-275.87890625,0.0
1734583053.7954984,78.61328125,-165.52734375,332.03125,37.109375,0.0
1734583053.7994037,133.30078125,-190.4296875,254.8828125,206.0546875,0.0
1734583053.8033087,-40.52734375,-249.0234375,-333.49609375,31.73828125,0.0
1734583053.8072138,-162.59765625,-259.765625,-467.7734375,-239.74609375,0.0
1734583053.811119,-114.74609375,-228.515625,-187.01171875,-293.45703125,0.0
1734583053.8150775,93.75,-220.21484375,141.6015625,9.27734375,0.0
1734583053.8189826,170.8984375,-230.95703125,179.6875,237.3046875,0.0
1734583053.822888,7.32421875,-253.90625,-129.39453125,76.171875,0.0
1734583053.826793,-132.32421875,-266.11328125,-319.3359375,-209.9609375,0.0
1734583053.830698,-122.0703125,-264.16015625,-231.93359375,-283.203125,0.0
1734583053.8346033,81.0546875,-256.34765625,55.17578125,-6.34765625,0.0
1734583053.8385084,179.6875,-243.65234375,219.23828125,239.74609375,0.0
1734583053.8424134,22.94921875,-250.48828125,-22.4609375,104.4921875,0.0
1734583053.8463187,-127.9296875,-285.15625,-349.12109375,-168.45703125,0.0
1734583053.8502238,-126.46484375,-315.4296875,-487.3046875,-259.765625,0.0
1734583053.854129,51.26953125,-249.0234375,114.74609375,-49.8046875,0.0
1734583053.8580341,175.29296875,-220.21484375,394.53125,220.703125,0.0
1734583053.8619945,47.8515625,-280.2734375,-92.7734375,153.3203125,0.0
1734583053.8658998,-119.62890625,-313.4765625,-412.109375,-121.58203125,0.0
1734583053.8698049,-151.85546875,-292.48046875,-338.8671875,-242.1875,0.0
1734583053.8737102,23.92578125,-264.6484375,28.3203125,-50.29296875,0.0
1734583053.8776152,183.59375,-263.671875,259.765625,228.02734375,0.0
1734583053.8815203,72.75390625,-293.9453125,-89.84375,178.22265625,0.0
1734583053.8854256,-104.4921875,-297.8515625,-394.53125,-95.703125,0.0
1734583053.8893306,-155.2734375,-273.4375,-289.0625,-245.1171875,0.0
1734583053.8932357,2.44140625,-268.5546875,-4.8828125,-93.75,0.0
1734583053.897141,185.546875,-263.18359375,155.2734375,180.17578125,0.0
1734583053.901046,95.703125,-251.953125,77.1484375,167.48046875,0.0
1734583053.9049513,-89.84375,-276.3671875,-256.34765625,-90.33203125,0.0
1734583053.9089022,0.0,-293.45703125,0.0,-263.671875,0.0
1734583053.9128072,0.0,-254.8828125,0.0,-142.578125,0.0
1734583053.9167123,0.0,-233.3984375,0.0,176.7578125,0.0
1734583053.9206176,0.0,-270.99609375,0.0,208.0078125,0.0
1734583053.9245226,0.0,-315.4296875,0.0,-54.6875,0.0
1734583053.928428,0.0,-312.5,0.0,-238.28125,0.0
1734583053.932333,0.0,-271.97265625,0.0,-153.80859375,0.0
1734583053.936238,0.0,-257.32421875,0.0,163.0859375,0.0
1734583053.9401433,0.0,-309.08203125,0.0,257.32421875,0.0
1734583053.9440484,0.0,-300.78125,0.0,-1.953125,0.0
1734583053.9479535,0.0,-281.25,0.0,-220.703125,0.0
1734583053.9518588,0.0,-278.3203125,0.0,-174.8046875,0.0
1734583053.9556918,-144.53125,-250.9765625,-451.171875,92.28515625,0.0
1734583053.959597,-22.94921875,-274.4140625,-24.4140625,206.0546875,0.0
1734583053.9635022,158.69140625,-308.10546875,378.41796875,-11.71875,0.0
1734583053.9674072,106.93359375,-324.70703125,115.234375,-240.234375,0.0
1734583053.9713125,-83.49609375,-295.41015625,-407.71484375,-231.4453125,0.0
1734583053.9752176,-154.296875,-266.11328125,-518.06640625,60.546875,0.0
1734583053.9791226,-41.9921875,-267.08984375,-137.20703125,244.62890625,0.0
1734583053.983028,157.2265625,-299.31640625,230.95703125,65.4296875,0.0
1734583053.986933,126.953125,-317.3828125,-216.30859375,-194.3359375,0.0
1734583053.9908383,-73.73046875,-270.01953125,-396.97265625,-245.60546875,0.0
1734583053.9947433,-172.8515625,-238.28125,-326.66015625,31.25,0.0
1734583053.9986484,-82.51953125,-250.48828125,-168.45703125,258.30078125,0.0
1734583054.0024853,133.7890625,-276.3671875,-104.4921875,96.19140625,0.0
1734583054.0063903,148.92578125,-276.85546875,-300.78125,-192.87109375,0.0
1734583054.0102956,-38.0859375,-270.99609375,-230.95703125,-271.484375,0.0
1734583054.0142007,-159.1796875,-263.671875,150.87890625,-17.08984375,0.0
1734583054.0181057,-97.65625,-261.71875,297.36328125,244.140625,0.0
1734583054.022011,114.74609375,-298.828125,-133.30078125,126.46484375,0.0
1734583054.025916,158.69140625,-323.2421875,-440.4296875,-138.671875,0.0
1734583054.0298214,-17.08984375,-329.58984375,-487.3046875,-223.14453125,0.0
1734583054.0337265,-153.3203125,-270.5078125,64.453125,-52.24609375,0.0
1734583054.0376315,-125.9765625,-234.375,391.11328125,163.57421875,0.0
1734583054.0415368,83.0078125,-277.34375,-46.38671875,71.77734375,0.0
1734583054.0454419,182.12890625,-304.19921875,-328.125,-187.5,0.0
1734583054.0492675,14.6484375,-300.78125,0.0,0.0,0.0
1734583054.0531728,-133.7890625,-280.76171875,0.0,0.0,0.0
1734583054.057078,-108.3984375,-270.01953125,0.0,0.0,0.0
1734583054.060983,52.24609375,-282.2265625,0.0,0.0,0.0
1734583054.0648882,118.65234375,-301.26953125,0.0,0.0,0.0
1734583054.0687933,-20.01953125,-309.5703125,0.0,0.0,0.0
1734583054.0726984,-172.8515625,-297.36328125,0.0,0.0,0.0
1734583054.0766037,-188.4765625,-305.17578125,0.0,0.0,0.0
1734583054.0805087,-0.9765625,-300.78125,0.0,0.0,0.0
1734583054.0844138,157.71484375,-324.21875,0.0,0.0,0.0
1734583054.088319,42.96875,-336.42578125,0.0,0.0,0.0
1734583054.0922241,-124.51171875,-294.921875,0.0,0.0,0.0
1734583054.0961578,159.66796875,-283.203125,375.9765625,159.1796875,0.0
1734583054.1000628,100.5859375,-326.66015625,129.8828125,216.30859375,0.0
1734583054.103968,-120.60546875,-361.328125,-382.8125,-58.10546875,0.0
1734583054.1078732,-204.1015625,-336.9140625,-443.84765625,-273.92578125,0.0
1734583054.1117783,-100.5859375,-297.36328125,-111.328125,-200.68359375,0.0
1734583054.1156833,92.7734375,-284.1796875,255.37109375,97.16796875,0.0
1734583054.1195886,73.73046875,-331.54296875,-152.83203125,203.61328125,0.0
1734583054.1234937,-126.953125,-324.70703125,-427.24609375,-28.80859375,0.0
1734583054.127399,-253.41796875,-289.55078125,-309.08203125,-279.78515625,0.0
1734583054.131304,-183.10546875,-283.203125,-116.69921875,-305.17578125,0.0
1734583054.135209,26.3671875,-269.53125,243.65234375,-38.57421875,0.0
1734583054.1391144,41.50390625,-261.71875,231.4453125,131.34765625,0.0
1734583054.1430435,-138.18359375,-298.33984375,0.0,-65.91796875,0.0
1734583054.1469486,-250.0,-321.77734375,0.0,-292.48046875,0.0
1734583054.1508536,-203.125,-282.71484375,0.0,-306.15234375,0.0
1734583054.154759,13.671875,-253.41796875,0.0,-29.78515625,0.0
1734583054.158664,71.2890625,-272.94921875,0.0,155.2734375,0.0
1734583054.1625693,-133.7890625,-305.6640625,0.0,-61.03515625,0.0
1734583054.1664743,-301.7578125,-302.24609375,0.0,-343.75,0.0
1734583054.1703794,-288.0859375,-242.67578125,0.0,-402.34375,0.0
1734583054.1742847,-108.3984375,-204.58984375,0.0,-164.0625,0.0
1734583054.1781898,-41.9921875,-229.98046875,0.0,20.99609375,0.0
1734583054.1820948,-216.796875,-244.62890625,0.0,-157.71484375,0.0
1734583054.186,-383.7890625,-228.515625,0.0,-434.08203125,0.0
1734583054.1899688,-378.41796875,-212.40234375,-276.85546875,-525.87890625,0.0
1734583054.1938741,-170.41015625,-191.40625,104.98046875,-287.59765625,0.0
1734583054.1977792,-47.8515625,-178.22265625,259.765625,-20.99609375,0.0
1734583054.2016842,-197.265625,-201.171875,-60.05859375,-123.046875,0.0
1734583054.2055895,-339.35546875,-221.6796875,-370.60546875,-366.69921875,0.0
1734583054.2094946,-326.171875,-244.62890625,-502.44140625,-434.08203125,0.0
1734583054.2134,-113.28125,-210.9375,-61.03515625,-207.51953125,0.0
1734583054.217305,54.19921875,-171.38671875,345.703125,58.59375,0.0
1734583054.22121,-61.03515625,-214.35546875,-17.578125,18.5546875,0.0
1734583054.2251153,-203.61328125,-265.625,-580.078125,-182.12890625,0.0
1734583054.2290204,-229.4921875,-243.65234375,-467.7734375,-285.15625,0.0
1734583054.2329257,-46.875,-209.47265625,124.0234375,-141.11328125,0.0
1734583054.236886,156.25,-225.09765625,336.42578125,0.0,0.0
1734583054.2407913,62.5,-267.08984375,-43.45703125,0.0,0.0
1734583054.2446964,-88.8671875,-265.13671875,-347.16796875,0.0,0.0
1734583054.2486017,-104.4921875,-253.90625,-271.484375,0.0,0.0
1734583054.2525067,42.48046875,-247.0703125,103.02734375,0.0,0.0
1734583054.2564118,273.4375,-252.9296875,305.6640625,0.0,0.0
1734583054.260317,261.71875,-276.85546875,96.19140625,0.0,0.0
1734583054.2642221,30.2734375,-292.48046875,-175.29296875,0.0,0.0
1734583054.2681272,-93.26171875,-313.4765625,-394.53125,0.0,0.0
1734583054.2720325,51.26953125,-307.12890625,-162.109375,0.0,0.0
1734583054.2759376,345.21484375,-248.53515625,367.67578125,0.0,0.0
1734583054.2798429,309.08203125,-270.5078125,228.02734375,0.0,0.0
1734583054.2837915,0.0,-320.80078125,-289.0625,64.94140625,0.0
1734583054.2876968,0.0,-324.21875,-416.50390625,-142.578125,0.0
1734583054.291602,0.0,-304.19921875,-13.18359375,-97.16796875,0.0
1734583054.295507,0.0,-293.9453125,356.4453125,186.5234375,0.0
1734583054.2994123,0.0,-339.35546875,120.1171875,306.15234375,0.0
1734583054.3033173,0.0,-370.1171875,-318.359375,126.953125,0.0
1734583054.3072226,0.0,-366.69921875,-391.6015625,-68.84765625,0.0
1734583054.3111277,0.0,-358.88671875,-81.0546875,-61.03515625,0.0
1734583054.3150327,0.0,-375.0,75.68359375,170.41015625,0.0
1734583054.318938,0.0,-361.81640625,168.9453125,256.8359375,0.0
1734583054.322843,0.0,-387.20703125,-104.00390625,88.8671875,0.0
1734583054.3267484,0.0,-427.734375,-440.4296875,-128.90625,0.0
1734583054.3306942,-46.875,-416.50390625,-231.4453125,-148.92578125,0.0
1734583054.3345993,149.4140625,-395.01953125,209.47265625,132.8125,0.0
1734583054.3385046,217.28515625,-394.04296875,266.6015625,339.35546875,0.0
1734583054.3424096,51.7578125,-438.4765625,-144.53125,169.921875,0.0
1734583054.3463147,-88.8671875,-457.51953125,-392.08984375,-86.42578125,0.0
1734583054.35022,-62.5,-447.265625,-287.59765625,-139.6484375,0.0
1734583054.354125,144.53125,-426.26953125,178.22265625,108.88671875,0.0
1734583054.3580303,240.72265625,-448.2421875,181.640625,347.65625,0.0
1734583054.3619354,71.77734375,-493.65234375,-385.25390625,220.21484375,0.0
1734583054.3658404,-89.35546875,-475.09765625,-388.671875,-47.36328125,0.0
1734583054.3697457,-70.3125,-463.37890625,-145.5078125,-143.06640625,0.0
1734583054.3736508,114.74609375,-458.49609375,199.21875,66.89453125,0.0
1734583054.3775885,195.3125,-448.2421875,316.89453125,299.31640625,0.0
1734583054.3814936,62.5,-469.7265625,63.4765625,196.77734375,0.0
1734583054.3853989,-93.75,-497.55859375,-264.6484375,-61.03515625,0.0
1734583054.389304,-116.69921875,-490.72265625,-364.74609375,-173.828125,0.0
1734583054.3932092,64.94140625,-441.40625,149.4140625,-1.46484375,0.0
1734583054.3971143,191.89453125,-439.94140625,323.2421875,254.39453125,0.0
1734583054.4010193,71.2890625,-471.19140625,-57.12890625,205.56640625,0.0
1734583054.4049246,-94.7265625,-500.48828125,-562.98828125,-48.33984375,0.0
1734583054.4088297,-147.94921875,-462.40234375,-444.3359375,-197.265625,0.0
1734583054.412735,-0.48828125,-385.7421875,215.33203125,-64.453125,0.0
1734583054.41664,173.33984375,-382.32421875,378.41796875,216.796875,0.0
1734583054.420545,91.796875,-411.1328125,109.86328125,208.49609375,0.0
1734583054.4244857,-87.40234375,-423.33984375,-220.21484375,-49.31640625,0.0
1734583054.4283907,-146.97265625,-425.29296875,-384.765625,-199.70703125,0.0
1734583054.432296,-15.13671875,-395.5078125,-24.90234375,-83.49609375,0.0
1734583054.436201,175.78125,-361.81640625,383.7890625,204.1015625,0.0
1734583054.4401062,124.0234375,-384.27734375,150.390625,231.4453125,0.0
1734583054.4440114,-67.87109375,-420.8984375,-307.12890625,-6.34765625,0.0
1734583054.4479165,-154.296875,-412.59765625,-458.0078125,-173.828125,0.0
1734583054.4518218,-47.8515625,-374.0234375,-214.84375,-107.421875,0.0
1734583054.4557269,152.34375,-305.17578125,345.21484375,167.48046875,0.0
1734583054.459632,132.32421875,-311.03515625,237.79296875,246.58203125,0.0
1734583054.4635372,-61.5234375,-357.421875,-325.68359375,0.0,0.0
1734583054.4674423,-137.20703125,-353.515625,-437.5,-184.08203125,0.0
1734583054.4713745,-31.73828125,-301.7578125,13.18359375,-123.046875,0.0
1734583054.4752798,169.921875,-257.32421875,361.81640625,133.7890625,0.0
1734583054.4791849,151.3671875,-283.203125,148.4375,202.1484375,0.0
1734583054.4830902,-91.30859375,-299.31640625,-116.2109375,-23.4375,0.0
1734583054.4869952,-205.56640625,-277.34375,-276.85546875,-225.09765625,0.0
1734583054.4909003,-148.4375,-267.08984375,-218.26171875,-227.5390625,0.0
1734583054.4948056,54.19921875,-264.16015625,82.03125,47.36328125,0.0
1734583054.4987106,100.09765625,-225.09765625,232.91015625,182.6171875,0.0
1734583054.502616,-84.9609375,-220.21484375,-26.85546875,-35.15625,0.0
1734583054.506521,-196.77734375,-247.55859375,-332.51953125,-246.58203125,0.0
1734583054.510426,-180.6640625,-230.95703125,-152.83203125,-292.96875,0.0
1734583054.5143313,7.8125,-187.01171875,314.94140625,-49.8046875,0.0
1734583054.5182557,90.8203125,-187.98828125,282.2265625,160.64453125,0.0
1734583054.522161,-76.66015625,-229.4921875,-174.31640625,2.9296875,0.0
1734583054.526066,-193.359375,-231.4453125,-435.05859375,-225.09765625,0.0
1734583054.5299711,-179.19921875,-191.40625,-165.0390625,-286.1328125,0.0
1734583054.5338764,8.30078125,-168.45703125,326.171875,-52.734375,0.0
1734583054.5377815,127.44140625,-228.02734375,229.4921875,190.91796875,0.0
1734583054.5416868,-14.16015625,-255.859375,-245.60546875,67.3828125,0.0
1734583054.5455918,-164.0625,-211.42578125,-329.58984375,-184.08203125,0.0
1734583054.549497,-182.12890625,-192.3828125,-125.48828125,-273.4375,0.0
1734583054.5534022,-35.64453125,-181.15234375,205.56640625,-97.65625,0.0
1734583054.5573072,71.2890625,-195.80078125,316.89453125,131.34765625,0.0
1734583054.5612125,-51.26953125,-235.83984375,96.19140625,43.9453125,0.0
1734583054.5651736,-230.95703125,-271.97265625,-236.81640625,-225.5859375,0.0
1734583054.569079,-270.5078125,-283.203125,-332.51953125,-351.5625,0.0
1734583054.572984,-111.81640625,-243.1640625,174.31640625,-188.96484375,0.0
1734583054.576889,19.53125,-221.6796875,431.15234375,68.359375,0.0
1734583054.5807943,-97.65625,-248.53515625,96.6796875,12.6953125,0.0
1734583054.5846994,-279.296875,-292.48046875,-421.38671875,-248.046875,0.0
1734583054.5886047,-339.35546875,-285.64453125,-435.546875,-389.16015625,0.0
1734583054.5925097,-226.07421875,-263.18359375,99.609375,-288.0859375,0.0
1734583054.5964148,-55.17578125,-268.06640625,347.16796875,0.48828125,0.0
1734583054.60032,-135.25390625,-315.4296875,-248.53515625,14.6484375,0.0
1734583054.6042252,-342.7734375,-297.8515625,-433.10546875,-288.57421875,0.0
1734583054.6081305,-390.13671875,-263.671875,-218.75,-447.75390625,0.0
1734583054.612086,0.0,-269.53125,83.49609375,-304.19921875,0.0
1734583054.615991,0.0,-252.44140625,335.44921875,-24.4140625,0.0
1734583054.6198962,0.0,-254.8828125,154.78515625,-8.7890625,0.0
1734583054.6238015,0.0,-300.29296875,-192.87109375,-231.93359375,0.0
1734583054.6277065,0.0,-292.48046875,-365.72265625,-365.72265625,0.0
1734583054.6316118,0.0,-250.0,-114.74609375,-295.8984375,0.0
1734583054.635517,0.0,-221.6796875,311.03515625,-1.46484375,0.0
1734583054.639422,0.0,-228.02734375,288.0859375,125.48828125,0.0
1734583054.6433272,0.0,-291.9921875,-216.30859375,-73.73046875,0.0
1734583054.6472323,0.0,-313.96484375,-411.1328125,-254.8828125,0.0
1734583054.6511376,0.0,-248.046875,116.69921875,-220.21484375,0.0
1734583054.6550426,0.0,-244.140625,421.38671875,59.08203125,0.0
1734583054.6589954,72.265625,-309.08203125,236.81640625,199.21875,0.0
1734583054.6629007,-64.453125,-346.19140625,10.7421875,17.08984375,0.0
1734583054.6668057,-144.53125,-371.09375,20.01953125,-170.41015625,0.0
1734583054.6707108,-86.42578125,-389.6484375,165.0390625,-158.203125,0.0
1734583054.674616,116.2109375,-392.578125,317.3828125,104.98046875,0.0
1734583054.6785212,187.01171875,-417.96875,240.72265625,268.5546875,0.0
1734583054.6824265,35.64453125,-442.87109375,-30.2734375,125.0,0.0
1734583054.6863315,-70.3125,-434.5703125,-136.23046875,-70.3125,0.0
1734583054.6902366,-24.4140625,-456.54296875,-273.92578125,-98.14453125,0.0
1734583054.6941419,169.43359375,-407.2265625,230.95703125,116.69921875,0.0
1734583054.698047,256.8359375,-383.30078125,454.58984375,309.08203125,0.0
1734583054.7019522,86.42578125,-436.03515625,-5.37109375,194.82421875,0.0
1734583054.705897,-69.3359375,-438.4765625,0.0,-26.85546875,0.0
1734583054.7098024,-35.64453125,-377.9296875,0.0,-100.5859375,0.0
1734583054.7137074,209.47265625,-312.5,0.0,91.30859375,0.0
1734583054.7176127,309.08203125,-310.546875,0.0,304.6875,0.0
1734583054.7215178,12.20703125,-336.42578125,0.0,211.9140625,0.0
1734583054.7254229,-149.4140625,-330.56640625,0.0,-25.390625,0.0
1734583054.7293282,-103.02734375,-313.4765625,0.0,-126.46484375,0.0
1734583054.7332332,53.22265625,-293.45703125,0.0,32.2265625,0.0
1734583054.7371385,191.89453125,-287.109375,0.0,257.32421875,0.0
1734583054.7410436,98.14453125,-319.3359375,0.0,192.3828125,0.0
1734583054.7449486,-42.48046875,-336.42578125,0.0,-41.015625,0.0
1734583054.748854,-61.03515625,-335.9375,0.0,-152.34375,0.0
1734583054.7527997,78.61328125,-301.26953125,168.45703125,-17.578125,0.0
1734583054.756705,219.23828125,-265.13671875,465.33203125,228.515625,0.0
1734583054.76061,143.06640625,-301.7578125,166.50390625,210.9375,0.0
1734583054.7645154,-15.625,-341.30859375,-353.02734375,-18.06640625,0.0
1734583054.7684205,-72.265625,-302.734375,-193.359375,-170.8984375,0.0
1734583054.7723255,50.29296875,-263.18359375,261.23046875,-45.8984375,0.0
1734583054.7762308,208.0078125,-269.53125,328.61328125,228.515625,0.0
1734583054.7801359,143.5546875,-318.359375,-130.37109375,240.234375,0.0
1734583054.7840412,-35.64453125,-294.921875,-322.75390625,-7.32421875,0.0
1734583054.7879462,-111.81640625,-245.1171875,-32.71484375,-183.10546875,0.0
1734583054.7918513,-10.25390625,-238.76953125,232.421875,-101.07421875,0.0
1734583054.7957566,167.48046875,-229.98046875,401.85546875,166.015625,0.0
1734583054.799703,147.94921875,-249.0234375,210.9375,228.515625,0.0
1734583054.8036082,-15.625,-278.3203125,-221.19140625,5.37109375,0.0
1734583054.8075132,-101.07421875,-270.5078125,-358.3984375,-171.875,0.0
1734583054.8114183,-28.3203125,-223.14453125,-10.25390625,-125.9765625,0.0
1734583054.8153236,146.484375,-205.078125,403.3203125,139.6484375,0.0
1734583054.8192286,150.390625,-253.41796875,223.14453125,242.67578125,0.0
1734583054.823134,-10.7421875,-295.8984375,-317.87109375,43.9453125,0.0
1734583054.827039,-108.3984375,-291.015625,-503.41796875,-151.85546875,0.0
1734583054.830944,-52.734375,-225.09765625,27.34375,-156.73828125,0.0
1734583054.8348494,124.0234375,-196.77734375,407.71484375,104.00390625,0.0
1734583054.8387544,152.34375,-233.3984375,211.42578125,245.60546875,0.0
1734583054.8426597,-13.671875,-254.8828125,-89.35546875,47.8515625,0.0
1734583054.846601,-127.9296875,-243.1640625,-263.671875,-166.50390625,0.0
1734583054.850506,-76.66015625,-245.1171875,-58.10546875,-164.0625,0.0
1734583054.8544114,103.02734375,-237.3046875,274.4140625,93.75,0.0
1734583054.8583164,152.34375,-218.26171875,279.78515625,265.625,0.0
1734583054.8622217,-3.41796875,-245.1171875,-40.52734375,98.6328125,0.0
1734583054.8661268,-119.140625,-275.87890625,-397.94921875,-112.79296875,0.0
1734583054.870032,-92.28515625,-268.06640625,-430.6640625,-130.859375,0.0
1734583054.8739371,67.87109375,-197.265625,197.75390625,62.5,0.0
1734583054.8778422,153.80859375,-180.6640625,386.71875,238.28125,0.0
1734583054.8817475,30.2734375,-243.1640625,-105.46875,133.30078125,0.0
1734583054.8856525,-107.91015625,-257.32421875,-387.6953125,-98.6328125,0.0
1734583054.8895578,-108.3984375,-218.26171875,-206.0546875,-178.22265625,0.0
1734583054.8935018,69.3359375,-192.3828125,227.05078125,25.390625,0.0
1734583054.897407,174.31640625,-205.078125,221.19140625,252.44140625,0.0
1734583054.901312,42.48046875,-227.5390625,-164.0625,152.34375,0.0
1734583054.9052172,-123.046875,-229.98046875,-341.30859375,-92.28515625,0.0
1734583054.9091225,-173.33984375,-216.30859375,-205.078125,-196.2890625,0.0
1734583054.9130275,-25.87890625,-207.51953125,103.02734375,-20.01953125,0.0
1734583054.9169328,116.69921875,-218.26171875,154.296875,242.67578125,0.0
1734583054.9208379,28.3203125,-221.19140625,-46.38671875,173.828125,0.0
1734583054.9247432,-119.62890625,-229.4921875,-338.37890625,-80.56640625,0.0
1734583054.9286482,-163.0859375,-233.3984375,-343.75,-199.21875,0.0
1734583054.9325533,-27.83203125,-191.40625,149.90234375,-55.6640625,0.0
1734583054.9364586,132.32421875,-165.52734375,382.8125,205.078125,0.0
1734583054.940419,64.94140625,-208.0078125,46.38671875,187.5,0.0
1734583054.944324,-94.7265625,-243.1640625,-400.87890625,-47.36328125,0.0
1734583054.948229,-156.73828125,-225.09765625,-363.28125,-192.87109375,0.0
1734583054.9521344,-37.59765625,-199.70703125,142.08984375,-90.8203125,0.0
1734583054.9560394,134.27734375,-195.3125,364.2578125,189.94140625,0.0
1734583054.9599447,87.40234375,-242.67578125,-114.2578125,226.5625,0.0
1734583054.9638498,-76.66015625,-251.953125,-437.01171875,-13.671875,0.0
1734583054.967755,-164.0625,-219.23828125,-279.78515625,-199.21875,0.0
1734583054.9716601,-80.078125,-220.703125,-25.390625,-135.7421875,0.0
1734583054.9755652,94.23828125,-235.83984375,89.84375,135.7421875,0.0
1734583054.9794705,92.7734375,-226.5625,69.82421875,217.7734375,0.0
1734583054.9833755,-62.01171875,-230.95703125,-221.19140625,3.90625,0.0
1734583054.9874074,0.0,-238.76953125,0.0,-198.73046875,0.0
1734583054.9913127,0.0,-208.984375,0.0,-150.390625,0.0
1734583054.9952178,0.0,-164.55078125,0.0,128.41796875,0.0
1734583054.9991229,0.0,-191.89453125,0.0,215.33203125,0.0
1734583055.0030282,0.0,-233.88671875,0.0,27.34375,0.0
1734583055.0069332,0.0,-230.46875,0.0,-165.0390625,0.0
1734583055.0108385,0.0,-209.47265625,0.0,-160.64453125,0.0
1734583055.0147436,0.0,-160.64453125,0.0,94.7265625,0.0
1734583055.0186489,0.0,-189.94140625,0.0,243.1640625,0.0
1734583055.022554,0.0,-243.65234375,0.0,83.984375,0.0
1734583055.0264592,0.0,-197.75390625,0.0,-139.6484375,0.0
1734583055.0303643,0.0,-172.36328125,0.0,-172.36328125,0.0
1734583055.0343149,62.01171875,-172.8515625,239.74609375,71.77734375,0.0
1734583055.03822,131.8359375,-186.03515625,269.04296875,248.046875,0.0
1734583055.0421252,-10.7421875,-214.35546875,-100.5859375,96.6796875,0.0
1734583055.0460303,-136.23046875,-224.609375,-356.4453125,-125.48828125,0.0
1734583055.0499356,-125.9765625,-222.65625,-292.96875,-162.109375,0.0
1734583055.0538406,37.109375,-192.87109375,134.27734375,57.12890625,0.0
1734583055.057746,127.44140625,-179.6875,276.85546875,265.13671875,0.0
1734583055.061651,6.8359375,-225.5859375,-124.51171875,141.11328125,0.0
1734583055.065556,-127.44140625,-276.3671875,-594.7265625,-81.54296875,0.0
1734583055.0694613,-135.7421875,-218.26171875,-336.9140625,-165.52734375,0.0
1734583055.0733664,37.109375,-158.69140625,283.203125,18.5546875,0.0
1734583055.0772717,161.62109375,-181.15234375,337.40234375,278.80859375,0.0
1734583055.081219,0.0,-225.5859375,-106.93359375,0.0,0.0
1734583055.0851243,0.0,-231.4453125,-415.52734375,0.0,0.0
1734583055.0890293,0.0,-202.1484375,-262.20703125,0.0,0.0
1734583055.0929346,0.0,-184.5703125,174.31640625,0.0,0.0
1734583055.0968397,0.0,-179.19921875,350.09765625,0.0,0.0
1734583055.1007447,0.0,-209.47265625,-44.43359375,0.0,0.0
1734583055.10465,0.0,-233.88671875,-341.796875,0.0,0.0
1734583055.108555,0.0,-234.86328125,-392.578125,0.0,0.0
1734583055.1124604,0.0,-216.30859375,-149.4140625,0.0,0.0
1734583055.1163654,0.0,-173.33984375,344.7265625,0.0,0.0
1734583055.1202707,0.0,-210.44921875,128.41796875,0.0,0.0
1734583055.1241758,0.0,-246.58203125,-364.74609375,0.0,0.0
1734583055.1280062,49.31640625,-213.37890625,-322.75390625,-220.21484375,0.0
1734583055.1319113,-86.42578125,-178.7109375,145.5078125,-108.88671875,0.0
1734583055.1358166,-117.67578125,-167.48046875,372.0703125,179.19921875,0.0
1734583055.1397216,8.30078125,-212.890625,-8.7890625,227.5390625,0.0
1734583055.143627,139.16015625,-229.4921875,-330.078125,-4.8828125,0.0
1734583055.147532,47.8515625,-220.703125,-393.5546875,-190.4296875,0.0
1734583055.151437,-111.328125,-202.63671875,-165.52734375,-133.7890625,0.0
1734583055.1553423,-158.69140625,-205.56640625,108.88671875,143.06640625,0.0
1734583055.1592474,-42.48046875,-208.49609375,86.9140625,223.14453125,0.0
1734583055.1631527,103.515625,-200.1953125,-187.98828125,6.34765625,0.0
1734583055.1670578,52.734375,-223.14453125,-366.2109375,-177.24609375,0.0
1734583055.170963,-94.23828125,-213.8671875,-83.49609375,-138.18359375,0.0
1734583055.1749034,89.35546875,-185.546875,319.82421875,127.9296875,0.0
1734583055.1788085,112.3046875,-219.23828125,111.81640625,254.39453125,0.0
1734583055.1827137,-38.57421875,-250.0,-356.4453125,52.24609375,0.0
1734583055.1866188,-150.390625,-239.74609375,-428.22265625,-181.15234375,0.0
1734583055.1905239,-107.91015625,-225.5859375,-143.5546875,-188.4765625,0.0
1734583055.1944292,67.3828125,-210.9375,251.46484375,55.6640625,0.0
1734583055.1983342,106.4453125,-243.1640625,84.47265625,203.125,0.0
1734583055.2022395,-39.0625,-284.66796875,-464.35546875,39.55078125,0.0
1734583055.2061446,-153.80859375,-230.95703125,-413.57421875,-207.51953125,0.0
1734583055.2100499,-131.8359375,-200.68359375,-124.51171875,-257.32421875,0.0
1734583055.213955,45.8984375,-196.77734375,213.8671875,-16.6015625,0.0
1734583055.21786,112.79296875,-205.56640625,247.55859375,170.8984375,0.0
1734583055.2217925,0.0,-229.00390625,-104.4921875,31.25,0.0
1734583055.2256978,0.0,-243.1640625,-365.72265625,-205.078125,0.0
1734583055.2296028,0.0,-257.32421875,-377.9296875,-265.13671875,0.0
1734583055.233508,0.0,-207.51953125,150.390625,-53.22265625,0.0
1734583055.2374132,0.0,-196.77734375,314.94140625,150.87890625,0.0
1734583055.2413182,0.0,-260.7421875,-230.95703125,43.45703125,0.0
1734583055.2452235,0.0,-296.38671875,-684.5703125,-186.5234375,0.0
1734583055.2491286,0.0,-245.60546875,-421.38671875,-286.62109375,0.0
1734583055.2530339,0.0,-181.15234375,194.82421875,-112.79296875,0.0
1734583055.256939,0.0,-207.03125,265.625,131.34765625,0.0
1734583055.2608442,0.0,-255.37109375,-173.33984375,58.59375,0.0
1734583055.2647493,0.0,-250.0,-373.046875,-171.875,0.0
1734583055.2686763,-184.08203125,-255.37109375,-355.46875,-296.875,0.0
1734583055.2725816,-70.80078125,-254.8828125,-70.80078125,-162.59765625,0.0
1734583055.2764866,75.1953125,-228.02734375,297.8515625,108.3984375,0.0
1734583055.280392,-2.9296875,-241.69921875,27.34375,93.75,0.0
1734583055.284297,-155.76171875,-264.16015625,-304.6875,-146.484375,0.0
1734583055.2882023,-201.171875,-288.0859375,-476.07421875,-286.62109375,0.0
1734583055.2921073,-86.42578125,-275.87890625,-271.484375,-160.64453125,0.0
1734583055.2960124,79.1015625,-218.75,299.8046875,110.83984375,0.0
1734583055.2999177,32.71484375,-269.53125,81.54296875,112.79296875,0.0
1734583055.3038228,-121.09375,-306.15234375,-379.8828125,-120.60546875,0.0
1734583055.307728,-195.80078125,-264.6484375,-325.68359375,-270.99609375,0.0
1734583055.311633,-98.6328125,-222.65625,100.09765625,-194.82421875,0.0
1734583055.3155985,74.70703125,-214.84375,0.0,69.82421875,0.0
1734583055.3195038,49.8046875,-256.34765625,0.0,141.11328125,0.0
1734583055.3234088,-110.83984375,-269.53125,0.0,-75.1953125,0.0
1734583055.3273141,-190.4296875,-253.41796875,0.0,-262.6953125,0.0
1734583055.3312192,-107.91015625,-249.51171875,0.0,-208.49609375,0.0
1734583055.3351245,57.12890625,-268.5546875,0.0,60.546875,0.0
1734583055.3390296,61.03515625,-273.92578125,0.0,158.69140625,0.0
1734583055.3429346,-87.890625,-262.6953125,0.0,-34.1796875,0.0
