timestamps,TP9,AF7,AF8,TP10,Right AUX
1734582867.9957051,-576.171875,-240.234375,-213.37890625,-376.46484375,0.0
1734582867.9996045,-465.8203125,-246.09375,-254.8828125,-449.70703125,0.0
1734582868.0035036,398.92578125,149.90234375,170.8984375,127.44140625,0.0
1734582868.007403,753.90625,242.67578125,236.328125,595.703125,0.0
1734582868.011302,116.2109375,-97.16796875,-34.66796875,253.41796875,0.0
1734582868.0152013,-566.40625,-450.68359375,-340.8203125,-314.453125,0.0
1734582868.0191004,-522.4609375,-273.92578125,-228.02734375,-432.6171875,0.0
1734582868.0229998,300.78125,273.92578125,239.74609375,68.84765625,0.0
1734582868.026899,762.6953125,286.1328125,217.28515625,598.6328125,0.0
1734582868.0307982,199.70703125,-303.7109375,-217.7734375,369.140625,0.0
1734582868.0346975,-494.140625,-317.3828125,-282.71484375,-258.7890625,0.0
1734582868.0385966,-569.82421875,124.51171875,32.71484375,-522.4609375,0.0
1734582868.0426064,199.70703125,208.0078125,218.26171875,-18.06640625,0.0
1734582868.0465057,809.08203125,164.0625,193.84765625,608.3984375,0.0
1734582868.0504048,312.98828125,72.75390625,75.1953125,407.2265625,0.0
1734582868.0543041,-435.05859375,-158.69140625,-184.08203125,-200.68359375,0.0
1734582868.0582032,-592.7734375,-246.09375,-312.98828125,-479.4921875,0.0
1734582868.0621026,71.2890625,-41.9921875,-19.04296875,-91.30859375,0.0
1734582868.066002,750.0,99.12109375,171.875,550.29296875,0.0
1734582868.069901,407.2265625,105.46875,127.9296875,487.3046875,0.0
1734582868.0738003,-320.3125,-261.23046875,-218.26171875,-91.30859375,0.0
1734582868.0776997,-614.2578125,-483.88671875,-424.31640625,-457.03125,0.0
1734582868.0815988,0.9765625,205.078125,149.90234375,-144.04296875,0.0
1734582868.085498,795.8984375,491.69921875,360.83984375,524.90234375,0.0
1734582868.0895128,512.6953125,66.40625,0.0,555.17578125,0.0
1734582868.0934122,-246.58203125,-125.48828125,-127.44140625,-22.94921875,0.0
1734582868.0973115,-603.02734375,41.015625,74.70703125,-435.05859375,0.0
1734582868.1012106,-86.9140625,260.7421875,232.421875,-187.5,0.0
1734582868.10511,746.58203125,266.11328125,288.0859375,490.72265625,0.0
1734582868.1090093,608.3984375,-39.55078125,53.7109375,634.765625,0.0
1734582868.1129084,-135.25390625,-207.51953125,-205.56640625,117.67578125,0.0
1734582868.1168077,-590.8203125,-81.54296875,-187.98828125,-359.86328125,0.0
1734582868.120707,-202.1484375,-120.1171875,-155.2734375,-212.40234375,0.0
1734582868.1246061,661.1328125,153.80859375,83.0078125,459.9609375,0.0
1734582868.1285055,675.78125,479.00390625,252.9296875,669.43359375,0.0
1734582868.1324048,-52.24609375,76.171875,-33.69140625,187.01171875,0.0
1734582868.136405,0.0,-79.58984375,-90.8203125,-334.9609375,0.0
1734582868.1403043,0.0,299.8046875,200.1953125,-296.38671875,0.0
1734582868.1442037,0.0,570.3125,354.4921875,350.09765625,0.0
1734582868.1481028,0.0,239.74609375,112.79296875,682.12890625,0.0
1734582868.152002,0.0,-96.19140625,-226.07421875,205.078125,0.0
1734582868.1559014,0.0,-91.30859375,-343.26171875,-374.51171875,0.0
1734582868.1598005,0.0,227.05078125,-7.32421875,-392.08984375,0.0
1734582868.1636999,0.0,421.38671875,234.86328125,192.3828125,0.0
1734582868.1675992,0.0,76.171875,-38.57421875,585.9375,0.0
1734582868.1714985,0.0,190.91796875,34.1796875,189.453125,0.0
1734582868.1753976,0.0,154.296875,-28.80859375,-365.234375,0.0
1734582868.179297,0.0,104.4921875,-53.22265625,-457.03125,0.0
1734582868.183139,-578.61328125,511.23046875,271.484375,99.12109375,0.0
1734582868.1870382,-265.625,607.91015625,289.55078125,608.88671875,0.0
1734582868.1909375,610.83984375,250.0,102.5390625,328.61328125,0.0
1734582868.1948369,717.28515625,-33.203125,-47.8515625,-267.578125,0.0
1734582868.198736,-5.37109375,113.76953125,73.73046875,-457.51953125,0.0
1734582868.2026353,-593.75,280.76171875,271.97265625,49.8046875,0.0
1734582868.2065346,-372.55859375,267.08984375,292.48046875,616.2109375,0.0
1734582868.2104337,498.53515625,-249.51171875,-163.57421875,437.5,0.0
1734582868.214333,734.86328125,-356.93359375,-268.5546875,-179.6875,0.0
1734582868.2182324,88.37890625,219.7265625,205.078125,-478.02734375,0.0
1734582868.2221315,-531.73828125,321.2890625,269.53125,-27.83203125,0.0
1734582868.2260308,-448.2421875,237.79296875,237.79296875,567.3828125,0.0
1734582868.2300246,319.82421875,99.609375,152.34375,435.546875,0.0
1734582868.233924,-427.734375,-119.62890625,40.52734375,-159.66796875,0.0
1734582868.2378232,-653.3203125,-244.62890625,33.69140625,-495.1171875,0.0
1734582868.2417226,3.41796875,-75.68359375,197.75390625,-115.72265625,0.0
1734582868.2456217,729.4921875,163.0859375,292.48046875,527.34375,0.0
1734582868.249521,393.5546875,-70.3125,122.0703125,473.6328125,0.0
1734582868.2534204,-362.3046875,-451.66015625,-133.7890625,-93.75,0.0
1734582868.2573195,-669.921875,-464.84375,-199.70703125,-469.23828125,0.0
1734582868.2612188,-88.8671875,95.703125,212.890625,-203.125,0.0
1734582868.2651181,713.8671875,380.859375,409.1796875,458.984375,0.0
1734582868.2690175,483.88671875,-56.15234375,85.44921875,525.390625,0.0
1734582868.2729166,-279.78515625,-282.71484375,-4.8828125,-29.296875,0.0
1734582868.2769127,-655.2734375,-84.47265625,161.1328125,0.0,0.0
1734582868.280812,-177.734375,87.40234375,261.23046875,0.0,0.0
1734582868.2847114,649.90234375,70.3125,334.47265625,0.0,0.0
1734582868.2886105,507.32421875,-74.70703125,202.1484375,0.0,0.0
1734582868.2925098,-235.83984375,-258.30078125,27.34375,0.0,0.0
1734582868.2964091,-646.97265625,-377.44140625,-1.46484375,0.0,0.0
1734582868.3003085,-308.10546875,-426.26953125,-9.27734375,0.0,0.0
1734582868.3042076,556.15234375,-78.61328125,176.26953125,0.0,0.0
1734582868.308107,618.1640625,167.48046875,248.046875,0.0,0.0
1734582868.3120062,-83.0078125,-167.96875,31.73828125,0.0,0.0
1734582868.3159056,-614.2578125,-360.3515625,-25.390625,0.0,0.0
1734582868.319805,-357.421875,-102.05078125,172.8515625,0.0,0.0
1734582868.3237731,0.0,268.06640625,372.55859375,222.65625,0.0
1734582868.3276722,0.0,50.78125,175.29296875,569.82421875,0.0
1734582868.3315716,0.0,-311.5234375,-114.2578125,148.4375,0.0
1734582868.335471,0.0,-365.234375,-172.8515625,-401.3671875,0.0
1734582868.3393703,0.0,-124.51171875,70.3125,-459.47265625,0.0
1734582868.3432696,0.0,-9.765625,235.3515625,156.73828125,0.0
1734582868.3471687,0.0,-297.36328125,-26.85546875,584.47265625,0.0
1734582868.351068,0.0,-188.96484375,-2.9296875,183.10546875,0.0
1734582868.3549674,0.0,-200.1953125,32.2265625,-396.484375,0.0
1734582868.3588667,0.0,-200.68359375,26.85546875,-521.97265625,0.0
1734582868.362766,0.0,169.921875,275.390625,32.2265625,0.0
1734582868.3666651,0.0,257.32421875,309.08203125,522.94921875,0.0
1734582868.370682,159.66796875,-32.2265625,141.6015625,246.58203125,0.0
1734582868.374581,-503.41796875,-289.0625,-0.48828125,-304.6875,0.0
1734582868.3784804,-541.50390625,-158.203125,85.9375,-501.46484375,0.0
1734582868.3823798,294.43359375,200.68359375,349.609375,14.6484375,0.0
1734582868.386279,820.80078125,172.8515625,309.08203125,586.9140625,0.0
1734582868.3901784,261.71875,-309.08203125,-60.05859375,366.69921875,0.0
1734582868.3940778,-428.7109375,-381.34765625,-90.33203125,-212.40234375,0.0
1734582868.3979769,-536.1328125,-26.3671875,179.19921875,-495.1171875,0.0
1734582868.4018762,187.5,163.57421875,291.9921875,-80.56640625,0.0
1734582868.4057755,791.015625,-95.21484375,127.44140625,529.78515625,0.0
1734582868.409675,357.421875,-220.21484375,16.11328125,367.67578125,0.0
1734582868.4135742,-334.47265625,-167.48046875,43.9453125,-222.16796875,0.0
1734582868.4175875,-567.87109375,-193.359375,41.9921875,-528.3203125,0.0
1734582868.4214869,62.5,67.3828125,222.16796875,-180.6640625,0.0
1734582868.4253862,801.7578125,302.24609375,332.03125,485.3515625,0.0
1734582868.4292855,478.02734375,-46.875,108.3984375,480.95703125,0.0
1734582868.4331849,-266.6015625,-377.44140625,-166.50390625,-56.15234375,0.0
1734582868.4370842,-581.0546875,-340.8203125,-219.23828125,-433.59375,0.0
1734582868.4409835,-47.36328125,-11.23046875,100.5859375,-201.171875,0.0
1734582868.4448829,742.1875,356.4453125,386.23046875,435.546875,0.0
1734582868.448782,564.94140625,-111.81640625,-7.32421875,538.0859375,0.0
1734582868.4526813,-183.10546875,-607.421875,-365.72265625,12.20703125,0.0
1734582868.4565806,-584.9609375,-182.12890625,5.859375,-459.47265625,0.0
1734582868.46048,-122.55859375,176.26953125,282.71484375,-289.0625,0.0
1734582868.4644902,718.75,136.23046875,262.6953125,406.25,0.0
1734582868.4683895,638.671875,-13.671875,140.625,599.609375,0.0
1734582868.4722888,-96.19140625,-202.1484375,-5.859375,93.26171875,0.0
1734582868.4761882,-579.1015625,-267.08984375,-45.8984375,-407.2265625,0.0
1734582868.4800875,-246.09375,-99.609375,154.296875,-327.63671875,0.0
1734582868.4839869,623.53515625,-19.04296875,233.88671875,345.21484375,0.0
1734582868.4878862,691.40625,-40.52734375,121.58203125,640.13671875,0.0
1734582868.4917855,-2.44140625,-121.58203125,29.78515625,177.734375,0.0
1734582868.4956849,-556.640625,-556.640625,-311.5234375,-359.375,0.0
1734582868.4995842,-339.35546875,-334.47265625,-124.51171875,-362.3046875,0.0
1734582868.5034835,534.66796875,372.55859375,395.99609375,257.32421875,0.0
1734582868.5073829,723.6328125,83.984375,149.90234375,628.41796875,0.0
1734582868.51138,0.0,-319.82421875,-155.76171875,203.61328125,0.0
1734582868.5152793,0.0,-220.21484375,-36.62109375,-385.7421875,0.0
1734582868.5191786,0.0,17.08984375,175.29296875,-460.9375,0.0
1734582868.523078,0.0,60.05859375,226.07421875,171.38671875,0.0
1734582868.5269773,0.0,-48.33984375,118.65234375,642.08984375,0.0
1734582868.5308766,0.0,-166.9921875,-107.91015625,278.3203125,0.0
1734582868.534776,0.0,-207.03125,-242.1875,-321.77734375,0.0
1734582868.5386753,0.0,-194.82421875,-251.953125,-447.265625,0.0
1734582868.5425746,0.0,-21.484375,34.1796875,121.09375,0.0
1734582868.546474,0.0,360.83984375,280.76171875,620.1171875,0.0
1734582868.5503733,0.0,217.7734375,109.86328125,333.0078125,0.0
1734582868.5542727,0.0,-143.5546875,-101.07421875,-267.08984375,0.0
1734582868.558262,-529.296875,-59.08203125,-15.625,-479.00390625,0.0
1734582868.5621614,253.41796875,347.65625,305.6640625,1.46484375,0.0
1734582868.5660608,808.59375,342.7734375,268.5546875,596.19140625,0.0
1734582868.56996,314.453125,-58.10546875,-54.6875,403.3203125,0.0
1734582868.5738595,-401.85546875,-154.78515625,-145.5078125,-198.73046875,0.0
1734582868.5777588,-561.03515625,-69.3359375,-112.79296875,-477.5390625,0.0
1734582868.5816581,135.25390625,315.91796875,164.0625,-64.453125,0.0
1734582868.5855575,784.66796875,312.98828125,42.48046875,597.65625,0.0
1734582868.5894568,386.23046875,76.66015625,-354.4921875,504.39453125,0.0
1734582868.5933561,-337.40234375,308.59375,-162.109375,-114.2578125,0.0
1734582868.5972555,-594.23828125,360.3515625,10.7421875,-466.796875,0.0
1734582868.6011548,3.41796875,492.1875,170.41015625,-125.0,0.0
1734582868.6051362,761.23046875,675.78125,262.20703125,544.43359375,0.0
1734582868.6090355,468.26171875,539.55078125,142.578125,528.3203125,0.0
1734582868.6129348,-293.9453125,274.90234375,-80.078125,-50.29296875,0.0
1734582868.6168342,-645.01953125,126.953125,-252.44140625,-466.796875,0.0
1734582868.6207335,-112.79296875,429.6875,53.7109375,-239.2578125,0.0
1734582868.6246328,695.80078125,623.53515625,290.52734375,447.265625,0.0
1734582868.6285322,483.3984375,180.17578125,-145.99609375,529.296875,0.0
1734582868.6324315,-264.16015625,-185.05859375,-475.5859375,-27.34375,0.0
1734582868.6363308,-663.0859375,141.6015625,-99.609375,-488.28125,0.0
1734582868.6402302,-208.49609375,499.51171875,225.5859375,-331.54296875,0.0
1734582868.6441295,655.2734375,466.796875,211.42578125,388.671875,0.0
1734582868.6480289,592.28515625,261.23046875,42.96875,578.125,0.0
1734582868.6520033,0.0,143.5546875,-161.62109375,56.15234375,0.0
1734582868.6559026,0.0,219.7265625,-85.44921875,-420.41015625,0.0
1734582868.659802,0.0,347.16796875,150.87890625,-330.078125,0.0
1734582868.6637013,0.0,578.125,278.80859375,334.9609375,0.0
1734582868.6676006,0.0,478.515625,125.9765625,599.609375,0.0
1734582868.6715,0.0,134.765625,-194.82421875,149.4140625,0.0
1734582868.6753993,0.0,-226.5625,-479.4921875,-354.00390625,0.0
1734582868.6792986,0.0,1.953125,-217.28515625,-362.79296875,0.0
1734582868.683198,0.0,686.03515625,348.14453125,266.11328125,0.0
1734582868.6870975,0.0,437.5,125.0,620.1171875,0.0
1734582868.690997,0.0,25.390625,-235.83984375,190.4296875,0.0
1734582868.6948962,0.0,73.73046875,-169.43359375,-350.5859375,0.0
1734582868.69887,-416.015625,288.0859375,114.2578125,-426.7578125,0.0
1734582868.7027693,445.3125,381.34765625,258.30078125,187.01171875,0.0
1734582868.7066686,750.0,210.9375,156.25,631.34765625,0.0
1734582868.710568,118.65234375,-25.390625,-116.69921875,276.3671875,0.0
1734582868.7144673,-511.23046875,-156.73828125,-301.7578125,-287.109375,0.0
1734582868.7183666,-513.18359375,-169.43359375,-309.08203125,-430.17578125,0.0
1734582868.722266,303.22265625,36.62109375,-25.390625,110.83984375,0.0
1734582868.7261653,749.51171875,338.37890625,204.58984375,609.375,0.0
1734582868.7300649,182.6171875,235.3515625,104.98046875,313.96484375,0.0
1734582868.7339642,-500.0,-141.11328125,-232.421875,-279.296875,0.0
1734582868.7378635,-596.6796875,-197.265625,-313.4765625,-518.5546875,0.0
1734582868.7417629,185.05859375,349.609375,227.05078125,-55.17578125,0.0
1734582868.7457821,744.62890625,469.7265625,0.0,543.45703125,0.0
1734582868.7496815,235.3515625,80.56640625,0.0,335.9375,0.0
1734582868.753581,-458.984375,4.8828125,0.0,-247.0703125,0.0
1734582868.7574804,-630.37109375,200.68359375,0.0,-544.43359375,0.0
1734582868.7613797,73.2421875,377.9296875,0.0,-121.09375,0.0
1734582868.765279,748.046875,195.3125,0.0,547.36328125,0.0
1734582868.7691784,348.14453125,-112.3046875,0.0,441.89453125,0.0
1734582868.7730777,-360.83984375,-50.29296875,0.0,-132.32421875,0.0
1734582868.7769773,-619.62890625,78.61328125,0.0,-545.41015625,0.0
1734582868.7808766,-23.92578125,15.625,0.0,-237.3046875,0.0
1734582868.784776,728.02734375,206.0546875,0.0,453.61328125,0.0
1734582868.7886753,443.84765625,268.5546875,0.0,439.94140625,0.0
1734582868.792683,-291.015625,-63.96484375,-128.41796875,-127.44140625,0.0
1734582868.7965822,-656.73828125,-136.23046875,-240.72265625,-545.8984375,0.0
1734582868.8004816,-132.8125,234.86328125,125.9765625,-291.015625,0.0
1734582868.804381,714.35546875,303.7109375,256.34765625,452.1484375,0.0
1734582868.8082805,526.3671875,-52.734375,-121.09375,567.3828125,0.0
1734582868.8121798,-222.16796875,-250.0,-387.6953125,10.25390625,0.0
1734582868.8160791,-645.5078125,-90.33203125,-214.84375,-490.72265625,0.0
1734582868.8199785,-211.42578125,324.21875,173.33984375,-352.05078125,0.0
1734582868.8238778,650.87890625,258.30078125,151.85546875,359.375,0.0
1734582868.8277774,562.01171875,-277.83203125,-300.78125,544.921875,0.0
1734582868.8316767,-133.7890625,-136.71875,-284.1796875,32.2265625,0.0
1734582868.835576,-595.21484375,106.4453125,-52.24609375,-462.40234375,0.0
1734582868.8395858,-309.5703125,103.515625,93.75,-398.92578125,0.0
1734582868.843485,584.9609375,338.37890625,238.76953125,287.109375,0.0
1734582868.8473847,674.8046875,349.12109375,177.24609375,588.8671875,0.0
1734582868.851284,-7.8125,112.3046875,39.55078125,133.7890625,0.0
1734582868.8551834,-549.31640625,2.44140625,-135.25390625,-377.9296875,0.0
1734582868.8590827,-370.1171875,105.46875,-127.44140625,-389.16015625,0.0
1734582868.8629823,513.18359375,426.7578125,225.09765625,263.671875,0.0
1734582868.8668816,742.1875,528.3203125,203.61328125,657.71484375,0.0
1734582868.870781,83.49609375,-20.01953125,-320.80078125,264.16015625,0.0
1734582868.8746803,-506.8359375,-51.26953125,-374.0234375,-294.43359375,0.0
1734582868.8785799,-405.2734375,578.125,112.3046875,-409.1796875,0.0
1734582868.8824792,457.03125,771.97265625,254.39453125,191.40625,0.0
1734582868.88648,0.0,632.32421875,137.20703125,661.1328125,0.0
1734582868.8903794,0.0,465.33203125,-91.30859375,329.58984375,0.0
1734582868.894279,0.0,516.6015625,-134.765625,-238.76953125,0.0
1734582868.8981783,0.0,500.48828125,-74.21875,-419.43359375,0.0
1734582868.9020777,0.0,656.25,116.69921875,121.09375,0.0
1734582868.905977,0.0,661.1328125,143.5546875,677.24609375,0.0
1734582868.9098766,0.0,529.296875,-14.6484375,407.71484375,0.0
1734582868.913776,0.0,369.140625,-251.46484375,-161.1328125,0.0
1734582868.9176753,0.0,133.30078125,-407.2265625,-401.85546875,0.0
1734582868.9215748,0.0,656.25,140.13671875,17.08984375,0.0
1734582868.9254742,0.0,873.53515625,301.7578125,605.46875,0.0
1734582868.9293735,0.0,453.125,-73.2421875,445.3125,0.0
1734582868.9333892,-345.21484375,318.84765625,-157.71484375,-136.23046875,0.0
1734582868.9372888,-547.8515625,497.55859375,61.5234375,-446.77734375,0.0
1734582868.941188,111.81640625,688.96484375,210.9375,-62.01171875,0.0
1734582868.9450874,798.828125,626.953125,240.234375,602.5390625,0.0
1734582868.948987,433.10546875,343.26171875,-70.3125,538.57421875,0.0
1734582868.9528863,-285.64453125,155.76171875,-365.72265625,-62.5,0.0
1734582868.9567857,-561.5234375,211.9140625,-279.296875,-431.640625,0.0
1734582868.9606853,-17.578125,161.1328125,-224.12109375,-110.83984375,0.0
1734582868.9645846,726.07421875,290.0390625,-16.11328125,550.29296875,0.0
1734582868.9684842,528.3203125,487.3046875,138.671875,577.63671875,0.0
1734582868.9723835,-194.3359375,104.00390625,-100.5859375,22.94921875,0.0
1734582868.9762828,-580.56640625,-97.65625,-217.7734375,-426.7578125,0.0
1734582868.9802654,0.0,222.65625,90.33203125,-218.26171875,0.0
1734582868.9841647,0.0,425.78125,285.15625,470.21484375,0.0
1734582868.9880643,0.0,93.75,-2.44140625,616.2109375,0.0
1734582868.9919636,0.0,-299.31640625,-354.98046875,90.8203125,0.0
1734582868.995863,0.0,-200.68359375,-344.7265625,-385.25390625,0.0
1734582868.9997625,0.0,88.37890625,-38.0859375,-270.01953125,0.0
1734582869.0036619,0.0,112.3046875,86.9140625,392.08984375,0.0
1734582869.0075612,0.0,-201.171875,-267.578125,652.83203125,0.0
1734582869.0114608,0.0,-50.29296875,-312.01171875,153.80859375,0.0
1734582869.01536,0.0,160.64453125,-193.84765625,-391.11328125,0.0
1734582869.0192597,0.0,127.44140625,-55.17578125,-362.3046875,0.0
1734582869.023159,0.0,332.03125,165.52734375,287.59765625,0.0
1734582869.0271342,635.25390625,359.375,142.578125,611.81640625,0.0
1734582869.0310335,-40.0390625,111.81640625,-73.2421875,165.0390625,0.0
1734582869.034933,-587.40234375,-83.984375,-299.31640625,-385.7421875,0.0
1734582869.0388324,-416.50390625,137.20703125,-68.84765625,-419.921875,0.0
1734582869.0427318,437.01171875,388.671875,224.609375,206.54296875,0.0
1734582869.0466313,699.70703125,186.03515625,56.640625,637.20703125,0.0
1734582869.0505307,75.68359375,-313.96484375,-394.04296875,285.15625,0.0
1734582869.0544302,-536.62109375,-321.77734375,-469.7265625,-299.8046875,0.0
1734582869.0583296,-456.0546875,262.20703125,-0.48828125,-456.0546875,0.0
1734582869.062229,363.28125,410.15625,224.609375,114.2578125,0.0
1734582869.0661285,746.09375,161.62109375,53.7109375,635.7421875,0.0
1734582869.0700278,165.52734375,7.8125,-191.89453125,339.35546875,0.0
1734582869.0739968,0.0,98.6328125,-209.9609375,-264.6484375,0.0
1734582869.0778964,0.0,91.30859375,-173.828125,-478.515625,0.0
1734582869.0817957,0.0,235.3515625,58.59375,23.4375,0.0
1734582869.0856953,0.0,258.7890625,146.484375,588.8671875,0.0
1734582869.0895946,0.0,62.5,-146.484375,360.3515625,0.0
1734582869.0934942,0.0,-163.0859375,-424.8046875,-242.67578125,0.0
1734582869.0973935,0.0,-279.296875,-428.7109375,-496.58203125,0.0
1734582869.1012928,0.0,302.24609375,108.88671875,-86.42578125,0.0
1734582869.1051924,0.0,555.6640625,301.7578125,525.390625,0.0
1734582869.1090918,0.0,134.765625,-83.49609375,431.15234375,0.0
1734582869.1129913,0.0,-47.8515625,-323.2421875,-161.1328125,0.0
1734582869.1168907,0.0,149.90234375,-87.890625,-504.8828125,0.0
1734582869.1209013,26.85546875,379.8828125,213.8671875,-157.71484375,0.0
1734582869.1248007,728.515625,255.859375,162.59765625,512.20703125,0.0
1734582869.1287003,429.6875,3.41796875,-118.65234375,505.859375,0.0
1734582869.1325996,-279.296875,82.03125,-177.734375,-84.47265625,0.0
1734582869.1364992,-589.35546875,81.0546875,-177.734375,-495.60546875,0.0
1734582869.1403985,-73.73046875,30.76171875,-116.2109375,-223.14453125,0.0
1734582869.144298,669.43359375,202.63671875,130.37109375,451.66015625,0.0
1734582869.1481974,471.6796875,288.0859375,136.71875,504.39453125,0.0
1734582869.152097,-232.421875,23.4375,-194.82421875,-48.828125,0.0
1734582869.1559963,-644.04296875,-305.6640625,-404.78515625,-491.69921875,0.0
1734582869.159896,-221.6796875,-4.39453125,-36.62109375,-311.5234375,0.0
1734582869.1637952,604.4921875,403.80859375,257.32421875,365.72265625,0.0
1734582869.1678042,0.0,163.57421875,27.34375,518.06640625,0.0
1734582869.1717038,0.0,-97.65625,-252.44140625,8.30078125,0.0
1734582869.1756032,0.0,4.8828125,-266.6015625,-471.19140625,0.0
1734582869.1795027,0.0,117.67578125,-70.3125,-358.3984375,0.0
1734582869.183402,0.0,147.4609375,126.46484375,328.125,0.0
1734582869.1873016,0.0,27.34375,-130.859375,584.47265625,0.0
1734582869.191201,0.0,-129.8828125,-376.46484375,114.2578125,0.0
1734582869.1951005,0.0,11.71875,-247.55859375,-405.76171875,0.0
1734582869.199,0.0,62.01171875,-145.99609375,-381.34765625,0.0
1734582869.2028995,0.0,-8.30078125,-46.38671875,269.53125,0.0
1734582869.2067988,0.0,246.09375,99.609375,609.86328125,0.0
1734582869.2106984,0.0,171.38671875,-51.26953125,196.77734375,0.0
1734582869.214699,-542.96875,-110.83984375,-271.97265625,-347.65625,0.0
1734582869.2185986,-402.34375,42.48046875,-82.03125,-415.52734375,0.0
1734582869.222498,427.734375,365.234375,244.140625,166.015625,0.0
1734582869.2263975,723.14453125,245.1171875,153.80859375,604.4921875,0.0
1734582869.2302969,108.3984375,-121.09375,-216.30859375,284.1796875,0.0
1734582869.2341964,-520.5078125,-334.47265625,-431.15234375,-279.78515625,0.0
1734582869.2380958,-480.46875,-105.46875,-194.82421875,-439.453125,0.0
1734582869.2419953,316.40625,279.296875,203.61328125,91.30859375,0.0
1734582869.245895,717.7734375,-141.11328125,-109.86328125,636.23046875,0.0
1734582869.2497942,159.1796875,-354.4921875,-423.33984375,372.0703125,0.0
1734582869.2536938,-467.28515625,8.30078125,-250.48828125,-236.328125,0.0
1734582869.2575932,-526.85546875,-25.87890625,-201.66015625,-452.1484375,0.0
1734582869.2616389,197.75390625,74.70703125,74.21875,22.94921875,0.0
1734582869.2655382,738.76953125,212.40234375,202.63671875,590.33203125,0.0
1734582869.2694378,277.34375,41.9921875,-54.19921875,399.4140625,0.0
1734582869.2733371,-413.0859375,-295.8984375,-357.421875,-183.59375,0.0
1734582869.2772367,-602.5390625,-322.265625,-371.58203125,-483.88671875,0.0
1734582869.2811363,55.17578125,-62.98828125,-70.80078125,-96.6796875,0.0
1734582869.2850356,701.171875,144.04296875,200.68359375,523.4375,0.0
1734582869.2889352,317.87109375,-110.3515625,-187.5,417.48046875,0.0
1734582869.2928348,-416.9921875,-554.19921875,-590.8203125,-166.9921875,0.0
1734582869.296734,-645.99609375,-146.97265625,-227.05078125,-543.9453125,0.0
1734582869.3006337,-22.4609375,238.28125,131.34765625,-195.3125,0.0
1734582869.304533,673.828125,54.6875,68.84765625,485.3515625,0.0
1734582869.3085196,368.65234375,-114.2578125,-151.3671875,453.61328125,0.0
1734582869.312419,-330.078125,-73.2421875,-220.21484375,-99.609375,0.0
1734582869.3163185,-650.390625,-78.125,-216.796875,-506.8359375,0.0
1734582869.320218,-166.015625,-9.765625,56.640625,-266.11328125,0.0
1734582869.3241174,623.046875,127.44140625,234.86328125,408.69140625,0.0
1734582869.328017,471.19140625,-76.66015625,-103.02734375,520.01953125,0.0
1734582869.3319166,-270.5078125,-343.75,-401.85546875,-33.203125,0.0
1734582869.335816,-702.1484375,-328.125,-354.00390625,-517.578125,0.0
1734582869.3397155,-293.45703125,4.39453125,-12.20703125,-341.30859375,0.0
1734582869.343615,541.9921875,279.78515625,260.25390625,335.9375,0.0
1734582869.3475144,500.48828125,71.2890625,39.0625,529.78515625,0.0
1734582869.351414,-235.3515625,-486.328125,-394.53125,15.13671875,0.0
1734582869.3553958,-714.35546875,-398.92578125,-375.9765625,-507.8125,0.0
1734582869.3592954,-358.88671875,170.8984375,51.7578125,-404.296875,0.0
1734582869.363195,478.02734375,188.4765625,205.56640625,278.80859375,0.0
1734582869.3670943,534.1796875,-109.86328125,-77.1484375,564.453125,0.0
1734582869.3709939,-120.1171875,-270.5078125,-371.09375,122.0703125,0.0
1734582869.3748934,-624.0234375,-246.58203125,-369.62890625,-400.390625,0.0
1734582869.378793,-411.1328125,-188.4765625,-287.109375,-400.390625,0.0
1734582869.3826923,425.29296875,-67.87109375,-87.40234375,220.703125,0.0
1734582869.386592,648.4375,178.22265625,119.62890625,577.63671875,0.0
1734582869.3904915,34.66796875,105.46875,-10.7421875,170.41015625,0.0
1734582869.3943908,-546.875,-228.515625,-323.73046875,-383.30078125,0.0
1734582869.3982904,-433.59375,-110.3515625,-171.38671875,-460.9375,0.0
1734582869.4023356,395.99609375,302.24609375,264.16015625,127.44140625,0.0
1734582869.4062352,727.5390625,212.890625,146.97265625,607.91015625,0.0
1734582869.4101346,127.44140625,-157.2265625,-213.8671875,282.2265625,0.0
1734582869.4140341,-500.48828125,-209.47265625,-323.2421875,-312.98828125,0.0
1734582869.4179337,-488.76953125,-8.30078125,-101.5625,-485.3515625,0.0
1734582869.4218333,270.01953125,109.375,203.61328125,38.0859375,0.0
1734582869.4257326,694.82421875,-231.93359375,-115.234375,596.6796875,0.0
1734582869.4296322,162.109375,-381.8359375,-458.49609375,355.95703125,0.0
1734582869.4335318,-478.02734375,1.953125,-258.30078125,-262.6953125,0.0
1734582869.4374313,-550.29296875,30.2734375,-191.89453125,-487.79296875,0.0
1734582869.4413307,160.64453125,125.0,79.58984375,-38.0859375,0.0
1734582869.4452302,712.890625,281.25,208.984375,529.78515625,0.0
1734582869.4492004,273.92578125,141.6015625,-10.25390625,365.234375,0.0
1734582869.4531,-401.85546875,-90.8203125,-288.57421875,-201.171875,0.0
1734582869.4569995,-570.80078125,-91.796875,-317.87109375,-479.00390625,0.0
1734582869.460899,88.8671875,123.53515625,42.96875,-89.84375,0.0
1734582869.4647987,741.69921875,278.3203125,199.21875,563.96484375,0.0
1734582869.468698,389.16015625,11.23046875,-188.4765625,499.0234375,0.0
1734582869.4725976,-325.68359375,-368.1640625,-504.8828125,-66.89453125,0.0
1734582869.4764972,-579.1015625,17.08984375,-223.14453125,-438.4765625,0.0
1734582869.4803967,1.953125,457.51953125,152.34375,-145.99609375,0.0
1734582869.484296,731.4453125,318.84765625,118.65234375,535.15625,0.0
1734582869.4881957,484.86328125,140.625,-52.24609375,558.59375,0.0
1734582869.4920952,-225.09765625,152.34375,-125.48828125,-10.7421875,0.0
1734582869.496107,-554.6875,128.90625,-236.81640625,-416.015625,0.0
1734582869.5000064,-79.1015625,183.59375,-105.46875,-200.68359375,0.0
1734582869.503906,683.59375,369.62890625,137.6953125,461.9140625,0.0
1734582869.5078056,530.76171875,348.6328125,89.84375,556.640625,0.0
1734582869.5117052,-174.31640625,141.11328125,-213.37890625,19.04296875,0.0
1734582869.5156047,-596.6796875,-147.94921875,-428.22265625,-406.73828125,0.0
1734582869.5195043,-223.6328125,55.6640625,-133.30078125,-261.23046875,0.0
1734582869.5234036,583.984375,542.96875,237.3046875,370.60546875,0.0
1734582869.5273032,550.29296875,349.609375,19.04296875,570.80078125,0.0
1734582869.5312028,-135.7421875,-52.24609375,-325.1953125,80.078125,0.0
1734582869.5351024,-603.515625,17.578125,-334.9609375,-443.84765625,0.0
1734582869.539002,-314.453125,341.796875,-31.73828125,-384.765625,0.0
1734582869.5430088,502.9296875,358.88671875,163.57421875,286.62109375,0.0
1734582869.5469084,583.0078125,165.0390625,-21.484375,586.42578125,0.0
1734582869.550808,-47.36328125,105.46875,-220.21484375,153.3203125,0.0
1734582869.5547075,-588.37890625,-36.1328125,-372.55859375,-390.13671875,0.0
1734582869.5586069,-340.33203125,-6.8359375,-285.15625,-333.0078125,0.0
1734582869.5625064,540.0390625,199.70703125,1.953125,343.75,0.0
1734582869.566406,658.69140625,219.23828125,22.94921875,624.0234375,0.0
1734582869.5703056,52.734375,222.16796875,-131.34765625,233.88671875,0.0
1734582869.5742052,-504.8828125,-53.22265625,-400.390625,-312.01171875,0.0
1734582869.5781047,-448.73046875,-206.0546875,-441.40625,-405.76171875,0.0
1734582869.5820043,361.328125,342.28515625,96.19140625,151.3671875,0.0
1734582869.5859036,739.2578125,387.6953125,145.01953125,604.98046875,0.0
1734582869.589903,181.15234375,20.5078125,-176.26953125,316.89453125,0.0
1734582869.5938027,-447.75390625,-28.80859375,-315.91796875,-261.23046875,0.0
1734582869.5977023,-465.8203125,195.80078125,-134.765625,-468.26171875,0.0
1734582869.6016018,310.546875,325.1953125,168.45703125,62.98828125,0.0
1734582869.6055014,765.625,175.78125,11.71875,619.140625,0.0
1734582869.609401,230.46875,-107.91015625,-355.46875,365.234375,0.0
1734582869.6133006,-429.6875,-81.54296875,-358.3984375,-231.93359375,0.0
1734582869.6172001,-514.6484375,167.96875,-169.921875,-497.0703125,0.0
1734582869.6210997,178.7109375,-20.01953125,-213.8671875,-31.73828125,0.0
1734582869.624999,756.8359375,70.3125,-83.49609375,594.7265625,0.0
1734582869.6288986,348.6328125,301.7578125,-24.90234375,421.38671875,0.0
1734582869.6327982,-348.6328125,12.20703125,-351.07421875,-183.59375,0.0
1734582869.6367927,0.0,-24.4140625,-290.0390625,-499.0234375,0.0
1734582869.6406922,0.0,311.03515625,72.75390625,-140.13671875,0.0
1734582869.6445918,0.0,438.96484375,227.5390625,494.140625,0.0
1734582869.6484914,0.0,40.52734375,-135.7421875,481.93359375,0.0
1734582869.652391,0.0,-167.96875,-428.22265625,-137.20703125,0.0
1734582869.6562905,0.0,-49.31640625,-354.4921875,-495.1171875,0.0
1734582869.66019,0.0,162.59765625,-38.0859375,-154.78515625,0.0
1734582869.6640897,0.0,187.5,28.80859375,418.45703125,0.0
1734582869.6679893,0.0,-155.76171875,-348.14453125,470.21484375,0.0
1734582869.6718888,0.0,-7.32421875,-328.61328125,-89.84375,0.0
1734582869.6757884,0.0,171.875,-228.02734375,-530.76171875,0.0
1734582869.6796877,0.0,132.32421875,-63.96484375,-316.40625,0.0
1734582869.6835296,-560.05859375,277.83203125,144.53125,364.2578125,0.0
1734582869.6874292,66.89453125,255.37109375,58.59375,505.859375,0.0
1734582869.6913288,741.2109375,0.48828125,-233.3984375,-23.4375,0.0
1734582869.6952283,419.43359375,-136.71875,-375.48828125,-489.74609375,0.0
1734582869.699128,-339.84375,83.49609375,-70.3125,-376.953125,0.0
1734582869.7030275,-544.43359375,212.40234375,163.57421875,272.4609375,0.0
1734582869.706927,64.94140625,57.6171875,-104.00390625,530.76171875,0.0
1734582869.7108266,666.50390625,-344.7265625,-522.94921875,73.2421875,0.0
1734582869.7147262,425.29296875,-322.265625,-515.13671875,-441.40625,0.0
1734582869.7186258,-261.23046875,243.1640625,-55.6640625,-433.10546875,0.0
1734582869.7225254,-608.88671875,288.57421875,139.6484375,211.42578125,0.0
1734582869.726425,-170.8984375,147.94921875,39.0625,564.94140625,0.0
1734582869.7304015,-13.671875,78.61328125,-131.8359375,160.64453125,0.0
1734582869.734301,-536.1328125,46.38671875,-265.625,-378.90625,0.0
1734582869.7382007,-374.0234375,59.08203125,-209.47265625,-427.24609375,0.0
1734582869.7421002,441.89453125,120.60546875,15.13671875,182.12890625,0.0
1734582869.7459998,696.77734375,157.2265625,76.66015625,590.8203125,0.0
1734582869.7498994,105.46875,-20.5078125,-216.30859375,254.39453125,0.0
1734582869.753799,-473.6328125,-226.07421875,-458.0078125,-280.76171875,0.0
1734582869.7576985,-422.36328125,-242.67578125,-436.03515625,-413.0859375,0.0
1734582869.761598,351.07421875,292.96875,105.46875,111.81640625,0.0
1734582869.7654977,742.1875,462.40234375,232.421875,591.796875,0.0
1734582869.7693973,209.47265625,19.04296875,-150.87890625,342.7734375,0.0
1734582869.7732968,-430.17578125,-92.28515625,-316.89453125,-235.83984375,0.0
1734582869.777272,-455.56640625,144.53125,-87.40234375,-467.28515625,0.0
1734582869.7811716,276.85546875,238.76953125,158.69140625,23.4375,0.0
1734582869.7850711,755.859375,145.5078125,138.671875,599.12109375,0.0
1734582869.7889707,272.4609375,43.9453125,-47.8515625,394.04296875,0.0
1734582869.7928703,-395.01953125,-41.9921875,-258.30078125,-189.453125,0.0
1734582869.7967699,-530.76171875,-98.6328125,-279.78515625,-457.03125,0.0
1734582869.8006694,120.60546875,-209.9609375,-269.04296875,-21.484375,0.0
1734582869.804569,714.35546875,-71.2890625,-123.046875,586.9140625,0.0
1734582869.8084686,348.14453125,158.203125,15.13671875,433.59375,0.0
1734582869.812368,-336.42578125,-74.21875,-255.37109375,-156.25,0.0
1734582869.8162675,-567.87109375,-162.109375,-313.96484375,-489.2578125,0.0
1734582869.820167,24.90234375,150.390625,57.12890625,-139.16015625,0.0
1734582869.8241348,718.26171875,318.84765625,263.671875,525.390625,0.0
1734582869.8280344,430.17578125,-3.41796875,-72.75390625,494.62890625,0.0
1734582869.831934,-294.921875,-270.01953125,-351.07421875,-85.9375,0.0
1734582869.8358335,-599.609375,-260.25390625,-350.09765625,-477.5390625,0.0
1734582869.8397331,-79.1015625,-46.38671875,-62.5,-212.40234375,0.0
1734582869.8436327,665.52734375,12.20703125,87.890625,470.703125,0.0
1734582869.8475323,455.078125,-254.39453125,-262.6953125,537.59765625,0.0
1734582869.8514318,-249.0234375,-170.41015625,-313.96484375,-34.1796875,0.0
1734582869.8553314,-602.05078125,-12.20703125,-172.36328125,-462.890625,0.0
1734582869.859231,-176.7578125,-102.5390625,-104.00390625,-268.06640625,0.0
1734582869.8631306,606.93359375,-26.3671875,14.6484375,395.01953125,0.0
1734582869.8670301,526.3671875,145.5078125,96.19140625,544.921875,0.0
1734582869.870989,-175.29296875,-44.921875,-183.59375,30.76171875,0.0
1734582869.8748887,-620.1171875,-228.515625,-364.74609375,-453.125,0.0
1734582869.8787882,-288.57421875,-20.99609375,-70.80078125,-349.609375,0.0
1734582869.8826878,533.203125,308.10546875,261.23046875,311.03515625,0.0
1734582869.8865874,560.05859375,141.6015625,63.96484375,564.94140625,0.0
1734582869.890487,-123.046875,-305.17578125,-315.91796875,110.83984375,0.0
1734582869.8943865,-625.48828125,-316.40625,-373.53515625,-423.828125,0.0
1734582869.898286,-381.34765625,29.78515625,-70.80078125,-428.7109375,0.0
1734582869.9021857,450.1953125,112.79296875,168.9453125,209.47265625,0.0
1734582869.9060853,548.828125,-202.63671875,-102.05078125,549.31640625,0.0
1734582869.9099848,-99.12109375,-259.765625,-309.5703125,122.55859375,0.0
1734582869.9138844,-599.609375,-34.1796875,-239.2578125,-433.10546875,0.0
1734582869.917893,0.0,-56.15234375,-92.28515625,-479.00390625,0.0
1734582869.9217925,0.0,85.9375,189.94140625,115.72265625,0.0
1734582869.925692,0.0,143.06640625,155.2734375,508.30078125,0.0
1734582869.9295917,0.0,-164.55078125,-207.03125,137.6953125,0.0
1734582869.9334912,0.0,-348.14453125,-420.8984375,-377.9296875,0.0
1734582869.9373908,0.0,-272.4609375,-342.28515625,-479.4921875,0.0
1734582869.9412904,0.0,121.58203125,83.49609375,41.50390625,0.0
1734582869.94519,0.0,333.0078125,264.16015625,526.85546875,0.0
1734582869.9490895,0.0,-117.1875,-209.9609375,260.7421875,0.0
1734582869.9529893,0.0,-404.78515625,-521.484375,-305.6640625,0.0
1734582869.956889,0.0,22.4609375,-110.83984375,-520.99609375,0.0
1734582869.9607885,0.0,202.63671875,166.9921875,-40.52734375,0.0
1734582869.9647865,671.875,103.515625,81.54296875,529.296875,0.0
1734582869.968686,204.58984375,35.64453125,-36.62109375,321.77734375,0.0
1734582869.9725857,-443.84765625,26.3671875,-15.13671875,-270.99609375,0.0
1734582869.9764853,-575.1953125,29.296875,12.6953125,-540.0390625,0.0
1734582869.9803848,72.75390625,101.5625,164.0625,-118.65234375,0.0
1734582869.9842844,665.0390625,77.1484375,164.0625,492.1875,0.0
1734582869.9881842,298.33984375,-40.52734375,-117.1875,389.6484375,0.0
1734582869.9920838,-351.5625,-9.765625,-249.51171875,-172.36328125,0.0
1734582869.9959834,-604.98046875,-366.2109375,-459.9609375,-505.37109375,0.0
1734582869.999883,-44.921875,-150.87890625,-151.3671875,-189.453125,0.0
1734582870.0037825,655.76171875,369.62890625,262.6953125,435.546875,0.0
1734582870.007682,354.98046875,-9.765625,-108.3984375,408.203125,0.0
1734582870.0116737,-346.19140625,-173.33984375,-292.96875,-173.33984375,0.0
1734582870.0155733,-608.88671875,8.7890625,-153.3203125,-525.390625,0.0
1734582870.0194728,-80.56640625,122.0703125,84.9609375,-235.3515625,0.0
1734582870.0233724,606.93359375,81.0546875,133.7890625,407.71484375,0.0
1734582870.027272,393.06640625,-35.64453125,-68.359375,474.12109375,0.0
1734582870.0311718,-286.1328125,-185.546875,-272.94921875,-63.96484375,0.0
1734582870.0350714,-637.20703125,-96.6796875,-270.5078125,-483.88671875,0.0
1734582870.038971,-216.796875,63.96484375,-42.96875,-294.921875,0.0
1734582870.0428705,568.359375,6.8359375,64.453125,389.16015625,0.0
1734582870.04677,530.76171875,173.828125,85.9375,584.47265625,0.0
1734582870.0506697,-125.0,136.71875,36.62109375,102.5390625,0.0
1734582870.0545695,-581.0546875,-115.234375,-159.1796875,-378.41796875,0.0
1734582870.0585563,-274.4140625,48.33984375,-43.9453125,-303.22265625,0.0
1734582870.062456,550.29296875,401.85546875,302.24609375,351.5625,0.0
1734582870.0663557,630.37109375,227.05078125,129.8828125,623.53515625,0.0
1734582870.0702553,-22.4609375,-104.4921875,-181.640625,177.24609375,0.0
1734582870.0741549,-542.96875,-153.80859375,-289.0625,-333.49609375,0.0
1734582870.0780544,-351.07421875,-42.96875,-159.1796875,-336.42578125,0.0
1734582870.081954,455.078125,208.49609375,198.2421875,284.1796875,0.0
1734582870.0858536,631.8359375,-81.54296875,-130.859375,668.9453125,0.0
1734582870.0897534,10.7421875,-222.65625,-452.63671875,284.1796875,0.0
1734582870.093653,-543.45703125,159.66796875,-145.01953125,-302.24609375,0.0
1734582870.0975525,-422.8515625,194.82421875,-0.9765625,-395.5078125,0.0
1734582870.101452,370.60546875,335.9375,187.5,189.453125,0.0
1734582870.1054373,682.12890625,413.0859375,183.59375,633.7890625,0.0
1734582870.1093369,105.95703125,247.0703125,72.265625,290.52734375,0.0
1734582870.1132364,-500.48828125,23.92578125,-140.13671875,-266.11328125,0.0
1734582870.117136,-487.3046875,-38.0859375,-248.046875,-403.80859375,0.0
1734582870.1210358,259.765625,312.5,162.109375,99.12109375,0.0
1734582870.1249354,699.21875,363.28125,202.1484375,613.76953125,0.0
1734582870.128835,176.26953125,-25.87890625,-277.34375,380.37109375,0.0
1734582870.1327345,-464.84375,-50.78125,-370.1171875,-199.70703125,0.0
1734582870.1366343,-534.1796875,180.17578125,-42.96875,-437.98828125,0.0
1734582870.140534,167.96875,429.6875,253.41796875,10.25390625,0.0
1734582870.1444335,713.37890625,314.453125,78.125,602.5390625,0.0
1734582870.148333,258.30078125,-46.875,-306.15234375,436.5234375,0.0
1734582870.1523075,0.0,153.3203125,-132.32421875,-164.0625,0.0
1734582870.156207,0.0,239.2578125,59.08203125,-472.16796875,0.0
1734582870.1601067,0.0,279.78515625,194.82421875,-79.58984375,0.0
1734582870.1640065,0.0,415.52734375,250.0,554.19921875,0.0
1734582870.167906,0.0,251.953125,78.125,476.5625,0.0
1734582870.1718056,0.0,-57.12890625,-226.07421875,-99.609375,0.0
1734582870.1757052,0.0,-327.63671875,-479.00390625,-433.10546875,0.0
1734582870.179605,0.0,-11.23046875,-165.0390625,-115.72265625,0.0
1734582870.1835046,0.0,572.75390625,312.98828125,500.48828125,0.0
1734582870.1874042,0.0,300.29296875,72.75390625,496.09375,0.0
1734582870.1913037,0.0,26.3671875,-204.58984375,-50.29296875,0.0
1734582870.1952035,0.0,94.23828125,-158.203125,-460.44921875,0.0
1734582870.199174,-124.51171875,262.6953125,137.6953125,-245.60546875,0.0
1734582870.2030735,639.6484375,390.13671875,241.69921875,432.6171875,0.0
1734582870.206973,495.1171875,247.55859375,102.5390625,541.015625,0.0
1734582870.210873,-202.1484375,47.8515625,-105.46875,2.9296875,0.0
1734582870.2147725,-608.3984375,70.3125,-211.9140625,-446.2890625,0.0
1734582870.218672,-236.328125,183.10546875,26.3671875,-298.33984375,0.0
1734582870.2225716,547.36328125,113.28125,84.47265625,357.91015625,0.0
1734582870.2264714,529.296875,280.2734375,67.3828125,541.9921875,0.0
1734582870.230371,-124.0234375,305.17578125,85.44921875,31.73828125,0.0
1734582870.2342706,-602.5390625,49.8046875,-140.13671875,-462.890625,0.0
1734582870.2381704,-333.49609375,223.14453125,-32.71484375,-398.92578125,0.0
1734582870.24207,495.60546875,600.5859375,345.703125,252.9296875,0.0
1734582870.246029,590.33203125,449.70703125,215.8203125,555.17578125,0.0
1734582870.2499285,-79.58984375,68.84765625,-88.37890625,78.61328125,0.0
1734582870.253828,-605.46875,10.25390625,-116.69921875,-466.796875,0.0
1734582870.2577279,-402.83203125,191.89453125,84.9609375,-463.37890625,0.0
1734582870.2616274,408.203125,403.80859375,275.390625,148.92578125,0.0
1734582870.265527,607.421875,180.6640625,38.0859375,537.59765625,0.0
1734582870.2694268,8.30078125,-36.62109375,-245.60546875,165.52734375,0.0
1734582870.2733264,-557.6171875,112.3046875,-84.9609375,-414.0625,0.0
1734582870.277226,-468.75,236.328125,98.14453125,-525.390625,0.0
1734582870.2811258,333.984375,178.7109375,140.625,80.56640625,0.0
1734582870.2850254,678.22265625,202.1484375,108.88671875,585.44921875,0.0
1734582870.288925,107.421875,274.4140625,102.05078125,263.18359375,0.0
1734582870.292929,-510.7421875,28.3203125,-42.96875,-335.44921875,0.0
1734582870.2968285,-511.23046875,29.78515625,-24.90234375,-509.765625,0.0
1734582870.3007283,236.328125,387.20703125,261.23046875,9.27734375,0.0
1734582870.304628,705.078125,318.84765625,226.07421875,543.9453125,0.0
1734582870.3085275,203.61328125,-60.05859375,-158.203125,321.77734375,0.0
1734582870.3124273,-475.5859375,-228.515625,-397.94921875,-271.484375,0.0
1734582870.3163269,-571.2890625,-74.21875,-235.3515625,-536.62109375,0.0
1734582870.3202264,156.73828125,354.98046875,216.796875,-74.70703125,0.0
1734582870.3241262,714.84375,294.921875,169.43359375,529.296875,0.0
1734582870.3280258,255.37109375,-106.93359375,-250.0,353.515625,0.0
1734582870.3319254,-405.2734375,49.31640625,-90.33203125,-231.93359375,0.0
1734582870.3358252,-553.22265625,193.359375,117.1875,-511.71875,0.0
1734582870.3398254,54.19921875,256.34765625,173.828125,-137.6953125,0.0
1734582870.343725,717.7734375,334.47265625,201.66015625,494.140625,0.0
1734582870.3476248,416.50390625,244.140625,115.72265625,440.91796875,0.0
1734582870.3515244,-275.390625,40.52734375,16.6015625,-109.86328125,0.0
1734582870.355424,-549.8046875,-75.1953125,-172.8515625,-476.5625,0.0
1734582870.3593237,-15.13671875,58.10546875,-50.78125,-182.6171875,0.0
1734582870.3632233,720.21484375,305.17578125,259.765625,498.046875,0.0
1734582870.3671231,516.6015625,263.671875,121.58203125,539.0625,0.0
1734582870.3710227,-197.75390625,-261.23046875,-346.19140625,-3.41796875,0.0
1734582870.3749223,-562.01171875,-335.9375,-429.19921875,-432.12890625,0.0
1734582870.378822,-101.5625,230.95703125,91.30859375,-235.3515625,0.0
1734582870.3827217,661.62109375,381.34765625,266.11328125,420.41015625,0.0
1734582870.386712,546.875,119.62890625,43.45703125,545.8984375,0.0
1734582870.390612,-125.48828125,29.296875,21.97265625,36.1328125,0.0
1734582870.3945115,-534.1796875,30.2734375,17.08984375,-436.03515625,0.0
1734582870.3984113,-187.5,16.11328125,75.68359375,-281.73828125,0.0
1734582870.4023108,600.09765625,162.59765625,237.3046875,407.71484375,0.0
1734582870.4062107,597.65625,51.7578125,49.31640625,624.51171875,0.0
1734582870.4101102,-71.2890625,-73.2421875,-126.46484375,135.7421875,0.0
1734582870.4140098,-548.828125,-164.55078125,-283.69140625,-380.37109375,0.0
1734582870.4179096,-299.31640625,-250.0,-304.6875,-340.8203125,0.0
1734582870.4218092,515.625,267.578125,225.09765625,293.45703125,0.0
1734582870.425709,670.8984375,265.13671875,166.9921875,628.90625,0.0
1734582870.4296086,41.50390625,-185.05859375,-223.14453125,210.44921875,0.0
1734582870.4335952,-507.32421875,-210.9375,-254.8828125,-328.61328125,0.0
1734582870.4374948,-354.98046875,1.46484375,1.953125,-365.72265625,0.0
1734582870.4413946,450.68359375,250.0,283.203125,235.3515625,0.0
1734582870.4452941,703.61328125,132.8125,192.87109375,653.80859375,0.0
1734582870.449194,120.60546875,-71.77734375,16.11328125,279.78515625,0.0
1734582870.4530935,-463.37890625,-171.38671875,-217.28515625,-284.66796875,0.0
1734582870.4569933,-408.203125,-2.9296875,-113.76953125,-410.64453125,0.0
1734582870.460893,381.34765625,25.87890625,22.4609375,159.1796875,0.0
1734582870.4647927,748.046875,46.875,-29.296875,667.96875,0.0
1734582870.4686923,203.125,277.34375,86.9140625,347.16796875,0.0
1734582870.4725919,-433.59375,55.6640625,-150.87890625,-250.9765625,0.0
1734582870.4764917,-471.19140625,52.24609375,-172.8515625,-462.40234375,0.0
1734582870.4804764,271.484375,408.203125,203.125,31.25,0.0
1734582870.484376,756.34765625,483.88671875,272.4609375,617.67578125,0.0
1734582870.4882758,272.94921875,144.53125,-78.61328125,412.109375,0.0
1734582870.4921753,-403.80859375,-166.50390625,-394.04296875,-188.4765625,0.0
1734582870.4960752,-535.15625,-25.87890625,-286.1328125,-454.58984375,0.0
1734582870.4999747,138.671875,289.55078125,74.70703125,-37.109375,0.0
1734582870.5038745,725.5859375,238.28125,128.90625,567.87109375,0.0
1734582870.507774,304.19921875,-97.65625,-268.5546875,428.22265625,0.0
1734582870.511674,-394.53125,68.359375,-265.13671875,-200.68359375,0.0
1734582870.5155735,-594.23828125,300.78125,-7.32421875,-565.91796875,0.0
1734582870.5194733,10.7421875,320.80078125,141.6015625,-196.2890625,0.0
1734582870.523373,687.98828125,355.46875,170.41015625,474.12109375,0.0
1734582870.5274396,391.6015625,285.15625,104.4921875,443.359375,0.0
1734582870.5313394,-317.87109375,81.54296875,-22.94921875,-114.2578125,0.0
1734582870.535239,-624.0234375,-82.51953125,-190.4296875,-511.71875,0.0
1734582870.5391388,-97.65625,180.17578125,63.4765625,-247.0703125,0.0
1734582870.5430384,655.76171875,397.4609375,315.91796875,439.453125,0.0
1734582870.5469382,445.3125,104.98046875,-19.04296875,506.8359375,0.0
1734582870.550838,-290.52734375,-411.1328125,-503.41796875,-56.640625,0.0
1734582870.5547376,-680.17578125,-414.55078125,-479.00390625,-533.69140625,0.0
1734582870.5586374,-214.84375,285.15625,117.67578125,-352.5390625,0.0
1734582870.562537,595.703125,438.4765625,260.7421875,352.5390625,0.0
1734582870.5664368,481.93359375,113.76953125,-20.01953125,496.58203125,0.0
1734582870.5703363,-221.6796875,3.41796875,-160.15625,-28.3203125,0.0
1734582870.574345,0.0,28.3203125,-176.7578125,-518.06640625,0.0
1734582870.5782447,0.0,102.05078125,35.15625,-420.41015625,0.0
1734582870.5821445,0.0,202.63671875,220.21484375,258.7890625,0.0
1734582870.586044,0.0,58.10546875,57.12890625,515.625,0.0
1734582870.589944,0.0,-120.1171875,-216.796875,57.12890625,0.0
1734582870.5938437,0.0,-222.65625,-389.16015625,-438.4765625,0.0
1734582870.5977433,0.0,-240.72265625,-320.80078125,-396.484375,0.0
1734582870.601643,0.0,260.25390625,145.5078125,217.7734375,0.0
1734582870.6055427,0.0,375.9765625,245.1171875,544.921875,0.0
1734582870.6094425,0.0,-50.78125,-126.953125,144.04296875,0.0
1734582870.6133423,0.0,-254.39453125,-406.73828125,-400.390625,0.0
1734582870.6172419,0.0,34.1796875,-93.75,-480.95703125,0.0
1734582870.6211314,-648.92578125,368.65234375,302.24609375,116.69921875,0.0
1734582870.6250312,-317.87109375,155.76171875,124.51171875,569.82421875,0.0
1734582870.628931,477.05078125,-92.28515625,-134.27734375,236.328125,0.0
1734582870.6328306,502.44140625,-50.78125,-198.2421875,-329.58984375,0.0
1734582870.6367304,-149.90234375,73.2421875,-18.06640625,-471.19140625,0.0
1734582870.64063,-613.76953125,11.23046875,115.234375,68.84765625,0.0
1734582870.6445298,-387.6953125,-35.64453125,47.8515625,584.9609375,0.0
1734582870.6484294,415.0390625,66.40625,38.57421875,336.9140625,0.0
1734582870.6523292,587.890625,-34.1796875,-151.3671875,-257.32421875,0.0
1734582870.656229,-41.50390625,-118.1640625,-265.625,-472.16796875,0.0
1734582870.6601286,-589.35546875,209.47265625,125.48828125,16.6015625,0.0
1734582870.6640284,-450.1953125,395.5078125,274.90234375,573.2421875,0.0
1734582870.6680326,220.21484375,59.08203125,0.0,380.37109375,0.0
1734582870.6719325,-437.5,-223.14453125,0.0,-193.84765625,0.0
1734582870.6758323,-574.70703125,-71.77734375,0.0,-473.6328125,0.0
1734582870.6797318,83.49609375,162.109375,0.0,-67.87109375,0.0
1734582870.6836317,687.5,90.33203125,0.0,581.0546875,0.0
1734582870.6875312,301.26953125,-237.79296875,0.0,485.83984375,0.0
1734582870.691431,-379.39453125,-385.7421875,0.0,-126.953125,0.0
1734582870.6953309,-607.91015625,-177.24609375,0.0,-499.0234375,0.0
1734582870.6992304,-40.52734375,-234.86328125,0.0,-145.99609375,0.0
1734582870.7031302,640.13671875,-489.2578125,0.0,534.66796875,0.0
1734582870.70703,364.2578125,-420.8984375,0.0,490.234375,0.0
1734582870.7109296,-324.21875,-492.67578125,0.0,-96.6796875,0.0
1734582870.7149277,0.0,-678.7109375,-267.08984375,-485.83984375,0.0
1734582870.7188275,0.0,-454.1015625,67.87109375,-218.75,0.0
1734582870.722727,0.0,-180.6640625,290.0390625,456.54296875,0.0
1734582870.7266269,0.0,-393.5546875,66.40625,532.71484375,0.0
1734582870.7305267,0.0,-741.2109375,-248.046875,-17.08984375,0.0
1734582870.7344263,0.0,-787.59765625,-385.25390625,-477.5390625,0.0
1734582870.738326,0.0,-523.4375,-135.25390625,-313.96484375,0.0
1734582870.742226,0.0,-251.46484375,229.00390625,355.95703125,0.0
1734582870.7461255,0.0,-615.72265625,-179.19921875,554.6875,0.0
1734582870.7500253,0.0,-775.390625,-503.41796875,37.109375,0.0
1734582870.753925,0.0,-383.30078125,-198.2421875,-486.81640625,0.0
1734582870.7578247,0.0,-368.65234375,26.85546875,-393.5546875,0.0
1734582870.7618163,472.16796875,-351.07421875,181.15234375,257.8125,0.0
1734582870.765716,531.25,-407.71484375,111.81640625,533.69140625,0.0
1734582870.769616,-111.328125,-660.64453125,-104.98046875,85.44921875,0.0
1734582870.7735157,-615.72265625,-908.203125,-338.37890625,-436.03515625,0.0
1734582870.7774153,-400.390625,-740.72265625,-119.62890625,-419.43359375,0.0
1734582870.781315,425.78125,-447.75390625,198.2421875,209.47265625,0.0
1734582870.785215,598.14453125,-471.19140625,133.7890625,566.40625,0.0
1734582870.7891145,-43.9453125,-682.6171875,-231.93359375,156.25,0.0
1734582870.7930143,-609.86328125,-910.15625,-528.3203125,-392.578125,0.0
1734582870.796914,-490.72265625,-458.0078125,-53.22265625,-494.62890625,0.0
1734582870.8008137,327.63671875,-46.38671875,305.6640625,68.84765625,0.0
1734582870.8047135,656.25,-277.34375,92.7734375,535.64453125,0.0
1734582870.808719,0.0,-495.60546875,-198.2421875,0.0,0.0
1734582870.8126187,0.0,-413.57421875,-191.40625,0.0,0.0
1734582870.8165183,0.0,-298.33984375,17.578125,0.0,0.0
1734582870.8204181,0.0,-182.6171875,227.5390625,0.0,0.0
1734582870.824318,0.0,-178.22265625,148.92578125,0.0,0.0
1734582870.8282177,0.0,-477.5390625,-240.234375,0.0,0.0
1734582870.8321173,0.0,-530.76171875,-340.8203125,0.0,0.0
1734582870.8360171,0.0,-573.2421875,-407.2265625,0.0,0.0
1734582870.839917,0.0,-317.87109375,-135.25390625,0.0,0.0
1734582870.8438168,0.0,186.03515625,286.1328125,0.0,0.0
1734582870.8477163,0.0,-80.56640625,9.765625,0.0,0.0
1734582870.8516161,0.0,-407.71484375,-321.2890625,0.0,0.0
1734582870.8555925,-595.703125,-192.87109375,-181.15234375,-514.16015625,0.0
1734582870.8594923,51.26953125,216.796875,205.56640625,-126.46484375,0.0
1734582870.863392,666.015625,211.42578125,241.2109375,496.58203125,0.0
1734582870.867292,302.734375,-167.96875,-135.25390625,401.85546875,0.0
1734582870.8711917,-355.95703125,-277.34375,-377.44140625,-154.296875,0.0
1734582870.8750913,-579.58984375,-131.34765625,-326.171875,-500.0,0.0
1734582870.8789911,-33.69140625,-14.16015625,-75.1953125,-185.05859375,0.0
1734582870.882891,636.71875,-16.6015625,-0.9765625,468.75,0.0
1734582870.8867908,372.55859375,75.68359375,-41.50390625,458.0078125,0.0
1734582870.8906903,-312.01171875,97.16796875,-116.69921875,-90.8203125,0.0
1734582870.8945901,-626.953125,-58.59375,-294.921875,-469.23828125,0.0
1734582870.89849,-147.4609375,121.58203125,-41.015625,-220.703125,0.0
1734582870.9024744,598.14453125,416.50390625,283.69140625,442.3828125,0.0
1734582870.9063742,450.68359375,223.6328125,70.80078125,529.296875,0.0
1734582870.910274,-221.19140625,-160.15625,-284.66796875,10.7421875,0.0
1734582870.9141738,-609.86328125,-101.5625,-277.34375,-440.91796875,0.0
1734582870.9180737,-224.609375,259.27734375,49.8046875,-298.828125,0.0
1734582870.9219732,558.59375,314.94140625,210.9375,359.375,0.0
1734582870.925873,514.6484375,-144.04296875,-241.69921875,580.56640625,0.0
1734582870.9297729,-147.94921875,-267.08984375,-519.04296875,93.75,0.0
1734582870.9336727,-598.6328125,187.5,-200.1953125,-440.4296875,0.0
1734582870.9375725,-309.5703125,304.6875,47.8515625,-379.39453125,0.0
1734582870.941472,499.51171875,367.1875,223.14453125,277.83203125,0.0
1734582870.9453719,564.94140625,317.3828125,103.02734375,564.94140625,0.0
1734582870.9493392,-79.58984375,162.59765625,-104.00390625,122.0703125,0.0
1734582870.953239,-577.1484375,25.390625,-269.04296875,-389.16015625,0.0
1734582870.9571388,-372.0703125,90.33203125,-122.0703125,-393.5546875,0.0
1734582870.9610384,431.640625,284.1796875,197.265625,220.21484375,0.0
1734582870.9649382,626.46484375,256.34765625,102.05078125,600.09765625,0.0
1734582870.968838,26.3671875,-26.3671875,-283.69140625,236.328125,0.0
1734582870.9727378,-545.8984375,-360.83984375,-553.22265625,-308.10546875,0.0
1734582870.9766376,-460.44921875,47.8515625,-161.62109375,-444.82421875,0.0
1734582870.9805374,327.63671875,568.359375,297.36328125,104.4921875,0.0
1734582870.984437,645.99609375,336.42578125,85.9375,574.21875,0.0
1734582870.9883368,88.37890625,59.08203125,-263.18359375,259.27734375,0.0
1734582870.9922366,-495.60546875,131.34765625,-233.88671875,-310.05859375,0.0
1734582870.9961977,-504.8828125,238.76953125,-8.7890625,-500.48828125,0.0
1734582871.0000973,225.5859375,300.29296875,174.8046875,4.8828125,0.0
1734582871.003997,683.59375,296.38671875,145.5078125,547.36328125,0.0
1734582871.007897,196.2890625,177.734375,-2.9296875,303.7109375,0.0
1734582871.0117967,-455.078125,35.15625,-174.8046875,-275.390625,0.0
1734582871.0156965,-568.84765625,-117.67578125,-314.94140625,-501.46484375,0.0
1734582871.0195963,127.44140625,86.9140625,-21.484375,-42.48046875,0.0
1734582871.0234962,703.125,370.1171875,256.8359375,532.2265625,0.0
1734582871.0273957,287.109375,152.34375,-34.1796875,364.74609375,0.0
1734582871.0312955,-386.23046875,-274.90234375,-385.7421875,-211.42578125,0.0
1734582871.0351954,-567.3828125,-135.7421875,-270.99609375,-526.3671875,0.0
1734582871.0390952,45.8984375,363.28125,147.4609375,-179.6875,0.0
1734582871.0430946,688.4765625,316.89453125,181.640625,451.171875,0.0
1734582871.0469944,374.51171875,30.76171875,-148.92578125,395.01953125,0.0
1734582871.0508943,-310.546875,-23.4375,-291.015625,-176.7578125,0.0
1734582871.054794,-572.265625,-40.52734375,-295.41015625,-524.4140625,0.0
1734582871.0586936,-14.16015625,41.9921875,-84.9609375,-215.33203125,0.0
1734582871.0625935,692.3828125,109.86328125,130.37109375,443.359375,0.0
1734582871.0664933,449.70703125,-2.44140625,-112.79296875,480.95703125,0.0
1734582871.070393,-242.67578125,24.4140625,-241.69921875,-81.54296875,0.0
1734582871.074293,-572.265625,-88.8671875,-356.93359375,-501.46484375,0.0
1734582871.0781927,-121.09375,-114.74609375,-202.63671875,-264.6484375,0.0
1734582871.0820925,642.578125,314.453125,264.16015625,386.23046875,0.0
1734582871.0859923,525.87890625,208.0078125,84.9609375,500.9765625,0.0
1734582871.0899963,-151.3671875,-204.1015625,-249.51171875,34.66796875,0.0
1734582871.0938962,-546.38671875,-169.921875,-249.0234375,-414.0625,0.0
1734582871.097796,-194.3359375,142.08984375,65.91796875,-330.078125,0.0
1734582871.1016958,591.30859375,261.71875,284.1796875,337.40234375,0.0
1734582871.1055956,516.11328125,-55.17578125,-59.5703125,522.4609375,0.0
1734582871.1094954,-171.38671875,-379.8828125,-433.10546875,22.4609375,0.0
1734582871.1133952,-573.2421875,-260.7421875,-364.2578125,-421.875,0.0
1734582871.1172948,-297.36328125,75.68359375,2.44140625,-392.08984375,0.0
1734582871.1211946,505.37109375,-85.44921875,0.9765625,261.23046875,0.0
1734582871.1250944,586.9140625,-209.47265625,-198.2421875,573.73046875,0.0
1734582871.1289942,-43.45703125,25.390625,-136.71875,100.09765625,0.0
1734582871.132894,-552.734375,-96.6796875,-318.359375,-431.15234375,0.0
1734582871.136884,0.0,-43.9453125,-120.1171875,-435.05859375,0.0
1734582871.1407838,0.0,277.83203125,266.11328125,198.73046875,0.0
1734582871.1446836,0.0,251.46484375,160.64453125,607.421875,0.0
1734582871.1485834,0.0,-124.51171875,-227.05078125,262.20703125,0.0
1734582871.152483,0.0,-287.109375,-417.96875,-274.4140625,0.0
1734582871.1563828,0.0,-91.796875,-275.390625,-402.83203125,0.0
1734582871.1602826,0.0,188.4765625,117.67578125,146.97265625,0.0
1734582871.1641824,0.0,80.078125,35.64453125,634.765625,0.0
1734582871.1680822,0.0,-281.73828125,-398.92578125,341.30859375,0.0
1734582871.171982,0.0,-59.5703125,-296.38671875,-266.6015625,0.0
1734582871.1758819,0.0,230.95703125,-22.4609375,-473.6328125,0.0
1734582871.1797817,0.0,255.37109375,127.9296875,32.2265625,0.0
1734582871.1837747,752.9296875,250.9765625,132.32421875,590.33203125,0.0
1734582871.1876745,268.06640625,166.015625,-6.34765625,374.51171875,0.0
1734582871.1915743,-389.6484375,31.73828125,-239.2578125,-212.40234375,0.0
1734582871.1954741,-509.765625,0.9765625,-270.99609375,-470.21484375,0.0
1734582871.199374,161.1328125,246.09375,74.21875,-40.52734375,0.0
1734582871.2032738,751.46484375,274.90234375,170.41015625,583.49609375,0.0
1734582871.2071736,336.9140625,63.96484375,-145.5078125,465.8203125,0.0
1734582871.2110734,-362.79296875,-280.2734375,-526.3671875,-100.5859375,0.0
1734582871.2149732,-571.2890625,-165.52734375,-429.19921875,-451.171875,0.0
1734582871.218873,40.0390625,503.41796875,172.8515625,-161.1328125,0.0
1734582871.2227728,706.54296875,476.5625,196.77734375,489.2578125,0.0
1734582871.2266726,377.44140625,133.7890625,-155.2734375,447.75390625,0.0
1734582871.2306519,0.0,76.66015625,0.0,-159.66796875,0.0
1734582871.2345517,0.0,156.25,0.0,-547.8515625,0.0
1734582871.2384515,0.0,247.55859375,0.0,-244.62890625,0.0
1734582871.2423513,0.0,192.3828125,0.0,441.89453125,0.0
1734582871.246251,0.0,78.61328125,0.0,497.0703125,0.0
1734582871.250151,0.0,-50.29296875,0.0,-66.40625,0.0
1734582871.2540507,0.0,-175.78125,0.0,-502.9296875,0.0
1734582871.2579505,0.0,-97.65625,0.0,-300.78125,0.0
1734582871.2618504,0.0,318.359375,0.0,351.5625,0.0
1734582871.2657502,0.0,301.26953125,0.0,479.4921875,0.0
1734582871.26965,0.0,-139.16015625,0.0,-30.2734375,0.0
1734582871.2735498,0.0,-141.6015625,0.0,-491.69921875,0.0
1734582871.2775278,-232.421875,218.26171875,-9.27734375,-375.9765625,0.0
1734582871.2814276,566.89453125,377.9296875,254.8828125,300.29296875,0.0
1734582871.2853274,587.40234375,74.21875,-47.36328125,559.08203125,0.0
1734582871.2892275,-75.1953125,-89.35546875,-306.15234375,75.68359375,0.0
1734582871.2931273,-556.640625,-33.203125,-319.3359375,-472.65625,0.0
1734582871.297027,-319.82421875,16.6015625,-189.94140625,-449.70703125,0.0
1734582871.300927,458.984375,-66.40625,-72.265625,209.9609375,0.0
1734582871.3048267,572.265625,-124.51171875,-231.4453125,538.0859375,0.0
1734582871.3087265,-41.50390625,88.8671875,-206.0546875,98.14453125,0.0
1734582871.3126264,-565.4296875,-16.11328125,-287.59765625,-439.94140625,0.0
1734582871.3165262,-435.546875,8.7890625,-180.17578125,-493.65234375,0.0
1734582871.320426,348.14453125,301.26953125,189.453125,89.84375,0.0
1734582871.324391,631.8359375,270.01953125,164.55078125,529.296875,0.0
1734582871.3282907,47.8515625,-117.1875,-237.79296875,198.2421875,0.0
1734582871.3321905,-552.734375,-222.16796875,-374.51171875,-376.46484375,0.0
1734582871.3360903,-492.1875,-49.31640625,-244.62890625,-515.625,0.0
1734582871.3399901,285.15625,170.41015625,99.609375,48.33984375,0.0
1734582871.34389,663.0859375,40.52734375,38.0859375,572.265625,0.0
1734582871.3477898,113.76953125,-338.8671875,-392.578125,311.5234375,0.0
1734582871.3516898,-505.37109375,-104.00390625,-295.8984375,-291.9921875,0.0
1734582871.3555896,-528.80859375,176.26953125,-36.1328125,-526.85546875,0.0
1734582871.3594894,172.8515625,168.45703125,135.7421875,-48.828125,0.0
1734582871.3633893,657.71484375,116.69921875,118.1640625,515.13671875,0.0
1734582871.367289,208.0078125,34.66796875,-43.9453125,307.12890625,0.0
1734582871.3712466,0.0,-67.87109375,-237.79296875,-283.69140625,0.0
1734582871.3751464,0.0,-124.0234375,-238.76953125,-566.89453125,0.0
1734582871.3790462,0.0,89.35546875,78.61328125,-128.90625,0.0
1734582871.3829463,0.0,237.3046875,254.8828125,475.09765625,0.0
1734582871.386846,0.0,-69.82421875,-91.30859375,312.01171875,0.0
1734582871.3907459,0.0,-383.30078125,-422.36328125,-244.62890625,0.0
1734582871.3946457,0.0,-281.73828125,-344.7265625,-561.03515625,0.0
1734582871.3985455,0.0,167.48046875,97.16796875,-211.42578125,0.0
1734582871.4024453,0.0,262.6953125,229.00390625,448.2421875,0.0
1734582871.4063451,0.0,-255.859375,-205.56640625,426.7578125,0.0
1734582871.410245,0.0,-310.546875,-337.890625,-137.20703125,0.0
1734582871.4141448,0.0,34.66796875,-149.4140625,-526.85546875,0.0
1734582871.4181418,-74.21875,107.91015625,79.1015625,-250.0,0.0
1734582871.4220417,645.5078125,124.51171875,185.05859375,427.24609375,0.0
1734582871.4259415,458.984375,31.25,33.203125,511.71875,0.0
1734582871.4298413,-229.98046875,-200.1953125,-263.671875,-22.94921875,0.0
1734582871.433741,-613.76953125,-285.64453125,-404.78515625,-474.609375,0.0
1734582871.437641,-186.03515625,-134.27734375,-137.6953125,-280.2734375,0.0
1734582871.4415407,554.19921875,141.6015625,186.03515625,374.51171875,0.0
1734582871.4454408,444.82421875,95.703125,59.5703125,517.578125,0.0
1734582871.4493406,-180.6640625,-276.3671875,-349.12109375,41.9921875,0.0
1734582871.4532404,-621.09375,-359.86328125,-447.265625,-437.98828125,0.0
1734582871.4571402,-291.015625,123.53515625,73.73046875,-363.76953125,0.0
1734582871.46104,535.15625,358.88671875,306.15234375,295.8984375,0.0
1734582871.4650352,572.75390625,25.390625,17.578125,567.87109375,0.0
1734582871.4689353,-82.03125,-154.296875,-220.703125,97.65625,0.0
1734582871.472835,-558.10546875,-52.24609375,-132.8125,-434.5703125,0.0
1734582871.4767349,-330.078125,75.68359375,94.23828125,-426.7578125,0.0
1734582871.4806347,471.19140625,128.90625,250.48828125,222.16796875,0.0
1734582871.4845345,622.55859375,-39.55078125,100.09765625,591.30859375,0.0
1734582871.4884343,2.44140625,-231.4453125,-236.328125,191.89453125,0.0
1734582871.4923344,-542.48046875,-173.33984375,-229.00390625,-384.27734375,0.0
1734582871.4962342,-426.7578125,-312.01171875,-291.50390625,-454.1015625,0.0
1734582871.500134,373.53515625,-179.19921875,-67.3828125,153.3203125,0.0
1734582871.5040338,649.4140625,75.1953125,214.84375,545.8984375,0.0
1734582871.5079336,58.59375,-336.42578125,-213.8671875,186.03515625,0.0
1734582871.5119278,-500.9765625,-464.84375,-282.71484375,-354.4921875,0.0
1734582871.5158277,-461.9140625,-255.37109375,47.8515625,-496.58203125,0.0
1734582871.5197275,298.33984375,-92.7734375,295.8984375,41.50390625,0.0
1734582871.5236275,700.68359375,-345.703125,151.3671875,576.66015625,0.0
1734582871.5275273,170.41015625,-626.953125,-204.1015625,324.70703125,0.0
1734582871.5314271,-432.6171875,-712.890625,-348.14453125,-256.34765625,0.0
1734582871.535327,-476.5625,-546.875,-100.09765625,-479.98046875,0.0
1734582871.539227,225.5859375,-346.19140625,173.828125,-15.625,0.0
1734582871.5431268,710.9375,-588.8671875,-55.6640625,549.31640625,0.0
1734582871.5470266,263.18359375,-527.34375,-76.171875,349.609375,0.0
1734582871.5509264,-358.88671875,-416.015625,54.19921875,-217.28515625,0.0
1734582871.5548263,-514.16015625,-484.86328125,-90.8203125,-486.81640625,0.0
1734582871.558808,114.2578125,-171.38671875,77.63671875,-109.86328125,0.0
1734582871.5627081,714.84375,159.1796875,300.29296875,516.6015625,0.0
1734582871.566608,342.28515625,-78.61328125,-50.78125,442.3828125,0.0
1734582871.5705078,-333.984375,-228.02734375,-338.37890625,-127.9296875,0.0
1734582871.5744078,-571.77734375,-2.9296875,-105.46875,-481.4453125,0.0
1734582871.5783076,-5.37109375,191.40625,150.390625,-153.80859375,0.0
1734582871.5822074,684.08203125,275.390625,228.515625,524.90234375,0.0
1734582871.5861073,419.921875,-109.86328125,-215.33203125,545.8984375,0.0
1734582871.5900073,-256.8359375,-214.35546875,-409.1796875,-14.6484375,0.0
1734582871.593907,-546.875,218.26171875,43.45703125,-444.3359375,0.0
1734582871.597807,-64.94140625,306.15234375,177.24609375,-201.66015625,0.0
1734582871.6017067,670.41015625,270.01953125,203.125,474.609375,0.0
1734582871.6056833,515.625,138.671875,100.5859375,570.80078125,0.0
1734582871.6095831,-162.59765625,27.83203125,33.203125,20.5078125,0.0
1734582871.613483,-534.66796875,-79.1015625,-18.5546875,-436.03515625,0.0
1734582871.617383,-140.13671875,-76.66015625,25.87890625,-246.58203125,0.0
1734582871.6212828,635.7421875,101.5625,224.12109375,435.546875,0.0
1734582871.6251826,590.33203125,-11.23046875,117.67578125,629.39453125,0.0
1734582871.6290824,-87.890625,-324.21875,-279.78515625,139.16015625,0.0
1734582871.6329825,-563.96484375,-491.2109375,-451.171875,-362.3046875,0.0
1734582871.6368823,-262.20703125,-50.29296875,59.5703125,-312.01171875,0.0
1734582871.640782,558.59375,274.90234375,353.515625,320.80078125,0.0
1734582871.6446822,610.83984375,-81.54296875,67.87109375,601.07421875,0.0
1734582871.648582,-30.76171875,-315.4296875,-77.1484375,151.85546875,0.0
1734582871.65255,-522.4609375,-259.27734375,49.31640625,-402.83203125,0.0
1734582871.6564498,-335.44921875,-142.578125,186.5234375,-420.41015625,0.0
1734582871.6603496,452.1484375,-114.74609375,243.65234375,213.8671875,0.0
1734582871.6642497,635.25390625,-154.78515625,162.59765625,562.98828125,0.0
1734582871.6681495,22.94921875,-238.76953125,58.59375,157.71484375,0.0
1734582871.6720493,-541.015625,-384.27734375,-148.92578125,-386.23046875,0.0
1734582871.6759493,-448.2421875,-492.67578125,-332.03125,-458.0078125,0.0
1734582871.6798491,332.03125,-167.96875,-5.37109375,114.2578125,0.0
1734582871.683749,652.34375,187.5,263.18359375,548.828125,0.0
1734582871.687649,82.03125,-98.6328125,-2.9296875,224.12109375,0.0
1734582871.6915488,-519.53125,-224.609375,-132.8125,-359.86328125,0.0
1734582871.6954486,-495.1171875,-45.41015625,62.5,-532.71484375,0.0
1734582871.6994138,275.390625,236.81640625,348.6328125,20.01953125,0.0
1734582871.7033136,721.6796875,108.88671875,240.234375,594.23828125,0.0
1734582871.7072136,226.07421875,-202.63671875,59.08203125,357.91015625,0.0
1734582871.7111135,-408.203125,-358.3984375,-10.25390625,-239.74609375,0.0
1734582871.7150133,-503.41796875,-251.953125,83.49609375,-500.9765625,0.0
1734582871.7189133,162.109375,-139.6484375,238.28125,-45.8984375,0.0
1734582871.7228131,667.96875,-369.62890625,78.125,567.87109375,0.0
1734582871.726713,234.86328125,-278.3203125,63.4765625,374.51171875,0.0
1734582871.730613,-412.109375,-190.91796875,122.0703125,-233.88671875,0.0
1734582871.7345128,-570.80078125,-309.5703125,48.828125,-517.08984375,0.0
1734582871.7384126,40.0390625,-84.9609375,212.890625,-148.92578125,0.0
1734582871.7423127,657.71484375,143.06640625,335.9375,456.0546875,0.0
1734582871.7463405,0.0,-157.2265625,132.32421875,397.4609375,0.0
1734582871.7502406,0.0,-389.16015625,-52.24609375,-162.59765625,0.0
1734582871.7541404,0.0,-210.44921875,41.9921875,-547.8515625,0.0
1734582871.7580402,0.0,96.6796875,300.29296875,-247.0703125,0.0
1734582871.7619402,0.0,83.984375,314.453125,405.2734375,0.0
1734582871.76584,0.0,-324.21875,-53.7109375,430.17578125,0.0
1734582871.76974,0.0,-417.96875,-207.03125,-104.98046875,0.0
1734582871.77364,0.0,-161.1328125,61.5234375,-528.3203125,0.0
1734582871.7775397,0.0,42.96875,266.11328125,-302.24609375,0.0
1734582871.7814398,0.0,-140.13671875,172.36328125,379.39453125,0.0
1734582871.7853396,0.0,-212.40234375,60.05859375,488.76953125,0.0
1734582871.7892396,0.0,-62.98828125,110.83984375,-47.8515625,0.0
1734582871.7932441,-656.25,-188.96484375,33.203125,-506.34765625,0.0
1734582871.7971442,-292.96875,-59.5703125,152.34375,-358.88671875,0.0
1734582871.801044,510.7421875,205.078125,345.21484375,310.546875,0.0
1734582871.8049438,486.81640625,-5.37109375,147.94921875,514.16015625,0.0
1734582871.8088439,-199.21875,-288.0859375,-178.22265625,31.73828125,0.0
1734582871.8127437,-660.64453125,-319.82421875,-303.22265625,-461.42578125,0.0
1734582871.8166437,-382.8125,-40.52734375,16.11328125,-412.109375,0.0
1734582871.8205435,435.546875,348.14453125,401.85546875,240.234375,0.0
1734582871.8244436,526.85546875,60.546875,99.12109375,579.1015625,0.0
1734582871.8283434,-131.8359375,-389.6484375,-329.1015625,154.78515625,0.0
1734582871.8322432,-623.53515625,-99.12109375,-33.69140625,-396.97265625,0.0
1734582871.8361433,-415.52734375,186.03515625,247.0703125,-414.55078125,0.0
1734582871.8401358,388.671875,165.0390625,226.07421875,218.26171875,0.0
1734582871.8440356,605.95703125,109.86328125,158.203125,617.67578125,0.0
1734582871.8479357,5.37109375,14.6484375,103.02734375,223.6328125,0.0
1734582871.8518355,-557.12890625,-110.3515625,42.96875,-359.86328125,0.0
1734582871.8557355,-483.88671875,-129.39453125,97.16796875,-472.16796875,0.0
1734582871.8596354,297.36328125,-24.90234375,209.9609375,133.30078125,0.0
1734582871.8635354,643.06640625,-12.20703125,132.8125,644.53125,0.0
1734582871.8674352,88.37890625,-120.60546875,-57.6171875,312.01171875,0.0
1734582871.8713353,-520.01953125,-455.56640625,-424.8046875,-279.296875,0.0
1734582871.875235,-533.203125,-319.82421875,-246.09375,-477.5390625,0.0
1734582871.8791351,234.86328125,294.43359375,340.8203125,27.34375,0.0
1734582871.883035,700.68359375,179.19921875,220.21484375,593.26171875,0.0
1734582871.8870234,0.0,-149.90234375,0.0,360.83984375,0.0
1734582871.8909235,0.0,-152.83203125,0.0,-220.703125,0.0
1734582871.8948233,0.0,-8.30078125,0.0,-477.05078125,0.0
1734582871.8987234,0.0,29.78515625,0.0,-9.27734375,0.0
1734582871.9026232,0.0,-5.37109375,0.0,622.0703125,0.0
1734582871.9065232,0.0,-140.13671875,0.0,458.984375,0.0
1734582871.910423,0.0,-234.86328125,0.0,-146.484375,0.0
1734582871.914323,0.0,-209.9609375,0.0,-476.07421875,0.0
1734582871.918223,0.0,-129.8828125,0.0,-105.95703125,0.0
1734582871.922123,0.0,131.8359375,0.0,532.2265625,0.0
1734582871.9260228,0.0,106.4453125,0.0,482.91015625,0.0
1734582871.9299228,0.0,-111.81640625,0.0,-91.30859375,0.0
1734582871.9337676,-565.4296875,-67.3828125,-90.8203125,-486.328125,0.0
1734582871.9376674,-55.17578125,250.48828125,-37.59765625,-216.796875,0.0
1734582871.9415674,645.01953125,306.640625,146.484375,433.59375,0.0
1734582871.9454672,432.6171875,29.296875,196.77734375,492.1875,0.0
1734582871.949367,-246.58203125,-116.2109375,197.75390625,-46.38671875,0.0
1734582871.953267,-579.1015625,-149.4140625,-71.2890625,-489.2578125,0.0
1734582871.957167,-152.34375,25.87890625,-277.83203125,-295.8984375,0.0
1734582871.961067,582.51953125,-45.8984375,-237.3046875,382.8125,0.0
1734582871.9649668,469.7265625,-181.15234375,-95.21484375,530.76171875,0.0
1734582871.9688668,-168.9453125,85.44921875,159.66796875,3.90625,0.0
1734582871.9727666,-561.5234375,9.27734375,119.62890625,-462.40234375,0.0
1734582871.9766667,-210.9375,74.21875,-147.4609375,-307.6171875,0.0
1734582871.9806461,0.0,236.81640625,185.05859375,358.88671875,0.0
1734582871.9845462,0.0,142.578125,74.70703125,577.1484375,0.0
1734582871.988446,0.0,-26.3671875,-181.15234375,138.18359375,0.0
1734582871.992346,0.0,-166.015625,-390.13671875,-375.9765625,0.0
1734582871.9962459,0.0,78.125,-91.30859375,-291.50390625,0.0
1734582872.000146,0.0,265.625,203.61328125,357.91015625,0.0
1734582872.0040457,0.0,90.8203125,-36.1328125,596.6796875,0.0
1734582872.0079458,0.0,-219.23828125,-413.57421875,192.87109375,0.0
1734582872.0118456,0.0,-10.25390625,-325.1953125,-364.74609375,0.0
1734582872.0157456,0.0,327.1484375,-10.25390625,-434.5703125,0.0
1734582872.0196455,0.0,292.96875,144.04296875,169.921875,0.0
1734582872.0235455,0.0,198.73046875,62.01171875,574.70703125,0.0
1734582872.027518,52.24609375,121.09375,-87.40234375,211.42578125,0.0
1734582872.0314178,-513.671875,4.8828125,-290.0390625,-342.28515625,0.0
1734582872.035318,-450.1953125,-16.6015625,-277.83203125,-454.1015625,0.0
1734582872.0392177,292.96875,187.98828125,71.77734375,96.6796875,0.0
1734582872.0431178,647.4609375,143.5546875,70.3125,602.05078125,0.0
1734582872.0470176,116.2109375,-92.7734375,-288.0859375,333.0078125,0.0
1734582872.0509176,-499.51171875,-382.8125,-551.7578125,-244.140625,0.0
1734582872.0548174,-536.1328125,-242.1875,-429.19921875,-462.40234375,0.0
1734582872.0587175,195.3125,385.25390625,155.76171875,-4.39453125,0.0
1734582872.0626173,690.4296875,337.890625,151.3671875,556.15234375,0.0
1734582872.0665174,218.26171875,41.50390625,-217.28515625,345.703125,0.0
1734582872.0704172,-427.24609375,15.625,-321.2890625,-242.67578125,0.0
1734582872.0743854,-526.3671875,142.08984375,-195.80078125,-508.7890625,0.0
1734582872.0782855,120.60546875,212.890625,68.84765625,-83.49609375,0.0
1734582872.0821853,690.4296875,169.43359375,111.81640625,538.57421875,0.0
1734582872.0860853,300.78125,-28.3203125,-212.40234375,412.109375,0.0
1734582872.0899851,-380.859375,-125.48828125,-416.015625,-194.82421875,0.0
1734582872.0938852,-590.8203125,-122.0703125,-408.69140625,-524.90234375,0.0
1734582872.097785,-13.671875,-114.2578125,-295.41015625,-168.45703125,0.0
1734582872.101685,643.06640625,165.52734375,39.0625,465.8203125,0.0
1734582872.105585,358.88671875,213.8671875,-37.109375,429.19921875,0.0
1734582872.109485,-315.4296875,-29.296875,-373.53515625,-129.8828125,0.0
1734582872.113385,-600.09765625,-70.80078125,-408.203125,-532.71484375,0.0
1734582872.1172848,-93.75,217.28515625,-37.59765625,-268.06640625,0.0
1734582872.121247,0.0,373.046875,0.0,411.62109375,0.0
1734582872.125147,0.0,63.96484375,0.0,478.515625,0.0
1734582872.129047,0.0,-107.421875,0.0,-62.01171875,0.0
1734582872.132947,0.0,52.734375,0.0,-517.08984375,0.0
1734582872.1368468,0.0,168.45703125,0.0,-345.21484375,0.0
1734582872.1407468,0.0,76.66015625,0.0,347.65625,0.0
1734582872.144647,0.0,-28.3203125,0.0,517.578125,0.0
1734582872.1485467,0.0,10.25390625,0.0,-4.8828125,0.0
1734582872.1524467,0.0,-30.2734375,0.0,-491.69921875,0.0
1734582872.1563466,0.0,-155.76171875,0.0,-377.44140625,0.0
1734582872.1602466,0.0,-5.859375,0.0,260.7421875,0.0
1734582872.1641464,0.0,172.36328125,0.0,519.53125,0.0
1734582872.1681535,-100.09765625,-12.6953125,-246.09375,93.75,0.0
1734582872.1720536,-573.73046875,-123.53515625,-371.09375,-423.33984375,0.0
1734582872.1759534,-347.65625,92.7734375,-87.40234375,-410.64453125,0.0
1734582872.1798534,438.96484375,209.47265625,184.08203125,236.81640625,0.0
1734582872.1837535,587.890625,27.34375,-66.40625,592.28515625,0.0
1734582872.1876533,-18.06640625,-237.3046875,-422.36328125,202.1484375,0.0
1734582872.1915534,-537.109375,-143.06640625,-382.8125,-333.984375,0.0
1734582872.1954532,-405.76171875,199.70703125,-90.8203125,-428.22265625,0.0
1734582872.1993532,363.76953125,198.2421875,69.3359375,163.0859375,0.0
1734582872.2032533,615.72265625,-32.71484375,-217.28515625,612.79296875,0.0
1734582872.207153,52.24609375,49.8046875,-311.03515625,243.65234375,0.0
1734582872.2110531,-515.13671875,71.2890625,-295.8984375,-340.33203125,0.0
1734582872.21505,0.0,10.25390625,-277.34375,-457.51953125,0.0
1734582872.21895,0.0,132.32421875,4.8828125,68.359375,0.0
1734582872.2228498,0.0,222.16796875,122.0703125,574.70703125,0.0
1734582872.22675,0.0,100.09765625,-150.87890625,314.453125,0.0
1734582872.23065,0.0,-104.98046875,-383.30078125,-268.5546875,0.0
1734582872.2345498,0.0,-140.13671875,-376.46484375,-474.12109375,0.0
1734582872.2384498,0.0,154.296875,-18.06640625,-1.953125,0.0
1734582872.2423499,0.0,340.33203125,187.5,534.1796875,0.0
1734582872.2462497,0.0,-216.30859375,-375.9765625,343.26171875,0.0
1734582872.2501497,0.0,-362.3046875,-560.05859375,-235.3515625,0.0
1734582872.2540498,0.0,153.80859375,-184.08203125,-538.57421875,0.0
1734582872.2579496,0.0,261.23046875,51.7578125,-121.09375,0.0
1734582872.261936,641.11328125,199.70703125,140.13671875,506.34765625,0.0
1734582872.2658358,277.34375,105.95703125,-77.1484375,409.1796875,0.0
1734582872.2697358,-391.6015625,-2.44140625,-292.96875,-148.92578125,0.0
1734582872.2736359,-622.55859375,-141.11328125,-367.1875,-512.20703125,0.0
1734582872.2775357,-63.4765625,-12.6953125,-116.69921875,-193.359375,0.0
1734582872.2814357,602.5390625,147.4609375,131.8359375,473.6328125,0.0
1734582872.2853358,318.84765625,-28.80859375,-160.64453125,466.796875,0.0
1734582872.2892356,-361.81640625,-229.4921875,-462.890625,-97.65625,0.0
1734582872.2931356,-648.92578125,-300.78125,-496.58203125,-504.8828125,0.0
1734582872.2970357,-156.73828125,143.06640625,-13.671875,-299.31640625,0.0
1734582872.3009355,578.61328125,439.94140625,296.875,351.07421875,0.0
1734582872.3048356,398.4375,85.9375,-69.3359375,439.453125,0.0
1734582872.3088155,-278.3203125,-132.8125,-363.28125,-104.98046875,0.0
1734582872.3127155,-623.53515625,4.8828125,-238.76953125,-554.6875,0.0
1734582872.3166153,-205.56640625,148.92578125,55.17578125,-367.1875,0.0
1734582872.3205154,543.45703125,171.38671875,215.33203125,310.05859375,0.0
1734582872.3244154,458.984375,22.4609375,2.9296875,487.79296875,0.0
1734582872.3283155,-183.59375,-197.265625,-291.015625,12.20703125,0.0
1734582872.3322153,-613.76953125,-239.2578125,-378.90625,-464.84375,0.0
1734582872.3361154,-339.35546875,-105.95703125,-266.6015625,-396.97265625,0.0
1734582872.3400154,431.640625,92.7734375,69.3359375,246.09375,0.0
1734582872.3439152,470.21484375,165.52734375,134.765625,504.39453125,0.0
1734582872.3478153,-140.625,-13.671875,-176.26953125,64.94140625,0.0
1734582872.3517153,-623.046875,-294.43359375,-411.62109375,-429.19921875,0.0
1734582872.3556905,-423.828125,-46.875,-108.88671875,-444.3359375,0.0
1734582872.3595905,390.625,394.04296875,252.9296875,187.98828125,0.0
1734582872.3634906,542.96875,215.8203125,80.078125,550.29296875,0.0
1734582872.3673904,-79.1015625,-143.5546875,-260.7421875,148.4375,0.0
1734582872.3712904,-595.21484375,-152.34375,-373.53515625,-378.41796875,0.0
1734582872.3751905,-459.47265625,5.859375,-251.953125,-443.84765625,0.0
1734582872.3790905,316.89453125,134.27734375,69.82421875,149.90234375,0.0
1734582872.3829904,575.68359375,-11.71875,-90.33203125,582.51953125,0.0
1734582872.3868904,23.92578125,18.06640625,-250.9765625,226.07421875,0.0
1734582872.3907905,-516.6015625,133.30078125,-156.73828125,-344.7265625,0.0
1734582872.3946905,-487.3046875,29.78515625,-202.1484375,-480.46875,0.0
1734582872.3985903,249.51171875,123.046875,32.71484375,56.640625,0.0
1734582872.4025612,657.2265625,273.92578125,205.078125,592.28515625,0.0
1734582872.406461,167.48046875,135.7421875,0.0,341.30859375,0.0
1734582872.410361,-439.94140625,-112.79296875,-257.8125,-224.609375,0.0
1734582872.414261,-514.16015625,-28.3203125,-149.4140625,-446.2890625,0.0
1734582872.4181612,165.0390625,229.00390625,200.68359375,10.7421875,0.0
1734582872.4220612,662.59765625,139.16015625,172.36328125,604.4921875,0.0
1734582872.425961,203.125,-386.23046875,-360.3515625,447.75390625,0.0
1734582872.429861,-460.44921875,-452.63671875,-531.73828125,-152.83203125,0.0
1734582872.4337611,-608.3984375,13.18359375,-207.51953125,-481.4453125,0.0
1734582872.4376612,16.11328125,143.06640625,53.7109375,-96.6796875,0.0
1734582872.441561,609.375,128.90625,189.94140625,541.9921875,0.0
1734582872.445461,252.9296875,2.9296875,-73.73046875,457.51953125,0.0
1734582872.4494245,0.0,-85.44921875,-334.47265625,-124.0234375,0.0
1734582872.4533246,0.0,-106.4453125,-356.93359375,-480.95703125,0.0
1734582872.4572244,0.0,-51.26953125,-231.4453125,-171.875,0.0
1734582872.4611244,0.0,54.6875,-124.0234375,484.375,0.0
1734582872.4650245,0.0,8.7890625,-324.70703125,492.1875,0.0
1734582872.4689245,0.0,-178.22265625,-539.0625,-58.10546875,0.0
1734582872.4728246,0.0,-333.49609375,-612.3046875,-469.7265625,0.0
1734582872.4767244,0.0,116.69921875,-279.78515625,-273.4375,0.0
1734582872.4806244,0.0,510.7421875,79.58984375,371.58203125,0.0
1734582872.4845245,0.0,233.88671875,-276.3671875,471.19140625,0.0
1734582872.4884245,0.0,57.12890625,-553.7109375,-84.47265625,0.0
1734582872.4923246,0.0,260.25390625,-418.9453125,-577.63671875,0.0
1734582872.4962845,-282.71484375,553.7109375,-210.9375,-437.01171875,0.0
1734582872.5001845,488.28125,641.6015625,-23.92578125,237.79296875,0.0
1734582872.5040846,445.80078125,504.8828125,-278.80859375,454.58984375,0.0
1734582872.5079846,-238.28125,512.20703125,-408.203125,-74.70703125,0.0
1734582872.5118847,-607.91015625,469.23828125,-376.953125,-522.4609375,0.0
1734582872.5157847,-266.6015625,387.6953125,-325.1953125,-345.21484375,0.0
1734582872.5196846,419.43359375,530.2734375,-51.26953125,244.62890625,0.0
1734582872.5235846,483.88671875,576.66015625,-58.10546875,507.32421875,0.0
1734582872.5274847,-145.99609375,426.26953125,-328.125,58.59375,0.0
1734582872.5313847,-661.1328125,76.66015625,-494.62890625,-465.8203125,0.0
1734582872.5352848,-480.46875,163.57421875,-229.98046875,-492.67578125,0.0
1734582872.5391848,312.5,588.37890625,249.0234375,106.93359375,0.0
1734582872.5431871,515.13671875,398.4375,108.88671875,523.92578125,0.0
1734582872.5470872,-107.421875,41.9921875,-220.21484375,143.06640625,0.0
1734582872.5509872,-665.0390625,12.6953125,-188.96484375,-451.171875,0.0
1734582872.5548873,-559.5703125,15.13671875,-78.125,-546.38671875,0.0
1734582872.5587873,198.73046875,105.95703125,164.0625,44.921875,0.0
1734582872.5626874,513.671875,-2.9296875,129.8828125,529.78515625,0.0
1734582872.5665872,-45.41015625,-124.0234375,-7.32421875,218.75,0.0
1734582872.5704873,-639.6484375,-38.57421875,83.49609375,-372.0703125,0.0
1734582872.5743873,-651.3671875,-171.875,50.78125,-534.1796875,0.0
1734582872.5782874,63.96484375,-211.9140625,134.765625,4.39453125,0.0
1734582872.5821874,500.48828125,69.82421875,280.2734375,539.55078125,0.0
1734582872.5860875,-6.34765625,-58.10546875,141.11328125,284.66796875,0.0
1734582872.5900846,-643.5546875,-378.41796875,-42.96875,-300.78125,0.0
1734582872.5939844,-718.26171875,-347.16796875,30.2734375,-534.1796875,0.0
1734582872.5978844,-32.71484375,-40.52734375,318.359375,-86.42578125,0.0
1734582872.6017845,501.953125,-77.1484375,324.21875,502.44140625,0.0
1734582872.6056845,71.77734375,-482.421875,-11.23046875,343.26171875,0.0
1734582872.6095846,-596.19140625,-720.21484375,-307.6171875,-236.328125,0.0
1734582872.6134846,-770.01953125,-566.89453125,-187.01171875,-549.31640625,0.0
1734582872.6173847,-151.3671875,-154.296875,282.2265625,-169.921875,0.0
1734582872.6212847,461.42578125,-384.27734375,112.79296875,493.1640625,0.0
1734582872.6251848,99.12109375,-623.046875,-162.59765625,411.62109375,0.0
1734582872.6290846,-560.546875,-292.96875,118.1640625,-181.15234375,0.0
1734582872.6329846,-779.296875,-341.30859375,69.3359375,-524.4140625,0.0
1734582872.6369781,-234.86328125,-330.56640625,0.0,-208.984375,0.0
1734582872.6408782,455.56640625,-94.23828125,0.0,456.54296875,0.0
1734582872.644778,229.98046875,-196.77734375,0.0,478.515625,0.0
1734582872.648678,-444.3359375,-519.53125,0.0,-91.796875,0.0
1734582872.652578,-772.4609375,-538.0859375,0.0,-525.87890625,0.0
1734582872.6564782,-307.12890625,-321.2890625,0.0,-291.015625,0.0
1734582872.6603782,455.56640625,-140.13671875,0.0,421.38671875,0.0
1734582872.6642783,291.50390625,-334.47265625,0.0,514.6484375,0.0
1734582872.6681783,-440.4296875,-726.5625,0.0,-99.12109375,0.0
1734582872.6720784,-862.3046875,-463.37890625,0.0,-623.53515625,0.0
1734582872.6759784,-458.49609375,-73.2421875,0.0,-448.73046875,0.0
1734582872.6798785,398.92578125,-88.8671875,0.0,344.7265625,0.0
1734582872.683866,360.83984375,-263.671875,34.66796875,584.47265625,0.0
1734582872.687766,-381.8359375,-313.96484375,-74.21875,-11.23046875,0.0
1734582872.6916661,-866.2109375,-347.65625,-207.51953125,-581.54296875,0.0
1734582872.6955662,-538.57421875,-323.2421875,-94.23828125,-465.8203125,0.0
1734582872.6994662,338.37890625,-80.56640625,239.2578125,293.45703125,0.0
1734582872.7033663,440.4296875,-167.48046875,105.46875,638.18359375,0.0
1734582872.7072663,-252.9296875,-366.69921875,-221.6796875,131.34765625,0.0
1734582872.7111664,-799.8046875,-608.3984375,-498.53515625,-454.1015625,0.0
1734582872.7150664,-594.7265625,-398.92578125,-248.53515625,-465.33203125,0.0
1734582872.7189665,268.06640625,287.59765625,365.234375,212.40234375,0.0
1734582872.7228665,489.2578125,30.76171875,174.31640625,649.4140625,0.0
1734582872.7267666,-164.55078125,-385.25390625,-201.171875,200.1953125,0.0
1734582872.7307456,-749.51171875,-303.22265625,-233.3984375,-424.31640625,0.0
1734582872.7346456,-626.46484375,52.734375,47.36328125,-520.5078125,0.0
1734582872.7385457,225.5859375,394.04296875,299.31640625,138.671875,0.0
1734582872.7424457,564.94140625,299.31640625,107.421875,679.6875,0.0
1734582872.7463458,-47.36328125,203.61328125,-208.49609375,304.19921875,0.0
1734582872.7502458,-686.03515625,256.34765625,-332.51953125,-358.88671875,0.0
1734582872.7541459,-664.55078125,307.6171875,-274.4140625,-542.48046875,0.0
1734582872.758046,137.6953125,442.3828125,-72.265625,68.84765625,0.0
1734582872.761946,614.2578125,722.16796875,157.71484375,671.875,0.0
1734582872.765846,94.7265625,673.33984375,114.74609375,367.67578125,0.0
1734582872.769746,-573.73046875,314.94140625,-237.3046875,-270.5078125,0.0
1734582872.773646,-668.9453125,343.75,-213.37890625,-528.80859375,0.0
1734582872.7777336,60.05859375,765.13671875,260.25390625,-32.2265625,0.0
1734582872.7816336,655.2734375,847.16796875,288.57421875,640.13671875,0.0
1734582872.7855337,197.75390625,481.93359375,-63.4765625,466.30859375,0.0
1734582872.7894337,-502.9296875,365.72265625,-240.72265625,-191.40625,0.0
1734582872.7933338,-664.55078125,472.16796875,-175.29296875,-534.66796875,0.0
1734582872.7972338,-2.44140625,623.53515625,130.859375,-99.609375,0.0
1734582872.8011339,668.45703125,477.5390625,-15.13671875,621.09375,0.0
1734582872.8050342,291.9921875,312.01171875,-399.90234375,522.94921875,0.0
1734582872.8089342,-418.45703125,578.61328125,-234.375,-142.08984375,0.0
1734582872.8128343,-665.52734375,518.06640625,-231.93359375,-549.8046875,0.0
1734582872.8167343,-88.37890625,599.12109375,25.87890625,-204.1015625,0.0
1734582872.8206344,656.25,776.85546875,278.3203125,531.73828125,0.0
1734582872.8246021,409.1796875,513.18359375,84.47265625,558.10546875,0.0
1734582872.8285022,-319.3359375,133.7890625,-217.7734375,-60.546875,0.0
1734582872.8324022,-681.640625,-23.92578125,-359.86328125,-541.9921875,0.0
1734582872.8363023,-191.89453125,133.30078125,-53.22265625,-284.66796875,0.0
1734582872.8402023,606.4453125,266.6015625,246.09375,451.171875,0.0
1734582872.8441024,455.078125,-100.5859375,-151.85546875,563.96484375,0.0
1734582872.8480024,-277.34375,-559.5703125,-521.484375,2.9296875,0.0
1734582872.8519025,-706.0546875,-328.125,-312.98828125,-533.69140625,0.0
1734582872.8558025,-297.8515625,57.6171875,49.8046875,-389.6484375,0.0
1734582872.8597026,563.96484375,24.4140625,209.47265625,380.859375,0.0
1734582872.8636026,541.50390625,-193.359375,14.16015625,629.8828125,0.0
1734582872.867503,-191.40625,-280.2734375,-190.91796875,67.3828125,0.0
1734582872.8715105,0.0,-313.4765625,-306.15234375,-510.25390625,0.0
1734582872.8754106,0.0,-272.94921875,-160.15625,-437.5,0.0
1734582872.8793106,0.0,-74.21875,172.8515625,321.2890625,0.0
1734582872.8832107,0.0,-112.79296875,142.578125,675.29296875,0.0
1734582872.8871107,0.0,-358.3984375,-232.421875,165.52734375,0.0
1734582872.8910108,0.0,-626.953125,-489.74609375,-441.89453125,0.0
1734582872.8949108,0.0,-338.37890625,-226.07421875,-492.67578125,0.0
1734582872.8988109,0.0,282.2265625,269.04296875,215.8203125,0.0
1734582872.9027112,0.0,176.7578125,115.234375,715.8203125,0.0
1734582872.9066112,0.0,-254.39453125,-333.49609375,279.78515625,0.0
1734582872.9105113,0.0,-215.33203125,-384.27734375,-403.80859375,0.0
1734582872.9144113,0.0,135.25390625,-95.703125,-571.77734375,0.0
1734582872.9184093,283.203125,333.49609375,201.171875,79.58984375,0.0
1734582872.9223094,677.734375,241.2109375,129.39453125,684.5703125,0.0
1734582872.9262097,71.77734375,97.65625,-117.1875,344.7265625,0.0
1734582872.9301097,-603.02734375,-82.03125,-379.8828125,-363.76953125,0.0
1734582872.9340098,-640.625,-73.73046875,-368.1640625,-600.5859375,0.0
1734582872.9379098,157.71484375,231.4453125,-8.30078125,0.48828125,0.0
1734582872.94181,700.68359375,341.796875,157.71484375,677.734375,0.0
1734582872.94571,187.01171875,316.89453125,-6.34765625,435.05859375,0.0
1734582872.9496102,-531.25,40.52734375,-369.140625,-256.8359375,0.0
1734582872.9535103,-689.453125,-116.2109375,-477.5390625,-589.84375,0.0
1734582872.9574103,33.69140625,427.24609375,117.1875,-124.0234375,0.0
1734582872.9613104,694.82421875,609.86328125,302.734375,593.26171875,0.0
1734582872.965302,239.74609375,242.1875,-85.9375,464.84375,0.0
1734582872.969202,-517.578125,64.94140625,-357.421875,-228.02734375,0.0
1734582872.973102,-741.69921875,243.65234375,-186.03515625,-641.6015625,0.0
1734582872.9770021,-87.40234375,500.0,199.21875,-241.2109375,0.0
1734582872.9809022,652.83203125,431.15234375,271.484375,547.36328125,0.0
1734582872.9848025,321.77734375,43.9453125,-110.3515625,579.58984375,0.0
1734582872.9887025,-453.125,-53.22265625,-345.703125,-90.33203125,0.0
1734582872.9926026,-773.4375,59.5703125,-236.328125,-585.9375,0.0
1734582872.9965026,-210.44921875,-59.5703125,-225.5859375,-258.7890625,0.0
1734582873.0004027,595.703125,98.6328125,-10.25390625,544.921875,0.0
1734582873.004303,400.390625,309.08203125,148.92578125,623.046875,0.0
1734582873.008203,-357.91015625,0.48828125,-207.03125,-15.625,0.0
1734582873.0121903,0.0,-102.5390625,0.0,-545.41015625,0.0
1734582873.0160904,0.0,257.32421875,0.0,-337.890625,0.0
1734582873.0199904,0.0,457.03125,0.0,457.03125,0.0
1734582873.0238907,0.0,89.35546875,0.0,669.43359375,0.0
1734582873.0277908,0.0,-167.96875,0.0,33.69140625,0.0
1734582873.0316908,0.0,-179.6875,0.0,-578.61328125,0.0
1734582873.035591,0.0,114.2578125,0.0,-447.265625,0.0
1734582873.039491,0.0,340.33203125,0.0,351.07421875,0.0
1734582873.0433912,0.0,-79.1015625,0.0,687.98828125,0.0
1734582873.0472913,0.0,-45.41015625,0.0,125.48828125,0.0
1734582873.0511913,0.0,79.58984375,0.0,-499.0234375,0.0
1734582873.0550914,0.0,41.50390625,0.0,-473.14453125,0.0
1734582873.0590699,458.0078125,339.84375,243.1640625,296.875,0.0
1734582873.06297,638.671875,376.953125,204.58984375,719.7265625,0.0
1734582873.06687,-76.66015625,71.77734375,-62.5,211.9140625,0.0
1734582873.0707703,-699.70703125,-154.78515625,-289.0625,-461.42578125,0.0
1734582873.0746703,-564.453125,37.109375,-56.640625,-552.24609375,0.0
1734582873.0785704,325.1953125,277.34375,256.8359375,163.57421875,0.0
1734582873.0824707,666.015625,202.63671875,151.3671875,698.73046875,0.0
1734582873.0863707,5.859375,-251.953125,-351.5625,289.55078125,0.0
1734582873.0902708,-660.15625,-333.0078125,-541.50390625,-408.203125,0.0
1734582873.0941708,-600.09765625,240.234375,-14.6484375,-616.69921875,0.0
1734582873.098071,269.53125,418.9453125,266.11328125,17.578125,0.0
1734582873.1019711,728.02734375,246.58203125,192.87109375,632.8125,0.0
1734582873.1059523,123.53515625,20.99609375,-44.921875,322.265625,0.0
1734582873.1098523,-585.44921875,-106.93359375,-297.36328125,-383.7890625,0.0
1734582873.1137526,-645.01953125,-149.90234375,-288.0859375,-658.69140625,0.0
1734582873.1176527,154.78515625,62.98828125,72.265625,-78.125,0.0
1734582873.1215527,743.1640625,225.5859375,221.6796875,604.4921875,0.0
1734582873.125453,230.95703125,-23.4375,-124.51171875,380.37109375,0.0
1734582873.129353,-520.01953125,-247.0703125,-434.08203125,-305.6640625,0.0
1734582873.133253,-686.03515625,-263.671875,-396.484375,-665.0390625,0.0
1734582873.1371531,34.1796875,245.60546875,131.34765625,-213.8671875,0.0
1734582873.1410534,727.5390625,523.92578125,344.7265625,535.15625,0.0
1734582873.1449535,312.98828125,75.1953125,-102.05078125,438.96484375,0.0
1734582873.1488535,-444.82421875,-138.671875,-388.18359375,-242.67578125,0.0
1734582873.1528332,-705.078125,73.2421875,0.0,-685.05859375,0.0
1734582873.1567335,-79.1015625,332.51953125,0.0,-311.5234375,0.0
1734582873.1606336,704.58984375,293.9453125,0.0,500.0,0.0
1734582873.1645336,385.7421875,62.01171875,0.0,491.69921875,0.0
1734582873.168434,-401.85546875,-68.359375,0.0,-199.21875,0.0
1734582873.172334,-741.2109375,-119.140625,0.0,-662.109375,0.0
1734582873.176234,-213.8671875,-156.73828125,0.0,-352.5390625,0.0
1734582873.1801343,600.09765625,-20.01953125,0.0,443.359375,0.0
1734582873.1840343,436.5234375,234.86328125,0.0,531.25,0.0
1734582873.1879344,-306.640625,-6.34765625,0.0,-107.91015625,0.0
1734582873.1918344,-728.515625,-133.30078125,0.0,-648.4375,0.0
1734582873.1957347,-272.94921875,194.3359375,0.0,-471.6796875,0.0
1734582873.1997018,627.9296875,426.26953125,348.14453125,337.40234375,0.0
1734582873.2036018,561.5234375,162.109375,80.56640625,590.33203125,0.0
1734582873.2075021,-211.9140625,-158.203125,-256.34765625,3.90625,0.0
1734582873.2114022,-716.30859375,-193.359375,-357.421875,-583.984375,0.0
1734582873.2153022,-367.67578125,65.91796875,-53.7109375,-487.3046875,0.0
1734582873.2192025,545.41015625,243.65234375,230.46875,315.91796875,0.0
1734582873.2231026,602.5390625,-95.21484375,-107.421875,673.33984375,0.0
1734582873.2270026,-138.671875,-86.42578125,-274.4140625,124.0234375,0.0
1734582873.230903,-673.33984375,-15.625,-305.6640625,-516.6015625,0.0
1734582873.234803,-429.19921875,-54.19921875,-155.2734375,-534.66796875,0.0
1734582873.238703,487.79296875,235.83984375,237.3046875,209.47265625,0.0
1734582873.2426033,714.84375,294.43359375,203.61328125,670.41015625,0.0
1734582873.2465632,19.04296875,21.97265625,-59.08203125,223.6328125,0.0
1734582873.2504632,-585.44921875,-230.46875,-298.33984375,-423.828125,0.0
1734582873.2543635,-459.47265625,-63.4765625,-76.171875,-537.59765625,0.0
1734582873.2582636,425.29296875,321.2890625,334.47265625,143.5546875,0.0
1734582873.2621639,801.7578125,251.46484375,195.3125,720.703125,0.0
1734582873.266064,157.2265625,-305.6640625,-316.89453125,373.53515625,0.0
1734582873.269964,-528.3203125,-386.71875,-437.01171875,-318.359375,0.0
1734582873.2738643,-495.60546875,103.515625,-13.18359375,-554.19921875,0.0
1734582873.2777643,345.703125,308.10546875,301.26953125,41.50390625,0.0
1734582873.2816644,821.77734375,112.79296875,130.859375,693.84765625,0.0
1734582873.2855647,242.1875,-73.2421875,-142.08984375,406.25,0.0
1734582873.2894647,-462.890625,-156.25,-309.5703125,-299.31640625,0.0
1734582873.2934656,-527.34375,-196.77734375,0.0,0.0,0.0
1734582873.2973657,236.328125,82.51953125,0.0,0.0,0.0
1734582873.3012657,843.26171875,266.6015625,0.0,0.0,0.0
1734582873.305166,369.140625,-46.38671875,0.0,0.0,0.0
1734582873.309066,-381.8359375,-319.82421875,0.0,0.0,0.0
1734582873.3129663,-568.359375,-284.66796875,0.0,0.0,0.0
1734582873.3168664,132.8125,78.125,0.0,0.0,0.0
1734582873.3207664,860.3515625,388.18359375,0.0,0.0,0.0
1734582873.3246667,495.60546875,-16.11328125,0.0,0.0,0.0
1734582873.3285668,-289.55078125,-416.015625,0.0,0.0,0.0
1734582873.332467,-562.01171875,-61.5234375,0.0,0.0,0.0
1734582873.3363671,68.359375,291.9921875,0.0,0.0,0.0
1734582873.3403687,838.37890625,199.70703125,182.12890625,600.09765625,0.0
1734582873.3442688,546.875,-28.80859375,-11.23046875,607.421875,0.0
1734582873.348169,-227.5390625,-124.51171875,-175.78125,-58.10546875,0.0
1734582873.3520691,-584.47265625,-223.6328125,-331.0546875,-555.17578125,0.0
1734582873.3559694,-61.5234375,-77.1484375,-24.90234375,-297.36328125,0.0
1734582873.3598695,761.23046875,46.875,209.9609375,498.53515625,0.0
1734582873.3637698,592.7734375,-48.828125,67.87109375,648.4375,0.0
1734582873.3676698,-161.62109375,-133.30078125,-158.69140625,6.8359375,0.0
1734582873.37157,-605.95703125,-500.0,-522.94921875,-557.12890625,0.0
1734582873.3754702,-208.984375,-296.875,-201.66015625,-394.04296875,0.0
1734582873.3793702,681.640625,281.25,331.0546875,388.18359375,0.0
1734582873.3832705,678.7109375,-30.2734375,72.265625,665.52734375,0.0
1734582873.3872583,-67.3828125,-301.7578125,0.0,0.0,0.0
1734582873.3911586,-577.1484375,-175.78125,0.0,0.0,0.0
1734582873.3950586,-261.23046875,91.796875,0.0,0.0,0.0
1734582873.398959,626.46484375,144.53125,0.0,0.0,0.0
1734582873.402859,727.05078125,-28.3203125,0.0,0.0,0.0
1734582873.4067593,2.9296875,-217.28515625,0.0,0.0,0.0
1734582873.4106593,-578.125,-290.0390625,0.0,0.0,0.0
1734582873.4145596,-355.46875,-131.8359375,0.0,0.0,0.0
1734582873.4184597,542.48046875,-13.18359375,0.0,0.0,0.0
1734582873.42236,793.9453125,150.87890625,0.0,0.0,0.0
1734582873.42626,142.578125,55.6640625,0.0,0.0,0.0
1734582873.43016,-478.515625,-216.796875,0.0,0.0,0.0
1734582873.4341443,-378.41796875,-67.87109375,-125.9765625,-514.16015625,0.0
1734582873.4380443,481.4453125,325.68359375,321.77734375,166.015625,0.0
1734582873.4419446,848.6328125,275.390625,254.8828125,741.69921875,0.0
1734582873.4458447,225.5859375,-144.04296875,-120.60546875,385.25390625,0.0
1734582873.449745,-453.125,-243.65234375,-349.12109375,-297.36328125,0.0
1734582873.453645,-467.7734375,-101.5625,-277.34375,-512.6953125,0.0
1734582873.4575453,344.7265625,162.59765625,164.0625,77.63671875,0.0
1734582873.4614453,824.21875,-20.01953125,-20.5078125,723.14453125,0.0
1734582873.4653456,260.25390625,-260.25390625,-438.4765625,448.73046875,0.0
1734582873.4692457,-433.10546875,-55.17578125,-312.01171875,-264.16015625,0.0
1734582873.473146,-527.83203125,-41.50390625,-263.18359375,-566.89453125,0.0
1734582873.477046,223.14453125,228.515625,138.671875,-44.921875,0.0
1734582873.4810245,0.0,400.390625,305.6640625,674.31640625,0.0
1734582873.4849248,0.0,191.89453125,49.31640625,499.51171875,0.0
1734582873.4888248,0.0,-52.24609375,-233.88671875,-190.91796875,0.0
1734582873.4927251,0.0,-111.81640625,-312.98828125,-564.453125,0.0
1734582873.4966252,0.0,182.12890625,53.22265625,-144.53125,0.0
1734582873.5005255,0.0,350.09765625,251.953125,621.58203125,0.0
1734582873.5044255,0.0,52.734375,-147.4609375,578.61328125,0.0
1734582873.5083258,0.0,-265.13671875,-476.07421875,-101.5625,0.0
1734582873.5122259,0.0,26.3671875,-200.1953125,-567.3828125,0.0
1734582873.5161262,0.0,472.65625,204.58984375,-244.62890625,0.0
1734582873.5200262,0.0,395.01953125,222.65625,550.29296875,0.0
1734582873.5239265,0.0,130.37109375,-1.46484375,565.4296875,0.0
1734582873.5277689,839.35546875,-12.20703125,-218.75,0.0,0.0
1734582873.5316691,388.671875,-87.40234375,-345.703125,0.0,0.0
1734582873.5355692,-356.93359375,88.37890625,-66.89453125,0.0,0.0
1734582873.5394695,-570.3125,357.91015625,274.90234375,0.0,0.0
1734582873.5433695,93.75,217.7734375,99.609375,0.0,0.0
1734582873.5472698,811.5234375,-104.4921875,-268.06640625,0.0,0.0
1734582873.5511699,455.56640625,-359.86328125,-501.953125,0.0,0.0
1734582873.5550702,-328.125,-94.23828125,-182.12890625,0.0,0.0
1734582873.5589702,-612.79296875,528.80859375,371.09375,0.0,0.0
1734582873.5628705,-4.8828125,317.3828125,135.25390625,0.0,0.0
1734582873.5667706,772.94921875,-45.8984375,-245.60546875,0.0,0.0
1734582873.5706708,478.515625,22.4609375,-203.61328125,0.0,0.0
1734582873.5746365,-328.61328125,290.52734375,141.6015625,-464.84375,0.0
1734582873.5785365,557.12890625,409.66796875,282.71484375,282.2265625,0.0
1734582873.5824368,670.8984375,177.734375,85.9375,655.2734375,0.0
1734582873.5863369,-30.2734375,-90.8203125,-207.03125,165.0390625,0.0
1734582873.5902371,-604.4921875,-157.71484375,-367.1875,-473.14453125,0.0
1734582873.5941372,-428.22265625,-32.71484375,-161.62109375,-532.71484375,0.0
1734582873.5980375,439.94140625,41.015625,124.51171875,198.2421875,0.0
1734582873.6019375,722.16796875,217.7734375,173.33984375,678.22265625,0.0
1734582873.6058378,83.0078125,183.10546875,11.23046875,250.9765625,0.0
1734582873.6097379,-558.59375,-92.7734375,-272.4609375,-403.3203125,0.0
1734582873.6136382,-477.5390625,10.25390625,-101.5625,-582.51953125,0.0
1734582873.6175382,373.046875,358.88671875,331.54296875,49.8046875,0.0
1734582873.6214979,0.0,322.265625,287.59765625,656.73828125,0.0
1734582873.625398,0.0,-87.40234375,-76.171875,343.26171875,0.0
1734582873.6292982,0.0,-188.96484375,-272.4609375,-347.65625,0.0
1734582873.6331983,0.0,62.98828125,-16.11328125,-609.375,0.0
1734582873.6370986,0.0,307.12890625,334.47265625,-26.85546875,0.0
1734582873.6409986,0.0,37.59765625,109.375,667.48046875,0.0
1734582873.644899,0.0,-246.58203125,-287.109375,430.17578125,0.0
1734582873.648799,0.0,-134.765625,-291.9921875,-293.45703125,0.0
1734582873.6526992,0.0,-10.25390625,-82.03125,-631.8359375,0.0
1734582873.6565995,0.0,118.1640625,208.984375,-129.8828125,0.0
1734582873.6604996,0.0,253.41796875,255.859375,593.75,0.0
1734582873.6643999,0.0,172.8515625,119.140625,454.58984375,0.0
1734582873.6683993,-418.9453125,-113.28125,0.0,-234.375,0.0
1734582873.6722996,-659.66796875,-114.74609375,0.0,-625.48828125,0.0
1734582873.6762,9.27734375,218.75,0.0,-217.28515625,0.0
1734582873.6801,756.34765625,253.90625,0.0,537.109375,0.0
1734582873.6840003,404.296875,-88.8671875,0.0,511.71875,0.0
1734582873.6879003,-369.140625,-315.4296875,0.0,-154.296875,0.0
1734582873.6918006,-673.33984375,-119.62890625,0.0,-620.60546875,0.0
1734582873.695701,-82.03125,319.3359375,0.0,-307.6171875,0.0
1734582873.699601,727.05078125,269.53125,0.0,496.09375,0.0
1734582873.7035012,500.9765625,-127.44140625,0.0,584.9609375,0.0
1734582873.7074013,-272.4609375,-149.4140625,0.0,-54.6875,0.0
1734582873.7113016,-664.55078125,-10.25390625,0.0,-574.21875,0.0
1734582873.7151656,0.0,140.625,-83.49609375,-343.75,0.0
1734582873.7190657,0.0,291.015625,-126.953125,458.0078125,0.0
1734582873.722966,0.0,199.21875,214.84375,646.97265625,0.0
1734582873.7268662,0.0,-24.4140625,325.1953125,50.29296875,0.0
1734582873.7307663,0.0,-122.55859375,-74.21875,-524.90234375,0.0
1734582873.7346666,0.0,6.8359375,-401.85546875,-401.3671875,0.0
1734582873.7385666,0.0,357.91015625,-197.265625,368.65234375,0.0
1734582873.742467,0.0,381.8359375,259.765625,646.484375,0.0
1734582873.746367,0.0,-196.2890625,270.01953125,103.515625,0.0
1734582873.7502673,0.0,-256.8359375,-138.671875,-514.6484375,0.0
1734582873.7541676,0.0,357.421875,-290.0390625,-509.765625,0.0
1734582873.7580676,0.0,499.51171875,-92.7734375,263.18359375,0.0
1734582873.76193,679.6875,277.34375,154.78515625,691.89453125,0.0
1734582873.7658303,-57.6171875,42.96875,275.87890625,177.734375,0.0
1734582873.7697303,-658.203125,20.01953125,166.015625,-500.0,0.0
1734582873.7736306,-488.28125,142.578125,28.3203125,-560.05859375,0.0
1734582873.7775307,414.55078125,335.9375,-124.0234375,165.52734375,0.0
1734582873.781431,719.7265625,247.55859375,-59.5703125,699.70703125,0.0
1734582873.785331,44.43359375,97.65625,313.96484375,277.34375,0.0
1734582873.7892313,-590.33203125,53.22265625,226.07421875,-418.45703125,0.0
1734582873.7931316,-541.9921875,-69.3359375,-330.56640625,-596.19140625,0.0
1734582873.7970316,296.38671875,409.1796875,-418.45703125,18.5546875,0.0
1734582873.800932,752.44140625,523.4375,161.62109375,631.8359375,0.0
1734582873.804832,161.1328125,4.39453125,334.9609375,327.1484375,0.0
1734582873.8088112,-531.25,-82.03125,-296.38671875,-375.0,0.0
1734582873.8127112,-565.91796875,180.17578125,60.546875,-631.34765625,0.0
1734582873.8166115,225.09765625,378.41796875,332.51953125,-69.3359375,0.0
1734582873.8205116,748.53515625,250.9765625,224.609375,595.21484375,0.0
1734582873.8244119,225.5859375,-25.390625,-14.6484375,373.53515625,0.0
1734582873.8283122,-486.328125,-176.26953125,-251.46484375,-311.03515625,0.0
1734582873.8322122,-650.390625,-89.35546875,-242.67578125,-673.828125,0.0
1734582873.8361125,62.98828125,-36.1328125,-21.484375,-193.84765625,0.0
1734582873.8400126,737.79296875,47.8515625,135.25390625,555.17578125,0.0
1734582873.8439128,323.73046875,200.68359375,145.99609375,404.296875,0.0
1734582873.8478131,-428.22265625,-19.04296875,-17.578125,-275.87890625,0.0
1734582873.8517132,-659.1796875,-106.93359375,-123.53515625,-661.1328125,0.0
1734582873.8556871,-26.3671875,174.8046875,154.78515625,-293.9453125,0.0
1734582873.8595872,699.21875,336.9140625,352.05078125,447.75390625,0.0
1734582873.8634875,409.1796875,37.109375,79.58984375,465.8203125,0.0
1734582873.8673875,-334.47265625,-289.0625,-267.578125,-166.9921875,0.0
1734582873.8712878,-670.41015625,-184.5703125,-224.12109375,-636.23046875,0.0
1734582873.875188,-113.28125,103.515625,179.19921875,-323.73046875,0.0
1734582873.8790882,687.98828125,133.7890625,274.90234375,484.375,0.0
1734582873.8829885,456.0546875,-260.25390625,-169.921875,571.2890625,0.0
1734582873.8868887,-294.43359375,-291.9921875,-342.7734375,-83.0078125,0.0
1734582873.8907888,-674.8046875,-9.27734375,-54.19921875,-611.328125,0.0
1734582873.894689,-206.54296875,56.640625,144.04296875,-394.53125,0.0
1734582873.8985891,660.64453125,189.94140625,255.37109375,409.1796875,0.0
1734582873.9025984,593.75,143.06640625,174.31640625,648.92578125,0.0
1734582873.9064987,-134.765625,-102.05078125,-4.39453125,83.984375,0.0
1734582873.9103987,-610.3515625,-256.34765625,-133.7890625,-492.67578125,0.0
1734582873.914299,-267.08984375,-20.99609375,78.125,-410.64453125,0.0
1734582873.9181993,604.98046875,254.39453125,337.40234375,342.28515625,0.0
1734582873.9220994,628.90625,-9.765625,111.81640625,681.15234375,0.0
1734582873.9259996,-110.3515625,-497.55859375,-383.7890625,168.9453125,0.0
1734582873.9299,-640.13671875,-498.046875,-450.68359375,-468.75,0.0
1734582873.9338,-375.0,53.7109375,123.046875,-487.3046875,0.0
1734582873.9377003,512.20703125,212.890625,325.68359375,270.99609375,0.0
1734582873.9416006,690.91796875,-22.94921875,160.15625,708.984375,0.0
1734582873.9455006,3.41796875,-293.9453125,-123.046875,233.3984375,0.0
1734582873.9494605,0.0,-273.4375,-204.58984375,-421.875,0.0
1734582873.9533606,0.0,-120.1171875,50.29296875,-521.484375,0.0
1734582873.9572608,0.0,21.97265625,281.73828125,163.57421875,0.0
1734582873.9611611,0.0,-91.796875,163.57421875,708.0078125,0.0
1734582873.9650612,0.0,-279.78515625,-135.25390625,339.84375,0.0
1734582873.9689615,0.0,-351.5625,-308.10546875,-330.56640625,0.0
1734582873.9728618,0.0,-437.98828125,-317.87109375,-495.60546875,0.0
1734582873.9767618,0.0,107.421875,190.91796875,119.62890625,0.0
1734582873.980662,0.0,342.7734375,339.84375,715.33203125,0.0
1734582873.9845624,0.0,-93.26171875,-125.9765625,416.9921875,0.0
1734582873.9884624,0.0,-197.75390625,-316.40625,-286.1328125,0.0
1734582873.9923627,0.0,76.171875,44.921875,-577.1484375,0.0
1734582873.9963164,265.13671875,335.9375,320.80078125,-26.3671875,0.0
1734582874.0002167,828.61328125,166.015625,192.3828125,667.96875,0.0
1734582874.0041168,329.1015625,-299.31640625,-168.9453125,462.890625,0.0
1734582874.008017,-393.5546875,-355.95703125,-306.15234375,-230.46875,0.0
1734582874.0119174,-552.734375,-186.03515625,-41.9921875,-579.1015625,0.0
1734582874.0158176,125.48828125,-260.25390625,99.12109375,-102.05078125,0.0
1734582874.0197177,761.71875,-288.0859375,83.49609375,645.01953125,0.0
1734582874.023618,376.46484375,-248.53515625,81.0546875,511.71875,0.0
1734582874.0275183,-353.02734375,-391.6015625,-54.6875,-168.9453125,0.0
1734582874.0314183,-624.51171875,-583.984375,-239.2578125,-584.47265625,0.0
1734582874.0353186,-19.04296875,-272.94921875,93.75,-234.86328125,0.0
1734582874.039219,735.3515625,59.08203125,362.3046875,543.9453125,0.0
1734582874.0432177,439.453125,-242.67578125,35.64453125,576.66015625,0.0
1734582874.047118,-314.453125,-463.37890625,-249.0234375,-97.65625,0.0
1734582874.051018,-648.4375,-290.0390625,-151.85546875,-604.00390625,0.0
1734582874.0549183,-127.9296875,-83.49609375,142.08984375,-312.01171875,0.0
1734582874.0588186,673.828125,-71.2890625,230.95703125,463.37890625,0.0
1734582874.0627189,497.55859375,-277.34375,-89.35546875,584.9609375,0.0
1734582874.066619,-238.76953125,-390.625,-347.16796875,-3.90625,0.0
1734582874.0705192,-632.8125,-209.9609375,-208.984375,-543.45703125,0.0
1734582874.0744195,-201.66015625,-39.55078125,83.49609375,-356.93359375,0.0
1734582874.0783198,641.11328125,-32.2265625,220.21484375,439.453125,0.0
1734582874.0822198,582.03125,75.68359375,137.6953125,658.69140625,0.0
1734582874.0861201,-152.34375,-17.578125,45.41015625,82.51953125,0.0
1734582874.090115,-640.13671875,-231.4453125,-149.90234375,-491.69921875,0.0
1734582874.0940154,-309.08203125,-44.921875,-2.9296875,-426.26953125,0.0
1734582874.0979156,569.3359375,261.23046875,354.98046875,325.1953125,0.0
1734582874.101816,640.13671875,64.94140625,170.8984375,692.3828125,0.0
1734582874.105716,-73.73046875,-280.76171875,-179.6875,176.26953125,0.0
1734582874.1096163,-630.37109375,-414.55078125,-384.27734375,-442.87109375,0.0
1734582874.1135166,-404.78515625,-139.16015625,-85.9375,-456.54296875,0.0
1734582874.1174169,486.81640625,236.328125,368.65234375,236.328125,0.0
1734582874.121317,683.59375,-240.72265625,-95.703125,687.01171875,0.0
1734582874.1252172,-12.6953125,-558.59375,-494.62890625,248.046875,0.0
1734582874.1291175,-590.33203125,-177.734375,-190.4296875,-415.0390625,0.0
1734582874.1330178,-452.63671875,-121.09375,-7.32421875,-530.2734375,0.0
1734582874.1370058,0.0,-15.625,0.0,141.11328125,0.0
1734582874.140906,0.0,7.8125,0.0,687.98828125,0.0
1734582874.1448064,0.0,-242.67578125,0.0,293.9453125,0.0
1734582874.1487067,0.0,-508.30078125,0.0,-391.6015625,0.0
1734582874.1526067,0.0,-432.12890625,0.0,-578.61328125,0.0
1734582874.156507,0.0,-195.80078125,0.0,36.1328125,0.0
1734582874.1604073,0.0,-126.953125,0.0,684.5703125,0.0
1734582874.1643076,0.0,-352.5390625,0.0,391.6015625,0.0
1734582874.168208,0.0,-695.80078125,0.0,-291.015625,0.0
1734582874.172108,0.0,-364.2578125,0.0,-577.1484375,0.0
1734582874.1760082,0.0,63.96484375,0.0,-57.6171875,0.0
1734582874.1799085,0.0,-98.14453125,0.0,655.2734375,0.0
1734582874.1838996,284.66796875,-422.8515625,-197.265625,486.81640625,0.0
1734582874.1878,-446.77734375,-364.74609375,-250.0,-211.9140625,0.0
1734582874.1917002,-617.1875,-248.046875,-55.17578125,-592.7734375,0.0
1734582874.1956003,69.82421875,-151.85546875,168.45703125,-143.06640625,0.0
1734582874.1995006,750.48828125,-63.4765625,232.91015625,608.88671875,0.0
1734582874.2034009,363.76953125,-306.15234375,-96.19140625,524.90234375,0.0
1734582874.2073011,-386.71875,-456.54296875,-345.21484375,-159.1796875,0.0
1734582874.2112014,-645.99609375,-576.66015625,-448.73046875,-601.5625,0.0
1734582874.2151017,-65.4296875,-322.75390625,-152.34375,-271.484375,0.0
1734582874.2190018,670.8984375,179.6875,327.63671875,466.30859375,0.0
1734582874.222902,403.3203125,-106.93359375,46.875,485.83984375,0.0
1734582874.2268023,-322.75390625,-375.48828125,-295.41015625,-152.83203125,0.0
1734582874.230776,-673.33984375,-236.81640625,-230.95703125,-654.296875,0.0
1734582874.2346764,-168.9453125,53.7109375,163.0859375,-415.0390625,0.0
1734582874.2385767,666.9921875,80.56640625,270.5078125,397.4609375,0.0
1734582874.242477,512.6953125,-250.48828125,-136.23046875,574.21875,0.0
1734582874.2463772,-239.2578125,-407.71484375,-386.71875,-30.76171875,0.0
1734582874.2502775,-677.734375,-338.8671875,-375.0,-577.1484375,0.0
1734582874.2541776,-281.73828125,-141.11328125,-85.9375,-424.8046875,0.0
1734582874.2580779,560.546875,-109.375,86.42578125,346.6796875,0.0
1734582874.2619781,537.59765625,-41.9921875,-0.9765625,598.6328125,0.0
1734582874.2658784,-165.0390625,-15.625,-111.81640625,20.99609375,0.0
1734582874.2697787,-648.4375,-210.44921875,-394.04296875,-577.63671875,0.0
1734582874.273679,-329.58984375,-45.8984375,-122.55859375,-501.953125,0.0
1734582874.2776558,541.015625,255.859375,305.17578125,250.9765625,0.0
1734582874.281556,639.16015625,101.5625,130.37109375,609.86328125,0.0
1734582874.2854562,-63.4765625,-236.81640625,-193.359375,124.0234375,0.0
1734582874.2893565,-623.53515625,-255.859375,-339.84375,-501.46484375,0.0
1734582874.2932568,-408.69140625,-18.06640625,-92.28515625,-544.43359375,0.0
1734582874.297157,471.6796875,98.6328125,252.44140625,193.84765625,0.0
1734582874.3010573,704.58984375,-254.39453125,-148.92578125,725.5859375,0.0
1734582874.3049576,41.015625,-441.89453125,-518.5546875,306.15234375,0.0
1734582874.308858,-546.38671875,-88.8671875,-311.03515625,-388.18359375,0.0
1734582874.3127582,-435.05859375,24.90234375,-106.93359375,-522.4609375,0.0
1734582874.3166585,411.1328125,136.23046875,207.03125,146.97265625,0.0
1734582874.3205585,781.25,150.390625,195.3125,708.984375,0.0
1734582874.3245237,186.03515625,-21.97265625,-104.98046875,366.69921875,0.0
1734582874.328424,-454.58984375,-185.05859375,-385.25390625,-300.78125,0.0
1734582874.332324,-465.8203125,-117.1875,-243.65234375,-519.04296875,0.0
1734582874.3362243,322.75390625,96.6796875,125.9765625,75.68359375,0.0
1734582874.3401246,820.3125,150.87890625,152.34375,735.3515625,0.0
1734582874.344025,266.11328125,-79.1015625,-255.37109375,480.46875,0.0
1734582874.3479252,-449.21875,-384.27734375,-536.62109375,-203.61328125,0.0
1734582874.3518255,-540.0390625,-35.64453125,-264.16015625,-520.99609375,0.0
1734582874.3557258,222.65625,466.30859375,218.75,-14.6484375,0.0
1734582874.359626,828.61328125,281.25,147.4609375,709.9609375,0.0
1734582874.3635263,369.62890625,-42.96875,-296.38671875,559.08203125,0.0
1734582874.3674266,-363.28125,13.18359375,-347.16796875,-137.6953125,0.0
1734582874.371386,-556.640625,119.140625,-222.16796875,-527.34375,0.0
1734582874.3752863,130.37109375,229.4921875,19.04296875,-97.65625,0.0
1734582874.3791866,830.078125,336.9140625,187.98828125,652.34375,0.0
1734582874.383087,467.7734375,273.92578125,6.8359375,597.16796875,0.0
1734582874.3869872,-270.01953125,104.00390625,-297.36328125,-61.5234375,0.0
1734582874.3908875,-562.5,-122.0703125,-474.12109375,-486.328125,0.0
1734582874.3947878,0.48828125,126.46484375,-131.8359375,-163.57421875,0.0
1734582874.398688,778.3203125,552.24609375,289.55078125,594.7265625,0.0
1734582874.4025884,529.78515625,334.9609375,-8.30078125,662.109375,0.0
1734582874.4064887,-242.1875,-26.85546875,-387.6953125,8.30078125,0.0
1734582874.4103887,-627.9296875,76.171875,-359.375,-513.18359375,0.0
1734582874.414289,-124.0234375,481.4453125,22.4609375,-283.203125,0.0
1734582874.418296,701.171875,508.7890625,220.21484375,0.0,0.0
1734582874.4221964,554.19921875,234.86328125,-135.7421875,0.0,0.0
1734582874.4260967,-184.5703125,168.9453125,-355.46875,0.0,0.0
1734582874.429997,-627.44140625,136.71875,-384.27734375,0.0,0.0
1734582874.4338973,-250.0,241.69921875,-185.05859375,0.0,0.0
1734582874.4377975,612.3046875,417.96875,136.71875,0.0,0.0
1734582874.4416978,611.328125,342.7734375,-75.1953125,0.0,0.0
1734582874.4455981,-108.3984375,326.66015625,-304.6875,0.0,0.0
1734582874.4494984,-617.1875,223.14453125,-432.6171875,0.0,0.0
1734582874.4533987,-342.7734375,218.75,-341.796875,0.0,0.0
1734582874.457299,531.25,653.80859375,190.91796875,0.0,0.0
1734582874.4611993,649.4140625,631.34765625,122.0703125,0.0,0.0
1734582874.4650726,-47.36328125,227.05078125,-309.5703125,500.48828125,0.0
1734582874.468973,-604.4921875,176.26953125,-423.33984375,663.0859375,0.0
1734582874.4728732,-420.41015625,477.05078125,-79.58984375,60.05859375,0.0
1734582874.4767735,449.21875,663.0859375,273.92578125,-498.046875,0.0
1734582874.4806738,684.08203125,428.7109375,-7.8125,-355.95703125,0.0
1734582874.484574,3.41796875,99.609375,-430.17578125,439.94140625,0.0
1734582874.4884741,-614.2578125,132.32421875,-431.640625,723.14453125,0.0
1734582874.4923744,-523.4375,416.9921875,-118.65234375,141.6015625,0.0
1734582874.4962747,309.08203125,306.15234375,-32.71484375,-469.23828125,0.0
1734582874.500175,688.4765625,203.61328125,-110.83984375,-429.6875,0.0
1734582874.5040753,102.05078125,394.53125,-73.2421875,295.41015625,0.0
1734582874.5079756,-563.4765625,198.2421875,-354.4921875,661.62109375,0.0
1734582874.5119622,-583.49609375,183.59375,0.0,-606.4453125,0.0
1734582874.5158625,203.61328125,476.5625,0.0,-35.15625,0.0
1734582874.5197628,705.56640625,509.27734375,0.0,605.46875,0.0
1734582874.523663,195.80078125,134.765625,0.0,378.90625,0.0
1734582874.5275633,-479.4921875,-80.56640625,0.0,-272.94921875,0.0
1734582874.5314636,-605.95703125,24.90234375,0.0,-588.37890625,0.0
1734582874.535364,99.12109375,355.46875,0.0,-94.7265625,0.0
1734582874.5392642,722.16796875,375.9765625,0.0,621.09375,0.0
1734582874.5431645,279.296875,-113.76953125,0.0,472.65625,0.0
1734582874.5470648,-444.3359375,-20.99609375,0.0,-215.33203125,0.0
1734582874.550965,-644.04296875,228.02734375,0.0,-609.375,0.0
1734582874.5548654,-8.30078125,246.58203125,0.0,-213.37890625,0.0
1734582874.5588472,694.3359375,295.41015625,192.3828125,529.78515625,0.0
1734582874.5627475,354.98046875,212.40234375,-1.46484375,492.1875,0.0
1734582874.5666478,-377.44140625,27.83203125,-283.69140625,-168.9453125,0.0
1734582874.570548,-672.36328125,-75.1953125,-328.125,-635.7421875,0.0
1734582874.5744483,-109.86328125,113.28125,10.25390625,-317.87109375,0.0
1734582874.5783486,694.82421875,243.65234375,227.5390625,504.39453125,0.0
1734582874.582249,472.65625,78.125,-52.24609375,606.4453125,0.0
1734582874.5861492,-289.0625,-307.6171875,-520.01953125,-41.015625,0.0
1734582874.5900495,-691.40625,-284.1796875,-518.5546875,-586.9140625,0.0
1734582874.5939498,-177.24609375,285.64453125,41.015625,-325.68359375,0.0
1734582874.59785,688.4765625,337.890625,232.421875,500.0,0.0
1734582874.6017504,527.83203125,70.3125,-91.796875,634.27734375,0.0
1734582874.6057208,-199.21875,-31.73828125,-319.3359375,48.828125,0.0
1734582874.609621,-629.8828125,8.7890625,-292.48046875,-519.04296875,0.0
1734582874.6135216,-259.765625,117.67578125,-55.6640625,-413.57421875,0.0
1734582874.6174219,591.796875,158.69140625,179.6875,374.0234375,0.0
1734582874.6213222,614.74609375,48.33984375,-1.953125,692.3828125,0.0
1734582874.6252224,-91.30859375,-132.32421875,-317.87109375,148.92578125,0.0
1734582874.6291227,-605.46875,-206.54296875,-449.21875,-467.7734375,0.0
1734582874.633023,-344.7265625,-145.99609375,-352.5390625,-457.03125,0.0
1734582874.6369233,525.390625,272.4609375,141.11328125,273.4375,0.0
1734582874.6408236,689.94140625,363.76953125,195.3125,680.17578125,0.0
1734582874.644724,5.859375,-83.49609375,-293.9453125,221.6796875,0.0
1734582874.6486242,-567.87109375,-192.3828125,-461.9140625,-415.52734375,0.0
1734582874.652621,0.0,137.6953125,0.0,0.0,0.0
1734582874.6565213,0.0,313.4765625,0.0,0.0,0.0
1734582874.6604216,0.0,36.1328125,0.0,0.0,0.0
1734582874.664322,0.0,-136.71875,0.0,0.0,0.0
1734582874.6682222,0.0,-111.328125,0.0,0.0,0.0
1734582874.6721225,0.0,-92.7734375,0.0,0.0,0.0
1734582874.676023,0.0,-130.37109375,0.0,0.0,0.0
1734582874.6799233,0.0,-126.953125,0.0,0.0,0.0
1734582874.6838236,0.0,21.484375,0.0,0.0,0.0
1734582874.6877239,0.0,-125.9765625,0.0,0.0,0.0
1734582874.6916242,0.0,-123.046875,0.0,0.0,0.0
1734582874.6955245,0.0,187.01171875,0.0,0.0,0.0
1734582874.699485,819.3359375,269.53125,270.01953125,762.6953125,0.0
1734582874.7033854,314.94140625,-45.8984375,-119.62890625,534.66796875,0.0
1734582874.707286,-384.765625,-271.97265625,-395.01953125,-154.78515625,0.0
1734582874.7111862,-522.4609375,-181.640625,-340.33203125,-468.26171875,0.0
1734582874.7150865,180.6640625,103.515625,32.2265625,24.90234375,0.0
1734582874.7189867,824.21875,135.25390625,162.109375,764.6484375,0.0
1734582874.722887,394.53125,-323.73046875,-332.03125,658.69140625,0.0
1734582874.7267873,-357.91015625,-267.08984375,-427.734375,-44.921875,0.0
1734582874.7306876,-576.171875,96.19140625,-187.5,-491.2109375,0.0
1734582874.734588,52.24609375,120.60546875,43.9453125,-100.09765625,0.0
1734582874.7384882,761.71875,171.38671875,214.35546875,666.9921875,0.0
1734582874.7423887,445.80078125,117.67578125,13.18359375,638.18359375,0.0
1734582874.7463496,-286.62109375,-63.4765625,-279.296875,-26.3671875,0.0
1734582874.7502499,-589.35546875,-156.25,-317.3828125,-486.328125,0.0
1734582874.7541502,-42.96875,67.3828125,14.6484375,-172.36328125,0.0
1734582874.7580504,752.44140625,328.125,292.96875,630.859375,0.0
1734582874.7619507,552.734375,123.53515625,66.40625,743.65234375,0.0
1734582874.765851,-192.87109375,-286.62109375,-340.33203125,123.046875,0.0
1734582874.7697513,-598.6328125,-261.23046875,-395.5078125,-412.59765625,0.0
1734582874.7736518,-154.78515625,169.921875,42.96875,-236.328125,0.0
1734582874.7775521,681.15234375,270.5078125,290.52734375,550.29296875,0.0
1734582874.7814524,579.58984375,-188.4765625,-157.2265625,774.4140625,0.0
1734582874.7853527,-156.25,-301.7578125,-427.734375,175.78125,0.0
