timestamps,TP9,AF7,AF8,TP10,Right AUX
1734580939.543605,-48.33984375,-648.4375,-233.88671875,-44.921875,0.0
1734580939.547511,-29.78515625,-229.98046875,88.8671875,-29.296875,0.0
1734580939.5514174,-38.57421875,141.6015625,122.55859375,-24.90234375,0.0
1734580939.5553234,-53.22265625,-65.91796875,-8.30078125,-29.78515625,0.0
1734580939.5592294,-58.10546875,-428.7109375,-77.1484375,-55.6640625,0.0
1734580939.5631354,-46.38671875,-254.8828125,24.4140625,-50.29296875,0.0
1734580939.5670416,-33.203125,188.96484375,139.16015625,-22.4609375,0.0
1734580939.5709476,-30.2734375,-411.1328125,-213.8671875,-13.18359375,0.0
1734580939.5748537,-38.0859375,-701.171875,-272.4609375,-19.04296875,0.0
1734580939.5787597,-46.875,-90.8203125,75.1953125,-35.64453125,0.0
1734580939.582666,-37.59765625,-285.64453125,-29.296875,-40.0390625,0.0
1734580939.586587,-23.4375,-275.87890625,20.01953125,-41.50390625,0.0
1734580939.590493,-1.953125,80.56640625,104.4921875,-37.109375,0.0
1734580939.594399,-7.32421875,322.265625,126.46484375,-29.78515625,0.0
1734580939.5983052,-15.13671875,140.13671875,11.71875,-45.8984375,0.0
1734580939.6022112,-4.39453125,-264.16015625,-104.00390625,-30.2734375,0.0
1734580939.6061172,-5.37109375,-305.17578125,-28.80859375,-16.6015625,0.0
1734580939.6100233,-12.20703125,-235.3515625,17.578125,-27.34375,0.0
1734580939.6139295,-20.99609375,-280.76171875,-32.71484375,-36.1328125,0.0
1734580939.6178355,-25.390625,-728.02734375,-254.8828125,-56.15234375,0.0
1734580939.6217415,-18.5546875,-323.2421875,-27.34375,-49.31640625,0.0
1734580939.6256475,-20.01953125,376.953125,181.640625,-36.62109375,0.0
1734580939.6295538,-6.34765625,22.94921875,-21.484375,-21.484375,0.0
1734580939.6334462,-10.25390625,-106.93359375,-28.80859375,-30.76171875,0.0
1734580939.6373522,-43.45703125,209.47265625,105.95703125,-52.24609375,0.0
1734580939.6412582,-33.203125,281.73828125,110.83984375,-50.29296875,0.0
1734580939.6451645,-17.08984375,8.7890625,-10.25390625,-46.875,0.0
1734580939.6490705,-16.6015625,-58.10546875,-27.34375,-23.92578125,0.0
1734580939.6529765,-19.04296875,-40.0390625,-5.37109375,-27.83203125,0.0
1734580939.6568825,-32.2265625,-194.3359375,-83.984375,-64.94140625,0.0
1734580939.6607888,-48.33984375,-637.20703125,-358.88671875,-87.40234375,0.0
1734580939.6646948,-53.22265625,-668.45703125,-299.8046875,-76.66015625,0.0
1734580939.6686008,-45.8984375,121.58203125,78.61328125,-63.96484375,0.0
1734580939.6725068,-55.17578125,-76.66015625,-132.32421875,-89.35546875,0.0
1734580939.676413,-82.03125,-263.18359375,-203.125,-121.09375,0.0
1734580939.6802778,-91.796875,96.19140625,5.37109375,-133.30078125,0.0
1734580939.684184,-107.91015625,339.84375,90.33203125,-140.625,0.0
1734580939.68809,-112.3046875,172.8515625,-49.8046875,-129.39453125,0.0
1734580939.691996,-113.28125,-54.19921875,-101.5625,-130.37109375,0.0
1734580939.695902,-140.625,48.33984375,-26.3671875,-160.15625,0.0
1734580939.6998084,-145.01953125,-102.5390625,-185.05859375,-166.015625,0.0
1734580939.7037144,-145.99609375,-324.70703125,-334.9609375,-163.57421875,0.0
1734580939.7076204,-154.296875,-657.71484375,-371.09375,-146.97265625,0.0
1734580939.7115264,-153.3203125,-227.5390625,-81.54296875,-141.6015625,0.0
1734580939.7154326,-153.80859375,289.55078125,63.96484375,-167.96875,0.0
1734580939.7193387,-155.76171875,-190.4296875,-219.23828125,-174.8046875,0.0
1734580939.7232447,-163.0859375,-266.11328125,-236.81640625,-163.0859375,0.0
1734580939.7270913,-150.87890625,234.86328125,59.5703125,-159.1796875,0.0
1734580939.7309973,-141.6015625,353.515625,60.546875,-159.66796875,0.0
1734580939.7349033,-150.87890625,-33.203125,-109.86328125,-162.109375,0.0
1734580939.7388093,-139.6484375,-59.5703125,-76.66015625,-158.69140625,0.0
1734580939.7427156,-97.16796875,219.7265625,-9.27734375,-137.20703125,0.0
1734580939.7466216,-95.21484375,-106.93359375,-197.75390625,-125.48828125,0.0
1734580939.7505276,-92.7734375,-699.70703125,-463.37890625,-81.0546875,0.0
1734580939.7544336,-65.4296875,-696.77734375,-414.55078125,-51.7578125,0.0
1734580939.75834,-61.03515625,110.83984375,28.80859375,-78.61328125,0.0
1734580939.762246,-38.57421875,273.92578125,18.5546875,-72.75390625,0.0
1734580939.766152,-14.6484375,-198.73046875,-248.046875,-31.25,0.0
1734580939.770058,-3.41796875,-113.76953125,-145.01953125,2.44140625,0.0
1734580939.7738988,7.8125,190.91796875,6.8359375,8.30078125,0.0
1734580939.777805,18.06640625,-121.58203125,-216.796875,-3.90625,0.0
1734580939.781711,26.85546875,-152.83203125,-198.2421875,-3.41796875,0.0
1734580939.785617,35.64453125,198.73046875,22.4609375,16.6015625,0.0
1734580939.7895231,39.55078125,258.30078125,-8.7890625,34.66796875,0.0
1734580939.7934294,24.90234375,-205.078125,-279.296875,29.296875,0.0
1734580939.7973354,28.3203125,-682.6171875,-363.28125,14.6484375,0.0
1734580939.8012414,39.55078125,-172.36328125,-52.24609375,11.23046875,0.0
1734580939.8051474,54.19921875,478.02734375,115.234375,23.92578125,0.0
1734580939.8090537,50.78125,95.21484375,-117.67578125,50.29296875,0.0
1734580939.8129597,33.69140625,-142.578125,-198.73046875,42.96875,0.0
1734580939.8168657,37.109375,281.73828125,46.38671875,12.6953125,0.0
1734580939.8206408,51.7578125,457.03125,76.171875,20.99609375,0.0
1734580939.824547,51.26953125,97.65625,-123.53515625,42.96875,0.0
1734580939.828453,32.71484375,-55.17578125,-187.01171875,53.22265625,0.0
1734580939.832359,20.5078125,-27.34375,-184.08203125,54.19921875,0.0
1734580939.836265,23.92578125,-34.1796875,-220.703125,19.53125,0.0
1734580939.8401713,29.78515625,-477.5390625,-417.96875,11.71875,0.0
1734580939.8440773,36.1328125,-639.6484375,-356.4453125,35.64453125,0.0
1734580939.8479834,44.921875,180.17578125,29.296875,39.0625,0.0
1734580939.8518894,36.62109375,231.4453125,-61.03515625,33.203125,0.0
1734580939.8557956,35.15625,-36.62109375,-199.70703125,23.92578125,0.0
1734580939.8597016,20.01953125,-144.04296875,-244.62890625,0.9765625,0.0
1734580939.8636076,15.13671875,180.17578125,-67.87109375,21.97265625,0.0
1734580939.8676112,14.16015625,300.29296875,-14.6484375,52.24609375,0.0
1734580939.8715172,11.23046875,31.25,-201.66015625,46.875,0.0
1734580939.8754232,26.3671875,265.13671875,-57.6171875,28.3203125,0.0
1734580939.8793292,24.4140625,558.10546875,83.984375,-4.8828125,0.0
1734580939.8832355,14.6484375,342.28515625,-73.73046875,1.953125,0.0
1734580939.8871415,8.30078125,-202.63671875,-264.6484375,22.4609375,0.0
1734580939.8910475,8.7890625,-262.6953125,-302.24609375,12.6953125,0.0
1734580939.8949535,-8.30078125,213.37890625,-104.98046875,12.20703125,0.0
1734580939.8988597,-17.578125,278.3203125,-55.6640625,20.99609375,0.0
1734580939.9027658,-18.06640625,-205.56640625,-271.97265625,33.203125,0.0
1734580939.9066718,-9.765625,157.2265625,-79.1015625,21.484375,0.0
1734580939.9105778,-15.625,533.203125,41.50390625,23.4375,0.0
1734580939.9145308,-25.390625,205.078125,-165.52734375,9.27734375,0.0
1734580939.9184368,-22.4609375,135.25390625,-186.03515625,-35.15625,0.0
1734580939.9223428,-22.4609375,500.0,36.1328125,-33.203125,0.0
1734580939.9262488,-20.5078125,479.4921875,-15.13671875,-19.53125,0.0
1734580939.930155,-28.3203125,62.01171875,-241.69921875,4.39453125,0.0
1734580939.934061,-46.875,-246.58203125,-349.12109375,-13.18359375,0.0
1734580939.937967,-47.8515625,-110.3515625,-260.25390625,-76.171875,0.0
1734580939.941873,-31.25,388.671875,-51.7578125,-68.359375,0.0
1734580939.9457793,-32.71484375,-237.3046875,-367.67578125,-33.203125,0.0
1734580939.9496853,-39.55078125,-682.12890625,-512.6953125,-32.2265625,0.0
1734580939.9535913,-41.50390625,32.2265625,-236.328125,-35.64453125,0.0
1734580939.9574974,-59.08203125,-13.671875,-290.0390625,-30.2734375,0.0
1734580939.9614139,-59.08203125,43.9453125,-253.90625,-37.109375,0.0
1734580939.96532,-42.48046875,297.36328125,-196.2890625,-32.2265625,0.0
1734580939.9692261,-34.66796875,461.42578125,-174.8046875,-1.953125,0.0
1734580939.9731321,-39.55078125,298.33984375,-245.1171875,-6.34765625,0.0
1734580939.9770381,-46.875,93.75,-299.31640625,-48.828125,0.0
1734580939.9809444,-38.57421875,-28.80859375,-315.91796875,-58.10546875,0.0
1734580939.9848504,-38.0859375,59.5703125,-250.0,-24.90234375,0.0
1734580939.9887564,-44.43359375,162.109375,-312.01171875,0.48828125,0.0
1734580939.9926624,-48.33984375,-541.9921875,-485.83984375,-8.7890625,0.0
1734580939.9965687,-43.9453125,-169.43359375,-174.8046875,-26.3671875,0.0
1734580940.0004747,-31.73828125,554.6875,-1.46484375,-41.50390625,0.0
1734580940.0043807,-29.78515625,30.2734375,-291.50390625,-29.78515625,0.0
1734580940.0082772,-27.34375,-244.62890625,-409.1796875,-6.8359375,0.0
1734580940.0121832,-17.08984375,225.5859375,-233.3984375,5.37109375,0.0
1734580940.0160892,-19.04296875,449.21875,-117.67578125,-2.9296875,0.0
1734580940.0199955,-15.13671875,103.02734375,-161.62109375,-27.34375,0.0
1734580940.0239015,-15.625,-30.76171875,-274.90234375,-23.92578125,0.0
1734580940.0278075,-22.4609375,-41.015625,-337.890625,-2.9296875,0.0
1734580940.0317135,-16.11328125,-152.34375,-319.82421875,-0.9765625,0.0
1734580940.0356197,-18.06640625,-559.5703125,-465.8203125,-12.6953125,0.0
1734580940.0395257,-38.57421875,-628.90625,-429.6875,-17.08984375,0.0
1734580940.0434318,-45.41015625,283.69140625,-21.484375,-10.25390625,0.0
1734580940.0473378,-36.1328125,111.328125,-195.3125,-17.08984375,0.0
1734580940.051244,-36.62109375,-211.42578125,-346.19140625,-27.34375,0.0
1734580940.0551121,-39.0625,146.97265625,-155.2734375,-25.87890625,0.0
1734580940.0590181,-40.52734375,385.7421875,-27.34375,-38.0859375,0.0
1734580940.0629241,-31.73828125,133.7890625,-163.0859375,-40.0390625,0.0
1734580940.0668302,-19.53125,-93.26171875,-307.12890625,-19.53125,0.0
1734580940.0707364,-23.4375,66.40625,-300.78125,-16.11328125,0.0
1734580940.0746424,-32.2265625,-31.25,-305.17578125,-22.4609375,0.0
1734580940.0785484,-23.4375,-147.94921875,-321.2890625,-30.76171875,0.0
1734580940.0824544,-15.13671875,-551.26953125,-410.64453125,-37.109375,0.0
1734580940.0863607,-13.671875,-178.22265625,-150.390625,-40.0390625,0.0
1734580940.0902667,-21.97265625,416.9921875,-2.9296875,-27.34375,0.0
1734580940.0941727,-21.484375,61.03515625,-250.9765625,-20.01953125,0.0
1734580940.0980787,-6.8359375,-77.1484375,-307.12890625,-33.69140625,0.0
1734580940.1019118,0.0,282.71484375,-62.5,-27.34375,0.0
1734580940.105818,0.0,381.34765625,-83.0078125,-16.11328125,0.0
1734580940.109724,0.0,-55.6640625,-263.18359375,-13.18359375,0.0
1734580940.11363,0.0,-133.30078125,-261.23046875,-15.13671875,0.0
1734580940.117536,0.0,152.83203125,-226.5625,-23.4375,0.0
1734580940.1214423,0.0,41.50390625,-264.16015625,-28.80859375,0.0
1734580940.1253483,0.0,-536.1328125,-467.28515625,-23.92578125,0.0
1734580940.1292543,0.0,-700.68359375,-515.625,-14.16015625,0.0
1734580940.1331604,0.0,93.75,-197.265625,-13.18359375,0.0
1734580940.1370666,0.0,271.97265625,-159.66796875,-27.34375,0.0
1734580940.1409726,0.0,-125.48828125,-272.4609375,-37.59765625,0.0
1734580940.1448786,0.0,-170.8984375,-242.1875,-41.9921875,0.0
1734580940.1486845,-7.32421875,211.9140625,-167.96875,-38.0859375,0.0
1734580940.1525905,-23.4375,119.62890625,-278.80859375,-29.78515625,0.0
1734580940.1564965,-25.87890625,-131.34765625,-272.4609375,-30.76171875,0.0
1734580940.1604028,-16.11328125,123.046875,-77.63671875,-22.4609375,0.0
1734580940.1643088,-17.578125,294.921875,-18.5546875,-11.23046875,0.0
1734580940.1682148,-18.5546875,-196.77734375,-312.98828125,-11.23046875,0.0
1734580940.1721208,-29.78515625,-714.84375,-459.9609375,-19.53125,0.0
1734580940.176027,-39.0625,-445.80078125,-290.0390625,-46.875,0.0
1734580940.179933,-30.2734375,-44.43359375,-219.23828125,-57.6171875,0.0
1734580940.183839,-13.18359375,-166.9921875,-304.6875,-21.484375,0.0
1734580940.187745,-16.6015625,-303.7109375,-365.234375,-6.8359375,0.0
1734580940.1916513,-28.3203125,-49.31640625,-250.0,-12.20703125,0.0
1734580940.195432,-33.203125,102.5390625,-176.7578125,-67.3828125,0.0
1734580940.1993382,-34.66796875,-112.3046875,-197.265625,-91.30859375,0.0
1734580940.2032442,-13.671875,-179.19921875,-187.98828125,-62.5,0.0
1734580940.2071502,-29.296875,145.99609375,-11.23046875,-42.48046875,0.0
1734580940.2110562,-34.66796875,116.69921875,-50.78125,-33.203125,0.0
1734580940.2149625,-21.484375,-535.15625,-361.81640625,-41.9921875,0.0
1734580940.2188685,-31.73828125,-568.359375,-263.671875,-21.484375,0.0
1734580940.2227745,-39.55078125,130.37109375,63.96484375,-50.29296875,0.0
1734580940.2266805,-55.6640625,182.12890625,-8.7890625,-75.68359375,0.0
1734580940.2305868,-40.52734375,-393.06640625,-214.35546875,-33.69140625,0.0
1734580940.2344928,-34.66796875,-540.52734375,-173.33984375,-23.4375,0.0
1734580940.2383988,-27.34375,-132.32421875,1.953125,-45.41015625,0.0
1734580940.2423804,-30.2734375,-152.83203125,-37.59765625,-39.0625,0.0
1734580940.2462864,-57.12890625,-101.07421875,-9.27734375,-44.43359375,0.0
1734580940.2501924,-61.03515625,83.49609375,47.36328125,-35.15625,0.0
1734580940.2540987,-63.96484375,281.25,81.54296875,2.9296875,0.0
1734580940.2580047,-50.29296875,312.01171875,73.73046875,-45.41015625,0.0
1734580940.2619107,-38.57421875,-147.94921875,-66.89453125,-94.23828125,0.0
1734580940.2658167,-38.0859375,-73.2421875,-3.90625,-48.33984375,0.0
1734580940.269723,-55.6640625,354.00390625,118.1640625,-26.3671875,0.0
1734580940.273629,-70.80078125,100.09765625,-3.41796875,-24.90234375,0.0
1734580940.277535,-77.63671875,-77.1484375,-39.55078125,-57.6171875,0.0
1734580940.281441,-81.0546875,337.40234375,105.95703125,-90.8203125,0.0
1734580940.2853472,-73.73046875,559.08203125,158.203125,-56.15234375,0.0
1734580940.2892919,-78.61328125,-46.875,-183.10546875,-30.76171875,0.0
1734580940.2931979,-81.54296875,-682.12890625,-399.4140625,-43.45703125,0.0
1734580940.2971041,-53.7109375,86.9140625,56.15234375,-39.55078125,0.0
1734580940.3010101,-56.640625,592.28515625,161.62109375,-25.390625,0.0
1734580940.3049161,-75.68359375,141.11328125,-80.56640625,-40.0390625,0.0
1734580940.3088222,-66.40625,-316.89453125,-285.15625,-60.546875,0.0
1734580940.3127284,-75.68359375,-94.7265625,-130.37109375,-62.98828125,0.0
1734580940.3166344,-72.265625,505.37109375,143.06640625,-59.5703125,0.0
1734580940.3205404,-52.24609375,-149.90234375,-194.82421875,-30.76171875,0.0
1734580940.3244464,-51.26953125,-547.36328125,-271.97265625,-35.64453125,0.0
1734580940.3283527,-71.77734375,85.9375,-20.99609375,-61.5234375,0.0
1734580940.3322587,-66.40625,-100.5859375,-240.72265625,-29.296875,0.0
1734580940.3361745,-35.15625,24.4140625,-89.35546875,-26.85546875,0.0
1734580940.3400807,-39.55078125,406.25,92.7734375,-42.48046875,0.0
1734580940.3439867,-46.38671875,540.52734375,85.44921875,-38.57421875,0.0
1734580940.3478928,-43.45703125,261.71875,-41.50390625,-36.62109375,0.0
1734580940.3517988,-40.52734375,-73.73046875,-186.03515625,-45.8984375,0.0
1734580940.355705,-67.3828125,-56.15234375,-197.75390625,-40.52734375,0.0
1734580940.359611,-89.84375,84.9609375,-59.08203125,-56.15234375,0.0
1734580940.363517,-83.49609375,20.01953125,-75.68359375,-70.3125,0.0
1734580940.367423,-78.125,-550.78125,-325.68359375,-37.59765625,0.0
1734580940.3713293,-71.77734375,-183.10546875,-90.8203125,-22.94921875,0.0
1734580940.3752353,-77.63671875,542.96875,130.859375,-57.6171875,0.0
1734580940.3791413,-64.94140625,250.0,-58.59375,-69.82421875,0.0
1734580940.3830366,-65.91796875,104.4921875,-105.46875,-74.21875,0.0
1734580940.3869426,-73.73046875,352.5390625,35.15625,-61.03515625,0.0
1734580940.3908489,-78.61328125,344.7265625,0.9765625,-27.34375,0.0
1734580940.394755,-81.54296875,73.73046875,-117.67578125,-51.7578125,0.0
1734580940.398661,-59.5703125,90.8203125,-80.078125,-65.4296875,0.0
1734580940.402567,-53.22265625,93.26171875,-115.72265625,-60.546875,0.0
1734580940.4064732,-55.6640625,-119.140625,-272.94921875,-66.89453125,0.0
1734580940.4103792,-74.21875,-606.4453125,-463.8671875,-41.015625,0.0
1734580940.4142852,-77.1484375,-628.41796875,-339.35546875,-37.109375,0.0
1734580940.4181912,-62.5,343.75,127.44140625,-60.546875,0.0
1734580940.4220974,-68.359375,200.1953125,-78.61328125,-76.66015625,0.0
1734580940.4260035,-75.1953125,-211.9140625,-300.29296875,-57.6171875,0.0
1734580940.4298706,-66.40625,73.73046875,-150.87890625,-37.59765625,0.0
1734580940.4337769,-50.29296875,335.44921875,0.48828125,-44.921875,0.0
1734580940.4376829,-41.015625,297.36328125,-1.46484375,-41.015625,0.0
1734580940.4415889,-49.31640625,102.05078125,-43.45703125,-53.22265625,0.0
1734580940.445495,-53.22265625,197.75390625,13.18359375,-42.96875,0.0
1734580940.449401,-55.17578125,13.671875,-185.05859375,-48.828125,0.0
1734580940.4533072,-61.5234375,-230.95703125,-335.44921875,-43.45703125,0.0
1734580940.4572132,-56.15234375,-509.765625,-308.10546875,-25.87890625,0.0
1734580940.4611192,-33.203125,-122.0703125,-47.8515625,-43.45703125,0.0
1734580940.4650252,-24.90234375,253.41796875,10.25390625,-48.33984375,0.0
1734580940.4689314,-44.921875,-227.05078125,-326.171875,-53.7109375,0.0
1734580940.4728374,-33.69140625,-79.1015625,-231.4453125,-34.1796875,0.0
1734580940.4766688,-14.6484375,416.015625,75.1953125,-39.55078125,0.0
1734580940.4805748,-54.6875,409.66796875,22.4609375,-46.38671875,0.0
1734580940.4844809,-65.91796875,-29.296875,-152.34375,-37.59765625,0.0
1734580940.4883869,-63.4765625,-52.734375,-121.58203125,-48.33984375,0.0
1734580940.4922931,-36.62109375,204.58984375,-42.48046875,-31.73828125,0.0
1734580940.4961991,-14.16015625,52.24609375,-143.5546875,-40.52734375,0.0
1734580940.5001051,-68.84765625,-541.015625,-385.7421875,-93.75,0.0
1734580940.5040112,-105.95703125,-635.25390625,-331.54296875,-101.07421875,0.0
1734580940.5079174,-95.703125,159.66796875,53.7109375,-50.78125,0.0
1734580940.5118234,-53.22265625,259.27734375,0.48828125,-29.78515625,0.0
1734580940.5157294,-41.015625,-135.25390625,-171.875,-84.47265625,0.0
1734580940.5196354,-79.1015625,-63.4765625,-63.4765625,-106.93359375,0.0
1734580940.5234401,-103.515625,77.1484375,-23.92578125,-77.63671875,0.0
1734580940.5273464,-117.67578125,-79.1015625,-150.390625,-68.84765625,0.0
1734580940.5312524,-108.3984375,-142.578125,-125.0,-61.5234375,0.0
1734580940.5351584,-81.54296875,138.671875,39.0625,-66.40625,0.0
1734580940.5390644,-53.7109375,328.61328125,98.6328125,-85.44921875,0.0
1734580940.5429707,-29.78515625,-120.60546875,-156.25,-73.2421875,0.0
1734580940.5468767,-38.57421875,-682.6171875,-350.5859375,-79.1015625,0.0
1734580940.5507827,-46.38671875,-347.65625,-74.70703125,-37.109375,0.0
1734580940.5546887,-30.2734375,330.078125,143.06640625,-8.30078125,0.0
1734580940.558595,-31.25,243.65234375,85.9375,-39.55078125,0.0
1734580940.562501,-31.73828125,-28.3203125,13.671875,-26.3671875,0.0
1734580940.566407,-30.2734375,131.34765625,78.61328125,-20.01953125,0.0
1734580940.570195,-38.57421875,264.16015625,77.1484375,-30.2734375,0.0
1734580940.574101,-26.85546875,-43.45703125,-40.52734375,-32.71484375,0.0
1734580940.578007,-4.8828125,-252.44140625,-71.2890625,-39.55078125,0.0
1734580940.5819132,-3.90625,-123.046875,6.8359375,-35.15625,0.0
1734580940.5858192,-5.859375,40.0390625,64.453125,-26.85546875,0.0
1734580940.5897253,-23.4375,-555.17578125,-320.80078125,-36.1328125,0.0
1734580940.5936313,-24.90234375,-751.46484375,-307.12890625,-37.109375,0.0
1734580940.5975373,1.46484375,34.1796875,141.6015625,-42.96875,0.0
1734580940.6014435,-2.9296875,229.4921875,116.69921875,-54.19921875,0.0
1734580940.6053495,-21.97265625,-265.625,-101.5625,-29.296875,0.0
1734580940.6092556,-15.625,-615.72265625,-240.234375,-15.13671875,0.0
1734580940.6131616,-9.765625,-229.00390625,-19.53125,-34.66796875,0.0
1734580940.6171393,2.44140625,123.046875,115.234375,-46.875,0.0
1734580940.6210456,13.671875,-17.08984375,56.640625,-35.64453125,0.0
1734580940.6249516,-2.9296875,15.13671875,99.609375,-19.53125,0.0
1734580940.6288576,-30.2734375,139.6484375,99.12109375,-29.78515625,0.0
1734580940.6327636,-35.15625,-47.8515625,15.13671875,-29.78515625,0.0
1734580940.6366699,-14.6484375,-406.25,-45.8984375,-36.1328125,0.0
1734580940.640576,-3.41796875,-433.10546875,0.9765625,-45.41015625,0.0
1734580940.644482,-12.20703125,-254.39453125,81.54296875,-37.109375,0.0
1734580940.648388,-22.4609375,-261.71875,16.11328125,-16.11328125,0.0
1734580940.6522942,-31.25,-604.4921875,-153.3203125,-22.94921875,0.0
1734580940.6562002,-21.97265625,-156.73828125,88.8671875,-65.4296875,0.0
1734580940.6601062,-9.765625,361.81640625,219.23828125,-53.22265625,0.0
1734580940.664063,-35.64453125,-23.92578125,44.921875,-27.34375,0.0
1734580940.6679692,-52.734375,-160.64453125,34.1796875,-22.94921875,0.0
1734580940.6718752,-20.99609375,120.60546875,155.2734375,-14.16015625,0.0
1734580940.6757812,0.9765625,220.21484375,178.22265625,-30.2734375,0.0
1734580940.6796873,-10.7421875,-66.40625,43.45703125,-55.6640625,0.0
1734580940.6835935,-11.23046875,-492.1875,-56.640625,-37.59765625,0.0
1734580940.6874995,-3.41796875,-259.27734375,45.8984375,0.0,0.0
1734580940.6914055,11.71875,110.3515625,166.015625,20.5078125,0.0
1734580940.6953115,-1.46484375,-511.23046875,-139.16015625,-11.71875,0.0
1734580940.6992178,-17.578125,-632.32421875,-173.33984375,-48.828125,0.0
1734580940.7031238,-15.13671875,-10.7421875,159.1796875,-48.828125,0.0
1734580940.7070298,-25.87890625,-159.66796875,68.359375,-40.0390625,0.0
1734580940.7109494,-0.48828125,-123.53515625,129.39453125,-27.34375,0.0
1734580940.7148554,8.7890625,248.046875,225.5859375,-22.4609375,0.0
1734580940.7187617,-31.73828125,556.15234375,235.3515625,-18.5546875,0.0
1734580940.7226677,-67.87109375,336.9140625,141.6015625,-21.484375,0.0
1734580940.7265737,-61.03515625,-59.5703125,49.31640625,-25.390625,0.0
1734580940.7304797,-40.52734375,-319.82421875,25.390625,-20.01953125,0.0
1734580940.7343857,-28.3203125,-78.125,122.55859375,-20.5078125,0.0
1734580940.738292,-23.92578125,148.4375,137.20703125,-27.83203125,0.0
1734580940.742198,-29.78515625,-543.9453125,-120.1171875,-30.76171875,0.0
1734580940.746104,-23.4375,-236.328125,74.21875,-33.69140625,0.0
1734580940.75001,-8.30078125,311.03515625,211.9140625,-13.671875,0.0
1734580940.7539163,-4.39453125,-118.1640625,55.6640625,5.37109375,0.0
1734580940.7578137,-5.859375,6.34765625,127.44140625,-12.20703125,0.0
1734580940.7617197,-15.625,414.0625,207.51953125,-27.34375,0.0
1734580940.7656257,-16.11328125,314.453125,137.20703125,-23.92578125,0.0
1734580940.769532,-13.18359375,-110.83984375,15.13671875,-2.44140625,0.0
1734580940.773438,-18.06640625,-84.9609375,74.70703125,4.39453125,0.0
1734580940.777344,-17.08984375,-7.8125,105.46875,-24.4140625,0.0
1734580940.78125,-18.5546875,-198.73046875,111.328125,-28.3203125,0.0
1734580940.7851562,-13.18359375,-625.0,-180.6640625,-9.765625,0.0
1734580940.7890623,16.6015625,-656.25,-227.05078125,-3.41796875,0.0
1734580940.7929683,19.53125,277.83203125,230.95703125,3.41796875,0.0
1734580940.7968743,-8.30078125,180.17578125,130.859375,-12.20703125,0.0
1734580940.8007803,-28.3203125,-152.34375,93.26171875,-20.5078125,0.0
1734580940.8046515,-24.4140625,115.72265625,163.57421875,-24.4140625,0.0
1734580940.8085575,-8.7890625,104.98046875,110.83984375,4.39453125,0.0
1734580940.8124635,3.90625,-169.921875,58.10546875,24.90234375,0.0
1734580940.8163698,0.0,-113.28125,97.65625,-4.8828125,0.0
1734580940.8202758,-22.94921875,215.8203125,170.41015625,-26.85546875,0.0
1734580940.8241818,-30.76171875,-40.52734375,64.453125,-24.90234375,0.0
1734580940.8280878,-10.25390625,-282.71484375,52.24609375,-14.16015625,0.0
1734580940.831994,4.8828125,-661.1328125,-135.7421875,7.32421875,0.0
1734580940.8359,-19.04296875,-369.62890625,-34.1796875,-19.53125,0.0
1734580940.839806,-39.55078125,440.4296875,250.9765625,-39.55078125,0.0
1734580940.843712,-25.87890625,55.6640625,48.33984375,-16.6015625,0.0
1734580940.8476183,-14.16015625,-188.96484375,13.18359375,7.32421875,0.0
1734580940.8514576,0.48828125,224.609375,167.96875,-12.20703125,0.0
1734580940.8553636,9.27734375,417.48046875,209.9609375,-64.94140625,0.0
1734580940.8592696,8.30078125,6.34765625,33.203125,-72.75390625,0.0
1734580940.8631759,-10.25390625,-206.54296875,1.46484375,-49.8046875,0.0
1734580940.8670819,-18.06640625,-116.69921875,54.6875,-20.5078125,0.0
1734580940.870988,-14.6484375,-234.375,84.9609375,1.953125,0.0
1734580940.874894,-20.5078125,-624.0234375,-126.46484375,7.32421875,0.0
1734580940.8788,-27.83203125,-644.04296875,-211.9140625,-13.18359375,0.0
1734580940.8827062,-39.0625,112.79296875,181.640625,-36.62109375,0.0
1734580940.8866122,-19.53125,248.53515625,137.6953125,-22.4609375,0.0
1734580940.8905182,4.39453125,-101.5625,54.19921875,7.32421875,0.0
1734580940.8944242,9.27734375,-33.203125,112.3046875,3.90625,0.0
1734580940.8982384,-10.25390625,366.2109375,184.08203125,-16.11328125,0.0
1734580940.9021444,-24.90234375,117.1875,78.61328125,-15.625,0.0
1734580940.9060504,-15.13671875,-196.77734375,35.64453125,-14.16015625,0.0
1734580940.9099565,7.32421875,69.3359375,133.7890625,-3.90625,0.0
1734580940.9138627,8.30078125,250.0,126.953125,7.32421875,0.0
1734580940.9177687,-14.16015625,-97.16796875,65.91796875,-3.41796875,0.0
1734580940.9216747,-22.4609375,-773.92578125,-277.34375,8.30078125,0.0
1734580940.9255807,-11.71875,-724.609375,-194.3359375,9.27734375,0.0
1734580940.929487,20.99609375,135.7421875,210.9375,-5.37109375,0.0
1734580940.933393,28.80859375,134.765625,85.9375,-22.94921875,0.0
1734580940.937299,-8.7890625,-81.0546875,46.875,-33.203125,0.0
1734580940.941205,-31.25,174.8046875,148.4375,-29.296875,0.0
1734580940.944988,-25.87890625,284.66796875,149.4140625,-16.11328125,0.0
1734580940.948894,-11.71875,10.25390625,44.43359375,2.9296875,0.0
1734580940.9528003,-5.859375,-40.52734375,60.546875,1.46484375,0.0
1734580940.9567063,-15.625,253.90625,125.9765625,-28.3203125,0.0
1734580940.9606123,-21.97265625,187.5,128.90625,-42.48046875,0.0
1734580940.9645183,-18.06640625,-514.6484375,-199.21875,-15.13671875,0.0
1734580940.9684243,-1.953125,-689.453125,-254.39453125,10.7421875,0.0
1734580940.9723306,7.8125,177.734375,168.45703125,4.8828125,0.0
1734580940.9762366,-8.7890625,306.640625,127.44140625,-10.7421875,0.0
1734580940.9801426,-31.73828125,-254.8828125,-105.95703125,-21.97265625,0.0
1734580940.9840486,-33.203125,-519.04296875,-157.2265625,-20.99609375,0.0
1734580940.9879549,0.0,-333.984375,25.87890625,1.46484375,0.0
1734580940.9919465,20.99609375,-259.27734375,52.734375,15.13671875,0.0
1734580940.9958525,1.46484375,-130.859375,78.125,1.953125,0.0
1734580940.9997585,-20.5078125,68.84765625,105.95703125,-11.23046875,0.0
1734580941.0036647,-7.32421875,224.12109375,113.28125,7.8125,0.0
1734580941.0075707,23.4375,130.37109375,59.08203125,41.015625,0.0
1734580941.0114768,30.76171875,-333.49609375,-38.57421875,11.71875,0.0
1734580941.0153828,4.8828125,-265.13671875,25.390625,-32.2265625,0.0
1734580941.0192888,-33.203125,218.26171875,139.16015625,-34.1796875,0.0
1734580941.023195,-32.71484375,16.6015625,9.765625,-14.16015625,0.0
1734580941.027101,-4.39453125,-535.15625,-167.96875,1.46484375,0.0
1734580941.031007,9.765625,-84.47265625,50.29296875,3.90625,0.0
1734580941.034913,1.953125,347.16796875,170.8984375,-2.9296875,0.0
1734580941.0388653,-11.23046875,-125.0,-25.87890625,-16.6015625,0.0
1734580941.0427713,0.0,-274.4140625,-67.87109375,-15.625,0.0
1734580941.0466774,19.53125,139.16015625,98.6328125,-2.44140625,0.0
1734580941.0505834,37.109375,317.87109375,147.4609375,13.671875,0.0
1734580941.0544894,25.390625,-69.3359375,-10.7421875,11.23046875,0.0
1734580941.0583956,-7.32421875,-544.43359375,-226.5625,-11.23046875,0.0
1734580941.0623016,-10.25390625,-289.0625,-58.10546875,-15.13671875,0.0
1734580941.0662076,7.32421875,191.40625,187.5,4.8828125,0.0
1734580941.0701137,16.11328125,-391.6015625,-146.97265625,31.25,0.0
1734580941.07402,-1.46484375,-682.6171875,-242.67578125,22.4609375,0.0
1734580941.077926,-17.08984375,-114.74609375,73.73046875,-10.25390625,0.0
1734580941.081832,-27.83203125,-301.26953125,-11.71875,-15.13671875,0.0
1734580941.0857654,-2.9296875,-242.67578125,58.10546875,0.48828125,0.0
1734580941.0896714,30.2734375,147.94921875,143.5546875,31.25,0.0
1734580941.0935774,20.99609375,312.98828125,145.5078125,21.484375,0.0
1734580941.0974834,-2.9296875,-91.796875,34.1796875,-12.6953125,0.0
1734580941.1013894,-13.18359375,-315.4296875,-25.87890625,-20.99609375,0.0
1734580941.1052957,4.8828125,-319.82421875,-0.9765625,-9.765625,0.0
1734580941.1092017,26.85546875,-76.171875,96.6796875,7.32421875,0.0
1734580941.1131077,20.99609375,115.72265625,86.9140625,6.34765625,0.0
1734580941.1170137,-17.578125,-562.98828125,-187.01171875,-15.625,0.0
1734580941.12092,-29.78515625,-276.3671875,3.41796875,-30.2734375,0.0
1734580941.124826,-11.23046875,346.6796875,189.94140625,-11.71875,0.0
1734580941.128732,28.3203125,-48.33984375,3.90625,20.01953125,0.0
1734580941.1326394,62.01171875,-262.20703125,-12.20703125,27.83203125,0.0
1734580941.1365454,24.90234375,42.96875,104.98046875,-9.27734375,0.0
1734580941.1404517,-32.71484375,107.421875,86.9140625,-57.6171875,0.0
1734580941.1443577,-35.15625,-229.4921875,-35.15625,-46.38671875,0.0
1734580941.1482637,15.13671875,-280.76171875,-24.90234375,20.99609375,0.0
1734580941.1521697,35.64453125,-181.640625,46.38671875,42.48046875,0.0
1734580941.156076,6.8359375,-316.89453125,49.8046875,3.41796875,0.0
1734580941.159982,-0.9765625,-734.375,-282.2265625,8.7890625,0.0
1734580941.163888,24.4140625,-730.46875,-310.546875,26.3671875,0.0
1734580941.167794,57.12890625,39.55078125,164.55078125,26.85546875,0.0
1734580941.1717002,84.47265625,-98.14453125,64.453125,49.8046875,0.0
1734580941.1756063,64.94140625,-333.984375,40.0390625,46.875,0.0
1734580941.179511,14.16015625,14.6484375,144.53125,28.3203125,0.0
1734580941.183417,-4.39453125,226.5625,153.80859375,38.0859375,0.0
1734580941.187323,26.85546875,44.43359375,71.2890625,67.87109375,0.0
1734580941.1912293,62.5,-215.33203125,33.203125,69.3359375,0.0
1734580941.1951354,37.109375,8.7890625,133.7890625,47.36328125,0.0
1734580941.1990414,1.46484375,-102.05078125,65.91796875,34.1796875,0.0
1734580941.2029474,4.39453125,-445.80078125,-1.46484375,15.13671875,0.0
1734580941.2068536,27.83203125,-668.45703125,-84.47265625,32.71484375,0.0
1734580941.2107596,62.98828125,-393.06640625,36.62109375,54.6875,0.0
1734580941.2146657,62.5,61.03515625,191.89453125,16.6015625,0.0
1734580941.2185717,10.25390625,-87.890625,90.33203125,-17.578125,0.0
1734580941.2224777,-22.94921875,-218.26171875,70.80078125,-4.8828125,0.0
1734580941.226328,-0.48828125,75.1953125,187.98828125,21.97265625,0.0
1734580941.230234,7.32421875,234.375,209.47265625,30.2734375,0.0
1734580941.23414,-39.0625,-62.98828125,85.44921875,12.20703125,0.0
1734580941.238046,-61.5234375,-145.5078125,105.95703125,-28.3203125,0.0
1734580941.241952,-47.36328125,105.95703125,172.36328125,-32.71484375,0.0
1734580941.2458582,-27.34375,-172.8515625,125.9765625,3.90625,0.0
1734580941.2497642,13.18359375,-719.23828125,-85.9375,37.109375,0.0
1734580941.2536702,4.8828125,-633.7890625,-80.078125,18.06640625,0.0
1734580941.2575762,-41.50390625,148.92578125,245.1171875,-31.73828125,0.0
1734580941.2614825,-46.38671875,257.32421875,195.80078125,-27.34375,0.0
1734580941.2653885,-13.18359375,-194.82421875,140.625,2.44140625,0.0
1734580941.2692945,22.4609375,-421.875,152.34375,28.80859375,0.0
1734580941.2731125,23.92578125,73.73046875,250.48828125,1.46484375,0.0
1734580941.2770188,-34.1796875,162.109375,192.87109375,-55.17578125,0.0
1734580941.2809248,-57.6171875,-155.2734375,142.08984375,-53.7109375,0.0
1734580941.2848308,-23.92578125,12.6953125,244.140625,-22.94921875,0.0
1734580941.2887368,17.08984375,180.17578125,237.3046875,14.16015625,0.0
1734580941.2926428,30.2734375,-80.56640625,171.38671875,31.73828125,0.0
1734580941.296549,-10.25390625,-645.5078125,-33.203125,-5.37109375,0.0
1734580941.300455,-47.36328125,-387.20703125,81.0546875,-41.50390625,0.0
1734580941.304361,-29.78515625,174.8046875,284.66796875,-30.76171875,0.0
1734580941.308267,25.390625,-24.4140625,203.61328125,9.27734375,0.0
1734580941.3121734,27.34375,-104.98046875,220.21484375,13.18359375,0.0
1734580941.3160794,-23.4375,159.66796875,257.8125,-25.390625,0.0
1734580941.320098,-56.15234375,221.6796875,253.90625,-25.390625,0.0
1734580941.324004,-38.0859375,-188.4765625,130.37109375,-14.16015625,0.0
1734580941.3279102,26.85546875,-368.1640625,156.73828125,3.90625,0.0
1734580941.3318162,46.875,196.2890625,311.5234375,18.5546875,0.0
1734580941.3357222,-12.20703125,336.42578125,294.921875,-17.578125,0.0
1734580941.3396282,-59.08203125,-478.515625,-59.5703125,-49.8046875,0.0
1734580941.3435345,-47.8515625,-750.48828125,-108.88671875,-41.015625,0.0
1734580941.3474405,12.20703125,148.92578125,332.03125,12.6953125,0.0
1734580941.3513465,40.52734375,407.2265625,302.734375,35.64453125,0.0
1734580941.3552525,-11.71875,-47.8515625,235.3515625,-19.53125,0.0
1734580941.3591585,-56.15234375,-451.66015625,153.80859375,-57.12890625,0.0
1734580941.3630648,-46.38671875,-227.5390625,182.6171875,-37.59765625,0.0
1734580941.367071,0.0,160.15625,257.32421875,9.27734375,0.0
1734580941.3709772,0.0,40.0390625,243.1640625,22.4609375,0.0
1734580941.3748832,0.0,88.8671875,250.0,-10.7421875,0.0
1734580941.3787892,0.0,215.33203125,223.14453125,-40.52734375,0.0
1734580941.3826952,0.0,-32.2265625,150.390625,-45.41015625,0.0
1734580941.3866012,0.0,-279.296875,129.39453125,-16.6015625,0.0
1734580941.3905075,0.0,-242.1875,178.7109375,7.8125,0.0
1734580941.3944135,0.0,31.25,225.09765625,-31.25,0.0
1734580941.3983195,0.0,-78.61328125,121.58203125,-89.35546875,0.0
1734580941.4022255,0.0,-679.6875,-106.93359375,-75.1953125,0.0
1734580941.4061317,0.0,-242.1875,116.69921875,-33.203125,0.0
1734580941.4100378,0.0,320.3125,304.6875,-6.8359375,0.0
1734580941.4139946,-19.53125,85.9375,150.390625,-19.04296875,0.0
1734580941.4179008,-71.77734375,-135.7421875,94.23828125,-57.6171875,0.0
1734580941.4218068,-77.1484375,101.5625,196.77734375,-58.59375,0.0
1734580941.4257128,-34.66796875,331.0546875,225.5859375,-26.85546875,0.0
1734580941.4296188,6.34765625,62.01171875,120.60546875,6.34765625,0.0
1734580941.433525,-9.765625,-282.2265625,79.58984375,4.39453125,0.0
1734580941.437431,-56.15234375,-35.15625,177.734375,-34.1796875,0.0
1734580941.441337,-72.265625,166.9921875,210.44921875,-51.26953125,0.0
1734580941.4452431,-43.9453125,-506.34765625,-62.01171875,-30.2734375,0.0
1734580941.4491491,3.41796875,-563.96484375,-61.03515625,8.7890625,0.0
1734580941.4530554,-0.48828125,156.25,225.09765625,4.39453125,0.0
1734580941.4569614,-57.12890625,-77.63671875,101.07421875,-41.9921875,0.0
1734580941.4608896,-74.70703125,-136.71875,136.23046875,-53.22265625,0.0
1734580941.4647956,-38.57421875,219.23828125,218.75,-17.578125,0.0
1734580941.4687016,10.25390625,475.5859375,227.05078125,27.83203125,0.0
1734580941.4726076,17.08984375,339.35546875,144.04296875,26.3671875,0.0
1734580941.4765139,-29.78515625,-33.69140625,39.55078125,-19.53125,0.0
1734580941.4804199,-49.8046875,-270.01953125,5.859375,-32.71484375,0.0
1734580941.484326,-22.94921875,-138.18359375,93.75,-13.18359375,0.0
1734580941.488232,19.04296875,98.14453125,142.08984375,17.578125,0.0
1734580941.4921381,39.0625,-433.10546875,-81.0546875,35.15625,0.0
1734580941.4960442,-4.39453125,-241.2109375,23.4375,2.9296875,0.0
1734580941.4999502,-41.015625,60.546875,108.3984375,-40.0390625,0.0
1734580941.5038562,-24.90234375,-315.4296875,-38.0859375,-19.04296875,0.0
1734580941.5077603,18.5546875,-35.15625,45.41015625,20.5078125,0.0
1734580941.5116663,20.01953125,412.59765625,163.0859375,19.04296875,0.0
1734580941.5155723,-12.20703125,335.44921875,94.23828125,-17.08984375,0.0
1734580941.5194783,-28.80859375,-86.9140625,-58.10546875,-31.73828125,0.0
1734580941.5233843,-26.3671875,-133.7890625,-55.17578125,-21.484375,0.0
1734580941.5272906,10.7421875,-98.14453125,-20.5078125,2.44140625,0.0
1734580941.5311966,31.25,-143.06640625,47.36328125,14.6484375,0.0
1734580941.5351026,-18.06640625,-546.875,-236.81640625,-12.20703125,0.0
1734580941.5390086,-50.29296875,-694.3359375,-330.56640625,-34.66796875,0.0
1734580941.5429149,-22.4609375,164.0625,120.60546875,-30.76171875,0.0
1734580941.5468209,9.27734375,58.59375,46.38671875,-1.953125,0.0
1734580941.550727,6.8359375,-205.56640625,61.03515625,12.20703125,0.0
1734580941.5545914,-29.78515625,19.53125,102.05078125,-6.8359375,0.0
1734580941.5584977,-52.734375,46.875,106.4453125,-28.80859375,0.0
1734580941.5624037,-22.94921875,11.71875,90.8203125,-19.04296875,0.0
1734580941.5663097,22.94921875,-24.90234375,82.03125,14.16015625,0.0
1734580941.5702157,6.34765625,186.03515625,185.546875,-0.9765625,0.0
1734580941.5741217,-54.6875,29.296875,125.9765625,-41.015625,0.0
1734580941.578028,-66.40625,-238.28125,104.4921875,-60.05859375,0.0
1734580941.581934,-52.734375,-587.890625,-39.55078125,-47.36328125,0.0
1734580941.58584,-28.3203125,-227.5390625,96.19140625,-16.6015625,0.0
1734580941.589746,4.8828125,386.23046875,299.8046875,3.90625,0.0
1734580941.5936522,-27.83203125,27.83203125,166.9921875,-19.53125,0.0
1734580941.5975583,-56.15234375,-123.53515625,157.2265625,-44.921875,0.0
1734580941.6013958,-42.48046875,222.65625,258.7890625,-27.34375,0.0
1734580941.6053019,-24.4140625,309.08203125,248.046875,-15.625,0.0
1734580941.609208,-3.90625,12.6953125,142.578125,0.9765625,0.0
1734580941.613114,-15.13671875,-279.78515625,119.140625,-6.34765625,0.0
1734580941.6170201,-44.921875,-77.63671875,191.40625,-40.0390625,0.0
1734580941.6209261,-41.015625,12.6953125,255.859375,-43.45703125,0.0
1734580941.6248324,-16.11328125,-576.171875,2.44140625,-12.20703125,0.0
1734580941.6287384,0.0,-674.8046875,-35.15625,2.44140625,0.0
1734580941.6326444,-11.23046875,158.69140625,314.94140625,-17.578125,0.0
1734580941.6365504,-31.73828125,370.1171875,273.4375,-38.0859375,0.0
1734580941.6404567,-30.76171875,-101.5625,211.42578125,-37.59765625,0.0
1734580941.6443627,-11.71875,-105.46875,266.11328125,-7.8125,0.0
1734580941.6481848,8.7890625,341.796875,338.37890625,2.9296875,0.0
1734580941.652091,10.25390625,200.68359375,240.234375,-5.859375,0.0
1734580941.655997,2.9296875,-91.30859375,187.98828125,-18.06640625,0.0
1734580941.659903,-2.44140625,108.88671875,286.62109375,-31.25,0.0
1734580941.663809,-6.34765625,292.48046875,282.71484375,-4.8828125,0.0
1734580941.667715,2.44140625,-75.68359375,191.40625,25.390625,0.0
1734580941.6716213,-13.18359375,-703.125,-17.08984375,4.39453125,0.0
1734580941.6755273,-45.8984375,-423.828125,118.1640625,-23.92578125,0.0
1734580941.6794333,-41.015625,350.09765625,343.75,-26.3671875,0.0
1734580941.6833394,-14.16015625,151.85546875,225.5859375,-4.8828125,0.0
1734580941.6872456,11.23046875,-84.9609375,223.14453125,21.97265625,0.0
1734580941.6911516,4.39453125,208.0078125,289.55078125,9.27734375,0.0
1734580941.6949453,-41.9921875,361.328125,285.64453125,-43.45703125,0.0
1734580941.6988513,-55.6640625,17.578125,169.921875,-62.01171875,0.0
1734580941.7027574,-29.78515625,-173.828125,157.2265625,-37.109375,0.0
1734580941.7066636,-8.30078125,130.859375,263.18359375,-4.8828125,0.0
1734580941.7105696,-10.7421875,250.0,298.828125,9.765625,0.0
1734580941.7144756,-37.59765625,-451.171875,-24.4140625,-9.27734375,0.0
1734580941.7183816,-49.8046875,-715.8203125,-82.51953125,-31.73828125,0.0
1734580941.7222877,-36.62109375,124.0234375,307.6171875,-30.76171875,0.0
1734580941.726194,-19.53125,225.09765625,253.41796875,-8.7890625,0.0
1734580941.7301,-6.8359375,-181.15234375,210.44921875,-3.41796875,0.0
1734580941.734006,-37.109375,-392.578125,177.734375,-25.87890625,0.0
1734580941.737912,-58.59375,-92.28515625,225.09765625,-53.22265625,0.0
1734580941.741904,-45.41015625,141.11328125,239.74609375,-45.8984375,0.0
1734580941.74581,-29.296875,-68.84765625,197.75390625,-25.390625,0.0
1734580941.749716,-18.5546875,37.59765625,247.55859375,-21.484375,0.0
1734580941.7536223,-44.921875,263.671875,262.20703125,-43.45703125,0.0
1734580941.7575283,-60.546875,131.34765625,194.3359375,-60.546875,0.0
1734580941.7614343,-38.57421875,-419.43359375,73.73046875,-43.9453125,0.0
1734580941.7653403,-9.27734375,-368.1640625,148.4375,-16.6015625,0.0
1734580941.7692466,-3.41796875,219.7265625,271.484375,-1.953125,0.0
1734580941.7731526,-25.390625,53.22265625,171.38671875,-22.94921875,0.0
1734580941.7770586,-44.43359375,-545.41015625,54.19921875,-43.9453125,0.0
1734580941.7809646,-37.59765625,-123.53515625,225.5859375,-37.109375,0.0
1734580941.7848706,-17.08984375,159.66796875,217.28515625,-18.5546875,0.0
1734580941.7888334,-2.9296875,-323.2421875,72.75390625,-5.859375,0.0
1734580941.7927394,-16.11328125,-214.84375,125.9765625,-7.32421875,0.0
1734580941.7966454,-29.296875,169.43359375,206.54296875,-25.87890625,0.0
1734580941.8005517,-31.25,249.51171875,229.4921875,-29.296875,0.0
1734580941.8044577,-23.4375,-87.890625,103.02734375,-18.06640625,0.0
1734580941.8083637,-9.765625,-421.875,57.12890625,0.48828125,0.0
1734580941.8122697,-24.90234375,-147.94921875,152.34375,-11.23046875,0.0
1734580941.8161757,-49.31640625,250.48828125,234.375,-42.96875,0.0
1734580941.820082,-38.0859375,-406.25,-79.1015625,-33.203125,0.0
1734580941.823988,-14.16015625,-643.5546875,-152.83203125,-18.5546875,0.0
1734580941.827894,-2.9296875,13.18359375,211.42578125,-1.953125,0.0
1734580941.8318,-15.13671875,-172.36328125,119.62890625,-6.8359375,0.0
1734580941.8357265,-43.45703125,-203.125,141.6015625,-47.8515625,0.0
1734580941.8396327,-45.8984375,77.63671875,214.35546875,-45.41015625,0.0
1734580941.8435388,-28.80859375,51.7578125,157.2265625,-28.80859375,0.0
1734580941.8474448,10.7421875,-188.4765625,104.98046875,15.13671875,0.0
1734580941.8513508,29.78515625,-174.31640625,97.65625,37.59765625,0.0
1734580941.855257,-0.9765625,-239.2578125,72.265625,-2.44140625,0.0
1734580941.859163,-13.18359375,-120.60546875,134.765625,-4.39453125,0.0
1734580941.863069,61.5234375,16.11328125,150.390625,84.9609375,0.0
1734580941.866975,53.7109375,-545.8984375,-62.98828125,68.84765625,0.0
1734580941.870881,-45.8984375,-235.3515625,76.171875,-44.43359375,0.0
1734580941.8747873,-13.18359375,403.80859375,241.69921875,-4.39453125,0.0
1734580941.8786933,-37.109375,-18.5546875,73.2421875,-24.90234375,0.0
1734580941.8826005,89.35546875,-161.62109375,88.8671875,92.28515625,0.0
1734580941.8865066,254.8828125,286.62109375,238.28125,241.2109375,0.0
1734580941.8904126,40.52734375,324.70703125,230.46875,47.36328125,0.0
1734580941.8943186,-160.15625,-50.78125,112.3046875,-144.53125,0.0
1734580941.8982248,-208.49609375,-307.6171875,93.75,-231.93359375,0.0
1734580941.9021308,-271.484375,-401.3671875,116.2109375,-289.0625,0.0
1734580941.9060369,-227.5390625,-600.5859375,148.4375,-235.3515625,0.0
1734580941.9099429,-85.9375,-861.81640625,-131.8359375,-101.07421875,0.0
1734580941.913849,-112.79296875,-796.38671875,-250.48828125,-117.67578125,0.0
1734580941.9177551,-197.265625,-382.32421875,129.8828125,-208.49609375,0.0
1734580941.9216611,-252.44140625,-670.8984375,-61.03515625,-280.76171875,0.0
1734580941.9255672,-261.71875,-809.5703125,-226.07421875,-307.6171875,0.0
1734580941.9294372,-261.23046875,-438.96484375,-215.33203125,-325.1953125,0.0
1734580941.9333432,-271.97265625,-151.3671875,-414.0625,-374.51171875,0.0
1734580941.9372492,-325.1953125,-300.29296875,-744.140625,-419.43359375,0.0
1734580941.9411552,-348.6328125,-502.44140625,-953.61328125,-421.875,0.0
1734580941.9450614,-293.45703125,-193.84765625,-990.234375,-385.25390625,0.0
1734580941.9489675,-258.30078125,-165.0390625,-996.58203125,-358.3984375,0.0
1734580941.9528735,-264.6484375,-108.3984375,-999.51171875,-346.6796875,0.0
1734580941.9567795,-267.08984375,-249.51171875,-1000.0,-333.984375,0.0
1734580941.9606857,-237.79296875,327.63671875,-1000.0,-311.5234375,0.0
1734580941.9645917,-203.61328125,-949.70703125,-1000.0,-271.97265625,0.0
1734580941.9684978,-180.17578125,938.96484375,-1000.0,-245.60546875,0.0
1734580941.9724038,-178.22265625,964.35546875,-1000.0,-239.2578125,0.0
1734580941.9762497,-181.640625,971.6796875,-1000.0,-220.21484375,0.0
1734580941.9801557,-170.8984375,969.23828125,-1000.0,-190.91796875,0.0
1734580941.9840617,-117.67578125,969.23828125,-1000.0,-155.2734375,0.0
1734580941.9879677,-96.19140625,969.23828125,-1000.0,-124.51171875,0.0
1734580941.991874,-113.28125,969.23828125,-1000.0,-104.00390625,0.0
1734580941.99578,-112.3046875,969.23828125,-1000.0,-115.234375,0.0
1734580941.999686,-102.05078125,969.23828125,-1000.0,-112.3046875,0.0
1734580942.003592,-82.51953125,969.23828125,-1000.0,-65.4296875,0.0
1734580942.007498,-63.4765625,969.23828125,-1000.0,-49.8046875,0.0
1734580942.0114043,-67.3828125,969.23828125,-1000.0,-53.22265625,0.0
1734580942.0153103,-95.703125,969.23828125,-1000.0,-63.96484375,0.0
1734580942.0192163,-96.19140625,969.23828125,-1000.0,-60.546875,0.0
1734580942.0230412,-68.359375,969.7265625,-1000.0,-49.31640625,0.0
1734580942.0269473,-46.875,969.7265625,-1000.0,-22.4609375,0.0
1734580942.0308533,-48.828125,969.7265625,-1000.0,-8.7890625,0.0
1734580942.0347595,-72.265625,969.23828125,-1000.0,-42.96875,0.0
1734580942.0386655,-72.75390625,969.23828125,-1000.0,-64.453125,0.0
1734580942.0425715,-50.29296875,969.7265625,-1000.0,-39.55078125,0.0
1734580942.0464776,-34.66796875,969.23828125,-1000.0,-7.32421875,0.0
1734580942.0503838,-33.69140625,969.23828125,-1000.0,1.46484375,0.0
1734580942.0542898,-56.15234375,969.23828125,-1000.0,-29.78515625,0.0
1734580942.0581958,-64.453125,969.23828125,-1000.0,-44.43359375,0.0
1734580942.0621018,-46.875,969.23828125,-1000.0,-18.06640625,0.0
1734580942.0660079,-32.71484375,969.23828125,-1000.0,3.90625,0.0
1734580942.0698187,-26.85546875,969.23828125,-1000.0,-14.16015625,0.0
1734580942.0737247,-43.9453125,969.23828125,-1000.0,-33.203125,0.0
1734580942.0776308,-48.828125,969.23828125,-1000.0,-29.296875,0.0
1734580942.0815368,-27.83203125,969.7265625,-1000.0,1.953125,0.0
1734580942.085443,-3.90625,969.7265625,-1000.0,26.85546875,0.0
1734580942.089349,-1.46484375,965.33203125,-1000.0,14.16015625,0.0
1734580942.093255,-20.5078125,967.28515625,-1000.0,-0.9765625,0.0
1734580942.097161,-13.18359375,970.21484375,-1000.0,-4.39453125,0.0
1734580942.1010673,-3.90625,969.23828125,-1000.0,0.0,0.0
1734580942.1049733,13.671875,969.23828125,-999.51171875,23.92578125,0.0
1734580942.1088793,18.06640625,969.23828125,-988.28125,33.69140625,0.0
1734580942.1127853,-11.71875,969.23828125,-918.9453125,8.7890625,0.0
1734580942.1169646,0.0,969.23828125,-841.796875,-7.32421875,0.0
1734580942.1208706,0.0,969.23828125,-696.77734375,-0.48828125,0.0
1734580942.1247766,0.0,967.7734375,-453.125,23.92578125,0.0
1734580942.1286829,0.0,971.19140625,-205.56640625,32.2265625,0.0
1734580942.1325889,0.0,967.28515625,29.78515625,21.484375,0.0
1734580942.1364949,0.0,947.265625,152.34375,14.6484375,0.0
1734580942.140401,0.0,960.44921875,342.7734375,10.25390625,0.0
1734580942.144307,0.0,976.07421875,513.671875,30.2734375,0.0
1734580942.1482131,0.0,962.890625,542.96875,55.6640625,0.0
1734580942.1521192,0.0,929.19921875,552.734375,62.5,0.0
1734580942.1560252,0.0,960.44921875,668.9453125,56.640625,0.0
1734580942.1599312,0.0,976.07421875,752.9296875,39.55078125,0.0
1734580942.1638873,13.18359375,951.171875,771.484375,32.2265625,0.0
1734580942.1677933,20.99609375,955.56640625,803.7109375,39.0625,0.0
1734580942.1716993,32.2265625,970.703125,823.73046875,42.48046875,0.0
1734580942.1756053,17.578125,972.65625,825.68359375,9.27734375,0.0
1734580942.1795115,-1.46484375,905.76171875,814.453125,17.578125,0.0
1734580942.1834176,19.53125,910.15625,823.73046875,45.41015625,0.0
1734580942.1873236,43.9453125,926.7578125,844.7265625,53.7109375,0.0
1734580942.1912296,44.921875,-971.6796875,844.7265625,42.48046875,0.0
1734580942.1951356,12.6953125,618.65234375,830.078125,8.30078125,0.0
1734580942.1990418,0.9765625,441.40625,841.796875,0.0,0.0
1734580942.2029479,14.16015625,946.77734375,854.98046875,4.39453125,0.0
1734580942.2068539,32.2265625,920.41015625,849.609375,18.5546875,0.0
1734580942.2107804,38.0859375,928.22265625,857.421875,30.76171875,0.0
1734580942.2146864,15.13671875,952.63671875,862.79296875,11.23046875,0.0
1734580942.2185924,-1.953125,973.6328125,863.76953125,-7.8125,0.0
1734580942.2224984,3.90625,890.625,861.328125,5.859375,0.0
1734580942.2264047,32.2265625,773.92578125,856.93359375,37.59765625,0.0
1734580942.2303107,40.0390625,677.734375,855.46875,35.64453125,0.0
1734580942.2342167,11.71875,770.5078125,860.83984375,7.32421875,0.0
1734580942.2381227,-6.34765625,893.5546875,860.3515625,-11.23046875,0.0
1734580942.242029,0.0,126.953125,848.14453125,15.625,0.0
1734580942.245935,13.18359375,163.0859375,857.421875,34.1796875,0.0
1734580942.249841,19.53125,858.3984375,861.328125,23.92578125,0.0
1734580942.253747,0.9765625,593.75,854.4921875,6.34765625,0.0
1734580942.2576437,-19.04296875,479.00390625,854.98046875,2.44140625,0.0
1734580942.2615497,-10.7421875,785.64453125,854.4921875,-2.9296875,0.0
1734580942.265456,34.1796875,816.40625,854.00390625,16.6015625,0.0
1734580942.269362,60.546875,553.22265625,842.7734375,61.5234375,0.0
1734580942.273268,32.71484375,432.12890625,844.23828125,46.38671875,0.0
1734580942.277174,8.30078125,363.28125,847.65625,0.0,0.0
1734580942.28108,14.16015625,279.296875,843.75,2.44140625,0.0
1734580942.2849863,52.24609375,-150.87890625,824.21875,48.33984375,0.0
1734580942.2888923,52.24609375,-314.453125,834.47265625,62.5,0.0
1734580942.2927983,14.6484375,651.85546875,851.07421875,44.921875,0.0
1734580942.2967043,3.41796875,466.30859375,830.078125,15.625,0.0
1734580942.3006105,17.08984375,-45.8984375,824.70703125,18.5546875,0.0
1734580942.304476,29.296875,22.4609375,832.03125,34.66796875,0.0
1734580942.3083823,30.76171875,413.0859375,838.37890625,21.97265625,0.0
1734580942.3122883,23.92578125,532.2265625,825.1953125,12.6953125,0.0
1734580942.3161943,-40.52734375,166.9921875,792.48046875,-7.8125,0.0
1734580942.3201003,-17.08984375,193.359375,808.10546875,-5.37109375,0.0
1734580942.3240063,44.921875,105.46875,821.2890625,39.0625,0.0
1734580942.3279126,25.87890625,-58.59375,798.828125,55.6640625,0.0
1734580942.3318186,12.6953125,-451.171875,705.078125,42.96875,0.0
1734580942.3357246,4.8828125,-170.8984375,767.578125,11.23046875,0.0
1734580942.3396306,-42.48046875,465.8203125,812.98828125,-20.99609375,0.0
1734580942.3435369,-41.9921875,207.51953125,780.76171875,-12.20703125,0.0
1734580942.3474429,49.31640625,168.9453125,797.8515625,35.15625,0.0
1734580942.3512964,64.94140625,502.9296875,784.66796875,51.7578125,0.0
1734580942.3552027,12.6953125,558.59375,782.71484375,8.30078125,0.0
1734580942.3591087,-15.625,121.58203125,681.15234375,-11.23046875,0.0
1734580942.3630147,4.39453125,-70.80078125,658.203125,17.578125,0.0
1734580942.3669207,38.57421875,350.5859375,732.91015625,52.734375,0.0
1734580942.370827,9.765625,273.92578125,685.546875,14.6484375,0.0
1734580942.374733,-62.98828125,-458.0078125,525.390625,-49.31640625,0.0
1734580942.378639,-84.47265625,-627.44140625,522.94921875,-62.98828125,0.0
1734580942.382545,-80.078125,254.39453125,660.64453125,-70.3125,0.0
1734580942.3864512,-67.87109375,435.546875,637.20703125,-47.8515625,0.0
1734580942.3903573,-80.078125,24.90234375,596.19140625,-48.33984375,0.0
1734580942.3942633,-121.58203125,0.0,590.8203125,-87.40234375,0.0
1734580942.3980985,-148.92578125,367.67578125,599.609375,-99.12109375,0.0
1734580942.4020047,-153.80859375,240.234375,535.15625,-93.75,0.0
1734580942.4059107,-127.44140625,-74.70703125,501.46484375,-70.3125,0.0
1734580942.4098167,-96.6796875,179.6875,546.38671875,-46.875,0.0
1734580942.4137228,-106.93359375,348.6328125,534.1796875,-65.91796875,0.0
1734580942.417629,-123.046875,-78.125,453.125,-68.84765625,0.0
1734580942.421535,-117.67578125,-703.61328125,279.78515625,-44.43359375,0.0
1734580942.425441,-82.03125,-502.44140625,376.46484375,-29.296875,0.0
1734580942.429347,-62.01171875,229.4921875,541.015625,-8.7890625,0.0
1734580942.433253,-89.35546875,-21.97265625,447.265625,-29.78515625,0.0
1734580942.4371593,-104.00390625,-337.40234375,433.59375,-57.6171875,0.0
1734580942.4410653,-87.40234375,-26.85546875,479.00390625,-26.85546875,0.0
1734580942.444857,-65.91796875,144.53125,495.60546875,-12.6953125,0.0
1734580942.448763,-50.29296875,-254.8828125,404.78515625,-14.16015625,0.0
1734580942.452669,-51.7578125,-662.109375,396.97265625,-18.06640625,0.0
1734580942.456575,-62.5,-191.89453125,493.1640625,-33.203125,0.0
1734580942.4604812,-69.3359375,-1.46484375,503.41796875,-39.55078125,0.0
1734580942.4643872,-65.91796875,-617.1875,276.85546875,-27.34375,0.0
1734580942.4682932,-37.59765625,-850.09765625,303.22265625,-11.71875,0.0
1734580942.4721992,-38.57421875,-194.82421875,553.22265625,-32.2265625,0.0
1734580942.4761055,-70.3125,-268.5546875,448.2421875,-53.7109375,0.0
1734580942.4800115,-66.89453125,-690.91796875,426.26953125,-47.36328125,0.0
1734580942.4839175,-46.875,-751.953125,454.1015625,-41.015625,0.0
1734580942.4878235,-28.80859375,-372.55859375,499.0234375,-31.73828125,0.0
1734580942.491813,-18.5546875,-122.0703125,505.37109375,-38.57421875,0.0
1734580942.495719,-36.1328125,-410.64453125,469.7265625,-41.015625,0.0
1734580942.499625,-44.43359375,-342.28515625,500.0,-35.15625,0.0
1734580942.503531,-13.671875,-99.12109375,527.34375,-20.99609375,0.0
1734580942.5074372,19.04296875,-229.98046875,475.5859375,9.27734375,0.0
1734580942.5113432,17.578125,-697.265625,385.25390625,17.08984375,0.0
1734580942.5152493,-10.25390625,-637.20703125,458.984375,-17.578125,0.0
1734580942.5191553,-20.99609375,-180.6640625,524.4140625,-32.71484375,0.0
1734580942.5230615,0.48828125,-331.0546875,458.49609375,-1.46484375,0.0
1734580942.5269675,41.9921875,-725.5859375,433.59375,16.11328125,0.0
1734580942.5308735,40.52734375,-431.15234375,517.08984375,13.671875,0.0
1734580942.5347795,9.765625,-376.46484375,483.88671875,31.73828125,0.0
1734580942.5387383,0.9765625,-706.0546875,412.59765625,13.18359375,0.0
1734580942.5426445,17.578125,-554.19921875,446.2890625,16.6015625,0.0
1734580942.5465505,20.01953125,-137.6953125,517.08984375,-1.953125,0.0
1734580942.5504565,12.20703125,32.2265625,545.41015625,-23.92578125,0.0
1734580942.5543625,1.953125,-315.4296875,410.15625,-35.64453125,0.0
1734580942.5582688,-10.7421875,-781.73828125,354.00390625,-41.50390625,0.0
1734580942.5621748,-4.39453125,-509.27734375,461.42578125,-19.53125,0.0
1734580942.5660808,24.90234375,-55.6640625,522.4609375,-11.23046875,0.0
1734580942.5699868,42.48046875,-577.1484375,325.1953125,14.6484375,0.0
1734580942.5738928,21.97265625,-768.5546875,308.59375,-18.5546875,0.0
1734580942.577799,-11.23046875,-355.95703125,466.796875,-55.17578125,0.0
1734580942.581705,-4.39453125,-507.8125,408.203125,-10.7421875,0.0
1734580942.585636,43.9453125,-397.4609375,438.96484375,21.97265625,0.0
1734580942.5895422,71.77734375,-235.3515625,415.0390625,30.2734375,0.0
1734580942.5934482,32.2265625,-176.7578125,431.640625,0.48828125,0.0
1734580942.5973542,3.90625,-115.72265625,433.10546875,-11.23046875,0.0
1734580942.6012602,7.32421875,-285.15625,372.0703125,-13.671875,0.0
1734580942.6051664,29.78515625,-484.86328125,368.1640625,-5.37109375,0.0
1734580942.6090724,52.24609375,-252.9296875,425.78125,16.6015625,0.0
1734580942.6129785,31.25,-30.2734375,426.26953125,-8.30078125,0.0
1734580942.6168845,4.8828125,-618.1640625,279.296875,-26.85546875,0.0
1734580942.6207907,10.7421875,-366.2109375,374.0234375,-31.25,0.0
1734580942.6246967,40.52734375,171.875,448.73046875,-9.765625,0.0
1734580942.6286027,66.40625,-210.9375,356.4453125,25.87890625,0.0
1734580942.632517,44.43359375,-287.109375,365.72265625,19.04296875,0.0
1734580942.6364233,11.71875,57.6171875,400.390625,-26.3671875,0.0
1734580942.6403294,4.39453125,120.1171875,391.6015625,-42.48046875,0.0
1734580942.6442354,22.4609375,-228.02734375,268.5546875,1.46484375,0.0
1734580942.6481414,52.24609375,-542.96875,229.00390625,36.1328125,0.0
1734580942.6520476,51.26953125,-427.24609375,310.546875,27.83203125,0.0
1734580942.6559536,6.34765625,-364.74609375,333.0078125,-20.5078125,0.0
1734580942.6598597,-6.34765625,-728.515625,104.4921875,-23.4375,0.0
1734580942.6637657,19.04296875,-764.6484375,96.19140625,5.859375,0.0
1734580942.6676717,36.62109375,11.71875,402.34375,24.90234375,0.0
1734580942.671578,26.85546875,-87.890625,311.03515625,16.11328125,0.0
1734580942.675484,-1.46484375,-431.15234375,286.1328125,-16.11328125,0.0
1734580942.679358,-5.37109375,-149.4140625,332.03125,-23.92578125,0.0
1734580942.683264,5.859375,62.01171875,321.2890625,-9.27734375,0.0
1734580942.68717,21.97265625,-73.2421875,270.01953125,1.953125,0.0
1734580942.691076,19.53125,-262.6953125,256.8359375,-1.46484375,0.0
1734580942.6949823,-9.27734375,-128.41796875,268.5546875,-23.4375,0.0
1734580942.6988883,-18.5546875,-296.875,208.0078125,-25.390625,0.0
1734580942.7027943,2.9296875,-595.703125,181.15234375,-3.41796875,0.0
1734580942.7067003,27.83203125,-775.87890625,29.78515625,5.859375,0.0
1734580942.7106066,28.3203125,-354.00390625,165.52734375,-8.7890625,0.0
1734580942.7145126,-3.90625,190.4296875,342.7734375,-56.640625,0.0
1734580942.7184186,-26.3671875,-132.8125,193.359375,-47.36328125,0.0
1734580942.7223246,-14.6484375,-426.7578125,160.15625,-22.94921875,0.0
1734580942.7261765,0.48828125,-76.66015625,266.6015625,-13.671875,0.0
1734580942.7300825,4.39453125,146.97265625,276.3671875,-11.71875,0.0
1734580942.7339885,-24.4140625,-216.796875,127.44140625,-45.41015625,0.0
1734580942.7378948,-45.41015625,-368.1640625,130.37109375,-76.171875,0.0
1734580942.7418008,-34.66796875,-128.90625,179.19921875,-60.546875,0.0
1734580942.7457068,-2.44140625,-326.171875,160.15625,-26.85546875,0.0
1734580942.7496128,16.11328125,-787.109375,-96.6796875,-44.43359375,0.0
1734580942.7535188,-9.765625,-772.4609375,-170.41015625,-38.57421875,0.0
1734580942.757425,-21.97265625,-141.6015625,212.40234375,-31.25,0.0
1734580942.761331,-20.5078125,-104.00390625,127.9296875,-40.0390625,0.0
1734580942.765237,-0.48828125,-523.4375,56.15234375,-26.3671875,0.0
1734580942.769143,7.32421875,-523.92578125,160.64453125,-18.5546875,0.0
1734580942.7729645,-14.16015625,-42.96875,225.5859375,-35.15625,0.0
1734580942.7768705,-31.73828125,-18.5546875,122.0703125,-73.2421875,0.0
1734580942.7807765,-40.0390625,-370.60546875,76.171875,-69.82421875,0.0
1734580942.7846825,-34.1796875,-148.4375,165.52734375,-61.5234375,0.0
1734580942.7885888,-3.90625,60.05859375,157.2265625,-47.8515625,0.0
1734580942.7924948,-9.765625,-326.66015625,74.70703125,-39.0625,0.0
1734580942.7964008,-42.48046875,-789.0625,-137.20703125,-58.10546875,0.0
1734580942.8003068,-36.1328125,-513.18359375,-4.8828125,-57.12890625,0.0
1734580942.804213,-25.87890625,71.77734375,196.2890625,-37.59765625,0.0
1734580942.808119,-14.16015625,-136.23046875,67.3828125,-32.71484375,0.0
1734580942.812025,-23.92578125,-366.2109375,49.31640625,-45.41015625,0.0
1734580942.815931,-53.22265625,-99.12109375,118.1640625,-59.08203125,0.0
1734580942.819726,-43.45703125,-223.6328125,65.91796875,-60.546875,0.0
1734580942.823632,-46.875,-666.50390625,-63.96484375,-70.3125,0.0
1734580942.8275383,-36.62109375,-478.02734375,31.25,-61.03515625,0.0
1734580942.8314443,-17.578125,-31.25,150.87890625,-30.76171875,0.0
1734580942.8353503,-72.75390625,-89.35546875,89.35546875,-94.7265625,0.0
1734580942.8392563,-156.73828125,-599.12109375,-86.42578125,-187.5,0.0
1734580942.8431623,-130.859375,-806.640625,-184.08203125,-135.7421875,0.0
1734580942.8470685,-16.6015625,-319.82421875,25.87890625,-21.484375,0.0
1734580942.8509746,42.48046875,5.37109375,156.25,19.04296875,0.0
1734580942.8548806,-12.6953125,-512.20703125,-171.38671875,-20.5078125,0.0
1734580942.8587866,-39.55078125,-944.3359375,-354.4921875,-26.3671875,0.0
1734580942.8626928,-21.97265625,-370.60546875,2.9296875,-22.94921875,0.0
1734580942.8666816,-11.23046875,-67.87109375,74.70703125,-19.53125,0.0
1734580942.8705878,-5.859375,-344.7265625,-51.7578125,-4.8828125,0.0
1734580942.8744938,-32.71484375,-283.203125,8.7890625,-35.15625,0.0
1734580942.8783998,-2.44140625,-315.4296875,13.671875,-0.9765625,0.0
1734580942.8823059,36.62109375,-403.3203125,-34.66796875,22.94921875,0.0
1734580942.886212,29.296875,-624.51171875,-152.83203125,21.97265625,0.0
1734580942.8901181,-14.16015625,-720.21484375,-188.4765625,0.9765625,0.0
1734580942.8940241,-23.92578125,-264.16015625,66.40625,-4.39453125,0.0
1734580942.8979301,-23.4375,-322.75390625,35.15625,-16.11328125,0.0
1734580942.9018364,-37.59765625,-758.7890625,-206.54296875,-45.8984375,0.0
1734580942.9057424,-36.1328125,-464.84375,-12.6953125,-20.5078125,0.0
1734580942.9096484,-46.38671875,-58.10546875,157.2265625,-25.87890625,0.0
1734580942.9136105,-91.796875,-400.390625,0.9765625,-66.89453125,0.0
1734580942.9175165,-103.515625,-537.109375,25.87890625,-87.40234375,0.0
1734580942.9214225,-95.703125,-145.5078125,170.8984375,-80.56640625,0.0
1734580942.9253285,-80.078125,-65.91796875,167.48046875,-60.546875,0.0
1734580942.9292347,-58.59375,-417.96875,40.52734375,-61.5234375,0.0
1734580942.9331408,-83.0078125,-762.20703125,14.6484375,-116.2109375,0.0
1734580942.9370468,-93.26171875,-676.7578125,101.07421875,-101.07421875,0.0
1734580942.9409528,-80.078125,-410.15625,201.66015625,-50.78125,0.0
1734580942.944859,-54.19921875,-625.0,-18.06640625,-46.38671875,0.0
1734580942.948765,-57.12890625,-763.18359375,-95.21484375,-53.22265625,0.0
1734580942.952671,-89.35546875,-394.53125,262.6953125,-89.84375,0.0
1734580942.956577,-77.1484375,-511.71875,218.26171875,-75.1953125,0.0
1734580942.9605134,-49.8046875,-459.47265625,263.18359375,-46.875,0.0
1734580942.9644194,-30.76171875,-169.921875,325.1953125,-22.94921875,0.0
1734580942.9683256,-17.08984375,12.6953125,335.9375,-20.01953125,0.0
1734580942.9722316,-10.25390625,-86.9140625,319.82421875,-33.203125,0.0
1734580942.9761376,-20.5078125,-310.05859375,291.9921875,-17.08984375,0.0
1734580942.9800436,-34.1796875,-482.91015625,299.31640625,-16.6015625,0.0
1734580942.98395,-25.87890625,-320.80078125,349.609375,-27.83203125,0.0
1734580942.987856,-4.39453125,-136.23046875,365.234375,-0.9765625,0.0
1734580942.991762,-23.4375,-706.54296875,217.28515625,-4.8828125,0.0
1734580942.995668,-49.8046875,-551.7578125,339.35546875,-37.59765625,0.0
1734580942.9995742,-29.296875,120.60546875,469.23828125,-13.671875,0.0
1734580943.0034802,2.44140625,-166.015625,382.8125,22.94921875,0.0
1734580943.007385,2.9296875,-390.13671875,399.4140625,30.76171875,0.0
1734580943.0112913,-6.8359375,-35.15625,473.14453125,22.4609375,0.0
1734580943.0151973,-16.6015625,115.234375,470.21484375,0.48828125,0.0
1734580943.0191033,-20.99609375,-251.953125,353.02734375,-8.7890625,0.0
1734580943.0230093,-5.37109375,-403.80859375,366.2109375,12.6953125,0.0
1734580943.0269153,25.87890625,-487.3046875,385.25390625,38.57421875,0.0
1734580943.0308216,11.23046875,-324.21875,457.03125,8.7890625,0.0
1734580943.0347276,-20.5078125,-448.2421875,350.09765625,-13.18359375,0.0
1734580943.0386336,-13.18359375,-718.26171875,303.22265625,-2.9296875,0.0
1734580943.0425396,2.44140625,80.56640625,548.33984375,4.39453125,0.0
1734580943.0464458,26.3671875,-81.54296875,464.35546875,24.90234375,0.0
1734580943.0503519,22.94921875,-592.28515625,417.96875,26.3671875,0.0
1734580943.0542336,-6.8359375,-275.87890625,487.3046875,-10.7421875,0.0
1734580943.0581396,-6.34765625,163.0859375,523.92578125,-16.11328125,0.0
1734580943.0620456,9.27734375,23.92578125,459.47265625,12.6953125,0.0
1734580943.0659516,20.5078125,-298.33984375,437.98828125,24.4140625,0.0
1734580943.0698578,17.578125,-205.56640625,468.26171875,31.25,0.0
1734580943.0737638,-7.32421875,-313.4765625,419.43359375,7.8125,0.0
1734580943.0776699,-21.484375,-522.4609375,413.0859375,-11.23046875,0.0
1734580943.0815759,6.34765625,-707.03125,323.73046875,23.92578125,0.0
1734580943.0854821,41.015625,-445.3125,399.4140625,49.31640625,0.0
1734580943.0893881,32.2265625,89.84375,511.23046875,28.3203125,0.0
1734580943.0932941,-11.71875,-199.21875,412.59765625,-18.06640625,0.0
1734580943.0972002,-10.25390625,-434.08203125,417.96875,-1.46484375,0.0
1734580943.1010554,19.53125,-59.08203125,473.6328125,28.80859375,0.0
1734580943.1049614,25.390625,32.2265625,454.1015625,19.53125,0.0
1734580943.1088674,23.4375,-411.62109375,349.12109375,18.5546875,0.0
1734580943.1127734,6.8359375,-412.109375,375.0,2.44140625,0.0
1734580943.1166794,-6.34765625,-13.671875,456.0546875,-12.6953125,0.0
1734580943.1205857,5.37109375,-229.00390625,422.8515625,-13.18359375,0.0
1734580943.1244917,22.4609375,-779.296875,210.44921875,11.23046875,0.0
1734580943.1283977,11.71875,-757.32421875,214.35546875,22.94921875,0.0
1734580943.1323037,-10.25390625,-74.70703125,461.42578125,-18.06640625,0.0
1734580943.13621,-9.765625,73.73046875,430.17578125,-37.109375,0.0
1734580943.140116,0.48828125,-411.62109375,359.86328125,-3.41796875,0.0
1734580943.144022,17.08984375,-500.0,379.39453125,-8.30078125,0.0
1734580943.147861,13.18359375,-42.48046875,419.43359375,-18.06640625,0.0
1734580943.1517673,-16.6015625,-33.203125,371.58203125,-16.6015625,0.0
1734580943.1556733,-35.64453125,-276.85546875,356.4453125,-37.109375,0.0
1734580943.1595793,-29.296875,-158.203125,376.46484375,-33.69140625,0.0
1734580943.1634853,-5.859375,-156.73828125,319.3359375,-7.32421875,0.0
1734580943.1673915,-14.6484375,-529.78515625,268.06640625,-3.41796875,0.0
1734580943.1712976,-56.640625,-768.06640625,244.62890625,-48.33984375,0.0
1734580943.1752036,-60.05859375,-416.9921875,339.84375,-63.96484375,0.0
1734580943.1791096,-19.04296875,91.30859375,408.203125,-22.94921875,0.0
1734580943.1830158,-8.30078125,-193.84765625,299.8046875,-6.34765625,0.0
1734580943.1869218,5.859375,-647.4609375,259.27734375,4.8828125,0.0
1734580943.1908278,17.578125,-274.90234375,350.09765625,2.9296875,0.0
1734580943.194629,-2.44140625,109.375,364.74609375,-30.2734375,0.0
1734580943.198535,-1.953125,-270.99609375,223.14453125,-29.78515625,0.0
1734580943.202441,6.34765625,-497.55859375,198.73046875,-6.34765625,0.0
1734580943.206347,1.46484375,-102.05078125,330.078125,-14.16015625,0.0
1734580943.2102532,-12.20703125,-10.7421875,326.66015625,-17.578125,0.0
1734580943.2141593,-33.69140625,-579.1015625,65.4296875,-18.06640625,0.0
1734580943.2180653,-27.34375,-811.03515625,62.5,-26.3671875,0.0
1734580943.2219713,6.34765625,-441.40625,273.4375,9.27734375,0.0
1734580943.2258773,24.4140625,-288.0859375,259.765625,12.20703125,0.0
1734580943.2297835,1.953125,-536.62109375,131.8359375,-18.06640625,0.0
1734580943.2336895,-22.94921875,-802.734375,86.42578125,-22.94921875,0.0
1734580943.2375956,-26.85546875,-266.11328125,288.0859375,-20.5078125,0.0
1734580943.241589,-17.578125,-76.171875,264.6484375,-7.8125,0.0
1734580943.245495,3.41796875,-317.3828125,218.75,4.39453125,0.0
1734580943.249401,-0.9765625,-192.3828125,264.16015625,9.27734375,0.0
1734580943.253307,-22.94921875,61.5234375,288.0859375,-8.30078125,0.0
1734580943.257213,-19.04296875,-118.1640625,182.12890625,-13.671875,0.0
1734580943.2611194,-9.27734375,-660.15625,62.01171875,-7.32421875,0.0
1734580943.2650254,14.6484375,-608.88671875,176.26953125,12.20703125,0.0
1734580943.2689314,14.16015625,-93.26171875,263.18359375,21.484375,0.0
1734580943.2728374,-28.3203125,-171.38671875,196.77734375,-29.296875,0.0
1734580943.2767437,-50.29296875,-707.03125,57.6171875,-52.734375,0.0
1734580943.2806497,-51.7578125,-688.96484375,123.53515625,-37.59765625,0.0
1734580943.2845557,-17.08984375,-212.890625,245.1171875,-3.41796875,0.0
1734580943.2885168,0.48828125,-322.265625,152.83203125,20.99609375,0.0
1734580943.2924228,-26.3671875,-457.03125,140.625,-14.16015625,0.0
1734580943.2963288,-37.109375,-131.8359375,218.26171875,-39.55078125,0.0
1734580943.300235,-18.5546875,-20.99609375,242.67578125,-27.83203125,0.0
1734580943.304141,-4.8828125,-306.640625,121.58203125,-11.23046875,0.0
1734580943.308047,-6.34765625,-702.1484375,29.296875,0.48828125,0.0
1734580943.311953,-20.99609375,-537.109375,146.97265625,-24.4140625,0.0
1734580943.315859,-22.4609375,-133.7890625,285.15625,-51.26953125,0.0
1734580943.3197653,-12.20703125,-528.3203125,-18.06640625,-31.25,0.0
1734580943.3236713,3.90625,-752.44140625,-138.671875,3.41796875,0.0
1734580943.3275774,20.01953125,-359.86328125,187.5,15.13671875,0.0
1734580943.3314834,-5.859375,-308.10546875,161.1328125,-5.859375,0.0
1734580943.3354251,-24.4140625,-360.83984375,168.9453125,-20.01953125,0.0
1734580943.3393312,-16.11328125,-445.80078125,182.6171875,-15.13671875,0.0
1734580943.3432372,5.37109375,-110.83984375,220.21484375,-0.9765625,0.0
1734580943.3471432,22.94921875,-96.6796875,146.97265625,10.7421875,0.0
1734580943.3510494,5.859375,-432.12890625,68.359375,-7.32421875,0.0
1734580943.3549554,-13.18359375,-620.60546875,70.80078125,-9.765625,0.0
1734580943.3588614,-9.765625,-405.2734375,156.25,3.90625,0.0
1734580943.3627675,17.08984375,-257.32421875,157.71484375,3.90625,0.0
1734580943.3666735,22.94921875,-703.125,-82.51953125,9.765625,0.0
1734580943.3705797,1.953125,-417.96875,73.73046875,-3.90625,0.0
1734580943.3744857,-23.92578125,88.8671875,233.3984375,-31.25,0.0
1734580943.3783917,-18.5546875,-259.765625,75.68359375,-37.109375,0.0
1734580943.3823051,13.18359375,-409.66796875,92.28515625,-3.90625,0.0
1734580943.3862112,23.4375,-44.43359375,185.546875,6.8359375,0.0
1734580943.3901172,-5.859375,13.671875,175.29296875,-21.97265625,0.0
1734580943.3940232,-38.0859375,-418.45703125,33.203125,-32.71484375,0.0
1734580943.3979294,-34.1796875,-564.94140625,11.71875,-30.76171875,0.0
1734580943.4018354,-18.06640625,-519.04296875,44.921875,-26.3671875,0.0
1734580943.4057415,4.8828125,-428.22265625,144.04296875,-10.7421875,0.0
1734580943.4096475,-13.671875,-609.375,-93.75,0.0,0.0
1734580943.4135537,-56.15234375,-765.625,-236.81640625,-38.57421875,0.0
1734580943.4174597,-49.31640625,-61.5234375,204.1015625,-48.828125,0.0
1734580943.4213657,-30.2734375,-258.7890625,100.5859375,-32.71484375,0.0
1734580943.4252717,-12.20703125,-555.17578125,84.9609375,-40.0390625,0.0
1734580943.4291677,-12.20703125,-259.765625,187.01171875,-39.0625,0.0
1734580943.4330738,-24.90234375,-39.55078125,180.17578125,-25.87890625,0.0
1734580943.4369798,-39.0625,-74.70703125,125.9765625,-25.87890625,0.0
1734580943.440886,-38.57421875,-263.671875,104.4921875,-20.99609375,0.0
1734580943.444792,-9.27734375,-163.0859375,142.578125,-0.9765625,0.0
1734580943.448698,-2.9296875,-404.296875,38.57421875,0.9765625,0.0
1734580943.452604,-19.04296875,-706.0546875,-8.7890625,-11.71875,0.0
1734580943.4565103,-13.671875,-805.6640625,-120.60546875,-4.8828125,0.0
1734580943.4604163,-3.90625,-459.9609375,17.08984375,-4.8828125,0.0
1734580943.4643223,13.671875,83.984375,219.7265625,0.48828125,0.0
1734580943.4682283,13.18359375,-251.953125,30.2734375,6.8359375,0.0
1734580943.4721344,-6.8359375,-458.49609375,1.46484375,-9.765625,0.0
1734580943.4759881,-11.71875,-129.8828125,128.90625,-13.671875,0.0
1734580943.4798944,-9.27734375,-109.375,116.2109375,-8.7890625,0.0
1734580943.4838004,2.9296875,-483.88671875,-47.8515625,5.859375,0.0
1734580943.4877064,13.671875,-627.44140625,-43.9453125,20.5078125,0.0
1734580943.4916124,-4.39453125,-258.30078125,83.49609375,-17.578125,0.0
1734580943.4955184,-13.18359375,-435.05859375,47.8515625,-23.4375,0.0
1734580943.4994247,-10.25390625,-898.92578125,-226.07421875,-11.71875,0.0
1734580943.5033307,1.953125,-748.046875,-261.71875,-8.7890625,0.0
1734580943.5072367,12.20703125,-232.421875,100.09765625,-17.578125,0.0
1734580943.5111427,-13.18359375,-385.7421875,37.59765625,-43.9453125,0.0
1734580943.515049,-30.2734375,-645.01953125,-65.91796875,-34.66796875,0.0
1734580943.518955,-24.4140625,-555.6640625,-7.8125,-35.15625,0.0
1734580943.522776,-10.25390625,-146.484375,126.953125,-23.92578125,0.0
1734580943.526682,5.37109375,-121.58203125,62.5,-2.9296875,0.0
1734580943.530588,-6.8359375,-380.859375,28.3203125,-24.90234375,0.0
1734580943.5344942,-37.109375,-169.921875,94.23828125,-50.29296875,0.0
1734580943.5384002,-26.85546875,-46.875,83.984375,-39.55078125,0.0
1734580943.5423062,-8.30078125,-422.8515625,-39.0625,-23.4375,0.0
1734580943.5462122,-0.48828125,-847.65625,-273.92578125,-4.8828125,0.0
1734580943.5501184,-10.7421875,-501.953125,-74.21875,-1.46484375,0.0
1734580943.5540245,-32.2265625,69.3359375,160.15625,-41.015625,0.0
1734580943.5579305,-20.01953125,-175.78125,-3.41796875,-49.31640625,0.0
1734580943.5618365,4.8828125,-356.4453125,-34.66796875,-14.6484375,0.0
1734580943.5657425,19.53125,-159.66796875,45.41015625,0.9765625,0.0
1734580943.569547,3.90625,-165.0390625,54.6875,-9.765625,0.0
1734580943.5734532,-32.2265625,-348.6328125,-41.9921875,-34.66796875,0.0
1734580943.5773592,-36.1328125,-414.0625,-88.8671875,-36.62109375,0.0
1734580943.5812652,-4.8828125,-98.6328125,73.73046875,-1.953125,0.0
1734580943.5851712,23.4375,-99.609375,78.125,13.671875,0.0
1734580943.5890775,5.859375,-638.18359375,-242.1875,4.39453125,0.0
1734580943.5929835,-36.1328125,-804.19921875,-333.984375,-12.6953125,0.0
1734580943.5968895,-56.15234375,-152.34375,92.28515625,-41.9921875,0.0
1734580943.6007955,-33.203125,-19.53125,85.9375,-26.85546875,0.0
1734580943.6047015,-5.37109375,-427.24609375,-100.5859375,0.0,0.0
1734580943.6086078,-17.08984375,-620.1171875,-117.1875,-17.578125,0.0
1734580943.6125138,-53.7109375,-379.8828125,-11.23046875,-49.31640625,0.0
1734580943.6164987,-57.12890625,-128.41796875,42.96875,-55.17578125,0.0
1734580943.6204047,-33.203125,-290.0390625,-38.0859375,-52.24609375,0.0
1734580943.624311,-18.5546875,-462.890625,-69.82421875,-37.59765625,0.0
1734580943.628217,-25.390625,-287.109375,11.23046875,-20.01953125,0.0
1734580943.632123,-56.640625,-117.1875,23.92578125,-44.921875,0.0
1734580943.636029,-73.2421875,-567.3828125,-187.98828125,-64.453125,0.0
1734580943.6399353,-56.640625,-550.78125,-102.5390625,-57.12890625,0.0
1734580943.6438413,-25.390625,-14.6484375,136.71875,-40.0390625,0.0
1734580943.6477473,-11.23046875,-103.515625,5.37109375,-18.06640625,0.0
1734580943.6516533,-31.73828125,-644.04296875,-239.2578125,-37.109375,0.0
1734580943.6555593,-57.12890625,-319.82421875,-32.71484375,-62.98828125,0.0
1734580943.6594656,-35.64453125,97.16796875,130.37109375,-40.52734375,0.0
1734580943.6634314,-3.41796875,-293.45703125,-82.03125,-18.5546875,0.0
1734580943.6673377,-4.8828125,-416.9921875,-106.93359375,-6.8359375,0.0
1734580943.6712437,-31.73828125,-34.1796875,79.1015625,-15.625,0.0
1734580943.6751497,-51.26953125,61.03515625,64.94140625,-33.203125,0.0
1734580943.6790557,-34.66796875,-346.19140625,-120.1171875,-24.4140625,0.0
1734580943.682962,-11.71875,-727.5390625,-297.36328125,-0.9765625,0.0
1734580943.686868,-1.46484375,-603.02734375,-245.60546875,-7.32421875,0.0
1734580943.690774,-18.06640625,-231.93359375,40.52734375,-33.69140625,0.0
1734580943.69468,-44.921875,-496.09375,-175.78125,-37.109375,0.0
1734580943.698586,-37.59765625,-835.44921875,-403.3203125,-32.71484375,0.0
1734580943.7024922,-10.25390625,-465.8203125,-54.6875,-28.80859375,0.0
1734580943.7063982,8.7890625,-301.26953125,12.20703125,-4.39453125,0.0
1734580943.7103343,0.0,-224.12109375,14.6484375,-12.20703125,0.0
1734580943.7142403,-33.203125,-108.3984375,23.92578125,-33.203125,0.0
1734580943.7181466,-39.55078125,39.55078125,70.80078125,-36.1328125,0.0
1734580943.7220526,-20.5078125,-72.75390625,5.859375,-28.80859375,0.0
1734580943.7259586,-4.8828125,-314.94140625,-107.91015625,-13.671875,0.0
1734580943.7298646,-13.671875,-485.3515625,-111.328125,-24.4140625,0.0
1734580943.7337706,-45.8984375,-405.76171875,-18.06640625,-42.48046875,0.0
1734580943.7376769,-54.19921875,-346.19140625,-43.9453125,-46.38671875,0.0
1734580943.7415829,-38.57421875,-727.5390625,-270.01953125,-28.80859375,0.0
1734580943.745489,-12.6953125,-371.09375,-32.2265625,-21.97265625,0.0
1734580943.749395,-2.9296875,290.0390625,197.75390625,-23.4375,0.0
1734580943.7533011,-36.62109375,18.5546875,7.8125,-39.55078125,0.0
1734580943.7572155,-60.546875,-250.48828125,-50.29296875,-49.8046875,0.0
1734580943.7611215,-32.71484375,110.83984375,116.69921875,-20.99609375,0.0
1734580943.7650275,8.30078125,254.8828125,124.0234375,4.39453125,0.0
1734580943.7689335,5.859375,-60.05859375,7.8125,0.48828125,0.0
1734580943.7728398,-41.9921875,-261.71875,-50.78125,-28.80859375,0.0
1734580943.7767458,-61.03515625,-345.703125,-59.08203125,-47.8515625,0.0
1734580943.7806518,-20.5078125,-345.703125,10.7421875,-17.578125,0.0
1734580943.7845578,32.2265625,-658.203125,-208.0078125,23.92578125,0.0
1734580943.788464,23.92578125,-677.24609375,-253.90625,-8.30078125,0.0
1734580943.79237,-24.90234375,42.48046875,124.51171875,-54.19921875,0.0
1734580943.796276,-41.50390625,-286.62109375,-109.375,-61.5234375,0.0
1734580943.800182,-22.94921875,-769.53125,-304.6875,-53.7109375,0.0
1734580943.8040628,12.20703125,-424.31640625,-62.5,-39.0625,0.0
1734580943.807969,22.94921875,95.21484375,130.37109375,-45.41015625,0.0
1734580943.811875,-9.27734375,-42.48046875,4.8828125,-62.98828125,0.0
1734580943.815781,-41.50390625,-376.46484375,-152.83203125,-83.984375,0.0
1734580943.8196871,-29.296875,-274.4140625,-67.87109375,-91.796875,0.0
1734580943.8235934,15.625,-359.86328125,-41.015625,-32.2265625,0.0
1734580943.8274994,32.71484375,-456.0546875,-52.734375,-7.32421875,0.0
1734580943.8314054,-10.25390625,-711.42578125,-192.3828125,-49.31640625,0.0
1734580943.8353114,-45.41015625,-475.09765625,-76.171875,-70.80078125,0.0
1734580943.8392174,-46.38671875,125.9765625,142.578125,-71.2890625,0.0
1734580943.8431237,-16.11328125,-138.18359375,5.37109375,-52.24609375,0.0
1734580943.8470297,23.92578125,-278.80859375,-21.97265625,-23.4375,0.0
1734580943.8509,-0.48828125,36.1328125,95.703125,-36.62109375,0.0
1734580943.854806,-46.38671875,-204.1015625,-42.48046875,-72.75390625,0.0
1734580943.858712,-42.48046875,-621.58203125,-207.51953125,-67.3828125,0.0
1734580943.862618,-1.46484375,-388.671875,-73.2421875,-45.41015625,0.0
1734580943.8665242,35.15625,15.13671875,69.82421875,-21.484375,0.0
1734580943.8704302,7.32421875,-229.00390625,-4.8828125,-23.4375,0.0
1734580943.8743362,-50.29296875,-764.16015625,-306.640625,-48.33984375,0.0
1734580943.8782423,-49.8046875,-725.09765625,-285.15625,-53.7109375,0.0
1734580943.8821483,-6.8359375,-31.73828125,124.0234375,-38.57421875,0.0
1734580943.8860545,32.2265625,194.82421875,137.20703125,3.41796875,0.0
1734580943.8899605,25.390625,-264.6484375,-61.5234375,13.671875,0.0
1734580943.8938665,-37.59765625,-399.4140625,-68.84765625,-37.109375,0.0
1734580943.8976948,-55.17578125,-0.9765625,90.33203125,-63.4765625,0.0
1734580943.9016008,-21.484375,-47.36328125,23.4375,-40.0390625,0.0
1734580943.9055068,14.6484375,-230.95703125,42.48046875,-13.671875,0.0
1734580943.909413,7.32421875,-99.609375,74.70703125,-12.6953125,0.0
1734580943.913319,-47.36328125,-242.67578125,-3.41796875,-48.33984375,0.0
1734580943.9172251,-65.91796875,-514.16015625,-121.58203125,-53.7109375,0.0
1734580943.9211311,-45.8984375,-767.578125,-300.78125,-35.64453125,0.0
1734580943.9250374,1.46484375,-425.29296875,-70.80078125,-2.9296875,0.0
1734580943.9289434,26.85546875,191.89453125,180.17578125,10.7421875,0.0
1734580943.9328494,-25.390625,-7.32421875,40.52734375,-32.2265625,0.0
1734580943.9367554,-50.78125,-329.1015625,-68.84765625,-48.33984375,0.0
1734580943.9406614,-21.97265625,-237.3046875,14.16015625,-35.64453125,0.0
1734580943.944678,10.25390625,192.87109375,171.38671875,-15.625,0.0
1734580943.948584,17.578125,-74.70703125,-5.37109375,5.859375,0.0
1734580943.9524903,-19.04296875,-475.5859375,-159.1796875,-0.48828125,0.0
1734580943.9563963,-33.203125,-18.06640625,67.3828125,-27.83203125,0.0
1734580943.9603024,-17.08984375,129.8828125,134.765625,-28.3203125,0.0
1734580943.9642084,17.08984375,-443.84765625,-157.2265625,7.32421875,0.0
1734580943.9681144,42.48046875,-797.36328125,-281.73828125,28.80859375,0.0
1734580943.9720206,6.34765625,-158.203125,101.07421875,-5.37109375,0.0
1734580943.9759266,-28.3203125,139.16015625,108.88671875,-41.50390625,0.0
1734580943.9798326,-28.3203125,-212.40234375,-63.4765625,-39.55078125,0.0
1734580943.9837387,-2.44140625,-477.05078125,-80.56640625,-21.97265625,0.0
1734580943.987645,28.80859375,-190.4296875,69.82421875,1.953125,0.0
1734580943.9916365,-0.48828125,101.5625,95.703125,-17.08984375,0.0
1734580943.9955425,-47.36328125,-125.0,-6.34765625,-50.29296875,0.0
1734580943.9994485,-43.45703125,-63.4765625,46.38671875,-40.52734375,0.0
1734580944.0033545,3.90625,185.05859375,112.3046875,-6.8359375,0.0
1734580944.0072608,40.52734375,110.83984375,89.84375,2.44140625,0.0
1734580944.0111668,13.18359375,-353.02734375,-104.98046875,-16.6015625,0.0
1734580944.0150728,-51.26953125,-434.08203125,-131.34765625,-44.43359375,0.0
1734580944.0189788,-53.22265625,11.23046875,76.66015625,-48.828125,0.0
1734580944.0228848,-13.18359375,-57.12890625,28.3203125,-29.78515625,0.0
1734580944.026791,24.4140625,-686.03515625,-243.1640625,5.859375,0.0
1734580944.030697,6.34765625,-390.625,-41.9921875,3.41796875,0.0
1734580944.034603,-49.31640625,174.31640625,147.4609375,-35.64453125,0.0
1734580944.0385594,-65.4296875,-200.1953125,-66.40625,-47.8515625,0.0
1734580944.0424654,-32.2265625,-378.41796875,-82.03125,-39.55078125,0.0
1734580944.0463715,17.08984375,64.453125,113.28125,-15.13671875,0.0
1734580944.0502777,14.6484375,197.75390625,115.72265625,-5.859375,0.0
1734580944.0541837,-45.8984375,-299.31640625,-117.1875,-46.38671875,0.0
1734580944.0580897,-58.59375,-766.6015625,-330.56640625,-63.96484375,0.0
1734580944.0619957,-14.6484375,-547.36328125,-172.8515625,-23.92578125,0.0
1734580944.065902,23.4375,-34.1796875,118.65234375,-2.44140625,0.0
1734580944.069808,-5.37109375,-425.78125,-206.0546875,-19.53125,0.0
1734580944.073714,-69.3359375,-775.87890625,-351.07421875,-39.55078125,0.0
1734580944.07762,-74.70703125,-452.1484375,-106.4453125,-57.12890625,0.0
1734580944.0815263,-28.80859375,-449.70703125,-146.97265625,-39.55078125,0.0
1734580944.0854647,14.6484375,-376.953125,-34.66796875,-1.46484375,0.0
1734580944.0893707,18.5546875,-113.76953125,45.41015625,1.46484375,0.0
1734580944.0932767,-21.484375,145.99609375,108.3984375,-22.4609375,0.0
1734580944.097183,-51.26953125,-22.94921875,19.04296875,-34.1796875,0.0
1734580944.101089,-29.78515625,-312.98828125,-76.66015625,-26.3671875,0.0
1734580944.104995,12.6953125,-386.71875,-5.859375,-17.08984375,0.0
1734580944.108901,12.6953125,-95.703125,139.6484375,-16.6015625,0.0
1734580944.1128073,-34.1796875,96.19140625,82.03125,-37.59765625,0.0
1734580944.1167133,-61.03515625,-538.57421875,-197.75390625,-43.45703125,0.0
1734580944.1206193,-48.828125,-423.33984375,-28.3203125,-43.9453125,0.0
1734580944.1245253,0.9765625,252.44140625,175.78125,-3.41796875,0.0
1734580944.1284316,15.625,58.59375,44.921875,17.08984375,0.0
1734580944.132338,-33.203125,-182.12890625,-7.32421875,-26.3671875,0.0
1734580944.136244,-63.4765625,79.58984375,90.8203125,-46.875,0.0
1734580944.14015,-38.57421875,19.04296875,58.59375,-34.1796875,0.0
1734580944.1440563,2.9296875,-358.88671875,-58.10546875,3.90625,0.0
1734580944.1479623,23.92578125,-228.02734375,4.8828125,22.4609375,0.0
1734580944.1518683,-19.53125,-172.8515625,8.7890625,-21.484375,0.0
1734580944.1557744,-61.03515625,-371.58203125,-47.8515625,-44.43359375,0.0
1734580944.1596804,-47.36328125,-704.58984375,-283.203125,-35.64453125,0.0
1734580944.1635866,-12.20703125,-676.7578125,-254.39453125,-15.13671875,0.0
1734580944.1674926,22.4609375,175.78125,175.29296875,7.8125,0.0
1734580944.1713986,-3.41796875,30.76171875,72.75390625,-7.8125,0.0
1734580944.1753047,-53.7109375,-388.671875,-75.1953125,-43.45703125,0.0
1734580944.1792557,-42.96875,-149.4140625,23.92578125,-29.78515625,0.0
1734580944.1831617,-2.9296875,187.98828125,150.87890625,-14.6484375,0.0
1734580944.1870677,2.9296875,176.7578125,94.23828125,-16.6015625,0.0
1734580944.1909738,-19.53125,-36.62109375,72.265625,-22.4609375,0.0
1734580944.19488,-58.59375,-82.51953125,42.96875,-46.875,0.0
1734580944.198786,-58.59375,-307.12890625,-141.11328125,-40.0390625,0.0
1734580944.202692,-25.390625,-424.31640625,-193.359375,-25.87890625,0.0
1734580944.206598,-2.9296875,-679.19921875,-230.95703125,-12.6953125,0.0
1734580944.2105043,-23.92578125,-354.4921875,-35.15625,-25.87890625,0.0
1734580944.2144103,-65.4296875,192.87109375,137.6953125,-56.640625,0.0
1734580944.2183163,-69.3359375,-145.5078125,-32.2265625,-70.3125,0.0
1734580944.2222223,-32.71484375,-263.18359375,-69.3359375,-41.015625,0.0
1734580944.226081,13.18359375,128.41796875,105.46875,17.578125,0.0
1734580944.2299871,-7.32421875,300.29296875,143.5546875,-1.953125,0.0
1734580944.2338932,-69.82421875,-170.41015625,-98.6328125,-59.08203125,0.0
1734580944.2377992,-79.1015625,-364.2578125,-162.109375,-64.94140625,0.0
1734580944.2417052,-40.0390625,14.6484375,35.64453125,-45.41015625,0.0
1734580944.2456112,9.27734375,-73.2421875,56.15234375,-8.7890625,0.0
1734580944.2495174,5.37109375,-584.47265625,-200.68359375,-5.859375,0.0
1734580944.2534235,-52.24609375,-733.88671875,-322.75390625,-27.83203125,0.0
1734580944.2573295,-73.2421875,-300.29296875,-29.296875,-56.640625,0.0
1734580944.2612355,-37.109375,-105.95703125,27.34375,-55.6640625,0.0
1734580944.2651417,13.671875,-246.09375,-63.96484375,-17.08984375,0.0
1734580944.2690477,25.390625,-211.42578125,-26.85546875,-10.7421875,0.0
1734580944.272883,-24.90234375,156.73828125,106.4453125,-34.1796875,0.0
1734580944.276789,-54.6875,44.43359375,8.30078125,-48.828125,0.0
1734580944.2806952,-20.01953125,-199.70703125,-104.00390625,-26.3671875,0.0
1734580944.2846012,22.94921875,-99.12109375,-42.96875,-2.44140625,0.0
1734580944.2885072,17.578125,41.50390625,10.7421875,-2.44140625,0.0
1734580944.2924132,-32.71484375,-385.25390625,-223.14453125,-27.34375,0.0
1734580944.2963192,-60.546875,-865.234375,-429.6875,-29.296875,0.0
1734580944.3002255,-35.64453125,-489.2578125,-181.640625,-22.4609375,0.0
1734580944.3041315,21.484375,107.421875,100.09765625,1.46484375,0.0
1734580944.3080375,32.2265625,-11.23046875,10.25390625,18.5546875,0.0
1734580944.3119435,-23.4375,-274.90234375,-85.9375,-19.53125,0.0
1734580944.3158498,-53.7109375,-349.609375,-179.19921875,-46.38671875,0.0
1734580944.319652,-40.0390625,-147.4609375,-90.8203125,-35.15625,0.0
1734580944.323558,-3.90625,-185.05859375,-56.15234375,-7.8125,0.0
1734580944.327464,15.13671875,-296.875,-113.76953125,-2.44140625,0.0
1734580944.33137,-16.11328125,-32.71484375,25.87890625,-35.15625,0.0
1734580944.3352764,-48.828125,10.25390625,6.8359375,-62.98828125,0.0
1734580944.3391824,-44.43359375,-558.10546875,-346.19140625,-39.55078125,0.0
1734580944.3430884,-5.37109375,-724.12109375,-332.03125,-4.39453125,0.0
1734580944.3469944,38.57421875,18.06640625,99.609375,14.16015625,0.0
1734580944.3509007,0.9765625,82.03125,36.1328125,-21.484375,0.0
1734580944.3548067,-51.7578125,-374.0234375,-149.4140625,-64.453125,0.0
1734580944.3587127,-42.48046875,-616.69921875,-244.62890625,-51.26953125,0.0
1734580944.3626187,-5.37109375,-375.48828125,-168.9453125,-25.390625,0.0
1734580944.3666046,0.0,12.6953125,25.390625,2.9296875,0.0
1734580944.3705106,0.0,-233.88671875,-111.328125,-34.66796875,0.0
1734580944.3744168,0.0,-333.49609375,-141.11328125,-87.40234375,0.0
1734580944.3783228,0.0,53.22265625,45.8984375,-69.82421875,0.0
1734580944.3822289,0.0,56.15234375,22.94921875,-30.76171875,0.0
1734580944.3861349,0.0,-386.71875,-158.69140625,-4.8828125,0.0
1734580944.390041,0.0,-376.953125,-114.74609375,-38.57421875,0.0
1734580944.3939471,0.0,223.14453125,131.34765625,-78.61328125,0.0
1734580944.3978531,0.0,137.20703125,20.5078125,-71.2890625,0.0
1734580944.4017591,0.0,-500.0,-210.44921875,-48.828125,0.0
1734580944.4056652,0.0,-210.9375,-12.6953125,-20.01953125,0.0
1734580944.4095714,0.0,342.28515625,176.7578125,-28.3203125,0.0
1734580944.4135327,-87.890625,-15.13671875,-43.9453125,-89.35546875,0.0
1734580944.4174387,-127.44140625,-279.78515625,-123.046875,-113.28125,0.0
1734580944.4213448,-101.07421875,66.89453125,49.8046875,-100.5859375,0.0
1734580944.425251,-73.2421875,220.703125,101.5625,-87.890625,0.0
1734580944.429157,-87.890625,-135.7421875,-61.5234375,-107.421875,0.0
1734580944.433063,-156.25,-527.34375,-279.78515625,-159.66796875,0.0
1734580944.436969,-195.80078125,-459.9609375,-267.578125,-190.4296875,0.0
1734580944.440875,-194.3359375,9.27734375,9.765625,-214.35546875,0.0
1734580944.4447813,-163.0859375,-381.8359375,-211.9140625,-208.49609375,0.0
1734580944.4486873,-162.109375,-704.58984375,-317.3828125,-200.68359375,0.0
1734580944.4525933,-228.515625,-204.1015625,2.44140625,-244.140625,0.0
1734580944.4564993,-274.4140625,-189.94140625,-72.75390625,-282.71484375,0.0
1734580944.4604344,-253.90625,-153.80859375,-39.55078125,-274.90234375,0.0
1734580944.4643407,-210.44921875,-4.39453125,24.90234375,-247.55859375,0.0
1734580944.4682467,-197.265625,271.484375,132.32421875,-229.4921875,0.0
1734580944.4721527,-239.2578125,217.28515625,55.17578125,-249.51171875,0.0
1734580944.4760587,-270.01953125,-125.0,-51.26953125,-268.06640625,0.0
1734580944.4799647,-231.4453125,-385.25390625,-154.78515625,-230.95703125,0.0
1734580944.483871,-175.78125,-211.42578125,-53.22265625,-183.59375,0.0
1734580944.487777,-148.4375,-66.89453125,60.05859375,-151.3671875,0.0
1734580944.491683,-164.0625,-601.5625,-208.984375,-145.01953125,0.0
1734580944.495589,-172.36328125,-390.13671875,-62.98828125,-139.16015625,0.0
1734580944.4994953,-143.06640625,257.32421875,158.69140625,-105.46875,0.0
1734580944.5034013,-89.84375,8.30078125,30.76171875,-60.05859375,0.0
1734580944.507308,-45.8984375,-97.65625,28.3203125,-23.92578125,0.0
1734580944.511214,-68.84765625,256.34765625,140.625,-51.7578125,0.0
1734580944.51512,-93.26171875,279.78515625,123.046875,-62.5,0.0
1734580944.5190263,-71.2890625,-89.35546875,-26.3671875,-28.80859375,0.0
1734580944.5229323,-23.4375,-269.53125,-57.12890625,4.39453125,0.0
1734580944.5268383,24.90234375,-191.40625,29.296875,37.59765625,0.0
1734580944.5307443,-10.7421875,-193.84765625,68.359375,26.3671875,0.0
1734580944.5346503,-48.33984375,-580.078125,-208.0078125,4.8828125,0.0
1734580944.5385566,-12.6953125,-699.21875,-276.85546875,29.296875,0.0
1734580944.5424626,39.55078125,31.25,118.65234375,66.40625,0.0
1734580944.5463686,85.44921875,-23.92578125,65.91796875,83.49609375,0.0
1734580944.5502746,57.12890625,-230.95703125,21.97265625,49.8046875,0.0
1734580944.554156,0.0,35.64453125,78.61328125,3.41796875,0.0
1734580944.558062,0.0,263.671875,138.671875,13.671875,0.0
1734580944.561968,0.0,113.28125,48.33984375,72.265625,0.0
1734580944.5658743,0.0,-38.57421875,51.26953125,128.90625,0.0
1734580944.5697803,0.0,113.28125,96.6796875,76.171875,0.0
1734580944.5736864,0.0,-99.609375,-21.484375,-21.484375,0.0
1734580944.5775924,0.0,-349.12109375,-46.875,-14.16015625,0.0
1734580944.5814986,0.0,-666.50390625,-191.40625,44.921875,0.0
1734580944.5854046,0.0,-299.31640625,-20.01953125,77.1484375,0.0
1734580944.5893106,0.0,403.80859375,209.9609375,77.63671875,0.0
1734580944.5932167,0.0,63.96484375,16.6015625,64.94140625,0.0
1734580944.597123,0.0,-186.5234375,-69.3359375,59.5703125,0.0
1734580944.600982,53.22265625,-120.1171875,19.04296875,79.58984375,0.0
1734580944.604888,92.28515625,28.80859375,87.40234375,108.88671875,0.0
1734580944.6087942,84.47265625,14.6484375,30.76171875,105.95703125,0.0
1734580944.6127002,46.875,-94.7265625,-1.953125,79.58984375,0.0
1734580944.6166062,35.64453125,57.6171875,21.97265625,81.54296875,0.0
1734580944.6205122,56.640625,-203.125,-157.2265625,98.14453125,0.0
1734580944.6244183,96.6796875,-672.36328125,-360.83984375,119.140625,0.0
1734580944.6283245,88.8671875,-701.66015625,-250.0,113.28125,0.0
1734580944.6322305,47.36328125,47.8515625,92.28515625,69.3359375,0.0
1734580944.6361365,24.90234375,200.1953125,81.54296875,58.59375,0.0
1734580944.6400425,27.34375,-312.5,-120.1171875,62.98828125,0.0
1734580944.6439488,65.4296875,-357.91015625,-101.5625,74.21875,0.0
1734580944.6477818,82.03125,213.8671875,143.06640625,95.703125,0.0
1734580944.6516879,40.52734375,219.7265625,67.3828125,56.15234375,0.0
1734580944.6555939,18.06640625,-187.5,-104.98046875,29.78515625,0.0
1734580944.6595,27.83203125,-327.1484375,-92.7734375,45.41015625,0.0
1734580944.663406,48.828125,-70.80078125,24.4140625,60.546875,0.0
1734580944.6673121,53.7109375,-101.5625,13.671875,63.4765625,0.0
1734580944.6712182,25.87890625,-665.52734375,-223.6328125,40.0390625,0.0
1734580944.6751242,10.7421875,-447.75390625,-132.32421875,20.99609375,0.0
1734580944.6790302,21.484375,228.02734375,141.11328125,33.203125,0.0
1734580944.6829364,51.7578125,36.1328125,15.13671875,52.734375,0.0
1734580944.6868424,40.0390625,-167.48046875,-37.59765625,32.71484375,0.0
1734580944.6907485,-2.44140625,136.23046875,87.890625,10.7421875,0.0
1734580944.694563,4.8828125,261.23046875,126.953125,17.578125,0.0
1734580944.698469,16.6015625,-32.2265625,-4.39453125,31.25,0.0
1734580944.7023752,30.2734375,-161.1328125,-56.15234375,39.0625,0.0
1734580944.7062812,37.109375,157.71484375,79.58984375,43.45703125,0.0
1734580944.7101872,14.16015625,236.328125,97.16796875,23.92578125,0.0
1734580944.7140932,1.953125,-398.92578125,-232.91015625,20.01953125,0.0
1734580944.7179995,6.8359375,-907.2265625,-478.515625,26.3671875,0.0
1734580944.7219055,23.92578125,-324.21875,-104.98046875,21.484375,0.0
1734580944.7258115,20.99609375,110.3515625,93.75,19.04296875,0.0
1734580944.7297175,2.44140625,-215.8203125,-63.96484375,7.32421875,0.0
1734580944.7336235,9.27734375,-462.890625,-88.8671875,-3.41796875,0.0
1734580944.7375298,26.85546875,-127.9296875,42.48046875,0.0,0.0
1734580944.7415183,30.2734375,62.01171875,40.52734375,9.27734375,0.0
1734580944.7454243,23.4375,-162.109375,-44.43359375,13.671875,0.0
1734580944.7493303,8.7890625,-71.2890625,41.50390625,8.30078125,0.0
1734580944.7532363,-10.7421875,182.12890625,127.44140625,-14.16015625,0.0
1734580944.7571425,-13.671875,146.97265625,70.3125,-27.83203125,0.0
1734580944.7610486,-9.27734375,-390.13671875,-156.25,-15.625,0.0
1734580944.7649546,-10.25390625,-386.71875,-96.19140625,-12.6953125,0.0
1734580944.7688606,-13.18359375,96.6796875,91.796875,-29.296875,0.0
1734580944.7727668,-13.671875,-96.19140625,-26.3671875,-28.80859375,0.0
1734580944.7766728,-8.7890625,-604.00390625,-194.3359375,-11.23046875,0.0
1734580944.7805789,-6.8359375,-395.99609375,-92.7734375,-11.71875,0.0
1734580944.7844849,-15.13671875,-81.54296875,31.73828125,-31.25,0.0
1734580944.7884524,-23.4375,-300.78125,-61.03515625,-45.8984375,0.0
1734580944.7923584,-33.203125,-331.0546875,-80.56640625,-60.05859375,0.0
1734580944.7962646,-31.25,89.84375,102.5390625,-55.17578125,0.0
1734580944.8001707,-15.13671875,199.21875,118.65234375,-42.96875,0.0
1734580944.8040767,-21.484375,-163.0859375,-60.546875,-46.38671875,0.0
1734580944.8079827,-24.90234375,-642.578125,-291.015625,-48.33984375,0.0
1734580944.8118887,-11.23046875,-418.45703125,-123.53515625,-41.9921875,0.0
1734580944.815795,-2.44140625,106.4453125,154.78515625,-32.2265625,0.0
1734580944.819701,-1.953125,-427.734375,-230.46875,-24.90234375,0.0
1734580944.823607,-9.765625,-777.34375,-378.90625,-21.484375,0.0
1734580944.827513,-13.671875,-347.16796875,-32.2265625,-36.1328125,0.0
1734580944.8314192,-19.04296875,-436.03515625,-160.15625,-41.50390625,0.0
1734580944.8353548,-13.671875,-256.34765625,-13.671875,-26.85546875,0.0
1734580944.839261,-16.11328125,109.86328125,131.34765625,-34.66796875,0.0
1734580944.843167,-10.25390625,258.7890625,85.44921875,-19.53125,0.0
1734580944.847073,-11.71875,98.14453125,26.85546875,-18.06640625,0.0
1734580944.850979,-27.34375,-130.37109375,5.859375,-45.41015625,0.0
1734580944.8548853,-25.390625,-237.79296875,-8.7890625,-47.8515625,0.0
1734580944.8587914,-30.76171875,-69.82421875,36.62109375,-35.64453125,0.0
1734580944.8626974,-49.31640625,92.7734375,18.06640625,-49.31640625,0.0
1734580944.8666034,-79.58984375,-563.4765625,-256.8359375,-79.58984375,0.0
1734580944.8705094,-98.14453125,-345.21484375,-62.98828125,-107.421875,0.0
1734580944.8744156,-111.81640625,407.71484375,165.52734375,-133.30078125,0.0
1734580944.8783216,-140.625,65.4296875,-4.8828125,-143.5546875,0.0
1734580944.8822305,-147.94921875,-202.1484375,-96.19140625,-135.25390625,0.0
1734580944.8861365,-164.0625,61.03515625,40.0390625,-162.109375,0.0
1734580944.8900425,-198.2421875,-121.09375,-36.1328125,-206.54296875,0.0
1734580944.8939486,-202.63671875,-361.328125,-126.46484375,-220.703125,0.0
1734580944.8978546,-190.91796875,-206.54296875,-64.94140625,-222.65625,0.0
1734580944.9017608,-200.68359375,-291.9921875,-168.9453125,-220.703125,0.0
1734580944.9056668,-200.1953125,-193.359375,-61.03515625,-216.30859375,0.0
1734580944.9095728,-190.4296875,-437.01171875,-168.9453125,-225.5859375,0.0
1734580944.9134789,-166.50390625,-684.5703125,-263.18359375,-197.265625,0.0
1734580944.917385,-132.32421875,106.93359375,138.18359375,-165.0390625,0.0
1734580944.921291,-97.16796875,-115.234375,-17.578125,-135.25390625,0.0
1734580944.9251971,-76.171875,-502.44140625,-198.73046875,-101.5625,0.0
1734580944.9290798,-79.1015625,-72.265625,4.39453125,-100.5859375,0.0
1734580944.9329858,-66.89453125,313.96484375,158.203125,-97.65625,0.0
1734580944.9368918,-36.1328125,217.7734375,59.08203125,-76.171875,0.0
1734580944.940798,-20.01953125,-77.1484375,1.46484375,-50.29296875,0.0
1734580944.944704,-21.484375,-125.9765625,10.7421875,-28.3203125,0.0
1734580944.94861,-8.7890625,-253.41796875,-20.01953125,-23.92578125,0.0
1734580944.952516,13.18359375,-312.5,15.13671875,-19.04296875,0.0
1734580944.9564223,16.6015625,-628.90625,-167.48046875,-11.71875,0.0
1734580944.9603283,20.01953125,-427.24609375,-79.1015625,1.953125,0.0
1734580944.9642344,19.04296875,132.8125,117.67578125,10.7421875,0.0
1734580944.9681404,37.109375,-39.0625,8.30078125,12.6953125,0.0
1734580944.9720466,47.36328125,-41.015625,27.34375,6.8359375,0.0
1734580944.9759023,47.36328125,297.36328125,131.34765625,5.37109375,0.0
1734580944.9798083,46.875,304.19921875,128.41796875,18.06640625,0.0
1734580944.9837143,34.1796875,-210.44921875,-133.30078125,33.203125,0.0
1734580944.9876204,35.64453125,-345.21484375,-163.0859375,31.73828125,0.0
1734580944.9915266,48.33984375,63.96484375,72.265625,28.80859375,0.0
1734580944.9954326,57.12890625,-93.75,34.1796875,35.15625,0.0
1734580944.9993386,37.109375,-605.46875,-258.30078125,46.875,0.0
1734580945.0032446,13.18359375,-931.15234375,-514.6484375,35.64453125,0.0
1734580945.007151,16.6015625,-350.5859375,-121.09375,27.34375,0.0
1734580945.011057,27.83203125,222.65625,144.04296875,28.80859375,0.0
1734580945.014963,28.80859375,-82.03125,-62.98828125,26.85546875,0.0
1734580945.018869,20.01953125,-255.37109375,-121.58203125,32.2265625,0.0
1734580945.0227036,4.39453125,29.78515625,30.2734375,15.13671875,0.0
1734580945.0266097,-18.5546875,50.78125,0.0,1.953125,0.0
1734580945.0305157,-28.3203125,-111.328125,-62.01171875,-25.87890625,0.0
1734580945.034422,-38.57421875,111.328125,41.015625,-46.38671875,0.0
1734580945.038328,-67.87109375,168.9453125,25.390625,-58.10546875,0.0
1734580945.042234,-98.6328125,-293.9453125,-235.83984375,-84.9609375,0.0
1734580945.04614,-125.48828125,-784.66796875,-428.7109375,-94.7265625,0.0
1734580945.0500462,-132.32421875,-444.3359375,-191.40625,-123.53515625,0.0
1734580945.0539522,-145.5078125,312.01171875,126.953125,-148.92578125,0.0
1734580945.0578582,-190.91796875,48.828125,-60.05859375,-175.78125,0.0
1734580945.0617642,-223.14453125,-490.72265625,-306.15234375,-198.2421875,0.0
1734580945.0656705,-226.5625,-281.73828125,-278.3203125,-199.21875,0.0
1734580945.0694752,-231.4453125,127.44140625,-43.45703125,-218.75,0.0
1734580945.0733812,-248.046875,-55.6640625,-43.9453125,-232.421875,0.0
1734580945.0772872,-267.578125,-309.08203125,-167.96875,-237.3046875,0.0
1734580945.0811934,-266.11328125,-78.61328125,-51.26953125,-230.46875,0.0
1734580945.0850995,-248.53515625,3.90625,-129.39453125,-214.35546875,0.0
1734580945.0890055,-220.21484375,-565.91796875,-413.57421875,-193.84765625,0.0
1734580945.0929115,-198.2421875,-691.89453125,-326.66015625,-172.8515625,0.0
1734580945.0968177,-207.03125,1.46484375,95.703125,-163.0859375,0.0
1734580945.1007237,-193.84765625,108.88671875,46.875,-133.30078125,0.0
1734580945.1046298,-175.78125,-349.609375,-167.48046875,-118.65234375,0.0
1734580945.1085358,-145.5078125,-623.046875,-254.39453125,-83.0078125,0.0
1734580945.1124418,-100.09765625,-182.12890625,-47.8515625,-44.921875,0.0
1734580945.1164331,-84.9609375,60.546875,70.3125,-46.875,0.0
1734580945.1203392,-88.37890625,-261.23046875,-134.27734375,-40.52734375,0.0
1734580945.1242452,-82.51953125,-243.65234375,-100.5859375,-30.2734375,0.0
1734580945.1281512,-64.453125,58.59375,79.1015625,-17.578125,0.0
1734580945.1320574,-45.41015625,27.83203125,41.50390625,-2.9296875,0.0
1734580945.1359634,-29.78515625,-455.078125,-188.96484375,8.30078125,0.0
1734580945.1398695,-26.3671875,-481.4453125,-218.75,21.484375,0.0
1734580945.1437755,-25.390625,-93.75,-14.6484375,37.109375,0.0
1734580945.1476817,-18.5546875,-159.1796875,-35.15625,36.1328125,0.0
1734580945.1515877,3.41796875,-610.3515625,-195.80078125,42.96875,0.0
1734580945.1554937,30.76171875,-349.12109375,-54.19921875,58.59375,0.0
1734580945.1593997,26.3671875,149.90234375,122.55859375,70.3125,0.0
1734580945.1633794,15.13671875,-270.01953125,-161.62109375,77.1484375,0.0
1734580945.1672854,9.27734375,-505.859375,-247.0703125,60.546875,0.0
1734580945.1711915,30.76171875,-28.3203125,93.26171875,53.7109375,0.0
1734580945.1750975,48.828125,-38.57421875,32.2265625,68.359375,0.0
1734580945.1790037,38.57421875,-508.30078125,-244.62890625,60.05859375,0.0
1734580945.1829097,38.0859375,-859.86328125,-389.6484375,56.15234375,0.0
1734580945.1868157,40.0390625,-574.70703125,-228.02734375,63.4765625,0.0
1734580945.1907218,50.78125,50.29296875,113.28125,58.59375,0.0
1734580945.1946278,50.29296875,-423.828125,-179.19921875,67.3828125,0.0
1734580945.198534,39.55078125,-733.3984375,-354.00390625,69.82421875,0.0
1734580945.20244,31.25,-308.59375,-102.5390625,66.89453125,0.0
1734580945.206346,20.5078125,-497.55859375,-286.1328125,60.05859375,0.0
1734580945.2102835,34.1796875,-380.859375,-193.359375,38.57421875,0.0
1734580945.2141898,47.8515625,-23.92578125,7.32421875,37.59765625,0.0
1734580945.2180958,39.0625,193.359375,31.25,38.0859375,0.0
1734580945.2220018,40.52734375,14.6484375,-106.93359375,60.05859375,0.0
1734580945.2259078,45.41015625,-292.96875,-284.1796875,77.63671875,0.0
1734580945.2298138,17.578125,-383.30078125,-336.42578125,46.38671875,0.0
1734580945.23372,0.0,-345.703125,-351.07421875,34.66796875,0.0
1734580945.237626,-3.41796875,-317.3828125,-347.16796875,44.43359375,0.0
1734580945.241532,10.7421875,-800.78125,-605.46875,62.5,0.0
1734580945.245438,20.99609375,-750.9765625,-602.5390625,69.82421875,0.0
1734580945.2493443,18.06640625,29.296875,-259.765625,51.26953125,0.0
1734580945.2532504,25.87890625,-37.59765625,-378.90625,42.48046875,0.0
1734580945.2571597,34.1796875,-228.515625,-466.796875,51.26953125,0.0
1734580945.2610657,17.578125,-41.015625,-437.5,56.15234375,0.0
1734580945.2649717,4.8828125,-37.59765625,-489.74609375,71.2890625,0.0
1734580945.268878,23.4375,-308.10546875,-541.015625,71.2890625,0.0
1734580945.272784,40.52734375,-313.4765625,-576.171875,63.96484375,0.0
1734580945.27669,29.78515625,-316.89453125,-606.4453125,59.5703125,0.0
1734580945.280596,3.41796875,-321.2890625,-590.33203125,34.1796875,0.0
1734580945.2845023,-6.8359375,-529.296875,-727.05078125,22.94921875,0.0
1734580945.2884083,-0.9765625,-805.17578125,-812.98828125,25.87890625,0.0
1734580945.2923143,25.390625,-246.09375,-642.08984375,13.671875,0.0
1734580945.2962203,37.109375,-244.140625,-698.2421875,17.578125,0.0
1734580945.3001266,11.23046875,-438.96484375,-764.6484375,23.4375,0.0
1734580945.3040118,-4.39453125,-220.703125,-741.2109375,20.99609375,0.0
1734580945.307918,-0.48828125,47.8515625,-722.16796875,27.83203125,0.0
1734580945.311824,9.27734375,126.46484375,-745.1171875,29.296875,0.0
1734580945.31573,18.06640625,-101.5625,-799.8046875,41.015625,0.0
1734580945.319636,6.8359375,-125.9765625,-822.75390625,33.203125,0.0
1734580945.3235424,-0.9765625,-363.28125,-885.25390625,14.16015625,0.0
1734580945.3274484,1.953125,-524.90234375,-881.8359375,29.296875,0.0
1734580945.3313544,12.6953125,-649.90234375,-833.984375,43.9453125,0.0
1734580945.3352604,20.5078125,-407.2265625,-824.21875,34.66796875,0.0
1734580945.3391666,13.18359375,89.35546875,-873.53515625,30.2734375,0.0
1734580945.3430727,2.44140625,-207.03125,-932.6171875,24.90234375,0.0
1734580945.3469787,-0.9765625,-562.01171875,-958.984375,4.39453125,0.0
1734580945.3508368,21.484375,-274.4140625,-891.6015625,13.671875,0.0
1734580945.3547428,38.0859375,171.875,-874.51171875,22.4609375,0.0
1734580945.358649,26.3671875,-169.43359375,-915.0390625,21.97265625,0.0
1734580945.362555,19.53125,-481.93359375,-931.15234375,29.78515625,0.0
1734580945.366461,18.5546875,-257.8125,-929.6875,34.1796875,0.0
1734580945.370367,34.66796875,-264.16015625,-909.1796875,24.90234375,0.0
1734580945.3742733,40.0390625,-626.953125,-941.40625,22.94921875,0.0
1734580945.3781793,23.4375,-736.81640625,-964.35546875,32.71484375,0.0
1734580945.3820853,17.08984375,-163.57421875,-907.71484375,36.1328125,0.0
1734580945.3859913,27.83203125,-41.50390625,-942.87109375,42.48046875,0.0
1734580945.3898973,40.52734375,-387.6953125,-958.984375,30.76171875,0.0
1734580945.3938036,47.8515625,-307.6171875,-946.2890625,25.87890625,0.0
1734580945.397636,29.296875,129.8828125,-947.265625,32.71484375,0.0
1734580945.401542,7.32421875,-25.87890625,-975.5859375,31.25,0.0
1734580945.405448,0.48828125,-567.3828125,-994.140625,28.3203125,0.0
1734580945.4093542,18.06640625,-406.73828125,-987.3046875,35.15625,0.0
1734580945.4132602,49.8046875,106.4453125,-982.91015625,54.19921875,0.0
1734580945.4171662,33.203125,-229.98046875,-997.0703125,44.43359375,0.0
1734580945.4210722,-21.484375,-826.171875,-1000.0,11.23046875,0.0
1734580945.4249783,-19.04296875,-588.37890625,-999.0234375,19.53125,0.0
1734580945.4288845,1.953125,121.58203125,-994.140625,20.5078125,0.0
1734580945.4327905,11.23046875,73.73046875,-996.09375,28.80859375,0.0
1734580945.4366965,20.5078125,-119.62890625,-1000.0,52.24609375,0.0
1734580945.4406025,16.11328125,-55.6640625,-1000.0,50.78125,0.0
1734580945.4444149,13.18359375,-88.8671875,-1000.0,54.19921875,0.0
1734580945.4483209,5.859375,-287.59765625,-1000.0,35.64453125,0.0
1734580945.452227,15.625,-311.5234375,-1000.0,19.04296875,0.0
1734580945.4561331,18.5546875,16.11328125,-1000.0,40.0390625,0.0
1734580945.4600391,7.8125,-134.27734375,-1000.0,47.36328125,0.0
1734580945.4639452,0.48828125,-708.984375,-1000.0,45.8984375,0.0
1734580945.4678514,4.8828125,-922.36328125,-1000.0,47.8515625,0.0
1734580945.4717574,22.4609375,-351.5625,-1000.0,50.29296875,0.0
1734580945.4756634,23.4375,116.69921875,-1000.0,47.8515625,0.0
1734580945.4795694,7.32421875,-450.68359375,-1000.0,42.96875,0.0
1734580945.4834754,0.9765625,-938.4765625,-1000.0,46.38671875,0.0
1734580945.4873817,11.71875,-397.4609375,-1000.0,40.0390625,0.0
1734580945.4913738,29.296875,51.26953125,-1000.0,40.52734375,0.0
1734580945.4952798,36.1328125,-151.3671875,-1000.0,44.43359375,0.0
1734580945.499186,24.90234375,-259.27734375,-1000.0,51.26953125,0.0
1734580945.503092,9.765625,-187.01171875,-1000.0,43.9453125,0.0
1734580945.506998,17.578125,-233.88671875,-1000.0,32.71484375,0.0
1734580945.510904,41.015625,-584.9609375,-1000.0,38.0859375,0.0
1734580945.5148103,30.76171875,-437.98828125,-1000.0,33.203125,0.0
1734580945.5187163,21.97265625,-109.86328125,-1000.0,23.92578125,0.0
1734580945.5226223,23.92578125,-512.6953125,-1000.0,27.34375,0.0
1734580945.5265284,17.578125,-814.453125,-1000.0,35.64453125,0.0
1734580945.5304344,28.80859375,-346.19140625,-1000.0,27.83203125,0.0
1734580945.5343406,45.8984375,137.6953125,-1000.0,24.90234375,0.0
1734580945.5382996,43.9453125,-270.99609375,-1000.0,46.875,0.0
1734580945.5422056,47.8515625,-573.73046875,-1000.0,70.3125,0.0
1734580945.5461118,15.13671875,-224.12109375,-1000.0,22.4609375,0.0
1734580945.5500178,-5.37109375,83.984375,-1000.0,-23.4375,0.0
1734580945.5539238,19.53125,-163.0859375,-1000.0,-6.34765625,0.0
1734580945.5578299,13.18359375,-699.70703125,-1000.0,7.32421875,0.0
1734580945.561736,-9.27734375,-608.88671875,-1000.0,-5.37109375,0.0
1734580945.565642,-8.7890625,-173.33984375,-1000.0,-17.578125,0.0
1734580945.5695481,-0.48828125,-509.27734375,-1000.0,-12.6953125,0.0
1734580945.5734541,-1.46484375,-738.76953125,-1000.0,-8.30078125,0.0
1734580945.5773602,-12.6953125,-292.48046875,-1000.0,-21.97265625,0.0
1734580945.5812664,-22.4609375,-544.921875,-1000.0,-16.6015625,0.0
1734580945.585206,-21.484375,-665.52734375,-1000.0,-19.53125,0.0
1734580945.589112,-4.39453125,-196.77734375,-1000.0,-40.52734375,0.0
1734580945.593018,18.06640625,163.0859375,-1000.0,-16.11328125,0.0
1734580945.596924,17.578125,27.83203125,-1000.0,-6.8359375,0.0
1734580945.60083,1.953125,-460.44921875,-1000.0,-2.9296875,0.0
1734580945.6047363,-7.8125,-787.109375,-1000.0,2.44140625,0.0
1734580945.6086423,-9.765625,-434.08203125,-1000.0,-6.8359375,0.0
1734580945.6125484,12.20703125,-108.3984375,-1000.0,5.859375,0.0
1734580945.6164544,27.34375,-642.08984375,-1000.0,5.859375,0.0
1734580945.6203606,13.671875,-503.41796875,-1000.0,7.8125,0.0
1734580945.6242666,-0.48828125,-27.83203125,-1000.0,9.27734375,0.0
1734580945.6281726,0.48828125,-344.7265625,-1000.0,0.48828125,0.0
1734580945.6320865,2.9296875,-275.87890625,-1000.0,9.27734375,0.0
1734580945.6359925,0.0,-107.421875,-1000.0,5.37109375,0.0
1734580945.6398988,-12.6953125,-94.23828125,-1000.0,-7.32421875,0.0
1734580945.6438048,-26.3671875,-286.1328125,-1000.0,-0.48828125,0.0
1734580945.6477108,-0.48828125,-381.34765625,-1000.0,6.34765625,0.0
1734580945.6516168,25.390625,-248.53515625,-1000.0,10.7421875,0.0
1734580945.655523,14.6484375,-314.94140625,-999.51171875,12.6953125,0.0
1734580945.659429,0.9765625,-591.30859375,-1000.0,23.4375,0.0
1734580945.663335,1.46484375,-795.8984375,-993.65234375,31.73828125,0.0
1734580945.667241,7.32421875,-124.0234375,-986.81640625,26.3671875,0.0
1734580945.671147,16.6015625,-168.9453125,-990.72265625,26.85546875,0.0
1734580945.6750534,28.80859375,-418.45703125,-978.02734375,33.203125,0.0
1734580945.6789348,16.11328125,-129.8828125,-973.14453125,38.57421875,0.0
1734580945.682841,-0.48828125,-14.6484375,-974.12109375,25.87890625,0.0
1734580945.686747,-1.953125,-115.72265625,-974.12109375,10.7421875,0.0
1734580945.690653,16.11328125,-183.10546875,-956.54296875,16.11328125,0.0
1734580945.694559,32.2265625,-266.6015625,-959.9609375,21.97265625,0.0
1734580945.6984653,17.08984375,-436.5234375,-979.00390625,23.4375,0.0
1734580945.7023714,-3.41796875,-520.01953125,-968.26171875,24.4140625,0.0
1734580945.7062774,-6.34765625,-866.69921875,-978.515625,26.85546875,0.0
1734580945.7101834,11.71875,-582.51953125,-948.73046875,26.85546875,0.0
1734580945.7140896,22.4609375,233.88671875,-899.4140625,22.4609375,0.0
1734580945.7179956,11.71875,25.87890625,-948.2421875,23.4375,0.0
1734580945.7219017,0.9765625,-305.17578125,-967.7734375,20.01953125,0.0
1734580945.7257645,-8.30078125,-40.52734375,-921.875,9.765625,0.0
1734580945.7296705,7.32421875,296.875,-883.30078125,10.25390625,0.0
1734580945.7335765,19.04296875,85.9375,-910.15625,20.01953125,0.0
1734580945.7374828,0.9765625,-109.375,-930.17578125,17.08984375,0.0
1734580945.7413888,-20.5078125,24.90234375,-922.36328125,14.6484375,0.0
1734580945.7452948,-20.99609375,-268.06640625,-926.7578125,19.04296875,0.0
1734580945.7492008,-4.39453125,-742.1875,-952.1484375,23.4375,0.0
1734580945.7531068,1.953125,-709.9609375,-948.2421875,17.08984375,0.0
1734580945.757013,-1.46484375,8.30078125,-862.3046875,6.8359375,0.0
1734580945.760919,-2.9296875,137.6953125,-895.01953125,0.48828125,0.0
1734580945.764825,-6.8359375,-417.48046875,-930.6640625,17.08984375,0.0
1734580945.768731,-18.06640625,-385.7421875,-880.37109375,25.390625,0.0
1734580945.7725654,-8.30078125,201.66015625,-837.40234375,8.7890625,0.0
1734580945.7764714,-6.34765625,104.4921875,-885.25390625,6.8359375,0.0
1734580945.7803774,-23.92578125,-285.15625,-917.48046875,9.765625,0.0
1734580945.7842834,-39.55078125,-286.62109375,-889.6484375,16.11328125,0.0
1734580945.7881896,-36.62109375,-84.9609375,-874.0234375,12.6953125,0.0
1734580945.7920957,-16.6015625,-196.77734375,-886.71875,3.90625,0.0
1734580945.7960017,-18.06640625,-712.890625,-888.671875,9.765625,0.0
1734580945.7999077,-33.203125,-589.84375,-886.23046875,6.8359375,0.0
1734580945.803814,-35.64453125,-100.09765625,-875.9765625,-3.90625,0.0
1734580945.80772,-33.69140625,-350.09765625,-897.94921875,-16.11328125,0.0
1734580945.811626,-15.13671875,-307.6171875,-864.2578125,-19.04296875,0.0
1734580945.815532,-10.25390625,74.70703125,-830.56640625,-8.30078125,0.0
1734580945.8193417,-37.109375,92.28515625,-862.3046875,-13.671875,0.0
1734580945.8232477,-47.8515625,-393.06640625,-918.9453125,-36.1328125,0.0
1734580945.8271537,-48.33984375,-582.03125,-926.26953125,-37.109375,0.0
1734580945.8310597,-51.7578125,12.6953125,-822.75390625,-32.2265625,0.0
1734580945.834966,-47.8515625,154.78515625,-817.3828125,-37.109375,0.0
1734580945.838872,-56.15234375,-502.44140625,-941.40625,-21.484375,0.0
1734580945.842778,-87.40234375,-923.33984375,-945.3125,-39.0625,0.0
1734580945.846684,-101.5625,-298.33984375,-801.7578125,-70.80078125,0.0
1734580945.85059,-96.19140625,162.59765625,-774.90234375,-73.73046875,0.0
1734580945.8544962,-86.9140625,-214.35546875,-795.8984375,-68.359375,0.0
1734580945.8584023,-98.14453125,-627.44140625,-844.7265625,-68.84765625,0.0
1734580945.8623083,-128.90625,-400.87890625,-846.6796875,-91.796875,0.0
1734580945.8663127,-141.11328125,-335.44921875,-804.6875,-111.81640625,0.0
1734580945.8702188,-141.11328125,-337.40234375,-770.99609375,-127.44140625,0.0
1734580945.8741248,-148.4375,10.7421875,-688.4765625,-130.859375,0.0
1734580945.8780308,-174.8046875,156.73828125,-698.73046875,-142.08984375,0.0
1734580945.881937,-215.33203125,-84.47265625,-789.0625,-170.8984375,0.0
1734580945.885843,-238.28125,-668.45703125,-843.75,-187.5,0.0
1734580945.889749,-229.98046875,-470.21484375,-726.5625,-202.1484375,0.0
1734580945.893655,-227.5390625,178.7109375,-619.140625,-211.9140625,0.0
1734580945.897561,-235.83984375,31.25,-696.2890625,-222.65625,0.0
1734580945.9014673,-264.16015625,-631.8359375,-800.29296875,-227.05078125,0.0
1734580945.9053733,-275.87890625,-464.84375,-695.80078125,-249.0234375,0.0
1734580945.9092793,-250.0,164.55078125,-556.15234375,-262.6953125,0.0
1734580945.9132462,-214.35546875,0.48828125,-638.18359375,-225.5859375,0.0
1734580945.9171524,-198.2421875,-203.61328125,-672.36328125,-191.40625,0.0
1734580945.9210584,-197.75390625,-126.953125,-616.69921875,-169.43359375,0.0
1734580945.9249644,-178.7109375,-406.25,-676.26953125,-138.671875,0.0
1734580945.9288704,-141.11328125,-513.18359375,-617.1875,-114.74609375,0.0
1734580945.9327767,-103.515625,-501.953125,-571.77734375,-99.12109375,0.0
1734580945.9366827,-89.84375,-298.828125,-506.34765625,-79.58984375,0.0
1734580945.9405887,-87.40234375,17.578125,-449.21875,-63.4765625,0.0
1734580945.9444947,-72.75390625,-530.76171875,-646.97265625,-44.921875,0.0
1734580945.9484007,-39.0625,-699.21875,-637.6953125,-14.6484375,0.0
1734580945.952307,-12.20703125,-83.0078125,-353.02734375,12.6953125,0.0
1734580945.956213,0.48828125,-300.78125,-469.23828125,39.0625,0.0
1734580945.960147,9.27734375,-482.91015625,-518.06640625,52.24609375,0.0
1734580945.964053,19.53125,-207.03125,-404.78515625,61.03515625,0.0
1734580945.967959,46.38671875,86.42578125,-350.09765625,70.3125,0.0
1734580945.9718652,77.1484375,148.4375,-352.5390625,80.078125,0.0
1734580945.9757712,74.70703125,-91.30859375,-417.96875,92.7734375,0.0
1734580945.9796772,56.640625,-387.6953125,-469.7265625,94.7265625,0.0
1734580945.9835832,48.828125,-485.83984375,-464.84375,103.02734375,0.0
1734580945.9874892,73.2421875,-323.2421875,-402.34375,99.609375,0.0
1734580945.9913955,95.21484375,-523.4375,-383.30078125,113.76953125,0.0
1734580945.9953015,88.8671875,-309.5703125,-319.82421875,122.55859375,0.0
1734580945.9992075,89.84375,325.1953125,-256.8359375,127.9296875,0.0
1734580946.0031135,84.9609375,-32.71484375,-409.1796875,125.9765625,0.0
1734580946.0070302,89.35546875,-253.90625,-443.84765625,117.67578125,0.0
1734580946.0109363,117.1875,248.046875,-223.6328125,126.46484375,0.0
1734580946.0148423,112.79296875,365.72265625,-213.37890625,124.0234375,0.0
1734580946.0187485,93.26171875,-150.390625,-430.17578125,125.9765625,0.0
1734580946.0226545,77.1484375,-386.71875,-495.60546875,126.46484375,0.0
1734580946.0265605,69.3359375,-385.7421875,-450.68359375,115.234375,0.0
1734580946.0304666,84.47265625,-318.359375,-365.72265625,114.2578125,0.0
1734580946.0343726,101.07421875,-500.9765625,-475.09765625,116.2109375,0.0
1734580946.0382788,91.796875,-839.35546875,-580.56640625,104.4921875,0.0
1734580946.0421848,76.171875,-314.453125,-361.81640625,95.703125,0.0
1734580946.0460908,63.96484375,-212.40234375,-360.3515625,80.56640625,0.0
1734580946.0499969,80.56640625,-717.28515625,-479.98046875,72.265625,0.0
1734580946.053881,87.890625,-547.8515625,-364.2578125,74.70703125,0.0
1734580946.057787,55.6640625,198.73046875,-129.8828125,67.3828125,0.0
1734580946.061693,13.671875,40.52734375,-333.0078125,50.29296875,0.0
1734580946.0655992,-7.32421875,-305.17578125,-398.92578125,12.6953125,0.0
1734580946.0695052,-13.671875,-80.56640625,-246.58203125,-4.39453125,0.0
1734580946.0734112,-41.50390625,-100.5859375,-271.484375,-36.62109375,0.0
1734580946.0773172,-71.2890625,-269.04296875,-324.21875,-97.16796875,0.0
1734580946.0812232,-107.421875,-658.69140625,-459.9609375,-114.2578125,0.0
1734580946.0851295,-147.4609375,-543.9453125,-393.06640625,-142.578125,0.0
1734580946.0890355,-146.484375,172.36328125,-149.4140625,-162.59765625,0.0
1734580946.0929415,-145.99609375,27.83203125,-204.1015625,-168.9453125,0.0
1734580946.0968475,-163.57421875,-333.984375,-334.47265625,-174.31640625,0.0
1734580946.1007123,-187.98828125,-109.375,-274.4140625,-174.8046875,0.0
1734580946.1046183,-205.56640625,92.7734375,-187.98828125,-192.3828125,0.0
1734580946.1085243,-198.2421875,-123.53515625,-197.75390625,-206.54296875,0.0
1734580946.1124303,-183.10546875,-174.8046875,-145.01953125,-206.54296875,0.0
1734580946.1163366,-164.0625,76.171875,-8.30078125,-180.6640625,0.0
1734580946.1202426,-183.59375,-244.62890625,-223.14453125,-168.9453125,0.0
1734580946.1241486,-178.7109375,-770.5078125,-462.40234375,-167.48046875,0.0
1734580946.1280546,-134.27734375,-772.4609375,-448.73046875,-131.34765625,0.0
1734580946.1319609,-90.33203125,-122.55859375,-13.18359375,-95.21484375,0.0
1734580946.1358669,-84.9609375,143.06640625,83.0078125,-71.2890625,0.0
1734580946.139773,-83.984375,-408.203125,-232.91015625,-65.91796875,0.0
1734580946.143679,-57.12890625,-579.58984375,-291.50390625,-24.4140625,0.0
1734580946.1475134,-16.6015625,-19.53125,0.9765625,16.6015625,0.0
1734580946.1514196,33.69140625,17.578125,43.45703125,14.16015625,0.0
1734580946.1553257,39.55078125,-267.578125,-121.09375,30.2734375,0.0
1734580946.1592317,43.45703125,-168.9453125,-76.171875,68.359375,0.0
1734580946.1631377,38.57421875,-125.9765625,-104.4921875,73.2421875,0.0
1734580946.167044,50.78125,-395.01953125,-274.90234375,77.1484375,0.0
1734580946.17095,86.9140625,-785.64453125,-389.16015625,95.21484375,0.0
1734580946.174856,102.05078125,-410.15625,-157.71484375,107.421875,0.0
1734580946.178762,122.0703125,262.20703125,115.234375,130.859375,0.0
1734580946.182668,116.2109375,-86.9140625,-164.0625,126.953125,0.0
1734580946.1865742,113.76953125,-341.30859375,-198.2421875,109.86328125,0.0
1734580946.1904802,150.390625,91.796875,89.35546875,135.7421875,0.0
1734580946.1942837,157.71484375,384.27734375,138.671875,149.4140625,0.0
1734580946.1981897,130.859375,-23.92578125,-110.83984375,150.390625,0.0
1734580946.202096,113.28125,-366.69921875,-312.5,150.87890625,0.0
1734580946.206002,109.86328125,-42.96875,-77.1484375,139.16015625,0.0
1734580946.209908,122.0703125,129.8828125,98.14453125,139.6484375,0.0
1734580946.213814,122.0703125,-392.578125,-185.546875,141.11328125,0.0
1734580946.21772,96.6796875,-695.3125,-389.6484375,144.04296875,0.0
1734580946.2216263,82.03125,-145.5078125,-138.18359375,131.8359375,0.0
1734580946.2255323,79.1015625,83.49609375,-53.7109375,111.81640625,0.0
1734580946.2294383,97.16796875,-333.49609375,-176.26953125,120.60546875,0.0
1734580946.2333443,111.81640625,-523.92578125,-213.37890625,111.328125,0.0
1734580946.2372503,103.515625,76.171875,53.7109375,101.5625,0.0
