timestamps,TP9,AF7,AF8,TP10,Right AUX
1734580804.726976,2.44140625,394.04296875,117.1875,-18.06640625,0.0
1734580804.7308817,-3.90625,37.59765625,-68.359375,-23.4375,0.0
1734580804.7347877,-17.08984375,-126.953125,-88.8671875,-27.34375,0.0
1734580804.7386937,-13.671875,208.984375,54.6875,-32.71484375,0.0
1734580804.7425997,-0.9765625,-8.30078125,-118.1640625,-39.55078125,0.0
1734580804.7465057,7.8125,-572.265625,-390.13671875,-26.3671875,0.0
1734580804.7504117,9.27734375,-674.31640625,-382.8125,-3.41796875,0.0
1734580804.7543178,11.23046875,-138.671875,-4.8828125,-0.9765625,0.0
1734580804.7582238,8.30078125,67.3828125,48.33984375,6.34765625,0.0
1734580804.7621298,11.23046875,40.0390625,18.06640625,5.37109375,0.0
1734580804.7660356,21.484375,143.06640625,59.08203125,0.48828125,0.0
1734580804.7699046,18.06640625,335.44921875,65.91796875,4.39453125,0.0
1734580804.7738106,-0.9765625,267.08984375,56.15234375,-3.90625,0.0
1734580804.7777166,-17.578125,-125.48828125,-125.48828125,-7.32421875,0.0
1734580804.7816226,-8.7890625,-134.27734375,-123.53515625,-2.9296875,0.0
1734580804.7855287,15.625,238.76953125,66.40625,-0.48828125,0.0
1734580804.7894344,18.06640625,-98.14453125,-124.51171875,-9.27734375,0.0
1734580804.7933404,-11.71875,-735.3515625,-392.578125,-16.6015625,0.0
1734580804.7972465,-20.99609375,-446.77734375,-187.98828125,-11.71875,0.0
1734580804.8011525,-2.44140625,336.42578125,161.1328125,-8.30078125,0.0
1734580804.8050585,9.765625,194.82421875,39.55078125,-5.37109375,0.0
1734580804.8089645,11.71875,-99.609375,-48.828125,-10.25390625,0.0
1734580804.8128705,8.30078125,-147.94921875,23.4375,-6.8359375,0.0
1734580804.8167143,0.48828125,211.42578125,132.8125,-12.20703125,0.0
1734580804.8206203,-0.48828125,278.80859375,92.7734375,-16.11328125,0.0
1734580804.824526,4.8828125,27.83203125,24.90234375,-8.7890625,0.0
1734580804.828432,10.7421875,203.61328125,93.26171875,-20.99609375,0.0
1734580804.832338,4.8828125,263.18359375,113.28125,-19.53125,0.0
1734580804.836244,-15.625,-303.7109375,-136.71875,-2.9296875,0.0
1734580804.84015,-16.11328125,-588.37890625,-195.3125,17.08984375,0.0
1734580804.8440561,-8.7890625,157.71484375,155.2734375,28.3203125,0.0
1734580804.8479621,-0.48828125,330.078125,134.765625,13.18359375,0.0
1734580804.8518682,0.48828125,-109.375,2.44140625,-2.9296875,0.0
1734580804.855774,-22.4609375,-70.80078125,35.15625,-5.859375,0.0
1734580804.85968,-24.90234375,326.66015625,149.4140625,-3.90625,0.0
1734580804.8636668,-14.6484375,286.62109375,131.8359375,-5.37109375,0.0
1734580804.8675728,-13.18359375,-37.59765625,-20.5078125,-11.23046875,0.0
1734580804.8714788,-10.7421875,-322.75390625,-58.10546875,-8.7890625,0.0
1734580804.8753848,-16.6015625,-235.3515625,54.6875,-10.25390625,0.0
1734580804.8792906,-22.94921875,89.35546875,109.86328125,-11.23046875,0.0
1734580804.8831966,-17.08984375,-159.66796875,-41.50390625,-9.765625,0.0
1734580804.8871026,-4.39453125,-308.10546875,-35.15625,-16.11328125,0.0
1734580804.8910086,-2.9296875,240.72265625,159.66796875,-14.16015625,0.0
1734580804.8949146,-17.08984375,242.67578125,75.1953125,-10.7421875,0.0
1734580804.8988206,-25.390625,-421.38671875,-133.30078125,-25.390625,0.0
1734580804.9027267,-19.04296875,-211.9140625,7.32421875,-28.3203125,0.0
1734580804.9066327,-1.953125,300.29296875,154.296875,-18.5546875,0.0
1734580804.9105937,-6.8359375,-17.08984375,2.9296875,-10.7421875,0.0
1734580804.9144998,-30.2734375,-150.87890625,-12.20703125,-30.2734375,0.0
1734580804.9184058,-28.3203125,308.59375,141.11328125,-33.69140625,0.0
1734580804.9223118,-12.6953125,477.05078125,177.734375,-6.34765625,0.0
1734580804.9262178,-1.953125,27.34375,-11.71875,-1.953125,0.0
1734580804.9301236,-5.37109375,-368.65234375,-129.8828125,-20.99609375,0.0
1734580804.9340296,-17.08984375,-300.78125,-3.90625,-38.57421875,0.0
1734580804.9379356,-27.83203125,130.37109375,157.71484375,-27.34375,0.0
1734580804.9418416,-37.109375,-188.4765625,-102.05078125,-27.34375,0.0
1734580804.9457476,-24.4140625,-671.38671875,-249.51171875,-36.62109375,0.0
1734580804.9496536,-7.32421875,197.75390625,176.26953125,-41.015625,0.0
1734580804.9535596,-21.97265625,406.25,145.99609375,-40.0390625,0.0
1734580804.9575086,-31.73828125,88.8671875,125.0,-26.3671875,0.0
1734580804.9614146,-25.390625,162.59765625,169.921875,-31.25,0.0
1734580804.9653203,-23.4375,111.81640625,98.14453125,-44.43359375,0.0
1734580804.9692264,-27.34375,-167.96875,31.25,-36.1328125,0.0
1734580804.9731324,-41.50390625,-152.34375,80.56640625,-35.64453125,0.0
1734580804.9770384,-41.50390625,-131.34765625,96.19140625,-39.0625,0.0
1734580804.9809444,-38.57421875,-9.765625,119.62890625,-30.2734375,0.0
1734580804.9848504,-29.78515625,67.87109375,136.23046875,-31.25,0.0
1734580804.9887564,-18.06640625,-538.0859375,-116.2109375,-39.55078125,0.0
1734580804.9926624,-18.5546875,-320.80078125,17.08984375,-33.69140625,0.0
1734580804.9965684,-33.203125,488.28125,270.5078125,-32.2265625,0.0
1734580805.0004742,-41.9921875,223.14453125,126.953125,-33.203125,0.0
1734580805.0044005,-25.87890625,-33.69140625,117.1875,-23.92578125,0.0
1734580805.0083065,-22.94921875,296.875,195.3125,-28.3203125,0.0
1734580805.0122123,-33.69140625,440.4296875,203.125,-23.4375,0.0
1734580805.0161183,-56.640625,148.92578125,118.65234375,-19.04296875,0.0
1734580805.0200243,-55.6640625,-75.68359375,95.703125,-34.1796875,0.0
1734580805.0239303,-37.109375,-108.3984375,115.72265625,-20.01953125,0.0
1734580805.0278363,-23.4375,-167.48046875,137.20703125,-14.6484375,0.0
1734580805.0317423,-15.13671875,-524.4140625,-94.7265625,-15.13671875,0.0
1734580805.0356483,-34.1796875,-679.6875,-135.25390625,-16.11328125,0.0
1734580805.0395544,-39.0625,19.53125,262.20703125,-17.578125,0.0
1734580805.0434604,-34.1796875,-22.94921875,184.08203125,-23.92578125,0.0
1734580805.0473661,-24.90234375,-290.52734375,170.41015625,-39.0625,0.0
1734580805.05127,-13.18359375,17.578125,285.15625,-33.203125,0.0
1734580805.055176,-23.92578125,375.0,317.87109375,-23.4375,0.0
1734580805.059082,-35.15625,62.01171875,238.76953125,-19.04296875,0.0
1734580805.062988,-12.20703125,-202.1484375,240.72265625,-24.90234375,0.0
1734580805.066894,-4.39453125,87.890625,294.921875,-26.85546875,0.0
1734580805.0707998,-19.04296875,-8.7890625,239.2578125,-29.78515625,0.0
1734580805.0747058,-29.296875,-140.625,281.25,-24.90234375,0.0
1734580805.0786119,-32.2265625,-549.31640625,152.34375,-17.08984375,0.0
1734580805.0825179,-31.73828125,-343.75,220.21484375,-13.671875,0.0
1734580805.0864239,-28.3203125,427.734375,392.578125,-34.1796875,0.0
1734580805.09033,-14.16015625,183.59375,314.94140625,-51.26953125,0.0
1734580805.094236,-33.203125,14.16015625,348.6328125,-37.109375,0.0
1734580805.0981152,-58.10546875,137.6953125,355.95703125,-39.0625,0.0
1734580805.102021,-49.31640625,180.17578125,367.67578125,-48.33984375,0.0
1734580805.105927,-34.1796875,103.515625,348.14453125,-46.38671875,0.0
1734580805.109833,-23.92578125,56.640625,360.3515625,-41.9921875,0.0
1734580805.113739,-31.25,307.12890625,408.69140625,-45.41015625,0.0
1734580805.117645,-48.828125,111.328125,379.8828125,-37.109375,0.0
1734580805.121551,-41.9921875,-361.81640625,237.79296875,-24.90234375,0.0
1734580805.125457,-33.69140625,-595.703125,212.40234375,-18.06640625,0.0
1734580805.129363,-8.30078125,158.69140625,439.94140625,-6.8359375,0.0
1734580805.133269,-9.765625,499.51171875,447.75390625,-19.04296875,0.0
1734580805.1371748,-60.546875,-1.953125,381.34765625,-41.50390625,0.0
1734580805.1410809,-64.453125,-36.1328125,412.59765625,-34.1796875,0.0
1734580805.1449564,-45.8984375,375.0,446.77734375,-31.25,0.0
1734580805.1488621,-32.71484375,354.4921875,420.41015625,-37.59765625,0.0
1734580805.1527681,-36.1328125,-59.5703125,392.08984375,-45.41015625,0.0
1734580805.1566741,-56.15234375,-253.90625,399.90234375,-16.11328125,0.0
1734580805.1605802,-63.4765625,55.17578125,427.24609375,-6.34765625,0.0
1734580805.1644862,-72.75390625,86.42578125,400.87890625,-75.1953125,0.0
1734580805.1683922,-62.98828125,-562.98828125,238.28125,-95.703125,0.0
1734580805.1722982,-77.1484375,-436.03515625,326.171875,-91.30859375,0.0
1734580805.1762042,-102.05078125,413.0859375,497.55859375,-105.46875,0.0
1734580805.18011,-122.55859375,308.59375,408.69140625,-101.5625,0.0
1734580805.184016,-146.97265625,62.01171875,389.16015625,-104.00390625,0.0
1734580805.187922,-141.6015625,296.875,424.8046875,-156.25,0.0
1734580805.191763,0.0,414.0625,432.12890625,-190.91796875,0.0
1734580805.195669,0.0,120.1171875,387.6953125,-165.0390625,0.0
1734580805.199575,0.0,-2.44140625,395.99609375,-168.9453125,0.0
1734580805.203481,0.0,334.47265625,438.96484375,-191.40625,0.0
1734580805.2073867,0.0,410.64453125,420.41015625,-181.15234375,0.0
1734580805.2112927,0.0,-253.90625,235.3515625,-182.12890625,0.0
1734580805.2151988,0.0,-756.8359375,192.3828125,-185.05859375,0.0
1734580805.2191048,0.0,-41.015625,433.10546875,-169.43359375,0.0
1734580805.2230108,0.0,446.77734375,458.0078125,-178.7109375,0.0
1734580805.2269168,0.0,-45.41015625,313.4765625,-197.265625,0.0
1734580805.2308228,0.0,-179.6875,348.14453125,-185.546875,0.0
1734580805.2347288,0.0,291.015625,450.68359375,-172.8515625,0.0
1734580805.238712,-220.21484375,360.83984375,426.7578125,-170.41015625,0.0
1734580805.242618,-209.47265625,29.78515625,397.4609375,-179.6875,0.0
1734580805.246524,-197.75390625,-270.01953125,355.95703125,-190.4296875,0.0
1734580805.25043,-185.546875,-72.265625,397.4609375,-168.45703125,0.0
1734580805.254336,-178.22265625,250.0,421.875,-148.4375,0.0
1734580805.2582421,-181.640625,-118.65234375,350.5859375,-131.8359375,0.0
1734580805.262148,-177.24609375,-202.63671875,365.234375,-120.1171875,0.0
1734580805.266054,-154.296875,242.1875,428.7109375,-123.53515625,0.0
1734580805.26996,-124.0234375,88.37890625,369.140625,-110.3515625,0.0
1734580805.273866,-121.58203125,-551.26953125,317.87109375,-97.16796875,0.0
1734580805.277772,-132.32421875,-187.98828125,440.4296875,-85.9375,0.0
1734580805.281678,-92.28515625,486.328125,469.7265625,-47.36328125,0.0
1734580805.2856464,-61.03515625,69.3359375,373.53515625,-35.15625,0.0
1734580805.2895525,-63.4765625,-220.21484375,383.30078125,-56.15234375,0.0
1734580805.2934585,-57.12890625,242.67578125,460.44921875,-62.98828125,0.0
1734580805.2973645,-47.8515625,460.9375,477.5390625,-44.43359375,0.0
1734580805.3012705,-32.2265625,98.14453125,378.41796875,-18.06640625,0.0
1734580805.3051765,-36.62109375,-402.34375,299.8046875,-23.4375,0.0
1734580805.3090825,-61.5234375,-194.3359375,396.484375,-30.2734375,0.0
1734580805.3129885,-58.10546875,400.390625,505.37109375,-16.11328125,0.0
1734580805.3168943,-35.64453125,-125.48828125,280.76171875,7.32421875,0.0
1734580805.3208003,-18.5546875,-659.1796875,253.41796875,31.25,0.0
1734580805.3247063,-19.53125,198.73046875,502.44140625,24.90234375,0.0
1734580805.3286123,-5.37109375,174.31640625,399.4140625,18.06640625,0.0
1734580805.332552,17.578125,-211.9140625,399.4140625,27.83203125,0.0
1734580805.336458,13.671875,171.875,477.5390625,38.57421875,0.0
1734580805.340364,24.4140625,186.03515625,431.640625,43.9453125,0.0
1734580805.3442698,32.2265625,-107.91015625,388.18359375,28.80859375,0.0
1734580805.3481758,8.30078125,-80.56640625,406.73828125,11.71875,0.0
1734580805.3520818,12.20703125,-106.4453125,395.01953125,16.11328125,0.0
1734580805.3559878,11.23046875,-105.95703125,387.6953125,25.87890625,0.0
1734580805.3598938,0.9765625,168.45703125,413.57421875,29.78515625,0.0
1734580805.3637998,22.94921875,-402.83203125,231.93359375,40.0390625,0.0
1734580805.3677058,41.015625,-405.76171875,313.4765625,33.203125,0.0
1734580805.3716118,43.9453125,485.83984375,489.2578125,25.390625,0.0
1734580805.3755178,27.34375,313.4765625,425.29296875,41.9921875,0.0
1734580805.379442,9.765625,90.33203125,435.546875,51.26953125,0.0
1734580805.383348,22.4609375,369.62890625,441.89453125,49.31640625,0.0
1734580805.387254,47.8515625,193.359375,372.55859375,35.64453125,0.0
1734580805.39116,49.31640625,-189.453125,318.359375,30.2734375,0.0
1734580805.395066,26.3671875,-20.99609375,363.76953125,34.66796875,0.0
1734580805.398972,17.08984375,86.9140625,362.79296875,42.96875,0.0
1734580805.402878,31.73828125,-57.6171875,349.609375,61.5234375,0.0
1734580805.406784,45.8984375,-451.66015625,163.57421875,51.26953125,0.0
1734580805.41069,32.2265625,-501.953125,197.75390625,40.0390625,0.0
1734580805.414596,16.6015625,277.34375,429.6875,41.9921875,0.0
1734580805.4185019,14.16015625,548.828125,427.734375,46.875,0.0
1734580805.4224079,14.6484375,-105.46875,253.41796875,50.78125,0.0
1734580805.426312,26.3671875,-227.5390625,260.25390625,40.52734375,0.0
1734580805.4302177,30.2734375,468.26171875,426.7578125,25.87890625,0.0
1734580805.4341238,13.18359375,156.73828125,326.171875,20.5078125,0.0
1734580805.4380298,9.27734375,-68.84765625,345.21484375,29.296875,0.0
1734580805.4419358,20.01953125,220.703125,395.99609375,26.85546875,0.0
1734580805.4458418,19.04296875,53.22265625,313.96484375,20.5078125,0.0
1734580805.4497478,29.296875,-133.7890625,279.296875,27.83203125,0.0
1734580805.4536538,30.76171875,-556.15234375,140.625,31.73828125,0.0
1734580805.4575598,-5.37109375,-278.3203125,241.2109375,11.23046875,0.0
1734580805.4614658,-19.04296875,572.75390625,426.7578125,-2.9296875,0.0
1734580805.4653718,0.9765625,314.453125,309.08203125,17.578125,0.0
1734580805.4692776,14.16015625,89.35546875,296.38671875,17.578125,0.0
1734580805.4731615,15.13671875,376.953125,343.26171875,18.06640625,0.0
1734580805.4770675,11.23046875,564.453125,366.2109375,13.671875,0.0
1734580805.4809735,24.4140625,202.63671875,273.4375,17.578125,0.0
1734580805.4848795,37.109375,42.96875,264.6484375,23.92578125,0.0
1734580805.4887855,34.66796875,364.74609375,322.75390625,9.27734375,0.0
1734580805.4926915,23.92578125,165.52734375,287.109375,-5.37109375,0.0
1734580805.4965975,-4.39453125,-293.9453125,104.4921875,0.0,0.0
1734580805.5005035,-21.97265625,-675.78125,28.3203125,21.97265625,0.0
1734580805.5044096,0.9765625,-79.58984375,302.24609375,25.87890625,0.0
1734580805.5083153,11.71875,454.58984375,332.03125,31.73828125,0.0
1734580805.5122213,1.46484375,158.69140625,259.27734375,57.12890625,0.0
1734580805.5161273,-12.6953125,125.9765625,287.59765625,70.3125,0.0
1734580805.519986,-22.94921875,387.6953125,322.75390625,92.28515625,0.0
1734580805.523892,1.953125,396.484375,284.1796875,43.9453125,0.0
1734580805.527798,28.3203125,-83.984375,192.87109375,-52.24609375,0.0
1734580805.531704,35.64453125,-94.23828125,251.953125,-44.921875,0.0
1734580805.53561,20.5078125,319.82421875,284.1796875,-12.20703125,0.0
1734580805.539516,8.30078125,94.23828125,225.5859375,5.37109375,0.0
1734580805.543422,13.671875,-578.61328125,-39.55078125,20.99609375,0.0
1734580805.5473278,32.71484375,-443.359375,18.5546875,15.13671875,0.0
1734580805.5512338,37.109375,387.20703125,316.40625,7.8125,0.0
1734580805.5551398,15.625,319.82421875,217.7734375,12.6953125,0.0
1734580805.5590458,3.90625,-120.60546875,136.71875,-11.71875,0.0
1734580805.5629518,6.34765625,-83.0078125,157.2265625,-1.953125,0.0
1734580805.5667908,16.6015625,327.63671875,222.65625,-4.8828125,0.0
1734580805.5706968,19.53125,136.23046875,140.625,-32.71484375,0.0
1734580805.5746028,10.7421875,-104.00390625,128.90625,-27.83203125,0.0
1734580805.5785086,10.25390625,238.28125,223.6328125,-18.5546875,0.0
1734580805.5824146,6.8359375,394.53125,213.8671875,-15.13671875,0.0
1734580805.5863206,9.27734375,-319.82421875,-89.35546875,-11.71875,0.0
1734580805.5902267,12.6953125,-625.0,-158.203125,2.44140625,0.0
1734580805.5941327,10.25390625,104.00390625,189.453125,1.953125,0.0
1734580805.5980387,9.27734375,341.796875,206.54296875,-5.859375,0.0
1734580805.6019447,2.44140625,-62.01171875,49.31640625,-5.859375,0.0
1734580805.6058507,-4.8828125,-131.34765625,58.59375,-6.34765625,0.0
1734580805.6097567,8.30078125,270.99609375,171.38671875,-5.37109375,0.0
1734580805.613738,0.9765625,243.65234375,145.5078125,-12.6953125,0.0
1734580805.6176438,-21.97265625,-109.86328125,37.109375,-6.34765625,0.0
1734580805.6215498,-4.39453125,-355.46875,-16.11328125,14.16015625,0.0
1734580805.6254559,17.578125,-75.1953125,94.23828125,10.25390625,0.0
1734580805.6293619,-3.41796875,177.24609375,104.4921875,4.39453125,0.0
1734580805.6332679,-29.78515625,-265.625,-82.03125,-21.97265625,0.0
1734580805.637174,-37.59765625,-224.609375,15.625,-28.80859375,0.0
1734580805.64108,-43.9453125,278.80859375,173.828125,-30.2734375,0.0
1734580805.644986,-24.4140625,180.6640625,57.6171875,-51.26953125,0.0
1734580805.648892,-8.7890625,-444.3359375,-136.23046875,-24.90234375,0.0
1734580805.6527977,-27.34375,-248.046875,9.765625,-10.25390625,0.0
1734580805.6567037,-37.59765625,379.8828125,182.12890625,-10.25390625,0.0
1734580805.660664,-38.0859375,116.69921875,41.015625,-7.8125,0.0
1734580805.66457,-29.296875,-137.6953125,-17.08984375,-5.859375,0.0
1734580805.668476,-12.20703125,150.390625,101.07421875,8.30078125,0.0
1734580805.672382,-26.3671875,213.37890625,111.328125,10.25390625,0.0
1734580805.6762881,-32.71484375,-180.17578125,-26.85546875,4.8828125,0.0
1734580805.6801941,-36.1328125,-420.41015625,-82.03125,4.8828125,0.0
1734580805.6841002,-25.390625,-161.62109375,32.71484375,23.4375,0.0
1734580805.6880062,-5.859375,279.78515625,173.33984375,26.3671875,0.0
1734580805.6919122,-6.8359375,-260.25390625,-130.859375,21.97265625,0.0
1734580805.695818,-22.94921875,-694.3359375,-226.07421875,19.04296875,0.0
1734580805.699724,-32.2265625,138.18359375,184.5703125,15.625,0.0
1734580805.70363,-15.13671875,329.1015625,137.6953125,14.16015625,0.0
1734580805.7075756,0.48828125,-46.38671875,0.48828125,-4.8828125,0.0
1734580805.7114813,9.765625,-13.18359375,46.875,1.953125,0.0
1734580805.7153873,-6.34765625,38.57421875,95.21484375,15.625,0.0
1734580805.7192934,-17.578125,-158.69140625,43.9453125,20.99609375,0.0
1734580805.7231994,-0.48828125,-166.50390625,51.26953125,25.87890625,0.0
1734580805.7271054,-2.44140625,-298.828125,-19.04296875,33.203125,0.0
1734580805.7310114,-7.8125,-359.86328125,-37.59765625,16.11328125,0.0
1734580805.7349174,-16.6015625,-200.1953125,36.1328125,5.859375,0.0
1734580805.7388234,-31.25,-585.44921875,-185.546875,13.18359375,0.0
1734580805.7427294,-23.4375,-410.15625,-106.4453125,-5.859375,0.0
1734580805.7466354,0.9765625,285.64453125,164.0625,-28.3203125,0.0
1734580805.7505412,6.34765625,22.94921875,12.6953125,-23.92578125,0.0
1734580805.7544641,-7.32421875,-103.515625,-8.30078125,-20.99609375,0.0
1734580805.75837,-13.18359375,256.34765625,128.41796875,-12.6953125,0.0
1734580805.762276,-10.25390625,386.71875,167.48046875,-15.625,0.0
1734580805.766182,-8.30078125,-18.5546875,-5.859375,-18.5546875,0.0
1734580805.770088,8.30078125,-214.35546875,-78.61328125,-19.04296875,0.0
1734580805.773994,-5.37109375,-122.55859375,5.859375,-26.85546875,0.0
1734580805.7779,-29.78515625,-263.18359375,12.6953125,-17.578125,0.0
1734580805.781806,-11.71875,-570.80078125,-199.21875,-5.37109375,0.0
1734580805.785712,-4.39453125,-775.390625,-407.2265625,-4.39453125,0.0
1734580805.789618,-2.44140625,-326.66015625,-33.203125,-3.41796875,0.0
1734580805.7935238,-5.859375,6.34765625,105.46875,-8.30078125,0.0
1734580805.7974298,-22.94921875,-90.8203125,16.6015625,-5.859375,0.0
1734580805.8013296,-23.92578125,-55.6640625,57.6171875,9.27734375,0.0
1734580805.8052356,-11.23046875,209.9609375,130.37109375,2.9296875,0.0
1734580805.8091416,-10.25390625,-129.39453125,14.16015625,-19.53125,0.0
1734580805.8130474,-23.92578125,-247.0703125,65.91796875,-19.53125,0.0
1734580805.8169534,-30.2734375,193.84765625,187.01171875,-25.87890625,0.0
1734580805.8208594,-28.80859375,124.0234375,109.86328125,-22.4609375,0.0
1734580805.8247654,-18.06640625,-186.5234375,50.78125,-19.53125,0.0
1734580805.8286715,4.39453125,-284.1796875,5.37109375,-29.296875,0.0
1734580805.8325775,6.8359375,32.2265625,100.09765625,-24.90234375,0.0
1734580805.8364835,-20.5078125,415.0390625,207.03125,-9.765625,0.0
1734580805.8403895,-18.06640625,324.21875,157.2265625,-10.25390625,0.0
1734580805.8442955,-11.71875,-395.01953125,-89.35546875,-16.11328125,0.0
1734580805.8481688,-18.06640625,-444.3359375,2.9296875,-28.80859375,0.0
1734580805.8520749,-24.4140625,263.671875,231.4453125,-24.90234375,0.0
1734580805.8559809,-41.50390625,171.38671875,105.46875,-19.04296875,0.0
1734580805.859887,-54.19921875,25.87890625,97.65625,-37.109375,0.0
1734580805.863793,-42.48046875,241.69921875,146.484375,-35.15625,0.0
1734580805.8676987,-20.99609375,51.7578125,115.72265625,-21.484375,0.0
1734580805.8716047,-30.2734375,-404.78515625,-79.1015625,-15.625,0.0
1734580805.8755107,-37.109375,-587.40234375,-111.81640625,-19.04296875,0.0
1734580805.8794167,-37.59765625,144.53125,209.47265625,-15.13671875,0.0
1734580805.8833227,-37.59765625,437.98828125,188.4765625,-14.6484375,0.0
1734580805.8872287,-24.90234375,49.31640625,71.77734375,-11.23046875,0.0
1734580805.8911347,-15.13671875,89.35546875,115.234375,-20.5078125,0.0
1734580805.8950012,-31.73828125,405.76171875,178.22265625,-30.76171875,0.0
1734580805.8989072,-27.34375,268.5546875,125.0,-28.80859375,0.0
1734580805.9028132,-19.04296875,-245.60546875,-65.4296875,-14.6484375,0.0
1734580805.9067192,-23.4375,-501.46484375,-174.8046875,-6.34765625,0.0
1734580805.9106252,-12.6953125,-194.3359375,-16.6015625,-32.71484375,0.0
1734580805.914531,-15.625,-83.0078125,86.42578125,-40.0390625,0.0
1734580805.918437,-24.90234375,-648.92578125,-205.56640625,-10.7421875,0.0
1734580805.922343,-19.53125,-533.203125,-158.203125,-6.34765625,0.0
1734580805.926249,-2.44140625,229.98046875,161.62109375,-19.53125,0.0
1734580805.930155,-7.8125,83.0078125,60.546875,-22.4609375,0.0
1734580805.934061,-28.80859375,-86.9140625,54.19921875,-30.76171875,0.0
1734580805.937967,-27.34375,243.65234375,164.55078125,-30.2734375,0.0
1734580805.9418042,-18.5546875,437.98828125,201.66015625,-16.11328125,0.0
1734580805.9457102,-25.87890625,124.51171875,48.828125,-14.16015625,0.0
1734580805.9496162,-19.04296875,-104.00390625,-11.71875,-24.90234375,0.0
1734580805.9535222,-13.671875,283.69140625,155.2734375,-20.01953125,0.0
1734580805.9574282,-22.4609375,430.6640625,184.5703125,-18.06640625,0.0
1734580805.961334,-19.53125,-248.53515625,-109.86328125,-9.27734375,0.0
1734580805.96524,-11.23046875,-744.140625,-245.1171875,-10.7421875,0.0
1734580805.969146,3.41796875,-151.85546875,60.05859375,-12.6953125,0.0
1734580805.973052,-2.9296875,369.140625,152.83203125,-20.5078125,0.0
1734580805.976958,-14.6484375,53.22265625,36.1328125,-36.1328125,0.0
1734580805.980864,-11.71875,-129.39453125,3.90625,-24.90234375,0.0
1734580805.98477,-11.71875,177.24609375,101.07421875,-25.390625,0.0
1734580805.9887512,-11.23046875,255.859375,83.984375,-25.390625,0.0
1734580805.9926572,-22.4609375,5.37109375,-9.27734375,-29.296875,0.0
1734580805.9965632,-33.203125,-285.64453125,-35.64453125,-48.828125,0.0
1734580806.0004692,-22.94921875,-43.45703125,61.03515625,-29.78515625,0.0
1734580806.0043752,-4.8828125,305.6640625,99.12109375,-6.8359375,0.0
1734580806.0082812,-10.7421875,-215.33203125,-149.90234375,-20.01953125,0.0
1734580806.0121872,-57.6171875,-282.71484375,-116.69921875,-68.359375,0.0
1734580806.016093,-104.98046875,216.30859375,112.79296875,-108.88671875,0.0
1734580806.019999,-108.3984375,-8.7890625,15.625,-113.76953125,0.0
1734580806.023905,-109.86328125,-550.29296875,-195.3125,-121.58203125,0.0
1734580806.027811,-122.0703125,-262.20703125,-61.03515625,-148.92578125,0.0
1734580806.031717,-140.13671875,323.73046875,149.90234375,-189.94140625,0.0
1734580806.035678,-176.7578125,86.42578125,13.18359375,-227.05078125,0.0
1734580806.039584,-190.4296875,-89.84375,-57.12890625,-239.74609375,0.0
1734580806.04349,-187.01171875,207.51953125,74.70703125,-255.859375,0.0
1734580806.047396,-195.80078125,328.125,95.703125,-283.203125,0.0
1734580806.051302,-219.23828125,16.6015625,-39.0625,-293.9453125,0.0
1734580806.055208,-246.58203125,-422.36328125,-242.1875,-308.10546875,0.0
1734580806.059114,-264.6484375,-188.96484375,-64.94140625,-321.77734375,0.0
1734580806.06302,-254.8828125,259.27734375,140.625,-319.82421875,0.0
1734580806.0669258,-239.2578125,-321.77734375,-232.421875,-319.3359375,0.0
1734580806.0708318,-260.25390625,-743.1640625,-375.9765625,-331.54296875,0.0
1734580806.0747378,-278.3203125,0.48828125,39.0625,-349.609375,0.0
1734580806.0786438,-272.94921875,-83.0078125,7.8125,-326.171875,0.0
1734580806.0825903,-267.578125,-326.171875,-106.93359375,-321.2890625,0.0
1734580806.0864964,-253.90625,19.53125,-1.46484375,-335.9375,0.0
1734580806.0904024,-249.0234375,-60.05859375,-42.48046875,-331.54296875,0.0
1734580806.0943084,-240.234375,-346.6796875,-197.75390625,-312.01171875,0.0
1734580806.0982141,-220.21484375,-176.26953125,-54.19921875,-296.875,0.0
1734580806.1021202,-206.0546875,-264.16015625,-58.59375,-294.43359375,0.0
1734580806.1060262,-176.26953125,-176.26953125,-37.109375,-271.97265625,0.0
1734580806.1099322,-142.578125,109.86328125,19.53125,-240.72265625,0.0
1734580806.1138382,-140.13671875,-541.50390625,-287.109375,-212.890625,0.0
1734580806.1177442,-138.18359375,-390.625,-127.44140625,-189.453125,0.0
1734580806.1216502,-106.4453125,361.328125,147.4609375,-179.6875,0.0
1734580806.1255562,-66.40625,58.59375,-24.90234375,-155.2734375,0.0
1734580806.129483,-41.015625,-162.109375,-53.7109375,-134.27734375,0.0
1734580806.133389,-36.1328125,-84.9609375,51.7578125,-118.1640625,0.0
1734580806.137295,-20.99609375,32.2265625,89.35546875,-82.51953125,0.0
1734580806.141201,6.34765625,-32.2265625,-2.9296875,-70.3125,0.0
1734580806.145107,15.13671875,-179.19921875,-67.3828125,-65.91796875,0.0
1734580806.149013,34.66796875,-281.25,-49.31640625,-43.45703125,0.0
1734580806.1529188,49.8046875,-183.10546875,67.87109375,-26.3671875,0.0
1734580806.1568248,58.10546875,-234.86328125,-74.70703125,-9.765625,0.0
1734580806.1607308,57.6171875,-662.59765625,-251.953125,12.20703125,0.0
1734580806.1646369,61.03515625,9.765625,139.16015625,24.90234375,0.0
1734580806.1685429,85.44921875,246.09375,139.16015625,33.203125,0.0
1734580806.1724489,82.51953125,-127.44140625,98.6328125,29.296875,0.0
1734580806.1763737,80.56640625,-6.8359375,0.0,30.2734375,0.0
1734580806.1802797,98.14453125,354.4921875,0.0,44.43359375,0.0
1734580806.1841857,107.91015625,13.671875,0.0,71.2890625,0.0
1734580806.1880918,103.02734375,-297.36328125,0.0,74.21875,0.0
1734580806.1919978,91.796875,-185.05859375,0.0,58.59375,0.0
1734580806.1959038,96.19140625,-184.5703125,0.0,70.3125,0.0
1734580806.1998098,109.86328125,-141.11328125,0.0,68.84765625,0.0
1734580806.2037158,112.3046875,-579.1015625,0.0,60.546875,0.0
1734580806.2076216,112.3046875,-497.55859375,0.0,56.640625,0.0
1734580806.2115276,120.60546875,285.15625,0.0,53.7109375,0.0
1734580806.2154336,115.72265625,205.078125,0.0,57.12890625,0.0
1734580806.2193396,100.5859375,1.953125,0.0,58.59375,0.0
1734580806.2232244,95.21484375,268.5546875,341.796875,62.5,0.0
1734580806.2271304,99.609375,297.8515625,330.078125,67.87109375,0.0
1734580806.2310364,95.703125,-23.92578125,296.38671875,65.4296875,0.0
1734580806.2349424,90.33203125,-62.01171875,341.796875,59.5703125,0.0
1734580806.2388482,102.05078125,251.46484375,393.5546875,59.08203125,0.0
1734580806.2427542,102.5390625,82.51953125,372.55859375,55.6640625,0.0
1734580806.2466602,94.23828125,-525.390625,225.5859375,60.546875,0.0
1734580806.2505662,77.1484375,-727.05078125,262.20703125,56.15234375,0.0
1734580806.2544723,72.265625,37.59765625,495.1171875,42.48046875,0.0
1734580806.2583783,78.125,369.140625,485.3515625,47.36328125,0.0
1734580806.2622843,82.03125,-42.48046875,429.19921875,58.10546875,0.0
1734580806.2661903,89.84375,-101.07421875,454.1015625,55.6640625,0.0
1734580806.270047,89.84375,237.79296875,524.4140625,47.8515625,0.0
1734580806.273953,74.70703125,354.4921875,544.43359375,41.015625,0.0
1734580806.277859,62.5,-16.11328125,522.94921875,44.43359375,0.0
1734580806.281765,71.77734375,-125.0,526.85546875,49.8046875,0.0
1734580806.285671,73.73046875,126.46484375,537.109375,47.8515625,0.0
1734580806.289577,68.84765625,-28.3203125,519.53125,41.50390625,0.0
1734580806.2934828,53.22265625,-616.69921875,385.25390625,52.734375,0.0
1734580806.2973888,49.8046875,-486.328125,462.40234375,55.6640625,0.0
1734580806.3012948,61.03515625,329.58984375,621.58203125,41.015625,0.0
1734580806.3052008,65.4296875,76.171875,527.34375,26.3671875,0.0
1734580806.3091068,62.5,-272.4609375,505.37109375,21.484375,0.0
1734580806.3130128,44.921875,65.91796875,596.19140625,30.76171875,0.0
1734580806.31685,39.0625,369.140625,614.2578125,26.85546875,0.0
1734580806.320756,47.8515625,46.38671875,568.359375,36.1328125,0.0
1734580806.324662,54.6875,-183.59375,571.77734375,42.48046875,0.0
1734580806.328568,58.10546875,146.484375,586.42578125,30.76171875,0.0
1734580806.332474,45.41015625,270.5078125,591.30859375,19.53125,0.0
1734580806.33638,28.3203125,-259.765625,483.3984375,21.484375,0.0
1734580806.340286,24.4140625,-737.79296875,466.796875,26.85546875,0.0
1734580806.3441918,33.203125,-50.78125,610.3515625,19.04296875,0.0
1734580806.3480978,54.19921875,351.5625,591.30859375,17.08984375,0.0
1734580806.3520038,59.5703125,-36.62109375,512.6953125,4.39453125,0.0
1734580806.3559098,45.41015625,-22.94921875,560.546875,-1.953125,0.0
1734580806.3598158,49.31640625,269.53125,604.4921875,1.46484375,0.0
1734580806.363806,41.50390625,-20.99609375,543.45703125,12.6953125,0.0
1734580806.367712,14.16015625,-270.5078125,543.9453125,19.04296875,0.0
1734580806.371618,3.41796875,-314.94140625,542.96875,7.8125,0.0
1734580806.375524,5.859375,-39.55078125,568.84765625,-4.39453125,0.0
1734580806.37943,10.25390625,218.26171875,575.1953125,-2.44140625,0.0
1734580806.383336,22.4609375,-276.85546875,516.6015625,-1.953125,0.0
1734580806.387242,27.34375,-360.3515625,524.4140625,-10.25390625,0.0
1734580806.3911479,32.71484375,168.9453125,572.265625,-7.32421875,0.0
1734580806.3950539,42.48046875,234.375,527.34375,-3.90625,0.0
1734580806.3989599,46.38671875,-395.01953125,455.078125,10.25390625,0.0
1734580806.402866,48.828125,-331.54296875,524.4140625,22.94921875,0.0
1734580806.406772,46.875,184.08203125,560.05859375,13.18359375,0.0
1734580806.410732,29.296875,4.8828125,519.04296875,5.37109375,0.0
1734580806.414638,24.4140625,-138.671875,522.94921875,3.41796875,0.0
1734580806.4185438,20.5078125,205.56640625,554.19921875,2.9296875,0.0
1734580806.4224498,23.92578125,17.08984375,502.44140625,6.34765625,0.0
1734580806.4263558,35.15625,-354.4921875,428.7109375,-0.48828125,0.0
1734580806.4302619,39.55078125,-451.171875,428.7109375,0.0,0.0
1734580806.4341679,29.296875,-116.2109375,507.32421875,-2.44140625,0.0
1734580806.4380739,25.87890625,371.09375,562.98828125,-14.6484375,0.0
1734580806.44198,35.64453125,-183.59375,367.1875,2.44140625,0.0
1734580806.445886,37.109375,-551.7578125,360.83984375,19.04296875,0.0
1734580806.449792,24.90234375,119.140625,526.85546875,15.625,0.0
1734580806.4536977,27.83203125,358.88671875,530.76171875,3.90625,0.0
1734580806.457643,40.52734375,-371.58203125,328.125,19.04296875,0.0
1734580806.461549,36.1328125,-591.30859375,338.8671875,29.296875,0.0
1734580806.465455,29.296875,-86.9140625,486.81640625,24.90234375,0.0
1734580806.4693608,37.109375,-258.30078125,401.3671875,24.90234375,0.0
1734580806.4732668,41.50390625,-228.515625,437.98828125,12.20703125,0.0
1734580806.4771729,29.78515625,-250.9765625,429.19921875,2.9296875,0.0
1734580806.4810789,43.45703125,-244.62890625,393.06640625,14.16015625,0.0
1734580806.4849849,67.87109375,-180.6640625,411.1328125,39.0625,0.0
1734580806.488891,35.64453125,-611.81640625,248.53515625,44.43359375,0.0
1734580806.492797,-23.4375,-415.52734375,326.66015625,-11.23046875,0.0
1734580806.496703,-21.97265625,325.68359375,493.65234375,-58.59375,0.0
1734580806.500609,-22.4609375,152.83203125,398.92578125,-45.8984375,0.0
1734580806.5045257,-39.55078125,-89.35546875,392.08984375,-30.2734375,0.0
1734580806.5084314,-47.36328125,157.71484375,424.31640625,-22.94921875,0.0
1734580806.5123374,-76.171875,315.4296875,430.6640625,-44.921875,0.0
1734580806.5162435,-84.47265625,5.859375,355.95703125,-50.29296875,0.0
1734580806.5201495,-73.73046875,-160.15625,336.42578125,-28.80859375,0.0
1734580806.5240555,-77.63671875,-248.046875,312.01171875,-26.85546875,0.0
1734580806.5279615,-96.19140625,-154.296875,355.46875,-19.04296875,0.0
1734580806.5318675,-90.33203125,-287.109375,206.0546875,-17.08984375,0.0
1734580806.5357735,-80.56640625,-843.75,106.4453125,-16.6015625,0.0
1734580806.5396795,-90.33203125,-104.4921875,393.06640625,-14.6484375,0.0
1734580806.5435853,-88.37890625,359.86328125,400.390625,-5.37109375,0.0
1734580806.5474913,-80.078125,-72.75390625,321.2890625,11.23046875,0.0
1734580806.551396,-65.91796875,-94.23828125,337.890625,23.92578125,0.0
1734580806.555302,-62.5,229.98046875,370.60546875,24.90234375,0.0
1734580806.559208,-67.87109375,-6.34765625,313.4765625,22.4609375,0.0
1734580806.563114,-53.22265625,-288.57421875,297.36328125,29.296875,0.0
1734580806.56702,-45.8984375,-59.5703125,315.4296875,35.15625,0.0
1734580806.570926,-45.8984375,-203.125,247.55859375,33.69140625,0.0
1734580806.574832,-41.50390625,-336.42578125,277.83203125,9.765625,0.0
1734580806.578738,-39.0625,-623.046875,125.9765625,8.30078125,0.0
1734580806.5826437,-36.62109375,-509.765625,168.45703125,20.01953125,0.0
1734580806.5865498,-30.76171875,218.75,364.74609375,21.97265625,0.0
1734580806.5904558,-30.2734375,62.01171875,275.87890625,30.76171875,0.0
1734580806.5943618,-26.3671875,-324.21875,242.1875,22.94921875,0.0
1734580806.5982375,-19.53125,-11.71875,321.77734375,16.6015625,0.0
1734580806.6021435,-24.4140625,360.83984375,365.72265625,26.3671875,0.0
1734580806.6060495,-21.97265625,9.765625,243.1640625,22.4609375,0.0
1734580806.6099555,-17.578125,-237.3046875,234.86328125,28.80859375,0.0
1734580806.6138616,-21.97265625,67.3828125,301.26953125,21.484375,0.0
1734580806.6177676,-19.04296875,-34.1796875,243.65234375,7.32421875,0.0
1734580806.6216736,-13.18359375,-550.29296875,88.37890625,5.859375,0.0
1734580806.6255794,-13.18359375,-477.05078125,126.953125,2.44140625,0.0
1734580806.6294854,-11.71875,66.40625,288.57421875,-1.46484375,0.0
1734580806.6333914,-4.39453125,291.015625,329.58984375,-4.39453125,0.0
1734580806.6372974,-0.48828125,-319.82421875,51.26953125,-9.765625,0.0
1734580806.6412034,-1.953125,-685.546875,-29.296875,-14.16015625,0.0
1734580806.6450632,-1.953125,102.5390625,286.62109375,0.0,0.0
1734580806.6489692,1.46484375,175.78125,240.72265625,11.23046875,0.0
1734580806.6528752,-8.7890625,-275.87890625,180.17578125,-2.9296875,0.0
1734580806.6567812,-0.48828125,-421.38671875,168.45703125,-1.46484375,0.0
1734580806.6606872,37.59765625,-74.21875,205.56640625,24.4140625,0.0
1734580806.664593,23.4375,-124.51171875,197.265625,37.109375,0.0
1734580806.668499,-22.4609375,-735.83984375,-77.1484375,14.6484375,0.0
1734580806.672405,-34.1796875,-549.31640625,2.44140625,0.0,0.0
1734580806.676311,-23.92578125,235.83984375,300.29296875,6.8359375,0.0
1734580806.680217,-19.53125,164.55078125,185.546875,17.08984375,0.0
1734580806.684123,-20.5078125,-107.421875,149.90234375,30.76171875,0.0
1734580806.688029,-19.53125,26.3671875,207.03125,30.2734375,0.0
1734580806.6918664,-14.16015625,262.20703125,244.140625,41.9921875,0.0
1734580806.6957724,-20.99609375,52.24609375,172.8515625,36.62109375,0.0
1734580806.6996784,-22.4609375,-164.0625,138.671875,28.80859375,0.0
1734580806.7035844,-21.484375,98.6328125,197.265625,44.921875,0.0
1734580806.7074904,-25.390625,36.62109375,181.15234375,58.10546875,0.0
1734580806.7113965,-28.80859375,-521.97265625,-30.76171875,62.5,0.0
1734580806.7153022,-33.69140625,-761.23046875,-103.515625,49.8046875,0.0
1734580806.7192082,-12.20703125,-113.28125,172.36328125,50.29296875,0.0
1734580806.7231143,-4.8828125,274.90234375,248.046875,52.734375,0.0
1734580806.7270203,-5.859375,-403.3203125,-75.1953125,58.10546875,0.0
1734580806.7309263,12.6953125,-605.46875,-87.890625,64.94140625,0.0
1734580806.7348323,9.765625,130.37109375,243.65234375,50.29296875,0.0
1734580806.7388105,12.20703125,201.66015625,170.41015625,38.57421875,0.0
1734580806.7427166,15.13671875,-166.50390625,125.0,51.26953125,0.0
1734580806.7466226,2.44140625,-431.15234375,81.0546875,46.875,0.0
1734580806.7505286,0.0,-270.5078125,111.81640625,28.80859375,0.0
1734580806.7544346,3.41796875,12.6953125,163.0859375,16.11328125,0.0
1734580806.7583406,12.20703125,-322.75390625,94.7265625,33.203125,0.0
1734580806.7622464,17.08984375,-372.55859375,113.28125,46.38671875,0.0
1734580806.7661524,23.4375,-135.25390625,121.09375,48.33984375,0.0
1734580806.7700584,20.99609375,-192.87109375,74.70703125,52.734375,0.0
1734580806.7739644,4.39453125,-512.20703125,-60.05859375,45.41015625,0.0
1734580806.7778704,9.27734375,-302.24609375,65.91796875,39.0625,0.0
1734580806.7817764,14.6484375,233.88671875,226.5625,31.73828125,0.0
1734580806.7857523,7.8125,-66.89453125,99.12109375,36.1328125,0.0
1734580806.7896583,10.25390625,-241.2109375,96.19140625,36.62109375,0.0
1734580806.7935643,2.44140625,83.0078125,178.22265625,18.5546875,0.0
1734580806.7974703,-1.953125,296.875,204.1015625,10.25390625,0.0
1734580806.8013763,1.953125,-41.50390625,68.359375,11.71875,0.0
1734580806.8052824,6.34765625,-563.4765625,-48.33984375,21.97265625,0.0
1734580806.8091884,4.8828125,-351.07421875,70.80078125,24.90234375,0.0
1734580806.8130944,0.0,151.85546875,212.890625,24.90234375,0.0
1734580806.8170004,0.0,-307.6171875,-94.23828125,26.85546875,0.0
1734580806.8209062,1.953125,-767.08984375,-206.0546875,20.99609375,0.0
1734580806.8248122,2.44140625,-336.42578125,120.1171875,15.13671875,0.0
1734580806.8287182,6.34765625,-163.0859375,99.609375,21.484375,0.0
1734580806.832655,14.16015625,-158.69140625,89.35546875,21.97265625,0.0
1734580806.836561,-5.859375,-53.22265625,112.3046875,-7.8125,0.0
1734580806.840467,-28.80859375,-94.7265625,108.3984375,-24.90234375,0.0
1734580806.844373,-21.97265625,-310.546875,67.3828125,-7.32421875,0.0
1734580806.848279,-23.92578125,-312.01171875,77.63671875,0.48828125,0.0
1734580806.8521848,-31.25,-404.296875,41.50390625,-1.953125,0.0
1734580806.8560908,-32.71484375,-174.8046875,86.9140625,-4.8828125,0.0
1734580806.8599968,-27.34375,141.11328125,153.80859375,-9.765625,0.0
1734580806.8639028,-25.87890625,-502.44140625,-169.921875,-2.9296875,0.0
1734580806.8678088,-23.4375,-507.8125,-118.65234375,14.6484375,0.0
1734580806.8717148,-20.99609375,251.953125,200.68359375,13.18359375,0.0
1734580806.8756208,-8.7890625,141.11328125,112.3046875,2.44140625,0.0
1734580806.8795476,-10.25390625,-226.5625,14.6484375,0.0,0.0
1734580806.8834534,-19.53125,-164.55078125,78.61328125,8.7890625,0.0
1734580806.8873594,-13.18359375,208.984375,182.6171875,12.20703125,0.0
1734580806.8912654,-22.4609375,38.57421875,83.0078125,10.25390625,0.0
1734580806.8951714,-25.87890625,-222.65625,40.0390625,2.9296875,0.0
1734580806.8990774,-21.97265625,-218.75,86.9140625,-4.8828125,0.0
1734580806.9029834,-22.94921875,-223.14453125,108.88671875,1.953125,0.0
1734580806.9068894,-17.08984375,-541.015625,-127.44140625,8.7890625,0.0
1734580806.9107955,-25.390625,-724.12109375,-179.6875,4.39453125,0.0
1734580806.9147015,-30.76171875,-3.90625,184.5703125,-13.18359375,0.0
1734580806.9186075,-26.85546875,258.30078125,178.22265625,-13.18359375,0.0
1734580806.9225132,-34.1796875,-99.12109375,93.26171875,-18.06640625,0.0
1734580806.926427,-34.66796875,-73.73046875,103.515625,-20.5078125,0.0
1734580806.930333,-37.59765625,262.6953125,169.43359375,-10.25390625,0.0
1734580806.934239,-43.9453125,-53.22265625,88.8671875,-3.90625,0.0
1734580806.938145,-42.48046875,-402.83203125,56.15234375,-4.8828125,0.0
1734580806.9420507,-33.69140625,-115.234375,131.8359375,-19.53125,0.0
1734580806.9459567,-32.2265625,-108.3984375,65.4296875,-42.48046875,0.0
1734580806.9498627,-46.875,-216.30859375,98.14453125,-69.3359375,0.0
1734580806.9537687,-50.78125,-591.30859375,-148.92578125,-58.10546875,0.0
1734580806.9576747,-48.33984375,-497.55859375,-138.18359375,-50.29296875,0.0
1734580806.9615808,-41.015625,301.26953125,228.02734375,-47.8515625,0.0
1734580806.9654868,-32.71484375,102.5390625,90.33203125,-27.34375,0.0
1734580806.9693928,-53.7109375,-187.01171875,49.31640625,-22.4609375,0.0
1734580806.9732783,-58.59375,41.015625,141.11328125,-26.85546875,0.0
1734580806.9771843,-42.96875,218.75,163.0859375,-54.6875,0.0
1734580806.9810903,-47.36328125,-14.16015625,89.35546875,-55.6640625,0.0
1734580806.9849963,-27.83203125,-167.48046875,67.87109375,-18.5546875,0.0
1734580806.9889023,3.90625,102.5390625,141.6015625,6.34765625,0.0
1734580806.9928083,-3.90625,-93.26171875,113.76953125,-3.90625,0.0
1734580806.9967144,-33.69140625,-593.26171875,-100.09765625,-32.2265625,0.0
1734580807.0006204,-53.22265625,-737.79296875,-160.15625,-30.2734375,0.0
1734580807.0045264,-21.484375,-78.125,152.83203125,-1.953125,0.0
1734580807.0084324,-12.20703125,267.08984375,198.2421875,21.97265625,0.0
1734580807.0123382,-3.90625,-116.69921875,90.8203125,27.83203125,0.0
1734580807.0162442,17.08984375,-125.9765625,99.609375,30.2734375,0.0
1734580807.0201087,16.11328125,234.86328125,182.12890625,38.0859375,0.0
1734580807.0240147,20.99609375,207.03125,158.69140625,48.33984375,0.0
1734580807.0279207,0.9765625,-276.3671875,31.73828125,44.43359375,0.0
1734580807.0318265,-3.90625,-329.58984375,86.42578125,34.1796875,0.0
1734580807.0357325,9.765625,129.8828125,186.03515625,27.83203125,0.0
1734580807.0396385,13.18359375,-21.484375,158.203125,26.85546875,0.0
1734580807.0435445,17.578125,-691.40625,-139.16015625,35.15625,0.0
1734580807.0474505,18.5546875,-560.546875,-107.91015625,53.22265625,0.0
1734580807.0513566,16.6015625,87.890625,213.8671875,51.26953125,0.0
1734580807.0552626,19.53125,-204.1015625,101.07421875,29.296875,0.0
1734580807.0591686,23.4375,-233.3984375,116.2109375,20.01953125,0.0
1734580807.0630746,10.25390625,105.46875,176.7578125,18.06640625,0.0
1734580807.067076,16.11328125,220.703125,191.40625,17.08984375,0.0
1734580807.0709817,13.18359375,-91.796875,122.55859375,19.53125,0.0
1734580807.0748878,-0.9765625,-249.51171875,109.375,5.859375,0.0
1734580807.0787938,13.18359375,145.5078125,187.01171875,-5.859375,0.0
1734580807.0826998,4.8828125,233.3984375,202.1484375,-2.44140625,0.0
1734580807.0866058,-11.71875,-420.8984375,-22.94921875,10.25390625,0.0
1734580807.0905118,-7.32421875,-820.80078125,-154.296875,18.06640625,0.0
1734580807.0944178,-1.46484375,-108.88671875,162.109375,1.46484375,0.0
1734580807.0983238,0.48828125,219.23828125,216.796875,-10.25390625,0.0
1734580807.1022298,1.46484375,-159.66796875,87.890625,-2.44140625,0.0
1734580807.1061358,-9.765625,-160.15625,114.74609375,2.44140625,0.0
1734580807.1100416,-12.6953125,-34.66796875,164.0625,8.30078125,0.0
1734580807.1140263,-3.41796875,-302.734375,100.5859375,-1.953125,0.0
1734580807.1179323,-0.9765625,-307.6171875,164.0625,-10.7421875,0.0
1734580807.1218383,-1.46484375,-292.96875,148.92578125,-7.32421875,0.0
1734580807.1257443,0.9765625,-219.23828125,134.27734375,-2.9296875,0.0
1734580807.1296504,-6.34765625,13.18359375,189.453125,-0.9765625,0.0
1734580807.1335561,-21.484375,-274.4140625,122.0703125,-9.765625,0.0
1734580807.1374621,-11.23046875,-289.0625,165.0390625,-15.625,0.0
1734580807.1413682,-1.46484375,176.7578125,274.4140625,-2.9296875,0.0
1734580807.1452742,-4.8828125,82.03125,176.26953125,2.44140625,0.0
1734580807.1491802,-14.16015625,-632.8125,-105.95703125,9.765625,0.0
1734580807.1530862,-14.16015625,-478.02734375,61.5234375,-1.46484375,0.0
1734580807.1569922,-1.46484375,243.65234375,301.26953125,-17.578125,0.0
1734580807.160947,-6.34765625,34.1796875,191.89453125,-20.01953125,0.0
1734580807.164853,-13.671875,-208.984375,199.21875,-14.6484375,0.0
1734580807.168759,-6.34765625,-167.96875,197.75390625,-16.11328125,0.0
1734580807.172665,-3.41796875,29.296875,253.90625,-32.2265625,0.0
1734580807.1765711,-3.90625,39.55078125,213.37890625,-29.296875,0.0
1734580807.180477,-13.18359375,-394.04296875,131.34765625,-20.99609375,0.0
1734580807.184383,-16.11328125,-247.55859375,225.09765625,-18.06640625,0.0
1734580807.188289,-5.37109375,232.421875,346.19140625,-15.13671875,0.0
1734580807.192195,-12.6953125,-231.93359375,82.03125,-15.13671875,0.0
1734580807.196101,-20.5078125,-729.4921875,-14.16015625,-15.625,0.0
1734580807.200007,0.48828125,40.52734375,332.03125,-3.41796875,0.0
1734580807.203913,18.5546875,217.7734375,292.48046875,14.16015625,0.0
1734580807.2078583,-17.578125,-168.9453125,261.23046875,0.48828125,0.0
1734580807.2117643,-49.31640625,-81.0546875,301.26953125,-31.25,0.0
1734580807.2156703,-49.8046875,-110.3515625,255.37109375,-73.73046875,0.0
1734580807.2195764,-60.05859375,-191.89453125,243.1640625,-99.12109375,0.0
1734580807.2234821,-81.0546875,-188.96484375,282.2265625,-100.5859375,0.0
1734580807.2273881,-98.14453125,-379.8828125,244.140625,-104.4921875,0.0
1734580807.2312942,-109.375,-366.69921875,230.95703125,-123.046875,0.0
1734580807.2352002,-120.1171875,-227.05078125,278.3203125,-148.92578125,0.0
1734580807.2391062,-117.67578125,-613.28125,94.23828125,-146.484375,0.0
1734580807.2430122,-112.3046875,-463.8671875,182.6171875,-141.6015625,0.0
1734580807.2469182,-121.58203125,235.3515625,370.60546875,-153.3203125,0.0
1734580807.2508242,-114.74609375,-129.39453125,252.9296875,-148.4375,0.0
1734580807.254747,-98.14453125,-221.6796875,275.87890625,-130.859375,0.0
1734580807.258653,-85.44921875,150.87890625,333.984375,-114.74609375,0.0
1734580807.262559,-79.1015625,284.66796875,359.86328125,-104.00390625,0.0
1734580807.266465,-77.63671875,33.203125,268.06640625,-90.8203125,0.0
1734580807.270371,-65.4296875,-187.01171875,255.859375,-86.9140625,0.0
1734580807.274277,-56.640625,-223.6328125,279.296875,-90.8203125,0.0
1734580807.2781827,-58.10546875,-42.96875,329.58984375,-103.515625,0.0
1734580807.2820888,-51.7578125,-261.23046875,162.59765625,-68.359375,0.0
1734580807.2859948,-41.50390625,-716.796875,86.9140625,-31.25,0.0
1734580807.2899008,-45.8984375,-29.296875,360.83984375,-49.31640625,0.0
1734580807.2938068,-41.015625,320.3125,353.02734375,-62.5,0.0
1734580807.2977128,-42.96875,-37.109375,282.2265625,-67.3828125,0.0
1734580807.3016152,-41.50390625,-100.09765625,301.26953125,-64.453125,0.0
1734580807.3055212,-26.3671875,193.84765625,346.19140625,-51.26953125,0.0
1734580807.3094273,-23.92578125,-203.61328125,251.46484375,-44.43359375,0.0
1734580807.3133333,-20.99609375,-360.3515625,291.50390625,-46.38671875,0.0
1734580807.3172393,-19.04296875,8.30078125,344.23828125,-51.26953125,0.0
1734580807.3211453,-10.7421875,-142.578125,265.625,-38.0859375,0.0
1734580807.3250513,-13.18359375,-270.01953125,279.78515625,-20.99609375,0.0
1734580807.3289573,-19.53125,-648.4375,100.5859375,-15.625,0.0
1734580807.3328633,-18.06640625,-528.3203125,170.41015625,-19.04296875,0.0
1734580807.3367693,-9.27734375,264.6484375,408.203125,-32.2265625,0.0
1734580807.340675,-9.765625,33.69140625,304.6875,-25.390625,0.0
1734580807.3445811,-17.08984375,-207.51953125,284.1796875,-20.99609375,0.0
1734580807.3484693,0.0,101.5625,334.47265625,-26.3671875,0.0
1734580807.3523753,0.0,298.828125,356.4453125,-17.08984375,0.0
1734580807.3562813,0.0,-31.25,269.04296875,-20.5078125,0.0
1734580807.3601873,0.0,-183.59375,275.390625,-20.01953125,0.0
1734580807.3640933,0.0,269.04296875,367.1875,-4.39453125,0.0
1734580807.3679993,0.0,97.65625,331.0546875,2.44140625,0.0
1734580807.3719053,0.0,-402.34375,204.58984375,-7.8125,0.0
1734580807.3758113,0.0,-660.15625,179.19921875,-16.11328125,0.0
1734580807.3797174,0.0,-11.23046875,372.55859375,-8.7890625,0.0
1734580807.3836234,0.0,419.921875,366.69921875,2.44140625,0.0
1734580807.3875291,0.0,30.76171875,268.06640625,11.71875,0.0
1734580807.3914351,0.0,7.32421875,305.17578125,1.46484375,0.0
1734580807.3953009,4.8828125,307.12890625,358.3984375,-17.578125,0.0
1734580807.3992069,9.27734375,-6.34765625,282.71484375,-14.16015625,0.0
1734580807.403113,1.953125,-397.94921875,251.953125,-11.23046875,0.0
1734580807.407019,-10.25390625,-114.2578125,309.5703125,-17.578125,0.0
1734580807.4109247,-28.3203125,203.125,326.66015625,-22.94921875,0.0
1734580807.4148307,-23.92578125,-64.94140625,289.55078125,-31.73828125,0.0
1734580807.4187367,-6.8359375,-700.68359375,112.3046875,-18.5546875,0.0
1734580807.4226427,-10.25390625,-535.15625,172.8515625,-10.25390625,0.0
1734580807.4265487,-13.18359375,265.625,387.6953125,-13.18359375,0.0
1734580807.4304547,-17.08984375,158.69140625,277.34375,-20.01953125,0.0
1734580807.4343607,-13.18359375,-100.09765625,263.671875,-26.3671875,0.0
1734580807.4382668,-9.765625,81.0546875,335.44921875,-20.01953125,0.0
1734580807.4421089,-5.37109375,213.8671875,322.265625,-29.296875,0.0
1734580807.446015,-3.90625,-88.37890625,246.09375,-21.97265625,0.0
1734580807.449921,-2.9296875,-265.625,250.48828125,-16.6015625,0.0
1734580807.453827,-5.859375,-50.78125,295.8984375,-34.66796875,0.0
1734580807.457733,-11.23046875,-165.0390625,289.0625,-37.109375,0.0
1734580807.461639,-20.99609375,-535.15625,176.26953125,-33.203125,0.0
1734580807.465545,-32.71484375,-751.46484375,160.64453125,-19.53125,0.0
1734580807.469451,-11.23046875,-167.48046875,349.12109375,17.578125,0.0
1734580807.4733567,-10.7421875,175.78125,352.05078125,5.37109375,0.0
1734580807.4772627,-49.31640625,-101.07421875,245.1171875,-50.29296875,0.0
1734580807.4811687,-61.03515625,-147.4609375,271.484375,-62.5,0.0
1734580807.4850748,-58.10546875,152.34375,362.79296875,-56.15234375,0.0
1734580807.48906,-58.59375,114.2578125,329.58984375,-69.82421875,0.0
1734580807.492966,-57.12890625,-165.0390625,330.56640625,-87.890625,0.0
1734580807.496872,-66.40625,-339.35546875,290.52734375,-103.515625,0.0
1734580807.500778,-69.82421875,-176.7578125,301.26953125,-114.74609375,0.0
1734580807.504684,-78.125,88.8671875,351.07421875,-112.79296875,0.0
1734580807.50859,-93.26171875,-358.3984375,266.6015625,-121.09375,0.0
1734580807.512496,-88.8671875,-637.6953125,231.93359375,-148.4375,0.0
1734580807.516402,-86.9140625,-145.99609375,330.56640625,-176.7578125,0.0
1734580807.5203078,-93.75,37.59765625,323.2421875,-177.24609375,0.0
1734580807.5242138,-97.16796875,-498.53515625,211.9140625,-171.38671875,0.0
1734580807.5281198,-105.95703125,-381.8359375,291.9921875,-189.453125,0.0
1734580807.5320258,-116.2109375,134.27734375,371.09375,-191.89453125,0.0
1734580807.535987,-119.62890625,-2.44140625,333.984375,-206.54296875,0.0
1734580807.539893,-117.1875,-192.87109375,333.49609375,-206.54296875,0.0
1734580807.543799,-111.81640625,56.15234375,373.53515625,-197.265625,0.0
1734580807.547705,-105.46875,182.12890625,398.4375,-203.61328125,0.0
1734580807.551611,-99.12109375,-133.30078125,310.546875,-207.03125,0.0
1734580807.555517,-97.16796875,-503.41796875,244.62890625,-207.51953125,0.0
1734580807.559423,-89.35546875,-238.28125,343.26171875,-195.80078125,0.0
1734580807.563329,-81.0546875,188.96484375,403.80859375,-178.7109375,0.0
1734580807.5672348,-69.3359375,-297.36328125,170.41015625,-153.3203125,0.0
1734580807.5711408,-53.7109375,-756.8359375,135.7421875,-131.8359375,0.0
1734580807.5750468,-35.15625,-179.19921875,366.2109375,-131.8359375,0.0
1734580807.5789528,-13.671875,262.20703125,412.109375,-120.60546875,0.0
1734580807.5828953,6.8359375,-346.6796875,184.08203125,-69.82421875,0.0
1734580807.5868013,19.04296875,-755.859375,150.87890625,-34.1796875,0.0
1734580807.5907073,31.73828125,-337.890625,339.35546875,-36.62109375,0.0
1734580807.5946133,62.98828125,-318.359375,298.828125,-31.73828125,0.0
1734580807.5985193,69.82421875,-328.125,307.12890625,-22.94921875,0.0
1734580807.6024253,76.66015625,-427.734375,295.8984375,3.41796875,0.0
1734580807.6063313,89.35546875,-230.95703125,329.1015625,37.109375,0.0
1734580807.6102374,88.8671875,88.37890625,361.81640625,45.41015625,0.0
1734580807.6141434,100.09765625,-534.66796875,129.8828125,29.296875,0.0
1734580807.6180494,113.76953125,-535.15625,188.96484375,44.43359375,0.0
1734580807.6219554,120.60546875,245.1171875,417.96875,64.453125,0.0
1734580807.6258612,120.60546875,-4.39453125,303.7109375,63.4765625,0.0
1734580807.6297817,126.46484375,-327.1484375,293.45703125,59.5703125,0.0
1734580807.6336877,118.65234375,-24.4140625,358.3984375,51.26953125,0.0
1734580807.6375937,100.5859375,197.75390625,353.02734375,52.734375,0.0
1734580807.6414998,97.65625,-110.83984375,274.4140625,64.94140625,0.0
1734580807.6454058,88.8671875,-359.86328125,254.39453125,83.0078125,0.0
1734580807.6493118,81.0546875,-415.0390625,256.8359375,91.30859375,0.0
1734580807.6532178,74.21875,-278.3203125,318.84765625,68.84765625,0.0
1734580807.6571236,68.359375,-394.53125,182.12890625,52.24609375,0.0
1734580807.6610296,74.21875,-772.94921875,104.00390625,67.3828125,0.0
1734580807.6649356,74.21875,-187.01171875,327.63671875,74.70703125,0.0
1734580807.6688416,64.94140625,24.90234375,297.8515625,71.2890625,0.0
1734580807.6727476,45.41015625,-383.7890625,223.6328125,63.4765625,0.0
1734580807.6766503,36.1328125,-278.80859375,272.94921875,57.6171875,0.0
1734580807.6805563,40.52734375,26.3671875,318.84765625,57.12890625,0.0
1734580807.684462,42.48046875,-371.58203125,225.09765625,63.4765625,0.0
1734580807.688368,53.7109375,-697.265625,221.19140625,80.078125,0.0
1734580807.692274,55.17578125,-420.8984375,269.04296875,77.63671875,0.0
1734580807.69618,28.80859375,-348.6328125,246.58203125,44.921875,0.0
1734580807.700086,20.99609375,-407.71484375,265.13671875,41.9921875,0.0
1734580807.7039921,36.62109375,-715.8203125,105.46875,62.01171875,0.0
1734580807.7078981,33.69140625,-572.265625,164.55078125,59.5703125,0.0
1734580807.7118042,24.4140625,185.05859375,405.2734375,37.59765625,0.0
1734580807.7157102,19.04296875,94.23828125,305.6640625,22.4609375,0.0
1734580807.7196162,28.80859375,-239.74609375,241.2109375,27.34375,0.0
1734580807.7235055,41.50390625,-93.26171875,319.82421875,53.22265625,0.0
1734580807.7274115,43.45703125,170.8984375,356.93359375,69.82421875,0.0
1734580807.7313175,21.97265625,-120.60546875,271.97265625,58.59375,0.0
1734580807.7352233,16.11328125,-370.60546875,256.8359375,44.921875,0.0
1734580807.7391293,18.06640625,-163.0859375,287.109375,35.15625,0.0
1734580807.7430353,17.578125,-290.0390625,279.296875,25.87890625,0.0
1734580807.7469413,16.6015625,-650.390625,103.515625,20.99609375,0.0
1734580807.7508473,5.859375,-867.1875,36.62109375,11.71875,0.0
1734580807.7547534,-3.41796875,-329.58984375,305.17578125,-2.9296875,0.0
1734580807.7586594,-6.8359375,-38.0859375,305.17578125,-7.8125,0.0
1734580807.7625654,2.44140625,-449.70703125,184.5703125,8.7890625,0.0
1734580807.7664714,4.8828125,-455.56640625,211.9140625,7.8125,0.0
1734580807.7703328,-2.44140625,-92.7734375,311.03515625,-4.39453125,0.0
1734580807.7742388,-3.41796875,-90.8203125,283.203125,-7.32421875,0.0
1734580807.7781448,4.39453125,-621.58203125,201.66015625,-3.90625,0.0
1734580807.7820508,12.6953125,-690.4296875,228.02734375,-4.8828125,0.0
1734580807.7859569,8.30078125,-192.87109375,287.59765625,-0.48828125,0.0
1734580807.7898629,2.44140625,-363.76953125,276.85546875,4.39453125,0.0
1734580807.793769,1.46484375,-842.28515625,8.30078125,-0.9765625,0.0
1734580807.797675,2.9296875,-689.453125,62.01171875,3.41796875,0.0
1734580807.8015807,4.8828125,-302.734375,323.2421875,1.953125,0.0
1734580807.8054867,12.6953125,-363.76953125,221.6796875,18.5546875,0.0
1734580807.8093927,6.34765625,-372.55859375,232.421875,29.78515625,0.0
1734580807.8132987,-10.25390625,-120.60546875,322.75390625,12.6953125,0.0
1734580807.8171394,-12.20703125,-46.875,287.59765625,-7.8125,0.0
1734580807.8210454,-13.671875,-473.14453125,206.0546875,-20.99609375,0.0
1734580807.8249514,-8.30078125,-485.3515625,245.1171875,-26.3671875,0.0
1734580807.8288574,0.9765625,-108.88671875,302.24609375,-19.04296875,0.0
1734580807.8327634,-7.8125,3.41796875,330.56640625,-32.2265625,0.0
1734580807.8366694,-20.01953125,-492.1875,171.38671875,-36.62109375,0.0
1734580807.8405755,-13.18359375,-802.734375,157.71484375,-21.97265625,0.0
1734580807.8444815,4.39453125,-188.4765625,332.51953125,-15.625,0.0
1734580807.8483875,23.92578125,139.16015625,354.4921875,-4.8828125,0.0
1734580807.8522935,16.6015625,-394.53125,104.00390625,-11.23046875,0.0
1734580807.8561995,4.8828125,-745.60546875,74.21875,-28.3203125,0.0
1734580807.8601053,6.34765625,-266.11328125,334.9609375,-31.73828125,0.0
1734580807.8640935,4.39453125,2.9296875,321.2890625,-15.13671875,0.0
1734580807.8679996,19.53125,-118.65234375,329.1015625,-0.9765625,0.0
1734580807.8719056,12.6953125,-414.55078125,262.20703125,-15.625,0.0
1734580807.8758116,-20.99609375,-360.3515625,251.46484375,-29.296875,0.0
1734580807.8797176,-20.5078125,-89.84375,305.17578125,-26.85546875,0.0
1734580807.8836236,-10.25390625,-469.7265625,227.5390625,-19.53125,0.0
1734580807.8875296,7.32421875,-585.44921875,263.18359375,8.7890625,0.0
1734580807.8914356,35.15625,41.015625,372.55859375,13.18359375,0.0
1734580807.8953416,-29.296875,0.9765625,262.6953125,-33.69140625,0.0
1734580807.8992476,-67.3828125,-615.234375,88.8671875,-47.8515625,0.0
1734580807.9031534,22.94921875,-289.0625,270.01953125,-6.8359375,0.0
1734580807.9070594,120.1171875,434.08203125,444.3359375,48.828125,0.0
1734580807.9110196,96.6796875,286.62109375,346.19140625,36.1328125,0.0
1734580807.9149256,-42.96875,-428.7109375,187.98828125,-48.33984375,0.0
1734580807.9188316,-92.7734375,-433.10546875,242.1875,-66.89453125,0.0
1734580807.9227376,-5.859375,188.4765625,383.30078125,-9.27734375,0.0
1734580807.9266436,102.05078125,218.26171875,365.234375,48.828125,0.0
1734580807.9305496,108.3984375,-270.01953125,272.94921875,44.43359375,0.0
1734580807.9344556,-19.04296875,-370.1171875,244.62890625,-16.6015625,0.0
1734580807.9383616,-103.02734375,4.39453125,338.37890625,-58.10546875,0.0
1734580807.9422677,-47.8515625,-250.48828125,203.125,-21.97265625,0.0
1734580807.9461737,59.08203125,-540.52734375,213.37890625,36.62109375,0.0
1734580807.9500797,66.40625,192.87109375,433.10546875,29.78515625,0.0
1734580807.9539855,-64.453125,204.1015625,322.265625,-55.17578125,0.0
1734580807.9579337,0.0,-338.8671875,256.34765625,-106.93359375,0.0
1734580807.9618397,0.0,-134.27734375,324.21875,-56.640625,0.0
1734580807.9657457,0.0,176.26953125,383.7890625,11.23046875,0.0
1734580807.9696517,0.0,157.71484375,388.671875,21.97265625,0.0
1734580807.9735577,0.0,-178.7109375,259.27734375,-53.22265625,0.0
1734580807.9774637,0.0,-636.71875,169.921875,-98.6328125,0.0
1734580807.9813697,0.0,-391.6015625,292.48046875,-45.8984375,0.0
1734580807.9852757,0.0,332.51953125,427.24609375,25.87890625,0.0
1734580807.9891818,0.0,-168.45703125,221.19140625,56.15234375,0.0
1734580807.9930878,0.0,-499.51171875,177.24609375,-9.765625,0.0
1734580807.9969938,0.0,158.69140625,327.63671875,-71.2890625,0.0
1734580808.0008996,0.0,61.03515625,289.55078125,-35.15625,0.0
1734580808.00437,-148.4375,99.609375,364.2578125,16.6015625,0.0
1734580808.008276,-82.51953125,531.73828125,440.4296875,39.55078125,0.0
1734580808.012182,42.48046875,568.84765625,381.34765625,1.953125,0.0
1734580808.016088,60.05859375,27.34375,222.65625,-65.4296875,0.0
1734580808.0199938,-62.5,-256.8359375,221.19140625,-46.875,0.0
1734580808.0238998,-128.41796875,-113.76953125,321.2890625,18.06640625,0.0
1734580808.0278058,-73.73046875,177.734375,410.15625,60.05859375,0.0
1734580808.0317118,31.25,-182.6171875,162.109375,25.87890625,0.0
1734580808.0356178,69.3359375,-827.1484375,-10.7421875,-47.8515625,0.0
1734580808.0395238,-40.52734375,-125.0,321.77734375,-43.45703125,0.0
1734580808.0434299,-133.7890625,455.56640625,389.16015625,19.04296875,0.0
1734580808.0473359,-83.0078125,266.11328125,344.7265625,57.12890625,0.0
1734580808.0512388,36.1328125,187.01171875,334.47265625,30.76171875,0.0
1734580808.0551448,-79.1015625,180.6640625,262.6953125,-34.66796875,0.0
1734580808.0590508,-65.91796875,-232.421875,187.01171875,-34.66796875,0.0
1734580808.0629568,37.59765625,-258.7890625,291.9921875,17.08984375,0.0
1734580808.0668626,130.37109375,254.39453125,386.23046875,64.453125,0.0
1734580808.0707686,78.125,136.23046875,282.71484375,28.3203125,0.0
1734580808.0746746,-80.56640625,-301.7578125,176.26953125,-66.40625,0.0
1734580808.0785806,-106.93359375,-749.51171875,-39.0625,-51.26953125,0.0
1734580808.0824866,-22.4609375,-398.92578125,121.58203125,3.90625,0.0
1734580808.0863926,86.42578125,481.4453125,411.1328125,36.1328125,0.0
1734580808.0902987,71.77734375,183.59375,247.55859375,36.62109375,0.0
1734580808.0942047,-85.44921875,-231.4453125,126.953125,-40.52734375,0.0
1734580808.0980916,-122.55859375,-46.875,196.2890625,-60.05859375,0.0
1734580808.1019976,-26.3671875,283.69140625,284.1796875,-5.37109375,0.0
1734580808.1059034,69.82421875,293.9453125,307.6171875,64.453125,0.0
1734580808.1098094,59.5703125,261.71875,312.98828125,72.75390625,0.0
1734580808.1137154,-75.1953125,174.31640625,166.015625,-11.23046875,0.0
1734580808.1176214,-117.1875,-206.0546875,107.91015625,-45.41015625,0.0
1734580808.1215274,-27.83203125,-500.48828125,37.59765625,-4.8828125,0.0
1734580808.1254334,86.9140625,-521.484375,96.6796875,59.08203125,0.0
1734580808.1293395,116.2109375,251.46484375,327.1484375,77.1484375,0.0
1734580808.1332455,-20.5078125,384.765625,182.6171875,-3.41796875,0.0
1734580808.1371515,-104.98046875,-262.20703125,8.30078125,-53.22265625,0.0
1734580808.1410575,-31.73828125,-161.1328125,102.05078125,-12.6953125,0.0
1734580808.144923,80.078125,211.9140625,258.7890625,51.7578125,0.0
1734580808.148829,118.1640625,304.6875,270.01953125,65.91796875,0.0
1734580808.152735,-11.71875,-97.16796875,70.3125,-11.23046875,0.0
1734580808.156641,-117.67578125,-395.99609375,2.9296875,-64.453125,0.0
1734580808.160547,-53.22265625,16.6015625,145.99609375,-17.578125,0.0
1734580808.164453,62.5,124.0234375,216.796875,44.43359375,0.0
1734580808.168359,106.4453125,-451.66015625,-24.4140625,60.546875,0.0
1734580808.1722648,4.8828125,-599.12109375,-126.46484375,-2.9296875,0.0
1734580808.1761708,-113.76953125,78.61328125,143.5546875,-70.3125,0.0
1734580808.1800768,-79.58984375,-17.578125,83.984375,-41.015625,0.0
1734580808.1839828,44.921875,0.9765625,148.92578125,31.25,0.0
1734580808.1878889,117.1875,539.55078125,296.875,62.01171875,0.0
1734580808.1917357,27.34375,528.80859375,222.65625,5.859375,0.0
1734580808.1956415,-107.91015625,-116.69921875,-26.85546875,-75.68359375,0.0
1734580808.1995475,-70.3125,-377.9296875,-77.1484375,-59.08203125,0.0
1734580808.2034535,46.38671875,-24.90234375,171.875,9.27734375,0.0
1734580808.2073596,87.40234375,456.0546875,282.2265625,45.41015625,0.0
1734580808.2112656,-6.8359375,13.18359375,-3.90625,5.859375,0.0
1734580808.2151716,-135.7421875,-814.453125,-347.16796875,-76.171875,0.0
1734580808.2190776,-108.88671875,-266.11328125,8.7890625,-69.82421875,0.0
1734580808.2229836,3.41796875,428.22265625,254.8828125,-9.27734375,0.0
1734580808.2268896,77.63671875,333.984375,134.765625,25.390625,0.0
1734580808.2307956,26.85546875,198.73046875,107.421875,-9.765625,0.0
1734580808.2347014,-132.8125,192.3828125,71.77734375,-104.4921875,0.0
1734580808.238686,-141.6015625,73.2421875,56.640625,-110.3515625,0.0
1734580808.242592,-58.10546875,49.8046875,151.85546875,-68.359375,0.0
1734580808.246498,-10.7421875,57.6171875,144.53125,-65.91796875,0.0
1734580808.2504041,-60.05859375,198.2421875,144.04296875,-116.69921875,0.0
1734580808.2543101,-223.14453125,21.97265625,-13.18359375,-243.1640625,0.0
1734580808.2582161,-289.0625,-527.83203125,-264.16015625,-317.3828125,0.0
1734580808.262122,-233.3984375,-444.3359375,-72.265625,-311.5234375,0.0
1734580808.266028,-161.1328125,244.62890625,210.44921875,-265.625,0.0
1734580808.269934,-236.328125,547.36328125,146.97265625,-300.29296875,0.0
1734580808.27384,-426.26953125,-319.3359375,-207.51953125,-402.34375,0.0
1734580808.277746,-467.7734375,-443.359375,-117.1875,-430.17578125,0.0
1734580808.281652,-392.08984375,342.28515625,140.625,-408.203125,0.0
1734580808.285613,-294.921875,420.41015625,135.7421875,-356.93359375,0.0
1734580808.289519,-275.87890625,241.69921875,107.421875,-348.14453125,0.0
1734580808.293425,-375.9765625,152.83203125,-43.45703125,-404.78515625,0.0
1734580808.297331,-420.41015625,87.890625,-194.3359375,-443.84765625,0.0
1734580808.301237,-328.125,49.8046875,-181.15234375,-410.15625,0.0
1734580808.305143,-178.22265625,-53.22265625,-121.09375,-305.17578125,0.0
1734580808.3090491,-125.9765625,117.1875,-67.87109375,-239.74609375,0.0
1734580808.3129551,-237.3046875,288.0859375,-231.4453125,-297.8515625,0.0
1734580808.3168612,-304.6875,-375.0,-568.84765625,-324.21875,0.0
1734580808.320767,-204.1015625,-743.65234375,-620.60546875,-256.34765625,0.0
1734580808.324673,-40.52734375,298.828125,-225.5859375,-162.109375,0.0
1734580808.328579,29.78515625,782.2265625,-208.984375,-99.609375,0.0
1734580808.3325264,-66.40625,149.90234375,-480.95703125,-133.30078125,0.0
1734580808.3364325,-180.17578125,-210.9375,-584.47265625,-190.4296875,0.0
1734580808.3403385,-130.859375,-118.65234375,-568.84765625,-157.2265625,0.0
1734580808.3442445,-5.37109375,141.11328125,-486.81640625,-53.22265625,0.0
1734580808.3481503,70.3125,387.20703125,-474.609375,27.34375,0.0
1734580808.3520563,19.04296875,-96.6796875,-656.25,-7.32421875,0.0
1734580808.3559623,-90.8203125,-232.421875,-699.70703125,-75.68359375,0.0
1734580808.3598683,-55.17578125,249.51171875,-630.37109375,-43.45703125,0.0
1734580808.3637743,72.265625,-304.19921875,-722.16796875,50.78125,0.0
1734580808.3676803,147.4609375,-182.6171875,-628.90625,94.7265625,0.0
1734580808.3715863,93.75,616.2109375,-593.26171875,49.8046875,0.0
1734580808.3754923,-16.6015625,-81.54296875,-835.9375,-11.23046875,0.0
1734580808.3794174,4.8828125,-249.51171875,-812.5,7.8125,0.0
1734580808.3833234,103.02734375,416.9921875,-673.33984375,62.98828125,0.0
1734580808.3872294,181.15234375,786.62109375,-658.69140625,124.51171875,0.0
1734580808.3911355,130.37109375,358.3984375,-828.61328125,103.515625,0.0
1734580808.3950415,-6.34765625,-259.27734375,-979.4921875,7.8125,0.0
1734580808.3989472,-0.9765625,-354.4921875,-934.5703125,15.625,0.0
1734580808.4028533,102.5390625,104.00390625,-866.69921875,87.40234375,0.0
1734580808.4067593,193.84765625,264.6484375,-911.1328125,138.671875,0.0
1734580808.4106653,145.99609375,-457.03125,-980.46875,114.74609375,0.0
1734580808.4145713,-0.9765625,-159.1796875,-955.56640625,8.7890625,0.0
1734580808.4184773,-6.34765625,251.953125,-969.7265625,-9.27734375,0.0
1734580808.4223833,77.63671875,9.27734375,-958.49609375,66.40625,0.0
1734580808.426291,154.296875,251.46484375,-962.40234375,124.51171875,0.0
1734580808.430197,147.4609375,531.25,-985.3515625,102.05078125,0.0
1734580808.4341028,9.27734375,-145.01953125,-1000.0,18.5546875,0.0
1734580808.4380088,-39.55078125,-512.6953125,-1000.0,4.8828125,0.0
1734580808.4419148,55.17578125,-2.9296875,-1000.0,76.171875,0.0
1734580808.4458208,154.78515625,242.1875,-1000.0,137.6953125,0.0
1734580808.4497268,136.23046875,64.94140625,-1000.0,124.0234375,0.0
1734580808.4536328,-11.71875,-432.12890625,-1000.0,14.6484375,0.0
1734580808.4575388,-62.01171875,-366.2109375,-1000.0,-10.7421875,0.0
1734580808.4614449,12.20703125,304.19921875,-1000.0,41.9921875,0.0
1734580808.4653509,110.3515625,427.24609375,-1000.0,106.93359375,0.0
1734580808.4692569,125.9765625,12.20703125,-1000.0,134.27734375,0.0
1734580808.4731445,1.953125,-91.30859375,-1000.0,47.8515625,0.0
1734580808.4770505,-59.08203125,54.19921875,-1000.0,-0.48828125,0.0
1734580808.4809563,2.9296875,-128.41796875,-1000.0,39.0625,0.0
1734580808.4848623,102.5390625,-33.69140625,-1000.0,93.26171875,0.0
1734580808.4887683,126.953125,264.6484375,-1000.0,93.26171875,0.0
1734580808.4926744,14.16015625,-174.8046875,-1000.0,36.1328125,0.0
1734580808.4965804,-64.94140625,-789.0625,-1000.0,-13.671875,0.0
1734580808.5004864,-17.578125,-797.8515625,-1000.0,16.11328125,0.0
1734580808.5043924,88.8671875,44.921875,-1000.0,84.9609375,0.0
1734580808.5082984,124.0234375,579.1015625,-1000.0,107.91015625,0.0
1734580808.5122044,12.20703125,-7.32421875,-1000.0,33.203125,0.0
1734580808.5161104,-81.54296875,-477.5390625,-1000.0,-28.80859375,0.0
1734580808.5201423,-31.25,13.18359375,-1000.0,-5.859375,0.0
1734580808.5240483,41.50390625,332.51953125,-1000.0,23.4375,0.0
1734580808.5279543,74.21875,32.2265625,-1000.0,48.828125,0.0
1734580808.5318604,9.765625,-182.6171875,-1000.0,4.8828125,0.0
1734580808.5357664,-99.12109375,-144.53125,-1000.0,-82.03125,0.0
1734580808.5396724,-49.8046875,-379.39453125,-1000.0,-59.5703125,0.0
1734580808.5435784,63.96484375,-776.3671875,-1000.0,28.80859375,0.0
1734580808.5474844,102.5390625,-688.96484375,-1000.0,79.58984375,0.0
1734580808.5513904,34.1796875,-59.5703125,-1000.0,31.25,0.0
1734580808.5552964,-86.42578125,-248.046875,-1000.0,-64.453125,0.0
1734580808.5592022,-59.08203125,-472.65625,-1000.0,-63.4765625,0.0
1734580808.5631082,44.43359375,11.71875,-1000.0,4.8828125,0.0
1734580808.5669525,97.65625,413.57421875,-1000.0,49.31640625,0.0
1734580808.5708585,49.8046875,172.8515625,-1000.0,21.97265625,0.0
1734580808.5747645,-93.26171875,-419.921875,-1000.0,-88.37890625,0.0
1734580808.5786705,-103.02734375,-251.953125,-1000.0,-127.9296875,0.0
1734580808.5825765,-7.8125,19.53125,-1000.0,-64.453125,0.0
1734580808.5864825,59.5703125,-172.8515625,-1000.0,0.48828125,0.0
1734580808.5903885,22.4609375,-264.16015625,-1000.0,-2.44140625,0.0
1734580808.5942943,-109.86328125,-201.171875,-1000.0,-82.03125,0.0
1734580808.5982003,-112.3046875,-40.0390625,-1000.0,-91.796875,0.0
1734580808.6021063,-17.08984375,-410.64453125,-1000.0,-7.32421875,0.0
1734580808.6060123,80.078125,-679.6875,-1000.0,88.8671875,0.0
1734580808.6099184,79.58984375,109.375,-1000.0,66.89453125,0.0
1734580808.6139004,-67.87109375,91.30859375,-1000.0,-56.640625,0.0
1734580808.6178064,-114.74609375,-370.1171875,-1000.0,-107.421875,0.0
1734580808.6217124,-13.671875,-427.24609375,-1000.0,-87.890625,0.0
1734580808.6256185,96.6796875,65.91796875,-1000.0,-23.4375,0.0
1734580808.6295245,112.3046875,401.85546875,-1000.0,9.27734375,0.0
1734580808.6334305,-10.25390625,-379.8828125,-1000.0,-68.84765625,0.0
1734580808.6373365,-84.47265625,-611.81640625,-1000.0,-109.375,0.0
1734580808.6412425,-46.38671875,73.2421875,-1000.0,-55.6640625,0.0
1734580808.6451483,32.2265625,390.13671875,-1000.0,19.04296875,0.0
1734580808.6490543,29.78515625,-194.82421875,-1000.0,33.69140625,0.0
1734580808.6529603,-97.16796875,-394.53125,-1000.0,-52.24609375,0.0
1734580808.6568663,-149.90234375,60.546875,-1000.0,-104.98046875,0.0
1734580808.660837,-73.73046875,-119.140625,-1000.0,-58.59375,0.0
1734580808.664743,30.2734375,-85.44921875,-1000.0,12.20703125,0.0
1734580808.668649,67.3828125,366.69921875,-1000.0,47.36328125,0.0
1734580808.672555,-37.109375,302.734375,-1000.0,-28.80859375,0.0
1734580808.676461,-133.30078125,-288.0859375,-1000.0,-101.5625,0.0
1734580808.6803668,-85.9375,-650.87890625,-1000.0,-63.4765625,0.0
1734580808.6842728,44.921875,-110.83984375,-1000.0,13.671875,0.0
1734580808.6881788,122.0703125,551.26953125,-1000.0,66.89453125,0.0
1734580808.6920848,28.3203125,-59.08203125,-1000.0,39.0625,0.0
1734580808.6959908,-115.234375,-882.32421875,-1000.0,-45.41015625,0.0
1734580808.6998968,-103.515625,-223.14453125,-1000.0,-64.453125,0.0
1734580808.7038028,18.5546875,376.46484375,-1000.0,9.765625,0.0
1734580808.7077456,0.0,224.609375,-1000.0,82.03125,0.0
1734580808.7116516,0.0,85.44921875,-1000.0,35.15625,0.0
1734580808.7155576,0.0,-278.80859375,-1000.0,-64.94140625,0.0
1734580808.7194636,0.0,-523.4375,-1000.0,-22.4609375,0.0
1734580808.7233694,0.0,-206.0546875,-1000.0,73.2421875,0.0
1734580808.7272754,0.0,-43.9453125,-1000.0,123.046875,0.0
1734580808.7311814,0.0,-39.55078125,-1000.0,108.3984375,0.0
1734580808.7350874,0.0,-88.37890625,-1000.0,21.97265625,0.0
1734580808.7389934,0.0,-660.64453125,-1000.0,7.32421875,0.0
1734580808.7428994,0.0,-429.6875,-1000.0,70.80078125,0.0
1734580808.7468054,0.0,649.90234375,-1000.0,127.9296875,0.0
1734580808.7507114,0.0,530.2734375,-1000.0,110.83984375,0.0
1734580808.7546377,-64.94140625,-160.64453125,-1000.0,9.765625,0.0
1734580808.7585435,-78.125,-67.87109375,-1000.0,-8.7890625,0.0
1734580808.7624495,22.4609375,427.24609375,-1000.0,40.52734375,0.0
1734580808.7663555,114.74609375,441.89453125,-1000.0,95.21484375,0.0
1734580808.7702615,83.49609375,233.88671875,-1000.0,73.73046875,0.0
1734580808.7741675,-68.359375,-165.52734375,-1000.0,-12.6953125,0.0
1734580808.7780735,-94.23828125,-316.40625,-1000.0,-31.73828125,0.0
1734580808.7819796,1.46484375,-315.91796875,-1000.0,36.1328125,0.0
1734580808.7858856,95.21484375,-393.06640625,-1000.0,133.30078125,0.0
1734580808.7897916,77.1484375,326.171875,-1000.0,117.67578125,0.0
1734580808.7936976,-76.66015625,389.16015625,-1000.0,10.7421875,0.0
1734580808.7976036,-125.9765625,-172.36328125,-1000.0,-34.1796875,0.0
1734580808.801508,-42.48046875,68.359375,-1000.0,26.3671875,0.0
1734580808.805414,65.91796875,734.375,-1000.0,120.1171875,0.0
1734580808.80932,78.61328125,485.83984375,-1000.0,118.1640625,0.0
1734580808.813226,-64.94140625,-155.2734375,-1000.0,22.4609375,0.0
1734580808.8171318,-145.5078125,-51.26953125,-1000.0,-22.94921875,0.0
1734580808.8210378,-70.3125,65.4296875,-1000.0,13.18359375,0.0
1734580808.8249438,38.0859375,279.78515625,-1000.0,88.37890625,0.0
1734580808.8288498,62.98828125,-121.09375,-1000.0,116.69921875,0.0
1734580808.8327558,-55.6640625,-504.8828125,-1000.0,36.62109375,0.0
1734580808.8366618,-143.5546875,18.5546875,-1000.0,-42.96875,0.0
1734580808.8405678,-74.21875,214.84375,-1000.0,-14.6484375,0.0
1734580808.8444738,62.5,447.265625,-1000.0,72.75390625,0.0
1734580808.848358,107.91015625,802.734375,-1000.0,102.5390625,0.0
1734580808.852264,9.27734375,770.5078125,-1000.0,19.04296875,0.0
1734580808.85617,-129.8828125,135.7421875,-1000.0,-54.6875,0.0
1734580808.860076,-134.765625,-7.8125,-1000.0,-18.5546875,0.0
1734580808.863982,1.46484375,591.796875,-1000.0,53.22265625,0.0
1734580808.867888,72.75390625,618.65234375,-1000.0,97.65625,0.0
1734580808.871794,-31.73828125,-81.54296875,-1000.0,44.43359375,0.0
1734580808.8757,-159.1796875,-675.29296875,-1000.0,-46.38671875,0.0
1734580808.879606,-113.28125,14.16015625,-999.51171875,-28.80859375,0.0
1734580808.8835118,3.90625,756.8359375,-983.88671875,43.9453125,0.0
1734580808.8874178,74.70703125,596.19140625,-969.7265625,89.35546875,0.0
1734580808.8913238,16.11328125,175.78125,-983.88671875,65.4296875,0.0
1734580808.8951898,-119.140625,61.5234375,-996.09375,-26.85546875,0.0
1734580808.8990955,-109.86328125,347.65625,-986.328125,-44.43359375,0.0
1734580808.9030015,1.46484375,239.2578125,-975.09765625,24.4140625,0.0
1734580808.9069076,76.171875,310.05859375,-945.3125,90.8203125,0.0
1734580808.9108136,15.13671875,604.00390625,-952.1484375,72.75390625,0.0
1734580808.9147196,-128.41796875,130.859375,-984.375,-40.52734375,0.0
1734580808.9186256,-152.34375,-695.80078125,-995.1171875,-80.078125,0.0
1734580808.9225316,-68.84765625,-398.92578125,-951.171875,-41.9921875,0.0
1734580808.9264376,18.5546875,735.83984375,-859.375,2.44140625,0.0
1734580808.9303436,-15.13671875,705.56640625,-885.25390625,-14.6484375,0.0
1734580808.9342496,-180.6640625,65.4296875,-957.51953125,-137.20703125,0.0
1734580808.9381554,-217.7734375,20.5078125,-927.24609375,-168.9453125,0.0
1734580808.9419997,-142.578125,620.1171875,-835.44921875,-121.58203125,0.0
1734580808.9459057,-96.19140625,684.08203125,-846.6796875,-99.12109375,0.0
1734580808.9498117,-132.32421875,156.25,-886.71875,-142.08984375,0.0
1734580808.9537177,-279.296875,61.5234375,-903.80859375,-254.39453125,0.0
1734580808.9576237,-354.4921875,280.76171875,-867.67578125,-313.4765625,0.0
1734580808.9615295,-305.6640625,8.30078125,-911.62109375,-298.33984375,0.0
1734580808.9654355,-232.421875,-361.328125,-866.2109375,-236.81640625,0.0
1734580808.9693415,-218.75,300.78125,-666.9921875,-236.328125,0.0
1734580808.9732475,-312.01171875,573.2421875,-772.94921875,-326.66015625,0.0
1734580808.9771535,-382.8125,-16.6015625,-805.6640625,-350.5859375,0.0
1734580808.9810596,-304.19921875,111.81640625,-678.22265625,-287.109375,0.0
1734580808.9849656,-144.04296875,728.02734375,-539.0625,-177.734375,0.0
1734580808.9889474,-107.91015625,827.1484375,-531.73828125,-102.05078125,0.0
1734580808.9928534,-246.58203125,305.17578125,-724.609375,-166.9921875,0.0
1734580808.9967594,-300.78125,-276.85546875,-779.78515625,-216.796875,0.0
1734580809.0006654,-185.546875,-8.30078125,-647.94921875,-134.27734375,0.0
1734580809.0045714,-35.64453125,581.54296875,-501.953125,-16.11328125,0.0
1734580809.0084774,17.08984375,314.453125,-563.4765625,50.29296875,0.0
1734580809.0123835,-83.0078125,-198.2421875,-705.56640625,-32.71484375,0.0
1734580809.0162895,-158.69140625,-132.32421875,-686.5234375,-107.421875,0.0
1734580809.0201955,-85.44921875,242.1875,-612.79296875,-41.015625,0.0
1734580809.0241013,31.25,-133.30078125,-608.3984375,29.78515625,0.0
1734580809.0280073,81.0546875,124.0234375,-475.5859375,56.15234375,0.0
1734580809.0319133,25.390625,663.57421875,-548.828125,40.0390625,0.0
1734580809.0358746,-58.10546875,107.91015625,-747.0703125,-26.85546875,0.0
1734580809.0397806,-31.25,-28.3203125,-741.2109375,-3.90625,0.0
1734580809.0436864,86.9140625,438.4765625,-688.4765625,117.67578125,0.0
1734580809.0475924,154.296875,803.22265625,-786.62109375,158.203125,0.0
1734580809.0514984,83.49609375,393.06640625,-927.734375,78.61328125,0.0
1734580809.0554044,-15.625,-533.203125,-1000.0,-5.37109375,0.0
1734580809.0593104,14.16015625,-294.921875,-992.67578125,14.6484375,0.0
1734580809.0632164,102.05078125,352.05078125,-990.72265625,83.49609375,0.0
1734580809.0671225,175.78125,21.484375,-1000.0,140.625,0.0
1734580809.0710285,142.08984375,-507.8125,-1000.0,125.48828125,0.0
1734580809.0749345,6.34765625,-141.11328125,-1000.0,38.0859375,0.0
1734580809.0788405,-1.953125,186.03515625,-1000.0,33.69140625,0.0
1734580809.0827847,78.61328125,58.59375,-1000.0,96.19140625,0.0
1734580809.0866907,140.625,314.94140625,-1000.0,150.390625,0.0
1734580809.0905967,91.796875,239.2578125,-1000.0,144.53125,0.0
1734580809.0945027,-44.921875,-158.69140625,-1000.0,32.71484375,0.0
1734580809.0984085,-41.50390625,-272.4609375,-1000.0,13.671875,0.0
1734580809.1023145,61.5234375,-311.03515625,-1000.0,97.16796875,0.0
1734580809.1062205,143.5546875,193.84765625,-1000.0,151.85546875,0.0
1734580809.1101265,108.88671875,497.55859375,-1000.0,121.58203125,0.0
1734580809.1140325,-23.92578125,-443.84765625,-1000.0,12.6953125,0.0
1734580809.1179385,-42.48046875,-658.69140625,-1000.0,-11.23046875,0.0
1734580809.1218445,34.66796875,38.57421875,-1000.0,56.15234375,0.0
1734580809.1257505,131.8359375,73.2421875,-1000.0,133.30078125,0.0
1734580809.1296775,145.5078125,141.6015625,-1000.0,121.58203125,0.0
1734580809.1335833,18.06640625,147.4609375,-1000.0,53.7109375,0.0
1734580809.1374893,-18.5546875,43.45703125,-1000.0,27.34375,0.0
1734580809.1413953,64.453125,-104.00390625,-1000.0,51.26953125,0.0
1734580809.1453013,158.203125,41.50390625,-1000.0,126.953125,0.0
1734580809.1492074,159.66796875,117.1875,-1000.0,156.73828125,0.0
1734580809.1531134,19.04296875,-282.2265625,-1000.0,59.5703125,0.0
1734580809.1570194,-45.8984375,-728.02734375,-1000.0,18.5546875,0.0
1734580809.1609254,20.01953125,-791.9921875,-1000.0,71.2890625,0.0
1734580809.1648314,104.98046875,113.28125,-1000.0,128.90625,0.0
1734580809.1687374,137.20703125,597.65625,-1000.0,145.01953125,0.0
1734580809.1726434,20.01953125,-89.35546875,-1000.0,38.57421875,0.0
1734580809.1765523,-66.40625,-452.1484375,-1000.0,-25.390625,0.0
1734580809.1804583,-0.9765625,-257.32421875,-1000.0,33.203125,0.0
1734580809.184364,98.6328125,-262.20703125,-1000.0,91.796875,0.0
1734580809.18827,137.20703125,-115.72265625,-1000.0,118.1640625,0.0
1734580809.192176,37.59765625,1.953125,-1000.0,70.3125,0.0
1734580809.196082,-65.4296875,-457.51953125,-1000.0,0.48828125,0.0
1734580809.1999881,-34.1796875,-514.6484375,-1000.0,7.8125,0.0
1734580809.2038941,71.2890625,-630.859375,-1000.0,66.89453125,0.0
1734580809.2078001,103.02734375,-457.51953125,-1000.0,124.51171875,0.0
1734580809.2117062,14.6484375,274.4140625,-1000.0,67.3828125,0.0
1734580809.2156122,-95.703125,-173.33984375,-1000.0,-36.1328125,0.0
1734580809.2195182,-70.80078125,-426.7578125,-1000.0,-18.06640625,0.0
1734580809.2233996,45.8984375,101.07421875,-1000.0,73.73046875,0.0
1734580809.2273057,90.33203125,522.94921875,-1000.0,136.71875,0.0
1734580809.2312117,34.66796875,221.19140625,-1000.0,62.5,0.0
1734580809.2351177,-80.078125,-421.38671875,-1000.0,-45.41015625,0.0
1734580809.2390237,-78.61328125,-388.18359375,-1000.0,-4.8828125,0.0
1734580809.2429297,25.87890625,-102.05078125,-1000.0,36.1328125,0.0
1734580809.2468357,86.9140625,-135.7421875,-1000.0,96.6796875,0.0
1734580809.2507415,44.921875,-541.015625,-1000.0,100.5859375,0.0
1734580809.2546475,-79.1015625,-343.26171875,-1000.0,-36.62109375,0.0
1734580809.2585535,-68.359375,92.28515625,-1000.0,-27.34375,0.0
1734580809.2624595,32.2265625,-13.671875,-1000.0,69.3359375,0.0
1734580809.2663655,81.0546875,222.65625,-1000.0,88.37890625,0.0
1734580809.2702296,30.2734375,533.203125,-1000.0,69.82421875,0.0
1734580809.2741356,-95.703125,187.01171875,-1000.0,-12.6953125,0.0
1734580809.2780414,-104.98046875,-278.3203125,-1000.0,-13.18359375,0.0
1734580809.2819474,-10.7421875,-102.5390625,-1000.0,58.10546875,0.0
1734580809.2858534,86.9140625,609.375,-1000.0,133.7890625,0.0
1734580809.2897594,78.61328125,437.98828125,-1000.0,158.69140625,0.0
1734580809.2936654,-64.94140625,-592.7734375,-1000.0,100.5859375,0.0
1734580809.2975714,-96.19140625,-673.828125,-1000.0,96.6796875,0.0
1734580809.3014774,-12.20703125,352.5390625,-1000.0,117.67578125,0.0
1734580809.3053834,79.1015625,636.23046875,-1000.0,189.94140625,0.0
1734580809.3092895,87.890625,300.78125,-1000.0,208.984375,0.0
1734580809.3131955,-42.96875,109.375,-1000.0,113.28125,0.0
1734580809.3170419,-100.5859375,278.3203125,-1000.0,74.21875,0.0
1734580809.320948,-20.01953125,278.3203125,-1000.0,104.00390625,0.0
1734580809.324854,77.63671875,314.453125,-1000.0,145.99609375,0.0
1734580809.32876,76.66015625,676.7578125,-1000.0,146.97265625,0.0
1734580809.332666,-41.9921875,570.3125,-1000.0,65.4296875,0.0
1734580809.336572,-134.765625,-98.14453125,-1000.0,-14.16015625,0.0
1734580809.340478,-104.4921875,-562.98828125,-1000.0,4.39453125,0.0
1734580809.344384,-29.296875,328.61328125,-1000.0,71.2890625,0.0
1734580809.34829,2.9296875,981.4453125,-1000.0,86.42578125,0.0
1734580809.3521957,-83.0078125,337.890625,-1000.0,25.390625,0.0
1734580809.3561018,-179.19921875,-60.546875,-1000.0,-48.828125,0.0
1734580809.3600078,-138.671875,305.17578125,-1000.0,-23.4375,0.0
1734580809.3639858,-36.1328125,724.12109375,-1000.0,68.359375,0.0
1734580809.3678918,-15.625,615.72265625,-1000.0,71.2890625,0.0
1734580809.3717978,-85.44921875,118.65234375,-1000.0,40.0390625,0.0
1734580809.3757038,-163.0859375,-6.34765625,-1000.0,-14.16015625,0.0
1734580809.3796098,-144.53125,329.1015625,-1000.0,-4.39453125,0.0
1734580809.3835158,-34.66796875,157.2265625,-1000.0,66.40625,0.0
1734580809.3874218,13.18359375,207.03125,-1000.0,97.65625,0.0
1734580809.3913279,-53.7109375,650.390625,-1000.0,44.43359375,0.0
1734580809.3952339,-146.484375,399.90234375,-1000.0,-40.52734375,0.0
1734580809.39914,-142.08984375,-220.703125,-1000.0,-13.18359375,0.0
1734580809.403046,-78.125,184.08203125,-1000.0,24.4140625,0.0
1734580809.4069517,-19.53125,829.58984375,-1000.0,46.875,0.0
1734580809.4109204,-56.640625,320.3125,-1000.0,26.3671875,0.0
1734580809.4148264,-163.57421875,-102.05078125,-1000.0,-54.6875,0.0
1734580809.4187324,-154.78515625,258.7890625,-1000.0,-64.94140625,0.0
1734580809.4226382,-65.91796875,646.484375,-1000.0,-1.46484375,0.0
1734580809.4265442,-9.27734375,546.875,-1000.0,78.125,0.0
1734580809.4304502,-52.734375,59.5703125,-1000.0,41.50390625,0.0
1734580809.4343562,-165.52734375,-62.98828125,-1000.0,-72.265625,0.0
1734580809.4382622,-175.78125,375.0,-1000.0,-69.3359375,0.0
1734580809.4421682,-91.30859375,165.52734375,-1000.0,5.859375,0.0
1734580809.4460742,-8.30078125,-377.9296875,-997.0703125,55.17578125,0.0
1734580809.4499803,-22.94921875,344.7265625,-992.67578125,33.69140625,0.0
1734580809.4538863,-135.25390625,511.23046875,-1000.0,-49.31640625,0.0
1734580809.4578345,-158.69140625,-34.66796875,-996.09375,-66.40625,0.0
1734580809.4617405,-67.87109375,114.74609375,-987.79296875,-15.13671875,0.0
1734580809.4656465,25.87890625,414.55078125,-988.76953125,24.90234375,0.0
1734580809.4695525,18.5546875,268.5546875,-983.88671875,38.57421875,0.0
1734580809.4734585,-85.9375,-59.08203125,-992.1875,-46.875,0.0
1734580809.4773645,-125.9765625,-270.99609375,-999.51171875,-76.66015625,0.0
1734580809.4812706,-70.3125,75.68359375,-971.19140625,-20.01953125,0.0
1734580809.4851763,17.578125,604.00390625,-945.3125,24.90234375,0.0
1734580809.4890823,27.83203125,-195.80078125,-962.40234375,35.64453125,0.0
1734580809.4929883,-72.75390625,-543.45703125,-974.12109375,-36.62109375,0.0
1734580809.4968944,-137.20703125,285.15625,-943.84765625,-83.49609375,0.0
1734580809.5008004,-95.703125,203.61328125,-938.4765625,-58.10546875,0.0
1734580809.504876,-2.44140625,135.7421875,-907.71484375,4.8828125,0.0
1734580809.508782,35.15625,524.90234375,-864.74609375,29.296875,0.0
1734580809.512688,-48.828125,513.671875,-890.13671875,-41.015625,0.0
1734580809.516594,-120.60546875,5.37109375,-938.96484375,-85.9375,0.0
1734580809.5205,-81.54296875,-247.0703125,-954.58984375,-51.7578125,0.0
1734580809.524406,11.71875,-35.15625,-878.41796875,13.671875,0.0
1734580809.5283117,46.38671875,127.9296875,-820.3125,43.9453125,0.0
1734580809.5322177,-36.62109375,-250.0,-916.015625,-0.9765625,0.0
1734580809.5361238,-124.0234375,-738.28125,-945.3125,-70.80078125,0.0
1734580809.5400298,-78.125,-110.3515625,-779.296875,-61.5234375,0.0
1734580809.5439358,14.6484375,543.9453125,-647.94921875,11.71875,0.0
1734580809.5478418,51.7578125,374.51171875,-632.8125,23.92578125,0.0
1734580809.5517423,0.0,160.15625,-692.3828125,-4.39453125,0.0
1734580809.5556483,-100.09765625,246.58203125,-731.4453125,-81.0546875,0.0
1734580809.5595543,-75.68359375,-99.12109375,-771.97265625,-72.75390625,0.0
1734580809.5634604,15.13671875,-133.30078125,-652.34375,8.30078125,0.0
1734580809.5673664,73.2421875,421.38671875,-511.71875,32.2265625,0.0
1734580809.5712721,29.78515625,245.1171875,-635.7421875,-5.859375,0.0
1734580809.5751781,-97.16796875,-261.23046875,-721.19140625,-69.3359375,0.0
1734580809.5790842,-88.37890625,-360.83984375,-660.15625,-70.80078125,0.0
1734580809.5829902,15.13671875,-73.73046875,-495.60546875,-19.53125,0.0
1734580809.5868962,82.51953125,615.72265625,-320.80078125,37.59765625,0.0
1734580809.5908022,72.265625,705.56640625,-406.73828125,25.390625,0.0
1734580809.5947082,-33.69140625,-373.53515625,-630.859375,-39.0625,0.0
1734580809.5985835,-36.62109375,-368.1640625,-477.5390625,-17.08984375,0.0
1734580809.6024895,38.0859375,624.0234375,-240.72265625,33.203125,0.0
1734580809.6063952,85.9375,657.71484375,-243.65234375,49.8046875,0.0
1734580809.6103013,41.50390625,454.1015625,-286.62109375,-5.859375,0.0
1734580809.6142073,-91.30859375,437.5,-349.12109375,-117.67578125,0.0
1734580809.6181133,-128.41796875,182.6171875,-362.3046875,-138.18359375,0.0
1734580809.6220193,-62.5,-94.7265625,-387.6953125,-108.3984375,0.0
1734580809.6259253,-7.32421875,-204.58984375,-351.07421875,-65.4296875,0.0
1734580809.6298313,-49.31640625,437.01171875,33.203125,-89.35546875,0.0
1734580809.6337373,-163.0859375,745.1171875,43.9453125,-189.453125,0.0
1734580809.6376433,-196.2890625,160.15625,-208.984375,-199.70703125,0.0
1734580809.6415493,-136.71875,118.1640625,-122.0703125,-164.0625,0.0
1734580809.6454015,-62.98828125,806.640625,169.43359375,-140.13671875,0.0
1734580809.6493075,-57.12890625,937.98828125,155.76171875,-139.6484375,0.0
1734580809.6532135,-166.015625,197.75390625,-161.1328125,-198.73046875,0.0
1734580809.6571195,-206.0546875,-51.7578125,-169.921875,-228.515625,0.0
1734580809.6610255,-131.34765625,525.87890625,98.6328125,-156.73828125,0.0
1734580809.6649315,-44.43359375,654.296875,173.33984375,-79.1015625,0.0
1734580809.6688375,-18.06640625,-74.21875,-135.25390625,-63.96484375,0.0
1734580809.6727436,-96.19140625,-364.2578125,-275.390625,-115.72265625,0.0
1734580809.6766493,-155.76171875,438.96484375,105.46875,-137.20703125,0.0
1734580809.6805553,-97.65625,570.3125,92.7734375,-91.796875,0.0
1734580809.6844614,-3.41796875,526.85546875,125.0,-25.87890625,0.0
1734580809.6883674,25.87890625,841.796875,213.8671875,2.9296875,0.0
1734580809.6922066,-53.22265625,800.78125,112.79296875,-41.9921875,0.0
1734580809.6961126,-131.8359375,239.74609375,-129.39453125,-90.8203125,0.0
1734580809.7000186,-80.56640625,147.4609375,-104.98046875,-52.24609375,0.0
1734580809.7039247,13.671875,729.4921875,190.91796875,7.32421875,0.0
1734580809.7078307,56.15234375,976.5625,228.02734375,35.15625,0.0
1734580809.7117367,-25.87890625,248.046875,-192.3828125,-5.859375,0.0
1734580809.7156427,-118.1640625,-618.1640625,-491.69921875,-67.3828125,0.0
1734580809.7195487,-78.125,127.9296875,-13.18359375,-52.734375,0.0
1734580809.7234545,19.53125,938.4765625,199.70703125,11.71875,0.0
1734580809.7273605,71.2890625,726.5625,20.5078125,63.96484375,0.0
1734580809.7312665,-1.46484375,502.9296875,-70.80078125,11.23046875,0.0
1734580809.7351725,-104.4921875,496.09375,-186.5234375,-69.3359375,0.0
1734580809.7391443,-73.73046875,562.01171875,-230.95703125,-55.17578125,0.0
1734580809.7430503,18.06640625,568.84765625,-134.765625,-3.41796875,0.0
1734580809.7469563,73.73046875,553.22265625,-65.91796875,43.45703125,0.0
1734580809.7508624,11.71875,626.953125,-132.32421875,22.94921875,0.0
1734580809.7547684,-92.28515625,376.953125,-373.046875,-62.5,0.0
1734580809.7586744,-69.3359375,-44.43359375,-456.0546875,-53.7109375,0.0
1734580809.7625804,11.71875,295.41015625,-302.24609375,-3.90625,0.0
1734580809.7664864,96.19140625,944.82421875,-12.20703125,63.4765625,0.0
1734580809.7703924,63.4765625,898.4375,-155.76171875,62.01171875,0.0
1734580809.7742982,-75.1953125,38.57421875,-515.625,-44.43359375,0.0
1734580809.7782042,-83.49609375,22.4609375,-437.5,-58.10546875,0.0
1734580809.7821102,13.18359375,790.52734375,-284.66796875,-3.41796875,0.0
1734580809.786062,88.37890625,905.76171875,-241.69921875,38.0859375,0.0
1734580809.789968,68.84765625,728.02734375,-351.07421875,31.73828125,0.0
1734580809.793874,-50.78125,711.9140625,-425.78125,-33.69140625,0.0
1734580809.79778,-57.12890625,867.67578125,-403.3203125,-58.59375,0.0
1734580809.801686,19.04296875,773.4375,-427.24609375,0.48828125,0.0
1734580809.805592,84.9609375,541.015625,-467.28515625,38.57421875,0.0
1734580809.809498,89.84375,726.5625,-410.15625,38.57421875,0.0
1734580809.813404,-39.55078125,705.56640625,-483.3984375,-16.6015625,0.0
1734580809.81731,-84.47265625,201.171875,-648.92578125,-58.59375,0.0
1734580809.8212159,1.46484375,49.8046875,-619.62890625,-30.76171875,0.0
1734580809.8251219,84.9609375,811.03515625,-265.13671875,30.76171875,0.0
1734580809.829028,87.890625,-961.42578125,-299.8046875,29.78515625,0.0
1734580809.8329704,-41.50390625,631.34765625,-528.3203125,-60.05859375,0.0
1734580809.8368764,-96.19140625,586.9140625,-537.59765625,-58.10546875,0.0
1734580809.8407824,-22.94921875,736.328125,-495.60546875,-16.11328125,0.0
1734580809.8446884,65.4296875,834.9609375,-432.12890625,16.6015625,0.0
1734580809.8485942,77.63671875,833.49609375,-459.47265625,36.1328125,0.0
1734580809.8525002,-37.109375,412.109375,-610.83984375,-21.484375,0.0
1734580809.8564062,-98.14453125,365.234375,-590.8203125,-64.94140625,0.0
1734580809.8603122,-28.80859375,830.078125,-478.515625,-24.4140625,0.0
1734580809.8642182,58.59375,317.3828125,-583.984375,38.0859375,0.0
1734580809.8681242,87.40234375,89.84375,-573.2421875,61.5234375,0.0
1734580809.8720303,3.41796875,751.46484375,-462.40234375,-9.765625,0.0
1734580809.8759363,-91.30859375,603.02734375,-560.546875,-72.75390625,0.0
1734580809.8798642,-51.7578125,498.53515625,-526.3671875,-37.109375,0.0
1734580809.8837702,55.17578125,861.328125,-362.79296875,27.83203125,0.0
1734580809.8876762,96.6796875,-979.4921875,-312.01171875,52.734375,0.0
1734580809.891582,18.5546875,729.98046875,-507.8125,8.30078125,0.0
1734580809.895488,-80.078125,328.61328125,-677.734375,-53.7109375,0.0
1734580809.899394,-57.12890625,241.2109375,-585.9375,-56.15234375,0.0
1734580809.9033,27.83203125,581.0546875,-367.67578125,-4.39453125,0.0
1734580809.907206,81.0546875,671.38671875,-473.6328125,56.15234375,0.0
1734580809.911112,17.08984375,-4.8828125,-690.4296875,24.4140625,0.0
1734580809.915018,-109.86328125,276.85546875,-487.3046875,-70.3125,0.0
1734580809.918924,-99.12109375,765.13671875,-434.08203125,-76.66015625,0.0
1734580809.92283,2.44140625,578.61328125,-390.13671875,-7.32421875,0.0
1734580809.9267282,64.94140625,501.953125,-341.30859375,44.921875,0.0
1734580809.9306343,11.71875,806.640625,-373.046875,15.13671875,0.0
1734580809.9345403,-112.3046875,428.22265625,-553.22265625,-77.63671875,0.0
1734580809.9384463,-107.91015625,78.61328125,-534.1796875,-91.796875,0.0
1734580809.9423523,-23.4375,570.3125,-352.5390625,-35.15625,0.0
1734580809.9462583,44.43359375,799.8046875,-331.54296875,24.90234375,0.0
1734580809.9501643,12.20703125,554.6875,-404.78515625,17.08984375,0.0
1734580809.9540703,-115.234375,69.3359375,-565.91796875,-75.68359375,0.0
1734580809.9579763,-129.39453125,253.90625,-452.63671875,-90.33203125,0.0
1734580809.9618824,-52.24609375,819.82421875,-271.97265625,-44.921875,0.0
1734580809.9657884,21.484375,929.6875,-263.671875,7.32421875,0.0
1734580809.9696944,5.37109375,280.2734375,-404.78515625,18.5546875,0.0
1734580809.9735694,-103.515625,137.20703125,-433.59375,-53.22265625,0.0
1734580809.9774754,-127.44140625,641.11328125,-356.4453125,-90.33203125,0.0
1734580809.9813814,-58.10546875,557.12890625,-362.79296875,-51.7578125,0.0
1734580809.9852874,31.73828125,458.984375,-312.01171875,3.41796875,0.0
1734580809.9891932,41.015625,807.12890625,-238.28125,18.5546875,0.0
1734580809.9930992,-82.51953125,554.19921875,-420.41015625,-62.5,0.0
1734580809.9970052,-140.13671875,-98.6328125,-595.21484375,-104.98046875,0.0
1734580810.0009112,-76.171875,-320.3125,-542.96875,-49.31640625,0.0
1734580810.0048172,24.90234375,528.80859375,-49.8046875,17.08984375,0.0
1734580810.0087233,46.875,-916.015625,79.1015625,24.4140625,0.0
1734580810.0126293,-66.89453125,529.296875,-237.79296875,-64.453125,0.0
1734580810.0165353,-122.0703125,284.1796875,-379.39453125,-106.93359375,0.0
1734580810.0204012,-48.33984375,689.94140625,-207.03125,-44.921875,0.0
1734580810.0243073,44.921875,990.234375,48.828125,34.66796875,0.0
1734580810.0282133,63.96484375,535.15625,-96.19140625,49.31640625,0.0
1734580810.0321193,-39.0625,269.53125,-325.1953125,-24.4140625,0.0
1734580810.0360253,-116.69921875,534.66796875,-348.14453125,-95.21484375,0.0
1734580810.0399313,-62.01171875,411.62109375,-329.1015625,-77.1484375,0.0
1734580810.0438373,26.85546875,-127.44140625,-423.33984375,8.7890625,0.0
1734580810.047743,71.2890625,2.9296875,-267.08984375,72.265625,0.0
1734580810.051649,-3.41796875,884.765625,27.34375,9.27734375,0.0
1734580810.055555,-104.98046875,550.78125,-277.34375,-77.63671875,0.0
1734580810.059461,-64.94140625,339.35546875,-263.18359375,-68.359375,0.0
1734580810.0633671,31.25,813.4765625,88.8671875,-3.90625,0.0
1734580810.067211,73.2421875,-971.19140625,172.8515625,42.48046875,0.0
1734580810.071117,-4.8828125,712.40234375,-115.234375,6.34765625,0.0
1734580810.0750227,-114.2578125,240.234375,-394.04296875,-91.796875,0.0
1734580810.0789287,-85.9375,444.82421875,-228.02734375,-81.54296875,0.0
1734580810.0828347,22.4609375,866.2109375,39.55078125,15.13671875,0.0
1734580810.0867407,72.75390625,623.046875,-47.8515625,41.015625,0.0
1734580810.0906467,2.9296875,-92.28515625,-304.19921875,12.20703125,0.0
1734580810.0945528,-103.515625,166.015625,-233.3984375,-63.96484375,0.0
1734580810.0984588,-91.30859375,466.796875,-233.3984375,-78.125,0.0
1734580810.1023648,4.8828125,307.12890625,-167.48046875,20.5078125,0.0
1734580810.1062708,79.58984375,664.55078125,93.75,71.77734375,0.0
1734580810.1101768,26.3671875,971.19140625,152.83203125,12.20703125,0.0
1734580810.1140018,-103.02734375,652.34375,-74.70703125,-72.265625,0.0
1734580810.1179078,-98.6328125,265.13671875,-200.68359375,-67.87109375,0.0
1734580810.1218135,8.30078125,305.17578125,-30.2734375,-14.16015625,0.0
1734580810.1257195,85.9375,676.7578125,147.4609375,50.78125,0.0
1734580810.1296256,60.05859375,950.1953125,158.203125,49.31640625,0.0
1734580810.1335316,-70.3125,23.4375,-196.2890625,-40.0390625,0.0
1734580810.1374376,-101.5625,-188.96484375,-145.01953125,-69.3359375,0.0
1734580810.1413436,-3.41796875,765.13671875,181.15234375,-5.859375,0.0
1734580810.1452496,81.0546875,938.4765625,196.2890625,65.91796875,0.0
1734580810.1491556,60.05859375,498.046875,21.97265625,51.7578125,0.0
1734580810.1530616,-76.171875,352.5390625,-24.4140625,-33.69140625,0.0
1734580810.1569676,-122.55859375,367.67578125,47.8515625,-83.984375,0.0
1734580810.1609251,-42.48046875,416.015625,73.73046875,-50.29296875,0.0
1734580810.1648312,47.36328125,724.609375,216.796875,21.484375,0.0
1734580810.1687372,46.38671875,920.8984375,251.953125,22.94921875,0.0
1734580810.1726432,-78.61328125,854.4921875,153.80859375,-59.5703125,0.0
1734580810.1765492,-125.48828125,411.62109375,-3.90625,-91.30859375,0.0
1734580810.1804552,-67.3828125,38.0859375,-78.61328125,-53.22265625,0.0
1734580810.1843612,36.62109375,493.1640625,174.8046875,4.8828125,0.0
1734580810.1882672,59.08203125,-906.73828125,338.37890625,26.3671875,0.0
1734580810.1921732,-61.5234375,441.89453125,-73.73046875,-47.8515625,0.0
1734580810.1960793,-130.859375,-300.29296875,-253.90625,-106.93359375,0.0
1734580810.199985,-48.33984375,419.43359375,146.484375,-59.08203125,0.0
1734580810.203891,68.359375,836.42578125,233.3984375,29.78515625,0.0
1734580810.2078288,85.44921875,700.1953125,179.6875,42.96875,0.0
1734580810.2117348,-44.43359375,510.7421875,82.03125,-38.0859375,0.0
1734580810.2156408,-128.41796875,220.703125,-36.1328125,-95.21484375,0.0
1734580810.2195468,-57.12890625,101.5625,-9.27734375,-52.24609375,0.0
1734580810.2234528,35.15625,360.83984375,198.73046875,15.13671875,0.0
1734580810.2273588,79.1015625,448.73046875,188.4765625,41.015625,0.0
1734580810.2312648,-0.48828125,421.875,110.3515625,-8.30078125,0.0
1734580810.2351708,-108.3984375,530.76171875,103.02734375,-81.0546875,0.0
1734580810.2390769,-64.94140625,-207.51953125,-159.66796875,-48.33984375,0.0
1734580810.2429829,46.875,-125.48828125,-3.41796875,-2.9296875,0.0
1734580810.2468889,91.30859375,-979.98046875,370.1171875,41.015625,0.0
1734580810.2507946,22.94921875,695.3125,133.30078125,51.26953125,0.0
1734580810.2547183,-80.56640625,169.43359375,7.32421875,-40.52734375,0.0
1734580810.2586243,-57.12890625,475.5859375,154.78515625,-67.87109375,0.0
1734580810.2625303,48.828125,888.18359375,252.9296875,10.25390625,0.0
1734580810.2664363,102.5390625,793.9453125,222.16796875,105.46875,0.0
1734580810.2703424,22.4609375,372.0703125,99.609375,53.7109375,0.0
1734580810.2742484,-85.9375,20.01953125,-68.84765625,-34.66796875,0.0
1734580810.2781544,-48.33984375,1.46484375,-4.39453125,-48.33984375,0.0
1734580810.2820604,9.27734375,69.3359375,56.640625,-30.2734375,0.0
1734580810.2859662,83.49609375,-71.2890625,75.1953125,80.078125,0.0
1734580810.2898722,71.2890625,482.421875,252.44140625,82.51953125,0.0
1734580810.2937782,-65.4296875,708.49609375,149.90234375,-44.921875,0.0
1734580810.2976842,-89.84375,307.6171875,43.45703125,-86.9140625,0.0
1734580810.301578,-9.765625,512.20703125,154.296875,-9.27734375,0.0
1734580810.305484,88.37890625,991.2109375,307.6171875,61.03515625,0.0
1734580810.30939,57.6171875,625.9765625,168.45703125,9.27734375,0.0
1734580810.313296,-80.56640625,83.984375,-51.26953125,-58.10546875,0.0
1734580810.317202,-105.46875,290.52734375,38.57421875,-48.828125,0.0
1734580810.321108,-32.71484375,410.15625,156.25,-11.71875,0.0
1734580810.325014,66.40625,571.2890625,252.44140625,34.66796875,0.0
1734580810.3289201,46.875,-19.53125,-68.359375,37.59765625,0.0
1734580810.3328261,-103.02734375,-401.85546875,-233.88671875,-62.01171875,0.0
1734580810.3367321,-130.859375,531.73828125,171.875,-104.4921875,0.0
1734580810.3406382,-39.55078125,698.73046875,157.2265625,-49.31640625,0.0
1734580810.3445442,39.55078125,616.69921875,165.52734375,9.27734375,0.0
1734580810.3484242,37.59765625,850.09765625,231.4453125,19.53125,0.0
1734580810.3523302,-90.33203125,813.96484375,115.234375,-69.82421875,0.0
1734580810.3562362,-142.08984375,375.0,15.625,-107.421875,0.0
1734580810.3601422,-63.4765625,335.44921875,78.61328125,-57.6171875,0.0
1734580810.3640482,43.9453125,782.71484375,198.2421875,-1.46484375,0.0
1734580810.3679543,60.05859375,710.44921875,162.109375,26.85546875,0.0
1734580810.37186,-55.6640625,55.17578125,-144.53125,-32.71484375,0.0
1734580810.375766,-116.2109375,-554.19921875,-344.23828125,-89.35546875,0.0
1734580810.379672,-51.26953125,185.05859375,59.08203125,-69.3359375,0.0
1734580810.383578,44.921875,942.3828125,255.859375,1.46484375,0.0
1734580810.387484,67.87109375,618.65234375,94.23828125,28.80859375,0.0
1734580810.39139,-43.9453125,439.94140625,16.6015625,-9.765625,0.0
1734580810.3952515,-135.25390625,539.0625,62.5,-63.96484375,0.0
1734580810.3991575,-85.9375,627.9296875,124.51171875,-61.5234375,0.0
1734580810.4030635,9.765625,348.6328125,22.94921875,-12.6953125,0.0
1734580810.4069695,52.734375,314.94140625,52.24609375,41.50390625,0.0
1734580810.4108756,-26.3671875,487.3046875,43.45703125,-6.8359375,0.0
1734580810.4147816,-126.953125,33.69140625,-229.98046875,-116.69921875,0.0
1734580810.4186876,-100.5859375,-684.5703125,-459.9609375,-53.22265625,0.0
1734580810.4225936,7.32421875,-442.87109375,-208.984375,37.59765625,0.0
1734580810.4264996,77.1484375,770.99609375,247.55859375,37.109375,0.0
1734580810.4304056,1.953125,670.8984375,57.12890625,-18.06640625,0.0
1734580810.4343116,-128.90625,87.890625,-201.66015625,-90.8203125,0.0
1734580810.4382176,-103.02734375,316.89453125,-37.109375,-82.51953125,0.0
1734580810.44221,2.44140625,589.84375,133.7890625,-33.69140625,0.0
1734580810.446116,58.59375,435.546875,91.30859375,11.23046875,0.0
1734580810.450022,13.671875,366.2109375,75.68359375,0.48828125,0.0
1734580810.453928,-121.58203125,365.72265625,-16.11328125,-101.5625,0.0
1734580810.457834,-120.60546875,397.94921875,5.859375,-104.00390625,0.0
1734580810.46174,-12.20703125,161.1328125,-5.859375,-10.7421875,0.0
1734580810.465646,56.640625,-219.7265625,-118.1640625,69.3359375,0.0
1734580810.469552,28.3203125,321.77734375,71.77734375,46.875,0.0
1734580810.473458,-90.8203125,603.02734375,70.3125,-58.10546875,0.0
1734580810.477364,-110.83984375,125.48828125,-103.02734375,-91.30859375,0.0
1734580810.48127,-20.99609375,264.16015625,28.80859375,-41.9921875,0.0
1734580810.4851758,60.546875,881.8359375,236.81640625,32.71484375,0.0
1734580810.4889948,32.2265625,923.828125,179.6875,25.87890625,0.0
1734580810.4929008,-93.75,354.4921875,-65.4296875,-58.10546875,0.0
1734580810.4968069,-104.00390625,-63.4765625,-234.375,-72.265625,0.0
1734580810.5007129,-17.578125,65.4296875,-82.51953125,-14.16015625,0.0
1734580810.504619,65.4296875,433.59375,144.04296875,45.41015625,0.0
1734580810.508525,64.453125,184.5703125,-34.1796875,50.78125,0.0
1734580810.512431,-63.4765625,-9.765625,-141.11328125,-39.0625,0.0
1734580810.516337,-117.1875,346.19140625,32.2265625,-84.47265625,0.0
1734580810.520243,-47.8515625,654.296875,125.48828125,-39.0625,0.0
1734580810.5241487,42.96875,206.54296875,-63.96484375,26.85546875,0.0
1734580810.5280547,58.10546875,201.66015625,-9.27734375,25.87890625,0.0
1734580810.5319607,-46.875,905.2734375,149.4140625,-37.109375,0.0
1734580810.5359147,-121.09375,447.75390625,-64.453125,-71.2890625,0.0
1734580810.5398207,-57.6171875,306.15234375,-14.16015625,-48.828125,0.0
1734580810.5437267,47.36328125,800.78125,186.03515625,28.80859375,0.0
1734580810.5476327,64.453125,-978.515625,221.6796875,53.7109375,0.0
1734580810.5515387,-41.015625,603.515625,-52.24609375,-4.39453125,0.0
1734580810.5554447,-113.76953125,-185.546875,-371.09375,-60.05859375,0.0
1734580810.5593507,-60.05859375,-105.46875,-214.84375,-47.36328125,0.0
1734580810.5632565,38.0859375,648.92578125,126.953125,14.6484375,0.0
1734580810.5671625,73.73046875,630.37109375,-16.11328125,55.6640625,0.0
1734580810.5710685,-25.87890625,-65.91796875,-321.77734375,5.37109375,0.0
1734580810.5749745,-115.234375,224.12109375,-216.30859375,-82.03125,0.0
1734580810.5788805,-69.82421875,630.37109375,-62.98828125,-64.94140625,0.0
1734580810.5828176,25.87890625,543.45703125,41.50390625,4.8828125,0.0
1734580810.5867236,79.58984375,704.1015625,75.68359375,42.96875,0.0
1734580810.5906296,-3.90625,566.89453125,-115.234375,-13.671875,0.0
1734580810.5945356,-124.0234375,114.2578125,-364.2578125,-93.26171875,0.0
1734580810.5984416,-104.4921875,112.3046875,-306.15234375,-76.66015625,0.0
1734580810.6023474,-1.46484375,109.86328125,-258.7890625,-10.7421875,0.0
1734580810.6062534,73.2421875,508.30078125,-6.8359375,42.48046875,0.0
1734580810.6101594,14.16015625,829.1015625,40.52734375,11.23046875,0.0
1734580810.6140654,-107.91015625,-303.7109375,-520.01953125,-72.75390625,0.0
1734580810.6179714,-92.28515625,-563.96484375,-432.6171875,-76.66015625,0.0
1734580810.6218774,8.30078125,610.3515625,58.59375,-11.71875,0.0
1734580810.6257834,65.4296875,647.4609375,42.48046875,40.52734375,0.0
1734580810.6297035,15.625,439.94140625,-50.29296875,10.7421875,0.0
1734580810.6336095,-99.609375,382.32421875,-232.91015625,-69.82421875,0.0
1734580810.6375155,-94.7265625,484.375,-230.46875,-83.49609375,0.0
1734580810.6414216,-1.46484375,524.4140625,-80.56640625,-17.08984375,0.0
1734580810.6453276,64.453125,563.4765625,6.8359375,41.9921875,0.0
1734580810.6492336,31.73828125,402.83203125,-125.0,40.0390625,0.0
1734580810.6531396,-100.09765625,167.48046875,-304.19921875,-37.109375,0.0
1734580810.6570456,-127.44140625,90.8203125,-386.23046875,-83.984375,0.0
1734580810.6609514,-41.015625,-326.171875,-419.921875,-30.76171875,0.0
1734580810.6648574,60.05859375,434.08203125,43.45703125,33.69140625,0.0
1734580810.6687634,46.875,997.0703125,145.01953125,16.11328125,0.0
1734580810.6726694,-98.14453125,194.3359375,-223.6328125,-70.80078125,0.0
1734580810.6765716,-130.37109375,-67.87109375,-329.58984375,-90.33203125,0.0
1734580810.6804776,-45.8984375,569.3359375,-42.96875,-50.78125,0.0
1734580810.6843836,44.43359375,562.98828125,77.1484375,2.9296875,0.0
1734580810.6882896,52.734375,274.90234375,-60.05859375,25.87890625,0.0
1734580810.6921957,-65.4296875,246.09375,-267.578125,-43.45703125,0.0
1734580810.6961017,-110.83984375,23.4375,-357.91015625,-95.703125,0.0
1734580810.7000077,-39.0625,111.81640625,-192.87109375,-44.43359375,0.0
1734580810.7039137,63.96484375,-99.12109375,-246.58203125,55.17578125,0.0
1734580810.7078197,84.47265625,-123.53515625,-198.2421875,81.54296875,0.0
1734580810.7117255,-40.0390625,598.6328125,66.89453125,-14.6484375,0.0
1734580810.7156315,-120.1171875,343.26171875,-212.40234375,-101.5625,0.0
1734580810.7195375,-65.4296875,160.15625,-153.3203125,-82.03125,0.0
1734580810.7234209,28.3203125,653.3203125,134.765625,4.39453125,0.0
1734580810.7273269,63.4765625,926.26953125,149.4140625,52.734375,0.0
1734580810.7312326,-29.78515625,395.5078125,-148.4375,11.23046875,0.0
1734580810.7351387,-129.8828125,-29.296875,-402.83203125,-45.8984375,0.0
1734580810.7390447,-72.75390625,372.0703125,-118.1640625,-46.875,0.0
1734580810.7429507,43.9453125,507.8125,81.54296875,0.48828125,0.0
1734580810.7468567,78.125,203.61328125,-85.44921875,16.6015625,0.0
1734580810.7507627,-15.625,-364.2578125,-349.12109375,-39.55078125,0.0
1734580810.7546687,-105.95703125,-92.7734375,-282.71484375,-113.76953125,0.0
1734580810.7585747,-63.4765625,510.7421875,-82.03125,-101.5625,0.0
1734580810.7624807,33.203125,430.6640625,-13.18359375,-20.5078125,0.0
1734580810.7663867,88.37890625,485.3515625,30.76171875,36.1328125,0.0
1734580810.7702518,32.2265625,662.59765625,63.96484375,8.30078125,0.0
1734580810.7741578,-81.54296875,402.34375,-210.44921875,-73.2421875,0.0
1734580810.7780638,-87.40234375,-15.625,-346.19140625,-95.703125,0.0
1734580810.7819698,0.0,152.34375,-72.265625,-41.9921875,0.0
1734580810.7858758,72.75390625,716.796875,144.53125,0.0,0.0
1734580810.7897816,11.71875,336.42578125,-106.93359375,-34.1796875,0.0
1734580810.7936876,-116.69921875,-657.71484375,-607.421875,-102.05078125,0.0
1734580810.7975936,-101.5625,-609.86328125,-464.84375,-83.984375,0.0
1734580810.8014996,-10.7421875,439.453125,85.44921875,-34.1796875,0.0
1734580810.8054056,49.8046875,605.46875,87.890625,15.13671875,0.0
1734580810.8093116,18.06640625,285.15625,-86.9140625,15.625,0.0
1734580810.8132176,-101.07421875,177.24609375,-247.0703125,-72.75390625,0.0
1734580810.8170633,-114.74609375,295.8984375,-226.07421875,-96.6796875,0.0
1734580810.8209693,-17.08984375,310.546875,-71.2890625,-31.25,0.0
1734580810.8248754,60.05859375,290.0390625,13.671875,34.66796875,0.0
1734580810.8287814,26.85546875,532.71484375,83.0078125,25.87890625,0.0
1734580810.8326874,-91.796875,357.91015625,-130.859375,-71.77734375,0.0
1734580810.8365934,-114.2578125,-300.78125,-469.7265625,-93.75,0.0
1734580810.8404994,-29.296875,-664.0625,-400.390625,-19.04296875,0.0
1734580810.8444054,66.89453125,13.671875,9.765625,40.0390625,0.0
1734580810.8483114,62.5,482.421875,114.2578125,41.50390625,0.0
1734580810.8522172,-63.96484375,42.48046875,-166.9921875,-40.0390625,0.0
1734580810.8561232,-115.72265625,-113.28125,-284.66796875,-83.49609375,0.0
1734580810.8600292,-41.50390625,373.53515625,3.90625,-48.33984375,0.0
1734580810.8638575,53.7109375,609.375,139.6484375,11.71875,0.0
1734580810.8677635,67.87109375,413.0859375,55.6640625,31.73828125,0.0
1734580810.8716695,-40.52734375,-111.328125,-223.6328125,-36.62109375,0.0
1734580810.8755755,-110.83984375,-148.4375,-309.08203125,-88.8671875,0.0
1734580810.8794816,-45.41015625,254.8828125,-68.359375,-41.9921875,0.0
1734580810.8833876,61.03515625,-146.484375,-106.93359375,35.15625,0.0
1734580810.8872933,74.21875,-108.88671875,-17.08984375,52.24609375,0.0
1734580810.8911994,-28.80859375,390.625,61.5234375,-32.71484375,0.0
1734580810.8951054,-104.98046875,129.39453125,-247.55859375,-98.6328125,0.0
1734580810.8990114,-60.05859375,-260.25390625,-305.6640625,-62.5,0.0
1734580810.9029174,39.55078125,-87.890625,-12.20703125,-0.48828125,0.0
1734580810.9068234,80.56640625,492.1875,163.0859375,30.76171875,0.0
1734580810.910784,-5.37109375,371.58203125,-24.4140625,-3.41796875,0.0
1734580810.91469,-93.75,-146.484375,-291.015625,-62.5,0.0
1734580810.918596,-51.26953125,50.29296875,-106.93359375,-44.921875,0.0
1734580810.9225018,56.15234375,497.55859375,154.296875,13.671875,0.0
1734580810.9264078,100.5859375,438.96484375,58.10546875,45.41015625,0.0
1734580810.9303138,11.23046875,-289.55078125,-257.32421875,0.48828125,0.0
1734580810.9342198,-99.12109375,-365.72265625,-322.265625,-70.80078125,0.0
1734580810.9381258,-64.94140625,175.29296875,-41.50390625,-54.19921875,0.0
1734580810.9420319,41.015625,30.76171875,-25.390625,5.859375,0.0
1734580810.9459379,93.26171875,-276.3671875,-104.98046875,33.203125,0.0
1734580810.949844,28.80859375,232.421875,127.44140625,-13.18359375,0.0
1734580810.95375,-90.8203125,193.84765625,-35.15625,-98.6328125,0.0
1734580810.9576912,-72.75390625,-273.92578125,-217.28515625,-85.44921875,0.0
1734580810.961597,28.3203125,-271.97265625,-27.34375,-19.04296875,0.0
1734580810.965503,87.890625,30.2734375,116.2109375,18.06640625,0.0
1734580810.969409,40.0390625,192.3828125,68.84765625,-2.9296875,0.0
1734580810.973315,-88.8671875,-143.5546875,-153.3203125,-75.68359375,0.0
1734580810.977221,-101.07421875,-518.5546875,-280.76171875,-85.44921875,0.0
1734580810.981127,-1.46484375,-55.6640625,39.0625,-31.73828125,0.0
1734580810.985033,79.58984375,603.02734375,277.83203125,33.203125,0.0
1734580810.988939,41.9921875,-175.29296875,-135.7421875,15.625,0.0
1734580810.992845,-85.9375,-696.2890625,-277.83203125,-84.9609375,0.0
1734580810.996751,-104.00390625,117.1875,134.27734375,-100.09765625,0.0
1734580811.000657,-8.30078125,268.06640625,113.76953125,-38.0859375,0.0
1734580811.004585,88.8671875,313.4765625,142.578125,34.1796875,0.0
1734580811.008491,61.5234375,500.9765625,199.21875,36.62109375,0.0
1734580811.012397,-72.75390625,278.3203125,41.9921875,-61.03515625,0.0
1734580811.016303,-93.26171875,-164.55078125,-66.89453125,-86.42578125,0.0
1734580811.020209,-12.6953125,-237.79296875,5.37109375,-23.4375,0.0
1734580811.0241148,66.89453125,22.94921875,126.46484375,32.2265625,0.0
1734580811.0280209,75.68359375,255.37109375,217.28515625,40.0390625,0.0
1734580811.0319269,-40.0390625,-121.09375,-59.08203125,-26.85546875,0.0
1734580811.035833,-119.62890625,-777.83203125,-350.5859375,-87.890625,0.0
1734580811.039739,-51.7578125,9.765625,121.58203125,-65.91796875,0.0
1734580811.043645,62.5,698.73046875,323.73046875,17.08984375,0.0
1734580811.047551,61.5234375,333.0078125,134.27734375,41.9921875,0.0
1734580811.0514486,-49.31640625,29.296875,32.71484375,-39.0625,0.0
1734580811.0553546,-108.3984375,50.29296875,78.61328125,-83.0078125,0.0
1734580811.0592606,-45.41015625,-120.60546875,69.3359375,-33.203125,0.0
1734580811.0631666,66.40625,-114.2578125,156.73828125,25.390625,0.0
1734580811.0670726,100.5859375,329.1015625,255.37109375,49.31640625,0.0
1734580811.0709786,-9.765625,32.71484375,36.1328125,-7.32421875,0.0
1734580811.0748844,-94.23828125,-403.3203125,-139.16015625,-78.125,0.0
1734580811.0787904,-37.59765625,-718.26171875,-248.53515625,-46.875,0.0
1734580811.0826964,62.98828125,-443.84765625,-62.5,31.73828125,0.0
1734580811.0866024,95.21484375,632.8125,330.56640625,53.7109375,0.0
1734580811.0905085,-1.46484375,393.06640625,120.60546875,-4.8828125,0.0
1734580811.0944145,-104.4921875,-251.953125,-73.2421875,-79.1015625,0.0
1734580811.0983007,-67.3828125,7.32421875,104.00390625,-60.546875,0.0
1734580811.1022067,40.0390625,513.671875,261.71875,11.23046875,0.0
1734580811.1061127,85.44921875,466.796875,217.7734375,42.48046875,0.0
1734580811.1100187,3.90625,79.1015625,127.9296875,-2.44140625,0.0
1734580811.1139247,-105.95703125,-12.20703125,85.44921875,-81.54296875,0.0
1734580811.1178308,-83.49609375,-91.796875,76.171875,-76.171875,0.0
1734580811.1217365,18.06640625,-224.609375,95.21484375,-0.9765625,0.0
1734580811.1256425,80.078125,-360.3515625,180.17578125,51.26953125,0.0
1734580811.1295485,31.25,60.546875,270.01953125,16.11328125,0.0
1734580811.1334546,-84.9609375,-27.83203125,96.6796875,-54.6875,0.0
1734580811.1373606,-73.73046875,-418.9453125,36.62109375,-53.7109375,0.0
1734580811.1412666,18.06640625,57.12890625,217.28515625,-0.9765625,0.0
1734580811.1451252,74.21875,596.19140625,359.375,59.5703125,0.0
1734580811.1490312,36.62109375,538.0859375,294.921875,30.76171875,0.0
1734580811.1529372,-82.03125,-201.66015625,97.65625,-51.7578125,0.0
1734580811.1568432,-93.75,-324.70703125,176.7578125,-56.15234375,0.0
1734580811.1607492,1.46484375,259.27734375,326.171875,3.41796875,0.0
1734580811.1646552,89.84375,374.0234375,367.67578125,62.01171875,0.0
1734580811.168561,61.5234375,-359.375,129.39453125,54.6875,0.0
1734580811.172467,-66.40625,-706.0546875,37.109375,-23.92578125,0.0
1734580811.176373,-88.8671875,115.234375,366.2109375,-68.359375,0.0
1734580811.180279,2.9296875,272.4609375,362.79296875,-24.4140625,0.0
1734580811.184185,86.42578125,245.1171875,397.94921875,46.875,0.0
1734580811.188091,73.2421875,383.30078125,454.1015625,41.015625,0.0
1734580811.1919372,-52.24609375,8.30078125,338.8671875,-44.43359375,0.0
1734580811.1958432,-96.6796875,-205.078125,334.47265625,-72.265625,0.0
1734580811.1997492,-20.01953125,-51.26953125,428.22265625,-38.0859375,0.0
1734580811.2036552,78.125,430.6640625,529.296875,5.859375,0.0
1734580811.2075613,83.49609375,597.16796875,530.76171875,25.87890625,0.0
1734580811.211467,-38.0859375,-149.4140625,344.23828125,-31.25,0.0
1734580811.215373,-96.6796875,-800.78125,296.38671875,-68.359375,0.0
1734580811.219279,-25.390625,-104.98046875,509.765625,-34.1796875,0.0
1734580811.223185,83.0078125,689.94140625,580.078125,19.04296875,0.0
1734580811.227091,103.02734375,352.05078125,472.65625,30.2734375,0.0
1734580811.230997,-12.6953125,4.8828125,413.0859375,-49.31640625,0.0
1734580811.234903,-84.47265625,114.74609375,438.4765625,-96.19140625,0.0
1734580811.2387276,-20.99609375,245.60546875,481.4453125,-47.36328125,0.0
1734580811.2426336,65.91796875,217.7734375,497.0703125,9.765625,0.0
1734580811.2465394,79.58984375,-31.25,475.5859375,22.94921875,0.0
1734580811.2504454,-9.765625,-134.765625,428.22265625,-24.4140625,0.0
1734580811.2543514,-90.33203125,-72.75390625,402.83203125,-90.33203125,0.0
1734580811.2582574,-52.24609375,-411.1328125,364.2578125,-75.68359375,0.0
1734580811.2621634,50.78125,-370.60546875,440.91796875,13.18359375,0.0
1734580811.2660694,91.30859375,436.5234375,576.171875,40.52734375,0.0
1734580811.2699754,5.37109375,452.1484375,472.16796875,-10.7421875,0.0
1734580811.2738814,-89.35546875,-356.93359375,369.62890625,-77.1484375,0.0
1734580811.2777874,-62.01171875,-220.21484375,460.44921875,-69.3359375,0.0
1734580811.2816935,36.1328125,517.08984375,550.78125,5.859375,0.0
1734580811.2856572,85.44921875,491.69921875,509.765625,47.8515625,0.0
1734580811.289563,-1.953125,131.34765625,420.8984375,-6.8359375,0.0
1734580811.293469,-110.83984375,-33.203125,402.83203125,-87.890625,0.0
1734580811.297375,-76.171875,175.29296875,440.4296875,-75.1953125,0.0
1734580811.301281,20.5078125,139.6484375,461.9140625,-7.32421875,0.0
1734580811.305187,85.44921875,-157.2265625,442.87109375,48.33984375,0.0
1734580811.309093,27.83203125,-204.58984375,374.0234375,20.99609375,0.0
1734580811.312999,-96.6796875,-145.99609375,356.4453125,-67.3828125,0.0
1734580811.316905,-87.890625,-283.69140625,312.5,-69.3359375,0.0
1734580811.320811,4.39453125,-530.2734375,328.61328125,-16.6015625,0.0
1734580811.324717,79.1015625,275.390625,533.69140625,26.85546875,0.0
1734580811.328623,43.45703125,607.91015625,499.0234375,12.6953125,0.0
1734580811.3325658,-86.42578125,-139.16015625,271.97265625,-74.70703125,0.0
1734580811.3364718,-94.23828125,-231.4453125,317.3828125,-92.7734375,0.0
1734580811.3403778,-5.37109375,-4.39453125,437.01171875,-36.1328125,0.0
1734580811.3442838,76.171875,229.98046875,484.375,34.66796875,0.0
1734580811.3481898,63.96484375,317.87109375,479.00390625,36.62109375,0.0
1734580811.3520958,-79.1015625,-324.21875,295.8984375,-54.19921875,0.0
1734580811.3560016,-120.60546875,-297.36328125,323.2421875,-83.0078125,0.0
1734580811.3599076,-26.85546875,251.46484375,448.2421875,-29.78515625,0.0
1734580811.3638136,58.59375,-333.984375,295.41015625,34.66796875,0.0
1734580811.3677197,48.828125,-420.8984375,329.58984375,44.921875,0.0
1734580811.3716257,-71.77734375,340.8203125,422.36328125,-49.31640625,0.0
1734580811.3755317,-121.09375,60.546875,301.26953125,-102.5390625,0.0
1734580811.379452,-46.38671875,-69.3359375,337.40234375,-51.26953125,0.0
1734580811.383358,46.38671875,445.80078125,474.609375,30.76171875,0.0
1734580811.387264,42.96875,734.86328125,481.93359375,32.71484375,0.0
1734580811.39117,-86.42578125,166.9921875,316.89453125,-52.734375,0.0
1734580811.395076,-145.01953125,-298.828125,259.27734375,-99.12109375,0.0
1734580811.398982,-67.87109375,-167.48046875,340.33203125,-54.19921875,0.0
1734580811.4028878,31.73828125,61.03515625,400.87890625,15.625,0.0
1734580811.4067938,49.8046875,0.48828125,307.12890625,26.3671875,0.0
1734580811.4106998,-54.6875,-609.86328125,207.03125,-35.64453125,0.0
1734580811.4146059,-126.46484375,-284.66796875,316.89453125,-91.30859375,0.0
1734580811.4185119,-69.82421875,181.15234375,350.5859375,-58.10546875,0.0
1734580811.4224179,41.015625,27.34375,313.96484375,14.6484375,0.0
1734580811.426329,76.66015625,329.1015625,372.0703125,41.9921875,0.0
1734580811.430235,-22.94921875,512.6953125,378.41796875,-19.04296875,0.0
1734580811.434141,-122.55859375,-158.203125,189.453125,-86.9140625,0.0
1734580811.438047,-80.078125,-486.81640625,223.14453125,-49.31640625,0.0
1734580811.441953,23.4375,155.76171875,393.06640625,17.578125,0.0
1734580811.445859,71.2890625,329.58984375,342.28515625,50.78125,0.0
1734580811.4497647,-4.8828125,16.11328125,312.01171875,14.6484375,0.0
1734580811.4536707,-128.41796875,-630.859375,-89.84375,-66.89453125,0.0
1734580811.4575768,-103.02734375,-626.46484375,-78.125,-72.265625,0.0
1734580811.4614828,18.5546875,421.875,429.19921875,-5.859375,0.0
