timestamps,TP9,AF7,AF8,TP10,Right AUX
1734580426.3209665,-4.39453125,-140.13671875,6.34765625,-46.875,0.0
1734580426.3248696,-4.8828125,-136.23046875,97.16796875,-85.44921875,0.0
1734580426.328773,-20.99609375,-152.83203125,138.671875,-47.36328125,0.0
1734580426.3326762,-27.34375,-190.91796875,97.16796875,5.859375,0.0
1734580426.3365796,-13.671875,-211.9140625,122.0703125,4.8828125,0.0
1734580426.340483,-8.30078125,-223.6328125,124.0234375,-26.85546875,0.0
1734580426.344386,-0.9765625,-202.63671875,139.6484375,-57.12890625,0.0
1734580426.3482895,-8.30078125,-177.734375,202.63671875,-43.45703125,0.0
1734580426.3521929,-7.32421875,-235.3515625,-10.7421875,21.97265625,0.0
1734580426.356096,-9.27734375,-234.375,18.06640625,45.41015625,0.0
1734580426.3599994,6.8359375,-219.23828125,208.49609375,20.5078125,0.0
1734580426.3639028,28.80859375,-250.0,146.97265625,-21.484375,0.0
1734580426.367842,5.37109375,-276.85546875,81.0546875,-8.30078125,0.0
1734580426.3717453,-3.41796875,-282.71484375,164.0625,51.26953125,0.0
1734580426.3756485,6.34765625,-306.640625,199.70703125,62.01171875,0.0
1734580426.379552,13.671875,-337.890625,118.1640625,28.3203125,0.0
1734580426.3834553,16.6015625,-354.00390625,54.6875,-19.04296875,0.0
1734580426.3873584,17.08984375,-381.8359375,64.453125,-6.8359375,0.0
1734580426.3912618,6.8359375,-374.51171875,150.87890625,47.8515625,0.0
1734580426.3951652,2.9296875,-401.85546875,94.23828125,63.96484375,0.0
1734580426.3990684,-2.9296875,-459.47265625,-226.07421875,27.83203125,0.0
1734580426.4029717,-15.13671875,-390.625,76.171875,-36.62109375,0.0
1734580426.4068751,-11.71875,-383.30078125,229.98046875,-45.8984375,0.0
1734580426.4107783,-9.765625,-443.359375,75.68359375,13.671875,0.0
1734580426.4147146,-18.5546875,-465.33203125,121.58203125,34.1796875,0.0
1734580426.4186177,-21.97265625,-456.0546875,138.671875,-9.765625,0.0
1734580426.422521,-21.97265625,-466.796875,115.72265625,-64.453125,0.0
1734580426.4264245,-19.53125,-499.0234375,65.91796875,-67.3828125,0.0
1734580426.4303277,-17.08984375,-472.65625,150.390625,-3.90625,0.0
1734580426.434231,-26.85546875,-462.40234375,140.13671875,41.015625,0.0
1734580426.4381344,-30.2734375,-447.75390625,123.046875,8.7890625,0.0
1734580426.4420376,-29.296875,-447.265625,-64.453125,-47.8515625,0.0
1734580426.445941,-20.01953125,-362.3046875,-26.3671875,-46.38671875,0.0
1734580426.4498444,-14.6484375,-245.1171875,266.6015625,2.44140625,0.0
1734580426.4537475,-24.4140625,-243.65234375,173.33984375,28.80859375,0.0
1734580426.457651,-24.90234375,-233.88671875,38.57421875,5.859375,0.0
1734580426.461584,-20.99609375,-192.87109375,119.62890625,-34.1796875,0.0
1734580426.4654875,-4.39453125,-176.26953125,156.73828125,-35.64453125,0.0
1734580426.4693906,-1.953125,-181.640625,72.75390625,8.7890625,0.0
1734580426.473294,-20.5078125,-179.6875,-25.87890625,37.109375,0.0
1734580426.4771974,-20.5078125,-144.53125,71.2890625,-2.44140625,0.0
1734580426.4811006,-16.6015625,-138.671875,117.67578125,-46.875,0.0
1734580426.485004,-21.484375,-160.15625,19.04296875,-68.359375,0.0
1734580426.4889073,-12.6953125,-195.3125,-197.75390625,-12.6953125,0.0
1734580426.4928105,-17.578125,-114.74609375,112.79296875,33.203125,0.0
1734580426.4967139,-24.90234375,-99.609375,201.66015625,2.9296875,0.0
1734580426.5006173,-13.671875,-143.06640625,27.83203125,-28.3203125,0.0
1734580426.5045204,0.48828125,-114.74609375,100.5859375,-33.69140625,0.0
1734580426.5084496,-5.37109375,-103.02734375,133.7890625,-12.20703125,0.0
1734580426.512353,-9.27734375,-126.953125,125.9765625,15.625,0.0
1734580426.5162563,-8.30078125,-178.7109375,-49.8046875,43.45703125,0.0
1734580426.5201595,-7.8125,-170.41015625,-34.1796875,8.7890625,0.0
1734580426.5240629,13.18359375,-148.4375,113.28125,-34.66796875,0.0
1734580426.5279663,10.25390625,-190.91796875,38.0859375,0.0,0.0
1734580426.5318694,-15.13671875,-222.65625,-113.76953125,46.875,0.0
1734580426.5357728,-10.25390625,-165.0390625,-49.8046875,47.36328125,0.0
1734580426.5396762,6.34765625,-108.3984375,187.98828125,-6.8359375,0.0
1734580426.5435793,19.53125,-152.34375,104.98046875,-56.15234375,0.0
1734580426.5474827,10.25390625,-193.359375,1.953125,-28.80859375,0.0
1734580426.551386,-6.8359375,-161.62109375,103.02734375,36.1328125,0.0
1734580426.5553126,-10.25390625,-145.01953125,156.25,38.57421875,0.0
1734580426.559216,-28.3203125,-189.94140625,29.78515625,-1.953125,0.0
1734580426.5631192,-32.71484375,-215.33203125,-78.61328125,-52.24609375,0.0
1734580426.5670226,-17.578125,-193.359375,70.80078125,-24.90234375,0.0
1734580426.570926,-5.859375,-191.89453125,142.08984375,49.8046875,0.0
1734580426.574829,-6.8359375,-255.37109375,-12.20703125,73.2421875,0.0
1734580426.5787325,-31.25,-310.546875,-280.2734375,32.2265625,0.0
1734580426.5826359,-27.83203125,-209.9609375,50.78125,-34.66796875,0.0
1734580426.586539,-17.08984375,-202.1484375,194.3359375,-37.109375,0.0
1734580426.5904424,-38.57421875,-268.5546875,33.203125,19.04296875,0.0
1734580426.5943458,-33.203125,-245.1171875,128.90625,46.38671875,0.0
1734580426.5982492,-6.8359375,-235.83984375,147.4609375,8.30078125,0.0
1734580426.6021705,1.46484375,-268.06640625,74.70703125,-32.71484375,0.0
1734580426.6060736,-3.90625,-292.96875,31.73828125,-35.64453125,0.0
1734580426.609977,-2.9296875,-279.296875,91.796875,15.625,0.0
1734580426.6138804,-3.90625,-270.5078125,80.078125,51.26953125,0.0
1734580426.6177835,2.44140625,-256.8359375,128.90625,5.37109375,0.0
1734580426.621687,4.8828125,-312.5,-55.6640625,-47.36328125,0.0
1734580426.6255903,-4.39453125,-309.08203125,-63.96484375,-51.26953125,0.0
1734580426.6294935,-13.671875,-269.53125,187.98828125,-5.37109375,0.0
1734580426.6333969,0.48828125,-304.19921875,132.8125,32.2265625,0.0
1734580426.6373003,7.32421875,-380.859375,-176.26953125,24.4140625,0.0
1734580426.6412036,4.8828125,-324.21875,21.484375,-13.18359375,0.0
1734580426.6451068,5.859375,-293.45703125,177.734375,-50.29296875,0.0
1734580426.6490526,-13.671875,-341.796875,34.66796875,-14.6484375,0.0
1734580426.652956,-16.11328125,-323.2421875,59.08203125,37.109375,0.0
1734580426.6568594,-5.37109375,-310.05859375,128.41796875,25.87890625,0.0
1734580426.6607625,-6.8359375,-321.77734375,130.859375,-21.484375,0.0
1734580426.664666,-12.20703125,-363.76953125,11.23046875,-47.8515625,0.0
1734580426.6685693,-14.6484375,-383.7890625,-102.05078125,1.953125,0.0
1734580426.6724725,-20.01953125,-335.9375,83.0078125,52.24609375,0.0
1734580426.6763759,-23.4375,-312.98828125,183.10546875,27.83203125,0.0
1734580426.6802793,-18.5546875,-381.8359375,-28.80859375,-11.71875,0.0
1734580426.6841824,-6.34765625,-410.15625,-156.25,-40.52734375,0.0
1734580426.6880858,-15.13671875,-336.42578125,137.6953125,-32.71484375,0.0
1734580426.6919892,-20.01953125,-348.14453125,190.91796875,12.6953125,0.0
1734580426.6959317,-10.25390625,-398.4375,35.64453125,21.97265625,0.0
1734580426.6998348,-4.8828125,-392.08984375,46.38671875,-26.3671875,0.0
1734580426.7037382,4.8828125,-380.859375,20.5078125,-70.3125,0.0
1734580426.7076416,13.18359375,-395.99609375,26.85546875,-38.57421875,0.0
1734580426.7115448,21.97265625,-405.2734375,44.43359375,24.90234375,0.0
1734580426.7154481,15.625,-410.64453125,28.3203125,35.15625,0.0
1734580426.7193515,15.13671875,-401.3671875,92.7734375,-13.18359375,0.0
1734580426.723255,31.25,-405.2734375,147.94921875,-50.29296875,0.0
1734580426.727158,36.62109375,-483.3984375,-127.9296875,-9.27734375,0.0
1734580426.7310615,22.94921875,-427.24609375,-48.828125,55.6640625,0.0
1734580426.7349648,23.4375,-366.2109375,220.703125,69.3359375,0.0
1734580426.738868,36.1328125,-431.15234375,83.984375,44.921875,0.0
1734580426.7428071,43.45703125,-439.453125,-18.06640625,-2.44140625,0.0
1734580426.7467105,40.0390625,-395.5078125,91.30859375,-33.203125,0.0
1734580426.750614,32.2265625,-389.6484375,158.203125,23.92578125,0.0
1734580426.754517,30.76171875,-412.109375,49.8046875,54.6875,0.0
1734580426.7584205,17.08984375,-416.9921875,-53.22265625,16.11328125,0.0
1734580426.7623239,16.6015625,-416.50390625,-23.4375,-20.01953125,0.0
1734580426.7662272,31.25,-406.25,60.05859375,-26.85546875,0.0
1734580426.7701304,13.18359375,-412.59765625,52.734375,28.80859375,0.0
1734580426.7740338,0.48828125,-456.54296875,-220.703125,73.2421875,0.0
1734580426.7779372,8.30078125,-363.28125,54.19921875,28.3203125,0.0
1734580426.7818403,7.8125,-332.03125,185.546875,-17.08984375,0.0
1734580426.7857437,0.9765625,-369.62890625,13.671875,-39.55078125,0.0
1734580426.7896783,-11.71875,-298.828125,113.76953125,-7.8125,0.0
1734580426.7935817,-23.92578125,-246.58203125,145.5078125,36.1328125,0.0
1734580426.797485,-27.34375,-274.4140625,55.17578125,0.9765625,0.0
1734580426.8013885,-12.6953125,-291.9921875,-50.29296875,-45.8984375,0.0
1734580426.8052917,-2.9296875,-255.859375,42.96875,-67.3828125,0.0
1734580426.809195,-19.04296875,-266.11328125,73.73046875,-32.2265625,0.0
1734580426.8130984,-30.76171875,-284.66796875,76.171875,11.71875,0.0
1734580426.8170016,-17.08984375,-335.44921875,-130.37109375,3.41796875,0.0
1734580426.820905,-14.6484375,-288.57421875,-103.02734375,-29.296875,0.0
1734580426.8248084,-4.8828125,-232.91015625,180.6640625,-49.31640625,0.0
1734580426.8287117,11.23046875,-287.59765625,105.95703125,-3.90625,0.0
1734580426.832615,6.34765625,-306.15234375,8.7890625,47.8515625,0.0
1734580426.8365467,-2.9296875,-261.23046875,85.9375,33.69140625,0.0
1734580426.84045,12.6953125,-244.62890625,107.421875,0.9765625,0.0
1734580426.8443534,25.87890625,-276.3671875,-21.97265625,-29.296875,0.0
1734580426.8482568,7.32421875,-280.76171875,-29.78515625,-3.90625,0.0
1734580426.85216,-7.32421875,-259.765625,99.609375,51.26953125,0.0
1734580426.8560634,-10.25390625,-275.87890625,67.87109375,42.48046875,0.0
1734580426.8599668,-2.44140625,-306.640625,-70.3125,-2.44140625,0.0
1734580426.8638701,-2.9296875,-341.30859375,-294.921875,-22.4609375,0.0
1734580426.8677733,0.9765625,-225.09765625,62.01171875,1.46484375,0.0
1734580426.8716767,-14.16015625,-195.3125,219.7265625,29.78515625,0.0
1734580426.87558,-24.90234375,-268.5546875,29.78515625,27.34375,0.0
1734580426.8794832,-14.6484375,-258.7890625,85.44921875,-20.5078125,0.0
1734580426.8834114,-15.625,-261.23046875,105.95703125,-60.546875,0.0
1734580426.8873148,-13.671875,-294.921875,94.7265625,-42.96875,0.0
1734580426.8912182,8.7890625,-350.09765625,-34.1796875,20.99609375,0.0
1734580426.8951213,10.25390625,-336.42578125,-2.9296875,31.25,0.0
1734580426.8990247,-12.20703125,-279.296875,118.65234375,-22.4609375,0.0
1734580426.902928,0.9765625,-299.8046875,37.109375,-53.7109375,0.0
1734580426.9068313,11.23046875,-332.51953125,-126.46484375,-40.0390625,0.0
1734580426.9107347,-6.34765625,-254.8828125,-47.36328125,11.23046875,0.0
1734580426.914638,-12.6953125,-181.640625,210.9375,36.1328125,0.0
1734580426.9185414,7.8125,-218.75,97.65625,1.46484375,0.0
1734580426.9224446,16.11328125,-213.37890625,-20.5078125,-41.015625,0.0
1734580426.926348,14.6484375,-115.72265625,104.00390625,-32.2265625,0.0
1734580426.9302728,19.04296875,-63.4765625,135.25390625,29.296875,0.0
1734580426.9341762,16.6015625,-85.9375,-4.39453125,56.640625,0.0
1734580426.9380796,19.53125,-77.1484375,-27.83203125,16.11328125,0.0
1734580426.9419827,29.78515625,-83.984375,65.91796875,-33.203125,0.0
1734580426.9458861,29.296875,-135.7421875,96.6796875,-41.9921875,0.0
1734580426.9497895,14.16015625,-237.3046875,-91.796875,18.5546875,0.0
1734580426.953693,-3.90625,-309.5703125,-321.77734375,66.40625,0.0
1734580426.957596,-3.90625,-194.3359375,40.52734375,14.6484375,0.0
1734580426.9614995,9.765625,-166.9921875,170.8984375,-45.8984375,0.0
1734580426.9654028,12.20703125,-212.40234375,41.015625,-55.17578125,0.0
1734580426.9693062,-8.30078125,-187.98828125,126.953125,-10.7421875,0.0
1734580426.9732094,-15.625,-167.96875,153.80859375,28.3203125,0.0
1734580426.9771588,0.48828125,-183.59375,89.84375,3.90625,0.0
1734580426.9810622,16.6015625,-197.265625,-21.97265625,-24.4140625,0.0
1734580426.9849656,21.97265625,-172.36328125,-5.859375,-48.33984375,0.0
1734580426.988869,11.71875,-150.390625,26.85546875,-12.6953125,0.0
1734580426.992772,-1.953125,-133.7890625,89.35546875,35.15625,0.0
1734580426.9966755,-0.48828125,-187.5,-51.7578125,25.390625,0.0
1734580427.0005789,25.390625,-152.83203125,-57.6171875,-22.4609375,0.0
1734580427.0044823,26.85546875,-25.390625,179.19921875,-54.19921875,0.0
1734580427.0083854,10.7421875,-2.44140625,136.23046875,-20.01953125,0.0
1734580427.0122888,14.16015625,-35.64453125,-45.8984375,30.76171875,0.0
1734580427.0161922,20.01953125,-28.80859375,52.24609375,11.71875,0.0
1734580427.0200956,17.08984375,-59.5703125,148.4375,-27.34375,0.0
1734580427.0240424,33.69140625,-132.8125,-2.44140625,-41.015625,0.0
1734580427.0279455,44.921875,-164.0625,-57.12890625,-9.27734375,0.0
1734580427.031849,34.1796875,-164.0625,86.42578125,45.41015625,0.0
1734580427.0357523,15.625,-260.7421875,119.62890625,46.38671875,0.0
1734580427.0396557,22.94921875,-392.578125,23.92578125,-7.32421875,0.0
1734580427.0435588,46.875,-475.09765625,-201.171875,-48.33984375,0.0
1734580427.0474622,52.24609375,-438.96484375,-103.02734375,-15.13671875,0.0
1734580427.0513656,36.1328125,-348.6328125,158.69140625,36.62109375,0.0
1734580427.055269,20.01953125,-348.14453125,33.69140625,36.62109375,0.0
1734580427.0591722,17.578125,-400.390625,-291.015625,-5.37109375,0.0
1734580427.0630755,22.4609375,-276.3671875,51.26953125,-59.5703125,0.0
1734580427.066979,16.6015625,-257.8125,187.98828125,-46.38671875,0.0
1734580427.0709205,3.90625,-291.50390625,-11.71875,18.06640625,0.0
1734580427.0748236,-1.953125,-157.71484375,100.09765625,32.2265625,0.0
1734580427.078727,-10.25390625,-7.32421875,99.609375,-23.4375,0.0
1734580427.0826304,7.8125,90.33203125,-79.58984375,-62.5,0.0
1734580427.0865338,3.90625,232.421875,-86.9140625,-38.57421875,0.0
1734580427.0904372,-13.18359375,327.1484375,21.97265625,12.20703125,0.0
1734580427.0943403,-1.953125,398.92578125,94.23828125,28.3203125,0.0
1734580427.0982437,0.48828125,423.33984375,145.99609375,-12.20703125,0.0
1734580427.102147,2.9296875,266.11328125,-200.68359375,-45.8984375,0.0
1734580427.1060505,8.30078125,310.546875,-181.15234375,-41.50390625,0.0
1734580427.1099536,1.953125,433.10546875,209.47265625,9.27734375,0.0
1734580427.113857,-1.953125,332.03125,104.98046875,43.45703125,0.0
1734580427.1177964,0.48828125,287.59765625,-7.32421875,-3.41796875,0.0
1734580427.1216996,10.25390625,302.24609375,82.03125,-47.8515625,0.0
1734580427.125603,29.78515625,284.66796875,134.765625,-37.59765625,0.0
1734580427.1295063,20.99609375,221.6796875,81.54296875,33.203125,0.0
1734580427.1334097,9.27734375,166.50390625,3.90625,64.94140625,0.0
1734580427.137313,10.25390625,123.046875,-21.484375,31.25,0.0
1734580427.1412163,9.27734375,124.51171875,57.12890625,-8.30078125,0.0
1734580427.1451197,23.92578125,57.12890625,28.80859375,-0.48828125,0.0
1734580427.149023,13.18359375,-115.72265625,-260.7421875,39.0625,0.0
1734580427.1529264,9.27734375,-53.7109375,57.6171875,58.10546875,0.0
1734580427.1568296,17.578125,-121.58203125,211.42578125,39.55078125,0.0
1734580427.160733,9.27734375,-339.35546875,-96.6796875,-12.6953125,0.0
1734580427.164668,16.11328125,-388.671875,-92.28515625,-47.36328125,0.0
1734580427.1685712,15.13671875,-369.140625,142.578125,-8.30078125,0.0
1734580427.1724746,12.20703125,-488.28125,79.1015625,41.50390625,0.0
1734580427.176378,15.625,-601.07421875,-45.8984375,24.4140625,0.0
1734580427.1802814,17.578125,-611.81640625,39.0625,-22.94921875,0.0
1734580427.1841846,19.04296875,-701.171875,13.18359375,-50.29296875,0.0
1734580427.188088,20.99609375,-760.25390625,43.9453125,-13.18359375,0.0
1734580427.1919913,25.390625,-842.7734375,-83.49609375,58.10546875,0.0
1734580427.1958947,13.18359375,-838.37890625,-73.2421875,46.38671875,0.0
1734580427.199798,17.08984375,-805.6640625,184.08203125,-6.8359375,0.0
1734580427.2037013,28.3203125,-904.78515625,83.0078125,-24.4140625,0.0
1734580427.2076046,24.90234375,-983.3984375,-0.9765625,-1.46484375,0.0
1734580427.2115366,9.27734375,-998.046875,98.6328125,39.0625,0.0
1734580427.21544,7.32421875,-996.09375,132.32421875,30.2734375,0.0
1734580427.2193432,19.04296875,-1000.0,-16.6015625,-7.32421875,0.0
1734580427.2232466,18.5546875,-1000.0,-88.37890625,-22.94921875,0.0
1734580427.22715,25.87890625,-1000.0,64.453125,-1.953125,0.0
1734580427.2310534,24.4140625,-1000.0,74.70703125,45.41015625,0.0
1734580427.2349567,11.71875,-1000.0,-26.85546875,60.546875,0.0
1734580427.23886,0.9765625,-1000.0,-266.6015625,23.92578125,0.0
1734580427.2427633,7.32421875,-1000.0,27.83203125,-36.1328125,0.0
1734580427.2466667,13.18359375,-1000.0,186.5234375,-31.25,0.0
1734580427.25057,-2.44140625,-1000.0,36.62109375,35.64453125,0.0
1734580427.2544732,-11.23046875,-1000.0,107.91015625,57.12890625,0.0
1734580427.258403,2.44140625,-1000.0,112.79296875,3.41796875,0.0
1734580427.2623065,16.11328125,-1000.0,72.265625,-55.17578125,0.0
1734580427.2662098,6.8359375,-1000.0,-50.78125,-48.33984375,0.0
1734580427.270113,-16.11328125,-1000.0,-64.94140625,-0.48828125,0.0
1734580427.2740164,-13.671875,-1000.0,100.09765625,19.53125,0.0
1734580427.2779198,-5.37109375,-1000.0,-19.53125,-28.3203125,0.0
1734580427.2818232,-15.13671875,-1000.0,-299.31640625,-65.4296875,0.0
1734580427.2857265,4.8828125,-1000.0,-122.0703125,-43.45703125,0.0
1734580427.2896297,1.46484375,-1000.0,210.9375,-6.8359375,0.0
1734580427.293533,-12.6953125,-1000.0,98.6328125,27.83203125,0.0
1734580427.2974365,-15.13671875,-1000.0,-53.7109375,-2.44140625,0.0
1734580427.3013399,-11.71875,-1000.0,40.52734375,-56.640625,0.0
1734580427.305265,-3.90625,-1000.0,120.1171875,-56.640625,0.0
1734580427.3091683,-14.16015625,-1000.0,68.359375,-5.37109375,0.0
1734580427.3130717,-30.76171875,-1000.0,2.44140625,38.0859375,0.0
1734580427.316975,-25.87890625,-1000.0,75.1953125,14.16015625,0.0
1734580427.3208785,-12.20703125,-1000.0,95.703125,-39.0625,0.0
1734580427.3247817,-1.953125,-1000.0,-192.3828125,-30.76171875,0.0
1734580427.328685,-19.04296875,-1000.0,-366.69921875,20.99609375,0.0
1734580427.3325884,-45.41015625,-1000.0,59.08203125,27.83203125,0.0
1734580427.3364918,-39.0625,-1000.0,97.65625,19.53125,0.0
1734580427.3403952,-10.25390625,-1000.0,-2.44140625,-0.9765625,0.0
1734580427.3442984,1.953125,-1000.0,109.86328125,-33.203125,0.0
1734580427.3482018,-4.8828125,-1000.0,133.30078125,-3.90625,0.0
1734580427.352123,-14.6484375,-1000.0,91.796875,43.9453125,0.0
1734580427.3560262,-25.390625,-1000.0,-46.38671875,29.78515625,0.0
1734580427.3599296,-10.25390625,-1000.0,-93.75,-22.4609375,0.0
1734580427.363833,1.953125,-1000.0,-101.5625,-58.59375,0.0
1734580427.3677363,2.44140625,-1000.0,34.1796875,-13.18359375,0.0
1734580427.3716397,-1.953125,-1000.0,-139.16015625,50.29296875,0.0
1734580427.375543,-6.34765625,-1000.0,-97.16796875,23.92578125,0.0
1734580427.3794463,2.44140625,-1000.0,152.83203125,-29.296875,0.0
1734580427.3833497,14.6484375,-1000.0,71.77734375,-39.55078125,0.0
1734580427.387253,10.25390625,-1000.0,-155.76171875,-7.8125,0.0
1734580427.3911564,-6.34765625,-1000.0,-10.7421875,24.4140625,0.0
1734580427.3950598,0.48828125,-1000.0,128.41796875,24.90234375,0.0
1734580427.399006,3.90625,-1000.0,2.9296875,-7.8125,0.0
1734580427.4029093,6.8359375,-1000.0,-76.66015625,-55.17578125,0.0
1734580427.4068124,11.71875,-1000.0,66.40625,-38.0859375,0.0
1734580427.4107158,0.9765625,-1000.0,134.27734375,38.0859375,0.0
1734580427.4146192,-1.46484375,-1000.0,43.45703125,56.640625,0.0
1734580427.4185226,-0.9765625,-1000.0,-167.96875,15.13671875,0.0
1734580427.422426,-4.39453125,-1000.0,-92.7734375,-38.57421875,0.0
1734580427.4263291,1.953125,-1000.0,127.44140625,-33.203125,0.0
1734580427.4302325,-8.7890625,-1000.0,23.92578125,12.6953125,0.0
1734580427.434136,-28.80859375,-1000.0,-159.1796875,18.5546875,0.0
1734580427.4380393,-8.7890625,-1000.0,75.1953125,-20.01953125,0.0
1734580427.4419427,18.5546875,-1000.0,130.37109375,-40.52734375,0.0
1734580427.445885,11.23046875,-1000.0,-32.71484375,-21.97265625,0.0
1734580427.4497883,-4.39453125,-1000.0,41.9921875,31.25,0.0
1734580427.4536917,-10.25390625,-1000.0,114.74609375,33.69140625,0.0
1734580427.4575949,-2.44140625,-1000.0,-29.78515625,-27.83203125,0.0
1734580427.4614983,2.9296875,-1000.0,-99.12109375,-46.38671875,0.0
1734580427.4654016,-0.48828125,-1000.0,-72.75390625,-30.2734375,0.0
1734580427.469305,-2.9296875,-997.0703125,75.68359375,11.71875,0.0
1734580427.4732084,-0.48828125,-993.65234375,156.25,40.52734375,0.0
1734580427.4771116,20.99609375,-1000.0,-183.59375,21.97265625,0.0
1734580427.481015,27.83203125,-915.52734375,-133.7890625,-3.90625,0.0
1734580427.4849184,38.0859375,-861.328125,184.08203125,-21.484375,0.0
1734580427.4888217,42.96875,-909.66796875,75.68359375,15.625,0.0
1734580427.4927602,22.94921875,-912.59765625,-14.16015625,64.453125,0.0
1734580427.4966636,13.18359375,-849.12109375,69.3359375,41.015625,0.0
1734580427.500567,23.4375,-830.078125,93.26171875,-3.41796875,0.0
1734580427.5044703,37.59765625,-866.69921875,23.92578125,-15.13671875,0.0
1734580427.5083737,30.76171875,-889.6484375,-102.5390625,33.203125,0.0
1734580427.5122771,20.99609375,-815.4296875,-13.671875,79.58984375,0.0
1734580427.5161803,14.6484375,-671.38671875,146.97265625,44.43359375,0.0
1734580427.5200837,9.765625,-715.8203125,49.8046875,-2.44140625,0.0
1734580427.523987,18.06640625,-905.2734375,-292.96875,-18.06640625,0.0
1734580427.5278904,22.94921875,-606.93359375,57.12890625,-1.46484375,0.0
1734580427.5317938,6.34765625,-516.11328125,234.375,48.828125,0.0
1734580427.535697,0.9765625,-676.7578125,58.10546875,52.24609375,0.0
1734580427.5396318,17.08984375,-583.984375,86.9140625,6.34765625,0.0
1734580427.5435352,18.5546875,-498.53515625,159.1796875,-33.69140625,0.0
1734580427.5474386,19.53125,-560.546875,153.3203125,-6.34765625,0.0
1734580427.551342,6.8359375,-604.00390625,123.53515625,52.24609375,0.0
1734580427.5552454,-7.8125,-513.671875,177.24609375,34.1796875,0.0
1734580427.5591488,0.0,-549.31640625,137.20703125,-17.08984375,0.0
1734580427.563052,9.765625,-570.80078125,109.375,-50.29296875,0.0
1734580427.5669553,5.859375,-608.88671875,48.828125,-18.06640625,0.0
1734580427.5708587,3.41796875,-458.984375,157.71484375,44.921875,0.0
1734580427.574762,11.71875,-275.87890625,315.4296875,21.97265625,0.0
1734580427.5786655,27.83203125,-410.64453125,181.15234375,-40.0390625,0.0
1734580427.582569,33.69140625,-519.53125,33.69140625,-62.98828125,0.0
1734580427.586501,32.2265625,-357.91015625,169.43359375,-43.9453125,0.0
1734580427.5904043,28.80859375,-263.671875,256.34765625,2.9296875,0.0
1734580427.5943077,30.76171875,-352.05078125,160.64453125,17.578125,0.0
1734580427.5982108,42.96875,-375.48828125,96.6796875,0.9765625,0.0
1734580427.6021142,46.875,-287.59765625,147.94921875,-37.109375,0.0
1734580427.6060176,53.7109375,-284.66796875,131.8359375,-40.52734375,0.0
1734580427.609921,56.640625,-323.73046875,83.984375,23.92578125,0.0
1734580427.6138244,55.17578125,-439.453125,-105.95703125,69.3359375,0.0
1734580427.6177278,49.8046875,-223.6328125,136.23046875,12.6953125,0.0
1734580427.621631,36.1328125,-227.05078125,212.890625,-51.26953125,0.0
1734580427.6255343,32.2265625,-366.2109375,92.28515625,-35.64453125,0.0
1734580427.6294377,38.57421875,-196.2890625,215.33203125,23.4375,0.0
1734580427.6333663,37.59765625,-151.85546875,219.23828125,50.29296875,0.0
1734580427.6372697,28.3203125,-209.47265625,153.3203125,19.04296875,0.0
1734580427.6411731,22.94921875,-239.2578125,41.50390625,-30.2734375,0.0
1734580427.6450765,29.296875,-141.6015625,80.56640625,-36.62109375,0.0
1734580427.64898,35.64453125,26.85546875,194.82421875,16.11328125,0.0
1734580427.6528833,22.94921875,-26.3671875,141.11328125,41.50390625,0.0
1734580427.6567864,21.97265625,-162.109375,-71.2890625,9.765625,0.0
1734580427.6606898,21.484375,-4.8828125,-37.59765625,-29.296875,0.0
1734580427.6645932,25.390625,203.61328125,229.00390625,-51.26953125,0.0
1734580427.6684966,19.04296875,66.40625,153.80859375,-6.8359375,0.0
1734580427.6724,1.46484375,-55.17578125,45.41015625,42.96875,0.0
1734580427.6763034,6.8359375,-4.39453125,97.65625,18.06640625,0.0
1734580427.680228,17.578125,-22.4609375,74.21875,-23.92578125,0.0
1734580427.6841314,28.80859375,-39.0625,60.05859375,-39.55078125,0.0
1734580427.6880348,12.6953125,-15.13671875,58.59375,-12.20703125,0.0
1734580427.6919382,2.9296875,43.9453125,113.76953125,22.94921875,0.0
1734580427.6958416,11.71875,24.90234375,146.484375,8.30078125,0.0
1734580427.699745,7.32421875,-159.1796875,-35.15625,-22.4609375,0.0
1734580427.703648,20.5078125,-270.99609375,-271.484375,-35.64453125,0.0
1734580427.7075515,41.015625,15.625,70.80078125,-3.41796875,0.0
1734580427.7114549,32.71484375,60.546875,214.84375,43.9453125,0.0
1734580427.7153583,24.4140625,-132.8125,-9.765625,23.4375,0.0
1734580427.7192616,32.2265625,-93.75,-44.43359375,-14.6484375,0.0
1734580427.723165,35.64453125,32.2265625,113.76953125,-35.15625,0.0
1734580427.727087,11.71875,10.7421875,115.72265625,-16.11328125,0.0
1734580427.7309904,-0.9765625,-86.42578125,4.8828125,27.34375,0.0
1734580427.7348938,6.8359375,-47.8515625,41.9921875,18.5546875,0.0
1734580427.738797,6.34765625,-9.27734375,21.97265625,-5.859375,0.0
1734580427.7427003,17.578125,-13.18359375,43.45703125,-33.69140625,0.0
1734580427.7466037,20.99609375,-73.73046875,-53.7109375,-12.6953125,0.0
1734580427.750507,-5.37109375,19.04296875,-52.734375,36.62109375,0.0
1734580427.7544105,-6.34765625,242.1875,205.078125,20.99609375,0.0
1734580427.758314,14.16015625,181.640625,141.6015625,3.41796875,0.0
1734580427.7622173,18.5546875,25.87890625,-90.8203125,-22.4609375,0.0
1734580427.7661204,6.8359375,187.98828125,57.12890625,-25.390625,0.0
1734580427.7700238,-5.859375,306.15234375,205.078125,20.5078125,0.0
1734580427.7739685,-12.20703125,208.49609375,70.80078125,30.76171875,0.0
1734580427.7778718,-6.8359375,170.8984375,-56.15234375,-4.39453125,0.0
1734580427.7817752,7.8125,283.203125,40.0390625,-42.96875,0.0
1734580427.7856786,3.90625,346.19140625,120.1171875,-42.48046875,0.0
1734580427.7895818,-12.6953125,260.25390625,28.80859375,9.765625,0.0
1734580427.7934852,-18.5546875,184.08203125,-103.02734375,41.015625,0.0
1734580427.7973886,-0.9765625,281.73828125,-19.53125,17.578125,0.0
1734580427.801292,7.8125,435.546875,134.27734375,-39.0625,0.0
1734580427.8051953,-3.41796875,350.09765625,28.80859375,-56.15234375,0.0
1734580427.8090987,-9.27734375,219.7265625,-151.3671875,8.30078125,0.0
1734580427.813002,-2.44140625,496.09375,123.046875,24.90234375,0.0
1734580427.8169055,10.25390625,490.234375,137.6953125,-18.06640625,0.0
1734580427.8208482,9.27734375,301.7578125,-23.4375,-57.6171875,0.0
1734580427.8247516,8.7890625,382.32421875,95.703125,-64.453125,0.0
1734580427.8286548,-4.8828125,382.8125,123.046875,-14.16015625,0.0
1734580427.8325582,-9.765625,261.23046875,41.015625,29.296875,0.0
1734580427.8364615,6.34765625,243.65234375,-8.30078125,11.71875,0.0
1734580427.840365,7.8125,215.33203125,-40.52734375,-22.94921875,0.0
1734580427.8442683,9.27734375,296.38671875,78.125,-40.0390625,0.0
1734580427.8481717,13.671875,350.5859375,163.0859375,-0.9765625,0.0
1734580427.852075,-7.8125,60.05859375,-102.05078125,37.109375,0.0
1734580427.8559785,-16.6015625,153.80859375,-77.63671875,8.7890625,0.0
1734580427.8598816,-0.9765625,387.20703125,193.84765625,-32.71484375,0.0
1734580427.863785,17.578125,197.75390625,82.03125,-39.0625,0.0
1734580427.8677237,23.92578125,95.21484375,3.41796875,6.8359375,0.0
1734580427.871627,1.46484375,227.5390625,115.234375,42.48046875,0.0
1734580427.8755305,-16.11328125,255.859375,148.92578125,12.6953125,0.0
1734580427.8794339,0.9765625,133.7890625,11.71875,-42.96875,0.0
1734580427.8833373,24.4140625,98.14453125,-78.125,-62.98828125,0.0
1734580427.8872406,20.01953125,73.73046875,-12.6953125,-18.5546875,0.0
1734580427.8911438,8.30078125,150.87890625,107.421875,23.92578125,0.0
1734580427.8950472,-5.37109375,120.60546875,39.0625,17.08984375,0.0
1734580427.8989506,-1.953125,-145.01953125,-287.109375,-20.01953125,0.0
1734580427.902854,23.4375,215.33203125,18.06640625,-41.9921875,0.0
1734580427.9067574,21.484375,333.984375,187.01171875,-15.13671875,0.0
1734580427.9106607,1.46484375,134.27734375,38.57421875,30.2734375,0.0
1734580427.9145958,-15.625,234.375,130.37109375,24.4140625,0.0
1734580427.9184992,-10.7421875,302.24609375,149.90234375,-15.13671875,0.0
1734580427.9224026,7.32421875,167.48046875,40.0390625,-35.15625,0.0
1734580427.926306,6.34765625,43.45703125,-62.01171875,-18.5546875,0.0
1734580427.9302094,-13.18359375,185.546875,77.63671875,18.5546875,0.0
1734580427.9341128,-21.484375,104.00390625,69.82421875,26.85546875,0.0
1734580427.9380162,-5.859375,41.50390625,47.8515625,12.20703125,0.0
1734580427.9419196,6.8359375,-124.51171875,-93.75,2.9296875,0.0
1734580427.9458227,-0.48828125,-96.19140625,-73.2421875,7.32421875,0.0
1734580427.949726,-9.765625,203.125,234.375,37.109375,0.0
1734580427.9536295,-20.99609375,40.52734375,138.671875,39.0625,0.0
1734580427.957533,-16.6015625,-167.48046875,-22.4609375,0.48828125,0.0
1734580427.9614642,-2.44140625,-49.8046875,110.83984375,-49.31640625,0.0
1734580427.9653676,-0.9765625,-65.4296875,128.41796875,-72.265625,0.0
1734580427.969271,-11.71875,-296.38671875,22.4609375,-20.5078125,0.0
1734580427.9731743,-15.625,-251.46484375,33.69140625,13.18359375,0.0
1734580427.9770777,-9.765625,-84.9609375,83.984375,-22.94921875,0.0
1734580427.980981,0.0,-190.4296875,13.18359375,-63.96484375,0.0
1734580427.9848843,-0.9765625,-306.15234375,-137.20703125,-65.4296875,0.0
1734580427.9887877,-12.20703125,-369.62890625,-250.0,-22.4609375,0.0
1734580427.992691,-15.625,52.734375,66.40625,-0.48828125,0.0
1734580427.9965944,-0.48828125,169.43359375,180.6640625,-12.6953125,0.0
1734580428.0004978,19.04296875,-124.51171875,6.34765625,-38.57421875,0.0
1734580428.0044012,24.4140625,-132.8125,39.55078125,-57.6171875,0.0
1734580428.00833,8.7890625,-60.05859375,132.32421875,-13.671875,0.0
1734580428.0122335,2.44140625,-146.484375,131.34765625,34.1796875,0.0
1734580428.016137,1.46484375,-394.04296875,-87.40234375,19.04296875,0.0
1734580428.0200403,7.32421875,-444.3359375,-141.6015625,-24.90234375,0.0
1734580428.0239437,12.20703125,-392.08984375,48.828125,-43.9453125,0.0
1734580428.0278468,2.9296875,-517.08984375,52.24609375,4.39453125,0.0
1734580428.0317502,-12.6953125,-705.078125,-121.58203125,45.8984375,0.0
1734580428.0356536,-16.6015625,-549.31640625,-81.54296875,25.87890625,0.0
1734580428.039557,0.0,-187.01171875,147.94921875,-18.06640625,0.0
1734580428.0434604,19.04296875,-297.8515625,89.84375,-49.8046875,0.0
1734580428.0473638,21.484375,-482.421875,15.13671875,-20.99609375,0.0
1734580428.0512671,0.9765625,-421.38671875,103.02734375,32.2265625,0.0
1734580428.0551927,-6.34765625,-428.22265625,139.16015625,21.97265625,0.0
1734580428.059096,9.27734375,-595.21484375,36.62109375,-24.4140625,0.0
1734580428.0629995,8.30078125,-636.71875,-40.0390625,-66.89453125,0.0
1734580428.0669026,14.16015625,-436.5234375,92.7734375,-43.45703125,0.0
1734580428.070806,4.39453125,-356.4453125,162.109375,-1.953125,0.0
1734580428.0747094,-17.08984375,-575.68359375,-6.8359375,-8.30078125,0.0
1734580428.0786128,0.9765625,-819.82421875,-326.66015625,-29.78515625,0.0
1734580428.0825162,15.13671875,-359.86328125,-35.15625,-59.08203125,0.0
1734580428.0864196,7.32421875,30.76171875,217.7734375,-49.8046875,0.0
1734580428.090323,12.20703125,-72.75390625,122.0703125,5.37109375,0.0
1734580428.0942264,-1.46484375,-83.984375,132.32421875,15.625,0.0
1734580428.0981297,-5.37109375,-59.08203125,100.5859375,-36.1328125,0.0
1734580428.1020508,15.13671875,-99.609375,83.984375,-69.3359375,0.0
1734580428.1059542,22.4609375,-181.15234375,44.921875,-41.9921875,0.0
1734580428.1098576,7.8125,-188.96484375,68.84765625,1.953125,0.0
1734580428.113761,9.27734375,-210.9375,39.55078125,21.484375,0.0
1734580428.1176643,22.94921875,-129.8828125,94.23828125,-0.48828125,0.0
1734580428.1215677,19.04296875,-283.203125,-56.15234375,-28.3203125,0.0
1734580428.125471,12.6953125,-229.98046875,-78.125,-23.4375,0.0
1734580428.1293743,8.30078125,88.37890625,158.69140625,15.13671875,0.0
1734580428.1332777,-3.41796875,24.90234375,141.11328125,41.9921875,0.0
1734580428.137181,6.8359375,-371.58203125,-180.6640625,31.25,0.0
1734580428.1410844,5.859375,-214.84375,-139.16015625,-16.6015625,0.0
1734580428.1449878,2.44140625,142.08984375,129.8828125,-39.55078125,0.0
1734580428.1489334,-6.8359375,16.6015625,84.47265625,5.859375,0.0
1734580428.1528368,-37.59765625,-77.1484375,7.32421875,25.390625,0.0
1734580428.1567402,-29.296875,29.78515625,63.96484375,-10.7421875,0.0
1734580428.1606436,-14.6484375,138.671875,108.88671875,-52.24609375,0.0
1734580428.164547,-5.37109375,55.6640625,12.20703125,-55.17578125,0.0
1734580428.1684504,-15.625,-96.6796875,-108.3984375,-6.8359375,0.0
1734580428.1723537,-38.0859375,62.98828125,27.83203125,14.6484375,0.0
1734580428.1762571,-37.59765625,313.96484375,166.50390625,-13.671875,0.0
1734580428.1801605,-22.4609375,124.0234375,-43.9453125,-42.48046875,0.0
1734580428.184064,-4.39453125,-79.1015625,-227.5390625,-44.921875,0.0
1734580428.1879673,-5.37109375,417.48046875,108.88671875,-7.8125,0.0
1734580428.1918707,-15.13671875,515.13671875,180.17578125,32.2265625,0.0
1734580428.1958132,-6.8359375,218.75,-42.96875,24.4140625,0.0
1734580428.1997166,-8.30078125,274.90234375,-43.9453125,-8.30078125,0.0
1734580428.20362,-0.48828125,361.328125,60.546875,-44.43359375,0.0
1734580428.2075233,6.8359375,228.515625,49.8046875,-26.85546875,0.0
1734580428.2114267,-5.859375,181.15234375,62.98828125,27.34375,0.0
1734580428.2153301,1.46484375,184.08203125,61.5234375,35.64453125,0.0
1734580428.2192335,4.8828125,276.3671875,81.54296875,-0.9765625,0.0
1734580428.223137,-0.48828125,304.6875,132.32421875,-50.29296875,0.0
1734580428.2270403,-7.8125,-54.19921875,-107.91015625,-22.94921875,0.0
1734580428.2309434,-36.62109375,37.59765625,-78.125,36.62109375,0.0
1734580428.2348468,-26.3671875,346.6796875,190.91796875,26.3671875,0.0
1734580428.2387502,-13.671875,120.60546875,87.890625,-7.32421875,0.0
1734580428.2426903,-23.4375,-66.89453125,-41.50390625,-52.734375,0.0
1734580428.2465937,-24.90234375,114.2578125,82.03125,-51.7578125,0.0
1734580428.250497,-28.80859375,180.6640625,153.3203125,-2.9296875,0.0
1734580428.2544005,-31.25,-45.41015625,-38.0859375,14.16015625,0.0
1734580428.2583039,-32.71484375,-50.78125,-85.9375,-15.625,0.0
1734580428.2622073,-29.296875,-59.08203125,-14.6484375,-54.6875,0.0
1734580428.2661107,-10.7421875,39.55078125,78.125,-47.8515625,0.0
1734580428.270014,-19.53125,41.015625,48.33984375,-1.953125,0.0
1734580428.2739174,-41.50390625,-354.00390625,-282.71484375,14.16015625,0.0
1734580428.2778206,-17.578125,94.7265625,43.45703125,-32.71484375,0.0
1734580428.281724,-7.32421875,272.94921875,182.6171875,-65.4296875,0.0
1734580428.2856274,-25.390625,-3.90625,-0.48828125,-67.87109375,0.0
1734580428.2895646,-24.4140625,83.984375,76.171875,-20.5078125,0.0
1734580428.293468,-37.109375,250.0,145.5078125,7.32421875,0.0
1734580428.2973714,-48.33984375,176.26953125,106.4453125,-34.1796875,0.0
1734580428.3012748,-41.9921875,-0.9765625,-14.6484375,-78.125,0.0
1734580428.3051782,-31.25,121.09375,78.125,-70.80078125,0.0
1734580428.3090816,-39.0625,50.29296875,67.3828125,-20.5078125,0.0
1734580428.312985,-47.8515625,-6.8359375,57.6171875,3.90625,0.0
1734580428.3168883,-35.64453125,-158.203125,-102.05078125,-7.8125,0.0
1734580428.3207917,-36.1328125,-53.22265625,-70.3125,-49.31640625,0.0
1734580428.324695,-41.9921875,287.109375,202.63671875,-71.2890625,0.0
1734580428.3285985,-38.57421875,97.65625,105.95703125,-22.94921875,0.0
1734580428.332502,-32.2265625,-85.44921875,4.8828125,15.625,0.0
1734580428.3364341,-30.76171875,-0.48828125,88.8671875,-8.30078125,0.0
1734580428.3403375,-21.97265625,-68.84765625,122.0703125,-45.8984375,0.0
1734580428.344241,-6.8359375,-357.91015625,18.5546875,-49.8046875,0.0
1734580428.3481443,-17.578125,-479.4921875,-18.06640625,-0.9765625,0.0
1734580428.3520477,-31.25,-354.98046875,101.07421875,45.8984375,0.0
1734580428.355951,-30.2734375,-503.90625,89.35546875,30.2734375,0.0
1734580428.3598545,-18.06640625,-647.94921875,1.46484375,-15.625,0.0
1734580428.3637578,5.859375,-815.91796875,-238.28125,-30.2734375,0.0
1734580428.3676612,13.671875,-431.640625,41.50390625,3.41796875,0.0
1734580428.3715646,8.7890625,-240.234375,182.6171875,41.50390625,0.0
1734580428.375468,22.94921875,-437.5,45.41015625,22.4609375,0.0
1734580428.3793714,40.0390625,-379.39453125,104.00390625,-27.34375,0.0
1734580428.3832998,56.640625,-224.609375,126.953125,-52.734375,0.0
1734580428.3872032,53.7109375,-182.6171875,118.1640625,-18.5546875,0.0
1734580428.3911066,30.2734375,-338.8671875,-47.36328125,26.85546875,0.0
1734580428.39501,20.01953125,-291.9921875,-69.3359375,20.5078125,0.0
1734580428.3989134,27.34375,-139.16015625,68.84765625,-22.94921875,0.0
1734580428.4028165,32.2265625,-315.4296875,-145.5078125,-60.05859375,0.0
1734580428.40672,18.06640625,-456.0546875,-285.64453125,-40.0390625,0.0
1734580428.4106233,9.27734375,-233.3984375,-69.82421875,7.32421875,0.0
1734580428.4145267,6.34765625,99.12109375,145.99609375,8.30078125,0.0
1734580428.41843,20.99609375,-32.2265625,77.1484375,-28.80859375,0.0
1734580428.4223335,25.390625,-251.953125,-92.7734375,-71.77734375,0.0
1734580428.4262369,17.08984375,-199.21875,-4.39453125,-73.73046875,0.0
1734580428.430163,10.25390625,-13.18359375,146.97265625,-20.5078125,0.0
1734580428.4340663,3.90625,-30.2734375,73.2421875,3.90625,0.0
1734580428.4379697,8.7890625,-182.6171875,-36.62109375,-25.390625,0.0
1734580428.441873,2.44140625,-42.96875,60.05859375,-60.05859375,0.0
1734580428.4457765,8.7890625,53.7109375,132.8125,-58.59375,0.0
1734580428.4496799,11.71875,-211.9140625,-26.3671875,-9.27734375,0.0
1734580428.4535832,-4.8828125,-526.85546875,-307.12890625,22.94921875,0.0
1734580428.4574866,-4.8828125,-72.75390625,36.62109375,-29.78515625,0.0
1734580428.46139,13.18359375,103.02734375,190.4296875,-72.75390625,0.0
1734580428.4652932,30.76171875,-111.81640625,52.734375,-60.546875,0.0
1734580428.4691966,28.3203125,-23.92578125,141.11328125,0.0,0.0
1734580428.4731,24.90234375,51.7578125,142.08984375,46.875,0.0
1734580428.4770486,27.83203125,-34.1796875,106.93359375,21.484375,0.0
1734580428.480952,38.57421875,-220.21484375,-53.22265625,-27.83203125,0.0
1734580428.4848554,51.7578125,-251.46484375,-88.37890625,-34.66796875,0.0
1734580428.4887588,41.50390625,-104.4921875,75.68359375,1.46484375,0.0
1734580428.4926622,19.53125,27.34375,169.43359375,26.85546875,0.0
1734580428.4965656,8.7890625,-264.16015625,-33.69140625,-2.44140625,0.0
1734580428.500469,23.4375,-284.1796875,-67.3828125,-46.875,0.0
1734580428.5043724,32.2265625,93.26171875,191.89453125,-56.15234375,0.0
1734580428.5082757,16.6015625,11.71875,156.73828125,-7.32421875,0.0
1734580428.5121791,7.8125,-345.703125,-69.3359375,31.25,0.0
1734580428.5160825,14.6484375,-163.0859375,33.203125,10.7421875,0.0
1734580428.519986,22.4609375,80.078125,160.15625,-33.203125,0.0
1734580428.5239325,21.484375,-74.70703125,66.40625,-57.6171875,0.0
1734580428.5278358,13.18359375,-185.05859375,4.39453125,-24.90234375,0.0
1734580428.5317392,-2.44140625,-47.36328125,103.02734375,8.7890625,0.0
1734580428.5356426,-0.9765625,-35.15625,135.25390625,-3.41796875,0.0
1734580428.539546,0.48828125,-227.5390625,11.71875,-42.48046875,0.0
1734580428.5434494,-5.859375,-338.37890625,-143.06640625,-71.77734375,0.0
1734580428.5473528,-9.765625,-236.81640625,-22.94921875,-36.62109375,0.0
1734580428.5512562,-13.671875,-4.39453125,183.59375,23.4375,0.0
1734580428.5551596,-15.13671875,-157.2265625,59.5703125,15.625,0.0
1734580428.559063,-17.578125,-588.8671875,-289.0625,-27.83203125,0.0
1734580428.5629663,-4.39453125,-81.54296875,25.87890625,-54.6875,0.0
1734580428.5668697,1.953125,111.328125,213.8671875,-22.94921875,0.0
1734580428.5708115,-4.8828125,-193.359375,72.265625,42.48046875,0.0
1734580428.574715,-9.27734375,-166.015625,108.3984375,50.29296875,0.0
1734580428.5786183,0.0,-223.14453125,43.45703125,6.8359375,0.0
1734580428.5825217,4.8828125,-342.28515625,-33.203125,-31.25,0.0
1734580428.586425,4.8828125,-312.5,3.90625,-11.23046875,0.0
1734580428.5903285,-8.30078125,-283.203125,51.7578125,26.85546875,0.0
1734580428.5942318,-8.7890625,-170.41015625,83.49609375,47.8515625,0.0
1734580428.5981352,3.90625,-118.65234375,109.375,19.04296875,0.0
1734580428.6020386,2.44140625,-412.109375,-98.14453125,-31.73828125,0.0
1734580428.605942,-11.23046875,-245.1171875,-47.8515625,-34.1796875,0.0
1734580428.6098454,-9.765625,133.30078125,232.91015625,16.6015625,0.0
1734580428.6137488,-10.7421875,-89.35546875,121.09375,33.69140625,0.0
1734580428.6176867,-25.390625,-301.26953125,-13.671875,-14.16015625,0.0
1734580428.6215901,-26.85546875,-145.01953125,84.47265625,-48.828125,0.0
1734580428.6254935,-16.6015625,-72.265625,143.06640625,-41.015625,0.0
1734580428.629397,-20.99609375,-195.80078125,69.3359375,17.578125,0.0
1734580428.6333003,-27.83203125,-283.203125,19.53125,20.99609375,0.0
1734580428.6372037,-20.99609375,-290.52734375,0.9765625,-18.5546875,0.0
1734580428.641107,-10.25390625,-118.1640625,65.91796875,-58.59375,0.0
1734580428.6450105,-10.7421875,-92.28515625,44.921875,-55.6640625,0.0
1734580428.6489139,-30.2734375,-410.64453125,-226.5625,11.23046875,0.0
1734580428.6528172,-38.0859375,-18.06640625,27.34375,9.27734375,0.0
1734580428.6567206,-21.97265625,24.90234375,93.75,-21.484375,0.0
1734580428.660624,0.0,-147.4609375,8.7890625,-49.31640625,0.0
1734580428.6645586,5.37109375,26.85546875,132.32421875,-46.38671875,0.0
1734580428.668462,4.39453125,113.76953125,158.69140625,10.7421875,0.0
1734580428.6723654,-21.97265625,-57.6171875,68.359375,42.96875,0.0
1734580428.6762688,-24.90234375,-216.796875,-8.30078125,32.2265625,0.0
1734580428.6801722,1.953125,-36.1328125,62.98828125,-18.06640625,0.0
1734580428.6840756,-2.9296875,-78.61328125,25.87890625,-64.94140625,0.0
1734580428.687979,-16.11328125,-94.23828125,50.29296875,-18.5546875,0.0
1734580428.6918824,-16.6015625,-198.73046875,-65.91796875,39.0625,0.0
1734580428.6957858,-27.34375,-89.35546875,-54.19921875,6.34765625,0.0
1734580428.6996891,-24.90234375,275.87890625,174.31640625,-34.1796875,0.0
1734580428.7035925,7.8125,100.5859375,87.40234375,-57.12890625,0.0
1734580428.707496,15.625,-39.55078125,23.4375,-37.59765625,0.0
1734580428.7114284,0.9765625,94.23828125,103.515625,18.06640625,0.0
1734580428.7153318,-6.8359375,68.84765625,77.63671875,11.23046875,0.0
1734580428.7192352,1.46484375,42.48046875,26.85546875,-27.83203125,0.0
1734580428.7231386,12.20703125,10.25390625,-25.87890625,-52.24609375,0.0
1734580428.727042,7.8125,83.984375,67.87109375,-22.94921875,0.0
1734580428.7309453,6.8359375,30.76171875,53.22265625,33.69140625,0.0
1734580428.7348487,7.32421875,-53.22265625,-18.5546875,35.15625,0.0
1734580428.7387521,4.8828125,-258.30078125,-242.67578125,1.46484375,0.0
1734580428.7426555,10.25390625,180.17578125,40.0390625,-34.66796875,0.0
1734580428.746559,26.85546875,367.67578125,202.1484375,-7.32421875,0.0
1734580428.7504623,18.06640625,56.640625,36.1328125,38.0859375,0.0
1734580428.7543657,-1.46484375,121.58203125,104.00390625,38.0859375,0.0
1734580428.7583203,2.44140625,176.7578125,89.35546875,-4.39453125,0.0
1734580428.7622237,13.18359375,94.7265625,69.82421875,-54.19921875,0.0
1734580428.766127,15.13671875,-61.5234375,-40.52734375,-28.3203125,0.0
1734580428.7700305,13.18359375,-91.796875,-101.5625,46.875,0.0
1734580428.773934,12.20703125,-4.8828125,18.5546875,52.24609375,0.0
1734580428.7778373,13.671875,-2.9296875,44.43359375,6.34765625,0.0
1734580428.7817407,6.34765625,-176.7578125,-110.83984375,-40.52734375,0.0
1734580428.785644,-1.953125,-81.0546875,-77.1484375,-54.19921875,0.0
1734580428.7895474,3.90625,293.9453125,192.3828125,7.32421875,0.0
1734580428.7934508,-12.6953125,198.73046875,143.06640625,40.52734375,0.0
1734580428.7973542,-22.94921875,-64.453125,-22.94921875,-9.765625,0.0
1734580428.8012576,-19.53125,50.78125,75.1953125,-70.80078125,0.0
1734580428.805184,-5.37109375,201.66015625,146.97265625,-56.15234375,0.0
1734580428.8090873,-11.71875,95.21484375,81.54296875,17.578125,0.0
1734580428.8129907,-32.2265625,-9.765625,-32.2265625,23.92578125,0.0
1734580428.816894,-18.06640625,96.19140625,27.34375,-15.625,0.0
1734580428.8207974,-24.4140625,84.9609375,49.31640625,-45.41015625,0.0
1734580428.8247008,-27.83203125,-166.015625,-207.51953125,-54.19921875,0.0
1734580428.8286042,-26.85546875,-189.94140625,-128.90625,-9.765625,0.0
1734580428.8325076,-56.640625,111.81640625,149.90234375,28.3203125,0.0
1734580428.836411,-65.4296875,216.796875,156.73828125,-5.859375,0.0
1734580428.8403144,-44.43359375,-86.9140625,-21.97265625,-57.6171875,0.0
1734580428.8442178,-27.83203125,-412.59765625,-298.33984375,-53.7109375,0.0
1734580428.8481212,-35.64453125,134.765625,75.1953125,-22.4609375,0.0
1734580428.8520436,-51.26953125,284.66796875,208.0078125,-3.41796875,0.0
1734580428.855947,-41.50390625,-6.34765625,-24.90234375,-10.7421875,0.0
1734580428.8598504,-23.4375,-28.80859375,-33.203125,-57.6171875,0.0
1734580428.8637538,-21.97265625,-52.734375,-48.33984375,-58.10546875,0.0
1734580428.8676572,-27.34375,125.48828125,93.75,18.5546875,0.0
1734580428.8715606,-35.64453125,-10.7421875,0.9765625,59.5703125,0.0
1734580428.875464,-39.0625,40.52734375,-49.31640625,3.90625,0.0
1734580428.8793674,-31.73828125,342.7734375,147.94921875,-60.05859375,0.0
1734580428.8832707,-2.44140625,208.49609375,74.70703125,-56.640625,0.0
1734580428.8871741,0.9765625,-98.6328125,-116.69921875,3.41796875,0.0
1734580428.8910775,-14.16015625,129.8828125,42.48046875,25.390625,0.0
1734580428.894981,-11.71875,354.98046875,198.73046875,4.8828125,0.0
1734580428.8989255,-3.90625,98.14453125,29.296875,-30.2734375,0.0
1734580428.902829,-11.23046875,-94.7265625,-160.64453125,-61.5234375,0.0
1734580428.9067323,-4.8828125,123.046875,34.66796875,-20.99609375,0.0
1734580428.9106357,-13.18359375,267.578125,164.0625,15.13671875,0.0
1734580428.914539,-30.2734375,92.7734375,25.87890625,-0.48828125,0.0
1734580428.9184425,-33.69140625,-163.57421875,-170.41015625,-38.57421875,0.0
1734580428.9223459,-20.99609375,10.7421875,-97.16796875,-67.3828125,0.0
1734580428.9262493,-14.16015625,295.8984375,138.18359375,-38.57421875,0.0
1734580428.9301527,-30.76171875,58.59375,27.83203125,19.53125,0.0
1734580428.934056,-40.0390625,-222.65625,-192.3828125,24.90234375,0.0
1734580428.9379594,-22.4609375,223.14453125,88.8671875,-20.01953125,0.0
1734580428.941863,-13.18359375,212.890625,101.07421875,-70.80078125,0.0
1734580428.945805,-25.390625,-47.8515625,-40.52734375,-75.1953125,0.0
1734580428.9497085,-29.78515625,162.109375,125.9765625,-7.8125,0.0
1734580428.9536119,-29.78515625,157.2265625,95.21484375,8.30078125,0.0
1734580428.9575152,-29.78515625,-58.59375,4.8828125,-39.55078125,0.0
1734580428.9614186,-33.203125,-73.73046875,-60.546875,-72.75390625,0.0
1734580428.965322,-33.203125,-14.6484375,-73.2421875,-59.5703125,0.0
1734580428.9692254,-28.3203125,187.01171875,115.72265625,-2.44140625,0.0
1734580428.9731288,-13.671875,259.765625,169.43359375,38.57421875,0.0
1734580428.9770322,-11.71875,-194.3359375,-152.34375,11.23046875,0.0
1734580428.9809358,-8.30078125,-132.32421875,-139.6484375,-35.15625,0.0
1734580428.9848392,2.44140625,335.44921875,175.29296875,-41.9921875,0.0
1734580428.9887426,0.48828125,219.7265625,118.65234375,15.13671875,0.0
1734580428.9926813,-4.8828125,7.32421875,3.41796875,54.19921875,0.0
1734580428.9965847,-13.671875,135.7421875,87.890625,9.27734375,0.0
1734580429.000488,-13.671875,59.5703125,34.66796875,-31.25,0.0
1734580429.0043914,-6.8359375,-104.00390625,-53.22265625,-32.71484375,0.0
1734580429.0082948,-15.625,-9.765625,29.78515625,21.484375,0.0
1734580429.0121984,-21.97265625,-45.8984375,15.13671875,50.29296875,0.0
1734580429.0161018,-7.32421875,-56.15234375,-8.30078125,28.3203125,0.0
1734580429.0200052,-4.39453125,-120.1171875,-83.49609375,-12.6953125,0.0
1734580429.0239086,-20.99609375,-397.4609375,-295.8984375,-41.9921875,0.0
1734580429.027812,-46.38671875,84.9609375,60.05859375,-13.671875,0.0
1734580429.0317154,-50.29296875,227.05078125,206.0546875,30.2734375,0.0
1734580429.0356188,-42.96875,-141.6015625,12.20703125,22.94921875,0.0
1734580429.039553,-46.38671875,-102.5390625,88.37890625,-33.69140625,0.0
1734580429.0434563,-36.62109375,-36.1328125,107.91015625,-59.5703125,0.0
1734580429.0473597,-22.4609375,-191.40625,28.3203125,-16.11328125,0.0
1734580429.051263,-24.90234375,-284.66796875,-1.953125,39.55078125,0.0
1734580429.0551665,-26.3671875,-69.3359375,85.9375,36.1328125,0.0
1734580429.0590699,-25.390625,-72.265625,62.5,-6.34765625,0.0
1734580429.0629733,-7.8125,-132.32421875,36.1328125,-32.2265625,0.0
1734580429.0668766,-2.9296875,-233.88671875,-74.21875,12.6953125,0.0
1734580429.07078,-21.484375,-96.19140625,-34.1796875,61.03515625,0.0
1734580429.0746834,-30.2734375,246.09375,198.73046875,22.4609375,0.0
1734580429.0785868,-37.59765625,95.21484375,97.65625,-8.30078125,0.0
1734580429.0824904,-33.69140625,-135.7421875,-44.43359375,-35.64453125,0.0
1734580429.0864217,-23.4375,12.6953125,74.21875,-29.78515625,0.0
1734580429.090325,-27.34375,108.88671875,156.73828125,35.64453125,0.0
1734580429.0942285,-42.96875,-121.58203125,34.1796875,39.55078125,0.0
1734580429.098132,-45.41015625,-242.67578125,-66.40625,-12.6953125,0.0
1734580429.1020353,-40.52734375,-119.140625,24.4140625,-54.6875,0.0
1734580429.1059387,-39.55078125,-198.2421875,57.6171875,-44.43359375,0.0
1734580429.109842,-30.2734375,-267.08984375,18.5546875,29.296875,0.0
1734580429.1137455,-37.59765625,-565.4296875,-272.94921875,59.08203125,0.0
1734580429.1176488,-39.55078125,-211.42578125,-10.7421875,13.18359375,0.0
1734580429.1215522,-35.64453125,207.03125,195.3125,-43.45703125,0.0
1734580429.1254556,-35.64453125,135.7421875,73.2421875,-42.96875,0.0
1734580429.129359,-41.50390625,254.39453125,145.99609375,1.953125,0.0
1734580429.1332877,-53.7109375,340.33203125,108.3984375,25.390625,0.0
1734580429.137191,-52.24609375,300.78125,81.54296875,0.48828125,0.0
1734580429.1410944,-55.6640625,36.1328125,-100.5859375,-41.50390625,0.0
1734580429.1449978,-58.10546875,-21.97265625,-183.10546875,-34.66796875,0.0
1734580429.1489012,-54.6875,242.67578125,64.94140625,12.20703125,0.0
1734580429.1528046,-76.171875,90.8203125,22.4609375,31.73828125,0.0
1734580429.156708,-56.15234375,-99.609375,-146.97265625,0.9765625,0.0
1734580429.1606114,-37.109375,115.234375,-13.671875,-43.45703125,0.0
1734580429.1645148,-48.33984375,307.6171875,131.8359375,-64.453125,0.0
1734580429.1684182,-29.78515625,195.80078125,108.3984375,-15.625,0.0
1734580429.1723216,-16.11328125,-210.9375,-167.96875,74.21875,0.0
1734580429.176225,-21.484375,-16.6015625,-80.078125,33.203125,0.0
1734580429.1801767,-21.484375,370.1171875,165.52734375,-27.34375,0.0
1734580429.1840801,-21.484375,152.83203125,45.41015625,-18.5546875,0.0
1734580429.1879835,-36.62109375,-3.41796875,-36.1328125,25.390625,0.0
1734580429.191887,-42.48046875,172.36328125,79.1015625,50.78125,0.0
1734580429.1957903,-23.92578125,235.83984375,107.91015625,20.99609375,0.0
1734580429.199694,-9.27734375,-93.26171875,-188.4765625,5.859375,0.0
1734580429.2035973,-13.671875,-379.39453125,-370.1171875,-7.32421875,0.0
1734580429.2075007,-20.5078125,130.859375,65.4296875,-15.13671875,0.0
1734580429.211404,-40.0390625,266.11328125,193.84765625,22.94921875,0.0
1734580429.2153075,-54.6875,-114.74609375,-2.9296875,20.01953125,0.0
1734580429.2192109,-40.0390625,-230.46875,-48.33984375,-38.0859375,0.0
1734580429.2231143,-27.83203125,-138.18359375,42.96875,-53.7109375,0.0
1734580429.2270358,-20.99609375,-79.58984375,101.5625,-20.99609375,0.0
1734580429.2309391,-35.15625,-222.65625,7.8125,-0.9765625,0.0
1734580429.2348425,-48.828125,-273.92578125,-12.6953125,-13.18359375,0.0
1734580429.238746,-37.59765625,-208.49609375,-12.6953125,-40.0390625,0.0
1734580429.2426493,-39.55078125,-71.2890625,68.84765625,-68.359375,0.0
1734580429.2465527,-33.69140625,-273.92578125,-29.296875,-29.78515625,0.0
1734580429.250456,-23.4375,-178.7109375,3.90625,36.62109375,0.0
1734580429.2543595,-33.69140625,91.30859375,159.66796875,23.92578125,0.0
1734580429.2582629,-59.08203125,-131.8359375,52.24609375,-27.83203125,0.0
1734580429.2621663,-53.22265625,-576.171875,-274.4140625,-48.33984375,0.0
1734580429.26607,-17.08984375,-275.390625,-125.48828125,3.41796875,0.0
1734580429.2699733,-15.625,284.1796875,205.56640625,37.109375,0.0
1734580429.2739182,-23.92578125,101.07421875,100.5859375,50.29296875,0.0
1734580429.2778215,-11.71875,-224.609375,-50.78125,21.484375,0.0
1734580429.281725,6.34765625,-113.76953125,41.015625,-38.0859375,0.0
1734580429.2856283,5.37109375,-1.46484375,99.609375,-18.5546875,0.0
1734580429.2895317,-11.71875,-80.56640625,-46.38671875,51.26953125,0.0
1734580429.293435,-14.6484375,-28.80859375,-167.96875,58.10546875,0.0
1734580429.2973385,-9.27734375,392.08984375,12.6953125,0.48828125,0.0
1734580429.3012419,-6.34765625,637.6953125,130.859375,-50.29296875,0.0
1734580429.3051453,8.30078125,358.3984375,-48.33984375,-39.0625,0.0
1734580429.3090487,9.27734375,304.19921875,-41.9921875,14.6484375,0.0
1734580429.312952,-5.859375,536.62109375,142.08984375,24.90234375,0.0
1734580429.3168554,-3.41796875,517.08984375,115.72265625,-14.16015625,0.0
1734580429.3207967,5.859375,203.61328125,-143.06640625,-52.24609375,0.0
1734580429.3247,-10.25390625,97.16796875,-131.34765625,-61.03515625,0.0
1734580429.3286035,-18.5546875,463.8671875,120.1171875,-12.6953125,0.0
1734580429.332507,-18.5546875,359.375,38.0859375,31.25,0.0
1734580429.3364103,-9.27734375,246.58203125,-20.5078125,3.41796875,0.0
1734580429.3403137,-2.9296875,292.96875,-104.4921875,-39.55078125,0.0
1734580429.344217,3.41796875,414.0625,-53.7109375,-45.8984375,0.0
1734580429.3481205,1.46484375,532.71484375,77.63671875,-1.46484375,0.0
1734580429.3520238,-12.6953125,288.57421875,-97.65625,33.69140625,0.0
1734580429.3559275,-22.4609375,372.0703125,-93.75,-12.20703125,0.0
1734580429.3598309,-14.16015625,713.8671875,149.4140625,-68.84765625,0.0
1734580429.3637342,-8.7890625,468.75,62.98828125,-54.6875,0.0
1734580429.367673,-18.5546875,193.359375,-42.48046875,12.6953125,0.0
1734580429.3715763,-18.06640625,296.875,64.453125,18.5546875,0.0
1734580429.3754797,-29.78515625,313.4765625,108.88671875,-29.78515625,0.0
1734580429.379383,-14.6484375,83.984375,-17.578125,-53.7109375,0.0
1734580429.3832865,17.08984375,-54.19921875,-85.9375,-52.734375,0.0
1734580429.3871899,10.7421875,-64.453125,-59.5703125,0.48828125,0.0
1734580429.3910933,-7.8125,125.9765625,46.38671875,31.73828125,0.0
1734580429.394997,-23.92578125,90.8203125,6.8359375,9.765625,0.0
1734580429.3989003,-30.76171875,-371.09375,-317.87109375,-25.390625,0.0
1734580429.4028037,-10.7421875,41.9921875,-16.6015625,-74.21875,0.0
1734580429.406707,-3.41796875,364.2578125,178.22265625,-36.1328125,0.0
1734580429.4106104,-12.6953125,205.078125,67.3828125,37.59765625,0.0
1734580429.4145458,-5.37109375,192.87109375,102.5390625,32.71484375,0.0
1734580429.4184492,6.34765625,275.87890625,126.46484375,-5.37109375,0.0
1734580429.4223526,14.6484375,103.515625,13.18359375,-27.34375,0.0
1734580429.426256,15.625,-74.70703125,-123.046875,-19.53125,0.0
1734580429.4301593,8.30078125,154.296875,3.90625,7.32421875,0.0
1734580429.4340627,-10.25390625,176.7578125,45.41015625,13.18359375,0.0
1734580429.437966,-1.953125,124.0234375,13.671875,-32.2265625,0.0
1734580429.4418695,27.83203125,58.10546875,-80.078125,-48.828125,0.0
1734580429.445773,39.0625,196.2890625,-51.7578125,-0.48828125,0.0
1734580429.4496763,23.92578125,635.7421875,223.6328125,25.87890625,0.0
1734580429.45358,11.23046875,462.40234375,163.57421875,22.4609375,0.0
1734580429.4574833,13.18359375,65.4296875,-63.4765625,7.32421875,0.0
1734580429.4614148,9.765625,44.921875,-33.203125,-28.3203125,0.0
1734580429.4653182,-6.8359375,269.53125,145.01953125,-36.1328125,0.0
1734580429.4692218,-12.20703125,178.7109375,75.68359375,16.6015625,0.0
1734580429.4731252,-6.34765625,-39.55078125,-6.34765625,24.4140625,0.0
1734580429.4770286,-12.20703125,21.97265625,59.5703125,-10.25390625,0.0
1734580429.480932,-0.9765625,-46.875,-35.15625,-23.92578125,0.0
1734580429.4848354,11.23046875,-217.7734375,-114.74609375,-12.20703125,0.0
1734580429.4887388,-1.953125,-459.47265625,-257.8125,47.36328125,0.0
1734580429.4926422,-10.25390625,37.59765625,45.41015625,58.59375,0.0
1734580429.4965456,-11.23046875,242.1875,176.26953125,14.6484375,0.0
1734580429.500449,-5.37109375,-83.984375,9.765625,-19.04296875,0.0
1734580429.5043523,3.90625,-51.7578125,79.1015625,-23.4375,0.0
1734580429.5082812,7.8125,46.38671875,149.4140625,52.24609375,0.0
1734580429.5121849,-4.8828125,-79.58984375,116.69921875,62.01171875,0.0
1734580429.5160882,-11.23046875,-410.64453125,-64.453125,-11.23046875,0.0
1734580429.5199916,-9.765625,-548.33984375,-193.84765625,-57.12890625,0.0
1734580429.523895,-0.48828125,-437.98828125,-104.00390625,-52.734375,0.0
1734580429.5277984,2.9296875,-377.9296875,71.77734375,-7.32421875,0.0
1734580429.5317018,-20.99609375,-621.09375,-57.12890625,37.59765625,0.0
1734580429.5356052,-16.6015625,-607.421875,-89.35546875,34.1796875,0.0
1734580429.5395086,9.765625,-208.984375,166.015625,-26.3671875,0.0
1734580429.543412,10.7421875,-351.5625,115.234375,-53.22265625,0.0
1734580429.5473156,4.39453125,-678.22265625,-74.70703125,23.92578125,0.0
1734580429.551219,6.8359375,-518.5546875,35.15625,75.1953125,0.0
1734580429.5551443,19.53125,-421.875,121.09375,2.44140625,0.0
1734580429.559048,17.578125,-560.05859375,3.90625,-57.12890625,0.0
1734580429.5629513,26.85546875,-642.08984375,-80.56640625,-52.734375,0.0
1734580429.5668547,9.765625,-430.6640625,67.87109375,1.46484375,0.0
1734580429.570758,-11.23046875,-315.4296875,110.83984375,46.875,0.0
1734580429.5746615,-2.9296875,-549.8046875,-124.0234375,2.44140625,0.0
1734580429.578565,9.27734375,-799.31640625,-393.06640625,-37.109375,0.0
1734580429.5824683,8.7890625,-219.7265625,-42.48046875,-40.0390625,0.0
1734580429.5863717,-13.671875,299.31640625,227.05078125,9.765625,0.0
1734580429.5902753,-18.5546875,169.43359375,22.4609375,58.10546875,0.0
1734580429.5941787,-30.76171875,178.7109375,-44.921875,-12.20703125,0.0
1734580429.598082,-36.1328125,399.4140625,102.5390625,-82.51953125,0.0
1734580429.602003,-25.390625,357.91015625,89.35546875,-70.3125,0.0
1734580429.6059067,-18.5546875,110.83984375,18.06640625,3.90625,0.0
1734580429.60981,-29.296875,-19.53125,76.171875,62.5,0.0
1734580429.6137135,-43.45703125,-50.29296875,54.19921875,39.55078125,0.0
1734580429.617617,-30.2734375,42.48046875,89.35546875,-38.57421875,0.0
1734580429.6215203,-13.671875,-265.13671875,-95.703125,-79.58984375,0.0
1734580429.6254237,-24.90234375,-189.94140625,-66.89453125,-20.99609375,0.0
1734580429.629327,-50.29296875,215.33203125,156.73828125,29.296875,0.0
1734580429.6332304,-58.10546875,-88.37890625,-15.625,6.34765625,0.0
1734580429.637134,-35.64453125,-285.15625,-137.6953125,-42.48046875,0.0
1734580429.6410375,-16.6015625,-51.26953125,34.1796875,-87.40234375,0.0
1734580429.6449409,-17.08984375,19.53125,165.0390625,-44.921875,0.0
1734580429.6488857,-31.73828125,-149.90234375,86.42578125,44.43359375,0.0
1734580429.652789,-41.9921875,-380.37109375,-16.11328125,31.25,0.0
1734580429.6566925,-32.2265625,-248.53515625,52.734375,-50.29296875,0.0
1734580429.6605961,-10.25390625,-75.68359375,105.46875,-61.5234375,0.0
1734580429.6644995,-7.32421875,-206.54296875,47.8515625,-4.8828125,0.0
1734580429.668403,-25.87890625,-498.53515625,-118.65234375,56.15234375,0.0
1734580429.6723063,-37.109375,-247.55859375,2.9296875,44.921875,0.0
1734580429.6762097,-43.9453125,88.37890625,166.9921875,-16.6015625,0.0
1734580429.680113,-38.0859375,-195.80078125,-17.578125,-50.78125,0.0
1734580429.6840165,-32.71484375,-548.33984375,-210.9375,-39.55078125,0.0
1734580429.6879199,-42.96875,-78.61328125,79.1015625,18.06640625,0.0
1734580429.6918235,-42.96875,-108.88671875,85.44921875,27.83203125,0.0
1734580429.6957645,-18.5546875,-323.73046875,11.23046875,-1.46484375,0.0
1734580429.699668,-26.85546875,-114.74609375,141.6015625,-11.71875,0.0
1734580429.7035713,-21.97265625,-150.390625,106.4453125,-20.5078125,0.0
1734580429.707475,-38.0859375,-381.8359375,17.578125,7.8125,0.0
1734580429.7113783,-47.8515625,-364.2578125,47.8515625,48.33984375,0.0
1734580429.7152817,-36.1328125,-362.3046875,46.875,41.9921875,0.0
1734580429.719185,-49.8046875,-259.765625,61.03515625,-0.9765625,0.0
1734580429.7230885,-35.15625,-78.61328125,136.23046875,-9.27734375,0.0
1734580429.726992,-33.69140625,-520.01953125,-114.2578125,36.62109375,0.0
1734580429.7308953,-48.828125,-479.00390625,-98.6328125,50.29296875,0.0
1734580429.734799,-45.8984375,85.9375,209.47265625,31.73828125,0.0
1734580429.7387023,-21.97265625,-74.70703125,92.7734375,16.6015625,0.0
1734580429.7426393,-11.71875,-299.8046875,-49.8046875,10.25390625,0.0
1734580429.746543,-17.578125,-114.2578125,85.44921875,19.04296875,0.0
1734580429.7504463,-23.92578125,-10.7421875,131.34765625,68.359375,0.0
1734580429.7543497,-17.578125,-2.44140625,83.49609375,72.75390625,0.0
1734580429.758253,-27.34375,-138.671875,-12.20703125,-13.671875,0.0
1734580429.7621565,-40.0390625,-238.28125,-32.71484375,-56.640625,0.0
1734580429.7660599,-19.53125,-56.640625,92.7734375,-14.16015625,0.0
1734580429.7699633,-18.5546875,-19.04296875,78.125,36.62109375,0.0
1734580429.773867,-34.1796875,-595.21484375,-268.5546875,56.640625,0.0
1734580429.7777703,-41.50390625,-139.16015625,20.5078125,1.46484375,0.0
1734580429.7816737,-50.29296875,165.52734375,171.875,-61.03515625,0.0
1734580429.785577,-51.26953125,-220.703125,10.25390625,-41.9921875,0.0
1734580429.789512,-48.33984375,-185.546875,86.9140625,7.32421875,0.0
1734580429.7934153,-57.6171875,-67.87109375,134.27734375,13.18359375,0.0
1734580429.7973187,-52.734375,-234.86328125,47.8515625,-20.01953125,0.0
1734580429.801222,-41.9921875,-505.37109375,-116.2109375,-47.8515625,0.0
1734580429.8051255,-42.96875,-434.5703125,-5.37109375,-48.828125,0.0
1734580429.8090289,-57.12890625,-349.12109375,52.24609375,-10.25390625,0.0
1734580429.8129325,-63.4765625,-328.125,57.6171875,12.6953125,0.0
1734580429.8168359,-56.15234375,-553.22265625,-97.16796875,-3.90625,0.0
1734580429.8207393,-58.59375,-522.94921875,-95.21484375,-53.7109375,0.0
1734580429.8246427,-51.26953125,17.578125,180.6640625,-68.359375,0.0
1734580429.828546,-48.828125,-45.8984375,106.93359375,-7.8125,0.0
1734580429.8324494,-53.22265625,-355.95703125,-21.484375,26.3671875,0.0
1734580429.836382,-47.8515625,-197.75390625,72.265625,0.48828125,0.0
1734580429.8402855,-42.96875,-126.46484375,105.95703125,-36.62109375,0.0
1734580429.844189,-21.484375,-281.25,20.01953125,-26.85546875,0.0
1734580429.8480923,-14.6484375,-341.30859375,-26.3671875,22.4609375,0.0
1734580429.8519957,-22.4609375,-193.84765625,58.59375,43.45703125,0.0
1734580429.855899,-20.01953125,-295.41015625,-62.01171875,17.578125,0.0
1734580429.8598025,-25.390625,-504.8828125,-259.765625,-19.04296875,0.0
1734580429.863706,-30.76171875,-756.8359375,-366.2109375,-17.578125,0.0
1734580429.8676095,-26.3671875,-138.18359375,31.73828125,21.97265625,0.0
1734580429.871513,-40.0390625,218.75,218.75,29.78515625,0.0
1734580429.8754163,-55.6640625,-147.94921875,20.01953125,4.39453125,0.0
1734580429.8793197,-29.296875,-211.9140625,-30.76171875,-23.4375,0.0
1734580429.8832474,-22.94921875,-44.921875,74.21875,-44.43359375,0.0
1734580429.8871508,-39.0625,20.5078125,123.046875,-3.41796875,0.0
1734580429.8910544,-44.43359375,-265.625,-77.1484375,17.08984375,0.0
1734580429.8949578,-51.7578125,-320.80078125,-115.72265625,0.9765625,0.0
1734580429.8988612,-44.921875,-76.171875,50.78125,-20.99609375,0.0
1734580429.9027646,-38.57421875,-146.97265625,2.44140625,-40.52734375,0.0
1734580429.906668,-61.5234375,-414.0625,-123.53515625,-11.23046875,0.0
1734580429.9105713,-57.12890625,-366.69921875,-66.40625,43.9453125,0.0
1734580429.914475,-49.31640625,162.59765625,186.03515625,23.4375,0.0
1734580429.9183784,-48.33984375,47.8515625,99.609375,-38.0859375,0.0
1734580429.9222817,-30.2734375,-314.94140625,-113.76953125,-66.89453125,0.0
1734580429.9261851,-25.87890625,-91.30859375,32.2265625,-29.78515625,0.0
1734580429.9301095,-39.0625,89.84375,143.5546875,17.578125,0.0
1734580429.934013,-35.15625,-113.28125,21.97265625,15.13671875,0.0
1734580429.9379163,-24.90234375,-329.58984375,-125.48828125,-22.94921875,0.0
1734580429.94182,-23.4375,-105.95703125,-5.859375,-39.55078125,0.0
1734580429.9457233,-22.94921875,43.9453125,98.6328125,-17.578125,0.0
1734580429.9496267,-26.3671875,-304.6875,-65.91796875,22.94921875,0.0
1734580429.95353,-34.1796875,-695.80078125,-310.05859375,45.8984375,0.0
1734580429.9574335,-34.66796875,-124.0234375,-0.9765625,0.0,0.0
1734580429.9613369,-23.92578125,293.45703125,191.89453125,-33.69140625,0.0
1734580429.9652405,-7.32421875,-61.03515625,15.625,10.25390625,0.0
1734580429.9691439,-12.6953125,-233.3984375,-7.32421875,58.59375,0.0
1734580429.9730473,-10.7421875,149.4140625,140.625,53.7109375,0.0
1734580429.9769945,-5.37109375,22.4609375,51.7578125,14.16015625,0.0
1734580429.980898,-13.671875,-222.65625,-37.109375,-31.73828125,0.0
1734580429.9848015,-24.4140625,-77.63671875,57.6171875,-21.484375,0.0
1734580429.988705,-29.78515625,-61.5234375,78.125,33.203125,0.0
1734580429.9926083,-35.64453125,44.921875,92.7734375,27.34375,0.0
1734580429.9965117,-30.76171875,-262.6953125,-125.0,-6.8359375,0.0
1734580430.000415,-33.69140625,-261.71875,-101.07421875,-35.64453125,0.0
1734580430.0043187,-37.109375,237.3046875,158.203125,-45.8984375,0.0
1734580430.008222,-39.55078125,210.9375,135.7421875,-2.44140625,0.0
1734580430.0121255,-41.9921875,-280.2734375,-87.40234375,36.1328125,0.0
1734580430.016029,-43.9453125,-161.62109375,14.6484375,4.8828125,0.0
1734580430.0199323,-35.15625,206.54296875,144.53125,-55.17578125,0.0
1734580430.0238771,-31.73828125,26.85546875,43.45703125,-44.43359375,0.0
1734580430.0277805,-39.55078125,-170.41015625,-9.765625,5.37109375,0.0
1734580430.031684,-44.43359375,-32.2265625,36.1328125,20.99609375,0.0
1734580430.0355873,-44.43359375,-83.49609375,-32.2265625,4.39453125,0.0
1734580430.039491,-40.52734375,-243.1640625,-80.078125,-32.71484375,0.0
1734580430.0433943,-36.62109375,-277.34375,-110.3515625,-62.01171875,0.0
1734580430.0472977,-41.015625,-29.296875,51.7578125,-21.484375,0.0
1734580430.051201,-41.50390625,274.4140625,196.2890625,21.97265625,0.0
1734580430.0551045,-49.31640625,-28.80859375,2.44140625,2.44140625,0.0
1734580430.0590081,-46.875,-629.8828125,-330.56640625,-35.15625,0.0
1734580430.0629115,-28.3203125,-78.61328125,10.25390625,-63.4765625,0.0
1734580430.066815,-30.76171875,257.32421875,197.265625,-19.53125,0.0
1734580430.0707567,-39.0625,-19.53125,17.08984375,35.15625,0.0
1734580430.07466,-39.55078125,56.640625,96.6796875,20.99609375,0.0
1734580430.0785635,-48.828125,49.8046875,57.6171875,-20.01953125,0.0
1734580430.0824668,-48.33984375,-159.66796875,-50.29296875,-46.875,0.0
1734580430.0863705,-43.9453125,-133.7890625,28.80859375,-21.97265625,0.0
1734580430.0902739,-49.8046875,-123.53515625,39.0625,15.13671875,0.0
1734580430.0941772,-50.29296875,-48.33984375,42.48046875,10.25390625,0.0
1734580430.0980806,-44.921875,134.765625,112.3046875,-15.625,0.0
1734580430.101984,-18.5546875,-192.3828125,-109.375,-30.76171875,0.0
1734580430.1058874,-26.85546875,-233.88671875,-104.98046875,-20.99609375,0.0
1734580430.109791,-50.29296875,354.4921875,198.73046875,-1.953125,0.0
1734580430.1136944,-46.38671875,273.4375,103.515625,13.18359375,0.0
1734580430.117632,-37.59765625,-54.6875,-71.77734375,-14.6484375,0.0
1734580430.1215353,-30.2734375,65.4296875,22.94921875,-52.734375,0.0
1734580430.1254387,-22.4609375,174.31640625,109.375,-26.3671875,0.0
1734580430.129342,-28.80859375,19.53125,40.52734375,9.765625,0.0
1734580430.1332457,-42.96875,-103.515625,-32.71484375,2.44140625,0.0
1734580430.137149,-47.36328125,-172.8515625,-104.98046875,-20.99609375,0.0
1734580430.1410525,-14.16015625,-16.11328125,-34.66796875,-48.828125,0.0
1734580430.1449559,1.953125,24.4140625,9.765625,-36.62109375,0.0
1734580430.1488593,-18.06640625,-599.609375,-303.7109375,8.7890625,0.0
1734580430.152763,-13.671875,-92.7734375,14.6484375,12.6953125,0.0
1734580430.1566663,-11.23046875,426.7578125,191.89453125,-14.6484375,0.0
1734580430.1605697,-0.48828125,79.58984375,-8.7890625,-42.96875,0.0
1734580430.1645036,11.71875,45.41015625,39.0625,-35.64453125,0.0
1734580430.168407,4.8828125,247.0703125,124.0234375,17.578125,0.0
1734580430.1723104,-10.25390625,128.41796875,56.15234375,53.22265625,0.0
1734580430.1762137,-22.4609375,-213.8671875,-91.796875,14.6484375,0.0
1734580430.1801171,-9.27734375,-61.03515625,12.6953125,-33.69140625,0.0
1734580430.1840208,2.9296875,-37.59765625,44.43359375,-17.578125,0.0
1734580430.1879241,0.0,-43.9453125,94.23828125,8.30078125,0.0
1734580430.1918275,-4.8828125,-243.65234375,-46.38671875,18.5546875,0.0
1734580430.195731,-15.13671875,-295.8984375,-94.7265625,-0.48828125,0.0
1734580430.1996343,-6.34765625,252.44140625,148.4375,-44.43359375,0.0
1734580430.203538,2.44140625,163.0859375,103.02734375,-52.24609375,0.0
1734580430.2074413,-15.13671875,-285.15625,-111.81640625,-6.34765625,0.0
1734580430.2113726,-24.4140625,-29.78515625,32.2265625,23.92578125,0.0
1734580430.215276,-12.20703125,247.55859375,153.3203125,0.48828125,0.0
1734580430.2191794,-24.4140625,-3.90625,-1.953125,-35.15625,0.0
1734580430.2230828,-31.73828125,-237.79296875,-79.58984375,-51.7578125,0.0
1734580430.2269864,-20.5078125,-71.2890625,50.78125,-11.71875,0.0
1734580430.2308898,-20.01953125,-134.765625,54.19921875,31.25,0.0
1734580430.2347932,-25.87890625,-379.8828125,-71.2890625,31.25,0.0
1734580430.2386966,-27.34375,-749.0234375,-329.1015625,3.41796875,0.0
1734580430.2426,-25.87890625,-246.58203125,-11.71875,-44.921875,0.0
1734580430.2465036,-30.76171875,229.00390625,205.56640625,-23.4375,0.0
1734580430.250407,-28.3203125,-35.64453125,35.15625,41.50390625,0.0
1734580430.2543104,-23.4375,-154.78515625,12.6953125,40.0390625,0.0
1734580430.2582386,-21.97265625,-55.17578125,53.7109375,-2.9296875,0.0
1734580430.262142,-21.97265625,-121.09375,7.32421875,-38.57421875,0.0
1734580430.2660453,-25.390625,-395.99609375,-178.7109375,-20.5078125,0.0
1734580430.2699487,-28.3203125,-348.6328125,-183.59375,25.390625,0.0
1734580430.273852,-16.6015625,-2.9296875,76.171875,26.3671875,0.0
1734580430.2777557,-4.39453125,-110.3515625,6.34765625,-12.6953125,0.0
1734580430.2816591,-12.20703125,-540.52734375,-259.27734375,-39.0625,0.0
1734580430.2855625,-18.5546875,-453.61328125,-93.75,-14.16015625,0.0
1734580430.289466,-27.83203125,197.75390625,187.5,23.4375,0.0
1734580430.2933693,-35.64453125,165.52734375,121.09375,21.484375,0.0
1734580430.297273,-33.203125,-200.68359375,-2.9296875,-16.11328125,0.0
1734580430.3011763,-2.44140625,-125.9765625,35.15625,-37.59765625,0.0
1734580430.3051014,3.41796875,44.43359375,97.16796875,-14.6484375,0.0
1734580430.3090048,-21.484375,-94.23828125,38.0859375,26.85546875,0.0
1734580430.3129082,-27.34375,-301.26953125,-50.29296875,36.1328125,0.0
1734580430.3168116,-13.18359375,-129.39453125,36.1328125,-3.90625,0.0
1734580430.3207152,4.8828125,-72.265625,60.546875,-49.31640625,0.0
1734580430.3246186,-1.46484375,-383.7890625,-101.07421875,-29.296875,0.0
1734580430.328522,-4.39453125,-644.04296875,-231.93359375,40.0390625,0.0
1734580430.3324254,4.39453125,-171.875,23.4375,51.26953125,0.0
1734580430.336329,7.8125,143.06640625,138.671875,4.8828125,0.0
1734580430.3402324,14.6484375,-230.46875,-62.01171875,-27.34375,0.0
1734580430.3441358,16.11328125,-426.7578125,-81.0546875,-16.6015625,0.0
1734580430.3480392,12.20703125,22.4609375,131.34765625,27.83203125,0.0
1734580430.3519607,9.765625,93.26171875,102.5390625,52.24609375,0.0
1734580430.3558643,16.6015625,-154.296875,-23.92578125,16.6015625,0.0
1734580430.3597677,18.06640625,-185.05859375,20.01953125,-27.83203125,0.0
1734580430.363671,-1.46484375,-119.140625,65.4296875,-33.69140625,0.0
1734580430.3675745,2.44140625,115.72265625,141.6015625,7.8125,0.0
1734580430.371478,14.16015625,-181.15234375,-37.59765625,41.9921875,0.0
1734580430.3753815,8.7890625,-317.87109375,-118.65234375,4.8828125,0.0
1734580430.3792849,12.6953125,16.6015625,77.63671875,-46.875,0.0
1734580430.3831882,21.484375,44.43359375,103.515625,-53.7109375,0.0
1734580430.3870916,10.7421875,-204.58984375,-35.15625,7.32421875,0.0
1734580430.3909953,-5.859375,-83.0078125,52.24609375,50.29296875,0.0
1734580430.3948987,0.9765625,203.61328125,150.390625,17.08984375,0.0
1734580430.3988433,1.953125,-46.875,-12.6953125,-42.48046875,0.0
1734580430.402747,-3.90625,-328.61328125,-212.40234375,-64.94140625,0.0
1734580430.4066503,9.27734375,-112.3046875,-6.34765625,-17.578125,0.0
1734580430.4105537,-0.9765625,82.51953125,125.0,31.25,0.0
1734580430.414457,-7.32421875,-110.83984375,-6.34765625,12.20703125,0.0
1734580430.4183605,-3.90625,-495.1171875,-191.89453125,-19.53125,0.0
1734580430.422264,-1.953125,-362.3046875,-179.6875,-37.59765625,0.0
1734580430.4261675,-7.8125,109.375,115.234375,-2.9296875,0.0
1734580430.4300709,-27.83203125,-51.7578125,63.4765625,46.38671875,0.0
1734580430.4339743,-23.92578125,-648.4375,-285.64453125,25.87890625,0.0
1734580430.437878,-9.27734375,-284.66796875,-39.0625,-30.2734375,0.0
1734580430.4417813,7.8125,111.328125,150.390625,-55.6640625,0.0
1734580430.4457226,5.859375,-41.9921875,39.0625,-19.04296875,0.0
1734580430.449626,-7.8125,-36.62109375,97.65625,34.66796875,0.0
1734580430.4535294,-10.25390625,-64.94140625,39.55078125,32.2265625,0.0
1734580430.4574327,-1.953125,-280.2734375,-73.73046875,-12.20703125,0.0
1734580430.4613364,6.8359375,-302.24609375,-45.8984375,-38.57421875,0.0
1734580430.4652398,3.90625,-302.24609375,-22.4609375,-6.8359375,0.0
1734580430.4691432,-12.6953125,-35.64453125,94.23828125,43.45703125,0.0
1734580430.4730465,-11.71875,205.078125,172.8515625,41.9921875,0.0
1734580430.4769502,5.859375,-287.59765625,-99.609375,14.16015625,0.0
1734580430.4808536,18.06640625,-349.609375,-103.02734375,-15.13671875,0.0
1734580430.484757,13.671875,222.65625,172.8515625,-16.6015625,0.0
1734580430.4886603,-4.8828125,10.25390625,49.31640625,34.66796875,0.0
1734580430.4925992,-20.5078125,-256.8359375,-77.63671875,45.8984375,0.0
1734580430.4965026,-11.71875,-151.85546875,-13.18359375,1.953125,0.0
1734580430.500406,-10.25390625,140.625,108.3984375,-33.203125,0.0
1734580430.5043097,-10.7421875,120.1171875,49.8046875,-15.625,0.0
1734580430.508213,-13.671875,-123.046875,-25.390625,40.0390625,0.0
1734580430.5121164,-25.87890625,-201.171875,-11.71875,54.19921875,0.0
1734580430.5160198,-28.80859375,9.27734375,61.03515625,6.34765625,0.0
1734580430.5199232,-21.97265625,24.90234375,-0.9765625,-44.43359375,0.0
1734580430.5238268,-12.20703125,-595.703125,-318.359375,-31.73828125,0.0
1734580430.5277302,-22.94921875,-46.875,39.0625,12.6953125,0.0
1734580430.5316336,-40.52734375,404.296875,203.125,31.73828125,0.0
1734580430.535537,-35.64453125,109.375,41.015625,9.765625,0.0
1734580430.5394726,-18.06640625,76.171875,96.6796875,-34.1796875,0.0
1734580430.543376,-11.71875,234.86328125,125.0,-34.66796875,0.0
1734580430.5472796,-12.20703125,110.83984375,75.1953125,10.25390625,0.0
1734580430.551183,-20.99609375,-233.3984375,-35.15625,34.66796875,0.0
1734580430.5550864,-21.484375,-168.45703125,2.9296875,12.6953125,0.0
1734580430.5589898,-6.34765625,-142.08984375,5.859375,-33.69140625,0.0
1734580430.5628934,0.0,-118.1640625,25.390625,-44.43359375,0.0
1734580430.5667968,-12.20703125,-293.45703125,-61.5234375,-1.46484375,0.0
1734580430.5707002,-25.87890625,-391.11328125,-64.453125,28.80859375,0.0
1734580430.5746036,-9.765625,213.37890625,179.19921875,12.6953125,0.0
1734580430.5785072,11.71875,178.22265625,107.421875,-22.4609375,0.0
1734580430.5824106,12.6953125,-208.49609375,-76.66015625,-48.828125,0.0
1734580430.5863426,6.8359375,-16.11328125,50.78125,-4.8828125,0.0
1734580430.590246,2.44140625,111.81640625,112.79296875,41.50390625,0.0
1734580430.5941496,-2.9296875,-140.13671875,-24.4140625,18.06640625,0.0
1734580430.598053,-4.8828125,-344.7265625,-136.71875,-16.6015625,0.0
1734580430.6019564,10.25390625,-193.359375,-12.20703125,-41.015625,0.0
1734580430.6058598,6.34765625,-240.234375,-25.390625,-13.18359375,0.0
1734580430.6097634,-9.27734375,-402.34375,-147.4609375,48.33984375,0.0
1734580430.6136668,-18.5546875,-740.72265625,-309.5703125,35.15625,0.0
1734580430.6175702,-19.53125,-161.62109375,22.94921875,-35.64453125,0.0
1734580430.6214736,-10.25390625,287.59765625,173.33984375,-54.19921875,0.0
1734580430.6253772,-10.7421875,-88.8671875,17.578125,-13.18359375,0.0
1734580430.6292806,-26.85546875,-77.1484375,108.88671875,35.15625,0.0
1734580430.6332078,-31.25,93.75,105.46875,35.64453125,0.0
1734580430.6371114,-28.3203125,45.41015625,80.078125,-12.6953125,0.0
1734580430.6410148,-36.62109375,-271.97265625,-82.03125,-62.98828125,0.0
1734580430.6449182,-42.96875,-431.15234375,-143.06640625,-39.0625,0.0
1734580430.6488218,-38.0859375,-101.5625,74.70703125,22.4609375,0.0
1734580430.6527252,-41.015625,-132.8125,56.15234375,20.5078125,0.0
1734580430.6566286,-35.15625,-498.53515625,-125.0,-13.18359375,0.0
1734580430.660532,-5.37109375,-433.10546875,-57.12890625,-50.78125,0.0
1734580430.6644356,-14.16015625,164.55078125,183.59375,-45.8984375,0.0
1734580430.668339,-36.62109375,26.85546875,84.47265625,22.94921875,0.0
1734580430.6722424,-47.8515625,-167.48046875,31.25,43.45703125,0.0
1734580430.6761458,-32.2265625,136.23046875,132.8125,-1.953125,0.0
1734580430.6800957,-10.7421875,248.53515625,127.9296875,-39.0625,0.0
1734580430.6839993,-21.97265625,36.1328125,51.7578125,-32.71484375,0.0
1734580430.6879027,-29.78515625,-119.62890625,-4.39453125,18.5546875,0.0
1734580430.691806,-22.4609375,126.46484375,96.19140625,44.43359375,0.0
1734580430.6957097,-12.6953125,218.26171875,99.12109375,11.71875,0.0
1734580430.699613,-14.16015625,-193.84765625,-146.484375,-36.1328125,0.0
1734580430.7035165,-25.87890625,-748.046875,-363.76953125,-40.0390625,0.0
1734580430.7074199,-39.0625,-62.98828125,53.22265625,-9.765625,0.0
1734580430.7113235,-35.15625,483.3984375,233.3984375,6.8359375,0.0
1734580430.715227,-16.11328125,125.0,60.546875,1.46484375,0.0
1734580430.7191303,-5.37109375,17.08984375,42.48046875,-33.69140625,0.0
1734580430.7230337,-6.8359375,49.8046875,84.9609375,-52.24609375,0.0
1734580430.7269554,-10.25390625,-20.5078125,79.1015625,9.765625,0.0
1734580430.730859,-11.71875,21.484375,86.42578125,42.96875,0.0
1734580430.7347624,-4.8828125,-88.37890625,72.265625,6.34765625,0.0
1734580430.7386658,13.18359375,-207.03125,57.6171875,-31.73828125,0.0
1734580430.7425692,37.59765625,-70.80078125,114.74609375,-44.921875,0.0
1734580430.7464728,37.59765625,-258.7890625,37.59765625,10.25390625,0.0
1734580430.7503762,24.90234375,-257.8125,73.73046875,47.36328125,0.0
1734580430.7542796,24.4140625,62.5,164.55078125,10.25390625,0.0
1734580430.758183,39.0625,19.04296875,110.83984375,-27.83203125,0.0
1734580430.7620866,58.59375,-538.57421875,-144.04296875,-17.08984375,0.0
1734580430.76599,63.4765625,-584.9609375,-113.28125,24.90234375,0.0
1734580430.7698934,63.96484375,90.33203125,175.78125,53.22265625,0.0
1734580430.7738373,66.89453125,37.109375,48.828125,37.59765625,0.0
1734580430.7777407,82.51953125,-399.4140625,-250.48828125,11.23046875,0.0
1734580430.7816443,98.6328125,-300.29296875,-208.984375,-6.8359375,0.0
1734580430.7855477,82.51953125,33.203125,-24.90234375,11.71875,0.0
1734580430.7894511,46.875,104.98046875,20.5078125,52.734375,0.0
1734580430.7933545,20.5078125,-386.71875,-206.54296875,43.45703125,0.0
1734580430.7972581,24.90234375,-307.6171875,-217.28515625,-3.90625,0.0
1734580430.8011615,26.3671875,104.4921875,21.484375,-56.640625,0.0
1734580430.805065,14.6484375,-152.34375,-107.91015625,-26.3671875,0.0
1734580430.8089685,-2.44140625,-718.75,-353.02734375,45.8984375,0.0
1734580430.812872,-18.06640625,-209.47265625,-11.23046875,35.15625,0.0
1734580430.8167753,-36.62109375,52.734375,-3.90625,-25.87890625,0.0
1734580430.820716,-50.29296875,-299.8046875,-316.89453125,-63.4765625,0.0
1734580430.8246193,-55.6640625,-187.01171875,-200.68359375,-36.62109375,0.0
1734580430.828523,-65.91796875,-16.11328125,-76.66015625,19.04296875,0.0
1734580430.8324263,-81.54296875,-273.92578125,-264.16015625,36.62109375,0.0
1734580430.8363297,-86.42578125,-387.20703125,-304.6875,-6.8359375,0.0
1734580430.840233,-73.73046875,-312.5,-238.28125,-46.38671875,0.0
1734580430.8441367,-78.61328125,-178.22265625,-222.65625,-28.3203125,0.0
1734580430.84804,-106.4453125,88.37890625,-97.65625,20.5078125,0.0
1734580430.8519435,-122.55859375,-105.46875,-125.48828125,56.640625,0.0
1734580430.8558471,-121.58203125,-305.17578125,-133.7890625,31.73828125,0.0
1734580430.8597505,-107.421875,426.26953125,111.328125,-21.484375,0.0
1734580430.863654,-99.609375,554.19921875,82.51953125,-14.6484375,0.0
1734580430.8675919,-102.5390625,169.921875,-69.3359375,53.7109375,0.0
1734580430.8714952,-93.26171875,343.26171875,5.37109375,83.0078125,0.0
1734580430.8753986,-83.49609375,490.234375,78.61328125,54.6875,0.0
1734580430.8793023,-67.87109375,325.68359375,-23.92578125,18.06640625,0.0
1734580430.8832057,-49.31640625,67.3828125,-141.6015625,20.99609375,0.0
1734580430.887109,-58.10546875,-55.17578125,-200.68359375,76.66015625,0.0
1734580430.8910127,-74.21875,231.4453125,-48.828125,98.6328125,0.0
1734580430.894916,-66.40625,287.59765625,-18.5546875,72.75390625,0.0
1734580430.8988194,-53.7109375,-594.7265625,-382.32421875,49.31640625,0.0
1734580430.902723,-52.24609375,15.625,-17.08984375,27.34375,0.0
1734580430.9066265,-54.6875,778.80859375,167.96875,59.08203125,0.0
1734580430.9105299,-67.3828125,395.5078125,-83.49609375,92.28515625,0.0
1734580430.914465,-77.1484375,443.84765625,-74.21875,65.4296875,0.0
1734580430.9183686,-53.22265625,872.55859375,49.31640625,12.20703125,0.0
1734580430.922272,-54.19921875,831.0546875,-89.84375,-10.7421875,0.0
1734580430.9261754,-71.77734375,583.0078125,-242.1875,27.34375,0.0
1734580430.930079,-70.3125,801.7578125,-46.38671875,58.59375,0.0
1734580430.9339824,-62.5,756.34765625,-193.359375,35.15625,0.0
1734580430.9378858,-51.7578125,808.10546875,-301.7578125,-7.32421875,0.0
1734580430.9417894,-50.78125,713.8671875,-339.84375,-39.0625,0.0
1734580430.9456928,-52.734375,567.87109375,-176.26953125,-6.8359375,0.0
1734580430.9495962,-49.8046875,973.14453125,145.5078125,29.296875,0.0
1734580430.9534996,-42.48046875,959.9609375,-55.17578125,11.71875,0.0
1734580430.9574032,-30.76171875,861.81640625,-343.75,-27.34375,0.0
1734580430.961335,-23.92578125,938.96484375,-192.3828125,-69.82421875,0.0
1734580430.9652383,-14.6484375,982.421875,-36.1328125,-44.921875,0.0
1734580430.9691417,-21.484375,938.96484375,-87.40234375,18.06640625,0.0
1734580430.973045,-27.83203125,908.203125,-220.21484375,13.671875,0.0
1734580430.9769487,-21.97265625,934.5703125,-238.28125,-26.3671875,0.0
1734580430.9808521,-8.7890625,982.421875,-269.53125,-44.43359375,0.0
1734580430.9847555,-5.859375,920.8984375,-318.359375,-9.27734375,0.0
1734580430.9886591,-28.80859375,478.515625,-418.9453125,39.0625,0.0
1734580430.9925625,-31.25,755.37109375,-42.48046875,31.25,0.0
1734580430.996466,1.46484375,-962.890625,133.30078125,-8.7890625,0.0
1734580431.0003695,20.01953125,929.19921875,-123.53515625,-35.15625,0.0
1734580431.004273,5.37109375,963.37890625,-137.20703125,-38.0859375,0.0
1734580431.0082011,-10.25390625,958.984375,47.36328125,-0.9765625,0.0
1734580431.0121047,-20.5078125,959.47265625,-76.66015625,24.90234375,0.0
1734580431.0160081,-21.484375,927.734375,-292.96875,-12.20703125,0.0
1734580431.0199115,-11.23046875,937.01171875,-254.39453125,-54.6875,0.0
1734580431.0238152,-10.25390625,949.21875,-80.078125,-39.0625,0.0
1734580431.0277185,-21.484375,-997.55859375,-182.12890625,11.71875,0.0
1734580431.031622,-25.390625,828.61328125,-366.2109375,17.578125,0.0
1734580431.0355256,-24.90234375,691.40625,-181.640625,-25.390625,0.0
1734580431.039429,-6.8359375,968.75,104.4921875,-60.546875,0.0
1734580431.0433323,7.32421875,974.609375,13.671875,-60.05859375,0.0
1734580431.0472357,-12.6953125,938.4765625,-256.34765625,-18.06640625,0.0
1734580431.0511394,-21.484375,956.0546875,-66.40625,3.90625,0.0
1734580431.0550652,-4.39453125,979.4921875,72.265625,-32.71484375,0.0
1734580431.0589685,19.53125,947.265625,-173.828125,-64.453125,0.0
1734580431.062872,51.26953125,901.3671875,-309.08203125,-57.6171875,0.0
1734580431.0667756,50.29296875,937.98828125,-103.02734375,-33.203125,0.0
1734580431.070679,48.33984375,988.76953125,-61.03515625,-12.20703125,0.0
1734580431.0745823,71.2890625,938.96484375,-275.87890625,-27.83203125,0.0
1734580431.078486,87.890625,547.36328125,-411.1328125,-34.1796875,0.0
1734580431.0823894,115.234375,774.4140625,-16.6015625,-37.109375,0.0
1734580431.0862927,125.48828125,-971.6796875,181.15234375,-7.32421875,0.0
1734580431.0901964,122.0703125,937.01171875,24.4140625,43.9453125,0.0
1734580431.0940998,142.578125,963.37890625,-41.015625,24.4140625,0.0
1734580431.0980031,182.6171875,964.84375,47.36328125,-16.11328125,0.0
1734580431.1019256,208.49609375,955.56640625,41.50390625,-24.90234375,0.0
1734580431.105829,211.42578125,925.78125,-79.1015625,1.953125,0.0
1734580431.1097326,199.70703125,930.17578125,-166.50390625,29.78515625,0.0
1734580431.113636,198.73046875,918.45703125,-173.828125,7.32421875,0.0
1734580431.1175394,218.75,-995.1171875,-0.9765625,-22.94921875,0.0
1734580431.1214428,231.4453125,657.71484375,-196.2890625,-40.0390625,0.0
1734580431.1253464,213.8671875,387.20703125,-148.4375,-21.97265625,0.0
1734580431.1292498,188.96484375,865.234375,159.1796875,-1.46484375,0.0
1734580431.1331532,195.80078125,987.79296875,134.765625,-9.27734375,0.0
1734580431.1370568,220.703125,768.5546875,-19.53125,-29.78515625,0.0
1734580431.1409602,229.00390625,835.44921875,56.15234375,-60.05859375,0.0
1734580431.1448636,222.65625,-1000.0,182.6171875,-41.015625,0.0
1734580431.1488087,199.21875,910.64453125,83.49609375,5.37109375,0.0
1734580431.152712,181.15234375,714.35546875,-22.94921875,13.18359375,0.0
1734580431.1566155,195.3125,842.7734375,57.12890625,-20.01953125,0.0
1734580431.1605191,201.66015625,987.3046875,96.6796875,-52.734375,0.0
1734580431.1644225,173.828125,831.54296875,15.625,-42.96875,0.0
1734580431.168326,147.94921875,360.3515625,-120.1171875,1.46484375,0.0
1734580431.1722295,139.6484375,561.03515625,20.5078125,18.5546875,0.0
1734580431.176133,143.06640625,-943.84765625,173.828125,-5.37109375,0.0
1734580431.1800363,135.25390625,788.0859375,-42.48046875,-39.55078125,0.0
1734580431.18394,108.3984375,14.6484375,-324.21875,-20.5078125,0.0
1734580431.1878433,81.0546875,638.671875,62.5,15.625,0.0
1734580431.1917467,82.03125,-922.8515625,193.84765625,13.671875,0.0
1734580431.1956873,100.09765625,891.6015625,6.8359375,4.8828125,0.0
1734580431.1995907,93.75,960.44921875,38.0859375,-14.16015625,0.0
1734580431.2034943,68.359375,948.73046875,9.27734375,-25.87890625,0.0
1734580431.2073977,45.8984375,942.87109375,-208.49609375,22.4609375,0.0
1734580431.211301,31.25,924.8046875,-270.5078125,57.6171875,0.0
1734580431.2152047,14.6484375,925.29296875,-268.5546875,21.97265625,0.0
1734580431.219108,-5.859375,954.58984375,-216.796875,-42.96875,0.0
1734580431.2230115,-21.97265625,987.79296875,5.37109375,-42.96875,0.0
1734580431.2269151,-26.85546875,892.08984375,-237.3046875,20.5078125,0.0
1734580431.2308185,-47.8515625,857.421875,-214.35546875,38.0859375,0.0
1734580431.234722,-62.01171875,983.3984375,138.671875,-3.41796875,0.0
1734580431.2386255,-64.453125,968.75,-43.9453125,-41.9921875,0.0
1734580431.2425637,-64.453125,966.796875,-299.31640625,-48.828125,0.0
1734580431.2464674,-63.96484375,967.7734375,-36.1328125,-3.90625,0.0
1734580431.2503707,-75.68359375,972.65625,109.86328125,23.4375,0.0
1734580431.2542741,-85.44921875,960.44921875,-48.828125,-3.90625,0.0
1734580431.2581778,-96.19140625,950.68359375,-166.50390625,-37.109375,0.0
1734580431.2620811,-122.0703125,965.33203125,-207.51953125,-53.22265625,0.0
1734580431.2659845,-136.71875,972.16796875,-86.42578125,-8.30078125,0.0
1734580431.2698882,-137.20703125,960.9375,1.46484375,42.48046875,0.0
1734580431.2737916,-141.6015625,942.3828125,-303.7109375,38.0859375,0.0
1734580431.277695,-138.671875,966.796875,-8.7890625,-17.08984375,0.0
1734580431.2815986,-141.6015625,971.6796875,200.68359375,-54.19921875,0.0
1734580431.285502,-162.109375,967.28515625,74.70703125,-20.99609375,0.0
1734580431.2894366,-177.734375,969.23828125,122.55859375,20.01953125,0.0
1734580431.29334,-177.734375,969.23828125,148.92578125,18.5546875,0.0
1734580431.2972434,-168.45703125,970.21484375,37.109375,-10.7421875,0.0
1734580431.301147,-168.45703125,965.33203125,-43.9453125,-47.36328125,0.0
1734580431.3050504,-169.921875,965.33203125,59.08203125,-10.25390625,0.0
1734580431.3089538,-174.31640625,968.26171875,74.21875,44.43359375,0.0
1734580431.3128574,-183.59375,973.14453125,124.51171875,18.5546875,0.0
1734580431.3167608,-182.6171875,954.58984375,-63.96484375,-17.08984375,0.0
1734580431.3206642,-190.4296875,949.21875,-96.6796875,-45.8984375,0.0
1734580431.3245678,-200.1953125,972.16796875,216.30859375,-39.0625,0.0
1734580431.3284712,-210.9375,968.75,140.625,1.953125,0.0
1734580431.3323746,-213.37890625,969.23828125,-38.0859375,13.18359375,0.0
1734580431.3363056,-208.49609375,967.7734375,46.38671875,-15.625,0.0
1734580431.340209,-202.63671875,972.16796875,118.1640625,-63.96484375,0.0
1734580431.3441126,-198.73046875,961.9140625,39.55078125,-54.19921875,0.0
1734580431.348016,-213.8671875,954.58984375,-30.76171875,15.13671875,0.0
1734580431.3519194,-224.609375,958.0078125,28.80859375,26.3671875,0.0
1734580431.355823,-237.3046875,981.4453125,-107.91015625,-28.3203125,0.0
1734580431.3597264,-236.328125,942.3828125,-238.76953125,-66.40625,0.0
1734580431.36363,-223.6328125,747.55859375,-337.40234375,-46.38671875,0.0
1734580431.3675334,-239.74609375,886.71875,35.15625,6.8359375,0.0
1734580431.3714368,-250.9765625,998.53515625,205.56640625,8.7890625,0.0
1734580431.3753405,-240.72265625,953.125,4.39453125,-20.5078125,0.0
1734580431.3792439,-219.7265625,970.21484375,-32.71484375,-47.8515625,0.0
1734580431.3831713,-201.171875,968.75,48.828125,-35.15625,0.0
1734580431.3870747,-200.1953125,972.16796875,80.078125,16.6015625,0.0
1734580431.390978,-215.33203125,945.80078125,-112.3046875,36.1328125,0.0
1734580431.3948817,-214.84375,950.68359375,-247.0703125,-0.48828125,0.0
1734580431.398785,-191.89453125,947.75390625,-125.0,-39.0625,0.0
1734580431.4026885,-173.828125,-991.2109375,-196.2890625,-27.34375,0.0
1734580431.4065921,-167.48046875,825.68359375,-300.78125,21.97265625,0.0
1734580431.4104955,-169.921875,641.11328125,-140.625,71.77734375,0.0
1734580431.414399,-153.80859375,946.77734375,44.921875,58.59375,0.0
1734580431.4183025,-134.27734375,984.375,23.4375,9.27734375,0.0
1734580431.422206,-129.39453125,800.29296875,-246.09375,-16.11328125,0.0
1734580431.4261096,-125.48828125,864.74609375,-75.1953125,25.390625,0.0
1734580431.4300346,-103.515625,-1000.0,89.84375,69.3359375,0.0
1734580431.433938,-89.35546875,925.78125,-89.84375,49.8046875,0.0
1734580431.4378414,-81.54296875,863.28125,-264.16015625,3.90625,0.0
1734580431.441745,-68.84765625,924.31640625,-218.75,-18.5546875,0.0
1734580431.4456484,-55.17578125,998.53515625,-118.1640625,19.53125,0.0
1734580431.4495518,-38.0859375,790.0390625,-301.26953125,66.89453125,0.0
1734580431.4534554,-18.5546875,175.29296875,-470.703125,57.12890625,0.0
1734580431.4573588,13.18359375,602.05078125,-53.22265625,-2.9296875,0.0
1734580431.4612625,39.0625,-939.453125,125.48828125,-32.2265625,0.0
1734580431.4651659,55.6640625,900.390625,-35.15625,5.37109375,0.0
1734580431.4690692,66.40625,905.76171875,-62.01171875,57.12890625,0.0
1734580431.4729729,72.265625,921.38671875,-27.83203125,57.12890625,0.0
1734580431.476894,90.8203125,945.80078125,40.0390625,20.99609375,0.0
1734580431.4807973,111.81640625,866.2109375,-78.61328125,-3.90625,0.0
1734580431.484701,126.46484375,847.65625,-122.0703125,18.5546875,0.0
1734580431.4886043,129.39453125,807.12890625,-23.4375,68.359375,0.0
1734580431.4925077,141.11328125,953.125,55.17578125,73.73046875,0.0
1734580431.4964113,149.4140625,652.83203125,-189.94140625,44.921875,0.0
1734580431.5003147,162.59765625,380.859375,-156.73828125,19.04296875,0.0
1734580431.5042183,156.73828125,919.921875,161.62109375,23.4375,0.0
1734580431.5081217,125.48828125,991.2109375,96.6796875,66.40625,0.0
1734580431.512025,120.1171875,741.69921875,-83.49609375,84.9609375,0.0
1734580431.5159287,134.765625,822.75390625,15.13671875,54.19921875,0.0
1734580431.5198321,139.16015625,-998.53515625,114.74609375,5.859375,0.0
1734580431.5237765,129.8828125,944.82421875,42.96875,19.04296875,0.0
1734580431.52768,110.83984375,436.5234375,-263.18359375,81.54296875,0.0
1734580431.5315833,97.16796875,537.109375,-103.02734375,87.890625,0.0
1734580431.535487,85.9375,-983.3984375,153.3203125,42.96875,0.0
1734580431.5393903,71.2890625,880.859375,37.59765625,2.9296875,0.0
1734580431.5432937,62.98828125,395.5078125,-142.578125,-2.44140625,0.0
1734580431.5471973,48.828125,502.9296875,-15.13671875,51.26953125,0.0
1734580431.5511007,29.296875,-986.328125,208.984375,63.4765625,0.0
1734580431.5550044,9.765625,850.09765625,38.0859375,19.53125,0.0
1734580431.5589077,-0.9765625,68.84765625,-295.41015625,-12.6953125,0.0
1734580431.5628111,-16.11328125,590.33203125,29.296875,-37.59765625,0.0
1734580431.5667148,-40.52734375,-932.12890625,174.31640625,-14.16015625,0.0
1734580431.5706556,-66.40625,749.51171875,-6.8359375,10.25390625,0.0
1734580431.574559,-78.125,777.34375,41.50390625,-16.6015625,0.0
1734580431.5784624,-62.5,820.3125,3.90625,-55.6640625,0.0
1734580431.582366,-50.29296875,489.74609375,-168.9453125,-63.96484375,0.0
1734580431.5862694,-56.15234375,393.06640625,-129.39453125,-17.08984375,0.0
1734580431.590173,-62.01171875,350.5859375,-38.0859375,27.83203125,0.0
1734580431.5940764,-68.84765625,339.84375,-19.53125,8.30078125,0.0
1734580431.5979798,-66.40625,742.67578125,71.2890625,-41.9921875,0.0
1734580431.6018834,-60.546875,285.15625,-151.85546875,-52.734375,0.0
1734580431.6057868,-67.87109375,-128.90625,-114.2578125,3.41796875,0.0
1734580431.6096904,-65.4296875,793.9453125,199.70703125,54.6875,0.0
1734580431.6135938,-73.2421875,947.265625,87.890625,32.2265625,0.0
1734580431.6175318,-95.703125,430.6640625,-137.6953125,-28.80859375,0.0
1734580431.6214354,-91.796875,522.94921875,-41.015625,-52.24609375,0.0
1734580431.6253388,-93.26171875,805.6640625,94.23828125,-0.9765625,0.0
1734580431.6292424,-118.1640625,740.234375,25.390625,44.43359375,0.0
1734580431.6331458,-136.71875,426.7578125,-96.6796875,27.83203125,0.0
1734580431.6370492,-121.09375,230.46875,-236.328125,-8.7890625,0.0
1734580431.6409528,-98.6328125,273.4375,-174.8046875,-37.59765625,0.0
1734580431.6448562,-97.16796875,276.3671875,-73.2421875,-9.765625,0.0
1734580431.6487598,-111.328125,-361.328125,-333.984375,50.29296875,0.0
1734580431.6526632,-121.09375,190.4296875,-26.85546875,32.71484375,0.0
1734580431.6565666,-105.95703125,924.8046875,175.78125,-23.4375,0.0
1734580431.6604702,-75.68359375,555.17578125,-121.58203125,-41.9921875,0.0
1734580431.6644297,-79.1015625,457.51953125,-150.390625,-4.8828125,0.0
1734580431.668333,-87.40234375,862.79296875,67.3828125,41.50390625,0.0
1734580431.6722364,-77.63671875,856.93359375,-19.53125,29.78515625,0.0
1734580431.67614,-65.4296875,431.15234375,-246.09375,-13.671875,0.0
1734580431.6800435,-50.78125,440.4296875,-254.8828125,-48.33984375,0.0
1734580431.683947,-55.6640625,408.203125,-269.53125,-39.55078125,0.0
1734580431.6878505,-69.82421875,491.69921875,-220.703125,5.859375,0.0
1734580431.6917539,-76.171875,235.83984375,-331.0546875,19.53125,0.0
1734580431.6956575,-76.66015625,-110.83984375,-205.56640625,-31.73828125,0.0
1734580431.6995609,-58.10546875,574.70703125,19.04296875,-61.03515625,0.0
1734580431.7034645,-44.43359375,549.31640625,-233.88671875,-23.4375,0.0
1734580431.707368,-55.6640625,333.984375,-346.6796875,27.34375,0.0
1734580431.7112997,-36.1328125,745.1171875,-86.42578125,45.8984375,0.0
1734580431.715203,-39.0625,-996.58203125,-4.8828125,10.7421875,0.0
1734580431.7191067,-47.8515625,798.33984375,-256.8359375,-35.15625,0.0
1734580431.72301,-29.78515625,502.9296875,-317.87109375,-21.97265625,0.0
1734580431.7269137,-18.5546875,725.09765625,-241.2109375,34.66796875,0.0
1734580431.730817,-39.55078125,682.6171875,-289.0625,32.71484375,0.0
1734580431.7347207,-48.828125,318.359375,-209.9609375,-4.8828125,0.0
1734580431.738624,-36.1328125,168.9453125,8.7890625,-35.15625,0.0
1734580431.7425275,-33.69140625,621.09375,207.51953125,-37.59765625,0.0
1734580431.746431,-41.9921875,-978.02734375,282.71484375,9.765625,0.0
1734580431.7503345,-52.734375,717.7734375,170.8984375,45.8984375,0.0
1734580431.7542381,-50.78125,-259.765625,-127.44140625,35.64453125,0.0
1734580431.7581666,-39.55078125,91.796875,155.2734375,-18.06640625,0.0
1734580431.76207,-37.109375,731.4453125,313.96484375,-44.921875,0.0
1734580431.7659736,-50.29296875,557.12890625,158.69140625,4.8828125,0.0
1734580431.769877,-54.19921875,482.91015625,216.30859375,46.38671875,0.0
1734580431.7737806,-49.31640625,759.27734375,248.046875,14.16015625,0.0
1734580431.777684,-47.36328125,602.5390625,182.12890625,-29.78515625,0.0
1734580431.7815876,-47.36328125,50.78125,38.57421875,-34.66796875,0.0
1734580431.785491,-57.12890625,-261.71875,14.6484375,10.7421875,0.0
1734580431.7893944,-66.89453125,575.68359375,243.1640625,34.1796875,0.0
1734580431.793298,-65.4296875,780.76171875,178.7109375,21.97265625,0.0
1734580431.7972014,-48.828125,204.58984375,0.0,-5.37109375,0.0
1734580431.801105,-32.2265625,375.9765625,85.44921875,-40.52734375,0.0
1734580431.8050303,-27.34375,726.07421875,156.73828125,-10.7421875,0.0
1734580431.8089337,-28.3203125,649.90234375,88.8671875,45.41015625,0.0
1734580431.8128374,-36.62109375,279.296875,-57.12890625,41.9921875,0.0
1734580431.8167408,-20.01953125,209.9609375,-48.828125,6.8359375,0.0
1734580431.8206441,8.30078125,509.27734375,85.9375,-16.6015625,0.0
1734580431.8245478,-0.48828125,316.40625,-13.671875,5.859375,0.0
1734580431.8284512,-32.71484375,-397.94921875,-284.1796875,53.7109375,0.0
1734580431.8323548,-34.1796875,98.14453125,15.13671875,40.52734375,0.0
1734580431.8362582,-28.3203125,839.84375,174.8046875,0.0,0.0
1734580431.8401616,-22.4609375,604.00390625,-35.64453125,-22.4609375,0.0
1734580431.8440652,-18.06640625,490.234375,-19.04296875,-5.859375,0.0
1734580431.8479686,-32.2265625,807.6171875,105.46875,52.734375,0.0
1734580431.8518908,-54.19921875,837.40234375,83.0078125,53.7109375,0.0
1734580431.8557944,-47.8515625,600.09765625,-53.7109375,-3.90625,0.0
1734580431.8596978,-30.2734375,413.0859375,-197.265625,-48.828125,0.0
1734580431.8636014,-22.4609375,339.84375,-180.6640625,-34.66796875,0.0
1734580431.8675048,-36.62109375,660.64453125,65.91796875,23.4375,0.0
1734580431.8714082,-53.7109375,408.69140625,-56.640625,33.203125,0.0
1734580431.8753119,-44.921875,-10.7421875,-210.44921875,-11.71875,0.0
1734580431.8792152,-35.15625,387.6953125,8.30078125,-50.78125,0.0
1734580431.8831189,-37.59765625,858.88671875,110.3515625,-42.48046875,0.0
1734580431.8870223,-52.734375,492.1875,-54.19921875,17.08984375,0.0
1734580431.890926,-54.6875,358.88671875,13.18359375,34.1796875,0.0
1734580431.8948293,-48.33984375,901.85546875,125.0,-7.32421875,0.0
1734580431.898773,-65.4296875,850.5859375,-11.71875,-33.203125,0.0
1734580431.9026766,-80.078125,470.703125,-187.01171875,-34.66796875,0.0
1734580431.90658,-78.125,679.6875,0.48828125,7.32421875,0.0
1734580431.9104836,-85.9375,966.796875,134.765625,36.1328125,0.0
1734580431.914387,-88.8671875,829.1015625,0.9765625,11.23046875,0.0
1734580431.9182904,-80.078125,219.7265625,-237.3046875,-30.76171875,0.0
1734580431.922194,-61.03515625,301.7578125,-162.109375,-46.875,0.0
1734580431.9260974,-54.6875,925.78125,108.88671875,1.953125,0.0
1734580431.930001,-62.01171875,716.30859375,-12.6953125,51.7578125,0.0
1734580431.9339044,-61.03515625,-139.16015625,-326.171875,39.0625,0.0
1734580431.937808,-40.0390625,420.8984375,-35.15625,-12.6953125,0.0
1734580431.9417114,-27.34375,988.76953125,126.46484375,-30.2734375,0.0
1734580431.9456515,-43.45703125,697.265625,-62.5,8.7890625,0.0
1734580431.9495552,-41.9921875,639.6484375,-58.59375,35.64453125,0.0
1734580431.9534585,-17.08984375,703.125,-35.15625,34.1796875,0.0
1734580431.957362,-3.41796875,421.875,-238.76953125,6.8359375,0.0
1734580431.9612656,15.13671875,309.5703125,-256.34765625,-20.5078125,0.0
1734580431.965169,2.44140625,251.46484375,-207.51953125,6.34765625,0.0
1734580431.9690726,-26.3671875,365.234375,-91.796875,36.1328125,0.0
1734580431.972976,-11.71875,842.7734375,91.30859375,21.484375,0.0
1734580431.9768796,4.8828125,366.69921875,-160.64453125,-3.90625,0.0
1734580431.980783,3.41796875,-133.30078125,-164.55078125,-27.83203125,0.0
1734580431.9846864,-1.953125,774.90234375,146.97265625,-19.04296875,0.0
1734580431.98859,-23.92578125,850.5859375,39.0625,28.3203125,0.0
1734580431.992527,-42.48046875,413.0859375,-122.55859375,15.625,0.0
1734580431.9964304,-35.64453125,708.49609375,-19.04296875,-30.76171875,0.0
1734580432.000334,-19.04296875,943.84765625,63.96484375,-51.7578125,0.0
1734580432.0042374,-12.20703125,772.94921875,-30.76171875,-19.53125,0.0
1734580432.008141,-30.2734375,509.27734375,-95.703125,18.06640625,0.0
1734580432.0120444,-52.734375,363.76953125,-148.92578125,10.25390625,0.0
1734580432.015948,-37.59765625,518.06640625,-139.16015625,-27.34375,0.0
1734580432.0198514,-10.7421875,680.6640625,-92.7734375,-51.26953125,0.0
1734580432.0237548,-12.20703125,-240.234375,-405.76171875,-20.5078125,0.0
1734580432.0276585,-18.06640625,186.03515625,-71.77734375,18.06640625,0.0
1734580432.0315619,-8.7890625,-973.6328125,137.6953125,26.3671875,0.0
1734580432.0354655,10.25390625,681.640625,-134.27734375,7.32421875,0.0
1734580432.0393994,15.625,508.30078125,-214.35546875,-24.90234375,0.0
1734580432.0433028,22.94921875,661.62109375,-159.1796875,-17.578125,0.0
1734580432.0472064,24.4140625,422.8515625,-263.671875,25.390625,0.0
1734580432.0511098,21.484375,237.79296875,-279.296875,41.9921875,0.0
1734580432.0550134,24.4140625,483.88671875,-173.33984375,9.765625,0.0
1734580432.0589168,30.2734375,346.6796875,-253.90625,-15.625,0.0
1734580432.0628202,35.64453125,264.6484375,-268.5546875,-5.859375,0.0
1734580432.0667238,20.5078125,95.21484375,-289.55078125,40.0390625,0.0
1734580432.0706272,-4.39453125,-234.375,-172.8515625,66.40625,0.0
1734580432.0745308,9.27734375,544.43359375,108.3984375,39.0625,0.0
1734580432.0784342,20.5078125,792.96875,4.39453125,2.44140625,0.0
1734580432.0823379,12.6953125,293.9453125,-260.25390625,-10.7421875,0.0
1734580432.0862691,11.71875,528.3203125,-56.15234375,27.34375,0.0
1734580432.0901725,3.41796875,900.87890625,100.5859375,55.6640625,0.0
1734580432.0940762,0.9765625,711.42578125,-58.59375,22.4609375,0.0
1734580432.0979795,7.8125,321.77734375,-240.234375,-18.5546875,0.0
1734580432.1018832,-0.48828125,415.52734375,-201.171875,-27.83203125,0.0
1734580432.1057866,-33.203125,427.24609375,-177.734375,11.71875,0.0
1734580432.1096902,-43.45703125,210.44921875,-254.39453125,42.96875,0.0
1734580432.1135936,-36.1328125,-353.02734375,-374.51171875,21.484375,0.0
1734580432.1174972,-26.85546875,64.94140625,-35.15625,-5.859375,0.0
1734580432.1214006,-34.1796875,708.0078125,128.41796875,-23.92578125,0.0
1734580432.125304,-54.6875,580.56640625,7.32421875,-9.765625,0.0
1734580432.1292076,-52.24609375,493.1640625,-17.08984375,27.34375,0.0
1734580432.1331363,-41.015625,660.64453125,37.59765625,26.85546875,0.0
1734580432.1370397,-31.25,770.01953125,84.47265625,-17.578125,0.0
1734580432.140943,-16.6015625,370.60546875,-114.2578125,-29.78515625,0.0
1734580432.1448467,-7.32421875,228.515625,-119.62890625,11.71875,0.0
1734580432.14875,-4.39453125,611.328125,85.9375,40.0390625,0.0
1734580432.1526537,0.9765625,499.51171875,-19.04296875,31.73828125,0.0
1734580432.156557,8.7890625,11.23046875,-216.796875,3.90625,0.0
1734580432.1604607,20.01953125,-476.07421875,-187.5,-29.78515625,0.0
1734580432.164364,15.13671875,344.23828125,149.90234375,-25.390625,0.0
1734580432.1682677,2.44140625,886.71875,161.1328125,17.578125,0.0
1734580432.172171,15.625,402.83203125,-65.91796875,31.73828125,0.0
1734580432.1760747,24.4140625,377.9296875,-24.90234375,-1.953125,0.0
1734580432.1800003,28.80859375,677.734375,88.8671875,-36.62109375,0.0
1734580432.1839037,28.3203125,632.32421875,26.85546875,-18.5546875,0.0
1734580432.1878073,6.34765625,307.12890625,-110.3515625,15.625,0.0
1734580432.1917107,4.8828125,512.6953125,27.34375,14.16015625,0.0
1734580432.195614,12.6953125,649.4140625,63.4765625,-17.08984375,0.0
1734580432.1995177,27.34375,135.25390625,-239.2578125,-45.41015625,0.0
1734580432.203421,30.76171875,-577.63671875,-392.578125,-20.5078125,0.0
1734580432.2073247,13.671875,-70.3125,13.671875,21.97265625,0.0
1734580432.2112281,1.953125,724.12109375,195.80078125,25.87890625,0.0
1734580432.2151318,-6.8359375,544.43359375,27.34375,-12.6953125,0.0
1734580432.2190351,4.39453125,134.27734375,-116.69921875,-53.7109375,0.0
1734580432.2229388,10.25390625,460.44921875,65.4296875,-47.8515625,0.0
1734580432.226861,-9.765625,762.6953125,173.828125,-4.39453125,0.0
1734580432.2307644,-16.11328125,521.484375,139.6484375,19.04296875,0.0
1734580432.234668,-15.625,199.21875,181.640625,-11.71875,0.0
1734580432.2385714,-14.6484375,51.26953125,187.98828125,-41.015625,0.0
1734580432.242475,4.8828125,367.67578125,291.50390625,-28.3203125,0.0
1734580432.2463784,4.39453125,8.7890625,216.30859375,24.4140625,0.0
1734580432.250282,-19.04296875,-400.87890625,223.6328125,44.921875,0.0
1734580432.2541854,-15.13671875,241.2109375,358.3984375,3.90625,0.0
1734580432.258089,4.8828125,383.7890625,291.50390625,-31.73828125,0.0
1734580432.2619925,11.71875,-130.37109375,218.75,-26.85546875,0.0
1734580432.2658958,-0.9765625,-37.109375,290.52734375,19.53125,0.0
1734580432.2697995,-12.6953125,398.4375,347.16796875,32.2265625,0.0
1734580432.273743,-19.04296875,243.65234375,271.484375,2.9296875,0.0
1734580432.2776463,-9.27734375,-252.44140625,130.859375,-46.875,0.0
1734580432.28155,10.7421875,-50.29296875,235.83984375,-49.31640625,0.0
1734580432.2854533,0.0,350.09765625,311.5234375,12.20703125,0.0
1734580432.289357,-9.765625,204.1015625,210.44921875,46.875,0.0
1734580432.2932603,-3.41796875,-434.08203125,57.12890625,23.4375,0.0
1734580432.297164,9.765625,-389.6484375,181.15234375,-25.390625,0.0
1734580432.3010674,20.5078125,230.46875,308.59375,-51.7578125,0.0
1734580432.304971,5.37109375,119.140625,187.01171875,-17.578125,0.0
1734580432.3088744,-22.94921875,-668.45703125,4.8828125,20.99609375,0.0
1734580432.3127778,-23.92578125,-198.73046875,235.83984375,-1.953125,0.0
1734580432.3166814,-6.8359375,325.1953125,259.765625,-44.43359375,0.0
1734580432.3206217,11.71875,9.27734375,134.27734375,-67.3828125,0.0
1734580432.324525,13.18359375,5.859375,239.2578125,-31.73828125,0.0
1734580432.3284287,-1.953125,220.21484375,228.02734375,28.3203125,0.0
1734580432.3323321,4.8828125,-11.23046875,118.1640625,30.76171875,0.0
1734580432.3362358,20.99609375,-273.92578125,77.1484375,-18.5546875,0.0
1734580432.3401392,30.76171875,-402.83203125,76.171875,-69.3359375,0.0
1734580432.3440428,40.52734375,-105.46875,179.19921875,-36.62109375,0.0
1734580432.3479462,37.59765625,89.84375,237.79296875,40.52734375,0.0
1734580432.3518498,35.15625,-447.265625,20.01953125,51.7578125,0.0
1734580432.3557532,47.36328125,-626.953125,-20.5078125,-6.8359375,0.0
1734580432.3596568,58.59375,55.6640625,215.33203125,-59.08203125,0.0
1734580432.3635602,57.12890625,234.375,179.6875,-29.296875,0.0
1734580432.3674982,47.36328125,-120.60546875,72.265625,43.9453125,0.0
1734580432.3714015,40.52734375,10.7421875,132.32421875,64.453125,0.0
1734580432.3753052,52.24609375,268.5546875,151.85546875,16.11328125,0.0
1734580432.3792086,63.4765625,128.41796875,86.9140625,-27.83203125,0.0
1734580432.3831122,53.22265625,-210.44921875,4.8828125,-22.4609375,0.0
1734580432.3870156,15.625,-317.3828125,32.2265625,19.04296875,0.0
1734580432.3909192,-0.9765625,-140.625,110.3515625,38.0859375,0.0
1734580432.3948226,21.97265625,-204.1015625,43.45703125,-2.44140625,0.0
1734580432.3987262,31.25,-776.85546875,-248.53515625,-50.78125,0.0
1734580432.4026296,25.87890625,-246.09375,60.05859375,-44.921875,0.0
1734580432.4065332,16.6015625,408.69140625,256.8359375,29.78515625,0.0
1734580432.4104366,10.7421875,227.5390625,139.16015625,57.6171875,0.0
1734580432.4143708,11.23046875,127.9296875,166.015625,4.8828125,0.0
1734580432.4182742,32.71484375,315.91796875,140.13671875,-53.7109375,0.0
1734580432.4221778,44.43359375,290.52734375,120.60546875,-57.6171875,0.0
1734580432.4260812,20.5078125,-119.62890625,41.9921875,13.18359375,0.0
1734580432.4299848,13.671875,-127.44140625,63.96484375,45.41015625,0.0
1734580432.4338882,31.73828125,-48.828125,83.984375,6.34765625,0.0
1734580432.4377918,55.17578125,68.84765625,111.81640625,-46.38671875,0.0
1734580432.4416952,59.5703125,-78.61328125,29.296875,-53.7109375,0.0
1734580432.4455988,47.36328125,-522.94921875,-31.25,11.71875,0.0
1734580432.4495022,51.26953125,17.578125,187.01171875,62.01171875,0.0
1734580432.4534059,55.17578125,388.671875,191.40625,44.43359375,0.0
1734580432.4573092,57.6171875,84.9609375,79.1015625,-17.578125,0.0
1734580432.46124,63.96484375,153.3203125,142.08984375,-46.875,0.0
1734580432.4651437,56.640625,467.28515625,223.6328125,-14.16015625,0.0
1734580432.469047,49.8046875,417.48046875,160.15625,35.15625,0.0
1734580432.4729507,44.921875,79.1015625,50.29296875,36.62109375,0.0
1734580432.476854,55.17578125,200.1953125,114.2578125,0.9765625,0.0
1734580432.4807577,68.359375,94.23828125,117.1875,-22.94921875,0.0
1734580432.484661,62.01171875,-278.3203125,55.17578125,10.25390625,0.0
1734580432.4885647,53.22265625,-694.3359375,-151.85546875,63.4765625,0.0
1734580432.492468,43.9453125,-144.04296875,104.4921875,43.45703125,0.0
1734580432.4963717,47.8515625,505.859375,253.90625,-2.9296875,0.0
1734580432.5002751,48.33984375,208.984375,121.58203125,-28.80859375,0.0
1734580432.5041788,35.64453125,-76.171875,145.99609375,-7.8125,0.0
1734580432.5081072,14.6484375,62.01171875,164.55078125,52.734375,0.0
1734580432.5120106,-8.7890625,403.80859375,187.5,57.12890625,0.0
1734580432.5159142,-16.6015625,146.97265625,69.3359375,0.0,0.0
1734580432.5198176,-18.5546875,-241.2109375,71.2890625,-40.0390625,0.0
1734580432.5237212,-15.625,60.05859375,150.87890625,-20.5078125,0.0
1734580432.5276246,-25.390625,167.96875,123.53515625,23.4375,0.0
1734580432.5315282,-54.19921875,-260.7421875,6.34765625,29.296875,0.0
1734580432.5354316,-63.96484375,-563.4765625,-70.80078125,0.9765625,0.0
1734580432.5393353,-56.640625,90.33203125,158.69140625,-54.19921875,0.0
1734580432.5432386,-59.5703125,317.3828125,144.53125,-52.24609375,0.0
1734580432.5471423,-74.21875,-79.58984375,-18.5546875,-0.9765625,0.0
1734580432.5510457,-76.66015625,72.75390625,63.4765625,16.6015625,0.0
1734580432.5549722,-70.80078125,379.8828125,146.484375,-11.71875,0.0
1734580432.5588758,-69.82421875,211.42578125,13.18359375,-51.26953125,0.0
1734580432.5627792,-68.359375,-315.91796875,-218.75,-42.96875,0.0
1734580432.5666828,-77.63671875,-85.9375,5.859375,1.46484375,0.0
1734580432.5705862,-90.8203125,324.70703125,152.34375,41.015625,0.0
1734580432.5744898,-83.0078125,-174.8046875,-126.46484375,33.203125,0.0
1734580432.5783932,-87.40234375,-826.66015625,-374.51171875,5.859375,0.0
1734580432.5822968,-101.5625,-316.89453125,1.953125,-12.20703125,0.0
1734580432.5862002,-101.07421875,329.58984375,203.125,17.08984375,0.0
1734580432.5901039,-101.07421875,141.11328125,18.06640625,56.640625,0.0
1734580432.5940073,-96.19140625,-134.765625,-65.4296875,31.73828125,0.0
1734580432.597911,-82.03125,-61.03515625,27.34375,-12.6953125,0.0
1734580432.6018329,-69.3359375,115.234375,74.21875,-21.97265625,0.0
1734580432.6057365,-66.40625,55.6640625,-17.08984375,27.83203125,0.0
1734580432.60964,-72.265625,-176.26953125,-103.515625,65.4296875,0.0
1734580432.6135435,-48.33984375,-216.796875,-94.23828125,55.6640625,0.0
1734580432.617447,-33.203125,45.8984375,6.8359375,19.53125,0.0
1734580432.6213505,-29.78515625,-262.6953125,-168.9453125,-10.7421875,0.0
1734580432.625254,-24.90234375,-537.59765625,-136.71875,29.296875,0.0
1734580432.6291575,-18.5546875,85.44921875,159.1796875,72.75390625,0.0
1734580432.633061,-6.34765625,473.14453125,125.9765625,41.9921875,0.0
1734580432.6369646,3.90625,-91.796875,-108.88671875,-5.37109375,0.0
1734580432.640868,18.5546875,-149.4140625,1.46484375,-14.6484375,0.0
1734580432.6447716,11.23046875,444.3359375,163.57421875,8.7890625,0.0
1734580432.648715,-4.39453125,445.80078125,70.3125,44.921875,0.0
1734580432.6526184,14.16015625,54.19921875,-33.203125,48.828125,0.0
1734580432.656522,28.3203125,91.796875,25.87890625,5.37109375,0.0
1734580432.6604254,20.99609375,364.74609375,112.3046875,-29.78515625,0.0
1734580432.664329,20.99609375,288.57421875,65.4296875,2.9296875,0.0
1734580432.6682324,17.08984375,-251.953125,-149.90234375,52.734375,0.0
1734580432.672136,5.37109375,-104.00390625,3.90625,37.109375,0.0
1734580432.6760395,12.6953125,356.4453125,179.6875,-0.48828125,0.0
1734580432.679943,24.4140625,-55.17578125,-39.0625,-27.34375,0.0
1734580432.6838465,14.16015625,-721.6796875,-290.52734375,-2.9296875,0.0
1734580432.68775,6.34765625,-14.16015625,67.87109375,25.87890625,0.0
1734580432.6916535,3.90625,565.4296875,204.58984375,21.484375,0.0
1734580432.6955936,8.30078125,138.18359375,6.34765625,-15.13671875,0.0
1734580432.6994972,23.4375,72.75390625,61.5234375,-44.43359375,0.0
1734580432.7034006,37.59765625,238.76953125,99.609375,-14.6484375,0.0
1734580432.7073042,20.5078125,44.921875,49.8046875,37.109375,0.0
1734580432.7112079,2.9296875,-90.8203125,-1.46484375,41.50390625,0.0
1734580432.7151113,13.18359375,-264.6484375,-64.453125,12.20703125,0.0
1734580432.719015,28.3203125,-145.01953125,44.43359375,-13.671875,0.0
1734580432.7229183,32.2265625,363.28125,158.203125,-15.625,0.0
1734580432.726822,16.6015625,-32.2265625,-31.73828125,28.3203125,0.0
1734580432.7307253,-8.30078125,-414.55078125,-37.109375,32.71484375,0.0
1734580432.734629,-10.7421875,167.48046875,159.66796875,-19.53125,0.0
1734580432.7385323,-5.37109375,79.58984375,61.03515625,-53.22265625,0.0
1734580432.742471,-3.41796875,-153.3203125,-10.25390625,-39.0625,0.0
1734580432.7463744,5.859375,270.5078125,139.16015625,7.32421875,0.0
1734580432.750278,19.04296875,545.8984375,197.265625,32.2265625,0.0
1734580432.7541814,28.3203125,387.6953125,94.23828125,8.7890625,0.0
1734580432.758085,32.2265625,103.515625,-10.25390625,-18.06640625,0.0
1734580432.7619884,40.0390625,-104.98046875,7.8125,-11.23046875,0.0
1734580432.765892,44.921875,203.125,137.20703125,11.23046875,0.0
1734580432.7697954,33.69140625,416.015625,118.1640625,32.2265625,0.0
1734580432.773699,21.97265625,-497.0703125,-269.04296875,24.4140625,0.0
1734580432.7776024,15.13671875,-101.5625,28.80859375,-17.578125,0.0
1734580432.781506,18.5546875,615.72265625,216.30859375,-45.41015625,0.0
1734580432.7854095,10.7421875,394.04296875,104.4921875,-25.390625,0.0
1734580432.7893443,-6.8359375,274.90234375,146.484375,4.8828125,0.0
1734580432.7932477,-0.48828125,266.6015625,83.0078125,0.9765625,0.0
1734580432.7971513,8.30078125,252.44140625,79.58984375,-35.64453125,0.0
1734580432.801055,7.32421875,88.8671875,48.828125,-68.359375,0.0
1734580432.8049583,6.34765625,254.39453125,141.11328125,-46.38671875,0.0
1734580432.808862,-2.9296875,159.1796875,76.66015625,-8.7890625,0.0
1734580432.8127654,-9.27734375,139.6484375,79.58984375,-13.18359375,0.0
1734580432.816669,9.27734375,-39.0625,10.25390625,-29.78515625,0.0
1734580432.8205724,33.203125,-561.03515625,-122.0703125,-34.66796875,0.0
1734580432.824476,21.97265625,374.51171875,204.58984375,-27.83203125,0.0
1734580432.8283794,0.48828125,796.875,211.42578125,2.9296875,0.0
1734580432.832283,0.48828125,293.9453125,20.01953125,11.23046875,0.0
1734580432.8362148,17.08984375,415.0390625,101.07421875,-6.34765625,0.0
1734580432.8401182,27.83203125,666.9921875,148.4375,-31.25,0.0
1734580432.8440218,7.32421875,546.875,84.47265625,-15.625,0.0
1734580432.8479252,-2.9296875,184.5703125,-5.859375,28.3203125,0.0
1734580432.8518288,0.9765625,79.58984375,15.13671875,32.71484375,0.0
1734580432.8557322,4.8828125,137.6953125,71.2890625,3.41796875,0.0
1734580432.8596358,23.92578125,106.4453125,22.4609375,-41.015625,0.0
1734580432.8635395,19.53125,-469.23828125,-251.953125,-22.94921875,0.0
1734580432.8674428,-0.9765625,-22.4609375,70.80078125,25.87890625,0.0
1734580432.8713465,5.37109375,823.73046875,283.203125,38.57421875,0.0
1734580432.8752499,6.34765625,560.05859375,70.3125,17.08984375,0.0
1734580432.8791535,10.7421875,350.5859375,43.45703125,-8.30078125,0.0
1734580432.8830817,25.390625,578.125,119.140625,-6.34765625,0.0
1734580432.886985,13.671875,676.26953125,137.20703125,17.08984375,0.0
1734580432.8908887,0.9765625,391.6015625,-17.578125,43.45703125,0.0
1734580432.8947923,3.90625,96.6796875,-77.63671875,26.3671875,0.0
1734580432.8986957,10.7421875,396.484375,86.42578125,-15.13671875,0.0
1734580432.9025993,2.9296875,383.30078125,77.63671875,-17.578125,0.0
1734580432.9065027,-19.04296875,-130.859375,-54.19921875,20.01953125,0.0
1734580432.9104064,-32.71484375,-393.06640625,-63.96484375,30.2734375,0.0
1734580432.9143097,-20.01953125,475.5859375,174.8046875,9.27734375,0.0
1734580432.9182134,-11.71875,776.85546875,141.6015625,-19.04296875,0.0
1734580432.9221168,-11.71875,334.47265625,-14.6484375,-32.2265625,0.0
1734580432.9260204,-17.578125,477.05078125,96.19140625,-5.37109375,0.0
1734580432.9299445,-34.1796875,831.0546875,185.05859375,2.44140625,0.0
1734580432.933848,-40.52734375,713.37890625,83.49609375,-18.5546875,0.0
1734580432.9377515,-24.4140625,276.3671875,-85.44921875,-41.015625,0.0
1734580432.941655,-2.44140625,442.87109375,46.38671875,-60.546875,0.0
1734580432.9455585,-1.46484375,686.03515625,156.73828125,-30.2734375,0.0
1734580432.949462,-18.06640625,314.453125,-28.3203125,14.6484375,0.0
1734580432.9533656,-30.76171875,-454.58984375,-277.34375,8.7890625,0.0
1734580432.957269,-33.69140625,-26.3671875,38.57421875,-41.9921875,0.0
1734580432.9611726,-23.4375,740.72265625,208.49609375,-67.3828125,0.0
1734580432.9650762,-19.04296875,478.02734375,46.875,-25.87890625,0.0
1734580432.9689796,-29.78515625,391.6015625,110.83984375,20.5078125,0.0
1734580432.9728832,-23.4375,714.84375,164.0625,23.92578125,0.0
1734580432.9768045,-9.27734375,758.30078125,89.35546875,-7.32421875,0.0
1734580432.980708,8.30078125,501.46484375,9.27734375,-28.3203125,0.0
1734580432.9846115,18.06640625,396.484375,74.70703125,8.7890625,0.0
1734580432.988515,9.765625,408.203125,82.51953125,54.19921875,0.0
1734580432.9924185,11.71875,616.2109375,106.4453125,36.1328125,0.0
1734580432.996322,17.08984375,201.171875,-66.40625,3.41796875,0.0
1734580433.0002255,22.94921875,-229.00390625,-97.16796875,-20.99609375,0.0
1734580433.0041292,27.83203125,559.08203125,184.5703125,4.8828125,0.0
1734580433.0080326,26.3671875,852.5390625,162.109375,50.29296875,0.0
1734580433.0119362,27.34375,424.31640625,-15.625,42.96875,0.0
1734580433.0158396,27.83203125,416.015625,56.640625,11.71875,0.0
1734580433.0197432,31.25,565.91796875,140.13671875,-28.3203125,0.0
1734580433.0236874,29.78515625,416.9921875,39.55078125,-16.6015625,0.0
1734580433.0275908,20.5078125,271.484375,-6.34765625,29.296875,0.0
1734580433.0314944,19.04296875,541.015625,74.21875,36.62109375,0.0
1734580433.0353978,16.11328125,770.99609375,125.48828125,6.8359375,0.0
1734580433.0393014,25.390625,551.7578125,37.59765625,-24.4140625,0.0
1734580433.0432048,33.203125,-101.07421875,-201.66015625,-15.625,0.0
1734580433.0471084,18.5546875,28.3203125,-19.04296875,20.99609375,0.0
1734580433.051012,21.97265625,742.67578125,211.9140625,33.203125,0.0
1734580433.0549154,37.59765625,578.125,32.71484375,16.6015625,0.0
1734580433.058819,39.55078125,-353.515625,-312.01171875,-12.20703125,0.0
1734580433.0627224,42.96875,239.74609375,33.69140625,-21.97265625,0.0
1734580433.066626,35.15625,911.62109375,224.609375,20.5078125,0.0
1734580433.0705655,29.296875,547.8515625,25.390625,38.57421875,0.0
1734580433.074469,25.390625,457.03125,44.921875,22.94921875,0.0
1734580433.0783725,25.87890625,518.5546875,45.8984375,-19.04296875,0.0
