timestamps,TP9,AF7,AF8,TP10,Right AUX
1734580607.705785,0.0,-112.3046875,-132.32421875,-14.16015625,0.0
1734580607.7096908,-2.9296875,-114.74609375,-150.87890625,-32.2265625,0.0
1734580607.7135963,-11.71875,209.47265625,57.6171875,-23.92578125,0.0
1734580607.717502,-16.6015625,172.8515625,52.734375,-10.25390625,0.0
1734580607.721408,-22.94921875,-458.0078125,-254.39453125,-18.5546875,0.0
1734580607.7253134,-33.203125,-461.42578125,-216.30859375,-45.8984375,0.0
1734580607.7292192,-25.87890625,200.1953125,99.609375,-64.94140625,0.0
1734580607.733125,-20.01953125,102.5390625,8.7890625,-46.875,0.0
1734580607.7370307,-16.6015625,-725.09765625,-370.1171875,-1.953125,0.0
1734580607.7409363,-10.7421875,-173.828125,-34.1796875,11.71875,0.0
1734580607.744842,2.9296875,234.375,122.55859375,8.7890625,0.0
1734580607.7487714,16.11328125,-248.53515625,-120.1171875,8.7890625,0.0
1734580607.7526772,14.6484375,-89.35546875,-42.48046875,21.484375,0.0
1734580607.7565827,11.71875,275.87890625,113.76953125,51.7578125,0.0
1734580607.7604885,10.25390625,360.83984375,101.07421875,53.22265625,0.0
1734580607.7643943,12.20703125,12.6953125,-60.05859375,37.59765625,0.0
1734580607.7682998,18.06640625,-454.1015625,-262.20703125,24.90234375,0.0
1734580607.7722056,14.6484375,-223.14453125,-129.8828125,23.4375,0.0
1734580607.7761114,9.765625,323.73046875,157.71484375,40.52734375,0.0
1734580607.780017,9.765625,-120.60546875,-86.42578125,58.10546875,0.0
1734580607.7839227,6.34765625,-578.125,-218.26171875,40.0390625,0.0
1734580607.7878284,9.765625,96.6796875,88.37890625,2.44140625,0.0
1734580607.791734,23.92578125,266.6015625,72.75390625,8.7890625,0.0
1734580607.7956572,15.625,-80.078125,-38.0859375,37.109375,0.0
1734580607.799563,3.41796875,129.39453125,82.03125,36.62109375,0.0
1734580607.8034685,4.8828125,113.28125,46.38671875,18.06640625,0.0
1734580607.8073742,0.0,-63.4765625,-8.30078125,-3.90625,0.0
1734580607.81128,3.90625,-175.29296875,-55.6640625,-10.25390625,0.0
1734580607.8151855,4.8828125,-317.87109375,-42.96875,7.8125,0.0
1734580607.8190913,-5.37109375,-29.78515625,81.54296875,16.11328125,0.0
1734580607.822997,-10.7421875,179.6875,74.70703125,-6.34765625,0.0
1734580607.8269026,-2.9296875,-689.453125,-403.3203125,-26.3671875,0.0
1734580607.8308084,0.48828125,-554.6875,-230.95703125,-35.15625,0.0
1734580607.8347142,-3.90625,334.47265625,180.17578125,-19.04296875,0.0
1734580607.83862,-6.34765625,219.7265625,54.19921875,1.46484375,0.0
1734580607.8425343,0.48828125,18.06640625,21.97265625,5.37109375,0.0
1734580607.84644,3.90625,268.5546875,103.02734375,-7.8125,0.0
1734580607.8503456,9.27734375,334.9609375,79.1015625,-16.6015625,0.0
1734580607.8542514,7.32421875,128.41796875,33.69140625,7.32421875,0.0
1734580607.8581572,-0.9765625,60.05859375,74.70703125,25.87890625,0.0
1734580607.8620627,3.41796875,-59.5703125,22.4609375,18.5546875,0.0
1734580607.8659685,8.30078125,-216.30859375,-81.0546875,5.859375,0.0
1734580607.8698742,17.578125,-442.87109375,-233.3984375,9.27734375,0.0
1734580607.8737798,19.53125,-535.64453125,-142.08984375,38.0859375,0.0
1734580607.8776855,17.578125,224.609375,161.1328125,55.6640625,0.0
1734580607.8815913,18.06640625,472.16796875,127.9296875,48.33984375,0.0
1734580607.885497,14.16015625,43.9453125,-35.64453125,30.76171875,0.0
1734580607.8894036,15.625,135.25390625,33.69140625,3.41796875,0.0
1734580607.8933094,12.6953125,430.6640625,150.87890625,3.90625,0.0
1734580607.8972151,8.30078125,281.73828125,72.265625,30.2734375,0.0
1734580607.9011207,19.04296875,-55.17578125,-54.6875,28.80859375,0.0
1734580607.9050264,15.13671875,84.47265625,38.0859375,4.8828125,0.0
1734580607.9089322,9.27734375,-57.12890625,-54.19921875,-12.6953125,0.0
1734580607.9128377,7.8125,-339.84375,-157.71484375,-0.48828125,0.0
1734580607.9167435,-8.30078125,-749.0234375,-318.84765625,29.296875,0.0
1734580607.9206493,-19.04296875,-548.33984375,-137.6953125,19.53125,0.0
1734580607.9245548,-21.484375,-10.25390625,94.7265625,-20.5078125,0.0
1734580607.9284606,-14.6484375,51.26953125,6.8359375,-37.109375,0.0
1734580607.9323664,-7.32421875,34.66796875,8.7890625,-30.76171875,0.0
1734580607.9362626,-8.7890625,290.52734375,125.48828125,-8.30078125,0.0
1734580607.9401684,-10.7421875,441.89453125,124.0234375,5.37109375,0.0
1734580607.944074,-6.8359375,125.48828125,21.484375,-10.7421875,0.0
1734580607.9479797,-4.39453125,27.83203125,63.96484375,-25.87890625,0.0
1734580607.9518855,6.34765625,187.5,83.0078125,-13.18359375,0.0
1734580607.955791,8.7890625,70.80078125,74.21875,11.23046875,0.0
1734580607.9596968,-4.39453125,-266.11328125,-47.36328125,22.94921875,0.0
1734580607.9636025,-1.46484375,-570.80078125,-173.828125,22.94921875,0.0
1734580607.967508,16.6015625,98.6328125,84.47265625,5.37109375,0.0
1734580607.9714139,16.6015625,386.23046875,125.9765625,-4.8828125,0.0
1734580607.9753196,2.9296875,-61.5234375,-26.85546875,25.87890625,0.0
1734580607.9792252,-1.46484375,75.68359375,72.265625,45.8984375,0.0
1734580607.9831188,-2.44140625,416.015625,151.3671875,15.13671875,0.0
1734580607.9870245,4.8828125,325.68359375,74.70703125,-11.71875,0.0
1734580607.99093,14.6484375,-70.3125,-52.734375,-1.953125,0.0
1734580607.9948359,9.765625,91.796875,56.640625,24.4140625,0.0
1734580607.9987416,3.41796875,401.3671875,141.6015625,36.62109375,0.0
1734580608.0026472,4.8828125,-56.15234375,-33.69140625,25.87890625,0.0
1734580608.006553,0.0,-794.921875,-374.51171875,11.71875,0.0
1734580608.0104587,-3.90625,-312.01171875,-125.0,-5.859375,0.0
1734580608.0143645,9.27734375,270.01953125,159.1796875,11.71875,0.0
1734580608.01827,14.16015625,-70.3125,-1.46484375,35.64453125,0.0
1734580608.0221758,17.08984375,-57.6171875,22.94921875,21.97265625,0.0
1734580608.0260816,14.16015625,331.0546875,107.421875,-4.39453125,0.0
1734580608.0299594,11.23046875,369.140625,86.42578125,-8.7890625,0.0
1734580608.033865,21.484375,38.57421875,13.671875,27.34375,0.0
1734580608.0377707,9.765625,36.1328125,73.73046875,39.0625,0.0
1734580608.0416765,-9.765625,340.33203125,122.0703125,5.859375,0.0
1734580608.045582,0.48828125,384.27734375,112.3046875,-9.765625,0.0
1734580608.0494878,13.18359375,-250.0,-143.5546875,-23.4375,0.0
1734580608.0533936,10.25390625,-568.359375,-187.98828125,-23.92578125,0.0
1734580608.0572991,2.44140625,166.50390625,118.1640625,-7.8125,0.0
1734580608.061205,-2.44140625,472.16796875,145.99609375,-8.30078125,0.0
1734580608.0651107,-4.39453125,-67.3828125,-75.1953125,-21.97265625,0.0
1734580608.0690162,-1.953125,-255.859375,-93.26171875,-31.73828125,0.0
1734580608.072922,-0.48828125,314.453125,146.97265625,-17.08984375,0.0
1734580608.0768647,-18.06640625,411.62109375,117.1875,-6.8359375,0.0
1734580608.0807705,-18.5546875,-29.296875,-63.96484375,-1.953125,0.0
1734580608.0846763,-1.46484375,103.515625,31.25,-10.25390625,0.0
1734580608.088582,-0.48828125,268.06640625,93.75,-37.109375,0.0
1734580608.0924876,-3.90625,-97.16796875,-26.85546875,-33.69140625,0.0
1734580608.0963933,-3.90625,-506.8359375,-211.42578125,-0.48828125,0.0
1734580608.1002991,-8.7890625,-242.67578125,-67.3828125,1.953125,0.0
1734580608.1042047,-14.6484375,374.51171875,170.8984375,-24.4140625,0.0
1734580608.1081104,-14.16015625,146.484375,5.859375,-35.64453125,0.0
1734580608.1120162,-9.27734375,-679.19921875,-354.00390625,-24.90234375,0.0
1734580608.1159217,-15.625,-125.0,-4.8828125,-6.8359375,0.0
1734580608.1198275,-22.94921875,378.90625,198.73046875,5.859375,0.0
1734580608.123758,-20.01953125,128.90625,15.13671875,-6.8359375,0.0
1734580608.1276639,-12.6953125,11.71875,-20.5078125,-28.3203125,0.0
1734580608.1315696,-2.44140625,244.62890625,60.546875,-29.78515625,0.0
1734580608.1354752,0.48828125,447.265625,136.23046875,-4.39453125,0.0
1734580608.139381,-1.46484375,209.9609375,37.109375,8.7890625,0.0
1734580608.1432867,-4.8828125,-252.44140625,-171.875,-11.23046875,0.0
1734580608.1471922,-5.37109375,-389.16015625,-235.83984375,-30.76171875,0.0
1734580608.151098,7.8125,4.8828125,-37.59765625,-29.296875,0.0
1734580608.1550038,8.30078125,-126.953125,-73.2421875,0.48828125,0.0
1734580608.1589096,-6.34765625,-495.60546875,-127.44140625,20.01953125,0.0
1734580608.162815,-0.9765625,166.015625,126.46484375,3.90625,0.0
1734580608.1667209,5.859375,232.91015625,56.15234375,-14.16015625,0.0
1734580608.1706471,5.37109375,-175.78125,-113.28125,-18.5546875,0.0
1734580608.1745527,13.671875,87.890625,26.3671875,10.25390625,0.0
1734580608.1784585,10.25390625,430.6640625,159.1796875,30.76171875,0.0
1734580608.1823642,7.32421875,283.69140625,69.3359375,11.71875,0.0
1734580608.1862698,11.71875,-148.4375,-73.2421875,-7.32421875,0.0
1734580608.1901755,9.27734375,-321.2890625,-78.61328125,-23.4375,0.0
1734580608.1940813,-1.46484375,1.953125,62.98828125,-12.6953125,0.0
1734580608.197987,-2.9296875,236.81640625,87.890625,7.32421875,0.0
1734580608.2018926,-3.90625,-555.17578125,-329.58984375,20.01953125,0.0
1734580608.2057984,-4.39453125,-611.81640625,-250.9765625,1.46484375,0.0
1734580608.2097042,-1.46484375,13.18359375,59.5703125,-28.3203125,0.0
1734580608.2136097,0.0,176.26953125,105.46875,-12.20703125,0.0
1734580608.2175236,-7.32421875,191.40625,152.34375,9.27734375,0.0
1734580608.2214293,-16.11328125,394.04296875,144.53125,2.9296875,0.0
1734580608.2253351,-3.41796875,386.23046875,94.23828125,-8.30078125,0.0
1734580608.2292407,17.578125,141.11328125,4.39453125,-20.5078125,0.0
1734580608.2331464,19.04296875,71.2890625,42.96875,-11.71875,0.0
1734580608.2370522,12.20703125,-58.10546875,38.57421875,22.4609375,0.0
1734580608.2409577,6.8359375,-23.4375,51.26953125,25.87890625,0.0
1734580608.2448635,-3.90625,-201.171875,-103.515625,1.953125,0.0
1734580608.2487693,0.9765625,-560.05859375,-177.24609375,-4.39453125,0.0
1734580608.2526748,5.859375,150.390625,121.58203125,-1.46484375,0.0
1734580608.2565806,9.765625,451.66015625,145.01953125,21.484375,0.0
1734580608.2604864,13.671875,-52.734375,-53.22265625,34.66796875,0.0
1734580608.2643912,17.578125,-191.40625,-41.50390625,17.578125,0.0
1734580608.268297,29.78515625,265.13671875,113.28125,-6.34765625,0.0
1734580608.2722025,25.390625,321.77734375,73.73046875,0.9765625,0.0
1734580608.2761083,14.6484375,27.34375,-20.5078125,39.0625,0.0
1734580608.280014,18.06640625,176.7578125,76.66015625,41.9921875,0.0
1734580608.2839198,10.7421875,113.76953125,66.40625,6.8359375,0.0
1734580608.2878253,-1.46484375,-238.28125,-72.265625,-25.390625,0.0
1734580608.291731,6.8359375,-700.1953125,-303.7109375,-15.625,0.0
1734580608.295637,6.8359375,-290.0390625,-42.96875,11.23046875,0.0
1734580608.2995424,0.48828125,85.9375,98.6328125,13.18359375,0.0
1734580608.3034482,7.8125,75.68359375,27.83203125,-0.9765625,0.0
1734580608.307354,8.30078125,72.75390625,29.78515625,-22.94921875,0.0
1734580608.3112497,0.48828125,268.06640625,98.6328125,-25.390625,0.0
1734580608.3151553,-1.46484375,464.84375,135.25390625,3.90625,0.0
1734580608.319061,-3.41796875,147.4609375,18.06640625,19.53125,0.0
1734580608.3229668,-7.8125,-46.38671875,-22.94921875,4.8828125,0.0
1734580608.3268723,-5.37109375,214.84375,67.87109375,-18.5546875,0.0
1734580608.3307781,-12.6953125,125.9765625,60.05859375,-27.83203125,0.0
1734580608.334684,-22.94921875,-287.59765625,-70.3125,-11.23046875,0.0
1734580608.3385894,-25.87890625,-568.359375,-165.52734375,5.37109375,0.0
1734580608.3424952,-22.4609375,203.125,120.1171875,-5.37109375,0.0
1734580608.346401,-18.5546875,476.5625,126.46484375,-20.01953125,0.0
1734580608.3503065,-17.578125,-39.55078125,-72.265625,-29.296875,0.0
1734580608.3542123,-10.7421875,131.34765625,54.6875,-1.46484375,0.0
1734580608.3580995,-11.23046875,517.08984375,192.3828125,17.08984375,0.0
1734580608.3620052,-4.8828125,427.734375,101.5625,3.90625,0.0
1734580608.365911,9.27734375,-45.8984375,-95.703125,-5.37109375,0.0
1734580608.3698165,17.08984375,65.91796875,1.953125,-0.9765625,0.0
1734580608.3737223,27.34375,380.859375,152.34375,29.296875,0.0
1734580608.377628,20.5078125,51.26953125,33.69140625,35.64453125,0.0
1734580608.3815336,11.71875,-729.4921875,-373.046875,27.83203125,0.0
1734580608.3854394,15.625,-400.390625,-195.3125,17.578125,0.0
1734580608.3893452,21.484375,251.953125,111.81640625,0.48828125,0.0
1734580608.3932507,14.6484375,-159.1796875,-74.70703125,11.71875,0.0
1734580608.3971565,1.46484375,-146.484375,-45.41015625,28.3203125,0.0
1734580608.4010623,-7.32421875,311.5234375,105.95703125,21.97265625,0.0
1734580608.4049432,-7.32421875,410.15625,104.4921875,-4.8828125,0.0
1734580608.408849,2.44140625,172.36328125,14.6484375,-23.4375,0.0
1734580608.4127548,4.8828125,5.37109375,4.8828125,-0.9765625,0.0
1734580608.4166603,2.44140625,268.06640625,107.91015625,28.3203125,0.0
1734580608.420566,0.9765625,440.91796875,132.32421875,20.5078125,0.0
1734580608.4244719,5.37109375,-152.34375,-106.4453125,-5.37109375,0.0
1734580608.4283774,6.8359375,-492.67578125,-177.24609375,-29.296875,0.0
1734580608.4322832,3.41796875,94.23828125,54.6875,-19.53125,0.0
1734580608.436189,-3.41796875,135.7421875,35.64453125,6.8359375,0.0
1734580608.4400945,-13.18359375,-239.74609375,-66.89453125,9.27734375,0.0
1734580608.4440002,-8.30078125,-165.0390625,-49.31640625,0.0,0.0
1734580608.447906,0.0,274.90234375,76.171875,-20.01953125,0.0
1734580608.4518452,4.39453125,259.765625,69.82421875,-17.578125,0.0
1734580608.455751,3.41796875,-264.16015625,-156.73828125,16.11328125,0.0
1734580608.4596567,-7.8125,-21.97265625,-12.6953125,30.76171875,0.0
1734580608.4635625,-2.9296875,496.09375,183.10546875,21.97265625,0.0
1734580608.467468,1.46484375,308.59375,32.71484375,-1.953125,0.0
1734580608.4713738,3.41796875,-422.8515625,-282.2265625,-5.859375,0.0
1734580608.4752796,6.34765625,-309.5703125,-104.4921875,12.20703125,0.0
1734580608.479185,4.39453125,403.3203125,172.8515625,19.53125,0.0
1734580608.4830909,3.90625,209.47265625,21.484375,6.34765625,0.0
1734580608.4869967,7.32421875,-681.15234375,-366.69921875,-9.765625,0.0
1734580608.4909022,10.7421875,-324.70703125,-89.84375,-16.6015625,0.0
1734580608.494808,3.90625,125.9765625,105.46875,-2.44140625,0.0
1734580608.4987369,2.9296875,106.4453125,63.4765625,18.5546875,0.0
1734580608.5026426,11.71875,155.76171875,103.02734375,16.11328125,0.0
1734580608.5065482,19.04296875,294.43359375,76.66015625,-2.44140625,0.0
1734580608.510454,16.11328125,326.66015625,84.47265625,-9.765625,0.0
1734580608.5143597,7.8125,90.33203125,-0.9765625,7.8125,0.0
1734580608.5182652,-5.37109375,-224.12109375,-80.56640625,19.53125,0.0
1734580608.522171,-1.46484375,-52.734375,30.2734375,6.34765625,0.0
1734580608.5260768,6.34765625,295.8984375,98.14453125,-12.20703125,0.0
1734580608.5299823,4.39453125,-228.02734375,-162.109375,-15.13671875,0.0
1734580608.533888,-6.8359375,-572.75390625,-194.3359375,13.18359375,0.0
1734580608.5377939,-15.625,152.83203125,122.55859375,19.04296875,0.0
1734580608.5416994,-18.5546875,237.3046875,89.84375,-3.41796875,0.0
1734580608.5456197,-14.16015625,-51.26953125,-83.0078125,-24.90234375,0.0
1734580608.5495255,-6.8359375,-112.3046875,-54.6875,-40.0390625,0.0
1734580608.553431,-4.8828125,110.3515625,110.83984375,-18.5546875,0.0
1734580608.5573368,-7.32421875,331.54296875,99.609375,6.34765625,0.0
1734580608.5612426,-12.20703125,11.71875,-47.8515625,4.39453125,0.0
1734580608.565148,-7.32421875,-199.21875,-56.640625,-7.8125,0.0
1734580608.569054,0.0,28.80859375,71.2890625,-18.5546875,0.0
1734580608.5729597,-16.6015625,346.19140625,123.53515625,-10.25390625,0.0
1734580608.5768652,-27.34375,-473.6328125,-276.3671875,21.97265625,0.0
1734580608.580771,-20.01953125,-446.77734375,-103.515625,27.34375,0.0
1734580608.5846767,-10.25390625,337.890625,168.9453125,-2.9296875,0.0
1734580608.5885825,-10.7421875,125.48828125,-25.390625,-26.3671875,0.0
1734580608.5924969,-6.8359375,-66.89453125,-79.58984375,-9.765625,0.0
1734580608.5964024,-0.48828125,273.92578125,90.33203125,23.4375,0.0
1734580608.6003082,5.37109375,444.82421875,135.7421875,27.83203125,0.0
1734580608.604214,11.23046875,84.47265625,-78.61328125,12.6953125,0.0
1734580608.6081195,15.13671875,-327.63671875,-251.953125,-3.90625,0.0
1734580608.6120253,14.6484375,-348.14453125,-202.63671875,-0.9765625,0.0
1734580608.615931,13.18359375,-120.1171875,-12.6953125,24.4140625,0.0
1734580608.6198368,11.71875,-224.609375,-57.6171875,36.1328125,0.0
1734580608.6237423,17.08984375,-581.54296875,-165.52734375,17.08984375,0.0
1734580608.627648,29.78515625,77.63671875,85.44921875,-11.71875,0.0
1734580608.631554,26.3671875,405.76171875,107.91015625,-14.16015625,0.0
1734580608.6354594,7.32421875,67.87109375,-13.671875,10.7421875,0.0
1734580608.6393652,1.953125,212.40234375,57.12890625,20.5078125,0.0
1734580608.6432707,3.90625,400.390625,101.5625,0.0,0.0
1734580608.6471765,9.765625,241.2109375,43.45703125,-19.53125,0.0
1734580608.6510823,15.13671875,-26.85546875,-57.6171875,-13.18359375,0.0
1734580608.6549878,10.25390625,186.5234375,39.55078125,8.7890625,0.0
1734580608.6588936,-3.90625,147.94921875,60.546875,28.80859375,0.0
1734580608.6627994,-4.8828125,-211.42578125,-58.10546875,20.01953125,0.0
1734580608.6667051,-4.8828125,-749.0234375,-408.203125,-4.39453125,0.0
1734580608.6706107,-10.25390625,-545.41015625,-252.44140625,-7.8125,0.0
1734580608.6745164,-12.20703125,26.85546875,91.796875,12.6953125,0.0
1734580608.6784222,-16.6015625,148.4375,68.359375,28.3203125,0.0
1734580608.6823277,-8.7890625,103.515625,35.64453125,22.94921875,0.0
1734580608.686225,-1.46484375,310.546875,88.8671875,-0.9765625,0.0
1734580608.6901307,-0.48828125,427.24609375,82.03125,-20.01953125,0.0
1734580608.6940362,-4.8828125,201.171875,55.6640625,-1.46484375,0.0
1734580608.697942,-5.859375,152.34375,94.23828125,23.92578125,0.0
1734580608.7018478,-2.44140625,248.53515625,73.73046875,18.06640625,0.0
1734580608.7057533,-8.7890625,73.73046875,20.99609375,-5.37109375,0.0
1734580608.709659,-1.953125,-321.77734375,-116.2109375,-17.578125,0.0
1734580608.7135649,6.34765625,-586.42578125,-192.3828125,10.7421875,0.0
1734580608.7174704,1.46484375,192.3828125,121.09375,30.76171875,0.0
1734580608.7213762,3.90625,356.4453125,115.234375,15.13671875,0.0
1734580608.725282,6.8359375,-124.51171875,-73.2421875,-8.30078125,0.0
1734580608.7291875,4.39453125,103.515625,17.578125,-30.76171875,0.0
1734580608.7331474,-1.46484375,420.8984375,134.27734375,-17.578125,0.0
1734580608.7370532,-2.9296875,383.30078125,95.21484375,17.08984375,0.0
1734580608.7409587,-2.44140625,-17.578125,-47.36328125,15.13671875,0.0
1734580608.7448645,4.8828125,129.39453125,31.25,-8.30078125,0.0
1734580608.7487702,24.4140625,388.18359375,102.05078125,-7.32421875,0.0
1734580608.7526758,20.5078125,4.8828125,-34.66796875,6.8359375,0.0
1734580608.7565815,-9.765625,-694.82421875,-339.35546875,7.8125,0.0
1734580608.7604873,-25.390625,-271.97265625,-40.52734375,-1.46484375,0.0
1734580608.7643929,-26.3671875,307.6171875,146.97265625,-19.04296875,0.0
1734580608.7682986,-27.34375,-184.08203125,-124.0234375,-49.8046875,0.0
1734580608.7722044,-36.62109375,-152.34375,-51.7578125,-53.7109375,0.0
1734580608.7761102,-50.29296875,311.03515625,126.46484375,-23.92578125,0.0
1734580608.7799876,-63.4765625,225.09765625,74.21875,-25.87890625,0.0
1734580608.783893,-59.08203125,-83.0078125,-28.3203125,-47.8515625,0.0
1734580608.787799,-52.734375,-20.01953125,-20.99609375,-58.10546875,0.0
1734580608.7917047,-67.3828125,273.4375,79.58984375,-67.3828125,0.0
1734580608.7956102,-83.0078125,416.50390625,140.625,-58.10546875,0.0
1734580608.799516,-77.63671875,-45.8984375,-19.04296875,-44.43359375,0.0
1734580608.8034217,-64.94140625,-421.38671875,-199.70703125,-51.26953125,0.0
1734580608.8073275,-62.98828125,93.26171875,19.53125,-69.3359375,0.0
1734580608.811233,-54.6875,400.87890625,134.765625,-62.98828125,0.0
1734580608.8151388,-51.26953125,-187.01171875,-138.671875,-35.64453125,0.0
1734580608.8190446,-59.08203125,-527.83203125,-163.57421875,-33.69140625,0.0
1734580608.8229501,-46.38671875,246.09375,143.5546875,-46.875,0.0
1734580608.8268905,-29.296875,396.484375,97.65625,-64.94140625,0.0
1734580608.830796,-26.3671875,-51.7578125,-79.58984375,-62.5,0.0
1734580608.8347018,-31.73828125,95.703125,36.1328125,-34.66796875,0.0
1734580608.8386075,-28.3203125,184.5703125,82.51953125,-15.625,0.0
1734580608.842513,-23.92578125,157.2265625,53.7109375,-13.671875,0.0
1734580608.8464189,-17.578125,-331.54296875,-236.81640625,-26.85546875,0.0
1734580608.8503246,-9.765625,-289.0625,-184.08203125,-20.99609375,0.0
1734580608.8542302,12.6953125,388.18359375,167.96875,25.390625,0.0
1734580608.858136,20.5078125,289.55078125,77.63671875,55.6640625,0.0
1734580608.8620417,8.7890625,-617.1875,-321.2890625,51.26953125,0.0
1734580608.8659472,20.01953125,-208.984375,-50.29296875,33.69140625,0.0
1734580608.869853,35.15625,395.5078125,147.94921875,35.64453125,0.0
1734580608.8737867,29.78515625,126.46484375,58.59375,62.5,0.0
1734580608.8776925,25.87890625,132.32421875,136.71875,83.984375,0.0
1734580608.8815982,35.15625,334.9609375,125.48828125,79.58984375,0.0
1734580608.8855038,41.015625,357.91015625,108.88671875,66.40625,0.0
1734580608.8894095,45.8984375,67.3828125,-19.04296875,68.84765625,0.0
1734580608.8933153,46.38671875,-327.1484375,-160.15625,83.984375,0.0
1734580608.8972208,47.36328125,-258.7890625,-17.578125,112.3046875,0.0
1734580608.9011266,64.453125,126.953125,139.6484375,129.8828125,0.0
1734580608.9050324,77.63671875,-105.95703125,-70.80078125,117.1875,0.0
1734580608.9089382,82.03125,-567.87109375,-174.8046875,109.86328125,0.0
1734580608.9128437,90.8203125,157.2265625,143.5546875,134.765625,0.0
1734580608.9167495,87.40234375,472.65625,150.390625,161.1328125,0.0
1734580608.920672,81.0546875,83.49609375,15.13671875,149.90234375,0.0
1734580608.9245775,83.984375,205.078125,94.23828125,121.09375,0.0
1734580608.9284832,85.9375,406.73828125,116.2109375,108.88671875,0.0
1734580608.932389,82.51953125,292.48046875,75.68359375,130.37109375,0.0
1734580608.9362946,80.078125,18.5546875,-1.46484375,155.76171875,0.0
1734580608.9402003,79.1015625,-162.109375,-38.0859375,149.90234375,0.0
1734580608.944106,88.8671875,41.9921875,45.41015625,134.27734375,0.0
1734580608.9480116,108.3984375,212.40234375,60.05859375,132.8125,0.0
1734580608.9519174,113.76953125,-620.60546875,-329.58984375,153.3203125,0.0
1734580608.9558232,111.328125,-529.78515625,-119.62890625,174.31640625,0.0
1734580608.959729,105.95703125,180.17578125,180.6640625,172.36328125,0.0
1734580608.9636345,101.07421875,2.9296875,0.48828125,146.97265625,0.0
1734580608.967549,97.65625,-110.83984375,-38.0859375,125.0,0.0
1734580608.9714546,88.37890625,223.6328125,118.65234375,129.8828125,0.0
1734580608.9753604,83.49609375,447.75390625,156.73828125,160.64453125,0.0
1734580608.9792662,84.9609375,237.3046875,72.265625,164.55078125,0.0
1734580608.9831717,84.47265625,91.796875,80.56640625,138.671875,0.0
1734580608.9870775,90.33203125,-121.09375,-21.484375,117.1875,0.0
1734580608.9909832,92.28515625,-27.34375,45.41015625,116.69921875,0.0
1734580608.994889,79.58984375,-61.5234375,-4.8828125,141.11328125,0.0
1734580608.9987946,74.21875,-517.08984375,-120.1171875,154.296875,0.0
1734580609.0027003,83.0078125,191.40625,147.94921875,131.34765625,0.0
1734580609.006606,97.65625,453.61328125,147.94921875,109.86328125,0.0
1734580609.0105116,91.30859375,-67.3828125,-38.0859375,98.14453125,0.0
1734580609.014418,74.21875,116.2109375,91.30859375,107.421875,0.0
1734580609.0183237,74.21875,480.46875,194.3359375,116.2109375,0.0
1734580609.0222294,82.03125,353.515625,96.19140625,105.46875,0.0
1734580609.026135,90.8203125,-46.38671875,-27.83203125,91.30859375,0.0
1734580609.0300407,93.26171875,41.015625,44.921875,74.21875,0.0
1734580609.0339465,85.9375,10.25390625,82.51953125,86.42578125,0.0
1734580609.037852,69.82421875,-248.046875,9.27734375,96.19140625,0.0
1734580609.0417578,67.3828125,-661.62109375,-275.87890625,87.890625,0.0
1734580609.0456636,65.91796875,-472.16796875,-82.03125,61.03515625,0.0
1734580609.0495694,64.94140625,-65.91796875,85.9375,46.38671875,0.0
1734580609.053475,70.3125,29.296875,70.3125,82.51953125,0.0
1734580609.0573807,58.59375,124.0234375,155.76171875,90.33203125,0.0
1734580609.0612772,52.24609375,376.46484375,158.69140625,70.80078125,0.0
1734580609.065183,57.6171875,378.41796875,118.65234375,63.96484375,0.0
1734580609.0690887,60.05859375,-23.4375,32.2265625,50.78125,0.0
1734580609.0729942,60.546875,76.171875,142.08984375,61.03515625,0.0
1734580609.0769,43.45703125,407.71484375,181.640625,76.171875,0.0
1734580609.0808058,27.83203125,107.421875,96.6796875,59.08203125,0.0
1734580609.0847113,45.41015625,-438.96484375,-89.35546875,44.43359375,0.0
1734580609.088617,60.546875,-660.64453125,-200.68359375,42.96875,0.0
1734580609.0925229,53.22265625,106.4453125,136.71875,49.8046875,0.0
1734580609.0964284,43.45703125,474.12109375,191.89453125,67.3828125,0.0
1734580609.1003342,36.62109375,17.08984375,55.17578125,71.77734375,0.0
1734580609.10424,43.45703125,3.90625,94.7265625,56.15234375,0.0
1734580609.1081297,46.38671875,386.23046875,171.38671875,35.64453125,0.0
1734580609.1120353,48.33984375,435.05859375,179.6875,40.0390625,0.0
1734580609.115941,47.36328125,71.77734375,61.03515625,60.546875,0.0
1734580609.1198468,39.0625,191.40625,116.69921875,52.24609375,0.0
1734580609.1237524,39.55078125,314.453125,174.31640625,30.2734375,0.0
1734580609.1276581,40.0390625,-196.2890625,-11.71875,15.625,0.0
1734580609.131564,28.80859375,-769.53125,-284.66796875,27.83203125,0.0
1734580609.1354694,18.5546875,-147.94921875,45.8984375,43.9453125,0.0
1734580609.1393752,20.5078125,375.0,223.6328125,43.45703125,0.0
1734580609.143281,18.06640625,-223.6328125,-12.20703125,31.73828125,0.0
1734580609.1471868,20.01953125,-297.36328125,30.2734375,17.08984375,0.0
1734580609.1510923,25.390625,230.46875,166.9921875,13.671875,0.0
1734580609.1549711,25.87890625,442.3828125,181.15234375,36.62109375,0.0
1734580609.1588767,22.94921875,196.77734375,145.5078125,50.29296875,0.0
1734580609.1627824,17.578125,16.6015625,134.765625,24.90234375,0.0
1734580609.1666882,24.4140625,241.2109375,144.53125,0.0,0.0
1734580609.1705937,30.2734375,350.5859375,164.0625,4.39453125,0.0
1734580609.1744995,20.5078125,-62.01171875,36.1328125,30.76171875,0.0
1734580609.1784053,12.20703125,-426.7578125,-59.5703125,44.43359375,0.0
1734580609.1823108,3.41796875,-84.47265625,102.05078125,18.06640625,0.0
1734580609.1862166,-0.48828125,238.28125,134.765625,-12.20703125,0.0
1734580609.1901224,5.37109375,-30.76171875,60.546875,-15.625,0.0
1734580609.1940281,4.8828125,-87.890625,139.6484375,3.90625,0.0
1734580609.1979337,-5.859375,408.203125,236.81640625,19.53125,0.0
1734580609.2018766,-18.06640625,374.51171875,157.71484375,-0.9765625,0.0
1734580609.2057824,-37.59765625,-48.33984375,20.5078125,-41.015625,0.0
1734580609.2096882,-43.45703125,85.9375,104.98046875,-58.10546875,0.0
1734580609.213594,-42.96875,422.8515625,189.94140625,-37.59765625,0.0
1734580609.2174995,-65.91796875,219.7265625,80.078125,-42.48046875,0.0
1734580609.2214053,-87.890625,-352.5390625,-134.765625,-69.3359375,0.0
1734580609.225311,-92.28515625,-312.5,-37.59765625,-94.7265625,0.0
1734580609.2292166,-105.95703125,279.296875,182.12890625,-137.20703125,0.0
1734580609.2331223,-116.2109375,264.6484375,133.30078125,-130.859375,0.0
1734580609.2370281,-134.27734375,-678.22265625,-283.203125,-114.2578125,0.0
1734580609.2409337,-151.3671875,-525.390625,-84.9609375,-134.765625,0.0
1734580609.2448394,-155.2734375,225.5859375,184.08203125,-160.15625,0.0
1734580609.248768,-145.01953125,123.046875,86.9140625,-157.71484375,0.0
1734580609.2526739,-133.30078125,28.80859375,149.90234375,-128.90625,0.0
1734580609.2565796,-123.046875,260.7421875,171.875,-99.609375,0.0
1734580609.2604852,-130.37109375,417.48046875,172.8515625,-107.91015625,0.0
1734580609.264391,-136.23046875,158.69140625,36.1328125,-145.01953125,0.0
1734580609.2682967,-111.81640625,-345.703125,-105.95703125,-145.01953125,0.0
1734580609.2722023,-100.5859375,-157.2265625,67.3828125,-121.09375,0.0
1734580609.276108,-105.46875,301.7578125,185.05859375,-92.7734375,0.0
1734580609.2800138,-89.35546875,-95.21484375,-23.92578125,-74.21875,0.0
1734580609.2839193,-72.75390625,-499.51171875,-64.453125,-83.0078125,0.0
1734580609.287825,-61.03515625,268.06640625,203.61328125,-100.09765625,0.0
1734580609.2917309,-51.7578125,536.62109375,199.21875,-86.9140625,0.0
1734580609.2956543,-55.17578125,-26.3671875,45.41015625,-55.6640625,0.0
1734580609.29956,-39.55078125,-46.38671875,87.890625,-35.64453125,0.0
1734580609.3034658,-21.97265625,474.609375,213.8671875,-34.66796875,0.0
1734580609.3073714,-6.34765625,402.83203125,118.65234375,-29.78515625,0.0
1734580609.3112772,1.953125,-50.78125,13.18359375,-9.27734375,0.0
1734580609.315183,3.41796875,-154.296875,45.41015625,26.85546875,0.0
1734580609.3190885,17.08984375,121.09375,140.13671875,37.59765625,0.0
1734580609.3229942,32.71484375,349.609375,144.53125,22.94921875,0.0
1734580609.3269,39.55078125,-524.4140625,-284.1796875,22.94921875,0.0
1734580609.3308058,49.8046875,-464.35546875,-57.6171875,32.71484375,0.0
1734580609.3347113,49.8046875,490.234375,277.83203125,54.19921875,0.0
1734580609.338617,41.9921875,433.10546875,168.45703125,73.2421875,0.0
1734580609.3425286,44.921875,164.0625,148.92578125,64.94140625,0.0
1734580609.3464344,53.7109375,334.47265625,138.671875,45.41015625,0.0
1734580609.3503401,62.01171875,331.0546875,98.14453125,42.96875,0.0
1734580609.3542457,53.7109375,32.71484375,56.640625,58.10546875,0.0
1734580609.3581514,48.828125,-23.92578125,80.078125,73.2421875,0.0
1734580609.3620572,58.59375,-170.8984375,5.859375,70.3125,0.0
1734580609.3659627,64.94140625,-98.6328125,32.2265625,51.7578125,0.0
1734580609.3698685,68.84765625,-185.546875,-71.2890625,57.6171875,0.0
1734580609.3737743,62.5,-593.75,-168.9453125,88.37890625,0.0
1734580609.3776798,65.91796875,154.78515625,151.3671875,104.4921875,0.0
1734580609.3815856,69.3359375,400.87890625,151.85546875,86.42578125,0.0
1734580609.3854914,62.98828125,-98.6328125,-36.1328125,60.546875,0.0
1734580609.3893993,73.73046875,-6.34765625,40.52734375,55.6640625,0.0
1734580609.393305,84.47265625,396.97265625,179.6875,67.3828125,0.0
1734580609.3972106,76.171875,396.97265625,127.44140625,83.49609375,0.0
1734580609.4011164,70.3125,4.8828125,11.71875,74.70703125,0.0
1734580609.4050221,83.49609375,107.421875,72.75390625,52.24609375,0.0
1734580609.4089277,86.9140625,19.53125,85.44921875,50.78125,0.0
1734580609.4128335,87.890625,-244.62890625,17.08984375,68.359375,0.0
1734580609.4167392,84.9609375,-613.28125,-237.79296875,93.75,0.0
1734580609.4206448,81.0546875,-312.5,-17.578125,82.03125,0.0
1734580609.4245505,88.37890625,92.28515625,120.1171875,44.43359375,0.0
1734580609.4284563,71.77734375,13.671875,69.3359375,30.76171875,0.0
1734580609.432362,65.4296875,63.4765625,149.4140625,58.10546875,0.0
1734580609.4362576,65.4296875,366.69921875,177.734375,96.19140625,0.0
1734580609.4401634,43.9453125,515.13671875,165.0390625,85.9375,0.0
1734580609.4440691,28.3203125,198.2421875,75.1953125,42.48046875,0.0
1734580609.4479747,24.4140625,-21.484375,77.1484375,8.30078125,0.0
1734580609.4518805,33.69140625,216.796875,98.6328125,11.71875,0.0
1734580609.4557862,58.59375,172.8515625,95.703125,52.734375,0.0
1734580609.459692,79.58984375,-250.0,-41.9921875,73.73046875,0.0
1734580609.4635975,83.49609375,-580.56640625,-201.66015625,61.03515625,0.0
1734580609.4675033,103.02734375,5.37109375,61.5234375,68.359375,0.0
1734580609.471409,93.75,91.796875,58.59375,63.96484375,0.0
1734580609.4753146,66.40625,-112.3046875,24.90234375,49.8046875,0.0
1734580609.4792204,65.4296875,205.078125,118.1640625,50.29296875,0.0
1734580609.4831078,58.10546875,459.47265625,134.27734375,37.109375,0.0
1734580609.4870133,70.80078125,324.70703125,69.3359375,28.80859375,0.0
1734580609.490919,63.96484375,-2.44140625,-47.36328125,36.62109375,0.0
1734580609.494825,-1.46484375,276.85546875,74.70703125,40.0390625,0.0
1734580609.4987307,-23.92578125,535.64453125,143.5546875,47.8515625,0.0
1734580609.5026362,12.6953125,69.3359375,-94.7265625,40.52734375,0.0
1734580609.506542,64.453125,-741.2109375,-485.83984375,43.45703125,0.0
1734580609.5104477,100.5859375,-283.69140625,-216.796875,69.3359375,0.0
1734580609.5143533,55.17578125,417.48046875,83.984375,62.01171875,0.0
1734580609.518259,-15.13671875,-18.06640625,-215.33203125,41.50390625,0.0
1734580609.5221648,-25.390625,71.2890625,-155.2734375,30.76171875,0.0
1734580609.5260704,-35.15625,334.9609375,-37.109375,-3.90625,0.0
1734580609.529948,-40.52734375,283.69140625,-94.7265625,-36.62109375,0.0
1734580609.5338535,-17.08984375,450.1953125,20.5078125,11.23046875,0.0
1734580609.5377593,-14.16015625,442.87109375,-12.6953125,47.8515625,0.0
1734580609.541665,1.953125,560.546875,34.1796875,38.57421875,0.0
1734580609.5455709,-25.87890625,587.890625,-4.39453125,9.765625,0.0
1734580609.5494764,-101.07421875,-11.71875,-316.89453125,-52.24609375,0.0
1734580609.5533822,-94.23828125,-390.625,-247.0703125,-8.7890625,0.0
1734580609.557288,-81.54296875,386.23046875,68.84765625,38.0859375,0.0
1734580609.5611935,-67.3828125,645.5078125,31.73828125,12.6953125,0.0
1734580609.5650992,-65.4296875,140.625,-137.20703125,-10.25390625,0.0
1734580609.569005,-54.19921875,153.3203125,-91.796875,-1.953125,0.0
1734580609.5729105,-11.23046875,540.0390625,26.3671875,30.2734375,0.0
1734580609.5768511,-0.48828125,573.2421875,20.01953125,55.17578125,0.0
1734580609.5807567,-2.9296875,227.05078125,-223.6328125,47.8515625,0.0
1734580609.5846624,-23.4375,188.96484375,-323.2421875,18.5546875,0.0
1734580609.5885682,-31.25,657.71484375,-84.9609375,5.37109375,0.0
1734580609.5924737,-38.57421875,800.29296875,-50.78125,17.08984375,0.0
1734580609.5963795,-71.2890625,322.265625,-365.234375,27.34375,0.0
1734580609.6002853,-77.63671875,454.58984375,-346.19140625,20.99609375,0.0
1734580609.604191,-95.703125,976.07421875,0.48828125,-2.9296875,0.0
1734580609.6080966,-82.03125,910.64453125,-72.75390625,-20.01953125,0.0
1734580609.6120024,-52.734375,473.6328125,-424.31640625,11.71875,0.0
1734580609.6159081,-63.96484375,799.8046875,-53.22265625,45.41015625,0.0
1734580609.6198137,-109.375,-967.7734375,170.8984375,24.4140625,0.0
1734580609.623744,-131.34765625,934.5703125,4.39453125,-6.34765625,0.0
1734580609.6276495,-98.14453125,973.14453125,-31.73828125,-10.7421875,0.0
1734580609.6315553,-153.80859375,969.23828125,109.375,16.6015625,0.0
1734580609.635461,-246.58203125,969.7265625,132.32421875,55.6640625,0.0
1734580609.6393666,-245.1171875,966.30859375,-8.7890625,57.12890625,0.0
1734580609.6432724,-203.125,965.8203125,-100.5859375,21.97265625,0.0
1734580609.6471782,-182.6171875,969.23828125,-42.48046875,-19.53125,0.0
1734580609.6510837,-166.50390625,971.19140625,116.2109375,-25.87890625,0.0
1734580609.6549895,-149.90234375,962.890625,19.53125,5.859375,0.0
1734580609.6588953,-122.55859375,958.49609375,-96.6796875,15.625,0.0
1734580609.662801,-75.1953125,970.21484375,187.5,-11.23046875,0.0
1734580609.6667066,-40.0390625,969.23828125,186.5234375,-25.390625,0.0
1734580609.6706278,-72.75390625,968.75,78.125,-18.5546875,0.0
1734580609.6745336,-112.79296875,969.23828125,187.01171875,1.953125,0.0
1734580609.6784394,-120.1171875,969.23828125,216.30859375,-1.953125,0.0
1734580609.6823452,-150.390625,969.23828125,142.578125,-4.39453125,0.0
1734580609.6862507,-177.734375,969.23828125,27.83203125,-2.44140625,0.0
1734580609.6901565,-132.32421875,968.75,40.52734375,-20.99609375,0.0
1734580609.6940622,-74.70703125,969.7265625,170.8984375,-27.34375,0.0
1734580609.6979678,-61.03515625,967.28515625,181.640625,-3.90625,0.0
1734580609.7018735,-67.87109375,960.9375,-216.796875,-6.8359375,0.0
1734580609.7057793,-86.42578125,966.30859375,-36.1328125,-34.1796875,0.0
1734580609.7096848,-84.9609375,970.21484375,279.78515625,-26.85546875,0.0
1734580609.7135906,-88.8671875,968.75,218.26171875,22.94921875,0.0
1734580609.7175043,-95.703125,969.23828125,220.21484375,56.15234375,0.0
1734580609.72141,-54.19921875,969.23828125,264.6484375,13.18359375,0.0
1734580609.7253158,-27.83203125,969.23828125,243.65234375,-26.85546875,0.0
1734580609.7292213,-21.97265625,969.23828125,180.17578125,-3.90625,0.0
1734580609.733127,-29.296875,969.23828125,232.91015625,25.87890625,0.0
1734580609.737033,-61.5234375,969.23828125,202.63671875,23.4375,0.0
1734580609.7409387,-50.78125,969.7265625,196.77734375,4.39453125,0.0
1734580609.7448442,-39.0625,967.28515625,58.10546875,-12.6953125,0.0
1734580609.74875,-66.89453125,966.796875,-86.42578125,-22.4609375,0.0
1734580609.7526557,-68.84765625,969.7265625,238.76953125,-3.90625,0.0
1734580609.7565613,-13.671875,969.23828125,231.93359375,21.97265625,0.0
1734580609.760467,5.37109375,969.23828125,107.421875,10.25390625,0.0
1734580609.7643714,-10.7421875,969.23828125,184.08203125,-20.01953125,0.0
1734580609.768277,-28.3203125,969.23828125,215.33203125,-43.9453125,0.0
1734580609.7721827,-36.62109375,969.23828125,171.38671875,-25.87890625,0.0
1734580609.7760885,-28.3203125,969.23828125,77.1484375,14.6484375,0.0
1734580609.7799942,-24.4140625,969.23828125,131.8359375,17.08984375,0.0
1734580609.7838998,-6.34765625,969.23828125,26.3671875,15.625,0.0
1734580609.7878056,-30.2734375,969.23828125,-276.85546875,-23.4375,0.0
1734580609.7917113,-62.01171875,969.23828125,-651.85546875,-19.53125,0.0
1734580609.7956169,-83.49609375,969.23828125,-679.19921875,25.87890625,0.0
1734580609.7995226,-96.6796875,969.23828125,-766.11328125,20.01953125,0.0
1734580609.8034284,-76.171875,969.23828125,-948.2421875,25.87890625,0.0
1734580609.807334,-80.56640625,969.23828125,-964.84375,7.8125,0.0
1734580609.8112297,-85.44921875,969.23828125,-995.1171875,-4.8828125,0.0
1734580609.8151355,-80.078125,969.23828125,-1000.0,33.203125,0.0
1734580609.819041,-71.2890625,969.7265625,-1000.0,47.8515625,0.0
1734580609.8229468,-103.02734375,969.23828125,-1000.0,34.1796875,0.0
1734580609.8268526,-89.35546875,969.23828125,-1000.0,12.6953125,0.0
1734580609.830758,-67.3828125,970.703125,-1000.0,18.06640625,0.0
1734580609.8346639,-88.37890625,967.28515625,-1000.0,32.2265625,0.0
1734580609.8385696,-100.5859375,964.84375,-1000.0,16.11328125,0.0
1734580609.8424752,-104.98046875,969.7265625,-1000.0,-26.3671875,0.0
1734580609.846381,-107.421875,969.7265625,-1000.0,-54.19921875,0.0
1734580609.8502867,-123.046875,969.23828125,-1000.0,-44.43359375,0.0
1734580609.8541925,-94.23828125,969.23828125,-1000.0,-31.25,0.0
1734580609.8580773,-68.359375,969.23828125,-1000.0,-37.109375,0.0
1734580609.861983,-84.47265625,969.23828125,-1000.0,-59.08203125,0.0
1734580609.8658888,-88.37890625,969.7265625,-1000.0,-86.42578125,0.0
1734580609.8697944,-86.9140625,964.84375,-1000.0,-87.40234375,0.0
1734580609.8737001,-88.8671875,973.6328125,-1000.0,-59.08203125,0.0
1734580609.877606,-108.3984375,963.8671875,-1000.0,-42.48046875,0.0
1734580609.8815114,-98.6328125,840.33203125,-1000.0,-55.6640625,0.0
1734580609.8854172,-64.94140625,903.80859375,-1000.0,-101.5625,0.0
1734580609.889323,-60.546875,986.328125,-1000.0,-122.0703125,0.0
1734580609.8932288,-76.66015625,956.0546875,-1000.0,-73.73046875,0.0
1734580609.8971343,-89.84375,970.703125,-1000.0,-58.10546875,0.0
1734580609.90104,-96.6796875,968.75,-1000.0,-90.33203125,0.0
1734580609.9049213,-87.890625,967.28515625,-1000.0,-111.81640625,0.0
1734580609.9088268,-71.2890625,963.8671875,-1000.0,-127.9296875,0.0
1734580609.9127326,-77.1484375,970.703125,-1000.0,-116.69921875,0.0
1734580609.9166384,-80.56640625,947.265625,-1000.0,-93.75,0.0
1734580609.920544,-69.82421875,-991.2109375,-1000.0,-118.1640625,0.0
1734580609.9244497,-62.5,854.4921875,-1000.0,-141.6015625,0.0
1734580609.9283555,-53.22265625,640.13671875,-1000.0,-144.53125,0.0
1734580609.932261,-45.41015625,929.6875,-1000.0,-146.484375,0.0
1734580609.9361668,-62.5,997.0703125,-1000.0,-122.0703125,0.0
1734580609.9400725,-57.6171875,901.85546875,-1000.0,-122.55859375,0.0
1734580609.9439783,-41.50390625,917.96875,-1000.0,-147.4609375,0.0
1734580609.9478838,-28.80859375,974.609375,-1000.0,-145.01953125,0.0
1734580609.9518273,-40.52734375,958.49609375,-1000.0,-104.98046875,0.0
1734580609.955733,-61.5234375,902.83203125,-1000.0,-77.1484375,0.0
1734580609.9596388,-38.0859375,923.828125,-1000.0,-73.2421875,0.0
1734580609.9635444,-33.203125,984.375,-1000.0,-75.68359375,0.0
1734580609.9674501,-35.64453125,901.85546875,-1000.0,-192.3828125,0.0
1734580609.971356,-31.25,556.15234375,-1000.0,-262.20703125,0.0
1734580609.9752617,-52.24609375,679.19921875,-1000.0,-222.65625,0.0
1734580609.9791672,-62.01171875,-958.984375,-1000.0,-191.40625,0.0
1734580609.983073,-53.22265625,863.28125,-1000.0,-180.6640625,0.0
1734580609.9869788,-55.6640625,-37.59765625,-1000.0,-212.40234375,0.0
1734580609.9908843,-50.78125,285.64453125,-1000.0,-206.0546875,0.0
1734580609.99479,-40.0390625,-960.44921875,-1000.0,-150.390625,0.0
1734580609.9987226,-48.828125,876.46484375,-1000.0,-140.13671875,0.0
1734580610.0026283,-55.6640625,695.3125,-1000.0,-181.15234375,0.0
1734580610.006534,-47.8515625,842.28515625,-1000.0,-211.9140625,0.0
1734580610.0104399,-41.015625,965.8203125,-1000.0,-192.87109375,0.0
1734580610.0143454,-35.64453125,766.6015625,-1000.0,-141.6015625,0.0
1734580610.0182512,-33.203125,374.0234375,-1000.0,-107.421875,0.0
1734580610.022157,-39.55078125,284.66796875,-1000.0,-120.1171875,0.0
1734580610.0260625,-30.2734375,729.4921875,-1000.0,-151.3671875,0.0
1734580610.0299683,-4.39453125,411.1328125,-1000.0,-144.53125,0.0
1734580610.033874,-6.8359375,-302.734375,-1000.0,-139.6484375,0.0
1734580610.0377796,-23.4375,453.61328125,-1000.0,-162.59765625,0.0
1734580610.0416853,-15.13671875,693.359375,-1000.0,-156.25,0.0
1734580610.0456107,3.41796875,162.59765625,-1000.0,-165.0390625,0.0
1734580610.0495164,-0.48828125,332.51953125,-1000.0,-187.98828125,0.0
1734580610.0534222,-6.8359375,710.9375,-1000.0,-174.8046875,0.0
1734580610.0573277,-22.4609375,604.00390625,-1000.0,-157.71484375,0.0
1734580610.0612335,-15.13671875,103.02734375,-1000.0,-154.78515625,0.0
1734580610.0651393,0.0,-97.16796875,-1000.0,-162.109375,0.0
1734580610.0690448,7.8125,91.30859375,-1000.0,-159.1796875,0.0
1734580610.0729506,18.5546875,418.9453125,-1000.0,-120.1171875,0.0
1734580610.0768564,10.25390625,-371.09375,-1000.0,-107.91015625,0.0
1734580610.0807621,5.859375,-516.11328125,-1000.0,-113.76953125,0.0
1734580610.0846677,12.6953125,398.4375,-1000.0,-111.81640625,0.0
1734580610.0885735,14.6484375,373.53515625,-1000.0,-120.1171875,0.0
1734580610.0924876,10.25390625,159.1796875,-1000.0,-90.8203125,0.0
1734580610.0963933,18.5546875,484.86328125,-1000.0,-55.6640625,0.0
1734580610.1002991,27.34375,383.30078125,-1000.0,-71.77734375,0.0
1734580610.104205,15.13671875,-98.6328125,-1000.0,-121.09375,0.0
1734580610.1081104,14.16015625,-3.41796875,-1000.0,-148.92578125,0.0
1734580610.1120162,17.08984375,-19.04296875,-1000.0,-135.25390625,0.0
1734580610.115922,22.94921875,-30.2734375,-1000.0,-104.98046875,0.0
1734580610.1198275,32.71484375,-191.89453125,-1000.0,-86.42578125,0.0
1734580610.1237333,40.0390625,-641.6015625,-997.0703125,-89.35546875,0.0
1734580610.127639,60.546875,-36.1328125,-992.1875,-100.5859375,0.0
1734580610.1315448,61.5234375,233.3984375,-987.3046875,-75.68359375,0.0
1734580610.1354504,57.12890625,-134.765625,-996.09375,-25.390625,0.0
1734580610.1393538,62.98828125,-126.46484375,-983.88671875,18.5546875,0.0
1734580610.1432595,61.03515625,68.359375,-971.6796875,-36.1328125,0.0
1734580610.1471653,58.10546875,-73.73046875,-971.19140625,-130.859375,0.0
1734580610.151071,29.296875,-418.45703125,-971.19140625,-100.5859375,0.0
1734580610.1549766,16.6015625,-226.07421875,-941.40625,-37.109375,0.0
1734580610.1588824,33.69140625,-238.28125,-934.5703125,-50.78125,0.0
1734580610.1627882,23.4375,-592.7734375,-944.3359375,-57.6171875,0.0
1734580610.1666937,26.3671875,-854.4921875,-983.88671875,-54.6875,0.0
1734580610.1705995,33.203125,-632.32421875,-933.59375,-60.05859375,0.0
1734580610.1745052,23.4375,-461.42578125,-886.23046875,-55.6640625,0.0
1734580610.178411,20.99609375,-459.9609375,-883.7890625,-65.91796875,0.0
1734580610.1823165,19.53125,-468.75,-854.4921875,-64.94140625,0.0
1734580610.186212,27.83203125,-296.875,-840.8203125,-69.3359375,0.0
1734580610.1901178,33.203125,-163.0859375,-816.89453125,-63.96484375,0.0
1734580610.1940234,23.4375,-380.37109375,-849.12109375,-22.4609375,0.0
1734580610.1979291,20.5078125,-481.93359375,-794.921875,-6.34765625,0.0
1734580610.201835,34.1796875,-313.4765625,-761.23046875,-46.875,0.0
1734580610.2057407,53.22265625,-664.0625,-825.68359375,-59.08203125,0.0
1734580610.2096462,41.015625,-958.49609375,-802.734375,-45.41015625,0.0
1734580610.213552,30.2734375,-902.83203125,-754.39453125,-27.83203125,0.0
1734580610.2174578,29.78515625,-708.49609375,-664.55078125,-22.94921875,0.0
1734580610.2213633,31.73828125,-437.5,-578.61328125,-31.73828125,0.0
1734580610.225269,40.52734375,-628.41796875,-650.390625,-33.203125,0.0
1734580610.2291749,37.109375,-735.3515625,-594.23828125,-28.80859375,0.0
1734580610.2330618,34.1796875,-368.1640625,-457.51953125,-17.08984375,0.0
1734580610.2369676,26.85546875,-342.28515625,-469.7265625,-1.46484375,0.0
1734580610.2408733,26.85546875,-744.140625,-570.80078125,3.90625,0.0
1734580610.2447789,29.78515625,-488.28125,-458.49609375,-2.9296875,0.0
1734580610.2486846,24.90234375,-254.8828125,-364.74609375,-9.27734375,0.0
1734580610.2525904,31.73828125,-702.1484375,-458.0078125,-4.8828125,0.0
1734580610.2564962,36.1328125,-985.83984375,-606.4453125,6.8359375,0.0
1734580610.2604017,29.78515625,-635.7421875,-383.7890625,-0.9765625,0.0
1734580610.2643075,46.38671875,-417.96875,-302.24609375,-19.53125,0.0
1734580610.2682133,62.5,-758.7890625,-407.71484375,-47.8515625,0.0
1734580610.2721188,49.31640625,-783.69140625,-273.4375,-22.4609375,0.0
1734580610.2760246,49.8046875,-558.10546875,-195.80078125,-19.04296875,0.0
1734580610.2799015,47.8515625,-222.16796875,11.71875,-38.0859375,0.0
1734580610.2838073,54.19921875,-344.23828125,-68.84765625,-25.87890625,0.0
1734580610.287713,62.5,-578.61328125,-191.89453125,-26.3671875,0.0
1734580610.2916186,52.734375,-294.921875,42.48046875,-45.8984375,0.0
1734580610.2955244,35.15625,-141.11328125,124.0234375,-36.1328125,0.0
1734580610.2994301,24.4140625,-597.65625,-87.890625,-21.484375,0.0
1734580610.3033357,32.71484375,-782.71484375,-168.45703125,-23.4375,0.0
1734580610.3072414,40.52734375,-377.44140625,88.37890625,-33.203125,0.0
1734580610.3111472,43.9453125,-267.578125,132.32421875,-22.94921875,0.0
1734580610.3150527,48.828125,-470.21484375,52.734375,-2.44140625,0.0
1734580610.3189585,33.69140625,-440.4296875,109.86328125,-0.9765625,0.0
1734580610.3228643,34.1796875,-123.53515625,174.31640625,-19.53125,0.0
1734580610.326802,35.15625,-191.89453125,99.12109375,-23.92578125,0.0
1734580610.3307078,31.25,-700.68359375,-19.53125,-5.37109375,0.0
1734580610.3346136,26.85546875,-582.03125,103.515625,10.7421875,0.0
1734580610.338519,28.3203125,-127.44140625,210.44921875,6.34765625,0.0
1734580610.3424249,26.3671875,-185.05859375,144.04296875,-5.859375,0.0
1734580610.3463306,35.15625,-806.640625,-118.1640625,-19.04296875,0.0
1734580610.3502362,32.2265625,-794.43359375,1.953125,-11.71875,0.0
1734580610.354142,14.16015625,-125.48828125,273.92578125,4.8828125,0.0
1734580610.3580477,27.83203125,-239.2578125,151.3671875,20.01953125,0.0
1734580610.3619533,44.43359375,-850.5859375,-223.14453125,20.5078125,0.0
1734580610.365859,45.41015625,-565.91796875,44.43359375,3.90625,0.0
1734580610.3697648,38.0859375,-147.4609375,265.625,-2.9296875,0.0
1734580610.373694,37.109375,-279.78515625,200.1953125,16.6015625,0.0
1734580610.3775995,20.01953125,-393.06640625,240.234375,31.25,0.0
1734580610.3815053,20.99609375,-196.77734375,222.16796875,12.20703125,0.0
1734580610.385411,32.2265625,-220.703125,183.10546875,-11.71875,0.0
1734580610.3893166,28.80859375,-517.578125,125.9765625,-11.23046875,0.0
1734580610.3932223,24.90234375,-764.16015625,149.4140625,11.23046875,0.0
1734580610.397128,9.765625,-593.26171875,189.453125,23.4375,0.0
1734580610.4010339,21.484375,-131.34765625,285.15625,21.97265625,0.0
1734580610.4049394,35.64453125,-455.56640625,73.73046875,15.625,0.0
1734580610.4088452,42.96875,-809.08203125,-64.94140625,14.16015625,0.0
1734580610.412751,28.3203125,-243.65234375,252.9296875,15.13671875,0.0
1734580610.4166565,17.08984375,-54.6875,289.55078125,13.671875,0.0
1734580610.4205801,35.15625,-463.8671875,166.50390625,18.5546875,0.0
1734580610.4244857,53.7109375,-403.80859375,227.5390625,21.484375,0.0
1734580610.4283915,56.640625,-116.69921875,266.11328125,12.6953125,0.0
1734580610.4322972,36.62109375,-158.203125,239.2578125,1.46484375,0.0
1734580610.4362028,18.5546875,-491.69921875,160.15625,13.18359375,0.0
1734580610.4401085,17.578125,-640.625,147.4609375,13.18359375,0.0
1734580610.4440143,18.5546875,-666.50390625,161.1328125,-19.53125,0.0
1734580610.4479198,7.8125,-692.3828125,105.46875,-39.55078125,0.0
1734580610.4518256,19.53125,-907.2265625,-111.328125,4.39453125,0.0
1734580610.4557314,26.3671875,-716.796875,129.39453125,50.78125,0.0
1734580610.4596372,22.94921875,-89.84375,354.98046875,42.96875,0.0
1734580610.4635427,35.15625,-198.2421875,247.0703125,13.18359375,0.0
1734580610.467459,53.22265625,-461.42578125,257.8125,-1.953125,0.0
1734580610.4713647,55.6640625,-163.57421875,312.01171875,20.5078125,0.0
1734580610.4752705,41.9921875,15.625,305.6640625,60.05859375,0.0
1734580610.479176,39.55078125,-209.47265625,252.44140625,48.828125,0.0
1734580610.4830818,59.5703125,-436.03515625,260.25390625,10.25390625,0.0
1734580610.4869876,47.8515625,-512.20703125,211.9140625,-29.296875,0.0
1734580610.4908934,14.16015625,-508.30078125,288.0859375,-17.578125,0.0
1734580610.494799,20.01953125,-567.87109375,254.39453125,11.71875,0.0
1734580610.4987047,25.390625,-735.83984375,147.4609375,-1.46484375,0.0
1734580610.5026104,8.30078125,-322.265625,331.0546875,-22.4609375,0.0
1734580610.506516,11.71875,-394.04296875,329.1015625,-15.625,0.0
1734580610.5104218,16.11328125,-571.77734375,356.93359375,-6.34765625,0.0
1734580610.5143263,5.859375,-216.30859375,433.10546875,-3.41796875,0.0
1734580610.5182319,4.39453125,66.40625,473.6328125,22.4609375,0.0
1734580610.5221376,10.25390625,-92.28515625,433.59375,19.04296875,0.0
1734580610.5260434,3.90625,-465.33203125,348.14453125,-5.37109375,0.0
1734580610.5299492,-0.9765625,-319.3359375,421.38671875,7.32421875,0.0
1734580610.5338547,0.9765625,-355.46875,442.87109375,21.97265625,0.0
1734580610.5377605,-0.48828125,-564.453125,389.6484375,34.66796875,0.0
1734580610.5416663,6.34765625,-803.7109375,266.11328125,39.0625,0.0
1734580610.5455718,11.23046875,-546.875,413.0859375,22.4609375,0.0
1734580610.5494776,3.41796875,-292.96875,490.234375,10.7421875,0.0
1734580610.5533834,-6.8359375,-265.13671875,496.58203125,25.87890625,0.0
1734580610.5572891,-9.765625,-229.98046875,523.92578125,42.96875,0.0
1734580610.5611851,-7.8125,-248.53515625,496.09375,28.80859375,0.0
1734580610.5650907,3.90625,-160.15625,508.7890625,22.4609375,0.0
1734580610.5689964,10.25390625,-169.921875,511.23046875,20.5078125,0.0
1734580610.5729022,11.71875,-164.0625,534.1796875,8.7890625,0.0
1734580610.5768077,3.90625,46.875,525.390625,21.484375,0.0
1734580610.5807135,5.37109375,-215.8203125,507.32421875,29.296875,0.0
1734580610.5846193,18.5546875,-600.09765625,397.4609375,13.671875,0.0
1734580610.5885248,13.18359375,-779.78515625,293.9453125,19.04296875,0.0
1734580610.5924306,1.46484375,-124.51171875,525.87890625,39.55078125,0.0
1734580610.5963364,-3.90625,189.94140625,553.22265625,40.52734375,0.0
1734580610.6002421,3.90625,-239.2578125,465.8203125,36.62109375,0.0
1734580610.6041477,10.7421875,-177.24609375,507.8125,13.671875,0.0
1734580610.6080334,12.20703125,41.9921875,530.2734375,-6.8359375,0.0
1734580610.6119392,12.20703125,29.78515625,520.01953125,25.390625,0.0
1734580610.615845,10.7421875,-322.265625,467.7734375,52.24609375,0.0
1734580610.6197505,7.32421875,-416.9921875,462.890625,36.1328125,0.0
1734580610.6236563,14.6484375,-64.94140625,526.3671875,14.16015625,0.0
1734580610.627562,9.765625,-362.79296875,430.6640625,4.8828125,0.0
1734580610.6314676,-9.27734375,-916.9921875,296.38671875,20.01953125,0.0
1734580610.6353734,-9.765625,-500.0,469.7265625,23.4375,0.0
1734580610.6392791,2.44140625,-32.71484375,546.38671875,25.390625,0.0
1734580610.643185,8.7890625,-412.59765625,423.33984375,33.69140625,0.0
1734580610.6470904,17.578125,-514.6484375,427.24609375,24.90234375,0.0
1734580610.6509962,9.765625,-180.17578125,512.20703125,17.08984375,0.0
1734580610.6548743,9.765625,48.828125,515.625,20.01953125,0.0
1734580610.6587799,14.6484375,-50.29296875,496.09375,8.30078125,0.0
1734580610.6626856,20.5078125,-265.13671875,476.5625,-12.20703125,0.0
1734580610.6665914,35.64453125,-104.00390625,466.796875,-21.97265625,0.0
1734580610.670497,17.578125,44.921875,492.67578125,-13.18359375,0.0
1734580610.6744027,17.578125,-396.97265625,379.8828125,14.6484375,0.0
1734580610.6783085,39.0625,-799.8046875,299.31640625,33.203125,0.0
1734580610.6822143,34.66796875,-379.8828125,431.640625,24.90234375,0.0
1734580610.6861198,20.01953125,15.13671875,457.03125,9.27734375,0.0
1734580610.6900256,9.765625,-302.24609375,362.3046875,23.92578125,0.0
1734580610.6939313,10.7421875,-331.0546875,402.34375,54.6875,0.0
1734580610.6978369,12.20703125,107.421875,479.98046875,57.12890625,0.0
1734580610.701779,10.25390625,98.14453125,434.08203125,35.15625,0.0
1734580610.7056847,9.765625,-333.984375,373.53515625,20.99609375,0.0
1734580610.7095904,17.08984375,-274.4140625,393.06640625,30.76171875,0.0
1734580610.7134962,17.08984375,56.15234375,451.171875,51.26953125,0.0
1734580610.7174017,17.578125,30.2734375,403.80859375,34.1796875,0.0
1734580610.7213075,28.3203125,-643.5546875,216.796875,-6.8359375,0.0
1734580610.7252133,35.15625,-632.32421875,299.31640625,-28.3203125,0.0
1734580610.7291188,40.52734375,-7.8125,444.3359375,-28.3203125,0.0
1734580610.7330246,22.4609375,-82.51953125,347.16796875,12.6953125,0.0
1734580610.7369304,-1.953125,-804.6875,122.0703125,29.78515625,0.0
1734580610.7408361,-11.23046875,-673.33984375,292.96875,10.25390625,0.0
1734580610.7447417,2.9296875,12.6953125,416.9921875,-17.08984375,0.0
1734580610.7486725,2.44140625,-127.9296875,356.4453125,-39.55078125,0.0
1734580610.7525783,-1.953125,-403.80859375,375.9765625,-4.39453125,0.0
1734580610.756484,15.625,-126.953125,386.23046875,40.52734375,0.0
1734580610.7603896,0.0,-1.46484375,363.28125,33.203125,0.0
1734580610.7642953,-7.8125,-271.97265625,302.24609375,17.578125,0.0
1734580610.768201,-5.859375,-742.1875,249.0234375,22.94921875,0.0
1734580610.7721066,-27.34375,-577.63671875,304.6875,50.29296875,0.0
1734580610.7760124,-32.2265625,15.625,402.83203125,18.5546875,0.0
1734580610.7799182,-36.1328125,-307.12890625,246.58203125,-61.5234375,0.0
1734580610.7838237,-56.15234375,-751.46484375,135.7421875,-68.359375,0.0
1734580610.7877295,-36.62109375,-245.1171875,315.91796875,-63.4765625,0.0
1734580610.7916353,-41.015625,-246.58203125,297.36328125,-45.41015625,0.0
1734580610.7955573,-92.28515625,-530.76171875,298.33984375,-25.87890625,0.0
1734580610.7994628,-106.93359375,-227.05078125,349.12109375,-51.7578125,0.0
1734580610.8033686,-86.42578125,-2.44140625,341.796875,-65.4296875,0.0
1734580610.8072743,-79.1015625,-144.04296875,304.19921875,-93.75,0.0
1734580610.81118,-92.28515625,-443.84765625,226.5625,-80.078125,0.0
1734580610.8150856,-78.125,-521.484375,242.1875,-42.48046875,0.0
1734580610.8189914,-60.05859375,-345.703125,311.03515625,-44.921875,0.0
1734580610.8228972,-64.94140625,-154.78515625,287.109375,-46.875,0.0
1734580610.8268027,-62.98828125,-757.32421875,-80.078125,-52.24609375,0.0
1734580610.8307085,-72.75390625,-731.93359375,126.46484375,-48.33984375,0.0
1734580610.8346143,-69.82421875,14.16015625,402.34375,-29.296875,0.0
1734580610.83852,-68.359375,-5.859375,313.4765625,-37.109375,0.0
1734580610.8424315,-57.12890625,-266.11328125,300.29296875,-52.734375,0.0
1734580610.8463373,-36.1328125,-95.21484375,301.26953125,-66.89453125,0.0
1734580610.850243,-46.38671875,-246.09375,250.0,-47.8515625,0.0
1734580610.8541486,-56.15234375,-351.5625,252.9296875,-9.27734375,0.0
1734580610.8580544,-46.38671875,-165.52734375,320.80078125,0.0,0.0
1734580610.8619602,-36.62109375,-310.546875,216.30859375,-20.99609375,0.0
1734580610.8658657,-20.99609375,-453.61328125,173.828125,-26.85546875,0.0
1734580610.8697715,-9.27734375,-526.3671875,149.4140625,-10.7421875,0.0
1734580610.8736773,-31.25,-688.4765625,55.6640625,-6.34765625,0.0
1734580610.877583,-37.109375,20.5078125,317.87109375,-13.671875,0.0
1734580610.8814886,-28.3203125,274.90234375,308.10546875,-21.484375,0.0
1734580610.8853943,-24.4140625,-254.8828125,170.41015625,-34.1796875,0.0
1734580610.8892972,-30.76171875,-155.76171875,245.60546875,-39.55078125,0.0
1734580610.893203,-28.3203125,243.65234375,319.3359375,-20.99609375,0.0
1734580610.8971088,-19.04296875,211.9140625,274.90234375,-14.16015625,0.0
1734580610.9010143,-12.6953125,-205.56640625,136.71875,-26.85546875,0.0
1734580610.90492,-2.9296875,-299.8046875,140.13671875,-32.71484375,0.0
1734580610.9088259,-4.39453125,-310.05859375,184.5703125,-30.2734375,0.0
1734580610.9127316,-14.6484375,-419.43359375,150.390625,-22.4609375,0.0
1734580610.9166372,-20.99609375,-728.515625,-71.77734375,-4.39453125,0.0
1734580610.920543,-23.92578125,-552.734375,103.02734375,-6.8359375,0.0
1734580610.9244487,-15.625,-245.1171875,220.21484375,-15.13671875,0.0
1734580610.9283543,1.953125,-108.88671875,191.40625,13.18359375,0.0
1734580610.93226,13.671875,-129.39453125,228.02734375,30.76171875,0.0
1734580610.936156,-3.41796875,115.72265625,263.671875,-21.484375,0.0
1734580610.9400616,-17.578125,272.4609375,253.41796875,-70.3125,0.0
1734580610.9439673,-24.4140625,-73.2421875,165.52734375,-83.49609375,0.0
1734580610.947873,-30.2734375,-203.61328125,194.3359375,-85.44921875,0.0
1734580610.951779,-38.57421875,67.87109375,216.30859375,-74.70703125,0.0
1734580610.9556844,-36.1328125,-90.8203125,183.10546875,-52.24609375,0.0
1734580610.9595902,-42.96875,-451.171875,45.41015625,-43.45703125,0.0
1734580610.963496,-57.12890625,-808.10546875,-161.1328125,-60.546875,0.0
1734580610.9674015,-46.875,-230.46875,159.1796875,-87.890625,0.0
1734580610.9713073,-43.45703125,274.90234375,289.55078125,-74.21875,0.0
1734580610.975213,-38.57421875,-38.0859375,161.1328125,-44.921875,0.0
1734580610.9791186,-25.390625,-50.78125,198.2421875,-38.57421875,0.0
1734580610.9830058,-33.203125,155.2734375,235.83984375,-37.59765625,0.0
1734580610.9869115,-26.3671875,87.890625,163.0859375,-31.25,0.0
1734580610.9908173,-19.04296875,-294.43359375,92.28515625,-20.5078125,0.0
1734580610.9947228,-10.7421875,-76.66015625,198.2421875,-3.41796875,0.0
1734580610.9986286,-0.9765625,180.17578125,239.2578125,-2.9296875,0.0
1734580611.0025344,-9.27734375,-281.25,101.07421875,-24.4140625,0.0
1734580611.00644,0.9765625,-854.4921875,-163.0859375,-32.71484375,0.0
1734580611.0103457,-5.37109375,-409.1796875,95.703125,-18.5546875,0.0
1734580611.0142515,-15.625,157.2265625,276.85546875,-8.30078125,0.0
1734580611.018157,-17.578125,-263.18359375,111.81640625,1.953125,0.0
1734580611.0220628,-12.20703125,-468.75,96.6796875,-11.71875,0.0
1734580611.0259686,5.859375,-64.453125,194.82421875,-22.94921875,0.0
1734580611.0298495,0.9765625,212.890625,229.4921875,-8.30078125,0.0
1734580611.033755,-6.8359375,56.15234375,197.75390625,22.94921875,0.0
1734580611.0376608,7.32421875,-118.1640625,202.63671875,48.33984375,0.0
1734580611.0415666,9.27734375,104.98046875,208.0078125,40.0390625,0.0
1734580611.0454721,11.71875,229.4921875,225.5859375,17.08984375,0.0
1734580611.049378,13.671875,-255.859375,73.73046875,25.87890625,0.0
1734580611.0532837,7.32421875,-574.70703125,-8.30078125,48.33984375,0.0
1734580611.0571895,6.8359375,12.6953125,235.83984375,17.578125,0.0
1734580611.061095,5.37109375,254.39453125,245.60546875,-17.08984375,0.0
1734580611.0650008,17.08984375,-92.28515625,104.98046875,-12.6953125,0.0
1734580611.0689065,12.20703125,-159.1796875,166.015625,47.36328125,0.0
1734580611.072812,5.37109375,117.67578125,256.34765625,72.265625,0.0
1734580611.076753,27.83203125,176.7578125,222.16796875,13.18359375,0.0
1734580611.0806587,39.55078125,-189.94140625,140.625,-27.83203125,0.0
1734580611.0845644,38.57421875,-82.03125,178.22265625,-24.4140625,0.0
1734580611.08847,16.11328125,229.98046875,241.2109375,-20.01953125,0.0
1734580611.0923758,6.8359375,211.42578125,223.6328125,6.8359375,0.0
1734580611.0962815,11.71875,-384.765625,20.99609375,18.06640625,0.0
1734580611.1001873,3.41796875,-494.62890625,58.10546875,6.34765625,0.0
1734580611.1040928,17.08984375,95.21484375,240.234375,2.9296875,0.0
1734580611.1079986,23.92578125,-26.85546875,125.48828125,-4.39453125,0.0
1734580611.1119044,-12.6953125,-775.87890625,-212.40234375,14.16015625,0.0
1734580611.11581,-17.578125,-328.125,86.9140625,35.64453125,0.0
1734580611.1197157,5.37109375,306.15234375,281.73828125,26.3671875,0.0
1734580611.1236484,12.6953125,32.2265625,145.01953125,7.32421875,0.0
1734580611.127554,24.4140625,-153.3203125,205.56640625,3.41796875,0.0
1734580611.1314597,18.5546875,95.703125,230.46875,41.50390625,0.0
1734580611.1353655,7.32421875,-23.92578125,162.59765625,51.26953125,0.0
1734580611.1392713,6.34765625,-353.515625,129.8828125,29.296875,0.0
1734580611.1431768,31.73828125,-477.5390625,113.76953125,25.87890625,0.0
1734580611.1470826,53.22265625,-311.03515625,119.140625,22.94921875,0.0
1734580611.1509883,23.4375,152.83203125,252.9296875,45.41015625,0.0
1734580611.1548939,1.46484375,-198.2421875,56.15234375,58.10546875,0.0
1734580611.1587996,16.11328125,-705.078125,-108.3984375,36.62109375,0.0
1734580611.1627054,30.76171875,-76.66015625,191.89453125,18.06640625,0.0
1734580611.1666112,38.0859375,141.11328125,186.03515625,17.578125,0.0
1734580611.170532,33.69140625,-238.28125,104.4921875,32.71484375,0.0
1734580611.1744378,22.94921875,-75.68359375,212.40234375,39.0625,0.0
1734580611.1783433,22.4609375,215.33203125,255.859375,28.80859375,0.0
1734580611.182249,22.4609375,128.41796875,187.01171875,13.671875,0.0
1734580611.1861548,11.23046875,-267.08984375,63.4765625,21.484375,0.0
1734580611.1900606,9.27734375,-522.4609375,54.19921875,41.50390625,0.0
1734580611.1939662,8.30078125,-419.43359375,132.32421875,72.75390625,0.0
1734580611.197872,19.04296875,-356.93359375,120.1171875,89.84375,0.0
1734580611.2017777,32.71484375,-804.19921875,-197.265625,32.2265625,0.0
1734580611.2056832,21.97265625,-763.671875,-46.875,-24.90234375,0.0
1734580611.209589,14.6484375,-93.75,236.328125,-2.44140625,0.0
1734580611.2134948,8.7890625,33.203125,206.54296875,19.04296875,0.0
1734580611.2174098,9.27734375,-128.41796875,214.35546875,22.4609375,0.0
1734580611.2213156,12.6953125,89.35546875,215.33203125,21.97265625,0.0
1734580611.2252214,13.671875,159.1796875,171.38671875,2.9296875,0.0
1734580611.229127,9.765625,-123.53515625,147.94921875,23.4375,0.0
1734580611.2330327,5.37109375,-197.265625,198.73046875,62.98828125,0.0
1734580611.2369385,-5.859375,-312.98828125,124.51171875,70.3125,0.0
1734580611.240844,0.48828125,-275.390625,152.83203125,24.4140625,0.0
1734580611.2447498,10.7421875,-262.6953125,48.828125,0.48828125,0.0
1734580611.2486556,2.9296875,-760.7421875,-147.94921875,6.8359375,0.0
1734580611.252561,-7.32421875,-379.39453125,172.36328125,15.625,0.0
1734580611.2564669,-14.16015625,81.54296875,264.16015625,40.0390625,0.0
1734580611.2603726,-14.6484375,-185.546875,163.57421875,27.34375,0.0
1734580611.2642791,-8.7890625,-167.48046875,195.80078125,10.7421875,0.0
1734580611.268185,-2.44140625,73.73046875,220.703125,-22.4609375,0.0
1734580611.2720904,-8.30078125,61.03515625,214.84375,-19.53125,0.0
1734580611.2759962,-12.6953125,-229.00390625,151.85546875,12.6953125,0.0
1734580611.279902,-1.46484375,-125.9765625,193.84765625,18.5546875,0.0
1734580611.2838075,-5.859375,-237.3046875,152.83203125,11.23046875,0.0
1734580611.2877133,3.90625,-617.1875,63.96484375,-2.44140625,0.0
1734580611.291619,13.671875,-814.94140625,-114.2578125,13.18359375,0.0
1734580611.2955248,-15.13671875,-616.2109375,77.63671875,7.32421875,0.0
1734580611.2994304,-23.92578125,-296.875,241.69921875,-2.9296875,0.0
1734580611.3033361,-2.9296875,-139.6484375,211.42578125,9.27734375,0.0
1734580611.307242,-0.9765625,-421.875,154.296875,-4.8828125,0.0
1734580611.311138,-18.06640625,-338.37890625,209.47265625,7.32421875,0.0
1734580611.3150437,-25.87890625,154.78515625,288.57421875,29.296875,0.0
1734580611.3189492,-7.8125,-27.34375,231.4453125,15.13671875,0.0
1734580611.322855,-0.48828125,-236.81640625,255.859375,-6.8359375,0.0
1734580611.3267608,7.32421875,-118.1640625,221.19140625,7.8125,0.0
1734580611.3306665,9.765625,-273.4375,222.65625,20.99609375,0.0
1734580611.334572,-4.39453125,-518.5546875,152.34375,36.1328125,0.0
1734580611.3384778,-10.7421875,-736.328125,-10.25390625,68.84765625,0.0
1734580611.3423836,0.0,-160.64453125,275.390625,59.5703125,0.0
1734580611.3462892,12.20703125,140.13671875,330.56640625,45.8984375,0.0
1734580611.350195,6.34765625,-220.703125,221.19140625,35.15625,0.0
1734580611.3541007,7.32421875,-147.4609375,309.08203125,8.7890625,0.0
1734580611.357988,9.27734375,183.10546875,359.86328125,-6.34765625,0.0
1734580611.361894,9.27734375,68.84765625,295.41015625,-10.25390625,0.0
1734580611.3657997,22.4609375,-483.3984375,183.59375,-3.90625,0.0
1734580611.3697052,29.296875,-282.71484375,277.83203125,1.953125,0.0
1734580611.373611,7.8125,107.421875,365.72265625,25.87890625,0.0
1734580611.3775167,-3.41796875,-237.3046875,268.5546875,35.64453125,0.0
1734580611.3814223,14.6484375,-822.265625,83.0078125,40.52734375,0.0
1734580611.385328,23.4375,-411.1328125,291.015625,28.3203125,0.0
1734580611.3892338,24.90234375,147.4609375,401.3671875,24.90234375,0.0
1734580611.3931396,3.90625,-256.8359375,273.92578125,39.55078125,0.0
1734580611.3970451,-14.6484375,-279.78515625,321.77734375,26.3671875,0.0
1734580611.400951,-10.7421875,62.5,373.53515625,18.5546875,0.0
1734580611.4048302,4.39453125,190.91796875,361.81640625,11.71875,0.0
1734580611.4087358,16.6015625,43.45703125,350.09765625,15.625,0.0
1734580611.4126415,10.7421875,-112.3046875,344.23828125,43.45703125,0.0
1734580611.4165473,-1.953125,118.65234375,356.4453125,45.8984375,0.0
1734580611.4204528,4.39453125,162.59765625,358.3984375,24.4140625,0.0
1734580611.4243586,23.4375,-328.61328125,190.91796875,20.5078125,0.0
1734580611.4282644,17.578125,-812.98828125,43.9453125,28.3203125,0.0
1734580611.43217,10.7421875,-371.58203125,287.109375,40.52734375,0.0
1734580611.4360757,3.90625,186.5234375,377.9296875,55.6640625,0.0
1734580611.4399815,-0.48828125,-153.80859375,229.4921875,61.5234375,0.0
1734580611.4438872,9.27734375,-283.203125,262.20703125,51.7578125,0.0
1734580611.4477928,25.390625,95.703125,343.75,30.76171875,0.0
1734580611.4517324,24.90234375,133.30078125,310.05859375,30.2734375,0.0
1734580611.455638,12.6953125,-217.7734375,266.11328125,28.3203125,0.0
1734580611.4595437,22.94921875,-213.8671875,294.43359375,7.32421875,0.0
1734580611.4634495,29.296875,75.68359375,303.22265625,4.39453125,0.0
1734580611.4673553,34.1796875,41.015625,279.296875,16.6015625,0.0
1734580611.4712608,14.6484375,-560.546875,124.51171875,35.64453125,0.0
1734580611.4751666,-4.8828125,-484.86328125,195.80078125,40.0390625,0.0
1734580611.4790723,7.32421875,-19.53125,324.21875,25.390625,0.0
1734580611.4829779,20.5078125,-403.80859375,157.2265625,12.6953125,0.0
1734580611.4868836,33.69140625,-840.33203125,-108.3984375,-1.46484375,0.0
1734580611.4907894,32.71484375,-367.1875,167.48046875,12.6953125,0.0
1734580611.494695,23.4375,-23.4375,315.4296875,34.66796875,0.0
1734580611.4986277,21.97265625,-167.48046875,239.2578125,35.15625,0.0
1734580611.5025334,23.92578125,-223.14453125,280.2734375,33.203125,0.0
1734580611.506439,38.57421875,47.36328125,290.52734375,16.11328125,0.0
1734580611.5103447,43.9453125,217.7734375,286.62109375,19.53125,0.0
1734580611.5142505,48.33984375,-5.859375,226.5625,46.38671875,0.0
1734580611.518156,39.55078125,-436.5234375,158.69140625,39.55078125,0.0
1734580611.5220618,44.43359375,-390.13671875,151.85546875,6.34765625,0.0
1734580611.5259676,53.7109375,34.66796875,234.375,-8.7890625,0.0
1734580611.5298731,49.31640625,-263.671875,62.98828125,5.859375,0.0
1734580611.533779,24.90234375,-719.23828125,-92.7734375,39.0625,0.0
1734580611.5376847,13.18359375,-261.23046875,170.8984375,33.203125,0.0
1734580611.5415905,30.2734375,-80.56640625,193.84765625,10.7421875,0.0
1734580611.545514,37.109375,-281.25,101.5625,-3.90625,0.0
1734580611.5494199,24.4140625,-94.7265625,186.03515625,21.484375,0.0
1734580611.5533254,9.765625,191.40625,236.328125,62.5,0.0
1734580611.5572312,-4.8828125,89.84375,166.50390625,65.91796875,0.0
1734580611.561137,10.25390625,-281.73828125,26.85546875,41.50390625,0.0
1734580611.5650427,46.875,-547.8515625,-16.11328125,-41.50390625,0.0
1734580611.5689483,48.828125,-351.5625,79.58984375,-61.03515625,0.0
1734580611.572854,29.78515625,-97.65625,122.55859375,-17.08984375,0.0
1734580611.5767598,31.73828125,-773.4375,-341.30859375,4.39453125,0.0
1734580611.5806653,41.015625,-780.76171875,-229.00390625,14.6484375,0.0
1734580611.5845711,47.36328125,-79.58984375,145.99609375,21.97265625,0.0
1734580611.588477,47.8515625,-183.59375,11.71875,36.1328125,0.0
1734580611.5923913,40.0390625,-431.15234375,-50.78125,17.08984375,0.0
1734580611.596297,30.2734375,-382.8125,-19.04296875,5.859375,0.0
1734580611.6002028,35.64453125,-156.73828125,57.6171875,9.27734375,0.0
1734580611.6041083,50.29296875,-163.0859375,-50.78125,-20.01953125,0.0
1734580611.608014,63.4765625,-355.95703125,-166.50390625,-18.06640625,0.0
1734580611.6119199,52.734375,-525.87890625,-256.34765625,13.18359375,0.0
1734580611.6158257,50.78125,-386.23046875,-163.57421875,25.87890625,0.0
1734580611.6197312,57.6171875,-351.07421875,-155.2734375,11.23046875,0.0
1734580611.623637,56.15234375,-770.5078125,-425.29296875,9.765625,0.0
1734580611.6275427,72.75390625,-233.88671875,-154.78515625,16.6015625,0.0
1734580611.6314483,68.84765625,55.17578125,40.52734375,10.25390625,0.0
1734580611.635354,42.48046875,-243.65234375,-90.8203125,14.16015625,0.0
1734580611.63926,37.59765625,-143.5546875,-53.7109375,24.4140625,0.0
1734580611.6431658,44.43359375,87.40234375,33.69140625,6.34765625,0.0
1734580611.6470716,40.0390625,4.39453125,-41.015625,-9.765625,0.0
1734580611.6509774,22.94921875,-435.05859375,-316.40625,11.23046875,0.0
1734580611.654883,13.18359375,-497.55859375,-332.03125,24.4140625,0.0
1734580611.6587887,24.4140625,-364.74609375,-229.98046875,12.6953125,0.0
1734580611.6626945,35.64453125,-477.5390625,-280.2734375,-15.625,0.0
1734580611.6666,44.921875,-791.50390625,-473.6328125,-5.37109375,0.0
1734580611.6705058,58.59375,-670.41015625,-360.83984375,7.8125,0.0
1734580611.6744115,67.3828125,-280.2734375,-137.20703125,12.20703125,0.0
1734580611.6783173,65.91796875,-118.65234375,-41.50390625,12.6953125,0.0
1734580611.6822228,72.75390625,-225.5859375,-104.4921875,-11.23046875,0.0
1734580611.6861205,70.80078125,-64.453125,-52.734375,-19.04296875,0.0
1734580611.6900263,58.59375,110.83984375,58.59375,6.34765625,0.0
1734580611.6939318,80.078125,-51.7578125,-51.26953125,26.85546875,0.0
1734580611.6978376,95.703125,-176.7578125,-129.39453125,17.578125,0.0
1734580611.7017434,78.125,-19.04296875,-38.0859375,-32.71484375,0.0
1734580611.7056491,69.3359375,-260.7421875,-208.984375,-70.80078125,0.0
1734580611.7095547,66.89453125,-649.90234375,-337.890625,-65.91796875,0.0
1734580611.7134604,38.0859375,-795.8984375,-383.30078125,-55.6640625,0.0
1734580611.7173662,13.671875,-164.0625,-54.19921875,-98.6328125,0.0
1734580611.7212718,11.71875,162.109375,83.0078125,-139.6484375,0.0
1734580611.7251775,-16.6015625,-275.390625,-178.22265625,-167.96875,0.0
1734580611.7290833,-56.15234375,-286.62109375,-150.87890625,-188.96484375,0.0
1734580611.732972,-77.1484375,124.0234375,59.5703125,-195.3125,0.0
1734580611.7368777,-132.32421875,77.1484375,-19.53125,-243.1640625,0.0
1734580611.7407832,-155.76171875,-297.36328125,-244.140625,-289.55078125,0.0
1734580611.744689,-173.33984375,-92.28515625,-65.4296875,-317.3828125,0.0
1734580611.7485948,-204.1015625,171.38671875,123.046875,-328.61328125,0.0
1734580611.7525005,-224.12109375,-116.69921875,-1.953125,-322.75390625,0.0
1734580611.756406,-234.375,-754.39453125,-307.6171875,-306.15234375,0.0
1734580611.7603118,-234.86328125,-460.9375,-97.65625,-328.61328125,0.0
1734580611.7642176,-206.0546875,89.35546875,174.8046875,-365.234375,0.0
1734580611.7681231,-179.19921875,-344.7265625,29.78515625,-372.55859375,0.0
1734580611.772029,-174.8046875,-459.47265625,72.265625,-338.8671875,0.0
1734580611.7759347,-154.296875,64.453125,264.6484375,-317.87109375,0.0
1734580611.7798142,-136.71875,292.96875,289.0625,-310.05859375,0.0
1734580611.78372,-100.09765625,9.27734375,240.72265625,-276.3671875,0.0
1734580611.7876258,-78.61328125,-180.6640625,308.10546875,-272.4609375,0.0
1734580611.7915316,-82.03125,85.44921875,334.47265625,-257.8125,0.0
1734580611.795437,-67.3828125,239.74609375,345.703125,-222.16796875,0.0
1734580611.7993429,-46.38671875,-258.7890625,238.28125,-201.66015625,0.0
1734580611.8032486,-21.484375,-742.67578125,112.79296875,-187.98828125,0.0
1734580611.8071542,0.48828125,-224.609375,314.94140625,-177.24609375,0.0
1734580611.81106,9.765625,132.32421875,386.23046875,-148.4375,0.0
1734580611.8149657,11.71875,-232.91015625,275.390625,-129.8828125,0.0
1734580611.8188713,23.92578125,-259.765625,328.125,-114.74609375,0.0
1734580611.822777,61.03515625,-30.76171875,356.4453125,-109.375,0.0
1734580611.8267193,78.61328125,-316.40625,274.90234375,-98.6328125,0.0
1734580611.830625,65.4296875,-472.65625,313.4765625,-73.2421875,0.0
1734580611.8345308,76.66015625,-124.51171875,363.28125,-54.19921875,0.0
1734580611.8384364,100.09765625,146.97265625,369.140625,-39.0625,0.0
1734580611.8423421,110.83984375,40.52734375,326.66015625,-40.0390625,0.0
1734580611.846248,97.65625,-578.61328125,154.78515625,-49.31640625,0.0
1734580611.8501534,101.07421875,-543.45703125,223.14453125,-6.8359375,0.0
1734580611.8540592,106.4453125,139.16015625,386.23046875,16.11328125,0.0
1734580611.857965,117.1875,36.62109375,294.43359375,8.30078125,0.0
1734580611.8618708,138.18359375,-756.8359375,-94.7265625,17.578125,0.0
1734580611.8657763,143.5546875,-414.0625,167.48046875,0.48828125,0.0
1734580611.869682,155.76171875,243.1640625,409.66796875,4.8828125,0.0
1734580611.873616,167.96875,84.47265625,306.640625,33.69140625,0.0
1734580611.8775218,159.1796875,-102.5390625,317.3828125,50.78125,0.0
1734580611.8814275,167.48046875,-89.35546875,259.27734375,44.43359375,0.0
1734580611.885333,171.875,-188.4765625,198.2421875,31.25,0.0
1734580611.8892388,162.59765625,-125.9765625,226.5625,57.6171875,0.0
1734580611.8931446,159.66796875,-404.296875,185.546875,80.56640625,0.0
1734580611.8970504,171.875,-272.94921875,207.51953125,81.54296875,0.0
1734580611.900956,187.01171875,132.32421875,251.46484375,83.0078125,0.0
1734580611.9048617,184.08203125,-258.30078125,36.62109375,71.2890625,0.0
1734580611.9087675,178.22265625,-686.5234375,-109.86328125,90.33203125,0.0
1734580611.912673,165.0390625,-12.20703125,213.8671875,109.375,0.0
1734580611.9165788,152.83203125,124.0234375,219.7265625,91.796875,0.0
1734580611.9205036,158.69140625,-267.578125,75.1953125,72.75390625,0.0
1734580611.9244094,169.43359375,-103.515625,131.34765625,67.3828125,0.0
1734580611.9283152,165.0390625,171.38671875,166.9921875,83.984375,0.0
1734580611.9322207,155.2734375,159.1796875,115.72265625,107.421875,0.0
1734580611.9361265,148.4375,-268.5546875,-44.43359375,93.75,0.0
1734580611.9400322,156.73828125,-504.39453125,-82.03125,65.4296875,0.0
1734580611.9439378,158.69140625,-433.10546875,-121.58203125,65.91796875,0.0
1734580611.9478436,145.99609375,-421.875,-188.4765625,87.40234375,0.0
1734580611.9517493,133.30078125,-819.3359375,-429.19921875,108.88671875,0.0
1734580611.955655,109.86328125,-630.37109375,-252.9296875,91.30859375,0.0
1734580611.9595606,117.1875,150.390625,132.8125,61.5234375,0.0
1734580611.9634664,145.01953125,62.98828125,-39.55078125,68.359375,0.0
1734580611.9673817,143.06640625,-210.44921875,-152.34375,75.1953125,0.0
1734580611.9712875,103.02734375,116.69921875,10.25390625,79.1015625,0.0
1734580611.975193,95.21484375,266.11328125,42.48046875,81.54296875,0.0
1734580611.9790988,105.95703125,1.46484375,-138.671875,77.63671875,0.0
1734580611.9830046,119.140625,-156.73828125,-303.22265625,67.3828125,0.0
1734580611.98691,125.48828125,-353.515625,-356.4453125,53.7109375,0.0
1734580611.9908159,114.74609375,-179.6875,-289.0625,67.3828125,0.0
1734580611.9947217,100.09765625,-176.7578125,-376.46484375,75.1953125,0.0
1734580611.9986274,91.796875,-759.765625,-520.99609375,79.1015625,0.0
1734580612.002533,112.3046875,-125.48828125,-287.59765625,58.10546875,0.0
1734580612.0064387,116.69921875,270.01953125,-281.25,28.80859375,0.0
1734580612.0103445,86.9140625,-141.11328125,-397.94921875,39.55078125,0.0
1734580612.014251,95.21484375,-47.36328125,-306.640625,62.5,0.0
1734580612.0181565,91.30859375,318.84765625,-251.953125,54.19921875,0.0
1734580612.0220623,72.75390625,237.3046875,-332.03125,33.203125,0.0
1734580612.025968,86.9140625,-149.4140625,-486.81640625,24.4140625,0.0
1734580612.0298738,77.1484375,-60.546875,-414.0625,36.62109375,0.0
1734580612.0337794,51.7578125,-180.17578125,-405.76171875,48.828125,0.0
1734580612.0376852,54.19921875,-372.55859375,-479.98046875,59.08203125,0.0
1734580612.041591,72.75390625,-693.84765625,-640.625,70.3125,0.0
1734580612.0454965,59.08203125,-587.890625,-527.34375,31.25,0.0
1734580612.0494022,31.25,-155.2734375,-368.65234375,6.8359375,0.0
1734580612.053308,35.64453125,-65.4296875,-388.18359375,36.1328125,0.0
1734580612.0572138,45.41015625,-148.4375,-377.9296875,55.17578125,0.0
1734580612.0611112,59.08203125,118.65234375,-346.19140625,36.1328125,0.0
1734580612.065017,71.77734375,255.859375,-373.53515625,22.4609375,0.0
1734580612.0689225,68.359375,13.18359375,-432.12890625,48.828125,0.0
1734580612.0728283,49.31640625,-73.2421875,-387.20703125,88.8671875,0.0
1734580612.076734,53.22265625,175.78125,-338.37890625,100.5859375,0.0
1734580612.0806396,57.12890625,8.7890625,-422.36328125,25.87890625,0.0
1734580612.0845454,62.5,-409.66796875,-516.6015625,-36.1328125,0.0
1734580612.0884511,62.5,-743.1640625,-600.09765625,-11.23046875,0.0
1734580612.092357,49.8046875,-66.89453125,-363.28125,7.32421875,0.0
1734580612.0962625,43.9453125,412.59765625,-297.8515625,10.7421875,0.0
1734580612.1001682,43.45703125,13.671875,-440.4296875,13.671875,0.0
1734580612.104074,41.50390625,12.20703125,-392.08984375,10.7421875,0.0
1734580612.107964,31.25,243.1640625,-346.19140625,-0.48828125,0.0
1734580612.1118696,4.8828125,100.5859375,-397.4609375,5.37109375,0.0
1734580612.1157753,-24.4140625,-257.32421875,-485.3515625,20.5078125,0.0
1734580612.1196811,-11.71875,-38.0859375,-394.53125,19.53125,0.0
1734580612.1235867,5.37109375,224.12109375,-330.56640625,2.44140625,0.0
1734580612.1274924,-4.8828125,-158.69140625,-440.91796875,-6.8359375,0.0
1734580612.1313982,-22.94921875,-790.52734375,-644.04296875,12.20703125,0.0
1734580612.135304,-18.5546875,-418.9453125,-429.6875,26.85546875,0.0
1734580612.1392095,-7.8125,193.359375,-280.2734375,15.625,0.0
1734580612.1431153,0.9765625,-243.1640625,-432.12890625,-5.37109375,0.0
1734580612.147021,-3.90625,-394.53125,-353.02734375,-19.04296875,0.0
1734580612.1509266,-20.01953125,57.6171875,-274.4140625,7.32421875,0.0
1734580612.1548076,-23.4375,318.359375,-241.2109375,35.64453125,0.0
1734580612.1587133,-14.6484375,101.07421875,-284.66796875,20.01953125,0.0
1734580612.162619,-11.23046875,-112.79296875,-318.359375,0.48828125,0.0
1734580612.1665246,-11.23046875,59.5703125,-272.4609375,-4.39453125,0.0
1734580612.1704304,-10.7421875,8.30078125,-273.4375,9.27734375,0.0
1734580612.1743362,-13.671875,-342.28515625,-358.3984375,16.6015625,0.0
1734580612.178242,-30.2734375,-613.76953125,-349.609375,14.16015625,0.0
1734580612.1821475,-36.1328125,-0.48828125,-69.3359375,0.9765625,0.0
1734580612.1860533,-15.13671875,250.0,-55.6640625,-8.30078125,0.0
1734580612.189959,-13.18359375,-88.8671875,-171.38671875,8.30078125,0.0
1734580612.1938646,-17.08984375,-45.8984375,-124.0234375,15.625,0.0
1734580612.1977704,-1.46484375,234.86328125,9.27734375,13.18359375,0.0
1734580612.2017179,10.7421875,207.51953125,-24.4140625,-3.90625,0.0
1734580612.2056234,23.92578125,-238.28125,-316.89453125,-23.4375,0.0
1734580612.2095292,10.7421875,-148.92578125,-185.546875,-13.18359375,0.0
1734580612.213435,-0.9765625,280.2734375,88.37890625,13.671875,0.0
1734580612.2173407,-3.90625,228.02734375,1.953125,7.32421875,0.0
1734580612.2212462,2.44140625,-433.10546875,-373.046875,-13.18359375,0.0
1734580612.225152,6.34765625,-535.15625,-351.07421875,-34.1796875,0.0
1734580612.2290578,-3.41796875,-91.796875,-126.953125,-21.97265625,0.0
1734580612.2329633,8.7890625,50.78125,-19.53125,14.6484375,0.0
1734580612.236869,19.53125,-587.40234375,-295.8984375,17.578125,0.0
1734580612.2407749,7.32421875,-302.24609375,-96.6796875,-10.7421875,0.0
1734580612.2446806,11.23046875,311.03515625,156.73828125,-20.5078125,0.0
1734580612.2486136,8.30078125,108.88671875,29.78515625,3.90625,0.0
1734580612.2525194,-17.08984375,-58.59375,-5.37109375,18.06640625,0.0
1734580612.256425,-20.99609375,183.10546875,101.07421875,10.25390625,0.0
1734580612.2603307,-7.8125,252.9296875,99.12109375,8.7890625,0.0
1734580612.2642365,8.7890625,-30.2734375,-13.18359375,-6.8359375,0.0
1734580612.268142,12.20703125,-365.234375,-77.63671875,-15.625,0.0
1734580612.2720478,-17.578125,-161.62109375,57.6171875,5.859375,0.0
1734580612.2759535,-15.13671875,289.0625,165.52734375,5.859375,0.0
1734580612.2798593,15.13671875,-101.5625,-79.58984375,-9.27734375,0.0
1734580612.2837648,5.859375,-822.75390625,-364.2578125,-35.15625,0.0
1734580612.2876706,-12.6953125,-302.734375,-67.3828125,-36.1328125,0.0
1734580612.2915764,-20.01953125,319.82421875,141.6015625,-5.859375,0.0
1734580612.295499,-20.99609375,32.71484375,-29.296875,10.25390625,0.0
1734580612.2994046,-8.7890625,27.83203125,9.765625,-32.71484375,0.0
1734580612.3033104,-7.8125,233.3984375,69.3359375,-56.640625,0.0
1734580612.3072162,-6.8359375,174.31640625,13.18359375,-45.8984375,0.0
1734580612.3111217,-14.16015625,-161.1328125,-155.2734375,-31.25,0.0
1734580612.3150275,-43.45703125,-354.00390625,-293.45703125,-27.34375,0.0
1734580612.3189332,-43.9453125,-120.60546875,-173.33984375,-42.96875,0.0
1734580612.322839,-33.203125,157.2265625,-42.48046875,-61.5234375,0.0
1734580612.3267446,-61.5234375,-609.86328125,-463.37890625,-93.75,0.0
1734580612.3306503,-65.4296875,-554.19921875,-311.03515625,-103.02734375,0.0
1734580612.334556,-71.2890625,331.0546875,62.5,-79.58984375,0.0
1734580612.3384616,-102.5390625,34.1796875,-228.02734375,-80.56640625,0.0
1734580612.3423758,-115.234375,-315.4296875,-354.98046875,-105.46875,0.0
1734580612.3462813,-108.3984375,1.953125,-217.7734375,-130.859375,0.0
1734580612.350187,-128.90625,377.9296875,-20.01953125,-143.06640625,0.0
1734580612.3540928,-157.2265625,292.96875,-80.078125,-131.34765625,0.0
1734580612.3579986,-162.59765625,63.96484375,-245.60546875,-147.94921875,0.0
1734580612.3619041,-166.9921875,-99.609375,-330.078125,-182.6171875,0.0
1734580612.36581,-171.875,-99.609375,-316.89453125,-204.58984375,0.0
1734580612.3697157,-157.2265625,-194.3359375,-332.03125,-183.59375,0.0
1734580612.3736215,-152.34375,-591.796875,-390.13671875,-148.4375,0.0
1734580612.377527,-136.71875,135.7421875,-20.5078125,-135.25390625,0.0
1734580612.3814328,-110.3515625,527.83203125,36.62109375,-138.18359375,0.0
1734580612.3853385,-99.609375,77.63671875,-271.484375,-159.1796875,0.0
1734580612.389245,-89.84375,180.6640625,-160.15625,-134.765625,0.0
1734580612.3931508,-91.30859375,491.69921875,24.90234375,-83.49609375,0.0
1734580612.3970563,-61.5234375,358.88671875,-94.7265625,-64.94140625,0.0
1734580612.400962,-41.9921875,-99.609375,-391.6015625,-84.9609375,0.0
1734580612.404868,-41.50390625,15.13671875,-371.58203125,-93.26171875,0.0
1734580612.4087737,-14.16015625,99.609375,-319.82421875,-52.24609375,0.0
1734580612.4126792,-6.34765625,-107.91015625,-407.2265625,-11.71875,0.0
1734580612.416585,-16.6015625,-543.45703125,-618.1640625,-0.9765625,0.0
1734580612.4204907,-19.04296875,-425.29296875,-533.203125,3.41796875,0.0
1734580612.4243963,-11.23046875,60.05859375,-429.6875,-20.01953125,0.0
1734580612.428302,-2.9296875,160.15625,-505.37109375,-16.6015625,0.0
1734580612.4322078,-0.9765625,122.0703125,-488.28125,26.3671875,0.0
1734580612.436107,13.18359375,306.15234375,-527.83203125,38.0859375,0.0
1734580612.4400125,20.01953125,459.9609375,-603.515625,14.16015625,0.0
1734580612.4439182,29.78515625,208.0078125,-731.93359375,11.71875,0.0
1734580612.447824,36.1328125,47.8515625,-775.87890625,27.83203125,0.0
1734580612.4517298,28.80859375,234.375,-766.6015625,44.43359375,0.0
1734580612.4556353,30.2734375,25.390625,-863.28125,58.59375,0.0
1734580612.459541,22.94921875,-370.60546875,-898.92578125,46.875,0.0
1734580612.4634469,35.15625,-719.23828125,-912.59765625,27.83203125,0.0
1734580612.4673526,47.36328125,-44.43359375,-874.51171875,35.15625,0.0
1734580612.4712582,27.83203125,408.69140625,-860.83984375,59.5703125,0.0
1734580612.475164,13.18359375,-23.4375,-911.62109375,91.30859375,0.0
1734580612.4790697,13.18359375,15.13671875,-910.64453125,87.40234375,0.0
1734580612.4829583,27.83203125,314.453125,-900.390625,19.53125,0.0
1734580612.486864,25.87890625,264.6484375,-917.48046875,-1.953125,0.0
1734580612.4907699,14.16015625,-46.875,-968.75,29.296875,0.0
1734580612.4946754,2.9296875,52.24609375,-930.6640625,47.36328125,0.0
1734580612.4985812,-0.48828125,287.109375,-907.2265625,31.73828125,0.0
1734580612.502487,20.01953125,-130.859375,-953.125,19.53125,0.0
1734580612.5063927,27.83203125,-790.52734375,-987.3046875,38.0859375,0.0
1734580612.5102983,23.4375,-452.1484375,-921.38671875,56.15234375,0.0
1734580612.514204,12.6953125,59.08203125,-912.59765625,62.98828125,0.0
1734580612.5181098,9.765625,-278.80859375,-939.94140625,61.03515625,0.0
1734580612.5220153,25.390625,-328.61328125,-885.25390625,45.41015625,0.0
1734580612.525921,42.96875,128.90625,-869.62890625,34.66796875,0.0
1734580612.5298018,0.0,393.5546875,-855.95703125,49.31640625,0.0
1734580612.5337076,0.0,192.87109375,-870.60546875,73.73046875,0.0
1734580612.5376134,0.0,-15.625,-847.65625,73.73046875,0.0
1734580612.541519,0.0,210.44921875,-829.1015625,32.71484375,0.0
1734580612.5454247,0.0,357.91015625,-822.265625,17.578125,0.0
1734580612.5493305,0.0,-165.52734375,-855.46875,75.68359375,0.0
1734580612.5532362,0.0,-810.05859375,-905.76171875,99.12109375,0.0
1734580612.5571418,0.0,-80.078125,-760.7421875,70.3125,0.0
1734580612.5610476,0.0,389.6484375,-705.078125,46.38671875,0.0
1734580612.5649533,0.0,3.90625,-751.953125,14.6484375,0.0
1734580612.5688589,0.0,-29.78515625,-691.89453125,20.01953125,0.0
1734580612.5727646,0.0,48.828125,-652.34375,57.12890625,0.0
1734580612.5767086,6.8359375,190.4296875,-602.5390625,58.59375,0.0
1734580612.5806143,19.53125,-2.9296875,-687.01171875,35.15625,0.0
1734580612.5845199,26.85546875,-40.52734375,-619.62890625,21.484375,0.0
1734580612.5884256,31.73828125,238.28125,-473.14453125,45.8984375,0.0
1734580612.5923314,30.76171875,257.8125,-494.62890625,68.84765625,0.0
1734580612.5962372,26.85546875,-304.6875,-688.96484375,65.91796875,0.0
1734580612.6001427,31.25,-362.79296875,-582.51953125,44.921875,0.0
1734580612.6040485,35.64453125,237.3046875,-393.06640625,33.203125,0.0
1734580612.6079543,34.1796875,73.73046875,-477.5390625,41.50390625,0.0
1734580612.6118598,18.5546875,-688.96484375,-645.01953125,66.40625,0.0
1734580612.6157656,20.01953125,-248.53515625,-431.640625,81.54296875,0.0
1734580612.6196713,31.73828125,362.79296875,-280.76171875,67.3828125,0.0
1734580612.623607,35.64453125,112.79296875,-392.578125,45.41015625,0.0
1734580612.6275127,40.52734375,-223.14453125,-382.32421875,41.9921875,0.0
1734580612.6314185,36.62109375,-165.52734375,-327.1484375,65.4296875,0.0
1734580612.6353242,23.92578125,223.6328125,-261.23046875,64.453125,0.0
1734580612.6392298,17.08984375,122.0703125,-318.359375,40.52734375,0.0
1734580612.6431355,20.01953125,-440.4296875,-410.64453125,14.6484375,0.0
1734580612.6470413,15.13671875,-310.05859375,-250.48828125,19.53125,0.0
1734580612.6509469,23.92578125,312.01171875,10.7421875,42.96875,0.0
1734580612.6548526,32.2265625,5.37109375,-169.43359375,64.453125,0.0
1734580612.6587584,20.5078125,-656.25,-375.0,56.15234375,0.0
1734580612.6626642,27.83203125,-15.625,-43.45703125,24.4140625,0.0
1734580612.6665697,43.9453125,270.99609375,54.19921875,20.5078125,0.0
1734580612.6704938,27.34375,-110.3515625,-98.14453125,39.55078125,0.0
1734580612.6743996,3.90625,38.0859375,-3.90625,59.5703125,0.0
1734580612.6783051,-2.9296875,335.44921875,107.421875,46.875,0.0
1734580612.682211,13.18359375,233.3984375,22.94921875,2.9296875,0.0
1734580612.6861167,23.92578125,-407.2265625,-293.45703125,2.44140625,0.0
1734580612.6900225,25.390625,-556.640625,-293.9453125,28.3203125,0.0
1734580612.693928,26.85546875,-217.7734375,-48.828125,48.33984375,0.0
1734580612.6978338,11.23046875,64.94140625,69.82421875,45.41015625,0.0
1734580612.7017395,16.11328125,-562.01171875,-329.58984375,29.78515625,0.0
1734580612.705645,24.90234375,-676.7578125,-270.5078125,7.8125,0.0
1734580612.7095509,29.296875,263.18359375,167.48046875,19.04296875,0.0
1734580612.7134566,37.109375,245.60546875,76.66015625,53.7109375,0.0
1734580612.7173703,22.4609375,-69.3359375,-13.671875,33.203125,0.0
1734580612.721276,26.3671875,159.66796875,100.09765625,6.34765625,0.0
1734580612.7251818,38.0859375,272.4609375,111.328125,5.859375,0.0
1734580612.7290876,41.015625,108.88671875,61.5234375,17.08984375,0.0
1734580612.7329931,39.55078125,-10.25390625,60.05859375,45.8984375,0.0
1734580612.736899,20.99609375,-183.10546875,7.32421875,51.7578125,0.0
1734580612.7408047,26.3671875,-134.765625,62.98828125,15.625,0.0
1734580612.7447102,37.59765625,-193.84765625,-39.0625,-9.765625,0.0
1734580612.748616,37.59765625,-693.84765625,-226.5625,0.48828125,0.0
1734580612.7525218,37.109375,27.34375,113.76953125,27.83203125,0.0
1734580612.7564275,46.875,429.19921875,194.82421875,30.2734375,0.0
1734580612.760333,54.6875,-113.76953125,68.84765625,17.578125,0.0
1734580612.764238,52.24609375,-29.78515625,150.87890625,22.94921875,0.0
1734580612.768144,57.12890625,392.08984375,245.1171875,37.59765625,0.0
1734580612.7720497,35.15625,321.77734375,211.9140625,63.96484375,0.0
1734580612.7759552,19.04296875,-71.2890625,139.16015625,63.96484375,0.0
1734580612.779861,26.85546875,-45.41015625,208.984375,33.203125,0.0
1734580612.7837667,38.57421875,-91.30859375,205.078125,20.5078125,0.0
1734580612.7876725,56.640625,-281.73828125,176.26953125,39.0625,0.0
1734580612.791578,33.69140625,-590.33203125,110.83984375,28.80859375,0.0
1734580612.7954838,-1.46484375,-416.50390625,270.5078125,11.71875,0.0
1734580612.7993896,6.8359375,-94.23828125,336.9140625,6.8359375,0.0
1734580612.8032951,11.71875,-237.3046875,305.17578125,-20.01953125,0.0
1734580612.807201,2.44140625,-134.27734375,361.328125,-36.62109375,0.0
1734580612.8111687,-16.11328125,288.57421875,438.4765625,-0.9765625,0.0
1734580612.8150742,-38.57421875,463.8671875,460.9375,-15.13671875,0.0
1734580612.81898,-50.78125,195.3125,427.734375,-28.3203125,0.0
1734580612.8228858,-44.43359375,68.359375,442.3828125,-41.50390625,0.0
1734580612.8267913,-32.2265625,267.578125,439.94140625,-47.36328125,0.0
1734580612.830697,-22.4609375,119.140625,411.62109375,-14.16015625,0.0
1734580612.8346028,-13.671875,-254.39453125,352.5390625,2.44140625,0.0
1734580612.8385086,-29.78515625,-692.87109375,239.2578125,-8.30078125,0.0
1734580612.8424141,-35.15625,-19.04296875,437.5,-39.0625,0.0
1734580612.84632,-27.34375,441.40625,490.72265625,-43.9453125,0.0
1734580612.8502257,-26.85546875,54.19921875,395.99609375,-10.7421875,0.0
1734580612.8541315,-28.80859375,108.3984375,439.453125,-2.44140625,0.0
1734580612.8580217,-33.69140625,219.7265625,443.84765625,-25.390625,0.0
1734580612.8619273,-25.390625,-70.80078125,367.67578125,-26.85546875,0.0
1734580612.865833,-10.7421875,-239.74609375,385.7421875,-33.203125,0.0
1734580612.8697388,1.46484375,125.48828125,463.8671875,-18.5546875,0.0
1734580612.8736444,3.90625,399.4140625,454.58984375,16.6015625,0.0
1734580612.8775501,-6.34765625,-72.265625,349.12109375,3.90625,0.0
1734580612.881456,-3.90625,-344.7265625,298.828125,-32.2265625,0.0
1734580612.8853617,12.6953125,103.02734375,398.4375,-41.50390625,0.0
1734580612.8892672,8.7890625,306.15234375,434.08203125,-18.06640625,0.0
1734580612.893173,-4.8828125,-134.765625,315.4296875,6.8359375,0.0
1734580612.8970788,-18.5546875,-740.234375,143.5546875,9.765625,0.0
1734580612.9009845,-17.578125,-291.50390625,336.42578125,-13.671875,0.0
1734580612.9048636,-9.765625,359.375,443.359375,-34.66796875,0.0
1734580612.9087694,3.90625,223.14453125,388.671875,-6.8359375,0.0
1734580612.9126751,-1.46484375,111.328125,416.9921875,18.06640625,0.0
1734580612.9165807,2.9296875,155.76171875,382.8125,7.8125,0.0
1734580612.9204865,7.8125,146.484375,372.0703125,-27.34375,0.0
1734580612.9243922,0.48828125,-161.1328125,280.76171875,-52.734375,0.0
1734580612.9282978,6.8359375,-740.72265625,120.60546875,-14.16015625,0.0
1734580612.9322035,14.6484375,-45.41015625,359.86328125,20.01953125,0.0
1734580612.9361093,14.16015625,444.82421875,410.15625,13.18359375,0.0
1734580612.940015,9.27734375,91.30859375,256.34765625,-14.6484375,0.0
1734580612.9439206,17.578125,61.03515625,297.36328125,-34.66796875,0.0
1734580612.9478264,29.78515625,306.15234375,359.375,-25.390625,0.0
1734580612.9517672,18.06640625,307.12890625,329.58984375,5.37109375,0.0
1734580612.9556727,8.30078125,-29.78515625,270.01953125,17.08984375,0.0
1734580612.9595785,22.94921875,28.3203125,282.2265625,-0.9765625,0.0
1734580612.9634843,32.2265625,299.8046875,324.21875,-14.16015625,0.0
1734580612.96739,41.9921875,239.74609375,290.52734375,-19.53125,0.0
1734580612.9712956,41.9921875,-336.9140625,128.41796875,17.08984375,0.0
1734580612.9752014,38.0859375,-477.5390625,166.50390625,38.57421875,0.0
1734580612.9791071,53.22265625,-109.86328125,255.37109375,29.78515625,0.0
1734580612.9830127,65.91796875,30.2734375,212.40234375,5.859375,0.0
1734580612.9869184,50.29296875,-605.95703125,-69.82421875,-1.46484375,0.0
1734580612.9908242,26.3671875,-266.6015625,169.43359375,37.59765625,0.0
1734580612.99473,18.5546875,451.66015625,346.19140625,49.31640625,0.0
1734580612.9986625,41.9921875,217.28515625,233.88671875,38.0859375,0.0
1734580613.0025682,54.6875,-47.36328125,252.9296875,19.53125,0.0
1734580613.006474,53.22265625,164.55078125,241.2109375,7.32421875,0.0
1734580613.0103798,43.9453125,299.31640625,234.375,29.78515625,0.0
1734580613.0142853,29.296875,104.4921875,194.82421875,53.7109375,0.0
1734580613.018191,37.59765625,-340.33203125,118.1640625,40.0390625,0.0
1734580613.0220969,49.31640625,-230.46875,143.06640625,8.7890625,0.0
1734580613.0260024,53.22265625,271.484375,239.2578125,-13.18359375,0.0
1734580613.0299082,45.41015625,-90.8203125,57.12890625,6.8359375,0.0
1734580613.033814,29.78515625,-679.19921875,-129.39453125,43.45703125,0.0
1734580613.0377197,31.73828125,24.90234375,204.1015625,34.1796875,0.0
1734580613.0416253,58.10546875,385.25390625,237.3046875,12.6953125,0.0
1734580613.0455494,62.98828125,-39.55078125,109.86328125,-14.6484375,0.0
1734580613.049455,34.66796875,22.94921875,185.546875,9.765625,0.0
1734580613.0533607,31.25,375.0,225.5859375,36.1328125,0.0
1734580613.0572665,29.296875,346.19140625,188.96484375,29.296875,0.0
1734580613.0611722,27.34375,-41.015625,89.35546875,13.671875,0.0
1734580613.0650778,39.55078125,-324.21875,45.8984375,-3.90625,0.0
1734580613.0689836,42.48046875,-187.5,120.60546875,9.27734375,0.0
1734580613.0728893,43.45703125,236.328125,192.3828125,55.17578125,0.0
1734580613.0767949,33.69140625,-452.1484375,-182.6171875,50.78125,0.0
1734580613.0807006,23.92578125,-633.7890625,-120.60546875,17.578125,0.0
1734580613.0846064,36.1328125,244.62890625,210.44921875,-2.9296875,0.0
1734580613.0885122,49.8046875,145.99609375,127.9296875,21.484375,0.0
1734580613.092427,43.9453125,-112.3046875,102.05078125,38.0859375,0.0
1734580613.0963328,37.109375,298.33984375,181.640625,29.296875,0.0
1734580613.1002386,39.55078125,481.4453125,189.453125,32.71484375,0.0
1734580613.104144,49.8046875,220.21484375,101.5625,1.46484375,0.0
1734580613.1080499,54.6875,5.859375,60.05859375,-9.765625,0.0
1734580613.1119556,41.9921875,-104.4921875,45.41015625,31.25,0.0
1734580613.1158614,27.34375,3.41796875,111.81640625,41.015625,0.0
1734580613.119767,20.99609375,-33.69140625,-8.30078125,9.27734375,0.0
1734580613.1236727,21.484375,-698.73046875,-286.62109375,-5.859375,0.0
1734580613.1275785,13.671875,-107.91015625,59.08203125,-7.32421875,0.0
1734580613.1314843,21.97265625,441.89453125,194.82421875,14.6484375,0.0
1734580613.1353898,45.41015625,113.76953125,67.87109375,33.203125,0.0
1734580613.139296,41.015625,158.69140625,117.67578125,9.27734375,0.0
1734580613.1432018,25.87890625,382.32421875,141.11328125,0.9765625,0.0
1734580613.1471074,36.1328125,106.93359375,58.59375,8.7890625,0.0
1734580613.1510131,22.4609375,-188.96484375,-13.18359375,19.53125,0.0
1734580613.154919,-0.48828125,129.8828125,80.56640625,31.25,0.0
1734580613.1588244,13.18359375,79.58984375,39.0625,4.39453125,0.0
1734580613.1627302,21.97265625,-301.26953125,-84.47265625,-31.25,0.0
1734580613.166636,30.76171875,-579.1015625,-250.48828125,-21.484375,0.0
1734580613.1705418,26.85546875,-243.65234375,-45.41015625,14.16015625,0.0
1734580613.1744473,20.99609375,87.40234375,118.65234375,24.90234375,0.0
1734580613.178353,30.2734375,87.890625,60.546875,10.25390625,0.0
1734580613.1822588,25.390625,-465.8203125,-253.90625,-17.578125,0.0
1734580613.1861587,41.9921875,-229.00390625,-91.30859375,-17.578125,0.0
1734580613.1900644,38.0859375,337.890625,152.34375,20.01953125,0.0
1734580613.19397,14.16015625,158.203125,16.6015625,35.15625,0.0
1734580613.1978757,23.4375,-14.6484375,-26.85546875,3.41796875,0.0
1734580613.2017815,37.109375,56.640625,9.765625,-32.2265625,0.0
1734580613.2056873,27.34375,-129.39453125,-127.9296875,-38.0859375,0.0
1734580613.2095928,35.64453125,-438.4765625,-284.66796875,-0.48828125,0.0
1734580613.2134986,28.80859375,-734.86328125,-338.8671875,33.69140625,0.0
1734580613.2174044,16.11328125,-37.109375,20.5078125,18.06640625,0.0
1734580613.2213101,29.296875,364.74609375,126.953125,2.9296875,0.0
1734580613.2252157,29.296875,-54.6875,-83.984375,-20.01953125,0.0
1734580613.2291214,12.20703125,-25.87890625,6.34765625,-12.20703125,0.0
1734580613.2330084,8.30078125,301.26953125,122.0703125,24.4140625,0.0
1734580613.2369142,15.13671875,266.6015625,67.3828125,22.4609375,0.0
1734580613.24082,25.390625,-207.03125,-156.73828125,-4.39453125,0.0
1734580613.2447255,27.34375,-88.8671875,-44.43359375,-23.4375,0.0
1734580613.2486312,21.484375,270.99609375,119.140625,-3.41796875,0.0
1734580613.252537,29.78515625,-43.9453125,-6.34765625,23.92578125,0.0
1734580613.2564425,35.64453125,-659.1796875,-305.17578125,23.4375,0.0
1734580613.2603483,35.64453125,-588.8671875,-251.953125,11.71875,0.0
1734580613.264254,34.66796875,-205.078125,-10.7421875,4.39453125,0.0
1734580613.2681599,33.203125,-261.23046875,-40.0390625,0.9765625,0.0
1734580613.2720654,15.625,-120.60546875,-6.8359375,14.16015625,0.0
1734580613.2759712,11.71875,249.0234375,95.703125,0.48828125,0.0
1734580613.2798498,0.0,390.13671875,124.0234375,-5.37109375,0.0
1734580613.2837553,0.0,198.73046875,5.37109375,-19.04296875,0.0
1734580613.287661,0.0,-44.43359375,-71.77734375,-19.53125,0.0
1734580613.2915668,0.0,259.27734375,111.81640625,36.1328125,0.0
1734580613.2954726,0.0,386.23046875,108.3984375,49.8046875,0.0
1734580613.2993782,0.0,-285.15625,-265.625,12.20703125,0.0
1734580613.303284,0.0,-651.3671875,-318.84765625,-1.46484375,0.0
1734580613.3071897,0.0,54.19921875,71.2890625,8.30078125,0.0
1734580613.3110952,0.0,410.15625,122.55859375,31.73828125,0.0
1734580613.315001,0.0,38.0859375,-50.29296875,33.69140625,0.0
1734580613.3189068,0.0,-246.58203125,-57.12890625,5.859375,0.0
1734580613.3228126,0.0,46.875,64.94140625,-17.08984375,0.0
1734580613.3267527,36.62109375,263.671875,88.8671875,-14.6484375,0.0
1734580613.3306582,18.5546875,-35.15625,-49.31640625,6.34765625,0.0
1734580613.334564,18.5546875,-8.7890625,5.37109375,25.87890625,0.0
1734580613.3384697,20.99609375,263.671875,108.88671875,8.7890625,0.0
1734580613.3423753,23.92578125,217.7734375,16.6015625,-21.97265625,0.0
1734580613.346281,31.73828125,-401.85546875,-318.84765625,-20.5078125,0.0
1734580613.3501868,31.25,-373.53515625,-196.2890625,3.90625,0.0
1734580613.3540926,29.296875,310.05859375,148.92578125,10.25390625,0.0
1734580613.3579981,30.76171875,147.94921875,9.765625,-8.30078125,0.0
1734580613.361904,30.2734375,-677.24609375,-388.671875,-22.94921875,0.0
1734580613.3658097,27.83203125,-322.265625,-120.1171875,-42.96875,0.0
1734580613.3697155,28.80859375,405.2734375,155.2734375,-22.94921875,0.0
1734580613.3736477,23.4375,189.453125,9.27734375,12.6953125,0.0
1734580613.3775535,16.11328125,-290.52734375,-145.5078125,1.953125,0.0
1734580613.3814592,22.4609375,-20.01953125,-15.625,-32.2265625,0.0
1734580613.3853648,36.1328125,325.68359375,89.35546875,-38.57421875,0.0
1734580613.3892705,43.45703125,68.359375,-35.64453125,-5.37109375,0.0
1734580613.3931763,25.87890625,-380.859375,-230.95703125,20.01953125,0.0
1734580613.397082,20.5078125,-382.8125,-210.9375,-0.48828125,0.0
1734580613.4009876,41.9921875,101.5625,40.0390625,-22.4609375,0.0
1734580613.4048934,36.1328125,-82.51953125,-119.62890625,-25.390625,0.0
1734580613.4087992,28.80859375,-681.15234375,-319.82421875,-3.41796875,0.0
1734580613.4127047,23.92578125,17.08984375,65.4296875,15.625,0.0
1734580613.4166105,26.85546875,392.08984375,127.9296875,9.27734375,0.0
1734580613.420532,41.9921875,-62.5,-83.49609375,-8.30078125,0.0
1734580613.4244378,41.9921875,-10.25390625,6.34765625,-21.97265625,0.0
1734580613.4283435,46.875,289.0625,89.84375,-8.30078125,0.0
1734580613.432249,45.41015625,209.9609375,58.10546875,1.953125,0.0
1734580613.4361548,37.59765625,-145.5078125,-117.1875,12.20703125,0.0
1734580613.4400606,35.64453125,-389.16015625,-301.7578125,-2.9296875,0.0
1734580613.4439664,56.640625,-216.30859375,-186.5234375,-27.34375,0.0
1734580613.447872,68.359375,117.1875,33.69140625,-14.6484375,0.0
1734580613.4517777,48.828125,-570.80078125,-341.796875,15.625,0.0
1734580613.4556835,37.109375,-695.3125,-301.26953125,24.90234375,0.0
1734580613.459589,36.1328125,140.13671875,114.2578125,-2.9296875,0.0
1734580613.4634948,46.875,183.10546875,29.78515625,-20.01953125,0.0
1734580613.4674091,46.38671875,-110.83984375,-71.2890625,-12.6953125,0.0
1734580613.471315,32.71484375,126.46484375,69.3359375,13.18359375,0.0
1734580613.4752204,32.71484375,342.7734375,113.28125,22.4609375,0.0
1734580613.4791262,41.9921875,142.578125,-2.9296875,1.953125,0.0
1734580613.483032,40.52734375,-58.59375,-52.24609375,-13.671875,0.0
1734580613.4869378,46.875,-200.1953125,-84.9609375,-8.30078125,0.0
1734580613.4908433,55.17578125,-297.8515625,-155.76171875,20.99609375,0.0
1734580613.494749,38.0859375,-392.578125,-239.2578125,32.71484375,0.0
1734580613.4986548,34.66796875,-721.19140625,-339.84375,-1.46484375,0.0
1734580613.5025604,44.921875,-72.265625,14.16015625,-21.97265625,0.0
1734580613.5064662,39.55078125,286.1328125,116.69921875,-23.92578125,0.0
1734580613.510372,31.25,-117.1875,-53.22265625,-4.8828125,0.0
1734580613.5142758,33.203125,18.5546875,36.62109375,14.6484375,0.0
1734580613.5181816,39.0625,316.89453125,108.88671875,-8.30078125,0.0
1734580613.522087,35.15625,212.890625,45.8984375,-28.3203125,0.0
1734580613.5259929,28.3203125,-200.1953125,-117.1875,-18.06640625,0.0
1734580613.5298986,34.66796875,-83.49609375,-14.16015625,3.90625,0.0
1734580613.5338042,27.83203125,-45.41015625,41.50390625,21.484375,0.0
1734580613.53771,22.4609375,-270.5078125,-69.82421875,27.83203125,0.0
1734580613.5416157,44.921875,-566.40625,-269.53125,9.27734375,0.0
1734580613.5455215,43.45703125,-347.16796875,-110.3515625,-29.296875,0.0
1734580613.549427,29.78515625,-46.875,50.29296875,-13.671875,0.0
1734580613.5533328,19.04296875,-231.93359375,-27.34375,12.20703125,0.0
1734580613.5572386,10.25390625,-685.05859375,-270.01953125,3.41796875,0.0
1734580613.5612068,12.20703125,-202.1484375,-41.9921875,-6.8359375,0.0
1734580613.5651126,14.6484375,372.0703125,153.3203125,-33.69140625,0.0
1734580613.5690184,15.625,98.6328125,9.765625,-17.578125,0.0
1734580613.5729241,31.73828125,-6.34765625,1.46484375,14.16015625,0.0
1734580613.5768297,36.62109375,177.24609375,62.98828125,16.6015625,0.0
1734580613.5807354,24.4140625,-59.5703125,0.0,-4.8828125,0.0
1734580613.5846412,28.80859375,-467.28515625,-185.546875,-22.4609375,0.0
1734580613.588547,27.83203125,-749.0234375,-336.42578125,15.13671875,0.0
1734580613.5924525,21.484375,-71.77734375,21.484375,47.8515625,0.0
1734580613.5963583,25.87890625,353.515625,142.578125,30.76171875,0.0
1734580613.600264,37.109375,-23.92578125,-47.8515625,3.41796875,0.0
1734580613.6041698,36.1328125,-217.28515625,-77.63671875,-20.01953125,0.0
1734580613.6080575,30.76171875,-100.09765625,39.55078125,-2.44140625,0.0
1734580613.6119633,32.2265625,150.87890625,113.28125,26.85546875,0.0
1734580613.615869,37.59765625,-48.33984375,-29.296875,26.3671875,0.0
1734580613.6197748,37.109375,41.015625,32.71484375,16.6015625,0.0
1734580613.6236804,41.015625,298.828125,109.86328125,-7.8125,0.0
1734580613.6275861,50.78125,-119.140625,-46.38671875,16.6015625,0.0
1734580613.631492,44.921875,-581.0546875,-240.72265625,45.8984375,0.0
1734580613.6353974,35.64453125,-45.41015625,-1.46484375,28.3203125,0.0
1734580613.6393032,35.15625,238.76953125,105.46875,6.34765625,0.0
1734580613.643209,44.921875,-303.7109375,-119.140625,-13.671875,0.0
1734580613.6471148,45.41015625,-785.15625,-324.21875,-0.48828125,0.0
1734580613.6510203,16.6015625,-264.16015625,-15.13671875,12.6953125,0.0
1734580613.65497,12.6953125,387.20703125,201.66015625,9.27734375,0.0
1734580613.6588755,35.64453125,156.73828125,23.4375,-3.90625,0.0
1734580613.6627812,37.59765625,-237.3046875,-79.58984375,-14.6484375,0.0
1734580613.666687,36.62109375,-145.99609375,1.46484375,-14.6484375,0.0
1734580613.6705928,32.2265625,257.8125,140.13671875,15.625,0.0
1734580613.6744983,25.390625,-94.7265625,-20.5078125,43.9453125,0.0
1734580613.678404,15.625,-821.2890625,-366.69921875,23.4375,0.0
1734580613.6823099,15.13671875,-188.96484375,-7.8125,-15.13671875,0.0
1734580613.6862156,20.99609375,347.65625,159.1796875,-14.6484375,0.0
1734580613.6901212,17.578125,-6.8359375,-15.625,7.32421875,0.0
1734580613.694027,12.6953125,26.3671875,78.61328125,16.11328125,0.0
1734580613.6979327,18.06640625,240.234375,117.67578125,10.25390625,0.0
1734580613.701874,8.30078125,133.7890625,70.80078125,-16.11328125,0.0
1734580613.7057796,21.484375,-204.58984375,-57.6171875,-20.5078125,0.0
1734580613.7096853,30.76171875,-101.5625,7.32421875,1.953125,0.0
1734580613.713591,19.53125,232.91015625,119.62890625,15.13671875,0.0
1734580613.7174969,18.06640625,120.60546875,69.3359375,17.08984375,0.0
1734580613.7214024,13.18359375,-548.828125,-269.04296875,3.90625,0.0
1734580613.7253082,13.18359375,-729.98046875,-333.984375,-12.6953125,0.0
1734580613.729214,12.20703125,-195.80078125,-8.30078125,3.41796875,0.0
1734580613.7331197,1.46484375,30.2734375,91.30859375,23.4375,0.0
1734580613.7370253,0.0,-697.265625,-333.984375,18.5546875,0.0
1734580613.740931,4.39453125,-483.3984375,-167.96875,-14.6484375,0.0
1734580613.7448368,12.20703125,219.7265625,167.96875,-20.01953125,0.0
1734580613.74877,13.671875,87.890625,69.82421875,7.32421875,0.0
1734580613.7526758,15.13671875,-100.5859375,38.57421875,22.94921875,0.0
1734580613.7565813,20.01953125,46.38671875,84.47265625,23.4375,0.0
1734580613.760487,9.27734375,200.1953125,113.76953125,1.46484375,0.0
1734580613.7643929,15.13671875,68.84765625,28.3203125,-15.13671875,0.0
1734580613.7682986,21.484375,-304.6875,-87.40234375,1.953125,0.0
1734580613.7722042,3.41796875,-135.7421875,40.52734375,28.3203125,0.0
1734580613.77611,7.32421875,326.66015625,174.8046875,20.01953125,0.0
1734580613.7800157,9.27734375,-123.53515625,-66.40625,0.9765625,0.0
1734580613.7839215,9.27734375,-735.83984375,-295.8984375,-0.48828125,0.0
1734580613.787827,15.625,41.50390625,78.125,-3.90625,0.0
1734580613.7917328,17.08984375,459.9609375,167.96875,4.39453125,0.0
1734580613.7956557,12.6953125,-66.40625,-57.6171875,4.8828125,0.0
1734580613.7995615,27.83203125,9.27734375,33.203125,-9.765625,0.0
1734580613.8034673,36.1328125,326.66015625,94.7265625,-30.2734375,0.0
1734580613.8073728,19.04296875,265.13671875,79.1015625,-15.625,0.0
1734580613.8112786,14.16015625,-99.12109375,-86.9140625,20.5078125,0.0
1734580613.8151844,15.13671875,-349.12109375,-234.375,35.15625,0.0
1734580613.8190901,11.71875,-249.51171875,-155.76171875,22.4609375,0.0
1734580613.8229957,9.27734375,-165.0390625,-53.7109375,-17.578125,0.0
1734580613.8269014,2.44140625,-651.85546875,-332.51953125,-27.83203125,0.0
1734580613.8308072,-1.46484375,-606.93359375,-230.46875,0.48828125,0.0
1734580613.834713,0.0,92.7734375,119.140625,23.4375,0.0
1734580613.8386185,-10.25390625,-104.4921875,-19.04296875,-18.5546875,0.0
1734580613.842533,-4.8828125,-212.890625,-34.66796875,-43.9453125,0.0
1734580613.846439,4.8828125,170.41015625,64.453125,-36.1328125,0.0
1734580613.8503444,-2.44140625,272.4609375,98.14453125,-0.9765625,0.0
1734580613.8542502,-8.30078125,58.59375,34.66796875,27.83203125,0.0
1734580613.858156,0.9765625,-73.2421875,-14.6484375,-0.48828125,0.0
1734580613.8620617,25.87890625,-272.4609375,-71.2890625,-42.96875,0.0
1734580613.8659673,23.4375,-142.578125,-2.44140625,-44.921875,0.0
1734580613.869873,14.6484375,-62.5,-31.25,-8.30078125,0.0
1734580613.8737788,7.32421875,-687.01171875,-293.45703125,13.671875,0.0
1734580613.8776846,2.9296875,-27.34375,39.0625,-3.41796875,0.0
1734580613.8815901,15.625,419.921875,139.6484375,-20.99609375,0.0
1734580613.885496,13.671875,-24.90234375,-39.55078125,-19.53125,0.0
1734580613.8894017,13.18359375,66.40625,66.89453125,4.8828125,0.0
1734580613.8933074,15.625,147.4609375,109.86328125,21.484375,0.0
1734580613.897213,8.30078125,-41.015625,42.96875,2.44140625,0.0
1734580613.9011188,17.578125,-182.6171875,-78.125,-15.13671875,0.0
1734580613.9050245,31.25,-10.7421875,-6.34765625,-28.80859375,0.0
1734580613.9089303,19.04296875,-42.96875,52.24609375,-6.8359375,0.0
1734580613.9128358,9.765625,-239.74609375,6.34765625,34.1796875,0.0
1734580613.9167416,9.27734375,-588.37890625,-268.5546875,24.4140625,0.0
1734580613.9206474,6.34765625,-618.1640625,-240.72265625,-1.953125,0.0
1734580613.9245532,15.13671875,-193.84765625,21.97265625,-14.6484375,0.0
1734580613.9284587,14.16015625,-45.8984375,35.64453125,0.0,0.0
1734580613.9323645,9.765625,-150.390625,1.46484375,17.08984375,0.0
1734580613.9362614,7.8125,91.30859375,89.84375,16.11328125,0.0
1734580613.9401672,11.71875,282.71484375,126.46484375,-8.30078125,0.0
1734580613.9440727,19.04296875,25.87890625,-7.32421875,-20.5078125,0.0
1734580613.9479785,18.06640625,-154.296875,-37.109375,-0.9765625,0.0
1734580613.9518843,7.32421875,-105.95703125,7.32421875,28.3203125,0.0
1734580613.95579,10.7421875,-179.19921875,14.16015625,29.78515625,0.0
1734580613.9596956,21.97265625,-395.99609375,-79.58984375,16.11328125,0.0
1734580613.9636014,14.16015625,-764.16015625,-319.3359375,-3.41796875,0.0
1734580613.9675071,14.6484375,-153.3203125,14.6484375,-10.7421875,0.0
1734580613.971413,10.7421875,369.62890625,192.87109375,16.11328125,0.0
1734580613.9753184,7.32421875,112.3046875,13.18359375,35.64453125,0.0
1734580613.9792242,20.5078125,31.73828125,47.36328125,17.08984375,0.0
1734580613.9831123,13.18359375,261.23046875,109.375,-20.01953125,0.0
1734580613.987018,9.27734375,209.47265625,67.3828125,-15.13671875,0.0
1734580613.990924,18.06640625,-153.3203125,-54.6875,22.94921875,0.0
1734580613.9948294,10.7421875,-8.30078125,15.13671875,29.296875,0.0
1734580613.9987352,13.18359375,249.0234375,113.28125,-10.7421875,0.0
1734580614.002641,15.625,-129.8828125,-83.984375,-23.92578125,0.0
1734580614.0065467,14.16015625,-800.29296875,-455.078125,-6.34765625,0.0
1734580614.0104523,1.46484375,-643.06640625,-235.3515625,10.25390625,0.0
1734580614.014358,3.41796875,46.38671875,129.8828125,14.16015625,0.0
1734580614.0182638,10.7421875,-150.390625,-7.32421875,-8.30078125,0.0
1734580614.0221694,-11.23046875,-330.078125,-58.10546875,-10.7421875,0.0
1734580614.0260751,-3.90625,-83.984375,75.68359375,-2.44140625,0.0
1734580614.0299523,-0.9765625,304.19921875,150.390625,16.11328125,0.0
1734580614.033858,-9.27734375,221.6796875,60.546875,32.2265625,0.0
1734580614.0377638,-3.90625,-94.23828125,-1.953125,16.6015625,0.0
1734580614.0416694,-3.41796875,98.6328125,69.3359375,-6.8359375,0.0
1734580614.0455751,5.859375,217.28515625,125.48828125,-10.7421875,0.0
1734580614.049481,9.27734375,-204.58984375,-9.27734375,8.30078125,0.0
1734580614.0533867,3.90625,-797.36328125,-276.85546875,45.8984375,0.0
1734580614.0572922,-0.9765625,-127.9296875,67.87109375,34.66796875,0.0
1734580614.061198,-9.765625,368.1640625,202.63671875,-11.23046875,0.0
1734580614.0651038,-3.90625,-101.5625,35.64453125,-31.73828125,0.0
1734580614.0690093,6.34765625,-146.97265625,135.25390625,-8.7890625,0.0
1734580614.072915,6.34765625,329.58984375,242.1875,27.34375,0.0
1734580614.0768595,5.859375,366.2109375,200.1953125,10.25390625,0.0
1734580614.0807652,8.7890625,-65.4296875,109.375,-21.97265625,0.0
1734580614.0846708,12.20703125,-126.953125,128.90625,-27.83203125,0.0
1734580614.0885766,26.85546875,185.05859375,188.96484375,1.953125,0.0
1734580614.0924823,25.390625,247.55859375,198.2421875,33.69140625,0.0
1734580614.096388,12.20703125,-325.1953125,-21.484375,28.80859375,0.0
1734580614.1002936,17.578125,-417.48046875,24.4140625,6.8359375,0.0
1734580614.1041994,22.4609375,132.8125,222.65625,-15.13671875,0.0
1734580614.1081052,16.6015625,108.88671875,157.71484375,-10.25390625,0.0
1734580614.112011,7.8125,-644.53125,-170.8984375,35.15625,0.0
1734580614.1159165,1.46484375,-300.29296875,71.2890625,20.01953125,0.0
1734580614.1198223,6.34765625,303.22265625,262.20703125,-15.625,0.0
1734580614.1237528,17.578125,-73.2421875,100.5859375,-12.6953125,0.0
1734580614.1276586,9.765625,-196.2890625,158.203125,-1.46484375,0.0
1734580614.1315641,-3.41796875,172.8515625,236.328125,29.296875,0.0
1734580614.13547,2.44140625,311.03515625,210.9375,28.3203125,0.0
1734580614.1393757,14.16015625,41.015625,135.7421875,-10.7421875,0.0
1734580614.1432812,19.53125,-392.578125,93.26171875,-21.97265625,0.0
1734580614.147187,21.97265625,-390.13671875,101.5625,-1.46484375,0.0
1734580614.1510928,21.97265625,159.66796875,236.328125,34.1796875,0.0
1734580614.1549985,20.99609375,-26.85546875,62.5,41.015625,0.0
1734580614.158904,12.20703125,-755.859375,-185.05859375,14.6484375,0.0
1734580614.1628098,14.6484375,-147.94921875,141.11328125,-13.18359375,0.0
1734580614.1667156,21.484375,272.4609375,215.8203125,-19.04296875,0.0
1734580614.1706393,6.8359375,-127.44140625,89.35546875,13.18359375,0.0
1734580614.174545,1.46484375,-53.7109375,168.9453125,28.3203125,0.0
1734580614.1784508,20.01953125,134.27734375,188.4765625,1.46484375,0.0
1734580614.1823564,23.92578125,-210.44921875,72.75390625,-16.11328125,0.0
1734580614.1862621,23.92578125,-451.171875,20.99609375,-8.7890625,0.0
1734580614.190168,22.4609375,-399.4140625,77.1484375,20.01953125,0.0
1734580614.1940737,7.8125,-125.48828125,155.2734375,32.2265625,0.0
1734580614.1979792,17.578125,160.15625,183.10546875,16.6015625,0.0
1734580614.201885,28.80859375,-535.64453125,-179.19921875,8.7890625,0.0
1734580614.2057908,11.23046875,-725.5859375,-108.3984375,-12.20703125,0.0
1734580614.2096963,12.6953125,160.15625,249.51171875,15.625,0.0
1734580614.213602,21.97265625,250.48828125,161.62109375,32.2265625,0.0
1734580614.2175176,26.3671875,-142.08984375,83.984375,6.34765625,0.0
1734580614.2214234,32.2265625,114.2578125,177.24609375,1.953125,0.0
1734580614.225329,34.66796875,321.2890625,186.5234375,-1.953125,0.0
1734580614.2292347,28.80859375,188.4765625,183.10546875,17.578125,0.0
1734580614.2331405,22.94921875,-3.41796875,170.41015625,31.25,0.0
1734580614.237046,23.4375,-243.1640625,26.85546875,22.4609375,0.0
1734580614.2409518,24.4140625,-235.3515625,58.10546875,-0.48828125,0.0
1734580614.2448575,37.59765625,-371.58203125,-11.71875,-8.7890625,0.0
1734580614.2487633,36.62109375,-741.2109375,-211.9140625,32.71484375,0.0
1734580614.2526689,20.99609375,8.30078125,128.90625,48.828125,0.0
1734580614.2565746,17.08984375,354.00390625,204.58984375,36.62109375,0.0
1734580614.2604804,13.671875,-30.76171875,22.94921875,11.71875,0.0
1734580614.2643871,18.5546875,17.08984375,87.40234375,-11.23046875,0.0
1734580614.268293,22.94921875,312.5,182.12890625,7.32421875,0.0
1734580614.2721987,18.06640625,295.41015625,144.53125,31.73828125,0.0
1734580614.2761045,11.71875,-114.74609375,3.90625,13.671875,0.0
1734580614.28001,4.39453125,-50.78125,59.5703125,-15.13671875,0.0
1734580614.2839158,17.578125,-101.07421875,65.4296875,-24.4140625,0.0
1734580614.2878215,22.4609375,-252.9296875,33.69140625,0.48828125,0.0
1734580614.2917273,9.27734375,-521.484375,-152.83203125,32.2265625,0.0
1734580614.2956328,4.39453125,-498.046875,-79.58984375,14.6484375,0.0
1734580614.2995386,12.20703125,-133.7890625,92.7734375,-17.08984375,0.0
1734580614.3034444,14.6484375,-227.05078125,8.7890625,-32.71484375,0.0
1734580614.3073502,10.7421875,-157.71484375,40.52734375,-7.32421875,0.0
1734580614.31125,22.4609375,249.51171875,157.2265625,22.4609375,0.0
1734580614.3151557,18.5546875,442.87109375,171.38671875,21.97265625,0.0
1734580614.3190615,19.53125,215.33203125,70.80078125,3.41796875,0.0
1734580614.322967,25.390625,-6.8359375,29.296875,-20.99609375,0.0
1734580614.3268728,13.18359375,163.0859375,74.70703125,-9.765625,0.0
1734580614.3307786,10.7421875,27.34375,76.66015625,25.87890625,0.0
1734580614.3346844,18.06640625,-305.6640625,-30.76171875,39.55078125,0.0
1734580614.33859,19.53125,-725.09765625,-302.24609375,18.06640625,0.0
1734580614.3424957,27.83203125,-94.7265625,15.625,-12.20703125,0.0
1734580614.3464015,24.90234375,419.921875,180.6640625,-17.08984375,0.0
1734580614.3503072,12.6953125,22.94921875,-20.5078125,5.37109375,0.0
1734580614.3542128,9.27734375,-194.82421875,0.48828125,17.08984375,0.0
1734580614.3581028,8.7890625,119.140625,109.86328125,1.46484375,0.0
1734580614.3620086,20.5078125,266.6015625,94.23828125,-13.18359375,0.0
1734580614.3659143,26.3671875,-74.21875,-46.875,-8.7890625,0.0
1734580614.36982,17.578125,37.109375,42.96875,22.94921875,0.0
1734580614.3737257,6.34765625,282.71484375,130.859375,29.78515625,0.0
1734580614.3776314,10.7421875,-16.11328125,12.6953125,2.9296875,0.0
1734580614.3815372,9.765625,-633.30078125,-253.90625,-17.08984375,0.0
1734580614.385443,17.08984375,-534.66796875,-164.0625,-18.06640625,0.0
1734580614.3893485,23.4375,106.93359375,104.00390625,3.90625,0.0
1734580614.3932543,16.11328125,-111.328125,-10.25390625,18.06640625,0.0
1734580614.39716,17.578125,-203.125,-36.1328125,4.39453125,0.0
1734580614.4010658,15.13671875,166.50390625,58.10546875,-20.01953125,0.0
1734580614.4050162,19.04296875,353.515625,108.88671875,-24.90234375,0.0
1734580614.408922,17.08984375,125.48828125,24.4140625,-2.44140625,0.0
1734580614.4128277,13.671875,-236.328125,-128.90625,11.23046875,0.0
1734580614.4167335,19.53125,60.05859375,31.73828125,1.953125,0.0
1734580614.420639,15.625,292.96875,120.1171875,-16.6015625,0.0
1734580614.4245448,15.13671875,-251.46484375,-193.84765625,-35.64453125,0.0
1734580614.4284506,6.34765625,-835.9375,-436.03515625,4.39453125,0.0
1734580614.4323564,-7.8125,-69.3359375,20.5078125,33.203125,0.0
1734580614.436262,6.8359375,425.78125,149.4140625,8.7890625,0.0
1734580614.4401677,8.7890625,39.0625,-44.43359375,-2.9296875,0.0
1734580614.4440734,10.25390625,-74.70703125,22.4609375,-13.18359375,0.0
1734580614.4479792,14.6484375,26.85546875,55.6640625,10.7421875,0.0
1734580614.451921,7.8125,257.8125,84.47265625,35.15625,0.0
1734580614.4558268,11.71875,-57.12890625,-41.9921875,23.4375,0.0
1734580614.4597325,16.6015625,-200.68359375,-42.48046875,4.8828125,0.0
1734580614.463638,20.99609375,234.86328125,101.5625,-14.6484375,0.0
1734580614.4675438,13.671875,131.34765625,63.96484375,-7.8125,0.0
1734580614.4714496,-7.32421875,-332.51953125,-106.4453125,8.30078125,0.0
1734580614.4753554,6.8359375,-388.18359375,-97.16796875,15.625,0.0
