timestamps,TP9,AF7,AF8,TP10,Right AUX
1734581364.415841,9.765625,232.421875,51.7578125,84.9609375,0.0
1734581364.4197469,7.32421875,230.46875,67.3828125,84.47265625,0.0
1734581364.4236526,3.41796875,215.33203125,49.31640625,93.26171875,0.0
1734581364.4275584,1.46484375,204.1015625,22.4609375,87.40234375,0.0
1734581364.4314642,-4.8828125,198.73046875,22.4609375,85.9375,0.0
1734581364.43537,3.41796875,194.82421875,51.26953125,83.49609375,0.0
1734581364.4392757,2.44140625,202.63671875,58.59375,74.21875,0.0
1734581364.4431815,6.8359375,189.94140625,-8.7890625,89.84375,0.0
1734581364.4470873,5.859375,177.734375,51.26953125,95.21484375,0.0
1734581364.450993,2.9296875,178.22265625,101.07421875,81.0546875,0.0
1734581364.4548988,9.27734375,171.875,62.5,79.58984375,0.0
1734581364.458809,10.25390625,163.0859375,54.19921875,84.9609375,0.0
1734581364.4627147,14.16015625,153.3203125,56.15234375,78.61328125,0.0
1734581364.4666204,20.5078125,156.73828125,48.828125,75.1953125,0.0
1734581364.4705262,-4.39453125,160.15625,46.875,74.70703125,0.0
1734581364.474432,-7.8125,159.1796875,47.36328125,76.66015625,0.0
1734581364.4783378,3.41796875,152.34375,19.53125,71.77734375,0.0
1734581364.4822435,-9.27734375,139.6484375,20.99609375,63.4765625,0.0
1734581364.4861493,-6.34765625,144.04296875,-0.48828125,72.265625,0.0
1734581364.490055,-1.953125,147.4609375,-46.38671875,86.42578125,0.0
1734581364.4939609,-4.8828125,140.13671875,7.8125,78.61328125,0.0
1734581364.4978666,-8.30078125,135.25390625,32.2265625,63.96484375,0.0
1734581364.5017724,-8.30078125,129.8828125,-13.671875,61.5234375,0.0
1734581364.5056822,-2.44140625,128.90625,-1.46484375,69.3359375,0.0
1734581364.509588,-5.859375,124.51171875,20.01953125,69.3359375,0.0
1734581364.5134938,-2.44140625,95.703125,-5.859375,64.453125,0.0
1734581364.5173995,-0.48828125,94.7265625,-32.2265625,62.98828125,0.0
1734581364.521305,-6.34765625,125.48828125,-19.04296875,60.05859375,0.0
1734581364.5252109,-9.27734375,123.53515625,-18.5546875,53.7109375,0.0
1734581364.5291166,-15.625,117.67578125,-45.8984375,51.7578125,0.0
1734581364.5330224,-0.48828125,121.09375,-78.61328125,65.91796875,0.0
1734581364.5369282,-5.37109375,118.65234375,-28.3203125,63.4765625,0.0
1734581364.540834,-28.3203125,109.86328125,6.34765625,41.50390625,0.0
1734581364.5447397,-16.11328125,102.05078125,-18.06640625,42.96875,0.0
1734581364.5486455,-6.34765625,86.42578125,-35.15625,41.015625,0.0
1734581364.5525548,-12.6953125,93.26171875,-17.578125,27.34375,0.0
1734581364.5564606,-23.92578125,99.12109375,-10.7421875,31.73828125,0.0
1734581364.5603664,-17.08984375,89.84375,-48.828125,33.69140625,0.0
1734581364.5642722,-2.44140625,85.44921875,-42.96875,35.15625,0.0
1734581364.568178,-13.671875,76.171875,-23.4375,29.296875,0.0
1734581364.5720837,-20.5078125,69.82421875,-63.96484375,23.92578125,0.0
1734581364.5759895,-11.23046875,75.68359375,-75.1953125,31.73828125,0.0
1734581364.5798953,1.46484375,73.73046875,-53.22265625,36.62109375,0.0
1734581364.583801,-9.27734375,60.05859375,-61.5234375,37.109375,0.0
1734581364.5877068,-5.859375,63.4765625,-65.91796875,44.921875,0.0
1734581364.5916126,-8.30078125,71.2890625,-82.51953125,36.1328125,0.0
1734581364.5955184,-31.73828125,67.3828125,-80.56640625,17.08984375,0.0
1734581364.5994272,-59.5703125,52.734375,-56.15234375,-22.4609375,0.0
1734581364.603333,-65.91796875,47.36328125,-60.05859375,-35.64453125,0.0
1734581364.6072388,-60.05859375,50.78125,-88.37890625,-29.296875,0.0
1734581364.6111445,-70.3125,60.05859375,-88.8671875,-44.43359375,0.0
1734581364.6150503,-79.1015625,64.453125,-88.37890625,-53.7109375,0.0
1734581364.618956,-78.125,62.5,-139.6484375,-53.22265625,0.0
1734581364.6228619,-63.96484375,61.5234375,-196.77734375,-40.52734375,0.0
1734581364.6267676,-79.58984375,44.43359375,-145.5078125,-39.55078125,0.0
1734581364.6306734,-86.42578125,53.22265625,-102.5390625,-49.8046875,0.0
1734581364.6345792,-64.453125,67.3828125,-131.34765625,-35.15625,0.0
1734581364.638485,-65.4296875,54.6875,-151.3671875,-36.1328125,0.0
1734581364.6423907,-69.3359375,40.0390625,-158.69140625,-39.0625,0.0
1734581364.646299,-53.7109375,36.1328125,-139.16015625,-21.484375,0.0
1734581364.6502047,-49.31640625,35.64453125,-142.578125,-17.08984375,0.0
1734581364.6541104,-40.0390625,40.0390625,-135.7421875,-6.34765625,0.0
1734581364.6580162,-31.25,49.8046875,-107.421875,2.9296875,0.0
1734581364.661922,-29.296875,49.8046875,-117.67578125,-0.48828125,0.0
1734581364.6658278,-38.0859375,22.94921875,-147.4609375,-15.625,0.0
1734581364.6697335,-30.76171875,29.78515625,-139.6484375,-2.44140625,0.0
1734581364.6736393,-20.5078125,52.24609375,-88.37890625,21.484375,0.0
1734581364.677545,-19.53125,43.9453125,-103.515625,16.6015625,0.0
1734581364.6814508,-9.27734375,24.90234375,-138.671875,12.20703125,0.0
1734581364.6853566,-4.8828125,29.296875,-116.2109375,16.6015625,0.0
1734581364.6892624,-18.5546875,20.99609375,-89.84375,16.11328125,0.0
1734581364.6931741,-18.5546875,9.765625,-93.75,14.16015625,0.0
1734581364.69708,-5.37109375,33.203125,-135.25390625,21.484375,0.0
1734581364.7009854,0.0,54.19921875,-123.046875,39.55078125,0.0
1734581364.7048912,-3.41796875,54.19921875,-86.42578125,43.45703125,0.0
1734581364.708797,-14.16015625,34.1796875,-121.58203125,32.2265625,0.0
1734581364.7127028,-14.6484375,6.34765625,-183.59375,41.015625,0.0
1734581364.7166085,-22.4609375,-16.11328125,-160.64453125,30.76171875,0.0
1734581364.7205143,-29.78515625,12.6953125,-114.74609375,6.34765625,0.0
1734581364.72442,-20.5078125,35.64453125,-142.578125,15.625,0.0
1734581364.7283258,-5.859375,24.90234375,-210.9375,32.2265625,0.0
1734581364.7322316,-1.953125,14.16015625,-157.71484375,22.94921875,0.0
1734581364.7361374,0.0,0.9765625,-135.25390625,26.85546875,0.0
1734581364.7400484,-4.8828125,-7.32421875,-182.12890625,35.15625,0.0
1734581364.7439542,-12.20703125,2.44140625,-187.5,32.2265625,0.0
1734581364.74786,-10.25390625,3.41796875,-168.9453125,34.66796875,0.0
1734581364.7517657,3.90625,-0.48828125,-176.7578125,32.71484375,0.0
1734581364.7556715,5.37109375,-5.859375,-216.796875,31.73828125,0.0
1734581364.7595773,4.8828125,-13.18359375,-228.02734375,42.96875,0.0
1734581364.763483,12.20703125,-8.30078125,-219.23828125,49.31640625,0.0
1734581364.7673888,-3.90625,-5.37109375,-214.84375,33.69140625,0.0
1734581364.7712946,-19.53125,-18.06640625,-239.2578125,13.671875,0.0
1734581364.7752004,-9.765625,-20.99609375,-270.01953125,13.18359375,0.0
1734581364.7791061,-1.46484375,-12.6953125,-208.0078125,27.34375,0.0
1734581364.783012,-7.32421875,-19.53125,-211.42578125,26.85546875,0.0
1734581364.7869225,-2.9296875,-29.296875,-260.7421875,7.8125,0.0
1734581364.7908282,-4.39453125,-21.97265625,-245.60546875,8.30078125,0.0
1734581364.794734,-3.90625,-17.578125,-244.62890625,25.87890625,0.0
1734581364.7986398,2.9296875,-18.5546875,-262.6953125,23.92578125,0.0
1734581364.8025455,4.39453125,-21.97265625,-279.296875,14.6484375,0.0
1734581364.8064513,5.37109375,-27.34375,-286.1328125,18.06640625,0.0
1734581364.810357,5.37109375,-29.78515625,-249.51171875,20.99609375,0.0
1734581364.8142629,-7.8125,-32.71484375,-229.00390625,15.13671875,0.0
1734581364.8181686,-21.97265625,-41.50390625,-305.17578125,20.01953125,0.0
1734581364.8220744,-23.92578125,-43.45703125,-253.90625,22.94921875,0.0
1734581364.8259802,-25.390625,-41.015625,-171.38671875,15.625,0.0
1734581364.829886,-27.34375,-46.38671875,-202.1484375,10.7421875,0.0
1734581364.833796,-15.13671875,-45.8984375,-216.30859375,8.7890625,0.0
1734581364.8377018,-20.99609375,-40.52734375,-191.89453125,0.48828125,0.0
1734581364.8416076,-29.78515625,-43.45703125,-183.59375,-2.9296875,0.0
1734581364.8455133,-22.4609375,-47.36328125,-194.82421875,4.39453125,0.0
1734581364.849419,-8.30078125,-31.25,-187.01171875,17.578125,0.0
1734581364.853325,-3.90625,-25.390625,-199.21875,14.6484375,0.0
1734581364.8572307,-18.5546875,-35.15625,-199.70703125,3.41796875,0.0
1734581364.8611364,-37.109375,-42.48046875,-211.42578125,-0.9765625,0.0
1734581364.8650422,-31.25,-46.875,-250.9765625,-9.765625,0.0
1734581364.868948,-9.765625,-49.8046875,-191.89453125,-9.765625,0.0
1734581364.8728538,-15.13671875,-54.19921875,-158.203125,-11.23046875,0.0
1734581364.8767595,-48.33984375,-45.8984375,-202.1484375,-18.5546875,0.0
1734581364.880669,-66.40625,-33.69140625,-202.1484375,-23.92578125,0.0
1734581364.884575,-74.70703125,-38.0859375,-180.17578125,-33.203125,0.0
1734581364.8884807,-68.359375,-41.9921875,-201.171875,-31.25,0.0
1734581364.8923864,-59.5703125,-40.0390625,-230.95703125,-26.85546875,0.0
1734581364.8962922,-53.22265625,-40.52734375,-216.30859375,-16.6015625,0.0
1734581364.900198,-45.8984375,-43.45703125,-224.12109375,-20.01953125,0.0
1734581364.9041038,-48.33984375,-44.921875,-242.1875,-20.5078125,0.0
1734581364.9080095,-30.76171875,-42.96875,-278.80859375,-7.32421875,0.0
1734581364.9119153,-27.34375,-48.33984375,-233.88671875,-0.9765625,0.0
1734581364.915821,-28.3203125,-52.734375,-198.73046875,9.27734375,0.0
1734581364.9197268,-23.92578125,-52.734375,-251.953125,7.8125,0.0
1734581364.9236326,-38.57421875,-56.15234375,-251.953125,-8.7890625,0.0
1734581364.9275417,-48.33984375,-58.10546875,-204.58984375,-11.71875,0.0
1734581364.9314475,-30.76171875,-55.17578125,-194.3359375,-4.8828125,0.0
1734581364.9353533,-28.3203125,-59.5703125,-220.703125,0.48828125,0.0
1734581364.939259,-28.3203125,-64.94140625,-225.5859375,1.953125,0.0
1734581364.9431648,-24.90234375,-57.6171875,-210.9375,1.953125,0.0
1734581364.9470706,-29.78515625,-63.96484375,-237.79296875,-2.9296875,0.0
1734581364.9509764,-33.69140625,-70.80078125,-256.34765625,-6.34765625,0.0
1734581364.9548821,-30.2734375,-59.08203125,-229.4921875,-9.27734375,0.0
1734581364.958788,-28.80859375,-54.19921875,-202.1484375,-18.06640625,0.0
1734581364.9626937,-20.5078125,-44.921875,-228.515625,-13.671875,0.0
1734581364.9665995,-19.04296875,-42.96875,-259.27734375,-3.90625,0.0
1734581364.9705052,-20.99609375,-52.24609375,-259.27734375,7.8125,0.0
1734581364.9744143,-37.109375,-58.59375,-231.93359375,-20.5078125,0.0
1734581364.9783201,-51.26953125,-53.22265625,-249.0234375,-33.69140625,0.0
1734581364.982226,-51.7578125,-56.640625,-277.34375,-22.94921875,0.0
1734581364.9861317,-39.55078125,-53.7109375,-258.30078125,-20.01953125,0.0
1734581364.9900374,-32.2265625,-43.45703125,-257.8125,-13.18359375,0.0
1734581364.9939432,-32.71484375,-43.9453125,-301.26953125,-15.13671875,0.0
1734581364.997849,-26.3671875,-41.015625,-349.12109375,-18.06640625,0.0
1734581365.0017548,-39.0625,-41.015625,-310.05859375,-23.92578125,0.0
1734581365.0056605,-48.33984375,-39.0625,-272.94921875,-20.99609375,0.0
1734581365.0095663,-40.0390625,-39.55078125,-315.4296875,-13.18359375,0.0
1734581365.013472,-28.3203125,-45.8984375,-354.4921875,-31.25,0.0
1734581365.0173779,-21.97265625,-41.9921875,-348.14453125,-40.0390625,0.0
1734581365.0212862,-20.01953125,-39.55078125,-373.046875,-28.3203125,0.0
1734581365.025192,-28.3203125,-47.8515625,-457.51953125,-23.4375,0.0
1734581365.0290978,-19.04296875,-58.59375,-542.96875,-35.15625,0.0
1734581365.0330036,-11.23046875,-52.734375,-604.4921875,-25.87890625,0.0
1734581365.0369093,-4.39453125,-32.71484375,-666.50390625,-8.7890625,0.0
1734581365.0408149,-9.27734375,-34.66796875,-794.921875,-11.23046875,0.0
1734581365.0447206,-37.109375,-63.4765625,-882.32421875,-20.01953125,0.0
1734581365.0486264,-53.7109375,-47.8515625,-888.18359375,-29.78515625,0.0
1734581365.0525322,-57.6171875,-21.484375,-936.03515625,-17.578125,0.0
1734581365.056438,-46.38671875,-28.3203125,-975.09765625,-15.625,0.0
1734581365.0603437,-42.48046875,-39.0625,-983.3984375,-28.80859375,0.0
1734581365.0642495,-48.33984375,-41.50390625,-994.140625,-31.73828125,0.0
1734581365.0681612,-47.36328125,-42.48046875,-1000.0,-40.0390625,0.0
1734581365.072067,-44.43359375,-46.38671875,-1000.0,-38.0859375,0.0
1734581365.0759728,-41.9921875,-49.31640625,-1000.0,-32.71484375,0.0
1734581365.0798786,-47.8515625,-47.36328125,-1000.0,-33.203125,0.0
1734581365.083784,-42.48046875,-47.8515625,-1000.0,-28.80859375,0.0
1734581365.0876899,-37.59765625,-45.8984375,-1000.0,-20.01953125,0.0
1734581365.0915956,-44.43359375,-51.7578125,-1000.0,-28.3203125,0.0
1734581365.0955014,-45.41015625,-60.546875,-1000.0,-40.0390625,0.0
1734581365.0994072,-49.31640625,-68.359375,-1000.0,-38.0859375,0.0
1734581365.103313,-44.921875,-56.640625,-1000.0,-23.92578125,0.0
1734581365.1072187,-4.39453125,-54.6875,-1000.0,-19.04296875,0.0
1734581365.1111245,-0.48828125,-41.50390625,-1000.0,-31.25,0.0
1734581365.1150358,-35.15625,-27.34375,-1000.0,-33.69140625,0.0
1734581365.1189415,-41.50390625,-39.55078125,-1000.0,-38.57421875,0.0
1734581365.1228473,-33.69140625,-40.52734375,-1000.0,-40.52734375,0.0
1734581365.126753,-44.43359375,-49.8046875,-1000.0,-31.73828125,0.0
1734581365.1306589,-28.80859375,-59.08203125,-1000.0,-25.390625,0.0
1734581365.1345646,-35.15625,-44.43359375,-1000.0,-30.76171875,0.0
1734581365.1384704,-69.82421875,-41.015625,-1000.0,-54.19921875,0.0
1734581365.1423762,-66.89453125,-48.33984375,-1000.0,-57.6171875,0.0
1734581365.146282,-65.91796875,-54.6875,-1000.0,-41.015625,0.0
1734581365.1501875,-57.12890625,-71.77734375,-1000.0,-31.25,0.0
1734581365.1540933,-45.41015625,-64.94140625,-1000.0,-25.87890625,0.0
1734581365.157999,-35.64453125,-52.734375,-1000.0,-22.4609375,0.0
1734581365.1619098,-20.99609375,-51.26953125,-1000.0,-20.01953125,0.0
1734581365.1658156,-23.92578125,-52.24609375,-996.58203125,-21.484375,0.0
1734581365.1697214,-30.2734375,-39.55078125,-995.1171875,-31.73828125,0.0
1734581365.1736271,-38.57421875,-33.69140625,-996.58203125,-34.66796875,0.0
1734581365.177533,-43.9453125,-31.73828125,-995.60546875,-43.9453125,0.0
1734581365.1814387,-42.48046875,-29.296875,-989.74609375,-39.55078125,0.0
1734581365.1853445,-34.1796875,-33.203125,-982.91015625,-28.80859375,0.0
1734581365.1892502,-12.6953125,-12.6953125,-979.00390625,-18.5546875,0.0
1734581365.193156,12.6953125,-10.25390625,-986.81640625,5.37109375,0.0
1734581365.1970618,-15.625,-46.38671875,-953.125,-33.203125,0.0
1734581365.2009676,-39.0625,-51.7578125,-937.01171875,-65.91796875,0.0
1734581365.2048733,-15.13671875,-34.1796875,-957.03125,-58.10546875,0.0
1734581365.2087834,-4.8828125,-29.78515625,-949.70703125,-51.7578125,0.0
1734581365.2126892,-28.80859375,-36.1328125,-937.5,-29.296875,0.0
1734581365.216595,-55.17578125,-44.43359375,-933.10546875,-24.4140625,0.0
1734581365.2205007,-55.6640625,-34.66796875,-942.3828125,-46.38671875,0.0
1734581365.2244065,-55.17578125,-42.96875,-899.4140625,-36.62109375,0.0
1734581365.2283123,-49.31640625,-50.29296875,-844.23828125,-29.78515625,0.0
1734581365.232218,-58.10546875,-33.69140625,-805.17578125,-41.015625,0.0
1734581365.2361238,-53.22265625,-34.1796875,-788.57421875,-32.71484375,0.0
1734581365.2400296,-38.57421875,-34.1796875,-794.921875,-15.13671875,0.0
1734581365.2439353,-46.38671875,-22.94921875,-702.1484375,-37.59765625,0.0
1734581365.2478411,-51.7578125,-26.3671875,-631.8359375,-43.9453125,0.0
1734581365.251747,-46.875,-39.55078125,-644.53125,-34.1796875,0.0
1734581365.2556567,-43.9453125,-39.55078125,-629.39453125,-35.64453125,0.0
1734581365.2595625,-42.48046875,-33.203125,-650.87890625,-28.80859375,0.0
1734581365.2634683,-19.53125,-34.1796875,-710.9375,-18.06640625,0.0
1734581365.267374,-22.94921875,-30.76171875,-791.9921875,-22.4609375,0.0
1734581365.2712798,-31.73828125,-30.76171875,-834.9609375,-26.85546875,0.0
1734581365.2751856,-28.3203125,-26.85546875,-876.953125,-25.87890625,0.0
1734581365.2790914,-40.0390625,-26.85546875,-921.38671875,-30.76171875,0.0
1734581365.2829971,-38.57421875,-37.109375,-955.078125,-29.296875,0.0
1734581365.286903,-24.4140625,-32.2265625,-931.15234375,-17.08984375,0.0
1734581365.2908084,-13.671875,-20.99609375,-934.08203125,-11.23046875,0.0
1734581365.2947142,-13.18359375,-33.203125,-949.70703125,-13.18359375,0.0
1734581365.29862,-46.38671875,-70.80078125,-930.17578125,-42.96875,0.0
1734581365.3025293,-42.96875,-43.9453125,-931.640625,-51.26953125,0.0
1734581365.306435,-30.76171875,-16.6015625,-947.75390625,-37.59765625,0.0
1734581365.310341,-41.50390625,-38.0859375,-961.9140625,-32.71484375,0.0
1734581365.3142467,-50.29296875,-16.6015625,-953.61328125,-26.3671875,0.0
1734581365.3181524,-57.6171875,-0.9765625,-955.56640625,-15.625,0.0
1734581365.3220582,-48.828125,-12.20703125,-975.09765625,-19.53125,0.0
1734581365.325964,-43.9453125,-25.87890625,-976.5625,-29.78515625,0.0
1734581365.3298697,-20.99609375,-6.8359375,-965.8203125,-2.9296875,0.0
1734581365.3337755,-33.69140625,6.8359375,-965.8203125,0.9765625,0.0
1734581365.3376813,-44.921875,-17.578125,-983.88671875,-18.5546875,0.0
1734581365.341587,-44.921875,-32.71484375,-985.3515625,-28.80859375,0.0
1734581365.3454928,-47.8515625,-24.90234375,-981.4453125,-28.3203125,0.0
1734581365.3494015,-29.78515625,-18.5546875,-985.83984375,-10.25390625,0.0
1734581365.3533072,-30.2734375,-15.13671875,-979.4921875,-5.37109375,0.0
1734581365.357213,-28.80859375,-21.97265625,-989.2578125,-14.16015625,0.0
1734581365.3611188,-38.0859375,-14.6484375,-983.88671875,-23.92578125,0.0
1734581365.3650246,-33.203125,-12.20703125,-967.7734375,-21.484375,0.0
1734581365.3689303,-22.94921875,-19.04296875,-971.6796875,-25.390625,0.0
1734581365.372836,-25.87890625,-15.625,-988.28125,-18.5546875,0.0
1734581365.376742,-33.203125,-10.25390625,-946.77734375,-16.11328125,0.0
1734581365.3806477,-20.99609375,-18.5546875,-938.96484375,-18.5546875,0.0
1734581365.3845534,-20.99609375,-26.3671875,-958.0078125,-6.34765625,0.0
1734581365.3884592,-1.953125,-11.71875,-930.6640625,4.39453125,0.0
1734581365.392365,5.859375,-26.3671875,-940.4296875,9.27734375,0.0
1734581365.3962734,-29.296875,-74.70703125,-962.890625,-9.27734375,0.0
1734581365.4001791,-38.57421875,-33.203125,-971.6796875,-27.83203125,0.0
1734581365.404085,-41.015625,0.9765625,-965.8203125,-22.4609375,0.0
1734581365.4079907,-32.71484375,-21.97265625,-970.703125,-21.97265625,0.0
1734581365.4118965,0.9765625,-26.3671875,-969.23828125,6.8359375,0.0
1734581365.4158022,5.859375,-19.04296875,-971.6796875,20.99609375,0.0
1734581365.419708,-33.69140625,-22.94921875,-969.23828125,-9.27734375,0.0
1734581365.4236138,-62.01171875,-35.64453125,-939.94140625,-37.59765625,0.0
1734581365.4275193,-44.43359375,-19.53125,-942.87109375,-27.34375,0.0
1734581365.431425,-30.76171875,-15.625,-948.73046875,-12.20703125,0.0
1734581365.4353309,-31.73828125,-24.90234375,-928.7109375,-3.90625,0.0
1734581365.4392366,-34.1796875,-17.08984375,-921.38671875,-14.6484375,0.0
1734581365.4431484,-22.94921875,-15.625,-924.8046875,-21.484375,0.0
1734581365.4470541,-22.94921875,-18.06640625,-951.66015625,-9.27734375,0.0
1734581365.45096,-35.15625,-17.578125,-950.1953125,-7.8125,0.0
1734581365.4548657,-29.296875,-14.6484375,-937.5,2.44140625,0.0
1734581365.4587715,-17.578125,-12.6953125,-934.5703125,-9.765625,0.0
1734581365.4626772,-24.4140625,-14.16015625,-952.1484375,-18.5546875,0.0
1734581365.466583,-17.578125,-18.5546875,-917.48046875,-16.11328125,0.0
1734581365.4704888,-8.30078125,-19.53125,-872.55859375,-20.01953125,0.0
1734581365.4743946,-17.578125,-23.92578125,-880.859375,-7.8125,0.0
1734581365.4783,-7.8125,-19.04296875,-895.99609375,-0.9765625,0.0
1734581365.4822059,-13.18359375,-23.92578125,-819.82421875,-8.7890625,0.0
1734581365.4861116,-25.390625,-47.8515625,-777.34375,-16.6015625,0.0
1734581365.490023,-16.6015625,-28.80859375,-780.2734375,-10.25390625,0.0
1734581365.4939287,-16.6015625,-4.8828125,-725.5859375,-4.8828125,0.0
1734581365.4978344,-34.1796875,-10.7421875,-659.1796875,-15.625,0.0
1734581365.5017402,-37.59765625,-28.3203125,-654.296875,-16.11328125,0.0
1734581365.505646,-41.015625,-26.3671875,-679.6875,-7.8125,0.0
1734581365.5095518,-32.71484375,-16.11328125,-649.4140625,-1.953125,0.0
1734581365.5134575,-26.3671875,-13.671875,-529.78515625,-4.8828125,0.0
1734581365.5173633,-31.25,-19.53125,-403.80859375,-17.08984375,0.0
1734581365.521269,-22.94921875,-24.90234375,-397.4609375,-13.18359375,0.0
1734581365.5251749,-15.625,-14.16015625,-380.859375,-3.90625,0.0
1734581365.5290806,-7.8125,-5.859375,-196.2890625,1.46484375,0.0
1734581365.5329862,-13.671875,-7.8125,-54.19921875,-3.90625,0.0
1734581365.536897,-15.13671875,-10.7421875,-37.59765625,1.46484375,0.0
1734581365.5408027,-5.859375,-15.13671875,15.13671875,3.41796875,0.0
1734581365.5447085,1.953125,-17.578125,62.98828125,-4.39453125,0.0
1734581365.5486143,0.48828125,-21.97265625,60.05859375,2.44140625,0.0
1734581365.55252,-6.8359375,-18.5546875,1.46484375,0.0,0.0
1734581365.5564258,2.44140625,-17.08984375,-13.671875,-8.30078125,0.0
1734581365.5603316,9.27734375,-22.4609375,75.1953125,-12.6953125,0.0
1734581365.5642374,5.859375,-26.85546875,92.28515625,-4.8828125,0.0
1734581365.5681431,6.8359375,-35.64453125,-20.5078125,14.16015625,0.0
1734581365.572049,-10.7421875,-33.203125,61.03515625,5.859375,0.0
1734581365.5759547,-41.50390625,-30.76171875,125.9765625,-11.23046875,0.0
1734581365.5798604,-34.66796875,-34.66796875,50.78125,-8.30078125,0.0
1734581365.5837708,-32.2265625,-32.71484375,11.71875,-13.671875,0.0
1734581365.5876765,-25.87890625,-28.3203125,45.8984375,-4.39453125,0.0
1734581365.5915823,-4.39453125,-25.390625,70.3125,5.859375,0.0
1734581365.595488,2.9296875,-27.34375,13.671875,-0.48828125,0.0
1734581365.5993938,-2.44140625,-39.55078125,-34.66796875,-3.41796875,0.0
1734581365.6032996,-2.44140625,-39.0625,-116.2109375,1.953125,0.0
1734581365.6072054,-4.8828125,-21.484375,-175.29296875,-13.18359375,0.0
1734581365.6111112,-10.7421875,-14.6484375,-261.71875,-11.71875,0.0
1734581365.615017,-5.859375,-28.80859375,-383.7890625,4.8828125,0.0
1734581365.6189227,-7.32421875,-30.2734375,-357.91015625,0.48828125,0.0
1734581365.6228282,-5.37109375,-19.04296875,-367.67578125,17.08984375,0.0
1734581365.626734,-7.32421875,-29.78515625,-461.42578125,15.625,0.0
1734581365.6306438,-21.484375,-48.33984375,-472.65625,-6.34765625,0.0
1734581365.6345496,-19.04296875,-42.96875,-449.21875,-3.41796875,0.0
1734581365.6384554,1.953125,-43.45703125,-498.53515625,5.859375,0.0
1734581365.6423612,-14.6484375,-43.45703125,-570.3125,-1.953125,0.0
1734581365.646267,-37.109375,-34.66796875,-539.55078125,-1.46484375,0.0
1734581365.6501727,-28.3203125,-27.34375,-463.37890625,-0.48828125,0.0
1734581365.6540785,-19.04296875,-23.4375,-392.578125,-8.30078125,0.0
1734581365.6579843,-25.87890625,-35.15625,-391.6015625,6.8359375,0.0
1734581365.66189,-32.2265625,-41.015625,-210.44921875,10.25390625,0.0
1734581365.6657958,-26.85546875,-36.1328125,7.8125,-0.9765625,0.0
1734581365.6697016,-21.97265625,-36.62109375,123.53515625,0.9765625,0.0
1734581365.6736073,-7.8125,-41.015625,506.34765625,-2.44140625,0.0
1734581365.677517,-2.44140625,-43.9453125,838.8671875,-11.71875,0.0
1734581365.6814227,-18.06640625,-39.0625,874.51171875,-4.8828125,0.0
1734581365.6853285,-38.57421875,-39.55078125,911.1328125,2.44140625,0.0
1734581365.6892343,-41.015625,-41.9921875,947.75390625,-9.27734375,0.0
1734581365.69314,-37.59765625,-36.62109375,952.63671875,-13.18359375,0.0
1734581365.6970458,-37.59765625,-37.59765625,956.0546875,-10.7421875,0.0
1734581365.7009516,-37.59765625,-41.015625,958.984375,-1.46484375,0.0
1734581365.704857,-32.71484375,-41.9921875,963.37890625,3.90625,0.0
1734581365.708763,-19.04296875,-49.8046875,966.796875,-12.20703125,0.0
1734581365.7126687,-18.5546875,-45.41015625,967.7734375,-9.27734375,0.0
1734581365.7165744,-36.1328125,-32.71484375,968.75,-2.9296875,0.0
1734581365.7204802,-41.50390625,-36.62109375,968.26171875,-15.13671875,0.0
1734581365.7243893,-32.2265625,-39.0625,968.26171875,-12.20703125,0.0
1734581365.728295,-21.484375,-35.64453125,968.75,3.41796875,0.0
1734581365.7322009,-25.390625,-38.0859375,968.26171875,0.0,0.0
1734581365.7361066,-22.4609375,-31.73828125,968.26171875,-7.32421875,0.0
1734581365.7400124,5.859375,-19.53125,967.7734375,7.8125,0.0
1734581365.7439182,15.13671875,-27.83203125,964.84375,8.30078125,0.0
1734581365.747824,0.0,-41.50390625,963.8671875,-2.9296875,0.0
1734581365.7517297,8.7890625,-23.4375,964.84375,4.8828125,0.0
1734581365.7556355,10.7421875,-15.13671875,962.890625,1.953125,0.0
1734581365.7595413,-25.87890625,-27.83203125,961.9140625,-11.71875,0.0
1734581365.763447,-56.15234375,-26.85546875,960.44921875,-11.23046875,0.0
1734581365.7673528,-54.19921875,-20.01953125,959.47265625,-14.6484375,0.0
1734581365.7712615,-26.85546875,-16.11328125,957.03125,-12.6953125,0.0
1734581365.7751672,-33.69140625,-27.34375,954.1015625,-25.390625,0.0
1734581365.779073,-45.8984375,-27.83203125,953.125,-24.4140625,0.0
1734581365.7829788,-29.78515625,-18.06640625,952.1484375,-1.953125,0.0
1734581365.7868845,-19.53125,-20.5078125,950.1953125,-3.90625,0.0
1734581365.7907903,-30.76171875,-31.25,948.73046875,-2.44140625,0.0
1734581365.794696,-25.87890625,-31.25,948.2421875,-0.9765625,0.0
1734581365.7986019,-15.625,-19.04296875,948.73046875,-15.13671875,0.0
1734581365.8025076,-17.578125,-14.16015625,946.2890625,-16.11328125,0.0
1734581365.8064134,-2.44140625,-20.01953125,942.3828125,-11.23046875,0.0
1734581365.8103192,1.953125,-19.04296875,944.82421875,-7.32421875,0.0
1734581365.814225,-5.859375,-17.08984375,944.3359375,-8.30078125,0.0
1734581365.8181367,-5.859375,-24.4140625,942.3828125,-2.44140625,0.0
1734581365.8220425,-1.953125,-23.4375,941.40625,2.44140625,0.0
1734581365.8259482,-7.8125,-24.4140625,939.453125,-10.25390625,0.0
1734581365.829854,-29.78515625,-19.04296875,938.96484375,-11.23046875,0.0
1734581365.8337598,-10.25390625,-16.6015625,931.15234375,-5.37109375,0.0
1734581365.8376653,11.71875,-25.87890625,915.52734375,-4.39453125,0.0
1734581365.841571,-25.390625,-27.83203125,914.0625,-12.6953125,0.0
1734581365.8454769,-20.01953125,-32.2265625,924.31640625,-14.16015625,0.0
1734581365.8493826,0.9765625,-41.015625,884.27734375,-3.90625,0.0
1734581365.8532884,-15.625,-42.48046875,858.88671875,-0.9765625,0.0
1734581365.8571942,-34.66796875,-34.66796875,891.6015625,-8.7890625,0.0
1734581365.8611,-39.0625,-25.390625,875.9765625,0.9765625,0.0
1734581365.8650112,-38.57421875,-28.3203125,867.1875,2.44140625,0.0
1734581365.868917,-30.2734375,-29.78515625,864.74609375,-0.9765625,0.0
1734581365.8728228,-29.296875,-23.4375,854.00390625,-12.6953125,0.0
1734581365.8767285,-18.06640625,-26.85546875,841.796875,-7.8125,0.0
1734581365.8806343,-5.37109375,-22.94921875,827.63671875,5.859375,0.0
1734581365.88454,-11.71875,-26.85546875,824.70703125,0.0,0.0
1734581365.8884459,-15.625,-28.80859375,825.68359375,2.44140625,0.0
1734581365.8923516,-26.85546875,-22.94921875,829.58984375,6.8359375,0.0
1734581365.8962574,-37.59765625,-25.87890625,795.8984375,8.30078125,0.0
1734581365.9001632,-25.87890625,-25.390625,794.43359375,4.39453125,0.0
1734581365.904069,-7.32421875,-35.15625,822.265625,-8.30078125,0.0
1734581365.9079747,-9.765625,-33.69140625,798.828125,-2.44140625,0.0
1734581365.9118857,-23.4375,-19.53125,771.97265625,9.765625,0.0
1734581365.9157915,-27.34375,-18.06640625,773.92578125,-6.8359375,0.0
1734581365.919697,-25.87890625,-18.5546875,770.5078125,-5.859375,0.0
1734581365.9236028,-31.25,-22.94921875,759.27734375,5.859375,0.0
1734581365.9275086,-32.71484375,-30.2734375,695.3125,5.37109375,0.0
1734581365.9314144,-36.1328125,-40.52734375,709.47265625,2.9296875,0.0
1734581365.9353201,-37.59765625,-43.45703125,759.27734375,-6.8359375,0.0
1734581365.939226,-20.5078125,-41.50390625,710.9375,-7.32421875,0.0
1734581365.9431317,-20.01953125,-35.64453125,596.19140625,11.23046875,0.0
1734581365.9470375,-46.875,-35.64453125,688.96484375,0.48828125,0.0
1734581365.9509432,-55.6640625,-33.203125,741.2109375,-17.578125,0.0
1734581365.954849,-54.6875,-30.76171875,656.25,-11.71875,0.0
1734581365.9587595,-39.0625,-31.73828125,647.4609375,-13.18359375,0.0
1734581365.9626653,-26.3671875,-36.1328125,687.01171875,-8.30078125,0.0
1734581365.966571,-36.62109375,-32.71484375,682.12890625,3.41796875,0.0
1734581365.9704766,-27.83203125,-59.5703125,600.5859375,-5.37109375,0.0
1734581365.9743824,-13.18359375,-68.84765625,544.43359375,-3.41796875,0.0
1734581365.9782882,-5.859375,-13.18359375,506.8359375,22.4609375,0.0
1734581365.982194,-30.2734375,2.44140625,506.34765625,-7.32421875,0.0
1734581365.9860997,-43.9453125,-12.20703125,495.60546875,-44.921875,0.0
1734581365.9900055,-40.52734375,-20.5078125,406.25,-29.296875,0.0
1734581365.9939113,-35.64453125,-24.4140625,535.15625,-29.78515625,0.0
1734581365.997817,-20.01953125,-23.92578125,626.953125,-20.5078125,0.0
1734581366.0017228,-53.22265625,-27.83203125,512.20703125,-0.48828125,0.0
1734581366.0056329,-71.77734375,-32.2265625,551.26953125,-21.484375,0.0
1734581366.0095387,-60.05859375,-30.2734375,629.8828125,-22.94921875,0.0
1734581366.0134444,-49.8046875,-22.4609375,555.17578125,2.9296875,0.0
1734581366.0173502,-47.36328125,-25.87890625,437.5,-2.9296875,0.0
1734581366.021256,-46.875,-33.203125,453.61328125,-19.53125,0.0
1734581366.0251617,-24.90234375,-26.3671875,442.3828125,-21.97265625,0.0
1734581366.0290675,-9.27734375,-31.25,384.27734375,-6.8359375,0.0
1734581366.0329733,-29.78515625,-37.59765625,263.18359375,2.9296875,0.0
1734581366.036879,-55.6640625,-22.94921875,353.02734375,-14.6484375,0.0
1734581366.0407848,-52.24609375,-20.5078125,476.5625,-34.66796875,0.0
1734581366.0446906,-39.0625,-35.15625,370.60546875,-16.11328125,0.0
1734581366.0485964,-31.73828125,-33.203125,316.89453125,0.9765625,0.0
1734581366.052506,-27.34375,-25.87890625,351.07421875,-6.8359375,0.0
1734581366.0564117,-27.34375,-29.78515625,300.29296875,-16.6015625,0.0
1734581366.0603175,-20.99609375,-38.0859375,201.171875,-8.30078125,0.0
1734581366.064223,0.9765625,-28.3203125,250.0,-14.16015625,0.0
1734581366.0681288,-7.8125,-13.671875,292.96875,-4.8828125,0.0
1734581366.0720346,-24.4140625,-18.06640625,237.3046875,12.20703125,0.0
1734581366.0759404,-32.2265625,-19.53125,137.6953125,2.9296875,0.0
1734581366.0798461,-27.83203125,-24.90234375,126.46484375,-3.41796875,0.0
1734581366.083752,-26.85546875,-29.78515625,323.73046875,-8.7890625,0.0
1734581366.0876577,-31.73828125,-32.71484375,295.41015625,2.9296875,0.0
1734581366.0915635,-46.875,-36.1328125,251.953125,2.44140625,0.0
1734581366.0954692,-45.8984375,-36.1328125,307.12890625,0.48828125,0.0
1734581366.0993783,-34.1796875,-30.76171875,350.5859375,4.39453125,0.0
1734581366.1032841,-46.875,-24.90234375,351.5625,-7.32421875,0.0
1734581366.10719,-41.50390625,-23.92578125,291.50390625,-14.16015625,0.0
1734581366.1110957,-36.1328125,-20.5078125,365.234375,-7.32421875,0.0
1734581366.1150014,-41.015625,-23.4375,397.4609375,8.30078125,0.0
1734581366.1189072,-33.69140625,-31.73828125,312.5,7.8125,0.0
1734581366.122813,-16.6015625,-27.34375,202.1484375,5.37109375,0.0
1734581366.1267188,-24.90234375,-19.53125,370.60546875,15.13671875,0.0
1734581366.1306245,-40.0390625,-20.01953125,532.71484375,9.765625,0.0
1734581366.1345303,-25.390625,-18.06640625,404.296875,-3.90625,0.0
1734581366.138436,-21.97265625,-24.90234375,331.0546875,-11.71875,0.0
1734581366.1423419,-34.66796875,-39.0625,384.765625,0.48828125,0.0
1734581366.1462505,-50.29296875,-39.55078125,410.64453125,0.0,0.0
1734581366.1501563,-29.296875,-32.2265625,365.72265625,-6.34765625,0.0
1734581366.154062,-22.94921875,-33.203125,352.05078125,-6.34765625,0.0
1734581366.1579678,-26.85546875,-29.296875,392.578125,12.20703125,0.0
1734581366.1618736,-16.11328125,-24.4140625,387.6953125,20.99609375,0.0
1734581366.1657794,-11.71875,-33.203125,270.99609375,27.83203125,0.0
1734581366.1696851,-38.0859375,-36.1328125,198.73046875,35.64453125,0.0
1734581366.173591,-52.734375,-23.92578125,399.4140625,8.30078125,0.0
1734581366.1774967,-48.33984375,-26.85546875,365.234375,-8.30078125,0.0
1734581366.1814022,-56.15234375,-34.1796875,249.0234375,11.23046875,0.0
1734581366.185308,-59.5703125,-38.0859375,333.0078125,16.11328125,0.0
1734581366.1892138,-74.70703125,-42.48046875,409.66796875,12.6953125,0.0
1734581366.1931255,-64.94140625,-33.69140625,381.8359375,7.8125,0.0
1734581366.1970313,-50.78125,-29.296875,299.31640625,3.90625,0.0
1734581366.200937,-48.33984375,-31.25,347.16796875,-4.8828125,0.0
1734581366.2048428,-41.50390625,-37.109375,409.66796875,-0.9765625,0.0
1734581366.2087486,-32.2265625,-40.52734375,387.6953125,2.9296875,0.0
1734581366.2126544,-15.625,-36.1328125,240.72265625,12.6953125,0.0
1734581366.2165601,-13.18359375,-31.25,275.390625,15.13671875,0.0
1734581366.220466,-34.66796875,-38.0859375,425.78125,11.23046875,0.0
1734581366.2243717,-23.92578125,-42.48046875,383.30078125,9.27734375,0.0
1734581366.2282774,4.39453125,-37.59765625,242.67578125,11.23046875,0.0
1734581366.2321832,-22.94921875,-39.0625,338.8671875,18.5546875,0.0
1734581366.236089,-52.24609375,-35.15625,365.72265625,28.80859375,0.0
1734581366.2400002,-27.83203125,-31.73828125,294.921875,34.1796875,0.0
1734581366.243906,-11.23046875,-42.48046875,324.21875,20.5078125,0.0
1734581366.2478118,-17.08984375,-43.9453125,326.171875,9.27734375,0.0
1734581366.2517176,-42.48046875,-35.15625,289.55078125,3.90625,0.0
1734581366.2556233,-38.57421875,-32.2265625,198.2421875,7.32421875,0.0
1734581366.259529,-27.83203125,-36.1328125,134.27734375,13.18359375,0.0
1734581366.263435,-51.26953125,-36.62109375,193.359375,17.08984375,0.0
1734581366.2673407,-55.6640625,-34.66796875,244.62890625,18.5546875,0.0
1734581366.2712464,-33.69140625,-35.64453125,76.171875,29.296875,0.0
1734581366.2751522,-32.71484375,-40.52734375,-32.71484375,40.0390625,0.0
1734581366.279058,-27.83203125,-42.48046875,186.5234375,41.015625,0.0
1734581366.2829638,-22.4609375,-44.921875,151.85546875,31.73828125,0.0
1734581366.2868748,-26.3671875,-46.875,0.0,16.6015625,0.0
1734581366.2907805,-23.4375,-41.50390625,0.0,27.34375,0.0
1734581366.2946863,-27.34375,-41.50390625,0.0,25.390625,0.0
1734581366.298592,-29.296875,-39.0625,0.0,25.390625,0.0
1734581366.3024979,-37.109375,-35.15625,0.0,35.64453125,0.0
1734581366.3064036,-41.9921875,-37.59765625,0.0,29.296875,0.0
1734581366.3103094,-39.55078125,-31.73828125,0.0,24.4140625,0.0
1734581366.3142152,-12.6953125,-27.83203125,0.0,14.6484375,0.0
1734581366.318121,33.203125,-33.69140625,0.0,34.66796875,0.0
1734581366.3220267,5.859375,-30.76171875,0.0,54.6875,0.0
1734581366.3259325,-22.4609375,-20.99609375,0.0,27.83203125,0.0
1734581366.3298383,-6.34765625,-18.5546875,0.0,1.46484375,0.0
1734581366.3337483,-31.25,-30.2734375,-468.26171875,8.30078125,0.0
1734581366.337654,-48.33984375,-33.203125,-409.66796875,10.7421875,0.0
1734581366.34156,-21.97265625,-29.296875,-426.26953125,8.7890625,0.0
1734581366.3454657,-6.8359375,-29.78515625,-468.26171875,25.87890625,0.0
1734581366.3493714,-24.4140625,-23.4375,-426.7578125,25.87890625,0.0
1734581366.3532772,-20.5078125,-20.01953125,-436.5234375,19.53125,0.0
1734581366.357183,-2.44140625,-21.484375,-448.73046875,12.20703125,0.0
1734581366.3610888,-13.671875,-20.5078125,-461.9140625,23.4375,0.0
1734581366.3649945,-23.92578125,-14.6484375,-496.58203125,24.4140625,0.0
1734581366.3689003,-33.203125,-17.578125,-319.82421875,11.71875,0.0
1734581366.372806,-24.4140625,-18.5546875,-254.8828125,13.671875,0.0
1734581366.3767118,-26.3671875,-23.92578125,-339.35546875,20.99609375,0.0
1734581366.380622,-32.71484375,-33.69140625,-300.29296875,27.34375,0.0
1734581366.3845277,2.44140625,-10.25390625,-225.09765625,16.6015625,0.0
1734581366.3884335,1.46484375,-0.48828125,-253.90625,10.7421875,0.0
1734581366.3923392,-10.25390625,-0.48828125,-308.59375,21.97265625,0.0
1734581366.396245,14.6484375,-1.46484375,-199.21875,33.203125,0.0
1734581366.4001508,5.37109375,-15.13671875,-186.5234375,26.85546875,0.0
1734581366.4040565,-4.39453125,-18.06640625,-212.890625,25.87890625,0.0
1734581366.4079623,-2.9296875,-22.94921875,-244.140625,41.9921875,0.0
1734581366.4118679,-12.20703125,-15.625,-125.0,24.90234375,0.0
1734581366.4157736,-27.34375,-6.8359375,0.9765625,9.27734375,0.0
1734581366.4196794,-48.828125,-24.90234375,-30.2734375,13.18359375,0.0
1734581366.4235852,-32.71484375,-27.34375,-28.80859375,16.6015625,0.0
1734581366.4274948,1.46484375,-13.671875,41.9921875,28.3203125,0.0
1734581366.4314005,-10.25390625,-20.99609375,32.2265625,41.015625,0.0
1734581366.4353063,-27.34375,-23.4375,-14.6484375,37.109375,0.0
1734581366.439212,-34.1796875,-18.06640625,10.25390625,22.4609375,0.0
1734581366.4431179,-28.3203125,-30.2734375,52.24609375,32.71484375,0.0
1734581366.4470236,-18.5546875,-33.69140625,13.18359375,42.48046875,0.0
1734581366.4509294,-5.859375,-27.83203125,-91.796875,8.30078125,0.0
1734581366.4548352,36.1328125,-31.25,-108.3984375,21.97265625,0.0
1734581366.458741,-12.20703125,-25.87890625,80.56640625,50.29296875,0.0
1734581366.4626467,-25.390625,-25.87890625,61.03515625,23.4375,0.0
1734581366.4665525,11.23046875,-34.1796875,37.109375,22.94921875,0.0
1734581366.4704583,-18.5546875,-22.94921875,91.30859375,35.15625,0.0
1734581366.4743674,-27.83203125,-12.6953125,69.3359375,10.25390625,0.0
1734581366.4782732,-14.16015625,-14.6484375,90.8203125,34.66796875,0.0
1734581366.482179,-24.4140625,-18.06640625,41.9921875,56.640625,0.0
1734581366.4860847,-21.484375,-12.20703125,104.00390625,30.2734375,0.0
1734581366.4899905,-16.11328125,-11.71875,138.671875,26.85546875,0.0
1734581366.4938962,-13.671875,-20.99609375,4.8828125,41.015625,0.0
1734581366.497802,-2.44140625,-21.97265625,-137.6953125,28.80859375,0.0
1734581366.5017078,-29.296875,-29.296875,27.83203125,26.3671875,0.0
1734581366.5056136,-46.875,-32.2265625,198.2421875,41.50390625,0.0
1734581366.5095193,-24.4140625,-26.3671875,98.6328125,42.96875,0.0
1734581366.513425,-10.7421875,-25.87890625,43.9453125,38.0859375,0.0
1734581366.517331,-4.8828125,-33.203125,99.609375,20.01953125,0.0
1734581366.5212395,-9.27734375,-30.76171875,103.02734375,22.4609375,0.0
1734581366.5251453,-11.71875,-26.3671875,97.65625,33.203125,0.0
1734581366.529051,16.11328125,-22.4609375,86.9140625,23.4375,0.0
1734581366.5329568,-6.34765625,-26.3671875,75.1953125,25.390625,0.0
1734581366.5368626,-37.59765625,-21.97265625,133.30078125,47.8515625,0.0
1734581366.5407684,-25.87890625,-20.99609375,32.2265625,55.17578125,0.0
1734581366.5446742,-5.37109375,-27.83203125,-63.4765625,54.6875,0.0
1734581366.54858,-2.44140625,-22.4609375,209.9609375,45.41015625,0.0
1734581366.5524857,-21.97265625,-24.4140625,226.07421875,32.2265625,0.0
1734581366.5563915,-40.0390625,-32.2265625,74.21875,19.53125,0.0
1734581366.5602973,-33.69140625,-25.87890625,146.484375,13.18359375,0.0
1734581366.564203,-33.69140625,-21.484375,206.0546875,30.2734375,0.0
1734581366.5681148,-31.73828125,-28.3203125,179.6875,23.92578125,0.0
1734581366.5720205,-20.01953125,-32.2265625,112.3046875,23.4375,0.0
1734581366.5759263,-23.92578125,-25.87890625,149.4140625,33.69140625,0.0
1734581366.579832,-34.66796875,-32.71484375,204.1015625,33.69140625,0.0
1734581366.5837379,-29.296875,-31.73828125,165.52734375,29.296875,0.0
1734581366.5876436,-13.18359375,-24.90234375,65.91796875,31.73828125,0.0
1734581366.5915494,1.953125,-22.4609375,100.09765625,18.06640625,0.0
1734581366.5954552,-12.6953125,-20.99609375,210.44921875,6.8359375,0.0
1734581366.599361,-31.73828125,-26.85546875,195.3125,19.04296875,0.0
1734581366.6032667,-28.80859375,-25.87890625,11.23046875,15.13671875,0.0
1734581366.6071725,-27.34375,-28.3203125,160.64453125,29.296875,0.0
1734581366.6110783,-26.85546875,-34.66796875,267.08984375,34.1796875,0.0
1734581366.6149895,0.0,-33.69140625,0.0,24.4140625,0.0
1734581366.6188953,0.0,-28.3203125,0.0,31.25,0.0
1734581366.622801,0.0,-33.203125,0.0,20.99609375,0.0
1734581366.6267068,0.0,-39.0625,0.0,14.6484375,0.0
1734581366.6306126,0.0,-28.80859375,0.0,28.3203125,0.0
1734581366.6345184,0.0,-26.85546875,0.0,55.6640625,0.0
1734581366.6384242,0.0,-41.50390625,0.0,51.26953125,0.0
1734581366.64233,0.0,-47.36328125,0.0,28.3203125,0.0
1734581366.6462357,0.0,-45.8984375,0.0,30.2734375,0.0
1734581366.6501415,0.0,-36.62109375,0.0,30.2734375,0.0
1734581366.6540473,0.0,-24.4140625,0.0,23.4375,0.0
1734581366.657953,0.0,-17.08984375,0.0,21.97265625,0.0
1734581366.6618638,-38.0859375,-21.484375,130.37109375,2.9296875,0.0
1734581366.6657696,-38.57421875,-32.71484375,157.2265625,-4.8828125,0.0
1734581366.6696754,-30.2734375,-39.0625,208.984375,18.5546875,0.0
1734581366.6735811,-11.71875,-38.0859375,160.64453125,25.87890625,0.0
1734581366.677487,-0.48828125,-36.1328125,57.6171875,21.97265625,0.0
1734581366.6813927,-26.3671875,-34.66796875,44.43359375,10.7421875,0.0
1734581366.6852984,-50.29296875,-28.80859375,142.08984375,5.37109375,0.0
1734581366.6892042,-19.04296875,-33.69140625,176.26953125,5.859375,0.0
1734581366.69311,-20.5078125,-42.48046875,-17.08984375,17.08984375,0.0
1734581366.6970158,-49.31640625,-45.8984375,99.609375,19.04296875,0.0
1734581366.7009215,-40.0390625,-50.29296875,254.39453125,21.484375,0.0
1734581366.7048273,-27.34375,-74.70703125,154.296875,27.34375,0.0
1734581366.7087376,-33.203125,-66.89453125,85.44921875,7.32421875,0.0
1734581366.7126434,-49.31640625,-28.80859375,157.2265625,4.39453125,0.0
1734581366.7165492,-39.0625,-20.5078125,179.19921875,4.8828125,0.0
1734581366.720455,-20.99609375,-29.296875,93.26171875,-6.8359375,0.0
1734581366.7243607,-30.2734375,-35.15625,76.66015625,14.6484375,0.0
1734581366.7282665,-42.48046875,-33.69140625,83.0078125,11.71875,0.0
1734581366.7321723,-47.36328125,-34.1796875,104.00390625,-3.41796875,0.0
1734581366.736078,-41.9921875,-35.64453125,100.5859375,4.8828125,0.0
1734581366.7399838,-40.52734375,-37.59765625,77.63671875,0.48828125,0.0
1734581366.7438896,-59.5703125,-36.1328125,82.51953125,5.37109375,0.0
1734581366.747795,-62.5,-37.109375,132.32421875,3.90625,0.0
1734581366.7517009,-55.6640625,-39.55078125,36.1328125,1.953125,0.0
1734581366.755611,-29.78515625,-41.50390625,21.97265625,12.6953125,0.0
1734581366.7595167,-29.296875,-42.48046875,169.921875,5.859375,0.0
1734581366.7634225,-58.10546875,-42.96875,125.9765625,0.48828125,0.0
1734581366.7673283,-26.3671875,-39.0625,22.4609375,2.9296875,0.0
1734581366.771234,1.953125,-41.50390625,84.9609375,0.9765625,0.0
1734581366.7751398,-42.48046875,-48.828125,67.87109375,-9.27734375,0.0
1734581366.7790456,-55.17578125,-54.19921875,-1.953125,-18.06640625,0.0
1734581366.7829514,-38.57421875,-51.7578125,-85.9375,-10.25390625,0.0
1734581366.7868571,-38.57421875,-41.50390625,68.359375,6.8359375,0.0
1734581366.790763,-20.01953125,-37.59765625,240.72265625,11.23046875,0.0
1734581366.7946687,-24.4140625,-38.57421875,132.32421875,0.9765625,0.0
1734581366.7985744,-33.69140625,-38.57421875,63.96484375,4.39453125,0.0
1734581366.802484,-22.4609375,-33.203125,104.00390625,5.37109375,0.0
1734581366.8063898,-49.8046875,-42.96875,128.41796875,-4.8828125,0.0
1734581366.8102953,-61.03515625,-51.26953125,85.44921875,-0.9765625,0.0
1734581366.814201,-46.875,-38.0859375,74.70703125,15.13671875,0.0
1734581366.818107,-16.11328125,-30.76171875,86.9140625,18.5546875,0.0
1734581366.8220127,-16.11328125,-35.64453125,37.109375,29.296875,0.0
1734581366.8259184,-57.12890625,-42.48046875,-17.578125,29.296875,0.0
1734581366.8298242,-52.734375,-38.57421875,-29.296875,13.671875,0.0
1734581366.83373,-45.8984375,-29.78515625,153.80859375,-0.48828125,0.0
1734581366.8376358,-17.08984375,-28.80859375,109.86328125,12.6953125,0.0
1734581366.8415415,12.6953125,-39.0625,46.875,13.671875,0.0
1734581366.8454473,-18.06640625,-42.96875,119.62890625,14.16015625,0.0
1734581366.8493564,-50.78125,-47.36328125,156.73828125,10.25390625,0.0
1734581366.8532622,-42.96875,-46.38671875,105.46875,-7.32421875,0.0
1734581366.8571677,-36.1328125,-38.0859375,-32.2265625,-7.8125,0.0
1734581366.8610735,-27.83203125,-29.78515625,31.25,-2.44140625,0.0
1734581366.8649793,-16.11328125,-30.76171875,128.90625,6.8359375,0.0
1734581366.868885,-20.99609375,-29.296875,60.05859375,21.484375,0.0
1734581366.8727908,-27.34375,-29.78515625,-74.70703125,15.625,0.0
1734581366.8766966,-20.5078125,-41.015625,53.7109375,-5.37109375,0.0
1734581366.8806024,-52.734375,-44.921875,210.44921875,-12.20703125,0.0
1734581366.8845081,-49.8046875,-45.41015625,88.8671875,-15.625,0.0
1734581366.888414,-22.4609375,-42.48046875,58.10546875,-8.7890625,0.0
1734581366.8923197,-29.78515625,-43.9453125,142.578125,6.8359375,0.0
1734581366.8962283,-40.0390625,-42.96875,130.37109375,-14.16015625,0.0
1734581366.900134,-34.66796875,-33.203125,57.6171875,-24.4140625,0.0
1734581366.9040399,-15.13671875,-30.2734375,46.875,-0.48828125,0.0
1734581366.9079456,-23.92578125,-33.69140625,123.53515625,3.90625,0.0
1734581366.9118514,-41.015625,-31.73828125,138.671875,-8.30078125,0.0
1734581366.9157572,-36.1328125,-29.296875,-13.671875,-6.8359375,0.0
1734581366.919663,-25.87890625,-36.1328125,-69.82421875,1.953125,0.0
1734581366.9235687,-24.90234375,-29.78515625,138.671875,4.39453125,0.0
1734581366.9274745,3.41796875,-15.13671875,136.71875,-4.39453125,0.0
1734581366.9313803,16.11328125,-4.39453125,35.64453125,-20.5078125,0.0
1734581366.935286,-39.55078125,-3.90625,100.5859375,-20.5078125,0.0
1734581366.9391918,-49.31640625,-10.25390625,155.76171875,-11.23046875,0.0
1734581366.9431033,-16.6015625,-12.20703125,106.4453125,-21.484375,0.0
1734581366.947009,6.34765625,-13.671875,54.19921875,-14.6484375,0.0
1734581366.9509149,8.7890625,-18.06640625,149.90234375,-4.8828125,0.0
1734581366.9548206,-8.30078125,-21.97265625,205.078125,-20.5078125,0.0
1734581366.9587264,-24.4140625,-22.4609375,146.97265625,-11.23046875,0.0
1734581366.9626322,-32.71484375,-17.08984375,55.17578125,-0.48828125,0.0
1734581366.966538,-38.0859375,-18.5546875,139.6484375,-10.25390625,0.0
1734581366.9704437,-41.50390625,-22.4609375,280.76171875,-23.92578125,0.0
1734581366.9743495,-41.015625,-29.78515625,208.984375,-13.671875,0.0
1734581366.9782553,-29.78515625,-24.90234375,9.765625,-2.9296875,0.0
1734581366.982161,-28.3203125,-14.6484375,167.96875,-13.671875,0.0
1734581366.9860668,-33.203125,-20.01953125,339.35546875,-5.859375,0.0
1734581366.989978,-24.90234375,-20.01953125,284.1796875,-11.23046875,0.0
1734581366.9938838,-18.5546875,-15.625,260.7421875,-18.06640625,0.0
1734581366.9977896,-6.34765625,-20.99609375,306.15234375,-6.8359375,0.0
1734581367.0016954,0.48828125,-28.80859375,281.25,-16.11328125,0.0
1734581367.0056012,-20.5078125,-30.2734375,224.609375,-22.4609375,0.0
1734581367.009507,-9.765625,-32.2265625,213.8671875,-9.27734375,0.0
1734581367.0134127,12.6953125,-32.71484375,287.109375,-10.25390625,0.0
1734581367.0173185,-18.5546875,-36.1328125,372.0703125,-21.484375,0.0
1734581367.0212243,-26.85546875,-38.57421875,191.89453125,-12.6953125,0.0
1734581367.02513,-20.5078125,-29.296875,102.05078125,4.39453125,0.0
1734581367.0290358,-32.71484375,-23.92578125,380.37109375,-6.34765625,0.0
1734581367.0329416,-35.64453125,-29.296875,377.9296875,-20.99609375,0.0
1734581367.0368521,-13.18359375,-35.15625,227.05078125,-1.46484375,0.0
1734581367.040758,-5.859375,-24.90234375,258.7890625,13.18359375,0.0
1734581367.0446637,-21.97265625,-17.578125,302.24609375,-15.13671875,0.0
1734581367.0485694,-33.203125,-21.97265625,245.1171875,-17.578125,0.0
1734581367.0524752,-49.31640625,-30.76171875,142.578125,-9.27734375,0.0
1734581367.056381,-70.3125,-31.73828125,138.671875,-26.85546875,0.0
1734581367.0602868,-57.12890625,-28.80859375,211.42578125,-40.0390625,0.0
1734581367.0641925,-34.66796875,-31.73828125,231.93359375,-55.17578125,0.0
1734581367.0680983,-70.80078125,-39.0625,148.4375,-61.03515625,0.0
1734581367.072004,-90.33203125,-38.57421875,318.359375,-66.89453125,0.0
1734581367.0759099,-84.47265625,-28.80859375,410.64453125,-90.8203125,0.0
1734581367.0798156,-125.0,-25.87890625,239.74609375,-113.28125,0.0
1734581367.0837262,-143.5546875,-29.78515625,0.0,-132.8125,0.0
1734581367.087632,-150.390625,-41.50390625,0.0,-151.85546875,0.0
1734581367.0915377,-173.33984375,-34.66796875,0.0,-178.7109375,0.0
1734581367.0954435,-207.03125,-16.11328125,0.0,-207.03125,0.0
1734581367.099349,-201.66015625,-8.30078125,0.0,-209.47265625,0.0
1734581367.1032548,-166.9921875,-8.30078125,0.0,-197.75390625,0.0
1734581367.1071606,-195.3125,-22.4609375,0.0,-194.82421875,0.0
1734581367.1110663,-228.02734375,-20.5078125,0.0,-189.453125,0.0
1734581367.114972,-207.51953125,-8.7890625,0.0,-173.828125,0.0
1734581367.118878,-187.98828125,-14.16015625,0.0,-165.52734375,0.0
1734581367.1227837,-173.828125,-20.01953125,0.0,-160.64453125,0.0
1734581367.1266894,-162.59765625,-30.76171875,0.0,-166.50390625,0.0
1734581367.1305995,-145.01953125,-43.9453125,400.87890625,-136.71875,0.0
1734581367.1345053,-123.046875,-46.38671875,375.0,-124.51171875,0.0
1734581367.138411,-116.2109375,-35.15625,266.11328125,-130.859375,0.0
1734581367.1423168,-79.1015625,-12.6953125,181.15234375,-106.93359375,0.0
1734581367.1462226,-60.546875,-10.7421875,269.53125,-91.796875,0.0
1734581367.1501284,-66.40625,-27.83203125,262.20703125,-65.4296875,0.0
1734581367.1540341,-60.546875,-39.55078125,210.9375,-63.96484375,0.0
1734581367.15794,-42.96875,-39.0625,102.05078125,-64.94140625,0.0
1734581367.1618457,-21.97265625,-42.96875,249.0234375,-41.015625,0.0
1734581367.1657515,-0.48828125,-42.48046875,431.640625,-40.52734375,0.0
1734581367.1696572,12.6953125,-43.45703125,294.43359375,-26.3671875,0.0
1734581367.173563,7.32421875,-43.9453125,212.890625,0.9765625,0.0
1734581367.1774726,-20.01953125,-44.43359375,0.0,13.671875,0.0
1734581367.1813784,-26.85546875,-41.50390625,0.0,12.20703125,0.0
1734581367.1852841,-5.37109375,-37.109375,0.0,12.20703125,0.0
1734581367.18919,17.578125,-32.71484375,0.0,28.3203125,0.0
1734581367.1930957,31.73828125,-28.3203125,0.0,23.4375,0.0
1734581367.1970015,34.66796875,-25.87890625,0.0,18.5546875,0.0
1734581367.2009072,34.1796875,-30.76171875,0.0,25.390625,0.0
1734581367.2048128,28.3203125,-33.203125,0.0,44.921875,0.0
1734581367.2087185,12.20703125,-33.203125,0.0,36.62109375,0.0
1734581367.2126243,25.87890625,-37.59765625,0.0,19.04296875,0.0
1734581367.21653,16.6015625,-37.59765625,0.0,21.97265625,0.0
1734581367.2204359,-3.41796875,-40.0390625,0.0,26.85546875,0.0
1734581367.2243452,12.20703125,-45.41015625,215.33203125,33.203125,0.0
1734581367.228251,25.87890625,-43.45703125,187.5,38.57421875,0.0
1734581367.2321568,31.25,-54.6875,91.796875,37.59765625,0.0
1734581367.2360623,36.1328125,-55.6640625,114.2578125,37.109375,0.0
1734581367.239968,41.015625,-35.64453125,103.02734375,37.109375,0.0
1734581367.2438738,36.62109375,-16.11328125,48.33984375,21.97265625,0.0
1734581367.2477796,28.3203125,-14.16015625,-48.828125,29.78515625,0.0
1734581367.2516854,16.6015625,-15.625,79.58984375,43.45703125,0.0
1734581367.2555912,29.78515625,-16.11328125,233.88671875,31.73828125,0.0
1734581367.259497,53.22265625,-21.97265625,120.60546875,25.87890625,0.0
1734581367.2634027,60.05859375,-34.1796875,54.6875,31.25,0.0
1734581367.2673085,47.8515625,-38.0859375,128.90625,34.66796875,0.0
1734581367.271217,19.04296875,-47.36328125,138.18359375,45.41015625,0.0
1734581367.275123,-4.8828125,-44.43359375,51.26953125,49.8046875,0.0
1734581367.2790287,-3.41796875,-22.94921875,13.18359375,32.71484375,0.0
1734581367.2829344,20.5078125,-18.5546875,59.08203125,33.203125,0.0
1734581367.2868402,18.06640625,-40.0390625,115.72265625,26.85546875,0.0
1734581367.290746,11.23046875,-41.50390625,-7.8125,13.18359375,0.0
1734581367.2946517,19.04296875,-32.71484375,-97.16796875,20.99609375,0.0
1734581367.2985575,8.7890625,-34.66796875,87.40234375,17.08984375,0.0
1734581367.3024633,9.27734375,-41.9921875,97.16796875,11.23046875,0.0
1734581367.306369,26.85546875,-39.0625,49.8046875,18.06640625,0.0
1734581367.3102748,30.2734375,-39.0625,133.30078125,34.1796875,0.0
1734581367.3141806,28.3203125,-57.6171875,170.8984375,25.390625,0.0
1734581367.3180923,17.578125,-45.41015625,98.6328125,0.0,0.0
1734581367.3219981,5.859375,-22.4609375,12.20703125,0.0,0.0
1734581367.325904,17.578125,-27.83203125,66.89453125,0.0,0.0
1734581367.3298097,6.34765625,-27.83203125,135.25390625,0.0,0.0
1734581367.3337154,13.18359375,-35.15625,55.6640625,0.0,0.0
1734581367.3376212,20.01953125,-32.71484375,-121.09375,0.0,0.0
1734581367.341527,-2.44140625,-19.04296875,-51.7578125,0.0,0.0
1734581367.3454328,1.953125,-24.90234375,79.58984375,0.0,0.0
1734581367.3493385,-3.90625,-33.203125,-46.875,0.0,0.0
1734581367.3532443,8.30078125,-43.45703125,-270.01953125,0.0,0.0
1734581367.35715,13.18359375,-37.109375,-174.31640625,0.0,0.0
1734581367.3610559,-15.13671875,-33.203125,-52.24609375,0.0,0.0
1734581367.364967,-32.71484375,-39.0625,-81.0546875,-22.4609375,0.0
1734581367.368873,-34.66796875,-36.1328125,-94.7265625,-40.52734375,0.0
1734581367.3727787,-25.390625,-35.64453125,-50.78125,-42.48046875,0.0
1734581367.3766844,-9.27734375,-34.66796875,-64.94140625,-41.9921875,0.0
1734581367.3805902,5.37109375,-33.203125,-142.578125,-28.80859375,0.0
1734581367.384496,-5.37109375,-39.55078125,-185.05859375,-19.04296875,0.0
1734581367.3884017,-34.1796875,-49.8046875,-121.09375,-34.66796875,0.0
1734581367.3923075,-20.99609375,-38.57421875,-38.0859375,-35.64453125,0.0
1734581367.3962133,8.7890625,-36.1328125,-172.36328125,-18.5546875,0.0
1734581367.400119,-11.23046875,-36.1328125,-270.5078125,-11.23046875,0.0
1734581367.4040248,-27.83203125,-17.08984375,11.23046875,-30.76171875,0.0
1734581367.4079306,12.6953125,-26.3671875,47.36328125,-35.64453125,0.0
1734581367.4118414,15.625,-31.73828125,-73.73046875,-26.85546875,0.0
1734581367.4157472,-18.5546875,-14.16015625,-41.50390625,-16.11328125,0.0
1734581367.419653,-26.3671875,-28.3203125,-35.64453125,-6.8359375,0.0
1734581367.4235587,-14.16015625,-54.6875,-10.7421875,-7.8125,0.0
1734581367.4274645,-23.92578125,-39.55078125,-52.24609375,-19.53125,0.0
1734581367.43137,-32.71484375,-19.04296875,-88.8671875,-24.90234375,0.0
1734581367.4352758,-36.1328125,-18.06640625,-30.2734375,-27.34375,0.0
1734581367.4391816,-44.43359375,-22.94921875,19.53125,-25.390625,0.0
1734581367.4430873,-23.4375,-31.25,-161.1328125,-2.9296875,0.0
1734581367.446993,-22.4609375,-42.48046875,-10.7421875,0.48828125,0.0
1734581367.450899,-43.45703125,-43.45703125,143.5546875,-22.4609375,0.0
1734581367.4548047,-45.8984375,-36.62109375,-10.7421875,-42.96875,0.0
1734581367.4587154,-39.0625,-31.25,-29.296875,0.0,0.0
1734581367.4626212,-39.55078125,-31.25,23.4375,0.0,0.0
1734581367.466527,-28.80859375,-45.8984375,20.5078125,0.0,0.0
1734581367.4704328,-17.08984375,-41.015625,-28.3203125,0.0,0.0
1734581367.4743385,-24.4140625,-31.25,-52.734375,0.0,0.0
1734581367.4782443,-33.203125,-50.29296875,-70.3125,0.0,0.0
1734581367.48215,-25.87890625,-34.66796875,-39.55078125,0.0,0.0
1734581367.4860559,-38.0859375,-19.04296875,-41.015625,0.0,0.0
1734581367.4899616,-65.91796875,-25.390625,-142.578125,0.0,0.0
1734581367.4938674,-50.78125,-30.76171875,29.296875,0.0,0.0
1734581367.4977732,-25.390625,-32.71484375,122.0703125,0.0,0.0
1734581367.501679,-30.2734375,-34.66796875,-4.8828125,0.0,0.0
1734581367.5055888,-48.33984375,-39.55078125,43.9453125,-26.3671875,0.0
1734581367.5094945,-30.2734375,-52.24609375,97.65625,-35.64453125,0.0
1734581367.5134003,6.8359375,-34.1796875,-0.9765625,-33.69140625,0.0
1734581367.517306,-49.31640625,-23.4375,-71.77734375,-29.78515625,0.0
1734581367.5212119,-68.84765625,-32.71484375,-22.94921875,-22.94921875,0.0
1734581367.5251176,-37.59765625,-34.1796875,-56.640625,-16.6015625,0.0
1734581367.5290234,-34.1796875,-30.2734375,-64.94140625,-20.99609375,0.0
1734581367.5329292,-29.296875,-28.80859375,-170.8984375,-20.5078125,0.0
1734581367.536835,-26.85546875,-30.76171875,-98.14453125,-23.4375,0.0
1734581367.5407407,-28.3203125,-33.69140625,95.703125,-30.76171875,0.0
1734581367.5446465,-33.69140625,-37.59765625,18.5546875,-39.0625,0.0
1734581367.5485523,-19.53125,-32.71484375,-37.109375,-38.57421875,0.0
1734581367.5524619,0.0,-30.2734375,13.18359375,-36.62109375,0.0
1734581367.5563676,0.0,-34.1796875,4.8828125,-34.1796875,0.0
1734581367.5602734,0.0,-34.66796875,-73.73046875,-30.2734375,0.0
1734581367.5641792,0.0,-32.71484375,-62.98828125,-30.76171875,0.0
1734581367.568085,0.0,-36.1328125,-25.87890625,-41.50390625,0.0
1734581367.5719907,0.0,-46.875,-76.66015625,-36.1328125,0.0
1734581367.5758965,0.0,-40.52734375,-151.85546875,-32.2265625,0.0
1734581367.5798023,0.0,-28.3203125,-187.98828125,-32.2265625,0.0
1734581367.583708,0.0,-43.9453125,20.5078125,-32.71484375,0.0
1734581367.5876138,0.0,-50.78125,25.390625,-30.76171875,0.0
1734581367.5915194,0.0,-38.57421875,-65.91796875,-24.4140625,0.0
1734581367.5954251,0.0,-40.52734375,-62.01171875,-38.57421875,0.0
1734581367.5993345,-40.52734375,-36.1328125,-4.8828125,-44.43359375,0.0
1734581367.6032403,-44.43359375,-31.73828125,-2.9296875,-43.9453125,0.0
1734581367.607146,-64.453125,-39.0625,-113.76953125,-57.12890625,0.0
1734581367.6110518,-66.89453125,-33.69140625,-80.078125,-39.0625,0.0
1734581367.6149576,-48.828125,-25.390625,-30.76171875,-31.73828125,0.0
1734581367.6188633,-33.69140625,-25.87890625,-127.44140625,-42.48046875,0.0
1734581367.622769,-32.71484375,-29.296875,-255.37109375,-30.76171875,0.0
1734581367.626675,-40.52734375,-24.90234375,-96.19140625,-21.97265625,0.0
1734581367.6305807,-25.390625,-26.85546875,69.82421875,-25.87890625,0.0
1734581367.6344864,-18.5546875,-31.25,-23.92578125,-34.1796875,0.0
1734581367.6383922,-31.73828125,-29.296875,-95.21484375,-41.9921875,0.0
1734581367.642298,-42.48046875,-30.76171875,-40.52734375,-40.0390625,0.0
1734581367.6462064,-35.64453125,-33.203125,11.71875,-35.15625,0.0
1734581367.6501122,-25.390625,-39.55078125,-40.0390625,-41.9921875,0.0
1734581367.654018,-18.5546875,-50.29296875,-120.60546875,-35.15625,0.0
1734581367.6579237,-21.97265625,-41.50390625,-31.25,-25.87890625,0.0
1734581367.6618295,-18.5546875,-36.62109375,38.57421875,-30.2734375,0.0
1734581367.6657352,-6.8359375,-34.1796875,-95.21484375,-28.3203125,0.0
1734581367.669641,-18.06640625,-22.4609375,-139.6484375,-32.71484375,0.0
1734581367.6735468,-32.71484375,-27.83203125,70.80078125,-47.8515625,0.0
1734581367.6774526,-18.06640625,-43.9453125,49.8046875,-37.109375,0.0
1734581367.6813583,-23.92578125,-34.1796875,-72.75390625,-29.78515625,0.0
1734581367.685264,-27.83203125,-20.5078125,17.578125,-36.1328125,0.0
1734581367.68917,-40.0390625,-20.01953125,84.47265625,-35.15625,0.0
1734581367.6930814,-50.78125,-23.4375,31.25,-29.78515625,0.0
1734581367.6969872,-35.64453125,-19.53125,-48.33984375,-35.64453125,0.0
1734581367.700893,-31.73828125,-18.06640625,-3.90625,-42.96875,0.0
1734581367.7047987,-19.53125,-21.97265625,74.21875,-39.55078125,0.0
1734581367.7087045,-28.3203125,-25.390625,30.2734375,-33.203125,0.0
1734581367.7126102,-30.76171875,-28.3203125,-101.5625,-20.99609375,0.0
1734581367.716516,-36.1328125,-30.2734375,-84.47265625,-27.34375,0.0
1734581367.7204218,-46.38671875,-31.73828125,0.48828125,-41.50390625,0.0
1734581367.7243276,-39.0625,-31.25,23.4375,-48.828125,0.0
1734581367.7282333,-28.80859375,-33.69140625,-116.69921875,-29.296875,0.0
1734581367.732139,-37.109375,-31.73828125,6.34765625,-10.7421875,0.0
1734581367.736045,-46.38671875,-35.64453125,131.8359375,-23.4375,0.0
1734581367.7399561,-40.52734375,-31.73828125,27.34375,-41.015625,0.0
1734581367.743862,-37.109375,-24.90234375,36.62109375,-34.66796875,0.0
1734581367.7477677,-10.25390625,-28.80859375,91.30859375,-23.92578125,0.0
1734581367.7516735,7.8125,-32.2265625,83.984375,-29.78515625,0.0
1734581367.7555792,-12.20703125,-39.55078125,29.296875,-35.64453125,0.0
1734581367.759485,-14.6484375,-35.15625,-56.640625,-20.5078125,0.0
1734581367.7633908,-3.90625,-43.9453125,21.97265625,-23.92578125,0.0
1734581367.7672966,-7.8125,-35.64453125,139.6484375,-35.64453125,0.0
1734581367.7712023,-21.97265625,-13.671875,-10.7421875,-40.52734375,0.0
1734581367.775108,-28.80859375,-15.625,-158.203125,-33.69140625,0.0
1734581367.7790139,-41.50390625,-20.5078125,103.02734375,-27.34375,0.0
1734581367.7829196,-32.2265625,-23.4375,160.64453125,-24.4140625,0.0
1734581367.7868304,-32.71484375,-26.85546875,32.2265625,-24.4140625,0.0
1734581367.7907362,-38.57421875,-23.4375,80.078125,-23.4375,0.0
1734581367.794642,-54.6875,-27.83203125,119.62890625,-27.34375,0.0
1734581367.7985477,-49.31640625,-34.1796875,55.6640625,-37.59765625,0.0
1734581367.8024535,-30.76171875,-32.71484375,-45.8984375,-37.109375,0.0
1734581367.8063593,-62.01171875,-41.9921875,-48.33984375,-34.66796875,0.0
1734581367.810265,-25.87890625,-44.43359375,28.80859375,-29.296875,0.0
1734581367.8141708,5.37109375,-31.25,57.6171875,-7.8125,0.0
1734581367.8180766,-5.859375,-25.87890625,-172.8515625,-11.23046875,0.0
1734581367.8219824,-4.8828125,-26.3671875,-72.265625,-26.3671875,0.0
1734581367.8258882,-8.30078125,-23.92578125,114.2578125,-21.484375,0.0
1734581367.829794,-19.53125,-29.78515625,-21.484375,-27.83203125,0.0
1734581367.8337042,-20.99609375,-38.0859375,-66.89453125,-37.109375,0.0
1734581367.83761,-19.04296875,-37.59765625,0.0,-36.62109375,0.0
1734581367.8415158,-18.06640625,-34.66796875,0.48828125,-39.55078125,0.0
1734581367.8454216,-8.7890625,-36.62109375,-56.15234375,-43.45703125,0.0
1734581367.8493273,-20.99609375,-51.26953125,-60.05859375,-29.78515625,0.0
1734581367.853233,6.8359375,-49.31640625,-53.7109375,-14.6484375,0.0
1734581367.8571389,-24.4140625,-32.2265625,2.44140625,-27.34375,0.0
1734581367.8610446,-61.03515625,-33.69140625,-16.6015625,-30.2734375,0.0
1734581367.8649504,-9.765625,-41.015625,-162.59765625,-12.20703125,0.0
1734581367.8688562,6.34765625,-33.203125,20.5078125,-18.06640625,0.0
1734581367.872762,-2.9296875,-24.4140625,132.32421875,-23.4375,0.0
1734581367.8766677,-15.13671875,-25.390625,6.8359375,-20.5078125,0.0
1734581367.8805776,-20.01953125,-46.38671875,12.20703125,-5.859375,0.0
1734581367.8844833,-15.13671875,-48.828125,71.2890625,-10.25390625,0.0
1734581367.888389,-16.11328125,-27.83203125,15.625,-37.109375,0.0
1734581367.892295,-4.39453125,-25.87890625,-60.546875,-23.92578125,0.0
1734581367.8962007,1.953125,-34.1796875,0.48828125,-8.7890625,0.0
1734581367.9001064,2.44140625,-37.109375,-5.37109375,-17.578125,0.0
1734581367.9040122,0.9765625,-26.3671875,-41.50390625,-16.6015625,0.0
1734581367.907918,7.32421875,-23.92578125,-131.34765625,-16.6015625,0.0
1734581367.9118237,-14.16015625,-33.69140625,21.484375,-29.296875,0.0
1734581367.9157295,-39.0625,-40.52734375,189.453125,-19.04296875,0.0
1734581367.9196353,-23.92578125,-31.25,65.4296875,-1.953125,0.0
1734581367.923541,-33.69140625,-27.83203125,0.48828125,-9.765625,0.0
1734581367.9274504,-50.78125,-27.83203125,82.51953125,-13.18359375,0.0
1734581367.9313562,-24.90234375,-34.66796875,102.05078125,-7.8125,0.0
1734581367.935262,6.34765625,-42.96875,8.30078125,-9.765625,0.0
1734581367.9391677,-18.06640625,-35.15625,2.44140625,-6.34765625,0.0
1734581367.9430735,-31.25,-35.15625,49.31640625,-6.34765625,0.0
1734581367.9469793,-38.0859375,-40.52734375,-1.46484375,-17.578125,0.0
1734581367.950885,-28.3203125,-36.62109375,-72.265625,-26.85546875,0.0
1734581367.9547908,-7.32421875,-44.43359375,-142.578125,-8.7890625,0.0
1734581367.9586966,-15.13671875,-52.24609375,56.640625,-5.37109375,0.0
1734581367.9626024,-28.3203125,-24.90234375,48.828125,-21.97265625,0.0
1734581367.9665082,-73.2421875,-9.765625,-40.0390625,-44.921875,0.0
1734581367.970414,-49.8046875,-43.45703125,61.03515625,-30.76171875,0.0
1734581367.9743228,-31.25,-55.17578125,71.77734375,-23.4375,0.0
1734581367.9782286,-82.51953125,-28.80859375,17.08984375,-39.55078125,0.0
1734581367.9821343,-32.71484375,-17.08984375,-30.2734375,-47.36328125,0.0
1734581367.9860399,-5.859375,-21.484375,16.6015625,-32.71484375,0.0
1734581367.9899457,-32.71484375,-18.5546875,71.2890625,-13.671875,0.0
1734581367.9938514,-52.734375,-22.4609375,-21.97265625,-30.2734375,0.0
1734581367.9977572,-41.015625,-32.2265625,-153.3203125,-35.15625,0.0
1734581368.001663,-27.83203125,-32.71484375,13.18359375,-26.85546875,0.0
1734581368.0055687,-28.3203125,-33.69140625,165.0390625,-21.484375,0.0
1734581368.0094745,-50.29296875,-38.0859375,28.80859375,-22.4609375,0.0
1734581368.0133803,-60.546875,-27.34375,12.6953125,-22.94921875,0.0
1734581368.017286,-9.765625,-30.76171875,114.2578125,-6.8359375,0.0
1734581368.0211947,0.0,-34.1796875,93.26171875,-18.06640625,0.0
1734581368.0251005,0.0,-33.203125,23.4375,-40.52734375,0.0
1734581368.0290062,0.0,-42.96875,35.64453125,-30.76171875,0.0
1734581368.032912,0.0,-33.203125,91.30859375,-33.203125,0.0
1734581368.0368178,0.0,-35.64453125,92.7734375,-45.8984375,0.0
1734581368.0407236,0.0,-43.45703125,-49.31640625,-35.64453125,0.0
1734581368.0446293,0.0,-41.9921875,-107.91015625,-20.99609375,0.0
1734581368.048535,0.0,-39.0625,124.0234375,-35.15625,0.0
1734581368.052441,0.0,-31.73828125,121.58203125,-41.50390625,0.0
1734581368.0563467,0.0,-32.71484375,-30.2734375,-30.76171875,0.0
1734581368.0602524,0.0,-38.0859375,44.43359375,-27.34375,0.0
1734581368.0641582,0.0,-38.57421875,121.58203125,-16.6015625,0.0
1734581368.06807,-3.41796875,-39.0625,12.20703125,-16.6015625,0.0
1734581368.0719757,-25.87890625,-29.296875,-20.5078125,-29.296875,0.0
1734581368.0758815,-24.90234375,-38.57421875,56.15234375,-30.76171875,0.0
1734581368.0797873,-27.34375,-31.25,73.73046875,-27.83203125,0.0
1734581368.083693,-34.1796875,-28.3203125,19.04296875,-21.484375,0.0
1734581368.0875986,-20.01953125,-49.8046875,-91.796875,-35.64453125,0.0
1734581368.0915043,-9.27734375,-40.0390625,-19.04296875,-29.78515625,0.0
1734581368.09541,-16.11328125,-33.203125,107.421875,-29.296875,0.0
1734581368.099316,-48.828125,-14.16015625,27.83203125,-30.2734375,0.0
1734581368.1032217,-25.390625,-13.671875,-108.88671875,-24.90234375,0.0
1734581368.1071274,-14.6484375,-36.1328125,30.2734375,-32.2265625,0.0
1734581368.1110332,-35.15625,-39.0625,96.19140625,-24.90234375,0.0
1734581368.1149447,-22.94921875,-29.296875,-47.8515625,-26.85546875,0.0
1734581368.1188505,-24.90234375,-39.0625,-124.0234375,-47.8515625,0.0
1734581368.1227562,-51.7578125,-39.55078125,12.20703125,-62.01171875,0.0
1734581368.126662,-26.3671875,-34.66796875,-5.37109375,-41.015625,0.0
1734581368.1305678,21.97265625,-45.41015625,-77.1484375,-20.99609375,0.0
1734581368.1344736,-18.06640625,-42.48046875,-92.28515625,-34.1796875,0.0
1734581368.138379,-62.5,-30.2734375,-67.87109375,-52.24609375,0.0
1734581368.1422849,-39.55078125,-41.015625,28.80859375,-56.640625,0.0
1734581368.1461906,-40.52734375,-51.26953125,-106.93359375,-40.52734375,0.0
1734581368.1500964,-34.66796875,-30.76171875,-228.515625,-39.55078125,0.0
1734581368.1540022,-16.6015625,-48.33984375,35.64453125,-43.45703125,0.0
1734581368.157908,-3.90625,-57.6171875,78.125,-31.73828125,0.0
1734581368.161819,-22.94921875,-47.36328125,-55.6640625,-43.45703125,0.0
1734581368.1657245,-48.828125,-49.8046875,-1.46484375,-42.96875,0.0
1734581368.1696303,-33.203125,-24.4140625,73.73046875,-27.34375,0.0
1734581368.173536,-42.96875,-23.4375,12.20703125,-29.296875,0.0
1734581368.1774418,-41.50390625,-56.640625,-56.15234375,-45.8984375,0.0
1734581368.1813476,0.0,-62.01171875,-45.41015625,-41.50390625,0.0
1734581368.1852534,-2.9296875,-54.6875,2.44140625,-27.34375,0.0
1734581368.1891592,-57.6171875,-57.6171875,28.80859375,-29.78515625,0.0
1734581368.193065,-35.64453125,-56.640625,-93.26171875,-36.1328125,0.0
1734581368.1969707,-10.7421875,-50.29296875,46.875,-35.15625,0.0
1734581368.2008765,-32.71484375,-30.2734375,189.453125,-28.3203125,0.0
1734581368.2047822,-57.6171875,-16.6015625,103.02734375,-29.296875,0.0
1734581368.2086928,-8.30078125,-26.85546875,95.21484375,-24.4140625,0.0
1734581368.2125986,9.27734375,-34.1796875,150.87890625,-23.4375,0.0
1734581368.2165043,-32.71484375,-37.59765625,151.85546875,-25.87890625,0.0
1734581368.22041,-29.296875,-48.33984375,97.16796875,-33.69140625,0.0
1734581368.224316,-6.8359375,-53.7109375,62.98828125,-26.3671875,0.0
1734581368.2282214,-27.83203125,-42.96875,25.87890625,-19.53125,0.0
1734581368.2321272,-44.43359375,-34.66796875,67.3828125,-35.15625,0.0
1734581368.236033,-30.2734375,-41.015625,36.1328125,-35.64453125,0.0
1734581368.2399387,-71.77734375,-45.8984375,-97.65625,-21.484375,0.0
1734581368.2438445,-29.78515625,-41.9921875,48.828125,-36.1328125,0.0
1734581368.2477503,-21.97265625,-37.109375,102.05078125,-37.59765625,0.0
1734581368.251656,-53.22265625,-21.484375,30.76171875,-40.0390625,0.0
1734581368.2555661,-8.7890625,-36.1328125,78.125,-43.9453125,0.0
1734581368.259472,-2.9296875,-38.0859375,121.09375,-33.203125,0.0
1734581368.2633777,-32.71484375,-37.59765625,47.8515625,-26.3671875,0.0
1734581368.2672834,-11.71875,-30.2734375,-28.3203125,-22.4609375,0.0
1734581368.2711892,5.859375,-43.9453125,25.390625,-26.3671875,0.0
1734581368.275095,-16.11328125,-48.33984375,17.578125,-41.9921875,0.0
1734581368.2790008,-43.9453125,-28.3203125,-25.390625,-57.6171875,0.0
1734581368.2829065,-65.4296875,-31.73828125,-106.4453125,-59.08203125,0.0
1734581368.2868123,-64.453125,-38.57421875,36.62109375,-59.08203125,0.0
1734581368.290718,-12.6953125,-31.25,206.54296875,-34.66796875,0.0
1734581368.2946239,-16.6015625,-31.25,98.6328125,-29.296875,0.0
1734581368.2985296,-29.296875,-55.17578125,23.92578125,-31.73828125,0.0
1734581368.3024387,-34.1796875,-50.78125,43.45703125,-28.3203125,0.0
1734581368.3063445,-27.83203125,-23.4375,75.1953125,-33.69140625,0.0
1734581368.3102503,-1.46484375,-10.25390625,71.77734375,-32.71484375,0.0
1734581368.314156,-39.0625,-10.25390625,51.7578125,-38.0859375,0.0
1734581368.3180618,-38.57421875,-30.2734375,93.75,-45.41015625,0.0
1734581368.3219676,-12.20703125,-41.015625,62.98828125,-33.69140625,0.0
1734581368.3258734,-3.90625,-38.57421875,-20.5078125,-12.6953125,0.0
1734581368.3297791,-0.48828125,-38.57421875,-74.70703125,-7.8125,0.0
1734581368.333685,-6.8359375,-37.109375,134.27734375,-30.76171875,0.0
1734581368.3375907,-24.4140625,-31.25,137.20703125,-42.96875,0.0
1734581368.3414965,-29.78515625,-28.3203125,52.734375,-42.96875,0.0
1734581368.3454022,-34.1796875,-27.34375,127.44140625,-42.96875,0.0
1734581368.3493147,-47.8515625,-27.83203125,189.453125,-35.64453125,0.0
1734581368.3532205,8.30078125,-35.15625,139.16015625,-26.3671875,0.0
1734581368.3571262,16.11328125,-33.203125,34.1796875,-28.80859375,0.0
1734581368.361032,-45.41015625,-31.25,53.7109375,-40.0390625,0.0
1734581368.3649378,-47.8515625,-36.62109375,93.26171875,-41.9921875,0.0
1734581368.3688436,-2.44140625,-29.78515625,53.22265625,-45.41015625,0.0
1734581368.3727493,-1.46484375,-26.85546875,-67.87109375,-36.62109375,0.0
1734581368.376655,2.44140625,-32.2265625,47.36328125,-25.390625,0.0
1734581368.3805609,-4.8828125,-63.4765625,200.68359375,-39.55078125,0.0
1734581368.3844666,-18.5546875,-61.5234375,104.4921875,-42.96875,0.0
1734581368.3883724,4.39453125,-33.203125,26.3671875,-32.71484375,0.0
1734581368.3922782,-0.48828125,-26.3671875,80.56640625,-34.66796875,0.0
1734581368.3961866,-30.2734375,-22.4609375,81.54296875,-43.45703125,0.0
1734581368.4000924,-19.53125,-21.484375,-4.39453125,-36.62109375,0.0
1734581368.4039981,-7.8125,-22.4609375,-10.25390625,-28.80859375,0.0
1734581368.407904,-25.390625,-41.9921875,78.125,-39.55078125,0.0
1734581368.4118097,-24.4140625,-37.109375,68.84765625,-47.36328125,0.0
1734581368.4157155,-15.13671875,-22.4609375,-73.73046875,-46.38671875,0.0
1734581368.4196212,-21.484375,-24.90234375,-105.46875,-43.45703125,0.0
1734581368.423527,-25.87890625,-24.90234375,12.6953125,-45.41015625,0.0
1734581368.4274328,-13.18359375,-29.78515625,54.19921875,-44.43359375,0.0
1734581368.4313385,-6.34765625,-28.80859375,-98.14453125,-43.9453125,0.0
1734581368.4352443,-13.671875,-27.34375,-165.0390625,-41.015625,0.0
1734581368.43915,-19.04296875,-35.64453125,21.484375,-48.33984375,0.0
1734581368.4430618,-25.87890625,-35.15625,10.25390625,-49.8046875,0.0
1734581368.4469676,-20.01953125,-40.0390625,-131.8359375,-45.8984375,0.0
1734581368.4508731,-16.6015625,-37.109375,-96.6796875,-54.19921875,0.0
1734581368.454779,-21.484375,-22.94921875,-38.0859375,-50.78125,0.0
1734581368.4586847,-10.7421875,-29.296875,-96.19140625,-44.921875,0.0
1734581368.4625905,-14.6484375,-30.2734375,-240.234375,-36.62109375,0.0
1734581368.4664962,-21.484375,-34.66796875,-186.5234375,-35.15625,0.0
1734581368.470402,-14.6484375,-38.0859375,-55.17578125,-42.96875,0.0
1734581368.4743078,-15.625,-46.875,-135.7421875,-37.59765625,0.0
1734581368.4782135,-20.01953125,-45.41015625,-366.69921875,-25.390625,0.0
1734581368.4821193,-22.4609375,-31.25,-266.11328125,-44.921875,0.0
1734581368.486025,-18.06640625,-32.71484375,-94.7265625,-57.12890625,0.0
1734581368.489936,-19.04296875,-24.90234375,-189.94140625,-47.36328125,0.0
1734581368.493842,-9.765625,-15.625,-244.62890625,-53.22265625,0.0
1734581368.4977477,-3.90625,-35.64453125,-216.796875,-48.33984375,0.0
1734581368.5016534,-11.23046875,-53.7109375,-242.67578125,-40.0390625,0.0
1734581368.5055592,-19.04296875,-31.25,-315.91796875,-43.9453125,0.0
1734581368.509465,-18.5546875,-20.01953125,-388.671875,-41.015625,0.0
1734581368.5133708,-15.625,-25.390625,-351.5625,-43.45703125,0.0
1734581368.5172765,-14.16015625,-28.3203125,-313.4765625,-47.8515625,0.0
1734581368.5211823,-14.6484375,-38.0859375,-440.91796875,-43.45703125,0.0
1734581368.525088,-15.13671875,-35.15625,-487.3046875,-41.50390625,0.0
1734581368.5289938,-23.92578125,-31.73828125,-376.46484375,-50.78125,0.0
1734581368.5328996,-27.83203125,-41.015625,-390.13671875,-51.26953125,0.0
1734581368.5368104,-21.97265625,-39.0625,-543.45703125,-43.45703125,0.0
1734581368.5407162,-17.08984375,-35.15625,-548.33984375,-45.8984375,0.0
1734581368.544622,-16.6015625,-26.85546875,-381.8359375,-51.26953125,0.0
1734581368.5485277,-5.859375,-22.4609375,-410.64453125,-42.48046875,0.0
1734581368.5524335,-15.13671875,-25.87890625,-560.546875,-46.38671875,0.0
1734581368.5563393,-22.94921875,-29.296875,-603.02734375,-55.6640625,0.0
1734581368.560245,-22.94921875,-29.296875,-569.82421875,-47.8515625,0.0
1734581368.5641508,-26.3671875,-30.2734375,-545.8984375,-40.0390625,0.0
1734581368.5680566,-15.13671875,-37.59765625,-657.71484375,-40.0390625,0.0
1734581368.5719624,-21.484375,-37.59765625,-533.69140625,-46.38671875,0.0
1734581368.5758681,-28.80859375,-39.0625,-416.9921875,-49.31640625,0.0
1734581368.579774,-26.3671875,-36.62109375,-503.41796875,-55.6640625,0.0
1734581368.5836842,-32.2265625,-41.50390625,-541.015625,-62.5,0.0
1734581368.58759,-44.921875,-50.78125,-539.55078125,-59.5703125,0.0
1734581368.5914958,-47.8515625,-40.52734375,-608.88671875,-56.640625,0.0
1734581368.5954015,-41.50390625,-38.57421875,-693.84765625,-52.734375,0.0
1734581368.5993073,-39.55078125,-40.0390625,-716.30859375,-52.24609375,0.0
1734581368.603213,-36.1328125,-32.71484375,-726.07421875,-50.78125,0.0
1734581368.6071188,-37.109375,-29.78515625,-731.4453125,-53.7109375,0.0
1734581368.6110246,-34.1796875,-36.1328125,-793.45703125,-50.78125,0.0
1734581368.6149304,-33.203125,-36.1328125,-839.35546875,-48.33984375,0.0
1734581368.6188362,-41.50390625,-33.69140625,-780.2734375,-57.12890625,0.0
1734581368.622742,-43.9453125,-37.109375,-799.8046875,-57.6171875,0.0
1734581368.6266477,-39.55078125,-28.3203125,-851.5625,-55.6640625,0.0
1734581368.6305578,-39.0625,-23.92578125,-821.77734375,-65.4296875,0.0
1734581368.6344633,-39.0625,-24.90234375,-783.203125,-67.87109375,0.0
1734581368.638369,-34.1796875,-27.34375,-790.0390625,-55.6640625,0.0
1734581368.6422749,-16.6015625,-27.34375,-817.87109375,-53.7109375,0.0
1734581368.6461806,-19.53125,-30.2734375,-761.23046875,-57.12890625,0.0
1734581368.6500864,-16.6015625,-31.25,-736.328125,-51.7578125,0.0
1734581368.6539922,-13.671875,-32.71484375,-750.48828125,-52.24609375,0.0
1734581368.657898,-22.4609375,-36.62109375,-786.62109375,-45.41015625,0.0
1734581368.6618037,-23.92578125,-36.62109375,-641.11328125,-42.48046875,0.0
1734581368.6657095,-24.90234375,-33.203125,-548.33984375,-45.41015625,0.0
1734581368.6696153,-20.01953125,-28.80859375,-571.2890625,-31.73828125,0.0
1734581368.673521,-15.625,-35.64453125,-522.4609375,-24.90234375,0.0
1734581368.6774306,0.0,-37.59765625,-479.98046875,-36.62109375,0.0
1734581368.6813364,0.0,-37.109375,-449.70703125,-34.1796875,0.0
1734581368.6852422,0.0,-29.296875,-466.796875,-45.41015625,0.0
1734581368.689148,0.0,-34.66796875,-460.44921875,-57.6171875,0.0
1734581368.6930537,0.0,-59.08203125,-401.85546875,-43.9453125,0.0
1734581368.6969595,0.0,-34.1796875,-386.23046875,-44.43359375,0.0
1734581368.7008653,0.0,-11.23046875,-387.6953125,-47.8515625,0.0
1734581368.704771,0.0,-22.94921875,-361.81640625,-48.828125,0.0
1734581368.7086768,0.0,-34.66796875,-59.08203125,-54.6875,0.0
1734581368.7125826,0.0,-31.25,-66.40625,-41.50390625,0.0
1734581368.7164884,0.0,-29.78515625,-139.6484375,-47.8515625,0.0
1734581368.7203941,0.0,-39.0625,37.109375,-62.98828125,0.0
1734581368.7243032,-41.50390625,-39.55078125,161.62109375,-66.40625,0.0
1734581368.728209,-37.109375,-39.55078125,208.49609375,-57.6171875,0.0
1734581368.7321148,-37.109375,-39.0625,193.84765625,-47.36328125,0.0
1734581368.7360206,-40.0390625,-28.3203125,324.70703125,-46.875,0.0
1734581368.7399263,-30.2734375,-20.5078125,452.63671875,-50.78125,0.0
1734581368.743832,-24.90234375,-23.92578125,378.41796875,-50.29296875,0.0
1734581368.747738,-27.34375,-27.34375,265.13671875,-48.828125,0.0
1734581368.7516437,-21.97265625,-30.2734375,431.640625,-36.1328125,0.0
1734581368.7555494,-17.578125,-29.78515625,610.83984375,-39.0625,0.0
1734581368.7594552,-31.73828125,-24.90234375,541.015625,-62.5,0.0
1734581368.763361,-35.64453125,-23.4375,509.27734375,-57.6171875,0.0
1734581368.7672665,-23.4375,-19.53125,566.89453125,-54.19921875,0.0
1734581368.7711787,-23.4375,-24.90234375,565.4296875,-54.19921875,0.0
1734581368.7750845,-29.296875,-35.15625,548.33984375,-51.26953125,0.0
1734581368.7789903,-32.2265625,-35.15625,562.01171875,-48.828125,0.0
1734581368.782896,-27.34375,-27.83203125,563.4765625,-43.9453125,0.0
1734581368.7868018,-15.13671875,-26.3671875,578.61328125,-48.33984375,0.0
1734581368.7907076,-23.92578125,-36.1328125,487.3046875,-52.734375,0.0
1734581368.7946134,-29.78515625,-39.0625,379.39453125,-49.8046875,0.0
1734581368.7985191,-25.390625,-32.71484375,536.62109375,-58.59375,0.0
1734581368.802425,-24.90234375,-31.25,413.0859375,-60.546875,0.0
1734581368.8063307,-15.13671875,-24.90234375,121.58203125,-47.36328125,0.0
1734581368.8102365,-7.32421875,-24.4140625,190.91796875,-51.7578125,0.0
1734581368.8141422,-3.90625,-39.0625,303.7109375,-55.6640625,0.0
1734581368.818054,-19.53125,-46.38671875,209.47265625,-54.19921875,0.0
1734581368.8219597,-33.203125,-44.921875,82.03125,-46.875,0.0
1734581368.8258655,-28.80859375,-41.9921875,159.66796875,-56.15234375,0.0
1734581368.8297713,-22.94921875,-42.96875,353.515625,-57.12890625,0.0
1734581368.833677,-20.99609375,-40.0390625,420.41015625,-45.8984375,0.0
1734581368.8375828,-20.5078125,-44.921875,353.02734375,-46.38671875,0.0
1734581368.8414886,-28.80859375,-46.38671875,419.43359375,-49.31640625,0.0
1734581368.8453944,-34.1796875,-38.0859375,543.9453125,-55.6640625,0.0
1734581368.8493001,-29.78515625,-39.0625,488.76953125,-62.01171875,0.0
1734581368.853206,-35.64453125,-46.38671875,90.33203125,-49.8046875,0.0
1734581368.8571117,-41.015625,-50.29296875,116.2109375,-55.17578125,0.0
1734581368.8610175,-40.52734375,-45.8984375,206.0546875,-68.84765625,0.0
1734581368.8649285,-33.203125,-44.921875,-128.90625,-61.03515625,0.0
1734581368.8688343,-23.92578125,-46.38671875,-282.71484375,-46.875,0.0
1734581368.87274,-26.85546875,-43.45703125,188.96484375,-41.015625,0.0
1734581368.8766458,-20.5078125,-37.59765625,647.4609375,-39.0625,0.0
1734581368.8805516,-20.01953125,-42.48046875,676.7578125,-50.78125,0.0
1734581368.8844573,-25.390625,-40.0390625,703.61328125,-60.546875,0.0
1734581368.8883631,-27.83203125,-43.9453125,745.1171875,-56.640625,0.0
1734581368.892269,-30.76171875,-50.78125,784.66796875,-69.3359375,0.0
1734581368.8961747,-25.87890625,-56.15234375,733.3984375,-62.5,0.0
1734581368.9000804,-21.97265625,-57.12890625,765.13671875,-52.24609375,0.0
1734581368.9039862,-23.92578125,-37.59765625,911.1328125,-61.5234375,0.0
1734581368.907892,-22.4609375,-25.390625,919.43359375,-64.453125,0.0
1734581368.911803,-17.578125,-22.94921875,916.50390625,-60.546875,0.0
1734581368.9157088,-21.97265625,-37.59765625,928.22265625,-60.05859375,0.0
1734581368.9196146,-35.15625,-49.31640625,926.26953125,-64.453125,0.0
1734581368.9235203,-35.15625,-38.57421875,925.29296875,-58.10546875,0.0
1734581368.927426,-28.3203125,-33.203125,927.734375,-50.29296875,0.0
1734581368.9313319,-24.4140625,-36.62109375,925.78125,-51.7578125,0.0
1734581368.9352374,-12.6953125,-34.1796875,924.31640625,-56.15234375,0.0
1734581368.9391432,-24.90234375,-35.15625,922.36328125,-62.01171875,0.0
1734581368.943049,-43.45703125,-45.8984375,917.48046875,-52.24609375,0.0
1734581368.9469547,-42.48046875,-47.8515625,924.31640625,-45.8984375,0.0
1734581368.9508605,-44.43359375,-38.57421875,923.828125,-53.7109375,0.0
1734581368.9547663,-35.64453125,-36.62109375,916.015625,-41.015625,0.0
1734581368.9586768,-27.83203125,-39.0625,914.0625,-25.87890625,0.0
1734581368.9625823,-34.1796875,-42.48046875,916.50390625,-38.0859375,0.0
1734581368.9664881,-41.50390625,-42.48046875,916.015625,-52.24609375,0.0
1734581368.970394,-39.0625,-42.48046875,911.1328125,-52.734375,0.0
1734581368.9742997,-41.9921875,-49.31640625,910.15625,-56.640625,0.0
1734581368.9782054,-45.41015625,-50.78125,906.73828125,-61.03515625,0.0
1734581368.9821112,-40.52734375,-46.875,912.109375,-60.05859375,0.0
1734581368.986017,-46.875,-47.36328125,886.71875,-55.6640625,0.0
1734581368.9899228,-46.38671875,-55.17578125,871.09375,-42.48046875,0.0
1734581368.9938285,-46.38671875,-55.17578125,909.66796875,-42.48046875,0.0
1734581368.9977343,-41.9921875,-43.9453125,910.15625,-44.43359375,0.0
1734581369.00164,-41.50390625,-42.48046875,866.2109375,-50.78125,0.0
1734581369.0055501,0.0,-47.36328125,838.8671875,-51.7578125,0.0
1734581369.009456,0.0,-47.36328125,791.015625,-32.71484375,0.0
1734581369.0133617,0.0,-43.9453125,695.3125,-39.55078125,0.0
1734581369.0172675,0.0,-45.8984375,688.96484375,-53.22265625,0.0
1734581369.0211732,0.0,-52.734375,689.94140625,-42.96875,0.0
1734581369.025079,0.0,-55.17578125,645.01953125,-54.19921875,0.0
1734581369.0289848,0.0,-47.36328125,593.26171875,-55.6640625,0.0
1734581369.0328906,0.0,-44.43359375,557.12890625,-41.9921875,0.0
1734581369.0367963,0.0,-41.50390625,620.1171875,-32.71484375,0.0
1734581369.040702,0.0,-43.45703125,653.3203125,-38.0859375,0.0
1734581369.0446079,0.0,-42.48046875,566.40625,-46.875,0.0
1734581369.0485137,0.0,-44.43359375,458.49609375,-40.0390625,0.0
1734581369.052423,-32.2265625,-40.52734375,602.5390625,-43.9453125,0.0
1734581369.0563288,-27.34375,-36.1328125,628.90625,-49.8046875,0.0
1734581369.0602345,-28.3203125,-38.0859375,579.58984375,-54.6875,0.0
1734581369.0641403,-32.2265625,-37.109375,553.7109375,-55.6640625,0.0
1734581369.068046,-30.2734375,-37.109375,443.84765625,-49.31640625,0.0
1734581369.0719519,-23.4375,-34.66796875,427.24609375,-44.43359375,0.0
1734581369.0758576,-24.90234375,-32.71484375,298.33984375,-43.45703125,0.0
1734581369.0797634,-26.85546875,-33.69140625,76.171875,-33.203125,0.0
1734581369.0836692,-28.80859375,-37.109375,379.8828125,-41.9921875,0.0
1734581369.087575,-28.3203125,-35.64453125,474.12109375,-52.24609375,0.0
1734581369.0914807,-18.06640625,-33.69140625,489.74609375,-52.24609375,0.0
1734581369.0953865,-22.94921875,-36.1328125,658.69140625,-49.31640625,0.0
1734581369.0992954,-28.3203125,-31.25,730.46875,-40.0390625,0.0
1734581369.1032012,-29.296875,-33.203125,729.98046875,-41.015625,0.0
1734581369.107107,-27.83203125,-50.78125,714.84375,-54.19921875,0.0
1734581369.1110127,-26.85546875,-47.36328125,725.09765625,-58.59375,0.0
1734581369.1149185,-33.203125,-37.109375,728.02734375,-56.640625,0.0
1734581369.1188242,-36.62109375,-35.64453125,682.12890625,-48.33984375,0.0
1734581369.12273,-34.1796875,-36.62109375,649.4140625,-52.24609375,0.0
1734581369.1266358,-34.66796875,-35.15625,702.63671875,-63.4765625,0.0
1734581369.1305416,-31.73828125,-31.25,688.4765625,-64.453125,0.0
1734581369.1344473,-36.62109375,-32.71484375,613.28125,-56.640625,0.0
1734581369.138353,-38.57421875,-34.66796875,540.52734375,-54.6875,0.0
1734581369.142259,-30.2734375,-32.2265625,545.41015625,-47.8515625,0.0
1734581369.1461673,-25.390625,-30.76171875,511.71875,-43.9453125,0.0
1734581369.150073,-33.203125,-32.2265625,470.703125,-45.8984375,0.0
1734581369.1539788,-39.0625,-34.1796875,462.40234375,-51.7578125,0.0
1734581369.1578846,-39.55078125,-35.64453125,418.9453125,-53.7109375,0.0
1734581369.1617904,-36.62109375,-35.15625,445.3125,-45.8984375,0.0
1734581369.1656961,-21.484375,-34.66796875,259.27734375,-34.66796875,0.0
1734581369.169602,-24.4140625,-39.55078125,-4.39453125,-25.87890625,0.0
1734581369.1735077,-38.57421875,-40.52734375,421.875,-43.45703125,0.0
1734581369.1774135,-34.1796875,-35.15625,628.41796875,-43.9453125,0.0
1734581369.1813192,-33.69140625,-38.57421875,555.6640625,-36.1328125,0.0
1734581369.185225,-34.66796875,-45.8984375,604.00390625,-49.8046875,0.0
1734581369.1891308,-25.87890625,-44.921875,611.328125,-46.875,0.0
1734581369.1930423,-25.87890625,-42.96875,608.3984375,-34.1796875,0.0
1734581369.196948,-32.2265625,-41.9921875,568.84765625,-39.0625,0.0
1734581369.2008538,-26.3671875,-37.59765625,488.76953125,-36.62109375,0.0
1734581369.2047596,-22.94921875,-41.50390625,405.2734375,-34.1796875,0.0
1734581369.2086654,-26.3671875,-44.43359375,334.47265625,-38.0859375,0.0
1734581369.2125711,-18.5546875,-39.0625,-36.1328125,-31.73828125,0.0
1734581369.216477,-17.578125,-31.25,-51.26953125,-30.76171875,0.0
1734581369.2203827,-24.90234375,-31.25,283.69140625,-34.66796875,0.0
1734581369.2242885,-30.76171875,-32.2265625,163.0859375,-38.57421875,0.0
1734581369.2281942,-24.90234375,-28.80859375,-150.390625,-37.59765625,0.0
1734581369.2321,-28.3203125,-30.76171875,277.83203125,-36.1328125,0.0
1734581369.2360058,-41.015625,-36.1328125,494.140625,-49.8046875,0.0
1734581369.239917,-30.2734375,-39.55078125,296.38671875,-48.33984375,0.0
1734581369.2438228,-15.625,-33.203125,264.6484375,-47.36328125,0.0
1734581369.2477286,-14.16015625,-30.76171875,333.49609375,-51.7578125,0.0
1734581369.2516344,-13.671875,-32.71484375,378.41796875,-47.8515625,0.0
1734581369.2555401,-22.4609375,-32.2265625,332.51953125,-45.41015625,0.0
1734581369.259446,-30.76171875,-34.66796875,235.3515625,-47.36328125,0.0
1734581369.2633517,-42.48046875,-44.921875,354.00390625,-51.7578125,0.0
1734581369.2672575,-43.45703125,-46.38671875,358.3984375,-37.109375,0.0
1734581369.2711632,-20.5078125,-39.55078125,-219.23828125,-30.2734375,0.0
1734581369.275069,-20.99609375,-42.48046875,-234.375,-40.52734375,0.0
1734581369.2789748,-45.8984375,-32.2265625,496.09375,-49.31640625,0.0
1734581369.2828805,-53.22265625,-28.3203125,611.328125,-62.5,0.0
1734581369.2867913,-50.78125,-33.203125,554.19921875,-57.6171875,0.0
1734581369.290697,-61.5234375,-27.83203125,665.0390625,-68.84765625,0.0
1734581369.2946029,-62.98828125,-27.83203125,694.82421875,-78.61328125,0.0
1734581369.2985086,-56.15234375,-30.76171875,673.828125,-69.82421875,0.0
1734581369.3024144,-54.19921875,-31.73828125,651.3671875,-70.80078125,0.0
1734581369.3063202,-50.78125,-30.2734375,645.5078125,-73.73046875,0.0
1734581369.310226,-53.7109375,-39.55078125,659.66796875,-80.078125,0.0
1734581369.3141317,-54.19921875,-45.41015625,647.94921875,-80.078125,0.0
1734581369.3180375,-56.15234375,-43.9453125,579.1015625,-66.40625,0.0
1734581369.321943,-52.24609375,-41.50390625,648.4375,-55.17578125,0.0
1734581369.3258488,-46.875,-35.15625,685.05859375,-53.7109375,0.0
1734581369.3297546,-45.41015625,-37.109375,620.60546875,-60.05859375,0.0
1734581369.3336651,-45.8984375,-40.0390625,608.3984375,-57.6171875,0.0
1734581369.337571,-52.734375,-40.52734375,656.25,-61.03515625,0.0
1734581369.3414767,-46.875,-39.55078125,631.8359375,-60.546875,0.0
1734581369.3453825,-35.64453125,-36.1328125,605.95703125,-50.78125,0.0
1734581369.3492882,-38.0859375,-40.52734375,626.953125,-60.546875,0.0
1734581369.353194,-36.1328125,-44.921875,573.2421875,-63.4765625,0.0
1734581369.3570998,-36.62109375,-42.48046875,596.6796875,-59.08203125,0.0
1734581369.3610055,-30.2734375,-57.12890625,558.59375,-59.5703125,0.0
1734581369.3649113,-31.25,-58.10546875,453.125,-39.55078125,0.0
1734581369.368817,-20.5078125,-36.62109375,569.82421875,-33.69140625,0.0
1734581369.3727229,-30.76171875,-42.48046875,584.47265625,-47.36328125,0.0
1734581369.3766286,-47.8515625,-42.48046875,546.875,-54.6875,0.0
1734581369.3805385,-41.015625,-31.73828125,562.98828125,-66.40625,0.0
1734581369.3844442,-46.875,-30.2734375,576.171875,-66.89453125,0.0
1734581369.38835,-40.0390625,-27.34375,555.17578125,-51.26953125,0.0
1734581369.3922558,-33.203125,-29.78515625,544.921875,-63.96484375,0.0
1734581369.3961616,-57.6171875,-30.2734375,565.4296875,-64.94140625,0.0
1734581369.4000673,-58.10546875,-25.87890625,534.1796875,-52.734375,0.0
1734581369.403973,-20.01953125,-25.87890625,497.0703125,-51.26953125,0.0
1734581369.4078789,-23.92578125,-30.76171875,445.80078125,-60.05859375,0.0
1734581369.4117846,-23.92578125,-29.296875,547.36328125,-48.828125,0.0
1734581369.4156904,-19.53125,-34.1796875,578.61328125,-40.52734375,0.0
1734581369.4195962,-13.18359375,-39.0625,497.55859375,-46.875,0.0
1734581369.423502,-7.8125,-31.25,453.61328125,-47.8515625,0.0
1734581369.4274116,-23.4375,-29.296875,484.86328125,-41.9921875,0.0
1734581369.4313173,-41.015625,-34.1796875,513.671875,-44.43359375,0.0
1734581369.435223,-30.76171875,-37.109375,499.51171875,-45.8984375,0.0
1734581369.4391289,-30.2734375,-41.50390625,498.046875,-45.8984375,0.0
1734581369.4430346,-41.50390625,-37.59765625,477.5390625,-46.875,0.0
1734581369.4469404,-43.45703125,-38.0859375,452.63671875,-48.33984375,0.0
1734581369.4508462,-39.0625,-41.9921875,394.04296875,-52.734375,0.0
1734581369.454752,-29.296875,-36.62109375,322.265625,-43.9453125,0.0
1734581369.4586577,-30.76171875,-34.66796875,456.54296875,-40.0390625,0.0
1734581369.4625635,-35.64453125,-34.66796875,453.125,-46.38671875,0.0
1734581369.4664693,-32.2265625,-36.62109375,425.29296875,-47.36328125,0.0
1734581369.470375,-39.55078125,-40.0390625,467.28515625,-41.50390625,0.0
1734581369.4742842,-51.7578125,-44.43359375,477.5390625,-49.31640625,0.0
1734581369.47819,-29.296875,-37.59765625,463.37890625,-59.5703125,0.0
1734581369.4820957,-23.92578125,-26.3671875,375.48828125,-53.22265625,0.0
1734581369.4860015,-30.76171875,-22.94921875,413.0859375,-47.8515625,0.0
1734581369.4899073,-29.296875,-24.4140625,478.02734375,-49.31640625,0.0
1734581369.493813,-63.96484375,-26.85546875,388.671875,-44.43359375,0.0
1734581369.4977188,-56.640625,-23.4375,277.34375,-43.9453125,0.0
1734581369.5016246,-48.33984375,-29.296875,417.96875,-56.15234375,0.0
1734581369.5055304,-44.43359375,-41.50390625,519.04296875,-61.5234375,0.0
1734581369.5094361,-19.04296875,-40.52734375,422.8515625,-34.66796875,0.0
1734581369.513342,15.625,-42.96875,360.3515625,-7.32421875,0.0
1734581369.5172477,-32.2265625,-36.62109375,431.15234375,-49.31640625,0.0
1734581369.521156,-44.43359375,-35.64453125,423.33984375,-52.734375,0.0
1734581369.5250618,-35.64453125,-35.64453125,393.06640625,-29.78515625,0.0
1734581369.5289676,-42.96875,-30.76171875,419.921875,-35.15625,0.0
1734581369.5328734,-48.33984375,-35.64453125,390.625,-43.45703125,0.0
1734581369.5367792,-61.03515625,-28.3203125,391.6015625,-60.546875,0.0
1734581369.540685,-48.33984375,-37.109375,184.5703125,-52.24609375,0.0
1734581369.5445907,-50.78125,-43.45703125,-62.98828125,-43.45703125,0.0
1734581369.5484965,-33.203125,-37.109375,258.30078125,-56.15234375,0.0
1734581369.5524023,-43.45703125,-28.3203125,375.48828125,-53.7109375,0.0
1734581369.556308,-21.484375,-41.015625,205.56640625,-29.78515625,0.0
1734581369.5602138,-10.7421875,-56.640625,269.04296875,-27.83203125,0.0
1734581369.5641196,-15.625,-42.48046875,315.4296875,-37.59765625,0.0
1734581369.5680313,-22.4609375,-32.2265625,282.71484375,-25.87890625,0.0
1734581369.571937,-40.0390625,-34.1796875,113.76953125,-32.71484375,0.0
1734581369.5758429,-38.57421875,-41.50390625,61.03515625,-49.31640625,0.0
1734581369.5797486,-32.2265625,-50.78125,186.03515625,-49.31640625,0.0
1734581369.5836542,-46.875,-22.4609375,154.78515625,-38.0859375,0.0
1734581369.58756,-41.9921875,-18.06640625,-187.01171875,-33.69140625,0.0
1734581369.5914657,-20.99609375,-36.62109375,-171.875,-37.59765625,0.0
1734581369.5953715,-0.48828125,-41.9921875,148.92578125,-24.4140625,0.0
1734581369.5992773,-2.44140625,-42.96875,82.51953125,-7.8125,0.0
1734581369.603183,-37.59765625,-37.109375,-286.1328125,-46.38671875,0.0
1734581369.6070888,-19.04296875,-39.55078125,-26.3671875,-46.875,0.0
1734581369.6109946,-7.8125,-41.50390625,270.99609375,-31.73828125,0.0
1734581369.614906,-32.71484375,-36.1328125,165.0390625,-47.8515625,0.0
1734581369.6188118,-8.7890625,-40.52734375,58.10546875,-42.48046875,0.0
1734581369.6227176,-22.4609375,-34.1796875,213.8671875,-58.10546875,0.0
1734581369.6266234,-28.80859375,-33.69140625,313.96484375,-70.3125,0.0
1734581369.6305292,-2.9296875,-36.1328125,146.484375,-28.3203125,0.0
1734581369.6344347,-8.7890625,-37.59765625,-84.47265625,-37.59765625,0.0
1734581369.6383405,-7.32421875,-41.015625,-21.484375,-78.125,0.0
1734581369.6422462,-11.71875,-40.0390625,283.203125,-38.57421875,0.0
1734581369.646152,-7.8125,-42.96875,149.90234375,-21.484375,0.0
1734581369.6500578,-10.7421875,-29.78515625,-174.8046875,-25.390625,0.0
1734581369.6539636,-24.90234375,-44.43359375,231.4453125,-33.203125,0.0
1734581369.6578693,-16.11328125,-51.26953125,372.55859375,-36.1328125,0.0
1734581369.66178,-40.0390625,-27.34375,94.23828125,-37.59765625,0.0
1734581369.665686,-8.30078125,-31.25,140.13671875,-48.33984375,0.0
1734581369.6695917,7.8125,-51.26953125,331.0546875,-33.69140625,0.0
1734581369.6734974,-23.92578125,-36.62109375,276.3671875,-39.0625,0.0
1734581369.6774032,-29.296875,-37.59765625,84.9609375,-55.6640625,0.0
1734581369.681309,-24.4140625,-45.41015625,-53.7109375,-47.36328125,0.0
1734581369.6852148,16.11328125,-45.8984375,49.8046875,-24.90234375,0.0
1734581369.6891205,9.27734375,-52.734375,267.08984375,-31.25,0.0
1734581369.6930263,-7.8125,-37.59765625,-91.30859375,-22.94921875,0.0
1734581369.696932,-20.99609375,-26.3671875,-9.765625,-15.625,0.0
1734581369.7008379,10.25390625,-35.15625,386.71875,-27.83203125,0.0
1734581369.7047436,14.16015625,-38.57421875,235.3515625,-38.0859375,0.0
1734581369.708654,-1.953125,-33.69140625,132.32421875,-35.64453125,0.0
1734581369.7125597,13.671875,-26.85546875,264.6484375,-24.4140625,0.0
1734581369.7164652,-9.765625,-22.4609375,308.59375,-33.69140625,0.0
1734581369.720371,-16.6015625,-39.55078125,145.5078125,-17.08984375,0.0
1734581369.7242768,8.7890625,-25.390625,28.80859375,-17.08984375,0.0
1734581369.7281826,10.7421875,-26.85546875,6.34765625,-24.90234375,0.0
1734581369.7320883,-8.7890625,-37.59765625,171.875,-16.11328125,0.0
1734581369.735994,-9.765625,-31.73828125,200.68359375,-49.8046875,0.0
1734581369.7398999,-26.3671875,-39.0625,-240.234375,-71.77734375,0.0
1734581369.7438056,-14.16015625,-23.4375,47.36328125,-22.4609375,0.0
1734581369.7477114,-0.48828125,-25.390625,368.1640625,-22.4609375,0.0
1734581369.7516172,-13.671875,-46.38671875,223.6328125,-36.62109375,0.0
1734581369.7555273,0.48828125,-41.50390625,242.1875,-14.6484375,0.0
1734581369.759433,-2.44140625,-37.59765625,321.2890625,-38.0859375,0.0
1734581369.7633388,-17.578125,-26.85546875,315.4296875,-64.94140625,0.0
1734581369.7672446,-37.59765625,-23.4375,177.734375,-41.50390625,0.0
1734581369.7711504,-43.45703125,-28.80859375,251.953125,-43.45703125,0.0
1734581369.7750561,-3.41796875,-43.9453125,262.20703125,-26.3671875,0.0
1734581369.778962,-10.25390625,-41.015625,130.859375,-41.015625,0.0
1734581369.7828677,-8.30078125,-50.29296875,-12.6953125,-45.41015625,0.0
1734581369.7867734,-12.20703125,-52.734375,173.33984375,-27.83203125,0.0
1734581369.7906792,-21.484375,-46.38671875,453.61328125,-32.71484375,0.0
1734581369.794585,-13.671875,-49.31640625,351.07421875,-39.55078125,0.0
1734581369.7984905,-38.57421875,-40.52734375,306.640625,-58.59375,0.0
1734581369.8024,-40.0390625,-17.08984375,0.0,-51.26953125,0.0
1734581369.806306,-6.34765625,-18.06640625,0.0,-40.0390625,0.0
1734581369.8102117,-12.20703125,-34.1796875,0.0,-48.33984375,0.0
1734581369.8141174,-4.39453125,-35.64453125,0.0,-17.08984375,0.0
1734581369.8180232,-14.6484375,-41.50390625,0.0,-27.83203125,0.0
1734581369.821929,-25.87890625,-39.55078125,0.0,-54.19921875,0.0
1734581369.8258348,-28.80859375,-32.2265625,0.0,-33.69140625,0.0
1734581369.8297405,-27.34375,-30.76171875,0.0,-23.92578125,0.0
1734581369.8336463,-22.4609375,-44.43359375,0.0,-54.6875,0.0
1734581369.837552,-8.7890625,-43.45703125,0.0,-44.921875,0.0
1734581369.8414578,-2.44140625,-48.33984375,0.0,-21.97265625,0.0
1734581369.8453636,-21.97265625,-48.33984375,0.0,-55.17578125,0.0
1734581369.8492727,-21.97265625,-36.1328125,476.5625,-46.875,0.0
1734581369.8531785,1.953125,-35.15625,423.33984375,-22.4609375,0.0
1734581369.8570843,-1.46484375,-42.96875,386.23046875,-39.55078125,0.0
1734581369.86099,-23.92578125,-49.31640625,439.94140625,-69.82421875,0.0
1734581369.8648958,-27.83203125,-31.25,454.1015625,-52.734375,0.0
1734581369.8688016,-20.99609375,-37.59765625,395.99609375,-41.015625,0.0
1734581369.8727074,-17.08984375,-34.66796875,282.71484375,-39.55078125,0.0
1734581369.876613,-20.99609375,-28.3203125,414.0625,-31.25,0.0
1734581369.8805187,-19.53125,-34.66796875,513.18359375,-38.0859375,0.0
1734581369.8844244,-6.8359375,-24.4140625,410.15625,-32.2265625,0.0
1734581369.8883302,-18.5546875,-26.85546875,350.09765625,-37.59765625,0.0
1734581369.892236,-19.04296875,-35.15625,425.78125,-27.83203125,0.0
1734581369.8961446,-9.27734375,-29.296875,437.5,-28.80859375,0.0
1734581369.9000504,-14.16015625,-26.3671875,369.62890625,-38.0859375,0.0
1734581369.9039562,-15.625,-24.90234375,424.8046875,-31.73828125,0.0
1734581369.9078617,-24.4140625,-28.80859375,451.171875,-59.08203125,0.0
1734581369.9117675,-15.625,-34.66796875,440.4296875,-46.38671875,0.0
1734581369.9156733,-20.01953125,-27.83203125,295.8984375,-27.83203125,0.0
1734581369.919579,-22.4609375,-24.90234375,165.52734375,-15.13671875,0.0
1734581369.9234848,-22.94921875,-34.66796875,421.38671875,-31.25,0.0
1734581369.9273906,-18.5546875,-34.1796875,442.87109375,-40.52734375,0.0
1734581369.9312963,-18.06640625,-27.83203125,333.49609375,-36.62109375,0.0
1734581369.9352021,-40.52734375,-24.4140625,408.203125,-63.4765625,0.0
1734581369.939108,-22.4609375,-34.66796875,441.89453125,-55.6640625,0.0
1734581369.9430196,-10.25390625,-36.62109375,393.5546875,-30.2734375,0.0
1734581369.9469254,-13.671875,-31.73828125,334.47265625,-34.1796875,0.0
1734581369.9508312,-8.7890625,-27.34375,368.65234375,-52.24609375,0.0
1734581369.954737,-14.6484375,-20.99609375,400.390625,-41.9921875,0.0
1734581369.9586427,-20.99609375,-26.85546875,327.63671875,-20.99609375,0.0
1734581369.9625485,-24.4140625,-32.2265625,215.33203125,-24.90234375,0.0
1734581369.9664543,-38.0859375,-26.85546875,342.7734375,-34.66796875,0.0
1734581369.97036,-32.71484375,-22.4609375,461.9140625,-36.62109375,0.0
1734581369.9742658,-22.4609375,-31.25,357.421875,-33.203125,0.0
1734581369.9781716,-22.94921875,-30.76171875,168.45703125,-26.85546875,0.0
1734581369.9820774,-35.15625,-28.80859375,331.0546875,-25.87890625,0.0
1734581369.9859831,-39.55078125,-28.3203125,448.2421875,-35.15625,0.0
1734581369.9898942,-29.296875,-25.390625,354.00390625,-51.26953125,0.0
1734581369.9938,-4.39453125,-16.11328125,345.21484375,-31.73828125,0.0
1734581369.9977057,-6.34765625,-25.390625,386.23046875,-22.94921875,0.0
1734581370.0016115,-28.3203125,-35.15625,378.90625,-48.33984375,0.0
1734581370.0055172,-25.87890625,-26.85546875,375.48828125,-52.734375,0.0
1734581370.009423,-27.83203125,-27.83203125,374.51171875,-54.6875,0.0
1734581370.0133288,-34.1796875,-25.390625,358.88671875,-59.08203125,0.0
1734581370.0172346,-36.62109375,-27.34375,413.57421875,-59.5703125,0.0
1734581370.0211403,-31.25,-29.78515625,301.7578125,-42.48046875,0.0
1734581370.025046,-28.80859375,-31.25,148.92578125,-37.109375,0.0
1734581370.028952,-29.296875,-29.78515625,417.48046875,-46.38671875,0.0
1734581370.0328577,-21.97265625,-29.296875,432.12890625,-36.62109375,0.0
1734581370.0367684,-18.5546875,-25.87890625,347.16796875,-36.1328125,0.0
1734581370.0406742,-21.97265625,-21.97265625,415.52734375,-50.29296875,0.0
1734581370.0445797,-28.3203125,-26.3671875,443.359375,-52.24609375,0.0
1734581370.0484855,-32.2265625,-30.76171875,400.87890625,-48.33984375,0.0
1734581370.0523913,-31.25,-39.0625,343.75,-49.8046875,0.0
1734581370.056297,-21.97265625,-41.50390625,338.8671875,-45.8984375,0.0
1734581370.0602028,-13.18359375,-30.76171875,392.578125,-43.45703125,0.0
1734581370.0641086,-17.08984375,-28.3203125,405.2734375,-39.0625,0.0
1734581370.0680144,-13.671875,-29.78515625,204.1015625,-31.25,0.0
1734581370.0719202,-16.11328125,-24.4140625,340.33203125,-33.69140625,0.0
1734581370.075826,-25.390625,-16.11328125,436.5234375,-56.15234375,0.0
1734581370.0797317,-27.83203125,-22.4609375,373.046875,-55.17578125,0.0
1734581370.0836422,-30.76171875,-22.4609375,369.62890625,-49.31640625,0.0
1734581370.087548,-30.76171875,-23.92578125,422.36328125,-54.6875,0.0
1734581370.0914538,-25.87890625,-33.203125,401.3671875,-55.6640625,0.0
1734581370.0953596,-27.83203125,-34.1796875,355.95703125,-56.640625,0.0
1734581370.0992653,-35.15625,-32.71484375,375.9765625,-45.8984375,0.0
1734581370.103171,-34.66796875,-32.2265625,302.734375,-45.41015625,0.0
1734581370.107077,-34.66796875,-29.78515625,364.2578125,-55.17578125,0.0
1734581370.1109827,-21.97265625,-29.78515625,282.2265625,-36.1328125,0.0
1734581370.1148884,-16.6015625,-32.71484375,-39.0625,-27.34375,0.0
1734581370.1187942,-27.83203125,-37.109375,270.01953125,-43.45703125,0.0
1734581370.1227,-29.78515625,-37.59765625,448.73046875,-57.6171875,0.0
1734581370.1266057,-29.296875,-36.62109375,294.921875,-50.29296875,0.0
1734581370.1305158,0.0,-36.1328125,0.0,-37.59765625,0.0
1734581370.1344216,0.0,-35.64453125,0.0,-35.64453125,0.0
1734581370.1383274,0.0,-37.59765625,0.0,-34.66796875,0.0
1734581370.1422331,0.0,-40.52734375,0.0,-41.015625,0.0
1734581370.146139,0.0,-42.96875,0.0,-41.50390625,0.0
1734581370.1500447,0.0,-40.52734375,0.0,-48.828125,0.0
1734581370.1539505,0.0,-35.64453125,0.0,-58.59375,0.0
1734581370.1578562,0.0,-34.1796875,0.0,-51.26953125,0.0
1734581370.161762,0.0,-33.203125,0.0,-45.41015625,0.0
1734581370.1656678,0.0,-34.1796875,0.0,-56.640625,0.0
1734581370.1695735,0.0,-33.203125,0.0,-56.640625,0.0
1734581370.1734793,0.0,-34.66796875,0.0,-56.15234375,0.0
1734581370.1773887,-33.203125,-37.59765625,338.37890625,-59.5703125,0.0
1734581370.1812944,-32.71484375,-35.64453125,366.2109375,-52.24609375,0.0
1734581370.1852002,-24.4140625,-33.69140625,297.36328125,-42.96875,0.0
1734581370.189106,-17.08984375,-37.59765625,259.765625,-45.41015625,0.0
1734581370.1930118,-19.53125,-33.203125,277.34375,-43.9453125,0.0
1734581370.1969175,-22.94921875,-24.90234375,307.12890625,-42.48046875,0.0
1734581370.2008233,-25.390625,-30.2734375,215.8203125,-54.19921875,0.0
1734581370.204729,-21.484375,-34.1796875,-39.55078125,-56.640625,0.0
1734581370.2086349,-23.4375,-26.3671875,264.6484375,-58.10546875,0.0
1734581370.2125406,-25.390625,-21.97265625,396.97265625,-57.6171875,0.0
1734581370.2164464,-26.3671875,-26.85546875,281.73828125,-55.6640625,0.0
1734581370.2203522,-39.55078125,-29.296875,327.63671875,-61.5234375,0.0
1734581370.224261,-43.45703125,-31.73828125,341.30859375,-66.40625,0.0
1734581370.2281668,-42.48046875,-29.78515625,326.66015625,-60.546875,0.0
1734581370.2320726,-43.45703125,-30.76171875,186.5234375,-64.453125,0.0
1734581370.2359784,-42.48046875,-28.80859375,227.05078125,-73.73046875,0.0
1734581370.2398841,-49.8046875,-12.6953125,310.546875,-75.68359375,0.0
1734581370.24379,-37.109375,-14.6484375,67.87109375,-66.40625,0.0
1734581370.2476957,-47.36328125,-38.57421875,-172.8515625,-69.3359375,0.0
1734581370.2516015,-86.42578125,-41.015625,-42.96875,-88.37890625,0.0
1734581370.2555072,-107.91015625,-30.76171875,182.12890625,-107.421875,0.0
1734581370.259413,-112.79296875,-30.2734375,227.05078125,-120.60546875,0.0
1734581370.2633188,-113.28125,-30.2734375,-208.49609375,-117.1875,0.0
1734581370.2672246,-137.6953125,-32.2265625,-20.01953125,-137.20703125,0.0
1734581370.271133,-155.76171875,-34.1796875,343.26171875,-160.15625,0.0
1734581370.2750387,-164.0625,-27.83203125,200.68359375,-163.0859375,0.0
1734581370.2789445,-183.10546875,-27.34375,122.55859375,-162.59765625,0.0
1734581370.2828503,-198.73046875,-31.25,252.9296875,-174.8046875,0.0
1734581370.286756,-217.28515625,-40.52734375,334.9609375,-196.2890625,0.0
1734581370.2906618,-226.5625,-47.8515625,33.69140625,-199.70703125,0.0
1734581370.2945676,-239.2578125,-34.66796875,-242.1875,-200.1953125,0.0
1734581370.2984734,-256.34765625,-26.3671875,228.02734375,-218.75,0.0
1734581370.3023791,-257.8125,-28.80859375,342.7734375,-234.86328125,0.0
1734581370.306285,-268.06640625,-32.71484375,166.9921875,-237.3046875,0.0
1734581370.3101907,-268.06640625,-24.90234375,209.9609375,-227.05078125,0.0
1734581370.3140965,-247.0703125,-20.01953125,281.73828125,-216.796875,0.0
1734581370.3180082,-246.09375,-22.4609375,325.68359375,-221.19140625,0.0
1734581370.321914,-237.79296875,-18.06640625,205.56640625,-218.26171875,0.0
1734581370.3258197,-229.4921875,-20.5078125,251.953125,-214.35546875,0.0
1734581370.3297255,-243.65234375,-20.99609375,347.65625,-214.84375,0.0
1734581370.3336313,-238.76953125,-20.01953125,297.8515625,-199.21875,0.0
1734581370.337537,-230.46875,-25.390625,88.37890625,-191.89453125,0.0
1734581370.3414428,-225.5859375,-37.109375,182.6171875,-184.5703125,0.0
1734581370.3453486,-215.8203125,-36.62109375,382.32421875,-169.921875,0.0
1734581370.3492544,-211.42578125,-30.76171875,314.94140625,-169.43359375,0.0
1734581370.3531601,-200.68359375,-32.2265625,26.85546875,-152.34375,0.0
1734581370.357066,-196.77734375,-35.64453125,192.87109375,-144.53125,0.0
1734581370.3609717,-202.1484375,-41.015625,399.90234375,-158.203125,0.0
1734581370.364883,-187.5,-39.55078125,246.09375,-146.97265625,0.0
1734581370.3687887,-177.734375,-43.9453125,134.765625,-134.765625,0.0
1734581370.3726945,-181.15234375,-54.19921875,250.0,-142.08984375,0.0
1734581370.3766003,-171.875,-54.19921875,352.5390625,-129.8828125,0.0
1734581370.380506,-172.8515625,-45.41015625,255.859375,-116.69921875,0.0
1734581370.3844118,-159.66796875,-37.109375,78.61328125,-116.69921875,0.0
1734581370.3883173,-145.5078125,-36.62109375,187.98828125,-101.5625,0.0
1734581370.3922231,-149.4140625,-43.45703125,376.953125,-98.14453125,0.0
1734581370.396129,-143.5546875,-51.26953125,134.765625,-101.07421875,0.0
1734581370.4000347,-132.8125,-48.828125,-208.49609375,-83.49609375,0.0
1734581370.4039404,-124.51171875,-41.50390625,178.7109375,-82.51953125,0.0
1734581370.4078462,-110.3515625,-35.64453125,319.3359375,-73.2421875,0.0
1734581370.4117572,-96.6796875,-41.015625,74.70703125,-42.48046875,0.0
1734581370.415663,-88.8671875,-45.41015625,99.609375,-58.59375,0.0
1734581370.4195688,-85.9375,-41.015625,182.12890625,-64.453125,0.0
1734581370.4234746,-77.1484375,-40.0390625,-8.30078125,-35.64453125,0.0
1734581370.4273803,-58.10546875,-33.203125,-292.48046875,-19.53125,0.0
1734581370.431286,-32.2265625,-33.203125,-338.8671875,-0.9765625,0.0
1734581370.4351919,-32.71484375,-39.55078125,-290.52734375,-1.953125,0.0
1734581370.4390976,-25.87890625,-28.3203125,-335.9375,3.90625,0.0
1734581370.4430034,-11.23046875,-28.80859375,-528.3203125,26.85546875,0.0
1734581370.4469092,-13.18359375,-35.15625,-321.77734375,27.83203125,0.0
1734581370.450815,-2.9296875,-27.83203125,-83.984375,35.64453125,0.0
1734581370.4547205,8.30078125,-27.34375,-311.03515625,46.875,0.0
1734581370.4586308,14.16015625,-32.71484375,-294.43359375,48.33984375,0.0
1734581370.4625366,21.97265625,-33.69140625,-185.546875,57.6171875,0.0
1734581370.4664423,24.4140625,-26.3671875,-242.1875,62.5,0.0
1734581370.4703481,42.96875,-23.92578125,-312.5,77.1484375,0.0
1734581370.474254,51.7578125,-30.76171875,-325.1953125,83.49609375,0.0
1734581370.4781597,51.7578125,-27.34375,-385.25390625,82.51953125,0.0
1734581370.4820654,58.59375,-22.94921875,-336.42578125,83.49609375,0.0
1734581370.4859712,62.98828125,-22.94921875,-389.16015625,88.8671875,0.0
1734581370.489877,78.125,-22.4609375,-518.5546875,101.5625,0.0
1734581370.4937828,75.68359375,-21.484375,-293.9453125,90.33203125,0.0
1734581370.4976885,65.4296875,-22.94921875,-90.33203125,88.37890625,0.0
1734581370.5015943,86.42578125,-19.53125,-130.37109375,112.3046875,0.0
1734581370.5055044,84.47265625,-14.16015625,-113.28125,108.88671875,0.0
1734581370.5094101,78.125,-7.32421875,-23.4375,94.7265625,0.0
1734581370.513316,96.19140625,-9.27734375,-14.16015625,95.21484375,0.0
1734581370.5172217,93.75,-12.6953125,-138.18359375,101.5625,0.0
1734581370.5211275,90.8203125,-12.6953125,-42.96875,109.375,0.0
1734581370.5250332,89.35546875,-16.6015625,-38.0859375,92.28515625,0.0
1734581370.528939,83.49609375,-18.06640625,-108.88671875,73.73046875,0.0
1734581370.5328448,98.14453125,-16.11328125,-201.66015625,91.30859375,0.0
1734581370.5367506,98.6328125,-20.01953125,-20.5078125,91.30859375,0.0
1734581370.5406563,86.42578125,-25.390625,352.5390625,77.1484375,0.0
1734581370.544562,82.03125,-28.80859375,228.02734375,81.0546875,0.0
1734581370.5484679,87.40234375,-29.296875,19.04296875,72.265625,0.0
1734581370.5523772,79.1015625,-32.71484375,189.94140625,60.546875,0.0
1734581370.556283,74.21875,-25.87890625,311.5234375,61.03515625,0.0
1734581370.5601888,89.35546875,-11.71875,179.19921875,66.40625,0.0
1734581370.5640945,83.49609375,-13.671875,41.50390625,67.3828125,0.0
1734581370.5680003,71.2890625,-12.6953125,96.6796875,58.10546875,0.0
1734581370.571906,64.453125,-11.23046875,-31.25,48.33984375,0.0
1734581370.5758119,67.87109375,-18.06640625,-239.74609375,50.78125,0.0
1734581370.5797176,82.03125,-13.18359375,-371.09375,57.12890625,0.0
1734581370.5836234,81.54296875,-3.41796875,-171.38671875,49.8046875,0.0
1734581370.5875292,78.125,-2.44140625,-163.57421875,50.78125,0.0
1734581370.591435,72.75390625,-4.39453125,-285.15625,50.78125,0.0
1734581370.5953407,67.87109375,-10.25390625,-175.29296875,57.6171875,0.0
1734581370.5992498,73.73046875,-9.27734375,-124.51171875,61.5234375,0.0
1734581370.6031556,75.1953125,-3.41796875,-196.2890625,67.3828125,0.0
1734581370.6070614,79.1015625,-0.48828125,-352.5390625,68.359375,0.0
1734581370.6109672,84.9609375,-1.953125,-391.6015625,51.7578125,0.0
1734581370.614873,78.61328125,-4.39453125,-413.57421875,59.08203125,0.0
1734581370.6187787,82.51953125,-3.41796875,-483.88671875,62.98828125,0.0
1734581370.6226845,80.56640625,-5.859375,-630.37109375,56.640625,0.0
1734581370.6265903,68.84765625,-7.32421875,-441.89453125,56.15234375,0.0
1734581370.630496,70.80078125,-4.8828125,-313.96484375,47.36328125,0.0
1734581370.6344018,68.84765625,-8.7890625,-416.50390625,41.50390625,0.0
1734581370.6383076,61.03515625,-8.30078125,-406.73828125,35.64453125,0.0
1734581370.6422133,53.7109375,-7.32421875,-397.94921875,31.25,0.0
1734581370.646122,48.828125,-12.6953125,-381.8359375,31.25,0.0
1734581370.6500278,53.7109375,-13.671875,-423.33984375,36.1328125,0.0
1734581370.6539335,55.17578125,-13.18359375,-414.55078125,37.59765625,0.0
1734581370.6578393,58.10546875,-12.20703125,-358.3984375,26.3671875,0.0
1734581370.661745,63.4765625,-9.765625,-371.58203125,30.76171875,0.0
1734581370.6656508,77.63671875,-5.859375,-462.40234375,36.1328125,0.0
1734581370.6695566,73.73046875,-6.8359375,-520.01953125,40.0390625,0.0
1734581370.6734622,45.41015625,-10.7421875,-349.12109375,39.55078125,0.0
1734581370.677368,34.66796875,-10.25390625,-250.0,31.73828125,0.0
1734581370.6812737,56.640625,-7.32421875,-370.1171875,30.76171875,0.0
1734581370.6851795,56.15234375,-8.7890625,-285.15625,34.1796875,0.0
1734581370.6890852,44.921875,-18.06640625,-105.46875,37.109375,0.0
1734581370.692997,36.62109375,-17.578125,-110.83984375,20.01953125,0.0
1734581370.6969028,46.38671875,-19.04296875,-195.3125,9.27734375,0.0
1734581370.7008085,49.31640625,-13.671875,-7.32421875,6.34765625,0.0
1734581370.7047143,38.57421875,3.90625,277.83203125,8.7890625,0.0
1734581370.70862,43.9453125,6.8359375,335.9375,16.6015625,0.0
1734581370.7125258,59.08203125,7.32421875,105.95703125,9.765625,0.0
1734581370.7164316,56.15234375,5.859375,133.7890625,3.90625,0.0
1734581370.7203374,41.50390625,-3.41796875,365.234375,7.8125,0.0
1734581370.7242432,41.50390625,-9.765625,182.12890625,-0.48828125,0.0
1734581370.728149,36.1328125,-10.25390625,-167.96875,-4.8828125,0.0
1734581370.7320547,26.85546875,-8.30078125,-99.12109375,-6.34765625,0.0
1734581370.7359605,17.578125,-7.32421875,-271.484375,-14.16015625,0.0
1734581370.7398717,13.18359375,-8.7890625,-711.9140625,-10.7421875,0.0
1734581370.7437775,20.5078125,-11.23046875,-911.1328125,-0.9765625,0.0
1734581370.7476833,36.62109375,-11.23046875,-988.28125,3.90625,0.0
1734581370.751589,33.69140625,-9.765625,-1000.0,-5.37109375,0.0
1734581370.7554948,19.53125,-9.27734375,-1000.0,-4.39453125,0.0
1734581370.7594006,45.41015625,-12.20703125,-1000.0,7.8125,0.0
1734581370.7633064,44.921875,-13.18359375,-1000.0,1.46484375,0.0
1734581370.7672122,35.64453125,-12.6953125,-1000.0,-8.7890625,0.0
1734581370.771118,34.1796875,-16.11328125,-1000.0,-4.8828125,0.0
1734581370.7750237,29.296875,-20.99609375,-1000.0,5.37109375,0.0
1734581370.7789295,31.73828125,-18.5546875,-1000.0,-2.44140625,0.0
1734581370.7828352,37.59765625,-15.13671875,-1000.0,-3.41796875,0.0
1734581370.786746,34.66796875,-19.04296875,-1000.0,0.0,0.0
1734581370.7906518,16.11328125,-24.90234375,-1000.0,-5.859375,0.0
1734581370.7945576,17.578125,-21.484375,-1000.0,-1.46484375,0.0
1734581370.7984633,32.2265625,-15.625,-1000.0,-1.46484375,0.0
1734581370.802369,19.53125,-17.578125,-1000.0,-2.44140625,0.0
1734581370.806275,3.90625,-17.08984375,-1000.0,-7.32421875,0.0
1734581370.8101807,8.7890625,-19.04296875,-1000.0,-18.06640625,0.0
1734581370.8140864,13.671875,-22.4609375,-1000.0,-10.7421875,0.0
1734581370.8179922,1.953125,-20.01953125,-1000.0,-8.30078125,0.0
1734581370.821898,-14.16015625,-18.06640625,-1000.0,-17.578125,0.0
1734581370.8258038,7.8125,-22.94921875,-1000.0,-20.99609375,0.0
1734581370.8297095,5.859375,-21.97265625,-1000.0,-17.578125,0.0
1734581370.8336198,7.8125,-20.5078125,-1000.0,-19.04296875,0.0
1734581370.8375256,4.8828125,-22.4609375,-1000.0,-27.34375,0.0
1734581370.8414314,-25.87890625,-23.92578125,-1000.0,-36.1328125,0.0
1734581370.8453372,1.953125,-22.94921875,-1000.0,-33.203125,0.0
1734581370.849243,16.11328125,-16.6015625,-1000.0,-22.94921875,0.0
1734581370.8531487,-4.39453125,-14.16015625,-1000.0,-20.5078125,0.0
1734581370.8570545,11.71875,-14.6484375,-1000.0,-24.4140625,0.0
1734581370.8609602,-0.9765625,-16.11328125,-1000.0,-27.83203125,0.0
1734581370.864866,-10.7421875,-19.04296875,-1000.0,-20.5078125,0.0
1734581370.8687718,14.6484375,-17.578125,-1000.0,-20.01953125,0.0
1734581370.8726776,14.16015625,-17.08984375,-1000.0,-29.78515625,0.0
1734581370.8765833,-6.34765625,-18.06640625,-1000.0,-26.3671875,0.0
1734581370.880493,-6.8359375,-17.578125,-1000.0,-20.01953125,0.0
1734581370.8843987,3.41796875,-16.6015625,-994.140625,-20.01953125,0.0
1734581370.8883045,-6.34765625,-15.625,-985.3515625,-22.94921875,0.0
1734581370.8922102,-20.5078125,-12.6953125,-993.65234375,-15.13671875,0.0
1734581370.896116,-15.13671875,-19.04296875,-951.66015625,-20.5078125,0.0
1734581370.9000218,0.48828125,-25.87890625,-928.7109375,-31.25,0.0
1734581370.9039276,11.23046875,-22.4609375,-926.26953125,-24.90234375,0.0
1734581370.9078333,5.37109375,-20.5078125,-950.1953125,-19.53125,0.0
1734581370.911739,-26.85546875,-24.4140625,-827.63671875,-30.76171875,0.0
1734581370.915645,-32.71484375,-24.4140625,-752.44140625,-38.0859375,0.0
1734581370.9195507,-17.578125,-20.01953125,-789.55078125,-44.43359375,0.0
1734581370.9234564,-1.46484375,-19.04296875,-801.7578125,-47.36328125,0.0
1734581370.9273658,-9.765625,-20.99609375,-713.8671875,-39.55078125,0.0
1734581370.9312716,-7.8125,-17.578125,-664.0625,-42.96875,0.0
1734581370.9351773,4.8828125,-14.16015625,-688.96484375,-43.9453125,0.0
1734581370.939083,-18.5546875,-24.4140625,-617.67578125,-41.015625,0.0
1734581370.9429889,-33.69140625,-25.87890625,-592.7734375,-52.734375,0.0
1734581370.9468946,-20.01953125,-23.4375,-631.8359375,-55.6640625,0.0
1734581370.9508004,-27.34375,-21.97265625,-619.140625,-54.19921875,0.0
1734581370.9547062,-45.41015625,-25.390625,-647.94921875,-41.9921875,0.0
1734581370.958612,-20.01953125,-14.6484375,-550.29296875,-50.29296875,0.0
1734581370.9625177,2.9296875,-18.06640625,-536.1328125,-56.15234375,0.0
1734581370.9664235,-3.90625,-24.4140625,-540.0390625,-43.9453125,0.0
1734581370.9703293,-29.78515625,-16.11328125,-485.3515625,-48.828125,0.0
1734581370.9742386,-73.73046875,-21.484375,-480.95703125,-63.96484375,0.0
1734581370.9781444,-27.83203125,-32.71484375,-517.578125,-63.4765625,0.0
1734581370.9820502,-24.4140625,-29.296875,-551.7578125,-57.6171875,0.0
1734581370.985956,-65.91796875,-21.484375,-459.47265625,-62.98828125,0.0
1734581370.9898617,-44.921875,-17.578125,-613.28125,-74.21875,0.0
1734581370.9937675,-33.69140625,-20.99609375,-943.84765625,-71.2890625,0.0
1734581370.9976733,-22.4609375,-30.2734375,-1000.0,-40.52734375,0.0
1734581371.001579,-4.8828125,-27.83203125,-968.26171875,-31.73828125,0.0
1734581371.0054848,3.90625,-19.04296875,-985.83984375,-44.921875,0.0
1734581371.0093906,-4.39453125,-22.94921875,-1000.0,-41.9921875,0.0
1734581371.0132964,12.20703125,-34.66796875,-983.88671875,-30.76171875,0.0
1734581371.0172021,-9.765625,-20.01953125,-987.79296875,-43.45703125,0.0
1734581371.0211108,-32.71484375,-20.99609375,-995.60546875,-57.12890625,0.0
1734581371.0250165,-13.671875,-18.06640625,-984.86328125,-54.19921875,0.0
1734581371.0289223,-35.15625,3.90625,-972.16796875,-57.12890625,0.0
1734581371.032828,-29.78515625,-31.25,-978.02734375,-55.6640625,0.0
1734581371.0367339,0.0,-28.3203125,-961.9140625,-55.6640625,0.0
1734581371.0406396,21.97265625,-16.6015625,-960.44921875,-45.41015625,0.0
1734581371.0445454,-4.8828125,-13.671875,-982.91015625,-45.41015625,0.0
1734581371.0484512,-37.109375,-21.484375,-890.625,-53.7109375,0.0
1734581371.052357,-13.18359375,-27.83203125,-860.3515625,-39.55078125,0.0
1734581371.0562627,34.1796875,-25.390625,-847.65625,-52.734375,0.0
1734581371.0601685,26.3671875,-12.6953125,-728.02734375,-48.33984375,0.0
1734581371.0640743,-35.15625,-37.109375,-662.109375,-71.77734375,0.0
1734581371.0679824,0.9765625,-56.640625,-628.41796875,-72.265625,0.0
1734581371.0718882,27.34375,-11.23046875,-610.3515625,-23.92578125,0.0
1734581371.075794,-37.109375,-11.71875,-582.03125,-36.1328125,0.0
1734581371.0796998,-33.69140625,-45.8984375,-557.12890625,-46.38671875,0.0
1734581371.0836055,-10.25390625,-27.83203125,-513.671875,-46.875,0.0
1734581371.0875113,-19.53125,-1.46484375,-564.94140625,-38.0859375,0.0
1734581371.091417,-7.8125,-17.08984375,-497.0703125,-42.96875,0.0
1734581371.0953228,-12.6953125,-34.1796875,-288.0859375,-50.29296875,0.0
1734581371.0992286,-0.48828125,-28.3203125,-279.296875,-54.19921875,0.0
1734581371.1031344,23.92578125,-29.78515625,-464.35546875,-28.80859375,0.0
1734581371.1070402,-43.9453125,-22.94921875,-250.48828125,-40.0390625,0.0
1734581371.110946,-35.64453125,-25.390625,-9.27734375,-62.01171875,0.0
1734581371.1148572,10.7421875,-31.73828125,-94.7265625,-48.828125,0.0
1734581371.118763,-9.765625,-36.62109375,-77.63671875,-54.6875,0.0
1734581371.1226687,-19.04296875,-30.2734375,133.30078125,-55.6640625,0.0
1734581371.1265745,-66.89453125,-11.71875,291.50390625,-64.453125,0.0
1734581371.1304803,-39.55078125,-25.390625,339.84375,-66.89453125,0.0
1734581371.134386,19.53125,-33.69140625,394.04296875,-66.40625,0.0
1734581371.1382918,9.765625,-36.1328125,591.796875,-57.12890625,0.0
1734581371.1421976,0.48828125,-30.2734375,673.33984375,-45.41015625,0.0
1734581371.1461034,-18.06640625,-26.85546875,646.484375,-54.6875,0.0
1734581371.1500092,-31.73828125,-20.5078125,668.9453125,-52.24609375,0.0
1734581371.153915,44.921875,-43.45703125,749.0234375,-25.390625,0.0
1734581371.1578207,54.19921875,-37.59765625,754.39453125,-38.0859375,0.0
1734581371.1617317,-29.296875,1.953125,735.3515625,-66.40625,0.0
1734581371.1656375,-46.875,-20.99609375,788.0859375,-67.3828125,0.0
1734581371.1695433,5.859375,-53.22265625,831.54296875,-67.87109375,0.0
1734581371.173449,24.4140625,-31.73828125,825.1953125,-63.96484375,0.0
1734581371.1773548,-8.30078125,-26.3671875,845.703125,-57.6171875,0.0
