timestamps,TP9,AF7,AF8,TP10,Right AUX
1734582121.0360498,-0.48828125,0.0,-6.8359375,-0.48828125,0.0
1734582121.0399094,2.44140625,0.48828125,26.3671875,1.46484375,0.0
1734582121.0437691,-6.34765625,-1.46484375,-66.40625,-3.41796875,0.0
1734582121.0476286,29.78515625,7.32421875,234.86328125,14.16015625,0.0
1734582121.0514882,73.73046875,21.97265625,554.19921875,56.15234375,0.0
1734582121.0553477,24.4140625,29.296875,458.984375,17.08984375,0.0
1734582121.0592072,-25.87890625,28.80859375,430.6640625,-51.26953125,0.0
1734582121.0630667,-0.9765625,22.94921875,407.2265625,-44.43359375,0.0
1734582121.0669265,59.08203125,27.83203125,514.16015625,3.90625,0.0
1734582121.070786,81.0546875,32.2265625,553.7109375,45.8984375,0.0
1734582121.0746455,29.296875,30.2734375,475.5859375,31.25,0.0
1734582121.0773606,-25.390625,27.83203125,358.88671875,-29.296875,0.0
1734582121.0811248,3.90625,30.2734375,478.515625,-47.36328125,0.0
1734582121.0848892,66.89453125,38.57421875,536.1328125,10.7421875,0.0
1734582121.0886533,88.37890625,39.0625,389.16015625,51.7578125,0.0
1734582121.0924175,41.9921875,35.64453125,408.203125,46.38671875,0.0
1734582121.0961816,-12.6953125,30.76171875,312.98828125,-17.08984375,0.0
1734582121.0999458,-6.34765625,25.87890625,294.43359375,-76.66015625,0.0
1734582121.10371,65.91796875,24.4140625,199.70703125,4.8828125,0.0
1734582121.1074743,89.84375,23.92578125,220.703125,70.3125,0.0
1734582121.1112385,41.015625,31.25,561.5234375,16.6015625,0.0
1734582121.1150026,5.859375,31.73828125,464.84375,-30.76171875,0.0
1734582121.1187668,-2.9296875,28.80859375,412.109375,-48.828125,0.0
1734582121.1196299,34.66796875,32.71484375,499.51171875,-18.5546875,0.0
1734582121.1232734,80.56640625,29.78515625,559.5703125,44.921875,0.0
1734582121.1269166,54.19921875,29.296875,435.05859375,37.59765625,0.0
1734582121.13056,-5.859375,27.34375,329.58984375,-11.71875,0.0
1734582121.1342032,-11.23046875,20.99609375,420.41015625,-38.57421875,0.0
1734582121.1378465,44.921875,15.625,343.75,-17.578125,0.0
1734582121.14149,83.984375,17.578125,265.13671875,55.17578125,0.0
1734582121.1451333,55.6640625,18.5546875,411.1328125,51.26953125,0.0
1734582121.1487765,-7.32421875,23.4375,541.015625,-22.4609375,0.0
1734582121.1524198,-6.8359375,31.25,389.16015625,-61.5234375,0.0
1734582121.156063,33.69140625,26.3671875,245.60546875,-27.83203125,0.0
1734582121.1597064,59.08203125,17.578125,441.40625,39.0625,0.0
1734582121.1593776,57.12890625,25.390625,0.0,48.33984375,0.0
1734582121.1629105,4.39453125,20.99609375,0.0,-5.37109375,0.0
1734582121.1664436,-31.73828125,5.859375,0.0,-47.8515625,0.0
1734582121.1699765,4.39453125,15.625,0.0,-45.8984375,0.0
1734582121.1735094,57.6171875,26.85546875,0.0,19.53125,0.0
1734582121.1770425,64.453125,22.94921875,0.0,53.22265625,0.0
1734582121.1805754,3.90625,11.23046875,0.0,16.6015625,0.0
1734582121.1841083,-36.1328125,13.671875,0.0,-42.96875,0.0
1734582121.1876414,8.30078125,22.4609375,0.0,-62.98828125,0.0
1734582121.1911743,57.6171875,18.5546875,0.0,9.27734375,0.0
1734582121.1947074,53.22265625,20.99609375,0.0,58.10546875,0.0
1734582121.1982403,0.9765625,20.01953125,0.0,4.39453125,0.0
1734582121.1980095,-39.55078125,13.671875,374.51171875,-70.80078125,0.0
1734582121.201464,-8.7890625,22.4609375,291.015625,-52.734375,0.0
1734582121.2049186,48.828125,24.90234375,380.37109375,18.06640625,0.0
1734582121.208373,54.6875,20.01953125,487.3046875,56.15234375,0.0
1734582121.2118278,7.32421875,23.92578125,411.1328125,5.859375,0.0
1734582121.2152822,-36.62109375,22.94921875,329.1015625,-63.96484375,0.0
1734582121.218737,-14.6484375,19.53125,288.57421875,-41.9921875,0.0
1734582121.2221913,43.9453125,19.53125,317.87109375,24.90234375,0.0
1734582121.225646,62.01171875,23.92578125,474.609375,46.875,0.0
1734582121.2291005,24.90234375,26.85546875,318.359375,6.8359375,0.0
1734582121.2325552,-23.4375,20.5078125,174.8046875,-59.08203125,0.0
1734582121.2360096,-16.11328125,19.53125,375.9765625,-67.87109375,0.0
1734582121.2386467,30.2734375,17.08984375,485.83984375,-10.25390625,0.0
1734582121.2420878,58.10546875,10.25390625,297.36328125,37.109375,0.0
1734582121.2455287,19.04296875,17.08984375,261.23046875,11.23046875,0.0
1734582121.2489696,-30.76171875,23.4375,416.50390625,-59.5703125,0.0
1734582121.2524107,-17.08984375,23.4375,279.78515625,-69.82421875,0.0
1734582121.2558515,28.3203125,20.01953125,104.00390625,-0.48828125,0.0
1734582121.2592924,52.734375,16.11328125,211.9140625,63.96484375,0.0
1734582121.2627335,31.73828125,15.625,442.87109375,27.83203125,0.0
1734582121.2661743,-18.06640625,12.20703125,419.921875,-60.546875,0.0
1734582121.2696154,-33.69140625,6.34765625,351.07421875,-76.171875,0.0
1734582121.2730563,26.3671875,8.7890625,397.94921875,10.25390625,0.0
1734582121.2764971,74.21875,11.23046875,437.01171875,73.2421875,0.0
1734582121.2797532,22.94921875,7.32421875,300.29296875,16.6015625,0.0
1734582121.2831914,-53.7109375,2.9296875,281.25,-69.82421875,0.0
1734582121.28663,-59.08203125,7.8125,398.92578125,-103.515625,0.0
1734582121.2900681,-12.6953125,6.8359375,407.71484375,-66.89453125,0.0
1734582121.2935066,21.97265625,8.30078125,321.2890625,11.23046875,0.0
1734582121.296945,3.90625,4.8828125,198.73046875,26.3671875,0.0
1734582121.3003833,-48.828125,-1.46484375,195.80078125,-44.921875,0.0
1734582121.3038218,-75.68359375,6.34765625,173.828125,-108.88671875,0.0
1734582121.30726,-36.1328125,5.859375,120.60546875,-77.1484375,0.0
1734582121.3106985,16.6015625,6.34765625,295.41015625,21.484375,0.0
1734582121.314137,18.5546875,12.20703125,443.359375,29.296875,0.0
1734582121.3175752,-36.1328125,13.18359375,420.8984375,-29.296875,0.0
1734582121.321355,-59.08203125,11.23046875,223.14453125,-75.68359375,0.0
1734582121.3247976,-19.53125,5.859375,195.80078125,-65.91796875,0.0
1734582121.32824,13.671875,13.671875,440.91796875,11.71875,0.0
1734582121.3316824,17.08984375,24.4140625,436.03515625,41.9921875,0.0
1734582121.335125,-41.50390625,16.11328125,292.48046875,-16.11328125,0.0
1734582121.3385673,-83.984375,9.765625,255.37109375,-96.6796875,0.0
1734582121.3420098,-35.64453125,17.08984375,326.171875,-79.1015625,0.0
1734582121.345452,19.53125,20.5078125,440.4296875,7.32421875,0.0
1734582121.3488946,14.6484375,17.578125,243.1640625,47.36328125,0.0
1734582121.3523371,-34.1796875,15.13671875,157.2265625,-11.71875,0.0
1734582121.3557794,-70.3125,19.53125,293.9453125,-84.47265625,0.0
1734582121.359222,-44.921875,19.53125,276.85546875,-68.359375,0.0
1734582121.363517,8.30078125,20.99609375,384.765625,-3.90625,0.0
1734582121.3669684,27.83203125,26.3671875,351.07421875,38.0859375,0.0
1734582121.3704197,-9.27734375,27.83203125,375.9765625,1.953125,0.0
1734582121.373871,-51.26953125,29.78515625,274.4140625,-90.33203125,0.0
1734582121.3773224,-36.1328125,21.484375,174.8046875,-89.84375,0.0
1734582121.3807735,10.25390625,14.6484375,218.26171875,-8.30078125,0.0
1734582121.384225,19.04296875,16.11328125,201.66015625,34.1796875,0.0
1734582121.3876762,-20.01953125,7.32421875,104.98046875,10.7421875,0.0
1734582121.3911276,-67.87109375,5.859375,106.4453125,-60.546875,0.0
1734582121.394579,-61.03515625,15.13671875,302.24609375,-90.33203125,0.0
1734582121.3980303,1.953125,16.6015625,380.859375,-35.15625,0.0
1734582121.4014816,35.15625,15.625,327.1484375,36.1328125,0.0
1734582121.4061348,-0.9765625,17.08984375,268.5546875,15.13671875,0.0
1734582121.4095972,-47.36328125,15.625,228.515625,-63.96484375,0.0
1734582121.4130597,-45.8984375,13.18359375,275.87890625,-90.8203125,0.0
1734582121.4165223,-4.39453125,2.44140625,261.23046875,-56.15234375,0.0
1734582121.4199846,24.4140625,1.953125,341.30859375,20.5078125,0.0
1734582121.4234471,0.48828125,9.27734375,288.57421875,35.64453125,0.0
1734582121.4269094,-34.1796875,13.671875,148.4375,-54.19921875,0.0
1734582121.430372,-44.921875,12.6953125,15.13671875,-87.40234375,0.0
1734582121.4338343,-21.484375,6.34765625,29.78515625,-42.48046875,0.0
1734582121.4372969,26.3671875,9.765625,411.1328125,18.5546875,0.0
1734582121.4407594,14.6484375,9.27734375,348.6328125,39.55078125,0.0
1734582121.4442217,-32.71484375,13.671875,297.8515625,-31.25,0.0
1734582121.4490132,-54.19921875,14.16015625,0.0,-107.91015625,0.0
1734582121.4524868,-25.390625,6.8359375,0.0,-70.3125,0.0
1734582121.4559603,13.671875,3.90625,0.0,13.671875,0.0
1734582121.4594338,-8.30078125,5.37109375,0.0,24.90234375,0.0
1734582121.4629073,-66.89453125,2.9296875,0.0,-53.7109375,0.0
1734582121.4663808,-81.0546875,0.0,0.0,-108.88671875,0.0
1734582121.4698544,-43.45703125,11.23046875,0.0,-60.546875,0.0
1734582121.4733279,-12.6953125,11.71875,0.0,19.53125,0.0
1734582121.4768014,-5.859375,7.8125,0.0,21.484375,0.0
1734582121.480275,-50.29296875,10.7421875,0.0,-45.8984375,0.0
1734582121.4837484,-78.125,10.7421875,0.0,-112.79296875,0.0
1734582121.487222,-49.31640625,14.6484375,0.0,-105.46875,0.0
1734582121.4921286,-8.30078125,17.578125,380.859375,-12.20703125,0.0
1734582121.4956129,-3.41796875,10.7421875,335.44921875,41.9921875,0.0
1734582121.4990973,-55.6640625,3.41796875,178.7109375,-17.08984375,0.0
1734582121.5025816,-88.37890625,-4.8828125,208.984375,-103.515625,0.0
1734582121.506066,-45.8984375,-9.27734375,316.40625,-109.86328125,0.0
1734582121.5095506,-1.953125,6.34765625,233.88671875,-23.4375,0.0
1734582121.5130348,-10.7421875,11.71875,62.5,47.36328125,0.0
1734582121.5165193,-57.12890625,9.765625,-37.109375,-0.48828125,0.0
1734582121.5200036,-84.47265625,21.484375,293.45703125,-91.30859375,0.0
1734582121.523488,-67.3828125,21.97265625,333.984375,-96.6796875,0.0
1734582121.5269723,-21.484375,16.6015625,251.46484375,-21.97265625,0.0
1734582121.5304568,11.71875,19.53125,296.38671875,25.87890625,0.0
1734582121.5355656,-26.85546875,25.390625,315.4296875,8.30078125,0.0
1734582121.5390613,-82.03125,14.6484375,190.91796875,-70.3125,0.0
1734582121.542557,-90.8203125,6.8359375,234.375,-148.92578125,0.0
1734582121.5460527,-53.22265625,23.4375,331.0546875,-84.47265625,0.0
1734582121.5495484,-47.8515625,32.71484375,306.640625,-18.06640625,0.0
1734582121.553044,-118.65234375,26.85546875,145.01953125,-72.75390625,0.0
1734582121.5565398,-194.3359375,30.2734375,-57.12890625,-166.9921875,0.0
1734582121.5600355,-207.51953125,37.109375,103.515625,-216.796875,0.0
1734582121.563531,-170.41015625,39.55078125,276.85546875,-180.17578125,0.0
1734582121.5670266,-167.48046875,41.9921875,99.12109375,-121.09375,0.0
1734582121.5705223,-224.609375,42.96875,-14.16015625,-149.4140625,0.0
1734582121.574018,-273.4375,42.48046875,187.01171875,-231.4453125,0.0
1734582121.5810373,-270.5078125,36.1328125,240.234375,-251.953125,0.0
1734582121.5845556,-242.67578125,35.64453125,167.48046875,-223.6328125,0.0
1734582121.5880737,-220.703125,34.1796875,184.5703125,-168.45703125,0.0
1734582121.591592,-228.515625,14.6484375,238.28125,-152.83203125,0.0
1734582121.5951102,-257.8125,10.25390625,224.12109375,-205.56640625,0.0
1734582121.5986285,-241.69921875,21.97265625,46.38671875,-222.65625,0.0
1734582121.6021469,-212.890625,29.296875,82.03125,-174.8046875,0.0
1734582121.605665,-180.17578125,28.80859375,252.9296875,-97.16796875,0.0
1734582121.6091833,-171.38671875,23.92578125,268.06640625,-79.58984375,0.0
1734582121.6127017,-208.49609375,23.4375,116.69921875,-149.4140625,0.0
1734582121.6162198,-184.08203125,19.04296875,93.26171875,-163.57421875,0.0
1734582121.619738,-112.3046875,20.5078125,217.28515625,-90.33203125,0.0
1734582121.6264706,-68.359375,7.32421875,212.890625,-17.08984375,0.0
1734582121.630008,-57.6171875,-1.953125,165.52734375,-0.48828125,0.0
1734582121.6335454,-73.2421875,4.8828125,187.5,-41.015625,0.0
1734582121.6370828,-76.171875,4.8828125,238.76953125,-71.77734375,0.0
1734582121.64062,-22.94921875,3.41796875,155.2734375,-32.2265625,0.0
1734582121.6441574,35.64453125,13.18359375,88.37890625,46.875,0.0
1734582121.6476948,32.2265625,6.8359375,142.578125,82.03125,0.0
1734582121.6512322,-2.44140625,-5.37109375,186.03515625,34.1796875,0.0
1734582121.6547697,-1.46484375,9.27734375,46.38671875,-2.9296875,0.0
1734582121.658307,34.1796875,16.11328125,40.0390625,28.3203125,0.0
1734582121.6618445,73.73046875,14.16015625,290.0390625,91.796875,0.0
1734582121.6653817,104.00390625,17.578125,408.203125,137.20703125,0.0
1734582121.6719303,70.80078125,6.8359375,213.8671875,111.328125,0.0
1734582121.6754844,31.25,1.46484375,139.6484375,44.921875,0.0
1734582121.6790385,67.87109375,13.18359375,332.03125,44.921875,0.0
1734582121.6825926,109.86328125,13.671875,326.171875,106.93359375,0.0
1734582121.6861467,117.1875,6.34765625,260.25390625,155.2734375,0.0
1734582121.6897008,84.47265625,5.859375,172.36328125,129.8828125,0.0
1734582121.693255,37.109375,0.48828125,114.2578125,38.0859375,0.0
1734582121.696809,43.9453125,1.46484375,225.5859375,13.18359375,0.0
1734582121.7003632,85.9375,7.32421875,99.12109375,109.375,0.0
1734582121.7039173,99.609375,-6.8359375,27.83203125,176.26953125,0.0
1734582121.7074714,65.4296875,-8.7890625,334.9609375,128.41796875,0.0
1734582121.7110255,10.25390625,1.953125,229.00390625,40.0390625,0.0
1734582121.7174096,17.578125,4.8828125,261.71875,9.27734375,0.0
1734582121.7209785,68.359375,9.765625,350.09765625,70.80078125,0.0
1734582121.7245474,93.75,13.671875,362.3046875,125.9765625,0.0
1734582121.728116,68.84765625,15.625,237.79296875,109.375,0.0
1734582121.731685,24.4140625,14.16015625,144.53125,31.73828125,0.0
1734582121.7352538,29.296875,9.765625,178.7109375,-2.9296875,0.0
1734582121.7388227,70.3125,11.71875,169.43359375,61.5234375,0.0
1734582121.7423916,77.63671875,7.8125,118.1640625,125.0,0.0
1734582121.7459605,39.55078125,-2.44140625,124.51171875,120.1171875,0.0
1734582121.7495291,14.6484375,3.90625,267.578125,47.8515625,0.0
1734582121.753098,24.90234375,9.27734375,287.59765625,-14.6484375,0.0
1734582121.756667,49.8046875,7.8125,210.9375,32.2265625,0.0
1734582121.7629197,82.51953125,8.7890625,231.4453125,113.28125,0.0
1734582121.7665017,63.4765625,9.27734375,336.9140625,110.83984375,0.0
1734582121.7700837,16.6015625,7.8125,288.57421875,39.0625,0.0
1734582121.7736657,0.0,4.8828125,140.625,-25.87890625,0.0
1734582121.7772477,34.66796875,8.7890625,229.98046875,12.6953125,0.0
1734582121.7808297,66.40625,8.7890625,256.8359375,86.42578125,0.0
1734582121.7844117,52.734375,4.39453125,177.734375,86.42578125,0.0
1734582121.7879937,8.30078125,-1.46484375,-11.71875,29.296875,0.0
1734582121.7915757,-22.4609375,-0.48828125,-57.12890625,-28.80859375,0.0
1734582121.7951577,17.578125,10.7421875,274.4140625,-4.39453125,0.0
1734582121.7987397,56.640625,7.8125,292.96875,80.56640625,0.0
1734582121.8023217,44.921875,3.90625,287.59765625,79.58984375,0.0
1734582121.8084264,6.34765625,11.23046875,285.64453125,17.08984375,0.0
1734582121.81202,-14.16015625,19.53125,254.8828125,-62.5,0.0
1734582121.8156137,5.859375,12.6953125,152.83203125,-61.5234375,0.0
1734582121.8192074,31.25,4.39453125,187.98828125,22.4609375,0.0
1734582121.822801,35.15625,7.8125,290.52734375,58.59375,0.0
1734582121.8263948,-2.9296875,2.9296875,193.84765625,24.90234375,0.0
1734582121.8299885,-35.15625,-1.46484375,64.453125,-47.8515625,0.0
1734582121.8335822,-15.13671875,-0.9765625,21.484375,-69.82421875,0.0
1734582121.8371758,24.4140625,8.7890625,187.01171875,-7.8125,0.0
1734582121.8407695,37.109375,20.01953125,325.68359375,49.31640625,0.0
1734582121.8443632,5.37109375,19.04296875,180.17578125,20.5078125,0.0
1734582121.847957,-34.66796875,16.11328125,146.484375,-48.828125,0.0
1734582121.8538806,-25.87890625,12.6953125,288.0859375,-62.5,0.0
1734582121.8574843,18.5546875,12.6953125,270.01953125,10.25390625,0.0
1734582121.8610883,33.69140625,13.671875,156.25,68.84765625,0.0
1734582121.8646922,7.8125,18.5546875,175.78125,26.85546875,0.0
1734582121.8682961,-20.99609375,26.85546875,270.01953125,-45.8984375,0.0
1734582121.8719,-11.23046875,23.92578125,178.7109375,-67.87109375,0.0
1734582121.875504,19.04296875,16.11328125,51.26953125,9.765625,0.0
1734582121.879108,28.3203125,13.671875,69.82421875,76.66015625,0.0
1734582121.882712,5.859375,15.13671875,333.49609375,26.85546875,0.0
1734582121.8863156,-32.71484375,16.11328125,282.71484375,-51.26953125,0.0
1734582121.8899195,-35.64453125,12.20703125,177.24609375,-74.21875,0.0
1734582121.8935235,3.90625,8.30078125,187.01171875,-20.01953125,0.0
1734582121.8994029,26.85546875,14.16015625,263.18359375,63.96484375,0.0
1734582121.9030163,-1.46484375,9.27734375,217.28515625,57.6171875,0.0
1734582121.9066296,-34.66796875,5.37109375,214.84375,-43.45703125,0.0
1734582121.910243,-36.62109375,6.34765625,234.375,-85.9375,0.0
1734582121.9138565,6.8359375,0.9765625,157.2265625,-34.1796875,0.0
1734582121.9174697,34.66796875,7.32421875,124.51171875,48.828125,0.0
1734582121.9210832,1.46484375,10.25390625,151.3671875,53.22265625,0.0
1734582121.9246967,-49.31640625,5.37109375,141.11328125,-30.2734375,0.0
1734582121.92831,-49.8046875,8.7890625,240.72265625,-94.23828125,0.0
1734582121.9319234,-11.71875,12.20703125,91.30859375,-47.36328125,0.0
1734582121.9355369,9.765625,7.8125,63.96484375,38.0859375,0.0
1734582121.93915,-1.46484375,3.90625,282.71484375,48.33984375,0.0
1734582121.946161,-37.109375,0.48828125,202.63671875,-36.1328125,0.0
1734582121.9497879,-52.734375,-1.953125,201.66015625,-104.00390625,0.0
1734582121.9534147,-26.85546875,-1.46484375,156.25,-64.453125,0.0
1734582121.9570417,6.34765625,4.39453125,292.96875,0.0,0.0
1734582121.9606686,7.8125,11.23046875,354.98046875,23.4375,0.0
1734582121.9642954,-36.1328125,11.23046875,138.18359375,-33.203125,0.0
1734582121.9679222,-50.78125,13.671875,94.7265625,-92.28515625,0.0
1734582121.971549,-9.765625,17.08984375,219.7265625,-58.59375,0.0
1734582121.975176,10.25390625,16.11328125,176.26953125,22.94921875,0.0
1734582121.978803,7.32421875,13.671875,60.05859375,67.3828125,0.0
1734582121.9824297,-15.625,17.08984375,204.1015625,9.27734375,0.0
1734582121.9860566,-42.96875,20.01953125,242.1875,-88.37890625,0.0
1734582121.9928193,-21.484375,12.6953125,115.234375,-80.078125,0.0
1734582121.996458,19.04296875,4.39453125,231.4453125,-7.8125,0.0
1734582122.0000968,24.4140625,-0.9765625,312.98828125,60.546875,0.0
1734582122.0037355,-22.94921875,9.765625,278.3203125,20.5078125,0.0
1734582122.0073743,-54.6875,21.484375,152.83203125,-93.26171875,0.0
1734582122.011013,-30.76171875,16.11328125,56.15234375,-104.00390625,0.0
1734582122.0146518,5.37109375,11.71875,104.98046875,-24.4140625,0.0
1734582122.0182905,15.13671875,16.11328125,200.68359375,42.96875,0.0
1734582122.0219293,-20.5078125,14.16015625,92.7734375,6.34765625,0.0
1734582122.025568,-49.8046875,3.41796875,-54.19921875,-75.68359375,0.0
1734582122.0292068,-31.25,4.8828125,104.4921875,-89.84375,0.0
1734582122.0328455,16.6015625,14.6484375,169.43359375,-33.69140625,0.0
1734582122.039351,25.87890625,12.6953125,106.4453125,32.2265625,0.0
1734582122.0430002,-13.671875,5.37109375,119.140625,4.39453125,0.0
1734582122.0466492,-43.9453125,7.8125,250.9765625,-85.44921875,0.0
1734582122.0502985,-44.921875,10.25390625,182.12890625,-99.12109375,0.0
1734582122.0539477,4.39453125,0.9765625,123.53515625,-22.4609375,0.0
1734582122.0575967,45.41015625,8.30078125,135.7421875,63.96484375,0.0
1734582122.061246,5.37109375,20.5078125,176.7578125,25.87890625,0.0
1734582122.064895,-49.31640625,10.7421875,252.9296875,-75.68359375,0.0
1734582122.0685441,-39.0625,3.90625,7.32421875,-90.8203125,0.0
1734582122.0721931,7.8125,6.34765625,-24.90234375,-28.80859375,0.0
1734582122.0758424,40.52734375,8.30078125,386.23046875,38.0859375,0.0
1734582122.0794916,20.99609375,0.9765625,293.45703125,44.921875,0.0
1734582122.0857482,-28.3203125,-2.9296875,217.28515625,-35.15625,0.0
1734582122.0894065,-31.25,2.9296875,231.4453125,-107.91015625,0.0
1734582122.0930645,18.06640625,15.625,178.22265625,-47.8515625,0.0
1734582122.0967228,43.45703125,18.5546875,115.234375,20.5078125,0.0
1734582122.1003811,31.25,19.04296875,204.1015625,16.11328125,0.0
1734582122.1040392,-11.71875,18.06640625,214.84375,-46.875,0.0
1734582122.1076975,-39.0625,8.7890625,128.90625,-94.7265625,0.0
1734582122.1113555,2.9296875,8.30078125,63.96484375,-44.43359375,0.0
1734582122.1150138,41.50390625,9.27734375,70.3125,45.8984375,0.0
1734582122.118672,30.76171875,8.7890625,216.30859375,54.19921875,0.0
1734582122.1223302,-7.8125,13.18359375,279.78515625,-33.203125,0.0
1734582122.1259882,-32.71484375,7.32421875,153.80859375,-91.796875,0.0
1734582122.1321316,-7.32421875,-1.46484375,107.421875,-50.29296875,0.0
1734582122.135798,37.59765625,-0.9765625,267.578125,27.83203125,0.0
1734582122.1394646,30.76171875,5.37109375,308.10546875,40.52734375,0.0
1734582122.143131,-19.04296875,6.34765625,195.80078125,-20.5078125,0.0
1734582122.1467974,-37.109375,4.8828125,111.81640625,-75.1953125,0.0
1734582122.150464,-11.23046875,1.46484375,123.53515625,-56.640625,0.0
1734582122.1541305,23.92578125,1.46484375,192.3828125,4.39453125,0.0
1734582122.1577969,18.5546875,-5.37109375,4.39453125,54.19921875,0.0
1734582122.1614633,-21.97265625,-10.7421875,-87.890625,5.859375,0.0
1734582122.16513,-43.45703125,-3.90625,218.75,-87.890625,0.0
1734582122.1687963,-22.94921875,-7.8125,163.57421875,-73.2421875,0.0
1734582122.1724627,22.94921875,-11.23046875,229.4921875,7.32421875,0.0
1734582122.178422,35.64453125,-6.8359375,297.36328125,44.921875,0.0
1734582122.1820958,-2.44140625,-5.859375,225.09765625,0.9765625,0.0
1734582122.1857696,-35.15625,-6.8359375,148.92578125,-66.89453125,0.0
1734582122.1894433,-19.53125,-14.16015625,177.734375,-75.1953125,0.0
1734582122.1931171,30.2734375,-5.859375,244.62890625,-11.23046875,0.0
1734582122.196791,46.875,8.7890625,193.84765625,56.640625,0.0
1734582122.2004647,7.8125,8.30078125,100.09765625,42.48046875,0.0
1734582122.2041385,-37.109375,7.8125,17.08984375,-33.69140625,0.0
1734582122.2078123,-30.76171875,4.8828125,104.98046875,-84.9609375,0.0
1734582122.2114863,17.578125,3.41796875,266.6015625,-28.3203125,0.0
1734582122.2151601,29.296875,0.9765625,111.81640625,47.8515625,0.0
1734582122.218834,-6.34765625,-6.8359375,23.92578125,17.578125,0.0
1734582122.2245803,-38.0859375,-5.37109375,227.5390625,-76.171875,0.0
1734582122.2282605,-41.50390625,3.41796875,233.88671875,-99.609375,0.0
1734582122.2319407,-10.7421875,4.39453125,150.87890625,-45.41015625,0.0
1734582122.235621,17.578125,6.34765625,127.44140625,27.83203125,0.0
1734582122.2393012,5.859375,14.16015625,234.86328125,27.34375,0.0
1734582122.2429814,-30.76171875,9.765625,183.59375,-60.546875,0.0
1734582122.2466617,-38.0859375,8.30078125,-35.15625,-83.984375,0.0
1734582122.250342,-11.71875,7.32421875,-90.8203125,-26.85546875,0.0
1734582122.2540221,8.30078125,1.46484375,257.8125,8.7890625,0.0
1734582122.2577024,-3.41796875,0.9765625,230.95703125,20.5078125,0.0
1734582122.2613826,-41.9921875,4.39453125,236.328125,-52.734375,0.0
1734582122.2650628,-43.9453125,6.34765625,203.61328125,-118.1640625,0.0
1734582122.27067,-4.39453125,9.765625,129.8828125,-57.12890625,0.0
1734582122.274356,23.92578125,10.25390625,187.5,26.85546875,0.0
1734582122.2780418,9.27734375,17.08984375,196.2890625,49.8046875,0.0
1734582122.2817278,-31.25,17.08984375,210.44921875,-34.66796875,0.0
1734582122.2854137,-56.640625,5.37109375,183.10546875,-114.2578125,0.0
1734582122.2890997,-16.6015625,1.46484375,109.86328125,-90.33203125,0.0
1734582122.2927856,12.6953125,-0.48828125,-5.37109375,-4.39453125,0.0
1734582122.2964716,-5.37109375,6.8359375,127.9296875,23.4375,0.0
1734582122.3001575,-40.0390625,12.6953125,284.66796875,-42.96875,0.0
1734582122.3038435,-50.78125,7.8125,106.4453125,-98.14453125,0.0
1734582122.3075294,-9.765625,9.27734375,22.4609375,-65.4296875,0.0
1734582122.3112154,11.23046875,11.71875,239.2578125,13.671875,0.0
1734582122.3180568,12.6953125,13.18359375,334.9609375,40.52734375,0.0
1734582122.3217518,-17.578125,5.37109375,226.5625,-26.85546875,0.0
1734582122.3254468,-50.29296875,1.46484375,89.35546875,-106.93359375,0.0
1734582122.3291419,-25.87890625,7.8125,137.20703125,-95.21484375,0.0
1734582122.332837,12.20703125,10.7421875,190.4296875,-11.71875,0.0
1734582122.336532,19.04296875,14.16015625,98.6328125,47.8515625,0.0
1734582122.3402271,-13.18359375,21.97265625,146.484375,-3.90625,0.0
1734582122.3439221,-40.52734375,24.4140625,260.7421875,-79.58984375,0.0
1734582122.3476171,-13.671875,15.13671875,196.2890625,-86.42578125,0.0
1734582122.3513122,21.97265625,12.6953125,110.83984375,-10.7421875,0.0
1734582122.3550072,22.4609375,16.11328125,228.515625,41.9921875,0.0
1734582122.3587022,-6.8359375,15.13671875,308.10546875,-3.90625,0.0
1734582122.3650138,-35.15625,13.671875,134.765625,-84.47265625,0.0
1734582122.368716,-27.34375,12.6953125,190.4296875,-102.5390625,0.0
1734582122.3724184,2.9296875,18.5546875,289.0625,-38.0859375,0.0
1734582122.3761206,6.34765625,19.04296875,293.45703125,34.66796875,0.0
1734582122.379823,-26.85546875,13.18359375,171.875,8.30078125,0.0
1734582122.3835251,-50.29296875,8.30078125,75.68359375,-74.70703125,0.0
1734582122.3872275,-41.015625,2.44140625,101.07421875,-95.703125,0.0
1734582122.3909297,-19.53125,1.46484375,166.9921875,-42.48046875,0.0
1734582122.394632,-1.46484375,4.8828125,80.56640625,34.1796875,0.0
1734582122.3983343,-16.6015625,6.34765625,-22.94921875,32.2265625,0.0
1734582122.4020367,-43.45703125,8.7890625,172.36328125,-72.75390625,0.0
1734582122.4057388,-45.8984375,12.20703125,247.55859375,-101.5625,0.0
1734582122.411891,-7.32421875,9.27734375,164.0625,-28.80859375,0.0
1734582122.4155998,27.34375,6.8359375,156.73828125,19.04296875,0.0
1734582122.4193087,9.765625,11.71875,266.6015625,20.99609375,0.0
1734582122.4230175,-33.203125,13.18359375,190.91796875,-50.29296875,0.0
1734582122.4267266,-48.33984375,8.7890625,93.75,-92.28515625,0.0
1734582122.4304354,-13.18359375,-0.9765625,109.375,-54.19921875,0.0
1734582122.4341443,10.25390625,-3.41796875,195.80078125,16.6015625,0.0
1734582122.437853,-8.30078125,4.8828125,310.05859375,20.99609375,0.0
1734582122.441562,-41.015625,-0.9765625,33.69140625,-44.43359375,0.0
1734582122.4452708,-57.6171875,-3.41796875,-104.00390625,-80.078125,0.0
1734582122.4489796,-13.671875,8.7890625,189.94140625,-49.8046875,0.0
1734582122.4526887,29.296875,14.6484375,207.51953125,20.5078125,0.0
1734582122.4586353,20.99609375,15.13671875,231.4453125,30.76171875,0.0
1734582122.46235,-25.390625,10.7421875,244.62890625,-44.43359375,0.0
1734582122.4660647,-36.62109375,9.765625,241.2109375,-97.16796875,0.0
1734582122.4697793,3.90625,16.6015625,183.59375,-48.33984375,0.0
1734582122.473494,28.3203125,15.625,165.0390625,1.953125,0.0
1734582122.4772089,11.23046875,15.13671875,191.40625,17.578125,0.0
1734582122.4809234,-26.3671875,16.6015625,160.15625,-26.85546875,0.0
1734582122.4846382,-54.19921875,9.765625,72.265625,-99.609375,0.0
1734582122.4883528,-38.57421875,-3.90625,40.0390625,-91.30859375,0.0
1734582122.4920676,3.41796875,-1.953125,249.51171875,-19.53125,0.0
1734582122.4957821,12.6953125,8.30078125,359.375,20.01953125,0.0
1734582122.499497,-23.4375,4.8828125,193.359375,-25.390625,0.0
1734582122.505342,-50.29296875,6.34765625,61.03515625,-92.28515625,0.0
1734582122.5090623,-31.73828125,12.20703125,189.453125,-81.54296875,0.0
1734582122.5127823,0.9765625,11.23046875,298.828125,-10.7421875,0.0
1734582122.5165024,15.625,3.41796875,211.9140625,35.15625,0.0
1734582122.5202224,-15.625,-0.9765625,124.0234375,2.9296875,0.0
1734582122.5239425,-41.50390625,4.8828125,116.69921875,-75.68359375,0.0
1734582122.5276625,-27.83203125,11.71875,183.59375,-98.14453125,0.0
1734582122.5313828,-2.44140625,16.11328125,39.0625,-12.6953125,0.0
1734582122.5351028,12.20703125,19.04296875,10.7421875,51.26953125,0.0
1734582122.538823,-16.6015625,23.92578125,305.17578125,-9.765625,0.0
1734582122.542543,-48.33984375,19.53125,202.1484375,-77.1484375,0.0
1734582122.546263,-42.96875,9.765625,154.78515625,-92.28515625,0.0
1734582122.5520203,0.0,2.44140625,0.0,0.0,0.0
1734582122.5557456,0.0,5.859375,0.0,0.0,0.0
1734582122.5594707,0.0,18.5546875,0.0,0.0,0.0
1734582122.5631957,0.0,17.578125,0.0,0.0,0.0
1734582122.5669208,0.0,13.18359375,0.0,0.0,0.0
1734582122.5706458,0.0,15.625,0.0,0.0,0.0
1734582122.5743709,0.0,11.71875,0.0,0.0,0.0
1734582122.578096,0.0,14.16015625,0.0,0.0,0.0
1734582122.581821,0.0,14.6484375,0.0,0.0,0.0
1734582122.585546,0.0,13.671875,0.0,0.0,0.0
1734582122.589271,0.0,12.20703125,0.0,0.0,0.0
1734582122.5929961,0.0,4.39453125,0.0,0.0,0.0
1734582122.5958304,-7.32421875,6.8359375,291.015625,-105.46875,0.0
1734582122.5995533,35.64453125,9.765625,207.03125,-189.94140625,0.0
1734582122.6032763,11.71875,13.671875,136.23046875,-214.84375,0.0
1734582122.6069994,-65.4296875,13.18359375,139.16015625,-174.8046875,0.0
1734582122.6107223,-63.96484375,11.71875,264.16015625,-83.984375,0.0
1734582122.6144452,-26.3671875,5.37109375,219.7265625,-70.80078125,0.0
1734582122.618168,-31.25,-10.25390625,27.83203125,-122.55859375,0.0
1734582122.621891,-69.82421875,0.9765625,-20.01953125,-137.6953125,0.0
1734582122.6256142,-112.3046875,17.578125,175.29296875,-127.9296875,0.0
1734582122.629337,-122.55859375,14.16015625,165.0390625,-70.80078125,0.0
1734582122.63306,-102.05078125,10.25390625,186.5234375,-35.15625,0.0
1734582122.636783,-76.66015625,8.7890625,204.58984375,-96.6796875,0.0
1734582122.64235,-84.9609375,9.765625,160.64453125,-157.2265625,0.0
1734582122.6460772,-44.921875,2.44140625,135.7421875,-131.8359375,0.0
1734582122.6498044,-10.25390625,4.8828125,205.56640625,-41.015625,0.0
1734582122.6535316,-10.7421875,7.32421875,255.859375,-0.9765625,0.0
1734582122.6572587,-50.78125,1.953125,159.66796875,-54.19921875,0.0
1734582122.660986,-72.265625,-3.41796875,95.703125,-114.2578125,0.0
1734582122.6647131,-52.734375,-10.7421875,54.6875,-92.7734375,0.0
1734582122.6684403,-16.6015625,-5.37109375,116.2109375,-29.296875,0.0
1734582122.6721675,-4.39453125,2.44140625,250.0,-3.41796875,0.0
1734582122.675895,-38.57421875,-5.37109375,102.05078125,-38.57421875,0.0
1734582122.6796222,-68.359375,-1.953125,33.203125,-103.515625,0.0
1734582122.6833494,-38.0859375,10.25390625,219.7265625,-122.0703125,0.0
1734582122.6887832,11.23046875,7.8125,264.16015625,-42.96875,0.0
1734582122.6925142,20.99609375,4.8828125,190.4296875,29.78515625,0.0
1734582122.6962452,-19.53125,9.27734375,121.58203125,-7.8125,0.0
1734582122.6999762,-45.41015625,15.13671875,188.96484375,-94.7265625,0.0
1734582122.7037075,-26.3671875,18.06640625,167.96875,-104.4921875,0.0
1734582122.7074385,0.48828125,9.765625,63.4765625,-21.97265625,0.0
1734582122.7111695,4.39453125,2.9296875,116.2109375,27.34375,0.0
1734582122.7149005,-23.4375,8.30078125,270.01953125,-11.23046875,0.0
1734582122.7186315,-51.26953125,9.27734375,157.2265625,-90.33203125,0.0
1734582122.7223628,-49.31640625,6.8359375,16.6015625,-111.81640625,0.0
1734582122.7260938,-15.13671875,6.8359375,111.328125,-47.8515625,0.0
1734582122.7298248,1.953125,5.859375,190.91796875,18.06640625,0.0
1734582122.735965,-20.99609375,5.859375,171.875,-3.41796875,0.0
1734582122.7397015,-63.96484375,0.9765625,242.1875,-96.19140625,0.0
1734582122.7434378,-56.640625,5.37109375,192.3828125,-127.44140625,0.0
1734582122.747174,-9.765625,12.20703125,206.0546875,-57.6171875,0.0
1734582122.7509105,3.41796875,7.32421875,189.94140625,11.71875,0.0
1734582122.7546468,-25.87890625,3.41796875,112.79296875,15.13671875,0.0
1734582122.758383,-64.453125,-1.953125,105.95703125,-64.94140625,0.0
1734582122.7621195,-65.4296875,3.41796875,140.625,-116.69921875,0.0
1734582122.7658558,-24.90234375,9.765625,87.890625,-60.546875,0.0
1734582122.7695923,-0.48828125,4.39453125,106.4453125,11.23046875,0.0
1734582122.7733285,-14.16015625,7.32421875,233.88671875,8.30078125,0.0
1734582122.7770648,-53.22265625,9.765625,162.59765625,-63.4765625,0.0
1734582122.783064,-59.5703125,2.44140625,212.40234375,-100.5859375,0.0
1734582122.7868052,-25.87890625,0.9765625,193.359375,-62.01171875,0.0
1734582122.7905462,1.953125,7.8125,198.73046875,0.0,0.0
1734582122.7942874,7.8125,19.53125,186.5234375,41.50390625,0.0
1734582122.7980287,-41.9921875,4.8828125,67.87109375,-27.34375,0.0
1734582122.8017697,-73.73046875,-10.7421875,36.62109375,-105.46875,0.0
1734582122.805511,-31.25,0.9765625,93.26171875,-81.0546875,0.0
1734582122.8092523,2.44140625,11.23046875,285.15625,3.90625,0.0
1734582122.8129933,-8.30078125,-0.48828125,51.7578125,40.0390625,0.0
1734582122.8167346,-55.17578125,-11.23046875,-156.25,-39.55078125,0.0
1734582122.8204758,-74.21875,-6.34765625,154.78515625,-114.74609375,0.0
1734582122.8242168,-33.203125,-12.20703125,151.85546875,-84.9609375,0.0
1734582122.8300822,0.48828125,-12.6953125,185.546875,6.8359375,0.0
1734582122.8338277,-1.46484375,1.46484375,191.40625,55.6640625,0.0
1734582122.8375733,-40.52734375,6.34765625,127.44140625,-9.27734375,0.0
1734582122.841319,-75.68359375,-1.46484375,93.75,-82.03125,0.0
1734582122.8450646,-43.9453125,-10.25390625,59.5703125,-83.49609375,0.0
1734582122.8488102,3.41796875,-10.25390625,96.6796875,-8.7890625,0.0
1734582122.8525558,5.37109375,-2.9296875,156.25,49.8046875,0.0
1734582122.8563013,-33.203125,0.48828125,40.52734375,-1.953125,0.0
1734582122.860047,-57.12890625,-1.953125,-30.2734375,-88.8671875,0.0
1734582122.8637927,-35.64453125,-2.44140625,120.60546875,-94.7265625,0.0
1734582122.8675382,2.44140625,-8.7890625,246.58203125,-21.97265625,0.0
1734582122.8712838,9.765625,-14.6484375,87.40234375,43.45703125,0.0
1734582122.8769941,-32.71484375,-9.765625,-18.06640625,23.92578125,0.0
1734582122.8807437,-60.546875,-5.859375,178.7109375,-46.875,0.0
1734582122.8844934,-39.55078125,-3.90625,164.55078125,-79.1015625,0.0
1734582122.888243,-1.953125,-0.48828125,116.69921875,-43.9453125,0.0
1734582122.8919926,5.859375,-0.9765625,119.140625,23.4375,0.0
1734582122.8957422,-21.484375,-2.9296875,77.63671875,11.23046875,0.0
1734582122.8994918,-66.89453125,-7.32421875,110.3515625,-77.1484375,0.0
1734582122.9032414,-63.96484375,-11.23046875,-47.36328125,-102.05078125,0.0
1734582122.906991,-32.2265625,-9.27734375,-138.18359375,-33.69140625,0.0
1734582122.9107406,-5.37109375,0.0,239.74609375,25.87890625,0.0
1734582122.9144902,-25.87890625,-3.41796875,183.10546875,9.765625,0.0
1734582122.9182398,-80.56640625,-8.7890625,130.37109375,-73.73046875,0.0
1734582122.9237485,-68.84765625,-6.8359375,158.203125,-125.0,0.0
1734582122.9275017,-24.90234375,-4.8828125,147.4609375,-70.80078125,0.0
1734582122.9312546,4.39453125,-0.9765625,168.9453125,6.8359375,0.0
1734582122.9350078,-19.04296875,-0.9765625,185.546875,17.578125,0.0
1734582122.938761,-65.91796875,0.9765625,121.58203125,-63.96484375,0.0
1734582122.942514,-62.98828125,4.8828125,33.69140625,-117.1875,0.0
1734582122.9462671,-22.94921875,4.39453125,77.63671875,-78.125,0.0
1734582122.95002,0.0,4.39453125,52.24609375,-5.37109375,0.0
1734582122.9537733,-19.53125,8.7890625,157.2265625,9.27734375,0.0
1734582122.9575264,-52.734375,12.6953125,211.42578125,-57.12890625,0.0
1734582122.9612794,-64.94140625,7.8125,24.90234375,-98.6328125,0.0
1734582122.9650326,-30.2734375,5.37109375,42.48046875,-61.03515625,0.0
1734582122.9704378,6.8359375,12.6953125,206.54296875,9.765625,0.0
1734582122.974194,-1.953125,13.671875,136.71875,30.2734375,0.0
1734582122.9779503,-44.921875,7.8125,73.2421875,-19.53125,0.0
1734582122.9817066,-66.40625,-0.48828125,106.4453125,-89.35546875,0.0
1734582122.985463,-36.1328125,-1.46484375,112.3046875,-93.75,0.0
1734582122.9892194,-7.32421875,0.0,115.72265625,-8.7890625,0.0
1734582122.9929757,-21.97265625,0.0,7.32421875,38.57421875,0.0
1734582122.996732,-61.5234375,0.48828125,-101.07421875,-28.3203125,0.0
1734582123.0004883,-76.66015625,0.0,106.4453125,-113.76953125,0.0
1734582123.0042446,-57.6171875,-0.48828125,135.7421875,-97.16796875,0.0
1734582123.0080009,-23.92578125,0.0,149.90234375,-10.7421875,0.0
1734582123.0117571,-21.97265625,6.34765625,157.71484375,24.90234375,0.0
1734582123.0170567,-59.5703125,13.18359375,116.2109375,-20.5078125,0.0
1734582123.0208158,-79.58984375,10.25390625,100.09765625,-92.7734375,0.0
1734582123.0245752,-58.10546875,0.48828125,126.953125,-83.984375,0.0
1734582123.0283344,-25.87890625,-1.953125,166.50390625,-18.5546875,0.0
1734582123.0320935,-12.6953125,2.9296875,168.45703125,10.7421875,0.0
1734582123.0358527,-48.33984375,-1.46484375,73.2421875,-10.25390625,0.0
1734582123.039612,-83.984375,-5.859375,83.0078125,-80.078125,0.0
1734582123.0433712,-63.4765625,-2.44140625,56.640625,-87.40234375,0.0
1734582123.0471303,-22.94921875,2.44140625,122.0703125,-21.97265625,0.0
1734582123.0508897,-5.859375,7.8125,50.29296875,37.59765625,0.0
1734582123.0546489,-38.57421875,7.8125,-75.68359375,27.83203125,0.0
1734582123.058408,-75.1953125,-0.9765625,114.2578125,-73.73046875,0.0
1734582123.063559,-57.12890625,1.46484375,163.0859375,-102.5390625,0.0
1734582123.0673208,-12.6953125,2.44140625,99.609375,-25.390625,0.0
1734582123.0710826,3.41796875,-1.953125,68.84765625,43.9453125,0.0
1734582123.0748444,-29.78515625,4.8828125,169.43359375,22.94921875,0.0
1734582123.0786061,-72.75390625,9.27734375,144.53125,-56.640625,0.0
1734582123.082368,-67.87109375,8.30078125,42.48046875,-78.61328125,0.0
1734582123.0861297,-20.99609375,9.765625,47.8515625,-28.3203125,0.0
1734582123.0898914,4.8828125,15.625,165.0390625,34.66796875,0.0
1734582123.0936534,-33.69140625,9.765625,123.046875,22.4609375,0.0
1734582123.0974152,-75.1953125,4.39453125,19.53125,-45.8984375,0.0
1734582123.101177,-71.2890625,13.671875,80.56640625,-86.42578125,0.0
1734582123.1049387,-36.62109375,12.20703125,189.94140625,-53.22265625,0.0
1734582123.1107872,-6.8359375,6.8359375,172.8515625,28.80859375,0.0
1734582123.1145527,-22.94921875,6.8359375,173.828125,44.921875,0.0
1734582123.1183183,-68.359375,3.41796875,184.5703125,-34.66796875,0.0
1734582123.122084,-64.94140625,6.34765625,161.1328125,-92.7734375,0.0
1734582123.1258495,-20.5078125,8.7890625,85.9375,-47.36328125,0.0
1734582123.129615,-6.8359375,3.90625,160.15625,20.99609375,0.0
1734582123.1333807,-19.53125,-0.9765625,159.1796875,38.0859375,0.0
1734582123.1371462,-66.40625,0.48828125,123.53515625,-29.78515625,0.0
1734582123.1409118,-87.890625,0.0,51.7578125,-95.703125,0.0
1734582123.1446774,-51.7578125,-1.46484375,89.84375,-57.12890625,0.0
1734582123.148443,-10.7421875,1.46484375,201.171875,15.13671875,0.0
1734582123.1522086,-7.32421875,0.48828125,152.83203125,32.71484375,0.0
1734582123.157918,-52.734375,-2.44140625,197.265625,-16.6015625,0.0
1734582123.1616871,-76.171875,-3.41796875,137.20703125,-82.03125,0.0
1734582123.165456,-45.41015625,-2.9296875,145.5078125,-84.47265625,0.0
1734582123.169225,-18.5546875,-3.90625,219.23828125,-10.7421875,0.0
1734582123.1729941,-18.06640625,-4.8828125,145.01953125,29.296875,0.0
1734582123.176763,-52.734375,-8.30078125,75.1953125,-24.4140625,0.0
1734582123.1805322,-87.890625,-9.765625,102.05078125,-95.703125,0.0
1734582123.1843011,-53.22265625,-3.41796875,201.66015625,-91.796875,0.0
1734582123.1880703,-8.7890625,-8.7890625,5.859375,-12.6953125,0.0
1734582123.1918392,-16.6015625,-15.625,-97.16796875,39.55078125,0.0
1734582123.1956081,-50.78125,-2.9296875,205.078125,-18.5546875,0.0
1734582123.1993773,-73.73046875,6.34765625,152.83203125,-79.58984375,0.0
1734582123.2049525,-43.9453125,10.25390625,113.28125,-74.21875,0.0
1734582123.2087247,1.46484375,10.25390625,218.26171875,-23.92578125,0.0
1734582123.2124968,4.8828125,11.71875,248.53515625,20.01953125,0.0
1734582123.216269,-32.2265625,17.578125,157.2265625,4.39453125,0.0
1734582123.2200413,-61.03515625,18.06640625,85.44921875,-73.73046875,0.0
1734582123.2238133,-45.41015625,14.6484375,137.6953125,-100.09765625,0.0
1734582123.2275856,-7.32421875,17.08984375,192.87109375,-27.83203125,0.0
1734582123.2313576,2.9296875,18.06640625,129.39453125,34.66796875,0.0
1734582123.2351298,-41.50390625,16.6015625,56.15234375,21.484375,0.0
1734582123.2389019,-70.3125,20.5078125,134.27734375,-64.453125,0.0
1734582123.242674,-54.19921875,18.5546875,199.70703125,-99.12109375,0.0
1734582123.2464464,-22.94921875,11.23046875,104.00390625,-34.1796875,0.0
1734582123.2518716,-7.8125,6.34765625,154.78515625,27.34375,0.0
1734582123.2556465,-32.71484375,10.25390625,237.79296875,12.20703125,0.0
1734582123.2594213,-75.68359375,10.7421875,166.50390625,-80.078125,0.0
1734582123.2631965,-74.21875,-0.9765625,102.05078125,-116.69921875,0.0
1734582123.2669713,-18.06640625,-2.9296875,91.796875,-39.55078125,0.0
1734582123.2707462,-0.48828125,13.18359375,125.48828125,19.53125,0.0
1734582123.2745214,-55.17578125,11.71875,158.203125,-9.27734375,0.0
1734582123.2782962,-89.35546875,9.27734375,-1.46484375,-62.01171875,0.0
1734582123.2820714,-76.171875,13.18359375,-118.65234375,-93.26171875,0.0
1734582123.2858462,-37.109375,5.859375,165.0390625,-72.75390625,0.0
1734582123.289621,-5.859375,4.39453125,178.7109375,-2.9296875,0.0
1734582123.2933962,-24.4140625,0.9765625,161.1328125,22.4609375,0.0
1734582123.298731,0.0,-2.9296875,166.9921875,-47.36328125,0.0
1734582123.3025088,0.0,6.34765625,144.04296875,-103.02734375,0.0
1734582123.3062863,0.0,6.8359375,132.8125,-65.91796875,0.0
1734582123.3100638,0.0,0.0,217.28515625,-1.46484375,0.0
1734582123.3138413,0.0,-1.46484375,203.125,28.80859375,0.0
1734582123.317619,0.0,-8.7890625,100.09765625,-27.83203125,0.0
1734582123.3213966,0.0,-11.23046875,55.6640625,-102.5390625,0.0
1734582123.325174,0.0,-10.25390625,1.46484375,-69.3359375,0.0
1734582123.3289516,0.0,-10.25390625,106.4453125,-7.32421875,0.0
1734582123.3327293,0.0,-11.71875,265.625,9.765625,0.0
1734582123.3365068,0.0,-10.25390625,139.16015625,-26.85546875,0.0
1734582123.3402843,0.0,-1.46484375,20.01953125,-81.0546875,0.0
1734582123.3454516,-49.31640625,0.48828125,133.30078125,-76.171875,0.0
1734582123.3492312,-2.9296875,1.46484375,166.50390625,-13.671875,0.0
1734582123.3530111,-19.04296875,2.44140625,241.69921875,22.4609375,0.0
1734582123.356791,-59.5703125,2.9296875,196.2890625,-13.18359375,0.0
1734582123.360571,-75.68359375,4.8828125,124.51171875,-92.28515625,0.0
1734582123.3643508,-54.19921875,3.90625,119.62890625,-96.6796875,0.0
1734582123.3681304,-26.85546875,2.9296875,13.671875,-4.8828125,0.0
1734582123.3719103,-25.87890625,0.48828125,-38.57421875,63.96484375,0.0
1734582123.3756902,-53.22265625,5.37109375,178.22265625,-4.8828125,0.0
1734582123.37947,-82.03125,6.8359375,131.8359375,-92.28515625,0.0
1734582123.38325,-62.01171875,5.859375,83.984375,-111.81640625,0.0
1734582123.3870296,-17.08984375,7.32421875,131.34765625,-52.734375,0.0
1734582123.3921523,5.37109375,10.25390625,158.69140625,12.20703125,0.0
1734582123.3959343,-23.92578125,16.6015625,153.3203125,-6.8359375,0.0
1734582123.3997164,-68.359375,9.27734375,168.45703125,-82.51953125,0.0
1734582123.4034984,-62.5,0.48828125,147.4609375,-106.93359375,0.0
1734582123.4072802,-18.5546875,0.0,117.1875,-44.921875,0.0
1734582123.4110622,6.34765625,0.48828125,139.16015625,23.92578125,0.0
1734582123.4148443,-35.15625,-0.48828125,75.68359375,13.18359375,0.0
1734582123.4186263,-81.0546875,0.48828125,103.515625,-71.77734375,0.0
1734582123.4224083,-55.6640625,5.37109375,197.265625,-104.00390625,0.0
1734582123.4261901,-7.32421875,10.7421875,99.12109375,-21.484375,0.0
1734582123.4299722,6.34765625,8.30078125,94.23828125,38.0859375,0.0
1734582123.4337542,-19.04296875,3.90625,193.359375,16.11328125,0.0
1734582123.4387305,-62.01171875,4.8828125,198.2421875,-53.7109375,0.0
1734582123.4425144,-69.82421875,-2.9296875,126.46484375,-101.07421875,0.0
1734582123.4462981,-35.15625,-5.859375,14.16015625,-53.7109375,0.0
1734582123.450082,-14.16015625,1.953125,152.34375,10.7421875,0.0
1734582123.453866,-28.80859375,3.41796875,288.57421875,6.34765625,0.0
1734582123.4576497,-63.96484375,-1.953125,175.29296875,-48.33984375,0.0
1734582123.4614336,-72.75390625,-2.9296875,66.89453125,-89.35546875,0.0
1734582123.4652176,-33.69140625,1.46484375,164.0625,-65.4296875,0.0
1734582123.4690013,5.37109375,1.953125,201.171875,18.06640625,0.0
1734582123.4727852,-2.44140625,-4.39453125,77.63671875,42.48046875,0.0
1734582123.4765692,-51.26953125,-2.44140625,102.5390625,-39.0625,0.0
1734582123.480353,-75.1953125,4.39453125,190.91796875,-75.1953125,0.0
1734582123.485978,-41.50390625,4.8828125,106.4453125,-46.38671875,0.0
1734582123.4897645,1.46484375,7.8125,241.2109375,4.8828125,0.0
1734582123.4935513,-5.37109375,6.8359375,206.0546875,34.1796875,0.0
1734582123.497338,-50.29296875,9.27734375,115.234375,-28.80859375,0.0
1734582123.5011246,-69.82421875,8.30078125,80.078125,-86.42578125,0.0
1734582123.5049114,-41.50390625,-4.39453125,96.19140625,-66.40625,0.0
1734582123.508698,-12.6953125,-6.8359375,137.20703125,-5.37109375,0.0
1734582123.5124848,-16.11328125,0.9765625,135.7421875,24.90234375,0.0
1734582123.5162716,-55.17578125,5.37109375,65.4296875,-18.06640625,0.0
1734582123.5200582,-83.49609375,5.859375,62.01171875,-78.125,0.0
1734582123.523845,-64.94140625,8.30078125,169.921875,-93.26171875,0.0
1734582123.5276315,-23.92578125,7.32421875,216.796875,-39.55078125,0.0
1734582123.5331726,-9.27734375,0.48828125,0.0,18.5546875,0.0
1734582123.536962,-46.875,-0.48828125,0.0,-10.25390625,0.0
1734582123.5407515,-75.68359375,2.44140625,0.0,-72.265625,0.0
1734582123.5445406,-44.43359375,6.8359375,0.0,-77.1484375,0.0
1734582123.54833,1.953125,11.23046875,0.0,-19.04296875,0.0
1734582123.5521195,-8.30078125,8.7890625,0.0,39.0625,0.0
1734582123.555909,-51.26953125,3.41796875,0.0,20.99609375,0.0
1734582123.559698,-72.75390625,11.71875,0.0,-69.82421875,0.0
1734582123.5634875,-61.03515625,8.30078125,0.0,-90.33203125,0.0
1734582123.567277,-20.01953125,-1.46484375,0.0,-33.203125,0.0
1734582123.5710664,0.9765625,8.7890625,0.0,9.27734375,0.0
1734582123.5748556,-28.80859375,11.23046875,0.0,1.46484375,0.0
1734582123.580232,-71.77734375,3.90625,71.2890625,-64.94140625,0.0
1734582123.5840237,-69.82421875,4.8828125,110.3515625,-96.19140625,0.0
1734582123.5878155,-17.08984375,11.23046875,166.9921875,-45.41015625,0.0
1734582123.591607,-7.8125,6.34765625,178.7109375,26.3671875,0.0
1734582123.595399,-51.26953125,3.90625,106.4453125,18.06640625,0.0
1734582123.5991907,-82.51953125,8.7890625,68.84765625,-44.43359375,0.0
1734582123.6029823,-76.171875,12.20703125,105.95703125,-83.984375,0.0
1734582123.606774,-33.69140625,12.6953125,98.14453125,-58.59375,0.0
1734582123.610566,-8.30078125,15.13671875,33.203125,17.08984375,0.0
1734582123.6143575,-27.34375,16.6015625,127.9296875,17.578125,0.0
1734582123.6181493,-68.84765625,12.6953125,193.84765625,-58.10546875,0.0
1734582123.621941,-72.75390625,7.8125,85.44921875,-102.05078125,0.0
1734582123.6272075,-30.76171875,1.953125,53.22265625,-67.3828125,0.0
1734582123.6310015,-2.44140625,-0.48828125,160.64453125,2.44140625,0.0
1734582123.6347954,-24.4140625,9.27734375,199.70703125,14.6484375,0.0
1734582123.6385891,-78.61328125,8.30078125,126.953125,-53.22265625,0.0
1734582123.642383,-92.7734375,0.48828125,30.2734375,-116.69921875,0.0
1734582123.646177,-46.875,3.41796875,94.23828125,-86.9140625,0.0
1734582123.649971,-21.484375,2.44140625,204.1015625,-2.44140625,0.0
1734582123.6537647,-40.52734375,-3.41796875,126.46484375,20.99609375,0.0
1734582123.6575587,-74.21875,-4.8828125,-60.546875,-44.921875,0.0
1734582123.6613526,-85.44921875,-3.41796875,131.8359375,-118.1640625,0.0
1734582123.6651464,-45.41015625,3.41796875,127.44140625,-93.26171875,0.0
1734582123.6689403,-8.7890625,7.8125,118.65234375,-17.578125,0.0
1734582123.6741006,-15.625,11.23046875,177.734375,18.5546875,0.0
1734582123.6778963,-49.31640625,10.25390625,145.01953125,-28.3203125,0.0
1734582123.6816921,-91.796875,-0.9765625,109.375,-99.609375,0.0
1734582123.685488,-73.73046875,-0.9765625,132.8125,-93.26171875,0.0
1734582123.6892838,-20.5078125,1.46484375,196.2890625,-29.296875,0.0
1734582123.6930797,-21.97265625,-2.9296875,168.45703125,24.90234375,0.0
1734582123.6968756,-60.05859375,0.9765625,57.6171875,-23.4375,0.0
1734582123.7006714,-91.796875,4.39453125,-62.01171875,-104.4921875,0.0
1734582123.7044673,-61.03515625,4.8828125,69.3359375,-98.14453125,0.0
1734582123.7082632,-11.23046875,8.7890625,204.58984375,-35.64453125,0.0
1734582123.712059,6.8359375,9.27734375,48.33984375,1.953125,0.0
1734582123.715855,-29.296875,7.32421875,-7.32421875,-34.1796875,0.0
1734582123.7209182,-87.40234375,7.32421875,110.3515625,-95.21484375,0.0
1734582123.724716,-78.125,4.8828125,114.2578125,-103.515625,0.0
1734582123.7285135,-32.2265625,1.46484375,130.37109375,-46.38671875,0.0
1734582123.7323112,-18.5546875,3.90625,122.0703125,15.625,0.0
1734582123.7361088,-44.43359375,9.27734375,78.125,-12.20703125,0.0
1734582123.7399065,-75.68359375,9.27734375,86.9140625,-104.00390625,0.0
1734582123.743704,-59.5703125,3.90625,-32.71484375,-101.5625,0.0
1734582123.7475019,-11.23046875,5.859375,-50.78125,-19.04296875,0.0
1734582123.7512994,5.37109375,14.6484375,245.1171875,25.390625,0.0
1734582123.755097,-28.3203125,8.30078125,166.015625,-7.8125,0.0
1734582123.7588947,-64.94140625,4.8828125,90.8203125,-82.03125,0.0
1734582123.7626922,-62.5,7.8125,148.92578125,-113.76953125,0.0
1734582123.767632,-38.57421875,1.953125,177.734375,-56.15234375,0.0
1734582123.7714312,-14.16015625,-5.37109375,144.04296875,14.16015625,0.0
1734582123.7752304,-40.52734375,-9.27734375,176.26953125,8.7890625,0.0
1734582123.7790296,-75.68359375,-4.8828125,160.64453125,-60.05859375,0.0
1734582123.7828288,-75.1953125,-3.90625,87.40234375,-100.5859375,0.0
1734582123.786628,-41.50390625,-5.37109375,84.9609375,-65.4296875,0.0
1734582123.7904272,-13.671875,-6.34765625,68.84765625,5.37109375,0.0
1734582123.7942264,-37.109375,-2.9296875,126.46484375,4.8828125,0.0
1734582123.7980256,-63.96484375,4.39453125,212.890625,-54.6875,0.0
1734582123.8018248,-76.171875,6.34765625,61.5234375,-96.19140625,0.0
1734582123.8056242,-49.31640625,-0.9765625,44.921875,-79.58984375,0.0
1734582123.8094234,-4.8828125,3.41796875,163.0859375,3.41796875,0.0
1734582123.8142836,-15.625,11.71875,206.54296875,21.97265625,0.0
1734582123.8180845,-61.5234375,5.859375,131.8359375,-49.31640625,0.0
1734582123.821885,-72.75390625,2.44140625,55.6640625,-105.46875,0.0
1734582123.8256857,-37.109375,3.90625,130.37109375,-76.171875,0.0
1734582123.8294864,-8.30078125,3.41796875,169.921875,-5.37109375,0.0
1734582123.833287,-24.90234375,-4.8828125,106.4453125,30.2734375,0.0
1734582123.8370879,-69.82421875,-9.765625,42.48046875,-22.94921875,0.0
1734582123.8408885,-72.75390625,0.48828125,124.51171875,-101.5625,0.0
1734582123.8446891,-37.109375,5.37109375,141.11328125,-91.796875,0.0
1734582123.8484898,-6.8359375,-4.39453125,41.015625,-3.41796875,0.0
1734582123.8522904,-11.23046875,-5.859375,78.125,34.66796875,0.0
1734582123.856091,-54.6875,4.39453125,172.36328125,-25.87890625,0.0
1734582123.8614526,-81.0546875,4.8828125,89.35546875,-93.75,0.0
1734582123.8652554,-55.6640625,1.953125,150.87890625,-91.30859375,0.0
1734582123.8690581,-20.01953125,-2.44140625,150.87890625,-33.203125,0.0
1734582123.872861,-15.625,-7.32421875,149.4140625,17.578125,0.0
1734582123.8766637,-52.734375,-3.90625,101.07421875,-9.765625,0.0
1734582123.8804665,-93.26171875,-0.9765625,88.37890625,-101.07421875,0.0
1734582123.8842692,-71.77734375,2.44140625,92.28515625,-105.95703125,0.0
1734582123.888072,-17.578125,8.30078125,118.65234375,-23.4375,0.0
1734582123.8918748,-5.859375,11.71875,102.05078125,23.4375,0.0
1734582123.8956776,-46.875,13.18359375,88.8671875,-4.8828125,0.0
1734582123.89948,-85.9375,14.16015625,130.37109375,-86.42578125,0.0
1734582123.9032829,-69.3359375,9.27734375,118.1640625,-110.3515625,0.0
1734582123.908581,-18.5546875,0.48828125,104.00390625,-35.15625,0.0
1734582123.9123857,-0.48828125,-2.44140625,134.27734375,22.94921875,0.0
1734582123.9161904,-34.66796875,2.44140625,171.38671875,-0.9765625,0.0
1734582123.9199953,-85.44921875,0.48828125,88.37890625,-73.2421875,0.0
1734582123.9238,-86.9140625,-6.8359375,24.4140625,-108.88671875,0.0
1734582123.9276047,-38.57421875,-5.37109375,40.0390625,-65.4296875,0.0
1734582123.9314094,-16.11328125,-1.46484375,120.60546875,7.8125,0.0
1734582123.9352143,-40.52734375,1.46484375,180.6640625,-4.8828125,0.0
1734582123.939019,-76.66015625,-1.953125,-54.19921875,-83.49609375,0.0
1734582123.9428236,-71.2890625,-11.71875,-193.84765625,-110.83984375,0.0
1734582123.9466283,-19.53125,-0.9765625,161.1328125,-65.4296875,0.0
1734582123.9504333,1.46484375,8.7890625,154.78515625,8.7890625,0.0
1734582123.9556212,-19.04296875,5.859375,143.06640625,13.671875,0.0
1734582123.9594278,-57.12890625,2.9296875,179.6875,-55.6640625,0.0
1734582123.9632344,-73.2421875,0.0,113.28125,-113.76953125,0.0
1734582123.967041,-38.57421875,3.90625,110.83984375,-73.2421875,0.0
1734582123.9708474,-5.859375,5.37109375,156.25,0.9765625,0.0
1734582123.974654,-20.5078125,2.9296875,99.12109375,14.16015625,0.0
1734582123.9784606,-61.03515625,3.90625,73.73046875,-61.03515625,0.0
1734582123.9822671,-74.70703125,5.37109375,23.4375,-114.2578125,0.0
1734582123.9860737,-41.50390625,0.9765625,-29.78515625,-64.453125,0.0
1734582123.98988,-1.46484375,4.39453125,126.46484375,-15.625,0.0
1734582123.9936867,-4.8828125,10.25390625,189.453125,11.71875,0.0
1734582123.9974933,-52.24609375,11.23046875,48.33984375,-30.76171875,0.0
1734582124.0026317,-71.77734375,9.765625,0.0,-109.86328125,0.0
1734582124.00644,-37.109375,8.7890625,0.0,-92.28515625,0.0
1734582124.0102482,7.8125,12.6953125,0.0,-9.765625,0.0
1734582124.0140564,0.9765625,8.7890625,0.0,32.2265625,0.0
1734582124.0178647,-52.24609375,2.44140625,0.0,-32.71484375,0.0
1734582124.021673,-81.0546875,5.859375,0.0,-114.2578125,0.0
1734582124.0254812,-54.6875,11.71875,0.0,-93.26171875,0.0
1734582124.0292895,-20.01953125,7.32421875,0.0,-14.6484375,0.0
1734582124.0330977,-18.5546875,-0.9765625,0.0,16.11328125,0.0
1734582124.036906,-55.17578125,-2.44140625,0.0,-28.80859375,0.0
1734582124.0407143,-82.51953125,1.953125,0.0,-99.609375,0.0
1734582124.0445225,-54.6875,2.44140625,0.0,-108.88671875,0.0
