timestamps,TP9,AF7,AF8,TP10,Right AUX
1734582129.2595696,-50.78125,6.8359375,151.85546875,-42.48046875,0.0
1734582129.2634413,-62.5,5.859375,141.11328125,-92.7734375,0.0
1734582129.267313,-31.25,3.41796875,72.75390625,-78.61328125,0.0
1734582129.2711847,-0.48828125,0.0,60.05859375,-4.39453125,0.0
1734582129.2750564,-2.9296875,0.0,101.07421875,21.484375,0.0
1734582129.278928,-34.1796875,-1.46484375,131.8359375,-40.0390625,0.0
1734582129.2828,-57.12890625,-7.8125,20.5078125,-100.5859375,0.0
1734582129.2866716,-44.921875,-8.30078125,-34.1796875,-72.75390625,0.0
1734582129.2905433,-6.34765625,-1.46484375,158.69140625,-19.04296875,0.0
1734582129.294415,9.765625,-1.46484375,158.203125,10.7421875,0.0
1734582129.2982867,-31.25,-4.39453125,102.05078125,-20.01953125,0.0
1734582129.3025596,-66.89453125,0.0,93.26171875,-84.9609375,0.0
1734582129.3064315,-48.828125,5.859375,128.90625,-91.796875,0.0
1734582129.3103034,-15.625,6.34765625,118.1640625,-19.53125,0.0
1734582129.3141754,2.44140625,2.44140625,147.94921875,27.34375,0.0
1734582129.3180473,-25.87890625,-0.9765625,117.67578125,-20.01953125,0.0
1734582129.3219192,-66.89453125,-5.859375,46.38671875,-83.984375,0.0
1734582129.325791,-62.5,0.0,71.77734375,-104.00390625,0.0
1734582129.3296628,-25.87890625,4.39453125,319.82421875,-41.9921875,0.0
1734582129.3335347,1.953125,5.859375,244.140625,19.04296875,0.0
1734582129.3374066,-23.92578125,12.20703125,122.0703125,-8.30078125,0.0
1734582129.3412786,-70.3125,2.9296875,73.73046875,-96.6796875,0.0
1734582129.3451505,-71.2890625,-5.37109375,-3.90625,-120.1171875,0.0
1734582129.3493998,-28.3203125,-0.9765625,130.859375,-40.52734375,0.0
1734582129.353272,5.859375,3.90625,170.41015625,23.92578125,0.0
1734582129.3571439,-20.5078125,0.48828125,54.19921875,-18.06640625,0.0
1734582129.361016,-68.359375,-3.90625,14.16015625,-88.37890625,0.0
1734582129.3648882,-64.453125,0.9765625,110.83984375,-105.95703125,0.0
1734582129.36876,-29.78515625,1.46484375,75.1953125,-60.546875,0.0
1734582129.3726323,-6.34765625,3.90625,180.6640625,5.859375,0.0
1734582129.3765044,-20.99609375,5.859375,177.24609375,12.20703125,0.0
1734582129.3803763,-51.26953125,1.46484375,121.09375,-63.96484375,0.0
1734582129.3842485,-60.546875,-0.48828125,108.88671875,-90.8203125,0.0
1734582129.3881204,-25.87890625,0.0,66.40625,-55.17578125,0.0
1734582129.3919926,6.34765625,-2.9296875,111.328125,2.44140625,0.0
1734582129.3962305,5.37109375,-3.90625,155.76171875,6.8359375,0.0
1734582129.4001026,-45.8984375,-0.9765625,97.65625,-51.7578125,0.0
1734582129.403975,-81.0546875,-4.39453125,86.42578125,-89.84375,0.0
1734582129.4078472,-41.50390625,-6.34765625,141.6015625,-76.171875,0.0
1734582129.4117193,-1.953125,-2.44140625,137.20703125,-19.53125,0.0
1734582129.4155917,-4.39453125,0.0,130.859375,3.90625,0.0
1734582129.4194639,-41.9921875,-3.41796875,46.38671875,-28.80859375,0.0
1734582129.4233363,-56.640625,0.0,3.41796875,-87.40234375,0.0
1734582129.4272084,-28.3203125,9.27734375,129.39453125,-71.77734375,0.0
1734582129.4310806,8.30078125,10.25390625,104.4921875,1.953125,0.0
1734582129.434953,11.71875,11.23046875,101.07421875,24.90234375,0.0
1734582129.4388251,-32.71484375,11.23046875,148.92578125,-32.71484375,0.0
1734582129.4430242,-58.10546875,6.34765625,161.1328125,-94.23828125,0.0
1734582129.4468966,-33.69140625,2.9296875,83.49609375,-77.63671875,0.0
1734582129.450769,4.39453125,4.8828125,64.453125,-5.859375,0.0
1734582129.4546413,13.671875,5.859375,183.59375,29.296875,0.0
1734582129.4585137,-24.4140625,11.71875,190.4296875,-15.13671875,0.0
1734582129.4623861,-44.43359375,16.11328125,-12.20703125,-57.12890625,0.0
1734582129.4662585,-27.34375,9.27734375,-54.19921875,-43.45703125,0.0
1734582129.470131,5.859375,12.6953125,209.9609375,-11.71875,0.0
1734582129.4740033,26.3671875,17.578125,178.7109375,26.85546875,0.0
1734582129.4778757,-6.34765625,7.32421875,113.76953125,0.48828125,0.0
1734582129.481748,-41.015625,1.46484375,115.234375,-67.3828125,0.0
1734582129.4856205,-37.59765625,3.41796875,163.57421875,-79.1015625,0.0
1734582129.490005,0.48828125,3.41796875,155.2734375,-31.73828125,0.0
1734582129.4938776,26.85546875,8.30078125,175.29296875,19.53125,0.0
1734582129.4977503,-11.71875,10.25390625,187.5,-12.6953125,0.0
1734582129.501623,-55.6640625,0.48828125,150.390625,-80.078125,0.0
1734582129.5054955,-44.43359375,-0.9765625,141.6015625,-87.890625,0.0
1734582129.5093682,-8.7890625,-0.48828125,214.84375,-33.69140625,0.0
1734582129.5132408,12.20703125,0.48828125,170.41015625,5.37109375,0.0
1734582129.5171134,-5.859375,2.9296875,128.41796875,-16.11328125,0.0
1734582129.520986,-45.8984375,-2.44140625,122.0703125,-72.75390625,0.0
1734582129.5248587,-43.9453125,-8.30078125,83.0078125,-86.42578125,0.0
1734582129.5287313,-9.765625,-6.34765625,139.16015625,-37.109375,0.0
1734582129.532604,10.7421875,0.48828125,197.75390625,22.4609375,0.0
1734582129.5369668,-8.7890625,0.9765625,88.8671875,11.23046875,0.0
1734582129.5408397,-52.24609375,3.90625,46.875,-71.2890625,0.0
1734582129.5447125,-59.08203125,1.46484375,140.625,-103.515625,0.0
1734582129.5485854,-20.99609375,-4.39453125,160.64453125,-48.33984375,0.0
1734582129.5524583,9.27734375,-8.7890625,129.39453125,16.11328125,0.0
1734582129.5563312,-7.32421875,-9.27734375,101.07421875,12.6953125,0.0
1734582129.5602038,-42.96875,0.0,124.0234375,-39.0625,0.0
1734582129.5640767,-48.828125,-3.90625,185.546875,-84.9609375,0.0
1734582129.5679495,-31.25,-20.5078125,41.9921875,-62.01171875,0.0
1734582129.5718224,-14.6484375,-19.53125,-26.3671875,1.46484375,0.0
1734582129.5756953,-16.11328125,-7.32421875,239.2578125,-5.859375,0.0
1734582129.5795681,-58.59375,-7.32421875,194.82421875,-51.26953125,0.0
1734582129.5841165,-93.26171875,-11.71875,94.23828125,-93.26171875,0.0
1734582129.5879896,-70.3125,-9.765625,134.27734375,-69.82421875,0.0
1734582129.5918627,-29.78515625,-3.41796875,158.203125,-0.48828125,0.0
1734582129.595736,-35.15625,-2.44140625,131.34765625,23.92578125,0.0
1734582129.5996091,-79.1015625,-4.39453125,146.97265625,-33.203125,0.0
1734582129.6034822,-94.7265625,0.0,137.6953125,-74.70703125,0.0
1734582129.6073554,-60.05859375,-1.953125,95.703125,-60.05859375,0.0
1734582129.6112285,-25.87890625,-5.37109375,123.53515625,0.48828125,0.0
1734582129.6151018,-34.66796875,-8.7890625,181.15234375,40.0390625,0.0
1734582129.618975,-63.96484375,-11.23046875,141.11328125,-33.203125,0.0
1734582129.622848,-76.66015625,-9.27734375,113.76953125,-100.09765625,0.0
1734582129.6267211,-54.6875,-15.13671875,56.640625,-71.2890625,0.0
1734582129.6310298,-20.99609375,-12.6953125,83.0078125,3.90625,0.0
1734582129.6349032,-11.71875,-8.30078125,175.29296875,37.109375,0.0
1734582129.6387765,-39.0625,-6.34765625,181.640625,-4.39453125,0.0
1734582129.64265,-66.89453125,-2.44140625,72.75390625,-59.08203125,0.0
1734582129.6465232,-58.59375,-2.44140625,32.2265625,-61.03515625,0.0
1734582129.6503966,-20.5078125,-5.859375,150.87890625,-7.8125,0.0
1734582129.65427,-1.953125,-9.765625,155.76171875,39.55078125,0.0
1734582129.6581433,-27.34375,-5.37109375,198.2421875,17.08984375,0.0
1734582129.6620166,-58.59375,-2.9296875,118.1640625,-59.08203125,0.0
1734582129.66589,-62.5,-7.8125,117.1875,-82.03125,0.0
1734582129.6697633,-16.6015625,-5.37109375,160.15625,-22.94921875,0.0
1734582129.6736367,21.97265625,-2.9296875,270.5078125,43.9453125,0.0
1734582129.6779048,-18.5546875,-1.953125,226.07421875,19.53125,0.0
1734582129.6817782,-69.82421875,1.953125,124.51171875,-70.80078125,0.0
1734582129.6856518,-52.734375,-0.9765625,120.60546875,-84.9609375,0.0
1734582129.6895254,-12.6953125,-4.8828125,139.16015625,-31.73828125,0.0
1734582129.693399,7.8125,-2.44140625,153.3203125,19.53125,0.0
1734582129.6972723,-4.39453125,-3.41796875,78.61328125,5.37109375,0.0
1734582129.701146,-49.31640625,-5.37109375,118.1640625,-59.5703125,0.0
1734582129.7050195,-59.08203125,-2.44140625,178.7109375,-64.94140625,0.0
1734582129.708893,-16.6015625,0.0,114.2578125,-15.625,0.0
1734582129.7127664,12.20703125,1.953125,180.6640625,26.3671875,0.0
1734582129.71664,-1.46484375,3.41796875,116.69921875,21.97265625,0.0
1734582129.7205136,-50.29296875,-1.953125,52.734375,-49.8046875,0.0
1734582129.7247596,-68.359375,-12.20703125,125.9765625,-101.07421875,0.0
1734582129.7286332,-41.015625,-10.25390625,172.8515625,-51.7578125,0.0
1734582129.732507,-4.39453125,-4.8828125,85.9375,25.87890625,0.0
1734582129.7363806,-13.18359375,-3.41796875,76.171875,18.06640625,0.0
1734582129.7402544,-58.10546875,-1.953125,113.28125,-37.109375,0.0
1734582129.744128,-78.61328125,-7.8125,57.6171875,-96.6796875,0.0
1734582129.7480016,-38.57421875,-11.71875,52.24609375,-65.4296875,0.0
1734582129.7518754,0.0,-8.30078125,89.35546875,22.4609375,0.0
1734582129.755749,-7.8125,-5.859375,214.84375,23.92578125,0.0
1734582129.7596228,-40.52734375,-2.9296875,143.06640625,-33.203125,0.0
1734582129.7634964,-60.05859375,1.46484375,106.4453125,-82.51953125,0.0
1734582129.7673702,-38.0859375,-0.48828125,142.578125,-63.96484375,0.0
1734582129.771594,-1.953125,-1.953125,178.7109375,-0.48828125,0.0
1734582129.7754679,10.25390625,-1.953125,141.6015625,27.34375,0.0
1734582129.7793417,-26.85546875,1.953125,149.4140625,-7.8125,0.0
1734582129.7832155,-62.98828125,3.41796875,145.99609375,-84.9609375,0.0
1734582129.7870893,-48.828125,-3.90625,110.3515625,-94.23828125,0.0
1734582129.7909634,-1.46484375,0.0,151.85546875,-9.765625,0.0
1734582129.7948372,16.11328125,4.39453125,95.21484375,53.22265625,0.0
1734582129.798711,-34.66796875,3.90625,26.85546875,8.30078125,0.0
1734582129.802585,-68.84765625,4.39453125,173.828125,-90.8203125,0.0
1734582129.8064587,-42.96875,1.953125,104.00390625,-92.7734375,0.0
1734582129.8103325,-1.46484375,2.44140625,121.58203125,-22.4609375,0.0
1734582129.8142064,8.30078125,5.859375,212.890625,14.16015625,0.0
1734582129.8185987,-35.64453125,0.48828125,198.2421875,-20.99609375,0.0
1734582129.8224728,-74.70703125,-6.8359375,86.42578125,-78.125,0.0
1734582129.8263469,-49.8046875,-5.37109375,13.671875,-82.03125,0.0
1734582129.830221,-1.46484375,0.0,113.28125,-25.87890625,0.0
1734582129.834095,12.20703125,5.37109375,177.24609375,22.94921875,0.0
1734582129.837969,-20.5078125,6.8359375,39.0625,4.8828125,0.0
1734582129.8418431,-63.4765625,3.90625,-71.77734375,-59.5703125,0.0
1734582129.8457172,-59.5703125,9.765625,120.1171875,-80.078125,0.0
1734582129.8495915,-21.97265625,11.71875,137.20703125,-21.97265625,0.0
1734582129.8534656,0.9765625,3.41796875,143.06640625,20.99609375,0.0
1734582129.8573396,-20.5078125,3.41796875,129.8828125,-1.953125,0.0
1734582129.8612137,-62.98828125,7.32421875,143.5546875,-70.80078125,0.0
1734582129.865579,-61.03515625,8.7890625,114.2578125,-98.14453125,0.0
1734582129.8694532,-11.71875,10.25390625,104.00390625,-48.828125,0.0
1734582129.8733275,12.20703125,6.8359375,149.90234375,20.01953125,0.0
1734582129.8772018,-15.625,-0.48828125,150.390625,13.18359375,0.0
1734582129.881076,-67.87109375,-0.48828125,101.5625,-60.546875,0.0
1734582129.8849504,-82.51953125,4.39453125,62.01171875,-86.42578125,0.0
1734582129.8888247,-48.33984375,1.46484375,104.4921875,-40.52734375,0.0
1734582129.892699,-5.859375,1.953125,121.58203125,11.23046875,0.0
1734582129.8965733,-15.625,5.37109375,148.92578125,14.16015625,0.0
1734582129.9004476,-65.4296875,4.39453125,34.1796875,-36.62109375,0.0
1734582129.904322,-80.56640625,2.44140625,-19.04296875,-83.49609375,0.0
1734582129.9081962,-44.43359375,2.9296875,188.96484375,-56.15234375,0.0
1734582129.9125352,-2.44140625,3.90625,134.765625,8.30078125,0.0
1734582129.9164097,-29.78515625,8.30078125,90.33203125,12.20703125,0.0
1734582129.9202843,-94.23828125,2.9296875,146.97265625,-51.26953125,0.0
1734582129.9241588,-112.79296875,-5.37109375,132.8125,-104.4921875,0.0
1734582129.9280334,-84.47265625,-5.37109375,96.6796875,-78.125,0.0
1734582129.9319077,-45.8984375,-2.44140625,96.6796875,-5.37109375,0.0
1734582129.9357822,-52.734375,-0.9765625,121.58203125,9.765625,0.0
1734582129.9396567,-95.703125,1.953125,201.66015625,-51.26953125,0.0
1734582129.9435313,-121.09375,-1.953125,24.90234375,-91.30859375,0.0
1734582129.9474058,-91.796875,-0.48828125,-168.45703125,-69.82421875,0.0
1734582129.95128,-48.828125,11.71875,125.0,-14.6484375,0.0
1734582129.9551547,-40.52734375,11.71875,218.75,21.484375,0.0
1734582129.9594681,-77.1484375,9.27734375,53.7109375,-13.18359375,0.0
1734582129.963343,-103.02734375,7.8125,0.0,-60.546875,0.0
1734582129.9672174,-81.0546875,8.30078125,166.9921875,-72.75390625,0.0
1734582129.9710922,-37.59765625,7.8125,142.08984375,-18.5546875,0.0
1734582129.974967,-27.34375,6.8359375,133.7890625,35.15625,0.0
1734582129.9788415,-66.89453125,10.25390625,153.80859375,-14.6484375,0.0
1734582129.9827163,-98.14453125,11.71875,82.03125,-81.0546875,0.0
1734582129.986591,-79.58984375,8.30078125,59.08203125,-80.56640625,0.0
1734582129.9904656,-40.0390625,5.37109375,367.1875,-4.39453125,0.0
1734582129.9943404,-22.94921875,0.9765625,302.24609375,23.92578125,0.0
1734582129.998215,-38.57421875,3.41796875,132.8125,-22.94921875,0.0
1734582130.0020897,-83.984375,4.39453125,92.7734375,-64.94140625,0.0
1734582130.006358,-80.56640625,1.46484375,-22.94921875,-83.984375,0.0
1734582130.010233,-20.5078125,6.8359375,124.51171875,-22.4609375,0.0
1734582130.0141077,9.765625,6.34765625,205.56640625,46.38671875,0.0
1734582130.0179825,-28.80859375,-2.44140625,81.54296875,9.765625,0.0
1734582130.0218575,-83.0078125,-6.8359375,19.04296875,-76.171875,0.0
1734582130.0257323,-74.21875,-5.859375,119.62890625,-83.984375,0.0
1734582130.029607,-20.5078125,-2.9296875,101.07421875,-30.2734375,0.0
1734582130.033482,8.7890625,4.8828125,270.01953125,30.76171875,0.0
1734582130.0373569,-21.484375,3.90625,321.77734375,24.4140625,0.0
1734582130.0412316,-73.73046875,-2.44140625,129.8828125,-65.4296875,0.0
1734582130.0451066,-78.61328125,-1.953125,142.578125,-94.7265625,0.0
1734582130.0489814,-23.92578125,0.9765625,133.30078125,-35.64453125,0.0
1734582130.053221,3.41796875,-0.48828125,152.34375,11.71875,0.0
1734582130.057096,-29.78515625,-5.859375,173.33984375,3.90625,0.0
1734582130.060971,-77.63671875,-9.27734375,103.02734375,-45.8984375,0.0
1734582130.064846,-86.9140625,-14.16015625,62.01171875,-74.70703125,0.0
1734582130.068721,-37.109375,-17.08984375,102.05078125,-44.921875,0.0
1734582130.072596,2.9296875,-15.13671875,106.93359375,-0.48828125,0.0
1734582130.076471,-15.625,-11.23046875,141.6015625,20.01953125,0.0
1734582130.080346,-62.98828125,-9.765625,155.76171875,-40.0390625,0.0
1734582130.0842211,-75.68359375,-8.7890625,63.96484375,-95.703125,0.0
1734582130.0880961,-36.62109375,-6.34765625,141.11328125,-49.31640625,0.0
1734582130.0919712,7.8125,-8.7890625,139.16015625,16.11328125,0.0
1734582130.0958462,-9.27734375,-11.71875,125.0,16.11328125,0.0
1734582130.1000645,-69.82421875,-13.671875,140.625,-41.9921875,0.0
1734582130.1039398,-84.9609375,-12.20703125,149.90234375,-89.35546875,0.0
1734582130.107815,-48.828125,-12.6953125,53.7109375,-69.3359375,0.0
1734582130.11169,-11.23046875,-12.6953125,41.9921875,-5.37109375,0.0
1734582130.1155653,-5.37109375,-7.32421875,147.94921875,24.90234375,0.0
1734582130.1194403,-54.6875,-10.25390625,123.53515625,-25.390625,0.0
1734582130.1233156,-91.796875,-16.6015625,25.390625,-90.8203125,0.0
1734582130.1271908,-60.546875,-16.11328125,-2.44140625,-79.58984375,0.0
1734582130.1310658,-15.625,-10.25390625,175.78125,-22.94921875,0.0
1734582130.134941,5.859375,0.48828125,187.98828125,16.11328125,0.0
1734582130.138816,-30.2734375,0.0,89.84375,-9.27734375,0.0
1734582130.1426914,-77.63671875,-2.44140625,56.640625,-72.265625,0.0
1734582130.1468859,-55.6640625,-2.44140625,142.578125,-73.2421875,0.0
1734582130.1507611,-4.39453125,-6.34765625,129.8828125,-5.859375,0.0
1734582130.1546364,0.48828125,-4.39453125,149.90234375,12.20703125,0.0
1734582130.1585119,-35.15625,-1.953125,156.25,-16.11328125,0.0
1734582130.1623871,-63.4765625,-2.9296875,100.09765625,-75.1953125,0.0
1734582130.1662624,-51.7578125,-3.41796875,90.33203125,-87.40234375,0.0
1734582130.1701376,-10.25390625,0.9765625,118.1640625,-8.30078125,0.0
1734582130.174013,13.671875,5.37109375,133.7890625,34.66796875,0.0
1734582130.1778882,-26.3671875,6.8359375,186.5234375,-1.953125,0.0
1734582130.1817636,-75.68359375,0.9765625,95.703125,-68.84765625,0.0
1734582130.185639,-73.73046875,-7.32421875,54.19921875,-94.7265625,0.0
1734582130.1895142,-31.73828125,-9.765625,144.04296875,-44.921875,0.0
1734582130.1936834,0.48828125,-4.39453125,188.4765625,15.625,0.0
1734582130.1975586,-31.73828125,2.44140625,61.5234375,1.953125,0.0
1734582130.2014341,-74.21875,-0.48828125,2.9296875,-72.265625,0.0
1734582130.2053096,-68.359375,0.0,121.09375,-105.95703125,0.0
1734582130.209185,-24.90234375,0.9765625,156.25,-52.24609375,0.0
1734582130.2130604,11.71875,3.90625,69.82421875,24.90234375,0.0
1734582130.2169359,-14.16015625,3.41796875,-0.9765625,25.87890625,0.0
1734582130.2208114,-66.40625,3.41796875,146.97265625,-48.828125,0.0
1734582130.2246866,-64.94140625,10.7421875,160.64453125,-92.28515625,0.0
1734582130.228562,-25.87890625,4.8828125,66.89453125,-46.875,0.0
1734582130.2324376,7.8125,-0.9765625,68.359375,7.32421875,0.0
1734582130.2363129,-5.37109375,1.953125,200.1953125,5.859375,0.0
1734582130.2406619,-58.59375,-2.44140625,134.765625,-50.78125,0.0
1734582130.2445376,-77.63671875,-8.30078125,69.3359375,-99.12109375,0.0
1734582130.2484133,-40.0390625,-4.39453125,94.23828125,-58.10546875,0.0
1734582130.2522888,0.0,0.9765625,173.828125,16.11328125,0.0
1734582130.2561646,-17.578125,-3.41796875,116.2109375,17.08984375,0.0
1734582130.26004,-68.84765625,-6.8359375,41.50390625,-40.52734375,0.0
1734582130.2639158,-85.9375,-6.34765625,82.03125,-84.9609375,0.0
1734582130.2677913,-45.8984375,-1.953125,85.44921875,-75.1953125,0.0
1734582130.271667,-7.8125,0.48828125,114.2578125,-5.859375,0.0
1734582130.2755425,-15.625,0.9765625,126.953125,20.5078125,0.0
1734582130.2794182,-57.6171875,-0.48828125,125.0,-41.50390625,0.0
1734582130.2832937,-68.84765625,0.9765625,162.59765625,-91.30859375,0.0
1734582130.2876363,-31.25,0.0,108.3984375,-70.80078125,0.0
1734582130.291512,-5.37109375,-1.953125,92.28515625,-12.20703125,0.0
1734582130.2953877,-17.578125,-0.9765625,175.29296875,8.30078125,0.0
1734582130.2992637,-59.5703125,-4.8828125,153.3203125,-39.55078125,0.0
1734582130.3031394,-83.0078125,-13.671875,86.9140625,-92.7734375,0.0
1734582130.3070152,-54.19921875,-16.11328125,91.30859375,-76.66015625,0.0
1734582130.3108912,-18.06640625,-11.71875,125.9765625,-8.30078125,0.0
1734582130.314767,2.9296875,-3.41796875,208.49609375,13.18359375,0.0
1734582130.3186426,-28.80859375,-5.859375,57.6171875,-21.97265625,0.0
1734582130.3225186,-74.21875,-11.71875,-41.9921875,-74.70703125,0.0
1734582130.3263943,-52.734375,-4.39453125,170.41015625,-98.14453125,0.0
1734582130.33027,-15.625,-8.7890625,151.3671875,-40.52734375,0.0
1734582130.3345573,-11.23046875,-11.71875,144.53125,16.6015625,0.0
1734582130.3384333,-44.921875,-6.34765625,134.765625,-22.94921875,0.0
1734582130.3423092,-79.58984375,-9.27734375,112.3046875,-88.37890625,0.0
1734582130.3461852,-68.84765625,-12.20703125,93.26171875,-87.40234375,0.0
1734582130.3500612,-19.04296875,-5.37109375,107.421875,-31.73828125,0.0
1734582130.3539374,3.90625,0.0,130.859375,19.53125,0.0
1734582130.3578134,-31.25,-3.41796875,104.00390625,-7.8125,0.0
1734582130.3616893,-60.05859375,-3.41796875,74.21875,-71.77734375,0.0
1734582130.3655653,-57.6171875,5.859375,162.59765625,-75.68359375,0.0
1734582130.3694413,-14.6484375,6.8359375,156.25,-30.2734375,0.0
1734582130.3733172,17.578125,5.37109375,176.26953125,10.7421875,0.0
1734582130.3771932,-22.4609375,6.34765625,95.703125,-7.32421875,0.0
1734582130.3814454,-76.66015625,2.44140625,0.9765625,-66.89453125,0.0
1734582130.3853216,-77.1484375,4.39453125,111.328125,-89.84375,0.0
1734582130.3891976,-27.83203125,6.34765625,154.296875,-46.38671875,0.0
1734582130.3930738,12.6953125,2.44140625,93.75,17.08984375,0.0
1734582130.39695,-13.671875,6.34765625,35.64453125,6.8359375,0.0
1734582130.400826,-71.77734375,10.25390625,50.29296875,-51.7578125,0.0
1734582130.4047022,-75.68359375,12.6953125,75.1953125,-88.37890625,0.0
1734582130.4085784,-37.109375,10.25390625,274.90234375,-47.36328125,0.0
1734582130.4124546,0.9765625,13.18359375,261.23046875,28.80859375,0.0
1734582130.4163306,-2.44140625,18.06640625,145.5078125,1.46484375,0.0
1734582130.4202068,-52.734375,5.859375,113.76953125,-57.6171875,0.0
1734582130.424083,-60.546875,-9.765625,35.15625,-88.37890625,0.0
1734582130.4283123,-5.859375,-1.953125,110.3515625,-44.43359375,0.0
1734582130.4321887,22.4609375,19.53125,166.9921875,18.5546875,0.0
1734582130.436065,-15.625,16.6015625,128.90625,15.625,0.0
1734582130.4399412,-66.89453125,2.44140625,107.91015625,-55.17578125,0.0
1734582130.4438176,-76.66015625,-5.859375,89.84375,-107.91015625,0.0
1734582130.4476938,-41.9921875,-4.8828125,55.6640625,-73.2421875,0.0
1734582130.45157,-16.6015625,3.41796875,153.80859375,-30.2734375,0.0
1734582130.4554465,-24.4140625,7.8125,130.37109375,12.20703125,0.0
1734582130.4593227,-58.10546875,5.859375,46.38671875,-40.0390625,0.0
1734582130.463199,-82.03125,4.8828125,161.62109375,-123.046875,0.0
1734582130.4670753,-49.31640625,4.39453125,101.5625,-96.19140625,0.0
1734582130.4709516,-5.37109375,0.0,66.89453125,-46.38671875,0.0
1734582130.4751544,-1.953125,-1.46484375,179.19921875,-6.34765625,0.0
1734582130.4790308,-44.43359375,-0.48828125,135.25390625,-47.8515625,0.0
1734582130.4829073,-82.51953125,0.0,2.9296875,-109.86328125,0.0
1734582130.4867837,-53.7109375,0.48828125,44.43359375,-94.7265625,0.0
1734582130.4906602,0.9765625,-0.9765625,143.06640625,-37.109375,0.0
1734582130.4945366,-0.9765625,-1.953125,189.94140625,-4.8828125,0.0
1734582130.498413,-50.78125,-10.7421875,41.50390625,-30.76171875,0.0
1734582130.5022895,-73.73046875,-9.27734375,-62.01171875,-76.66015625,0.0
1734582130.5061657,-49.8046875,6.34765625,162.59765625,-89.35546875,0.0
1734582130.5100422,-2.9296875,6.8359375,165.0390625,-35.15625,0.0
1734582130.5139186,9.27734375,0.0,161.1328125,13.18359375,0.0
1734582130.517795,-25.87890625,-0.9765625,161.62109375,-4.8828125,0.0
1734582130.5219755,-46.38671875,5.859375,169.921875,-67.3828125,0.0
1734582130.525852,-37.109375,9.765625,141.11328125,-84.47265625,0.0
1734582130.5297284,-8.7890625,3.90625,157.71484375,-45.8984375,0.0
1734582130.533605,19.53125,-0.9765625,180.17578125,4.8828125,0.0
1734582130.5374815,-6.34765625,-3.41796875,145.01953125,-3.41796875,0.0
1734582130.5413582,-55.6640625,-6.34765625,106.93359375,-86.9140625,0.0
1734582130.5452347,-50.29296875,-8.30078125,73.73046875,-103.515625,0.0
1734582130.5491111,-2.9296875,-4.39453125,98.14453125,-36.1328125,0.0
1734582130.5529878,24.4140625,3.90625,151.85546875,12.6953125,0.0
1734582130.5568643,5.37109375,4.39453125,166.50390625,3.41796875,0.0
1734582130.560741,-43.45703125,0.48828125,179.19921875,-45.8984375,0.0
1734582130.5646174,-50.29296875,-1.953125,149.4140625,-82.03125,0.0
1734582130.568761,-18.06640625,-8.30078125,161.62109375,-36.1328125,0.0
1734582130.5726376,4.8828125,-7.32421875,127.44140625,24.90234375,0.0
1734582130.5765142,-0.9765625,-2.9296875,79.1015625,19.04296875,0.0
1734582130.580391,-50.29296875,-3.41796875,175.78125,-41.015625,0.0
1734582130.5842676,-67.87109375,-3.90625,102.5390625,-80.078125,0.0
1734582130.5881443,-30.2734375,-5.37109375,265.13671875,-51.7578125,0.0
1734582130.592021,-2.9296875,-4.39453125,330.56640625,15.625,0.0
1734582130.5958977,-7.8125,0.48828125,145.5078125,22.94921875,0.0
1734582130.5997744,-46.38671875,0.0,163.0859375,-30.76171875,0.0
1734582130.6036508,-62.01171875,-9.765625,58.10546875,-80.078125,0.0
1734582130.6075275,-38.57421875,-14.6484375,33.69140625,-66.89453125,0.0
1734582130.6114042,3.41796875,-8.30078125,215.8203125,-2.9296875,0.0
1734582130.6157522,3.90625,-7.32421875,195.3125,19.04296875,0.0
1734582130.6196291,-52.24609375,-8.30078125,156.73828125,-12.6953125,0.0
1734582130.623506,-70.80078125,-1.953125,144.53125,-62.5,0.0
1734582130.6273828,-32.71484375,3.90625,153.3203125,-70.80078125,0.0
1734582130.6312597,1.46484375,-1.953125,163.57421875,-0.48828125,0.0
1734582130.6351366,-8.30078125,-4.39453125,151.3671875,34.1796875,0.0
1734582130.6390133,-60.05859375,-1.953125,130.37109375,-17.08984375,0.0
1734582130.6428902,-79.58984375,0.9765625,130.859375,-76.66015625,0.0
1734582130.6467671,-39.55078125,4.39453125,122.55859375,-74.70703125,0.0
1734582130.6506438,-9.27734375,3.41796875,125.9765625,0.48828125,0.0
1734582130.6545208,-17.578125,0.0,184.5703125,20.01953125,0.0
1734582130.6583977,-53.22265625,0.9765625,201.171875,-37.109375,0.0
1734582130.6627061,-67.87109375,6.34765625,79.58984375,-81.54296875,0.0
1734582130.6665833,-54.19921875,5.859375,65.4296875,-79.58984375,0.0
1734582130.6704602,-15.625,5.859375,190.4296875,-13.671875,0.0
1734582130.6743371,1.46484375,8.7890625,196.2890625,39.0625,0.0
1734582130.6782143,-44.43359375,3.90625,113.28125,11.71875,0.0
1734582130.6820912,-70.3125,-1.46484375,67.87109375,-62.01171875,0.0
1734582130.6859684,-56.640625,-6.8359375,95.703125,-77.1484375,0.0
1734582130.6898453,-19.04296875,-6.8359375,201.66015625,-9.765625,0.0
1734582130.6937222,0.9765625,-1.953125,89.84375,28.80859375,0.0
1734582130.6975994,-44.43359375,-3.90625,-25.390625,-9.27734375,0.0
1734582130.7014763,-71.77734375,-3.41796875,166.50390625,-71.2890625,0.0
1734582130.7053535,-54.19921875,-8.30078125,130.859375,-79.1015625,0.0
1734582130.7096188,-34.66796875,-9.765625,115.234375,-46.38671875,0.0
1734582130.713496,-14.16015625,-3.90625,163.0859375,-9.765625,0.0
1734582130.7173731,-20.99609375,-9.765625,165.0390625,-24.4140625,0.0
1734582130.7212503,-65.91796875,-10.7421875,99.12109375,-72.265625,0.0
1734582130.7251275,-63.4765625,-4.8828125,65.4296875,-95.703125,0.0
1734582130.7290046,-23.92578125,-4.39453125,146.97265625,-58.59375,0.0
1734582130.7328818,-8.30078125,-4.8828125,187.5,2.9296875,0.0
1734582130.736759,-27.34375,-10.25390625,84.47265625,-4.39453125,0.0
1734582130.740636,-73.73046875,-13.18359375,327.63671875,-46.875,0.0
1734582130.7445133,-79.1015625,-12.20703125,251.953125,-69.82421875,0.0
1734582130.7483904,-31.73828125,-11.23046875,122.0703125,-60.546875,0.0
1734582130.7522676,-4.8828125,-10.25390625,128.90625,8.7890625,0.0
1734582130.7565212,-17.578125,-6.8359375,59.5703125,19.04296875,0.0
1734582130.7603986,-59.5703125,-0.48828125,130.859375,-54.6875,0.0
1734582130.764276,-66.40625,1.46484375,141.6015625,-90.33203125,0.0
1734582130.7681534,-20.5078125,-2.44140625,61.5234375,-50.78125,0.0
1734582130.7720306,15.13671875,-3.41796875,18.5546875,8.30078125,0.0
1734582130.775908,-5.859375,-5.859375,109.86328125,30.2734375,0.0
1734582130.7797854,-59.5703125,-10.7421875,115.72265625,-10.25390625,0.0
1734582130.7836626,-72.75390625,-10.25390625,113.76953125,-79.58984375,0.0
1734582130.78754,-34.66796875,-11.23046875,129.39453125,-58.59375,0.0
1734582130.7914174,0.9765625,-13.671875,159.66796875,2.44140625,0.0
1734582130.7952945,-7.32421875,-12.6953125,168.9453125,24.4140625,0.0
1734582130.799172,-51.7578125,-13.671875,129.39453125,-18.06640625,0.0
1734582130.8035867,-66.89453125,-11.71875,112.79296875,-79.58984375,0.0
1734582130.8074641,-36.1328125,-4.39453125,142.578125,-73.73046875,0.0
1734582130.8113418,9.765625,-1.46484375,152.34375,-4.39453125,0.0
1734582130.8152192,1.46484375,-4.39453125,169.921875,22.4609375,0.0
1734582130.8190968,-47.8515625,-7.32421875,119.62890625,-25.390625,0.0
1734582130.8229742,-74.70703125,-4.8828125,40.0390625,-66.40625,0.0
1734582130.8268518,-55.17578125,-5.859375,116.2109375,-70.80078125,0.0
1734582130.8307295,-13.671875,-9.765625,86.9140625,10.25390625,0.0
1734582130.834607,-9.765625,-6.8359375,44.921875,39.55078125,0.0
1734582130.8384845,-49.31640625,-5.37109375,169.43359375,-45.41015625,0.0
1734582130.842362,-86.9140625,-9.27734375,92.28515625,-102.05078125,0.0
1734582130.8462396,-72.265625,-9.27734375,27.34375,-91.30859375,0.0
1734582130.850444,0.0,-4.8828125,138.671875,0.0,0.0
1734582130.854322,0.0,-7.32421875,192.87109375,0.0,0.0
1734582130.8581996,0.0,-8.30078125,66.40625,0.0,0.0
1734582130.8620772,0.0,-5.37109375,8.7890625,0.0,0.0
1734582130.8659549,0.0,-0.48828125,127.44140625,0.0,0.0
1734582130.8698325,0.0,0.48828125,132.32421875,0.0,0.0
1734582130.8737102,0.0,-2.44140625,92.7734375,0.0,0.0
1734582130.8775878,0.0,-5.37109375,64.94140625,0.0,0.0
1734582130.8814654,0.0,-0.48828125,134.765625,0.0,0.0
1734582130.8853433,0.0,-1.46484375,188.4765625,0.0,0.0
1734582130.889221,0.0,0.9765625,65.91796875,0.0,0.0
1734582130.8930986,0.0,3.90625,-40.52734375,0.0,0.0
1734582130.8972628,0.0,4.39453125,162.59765625,-11.23046875,0.0
1734582130.9011407,-57.12890625,6.34765625,169.43359375,-68.359375,0.0
1734582130.9050183,-74.21875,-2.44140625,145.5078125,-81.0546875,0.0
1734582130.9088962,-23.4375,-3.41796875,174.8046875,-45.8984375,0.0
1734582130.9127738,10.7421875,3.41796875,152.83203125,15.13671875,0.0
1734582130.9166517,-5.859375,3.41796875,187.01171875,18.06640625,0.0
1734582130.9205296,-66.40625,3.41796875,88.37890625,-31.73828125,0.0
1734582130.9244072,-78.125,3.90625,-35.64453125,-75.68359375,0.0
1734582130.9282851,-32.71484375,0.9765625,159.1796875,-46.875,0.0
1734582130.9321628,10.25390625,0.0,160.64453125,2.9296875,0.0
1734582130.9360406,-1.46484375,1.46484375,148.92578125,-2.9296875,0.0
1734582130.9399185,-53.22265625,0.9765625,159.66796875,-51.26953125,0.0
1734582130.9440496,-62.5,-3.41796875,167.96875,-95.21484375,0.0
1734582130.9479275,-29.78515625,-3.41796875,106.93359375,-59.08203125,0.0
1734582130.9518054,1.953125,-3.41796875,59.5703125,-4.8828125,0.0
1734582130.9556832,-6.8359375,0.9765625,161.62109375,-10.25390625,0.0
1734582130.959561,-53.7109375,-0.48828125,163.57421875,-68.359375,0.0
1734582130.963439,-83.984375,-9.27734375,6.34765625,-90.33203125,0.0
1734582130.9673169,-54.6875,-15.625,-9.765625,-66.89453125,0.0
1734582130.9711947,2.9296875,-10.25390625,167.96875,-26.3671875,0.0
1734582130.9750726,6.8359375,-1.953125,212.890625,13.18359375,0.0
1734582130.9789505,-60.05859375,-14.16015625,85.44921875,-34.66796875,0.0
1734582130.9828284,-92.7734375,-21.484375,5.37109375,-95.703125,0.0
1734582130.9867063,-62.98828125,-11.71875,157.71484375,-93.75,0.0
1734582130.9910126,-12.6953125,-7.8125,173.828125,-26.85546875,0.0
1734582130.9948907,-8.30078125,-10.25390625,172.36328125,12.20703125,0.0
1734582130.9987686,-55.17578125,-11.71875,137.6953125,-19.53125,0.0
1734582131.0026467,-79.1015625,-10.25390625,129.39453125,-73.73046875,0.0
1734582131.0065248,-58.10546875,-8.30078125,96.19140625,-70.3125,0.0
1734582131.010403,-4.39453125,-9.765625,70.80078125,-10.7421875,0.0
1734582131.0142808,1.46484375,-4.8828125,121.09375,18.5546875,0.0
1734582131.018159,-45.8984375,-1.953125,131.34765625,-16.11328125,0.0
1734582131.022037,-85.44921875,-4.8828125,78.125,-71.77734375,0.0
1734582131.025915,-80.56640625,-3.41796875,55.6640625,-72.75390625,0.0
1734582131.029793,-31.73828125,0.48828125,138.18359375,-20.01953125,0.0
1734582131.0336711,4.39453125,3.90625,212.890625,18.5546875,0.0
1734582131.037964,-32.2265625,1.46484375,107.91015625,-0.48828125,0.0
1734582131.0418425,-87.890625,0.0,36.62109375,-55.17578125,0.0
1734582131.0457206,-74.70703125,-3.41796875,133.7890625,-86.42578125,0.0
1734582131.0495987,-16.6015625,-3.41796875,189.94140625,-37.59765625,0.0
1734582131.053477,11.23046875,4.39453125,132.8125,24.4140625,0.0
1734582131.0573552,-19.53125,0.0,57.12890625,-1.46484375,0.0
1734582131.0612333,-76.171875,-6.34765625,122.55859375,-74.70703125,0.0
1734582131.0651116,-70.80078125,-1.953125,163.0859375,-99.12109375,0.0
1734582131.0689898,-21.484375,-1.953125,205.078125,-28.3203125,0.0
1734582131.072868,3.41796875,-3.41796875,92.7734375,35.15625,0.0
1734582131.0767462,-16.11328125,-5.37109375,148.92578125,6.8359375,0.0
1734582131.0806243,-67.3828125,-11.71875,175.29296875,-60.546875,0.0
1734582131.0848813,-65.91796875,-11.23046875,115.234375,-98.6328125,0.0
1734582131.0887597,-23.92578125,-5.859375,154.78515625,-62.5,0.0
1734582131.092638,16.6015625,-2.9296875,219.7265625,15.625,0.0
1734582131.0965164,1.953125,0.0,187.5,31.25,0.0
1734582131.1003947,-62.01171875,-8.30078125,134.765625,-45.41015625,0.0
1734582131.104273,-79.1015625,-9.765625,128.41796875,-71.2890625,0.0
1734582131.1081514,-31.73828125,-1.953125,148.92578125,-42.96875,0.0
1734582131.1120298,7.8125,-1.953125,167.96875,6.8359375,0.0
1734582131.1159081,-7.8125,-3.41796875,294.921875,37.59765625,0.0
1734582131.1197865,-54.19921875,-3.90625,204.58984375,-24.4140625,0.0
1734582131.1236649,-79.1015625,-7.32421875,136.23046875,-86.9140625,0.0
1734582131.1275432,-36.62109375,-8.7890625,125.9765625,-66.89453125,0.0
1734582131.1317675,12.6953125,-9.765625,122.0703125,-7.32421875,0.0
1734582131.1356459,14.16015625,-5.37109375,187.01171875,20.01953125,0.0
1734582131.1395245,-36.62109375,0.9765625,186.03515625,-23.4375,0.0
1734582131.1434028,-73.2421875,0.0,77.63671875,-94.7265625,0.0
1734582131.1472814,-42.48046875,0.9765625,41.015625,-72.75390625,0.0
1734582131.15116,11.71875,5.859375,126.46484375,8.7890625,0.0
1734582131.1550384,15.625,0.48828125,216.30859375,19.53125,0.0
1734582131.158917,-33.203125,-4.8828125,135.7421875,-22.4609375,0.0
1734582131.1627953,-73.73046875,-7.8125,-10.25390625,-66.89453125,0.0
1734582131.166674,-52.24609375,-7.32421875,162.109375,-79.1015625,0.0
1734582131.1705523,-0.48828125,-3.90625,182.12890625,-22.94921875,0.0
1734582131.1744308,23.92578125,-4.39453125,174.8046875,24.90234375,0.0
1734582131.1786413,-17.08984375,-8.30078125,164.55078125,-12.20703125,0.0
1734582131.18252,-77.63671875,-16.6015625,157.2265625,-82.51953125,0.0
1734582131.1863985,-68.84765625,-22.94921875,143.5546875,-76.66015625,0.0
1734582131.190277,-0.48828125,-17.08984375,168.9453125,-10.7421875,0.0
1734582131.1941557,31.73828125,-10.7421875,166.50390625,34.1796875,0.0
1734582131.1980343,-25.87890625,-16.11328125,101.07421875,13.671875,0.0
1734582131.2019129,-81.54296875,-18.5546875,136.23046875,-71.2890625,0.0
1734582131.2057915,-77.1484375,-10.7421875,52.734375,-75.68359375,0.0
1734582131.20967,-23.92578125,-10.25390625,48.828125,-20.01953125,0.0
1734582131.2135487,25.390625,-6.34765625,215.33203125,1.953125,0.0
1734582131.2174273,-4.8828125,-2.44140625,128.90625,-8.7890625,0.0
1734582131.2213058,-69.82421875,-4.39453125,78.125,-67.3828125,0.0
1734582131.2254841,-65.91796875,-1.46484375,130.859375,-94.7265625,0.0
1734582131.229363,-13.18359375,-3.41796875,161.62109375,-54.19921875,0.0
1734582131.2332416,11.23046875,-11.23046875,101.07421875,-0.9765625,0.0
1734582131.2371204,-23.4375,-15.13671875,63.96484375,-13.18359375,0.0
1734582131.240999,-78.61328125,-9.27734375,110.3515625,-73.73046875,0.0
1734582131.2448778,-95.21484375,-9.27734375,65.91796875,-104.98046875,0.0
1734582131.2487564,-60.546875,-19.53125,5.37109375,-70.80078125,0.0
1734582131.2526352,-15.625,-15.625,21.484375,10.25390625,0.0
1734582131.256514,-29.78515625,-8.30078125,177.734375,-1.953125,0.0
1734582131.2603927,-97.65625,-15.13671875,150.390625,-91.30859375,0.0
1734582131.2642715,-135.25390625,-24.90234375,49.31640625,-125.9765625,0.0
1734582131.26815,-88.8671875,-20.01953125,70.80078125,-77.63671875,0.0
1734582131.2722976,-27.34375,-10.25390625,164.55078125,-12.6953125,0.0
1734582131.2761765,-37.59765625,-10.7421875,166.015625,-3.90625,0.0
1734582131.2800553,-95.703125,-9.27734375,132.32421875,-58.10546875,0.0
1734582131.283934,-123.53515625,-3.90625,121.58203125,-114.2578125,0.0
1734582131.287813,-90.8203125,-7.32421875,97.65625,-79.1015625,0.0
1734582131.2916918,-41.015625,-12.6953125,131.34765625,-13.18359375,0.0
1734582131.2955706,-28.3203125,-7.32421875,50.78125,2.9296875,0.0
1734582131.2994494,-80.56640625,-4.8828125,-28.80859375,-51.7578125,0.0
1734582131.3033283,-125.9765625,-7.8125,133.7890625,-118.1640625,0.0
1734582131.307207,-89.84375,-7.32421875,98.6328125,-88.8671875,0.0
1734582131.311086,-31.25,-10.25390625,96.19140625,-23.92578125,0.0
1734582131.3149648,-24.90234375,-10.7421875,112.3046875,-4.8828125,0.0
1734582131.3191018,-74.70703125,-5.859375,170.8984375,-50.29296875,0.0
1734582131.3229806,-122.0703125,-13.18359375,56.640625,-103.515625,0.0
1734582131.3268595,-95.21484375,-11.71875,-34.1796875,-95.21484375,0.0
1734582131.3307385,-22.94921875,-1.953125,151.3671875,-21.484375,0.0
1734582131.3346174,-7.8125,-3.41796875,178.7109375,8.30078125,0.0
1734582131.3384962,-74.70703125,-4.8828125,3.90625,-39.0625,0.0
1734582131.3423753,-126.953125,-4.39453125,-59.5703125,-101.5625,0.0
1734582131.346254,-105.95703125,-5.859375,112.3046875,-109.375,0.0
1734582131.3501332,-40.0390625,-4.8828125,187.01171875,-48.828125,0.0
1734582131.354012,-11.71875,-8.30078125,88.8671875,6.34765625,0.0
1734582131.3578908,-53.7109375,-11.71875,4.39453125,-11.23046875,0.0
1734582131.36177,-101.07421875,-2.44140625,142.08984375,-80.56640625,0.0
1734582131.3660777,-90.33203125,-0.48828125,77.63671875,-103.515625,0.0
1734582131.3699567,-33.69140625,0.0,75.1953125,-47.36328125,0.0
1734582131.3738358,-0.48828125,0.9765625,164.0625,4.8828125,0.0
1734582131.3777149,-46.875,-0.48828125,171.38671875,-25.87890625,0.0
1734582131.381594,-108.88671875,-3.41796875,74.70703125,-88.8671875,0.0
1734582131.385473,-97.65625,-5.859375,-49.8046875,-86.9140625,0.0
1734582131.389352,-48.828125,-3.41796875,41.9921875,-40.0390625,0.0
1734582131.3932312,-9.27734375,0.48828125,163.0859375,-1.953125,0.0
1734582131.3971102,-43.45703125,-1.46484375,132.8125,-20.01953125,0.0
1734582131.4009895,-112.79296875,-4.8828125,38.57421875,-75.1953125,0.0
1734582131.4048686,-104.4921875,-3.90625,69.82421875,-82.51953125,0.0
1734582131.4087477,-50.78125,-9.27734375,166.9921875,-46.875,0.0
1734582131.4130287,-9.765625,-9.27734375,102.5390625,-10.25390625,0.0
1734582131.416908,-35.15625,-0.9765625,40.0390625,-2.9296875,0.0
1734582131.420787,-110.3515625,-10.7421875,124.0234375,-59.08203125,0.0
1734582131.4246664,-124.0234375,-20.01953125,109.86328125,-99.609375,0.0
1734582131.4285457,-79.1015625,-6.8359375,9.765625,-68.84765625,0.0
1734582131.4324248,-37.59765625,0.48828125,22.4609375,-19.04296875,0.0
1734582131.436304,-68.84765625,-11.71875,146.484375,-15.625,0.0
1734582131.4401834,-130.37109375,-12.6953125,125.48828125,-77.1484375,0.0
1734582131.4440627,-149.4140625,-9.27734375,241.69921875,-116.69921875,0.0
1734582131.4479418,-114.74609375,-5.859375,237.3046875,-76.171875,0.0
1734582131.451821,-54.6875,-0.9765625,122.55859375,-20.01953125,0.0
1734582131.4557004,-59.08203125,-4.39453125,139.16015625,-5.37109375,0.0
1734582131.4599466,-126.46484375,-9.765625,74.70703125,-51.7578125,0.0
1734582131.4638262,-152.83203125,-5.859375,74.70703125,-83.984375,0.0
1734582131.4677055,-105.46875,-2.9296875,131.8359375,-67.3828125,0.0
1734582131.4715848,-41.50390625,-1.46484375,131.8359375,-25.390625,0.0
1734582131.475464,-43.9453125,-1.953125,106.4453125,6.34765625,0.0
1734582131.4793437,-104.00390625,1.46484375,61.03515625,-28.80859375,0.0
1734582131.483223,-138.671875,7.8125,51.26953125,-93.75,0.0
1734582131.4871023,-110.83984375,0.48828125,103.02734375,-82.51953125,0.0
1734582131.4909818,-53.22265625,-3.90625,126.953125,-15.625,0.0
1734582131.4948611,-34.66796875,-2.44140625,83.0078125,15.13671875,0.0
1734582131.4987404,-92.28515625,-0.9765625,150.87890625,-27.83203125,0.0
1734582131.5026197,-140.625,-0.9765625,71.2890625,-73.73046875,0.0
1734582131.5068421,-100.5859375,0.9765625,0.0,-79.1015625,0.0
1734582131.5107217,-28.80859375,2.44140625,128.41796875,-28.80859375,0.0
1734582131.5146012,-1.46484375,2.44140625,190.91796875,13.671875,0.0
1734582131.5184808,-57.12890625,0.0,31.73828125,-20.5078125,0.0
1734582131.5223603,-116.2109375,-2.9296875,-84.47265625,-76.171875,0.0
1734582131.5262396,-99.609375,-8.30078125,63.96484375,-75.1953125,0.0
1734582131.5301192,-30.76171875,-15.13671875,109.375,-34.1796875,0.0
1734582131.5339987,13.671875,-9.27734375,19.53125,7.8125,0.0
1734582131.5378783,-41.50390625,-4.39453125,-22.94921875,-5.859375,0.0
1734582131.5417578,-102.05078125,-3.41796875,126.46484375,-79.1015625,0.0
1734582131.5456371,-83.0078125,1.953125,53.22265625,-72.75390625,0.0
1734582131.5495167,-23.92578125,0.48828125,43.45703125,-24.4140625,0.0
1734582131.5537245,0.0,-3.41796875,139.16015625,2.44140625,0.0
1734582131.557604,0.0,-1.953125,161.62109375,-12.20703125,0.0
1734582131.5614836,0.0,4.8828125,107.421875,-62.5,0.0
1734582131.5653634,0.0,5.37109375,89.84375,-83.49609375,0.0
1734582131.569243,0.0,-2.9296875,113.76953125,-48.828125,0.0
1734582131.5731225,0.0,-8.7890625,110.83984375,-5.37109375,0.0
1734582131.5770023,0.0,-10.25390625,123.53515625,-12.6953125,0.0
1734582131.5808818,0.0,-15.13671875,106.4453125,-64.94140625,0.0
1734582131.5847614,0.0,-13.671875,83.984375,-87.890625,0.0
1734582131.5886412,0.0,-4.8828125,143.06640625,-38.57421875,0.0
1734582131.5925207,0.0,-3.41796875,102.5390625,2.44140625,0.0
1734582131.5964003,0.0,-3.90625,93.26171875,-12.20703125,0.0
1734582131.6005733,-43.45703125,0.48828125,87.890625,-52.734375,0.0
1734582131.6044528,-61.03515625,0.9765625,97.16796875,-90.8203125,0.0
1734582131.6083326,-11.23046875,-6.34765625,48.33984375,-65.4296875,0.0
1734582131.6122124,51.7578125,-4.8828125,4.8828125,-15.625,0.0
1734582131.6160922,33.203125,-5.859375,125.9765625,-18.5546875,0.0
1734582131.619972,-34.66796875,-14.16015625,74.70703125,-64.453125,0.0
1734582131.6238515,-79.58984375,-16.11328125,120.60546875,-98.14453125,0.0
1734582131.6277313,-34.66796875,-13.18359375,94.23828125,-80.078125,0.0
1734582131.631611,44.43359375,-12.20703125,104.00390625,-26.3671875,0.0
1734582131.635491,27.34375,-8.7890625,154.296875,-4.8828125,0.0
1734582131.6393704,-53.22265625,-11.71875,87.890625,-62.98828125,0.0
1734582131.6432502,-94.23828125,-18.5546875,72.265625,-121.58203125,0.0
1734582131.6473927,-45.8984375,-13.18359375,136.23046875,-108.3984375,0.0
1734582131.6512725,12.6953125,-0.9765625,129.8828125,-44.43359375,0.0
1734582131.6551526,20.5078125,7.8125,125.9765625,-21.97265625,0.0
1734582131.6590323,-45.41015625,5.859375,130.37109375,-83.0078125,0.0
1734582131.6629121,-100.09765625,-1.46484375,92.7734375,-126.46484375,0.0
1734582131.666792,-69.82421875,-8.30078125,113.76953125,-119.62890625,0.0
1734582131.6706717,-1.46484375,-7.32421875,-17.578125,-59.5703125,0.0
1734582131.6745515,39.55078125,-0.9765625,-22.4609375,-2.9296875,0.0
1734582131.6784315,-35.15625,0.48828125,177.734375,-60.546875,0.0
1734582131.6823113,-93.26171875,-2.9296875,76.66015625,-109.375,0.0
1734582131.686191,-39.0625,-6.34765625,92.7734375,-87.40234375,0.0
1734582131.6900709,23.92578125,0.9765625,136.23046875,-32.2265625,0.0
1734582131.694195,44.921875,4.39453125,168.9453125,-7.32421875,0.0
1734582131.698075,10.25390625,0.48828125,81.0546875,-39.0625,0.0
1734582131.7019548,-40.52734375,-3.90625,-1.953125,-85.44921875,0.0
1734582131.7058349,-56.15234375,-11.23046875,126.46484375,-99.609375,0.0
1734582131.709715,16.6015625,-9.765625,170.41015625,-37.59765625,0.0
1734582131.7135947,71.77734375,-3.41796875,29.78515625,9.765625,0.0
1734582131.7174747,15.625,-2.44140625,28.3203125,-12.20703125,0.0
1734582131.7213545,-53.22265625,-1.46484375,144.53125,-72.265625,0.0
1734582131.7252345,-75.68359375,1.46484375,125.0,-83.0078125,0.0
1734582131.7291143,-10.7421875,-4.39453125,77.63671875,-21.484375,0.0
1734582131.7329943,46.875,-10.25390625,-23.92578125,7.32421875,0.0
1734582131.736874,-5.859375,-4.8828125,103.02734375,-16.6015625,0.0
1734582131.741165,-65.4296875,-0.48828125,105.95703125,-66.40625,0.0
1734582131.745045,-75.68359375,2.9296875,59.5703125,-84.9609375,0.0
1734582131.748925,1.953125,1.953125,104.4921875,-48.33984375,0.0
1734582131.752805,78.125,-0.9765625,154.78515625,11.71875,0.0
1734582131.756685,21.97265625,0.9765625,103.515625,20.5078125,0.0
1734582131.760565,-41.9921875,3.41796875,-14.6484375,-37.109375,0.0
1734582131.7644453,-41.9921875,7.32421875,37.59765625,-74.21875,0.0
1734582131.7683253,1.953125,8.30078125,64.453125,-46.38671875,0.0
1734582131.7722054,54.19921875,7.8125,98.6328125,8.30078125,0.0
1734582131.7760854,45.8984375,6.34765625,71.77734375,27.34375,0.0
1734582131.7799654,-20.01953125,3.90625,11.71875,-18.5546875,0.0
1734582131.7838454,-59.5703125,3.41796875,80.56640625,-59.5703125,0.0
1734582131.7881026,-18.5546875,2.44140625,16.6015625,-45.41015625,0.0
1734582131.791983,59.08203125,1.46484375,-33.203125,9.27734375,0.0
1734582131.7958632,54.19921875,0.0,65.4296875,22.94921875,0.0
1734582131.7997432,-54.19921875,-1.46484375,90.33203125,-27.83203125,0.0
1734582131.8036234,-81.0546875,-0.9765625,-71.77734375,-68.359375,0.0
1734582131.8075037,-27.34375,-7.8125,-187.01171875,-49.31640625,0.0
1734582131.811384,29.296875,-7.32421875,43.45703125,1.953125,0.0
1734582131.815264,20.99609375,-2.44140625,86.9140625,21.484375,0.0
1734582131.8191442,-46.875,-2.9296875,12.20703125,-21.484375,0.0
1734582131.8230245,-88.37890625,-5.859375,-69.3359375,-78.61328125,0.0
1734582131.8269045,-44.921875,-9.27734375,-3.41796875,-66.40625,0.0
1734582131.8307848,19.53125,-11.23046875,48.828125,1.953125,0.0
1734582131.8350089,6.34765625,-16.11328125,-26.3671875,24.4140625,0.0
1734582131.8388891,-62.98828125,-19.53125,-133.30078125,-29.296875,0.0
1734582131.8427694,-105.46875,-21.484375,-86.42578125,-85.9375,0.0
1734582131.8466496,-73.2421875,-21.97265625,-25.390625,-73.73046875,0.0
1734582131.8505301,-57.12890625,-27.34375,-147.94921875,-9.765625,0.0
1734582131.8544104,4.39453125,-29.296875,-140.625,28.3203125,0.0
1734582131.8582907,-34.66796875,-23.92578125,-85.44921875,-18.06640625,0.0
1734582131.862171,-159.66796875,-22.4609375,-90.8203125,-85.9375,0.0
1734582131.8660514,-115.72265625,-26.3671875,-126.953125,-61.5234375,0.0
1734582131.8699317,-21.484375,-21.484375,-62.5,-13.671875,0.0
1734582131.873812,-12.20703125,-13.671875,79.1015625,15.625,0.0
1734582131.8776922,-45.8984375,-17.08984375,-33.203125,-2.9296875,0.0
1734582131.8819132,-116.2109375,-16.6015625,-105.46875,-73.2421875,0.0
1734582131.8857934,-126.46484375,-14.16015625,-9.27734375,-84.9609375,0.0
1734582131.889674,-37.59765625,-15.625,67.3828125,-41.9921875,0.0
1734582131.8935544,7.32421875,-15.13671875,-68.84765625,6.8359375,0.0
1734582131.897435,-33.203125,-10.7421875,-157.71484375,-6.34765625,0.0
1734582131.9013152,-114.74609375,-9.27734375,-83.0078125,-62.5,0.0
1734582131.9051957,-145.5078125,-13.671875,-120.1171875,-88.8671875,0.0
1734582131.9090762,-76.66015625,-15.625,-148.92578125,-26.85546875,0.0
1734582131.9129567,-20.5078125,-15.13671875,-154.296875,31.73828125,0.0
1734582131.916837,-46.875,-8.7890625,80.56640625,-0.48828125,0.0
1734582131.9207175,-61.03515625,-6.34765625,76.171875,-61.5234375,0.0
1734582131.924598,-102.5390625,-15.625,-50.29296875,-80.56640625,0.0
1734582131.928789,-107.91015625,-20.5078125,0.0,-60.546875,0.0
1734582131.9326694,-9.765625,-15.625,0.0,0.9765625,0.0
1734582131.93655,-39.0625,-14.6484375,0.0,6.8359375,0.0
1734582131.9404306,-140.13671875,-16.6015625,0.0,-65.91796875,0.0
1734582131.9443111,-139.16015625,-14.16015625,0.0,-88.37890625,0.0
1734582131.9481916,-74.21875,-12.6953125,0.0,-62.5,0.0
1734582131.9520721,9.765625,-12.6953125,0.0,-6.34765625,0.0
1734582131.955953,-14.16015625,-10.25390625,0.0,12.6953125,0.0
1734582131.9598334,-92.28515625,-14.6484375,0.0,-40.52734375,0.0
1734582131.963714,-124.51171875,-20.99609375,0.0,-93.26171875,0.0
1734582131.9675944,-76.66015625,-22.94921875,0.0,-59.08203125,0.0
1734582131.971475,2.44140625,-19.04296875,0.0,3.41796875,0.0
1734582131.9756446,-8.30078125,-12.6953125,114.74609375,21.97265625,0.0
1734582131.9795253,-61.5234375,-7.8125,141.11328125,-24.90234375,0.0
1734582131.983406,-146.97265625,-10.7421875,-8.30078125,-84.47265625,0.0
1734582131.9872866,-115.234375,-15.625,-43.45703125,-72.265625,0.0
1734582131.9911673,0.48828125,-13.18359375,109.86328125,-12.6953125,0.0
1734582131.995048,-26.3671875,-11.23046875,39.55078125,1.953125,0.0
1734582131.9989285,-88.8671875,-7.32421875,88.8671875,-33.203125,0.0
1734582132.0028093,-150.390625,-5.859375,58.59375,-75.1953125,0.0
1734582132.00669,-126.953125,0.0,73.73046875,-79.1015625,0.0
1734582132.0105705,-23.92578125,12.20703125,126.46484375,-24.90234375,0.0
1734582132.0144513,3.41796875,10.7421875,5.37109375,14.6484375,0.0
1734582132.018332,-86.9140625,-1.953125,-30.2734375,-22.94921875,0.0
1734582132.0224638,-159.1796875,-3.90625,57.12890625,-91.796875,0.0
1734582132.0263445,-172.36328125,-5.859375,0.9765625,-93.26171875,0.0
1734582132.0302253,-69.82421875,-13.671875,-51.26953125,-35.64453125,0.0
1734582132.034106,-20.5078125,-6.34765625,47.36328125,7.8125,0.0
1734582132.0379868,-80.078125,-5.859375,5.37109375,-33.69140625,0.0
1734582132.0418675,-147.4609375,-7.32421875,-96.19140625,-86.42578125,0.0
1734582132.0457482,-151.85546875,-7.32421875,-244.62890625,-85.44921875,0.0
1734582132.049629,-64.94140625,-7.32421875,-181.15234375,-56.640625,0.0
1734582132.0535097,-45.41015625,-2.9296875,102.05078125,-24.90234375,0.0
1734582132.0573905,-79.1015625,-4.8828125,2.44140625,-32.71484375,0.0
1734582132.0612714,-130.859375,-2.44140625,-39.55078125,-82.51953125,0.0
1734582132.0651522,-142.08984375,0.9765625,12.20703125,-102.05078125,0.0
1734582132.0692718,-91.796875,1.46484375,64.453125,-64.94140625,0.0
1734582132.0731528,-24.4140625,1.953125,-24.90234375,-13.671875,0.0
1734582132.0770335,-58.59375,2.44140625,-141.6015625,-23.4375,0.0
1734582132.0809143,-157.71484375,7.32421875,17.578125,-84.47265625,0.0
1734582132.0847952,-168.45703125,12.6953125,45.8984375,-105.95703125,0.0
1734582132.088676,-82.03125,2.9296875,-107.91015625,-65.4296875,0.0
1734582132.0925567,8.7890625,1.953125,-47.8515625,-2.9296875,0.0
1734582132.0964377,-49.8046875,7.8125,103.515625,-7.32421875,0.0
1734582132.1003184,-117.67578125,8.30078125,83.984375,-76.66015625,0.0
1734582132.1041994,-121.58203125,8.7890625,9.765625,-104.00390625,0.0
1734582132.1080801,-76.66015625,0.9765625,-50.78125,-67.3828125,0.0
1734582132.111961,-37.109375,-2.9296875,102.05078125,-20.01953125,0.0
1734582132.1162415,-69.82421875,4.8828125,83.0078125,0.0,0.0
1734582132.1201224,-122.55859375,9.27734375,-2.9296875,0.0,0.0
1734582132.1240034,-162.59765625,6.8359375,14.16015625,0.0,0.0
1734582132.1278844,-144.53125,3.41796875,67.87109375,0.0,0.0
1734582132.1317654,-24.90234375,2.9296875,31.73828125,0.0,0.0
1734582132.1356463,20.01953125,0.0,-110.83984375,0.0,0.0
1734582132.1395273,-123.046875,-8.30078125,-75.68359375,0.0,0.0
1734582132.1434083,-182.12890625,-6.34765625,-49.31640625,0.0,0.0
1734582132.1472893,-110.3515625,0.0,-38.57421875,0.0,0.0
1734582132.1511703,-50.29296875,0.0,55.6640625,0.0,0.0
1734582132.1550512,-25.87890625,0.9765625,-1.46484375,0.0,0.0
1734582132.1589322,-76.171875,6.34765625,28.3203125,0.0,0.0
1734582132.163187,-147.4609375,1.953125,-8.7890625,-73.73046875,0.0
1734582132.1670682,-120.1171875,-5.37109375,-72.75390625,-75.1953125,0.0
1734582132.1709492,-39.0625,-4.39453125,100.09765625,-22.94921875,0.0
1734582132.1748304,-30.76171875,-4.39453125,156.25,7.32421875,0.0
1734582132.1787114,-161.1328125,-3.41796875,-4.8828125,-23.92578125,0.0
1734582132.1825926,-204.58984375,-0.9765625,-99.609375,-44.43359375,0.0
1734582132.1864736,-111.81640625,-2.44140625,74.70703125,-44.921875,0.0
1734582132.1903548,-41.015625,6.34765625,142.578125,-15.13671875,0.0
1734582132.1942358,-11.71875,12.20703125,166.015625,32.71484375,0.0
1734582132.198117,-97.65625,5.859375,82.51953125,10.7421875,0.0
1734582132.2019982,-141.6015625,0.9765625,85.44921875,-57.12890625,0.0
1734582132.2058792,-112.79296875,-5.37109375,121.58203125,-64.94140625,0.0
1734582132.2101102,-42.48046875,-4.8828125,66.89453125,2.44140625,0.0
1734582132.2139914,0.0,0.9765625,92.28515625,29.296875,0.0
1734582132.2178726,-51.7578125,2.9296875,140.625,-3.41796875,0.0
1734582132.2217538,-182.12890625,-2.44140625,103.02734375,-57.12890625,0.0
1734582132.225635,-173.828125,-6.34765625,62.01171875,-62.01171875,0.0
1734582132.2295163,-23.92578125,-2.44140625,102.5390625,-11.23046875,0.0
1734582132.2333975,10.25390625,0.9765625,133.30078125,30.76171875,0.0
1734582132.2372787,-20.5078125,-5.859375,146.484375,18.06640625,0.0
1734582132.24116,-123.046875,-15.13671875,62.98828125,-17.578125,0.0
1734582132.2450411,-127.44140625,-9.765625,37.109375,-47.36328125,0.0
1734582132.2489223,-31.25,-2.44140625,169.921875,-25.390625,0.0
1734582132.2528036,-2.44140625,-12.6953125,108.3984375,28.3203125,0.0
1734582132.2570286,-29.78515625,-17.578125,60.546875,5.37109375,0.0
1734582132.2609098,-90.8203125,-5.859375,123.53515625,-43.9453125,0.0
1734582132.2647913,-136.23046875,1.953125,159.66796875,-61.03515625,0.0
1734582132.2686725,-61.5234375,-6.8359375,54.6875,-7.8125,0.0
1734582132.272554,-13.671875,-15.625,14.6484375,22.94921875,0.0
1734582132.2764351,-14.6484375,-9.27734375,99.609375,-5.859375,0.0
1734582132.2803166,-38.0859375,-3.41796875,150.87890625,-57.6171875,0.0
1734582132.2841978,-100.09765625,-11.23046875,38.57421875,-83.0078125,0.0
1734582132.2880793,-58.10546875,-9.27734375,-54.19921875,-35.64453125,0.0
1734582132.2919607,60.546875,0.0,162.59765625,13.18359375,0.0
1734582132.295842,33.69140625,-2.44140625,152.34375,16.6015625,0.0
1734582132.2997234,-85.44921875,-3.41796875,85.44921875,-28.3203125,0.0
1734582132.3039026,-101.5625,0.9765625,88.37890625,-78.125,0.0
1734582132.307784,-56.640625,0.9765625,131.34765625,-62.01171875,0.0
1734582132.3116655,23.92578125,-1.953125,79.1015625,-3.41796875,0.0
1734582132.315547,41.015625,1.953125,70.80078125,19.53125,0.0
1734582132.3194284,-67.87109375,-0.48828125,107.421875,-24.90234375,0.0
1734582132.32331,-89.84375,-6.8359375,36.62109375,-64.453125,0.0
1734582132.3271914,-31.73828125,-7.8125,59.5703125,-50.29296875,0.0
1734582132.3310728,25.87890625,-5.37109375,61.03515625,5.37109375,0.0
1734582132.3349543,41.50390625,-2.9296875,2.44140625,16.6015625,0.0
1734582132.3388357,-57.12890625,-0.48828125,121.09375,-46.875,0.0
1734582132.3427172,-114.2578125,2.44140625,59.08203125,-74.70703125,0.0
1734582132.3465986,-65.4296875,0.48828125,15.13671875,-67.3828125,0.0
1734582132.3507583,26.85546875,-5.859375,98.6328125,-34.66796875,0.0
1734582132.35464,41.50390625,-6.34765625,158.203125,-6.8359375,0.0
1734582132.3585215,-59.08203125,-5.37109375,37.109375,-31.73828125,0.0
1734582132.362403,-107.91015625,-6.34765625,-42.96875,-70.80078125,0.0
1734582132.3662846,-53.22265625,-2.9296875,56.15234375,-55.6640625,0.0
1734582132.370166,8.30078125,-4.8828125,70.3125,-18.06640625,0.0
1734582132.3740478,33.203125,-12.6953125,34.66796875,1.46484375,0.0
1734582132.3779292,-26.3671875,-11.71875,-68.84765625,-6.34765625,0.0
1734582132.3818107,-94.23828125,-6.8359375,77.1484375,-76.66015625,0.0
1734582132.3856924,-72.265625,-12.20703125,116.69921875,-100.5859375,0.0
1734582132.3895738,9.27734375,-16.11328125,102.05078125,-37.59765625,0.0
1734582132.3934553,22.4609375,-14.16015625,101.5625,10.25390625,0.0
1734582132.3975954,-34.66796875,-17.08984375,120.60546875,-22.94921875,0.0
1734582132.401477,-108.3984375,-16.6015625,105.95703125,-79.1015625,0.0
1734582132.4053588,-101.5625,-14.16015625,53.7109375,-89.84375,0.0
1734582132.4092402,-17.578125,-12.20703125,118.1640625,-47.8515625,0.0
1734582132.413122,27.34375,-3.41796875,141.6015625,-1.953125,0.0
1734582132.4170036,-4.8828125,-4.39453125,138.18359375,-19.53125,0.0
1734582132.420885,-55.6640625,-5.37109375,-34.1796875,-47.8515625,0.0
1734582132.4247668,-30.76171875,-2.44140625,-68.84765625,-59.08203125,0.0
1734582132.4286485,34.1796875,-4.8828125,178.22265625,-43.9453125,0.0
1734582132.4325302,69.82421875,-6.8359375,142.08984375,-0.48828125,0.0
1734582132.4364116,26.85546875,-11.71875,173.33984375,6.8359375,0.0
1734582132.4402933,-65.91796875,-13.671875,141.11328125,-49.31640625,0.0
1734582132.44441,-110.83984375,-16.6015625,128.41796875,-85.9375,0.0
1734582132.4482918,11.23046875,-17.578125,67.3828125,-51.7578125,0.0
1734582132.4521735,46.38671875,-12.20703125,18.5546875,11.23046875,0.0
1734582132.4560552,-12.6953125,-3.90625,127.9296875,21.484375,0.0
1734582132.4599369,5.37109375,-7.8125,160.64453125,-55.6640625,0.0
1734582132.4638186,-41.9921875,-15.13671875,-32.71484375,-101.5625,0.0
1734582132.4677002,-3.90625,-15.13671875,-205.56640625,-61.5234375,0.0
1734582132.471582,54.6875,-18.06640625,103.02734375,-13.671875,0.0
1734582132.4754636,50.29296875,-17.08984375,172.8515625,-3.90625,0.0
1734582132.4793453,-49.31640625,-15.625,62.98828125,-43.45703125,0.0
1734582132.483227,-119.62890625,-19.04296875,14.6484375,-83.49609375,0.0
1734582132.4871087,-10.7421875,-16.6015625,71.77734375,-60.05859375,0.0
1734582132.491376,45.41015625,-15.625,62.5,-5.37109375,0.0
1734582132.4952579,35.15625,-14.16015625,74.21875,5.859375,0.0
1734582132.4991395,-27.83203125,-11.23046875,120.60546875,-49.8046875,0.0
1734582132.5030215,-78.61328125,-12.6953125,142.08984375,-99.12109375,0.0
1734582132.5069032,-55.17578125,-16.11328125,97.16796875,-80.56640625,0.0
1734582132.510785,43.9453125,-14.6484375,66.40625,-19.53125,0.0
1734582132.514667,69.82421875,-15.625,82.03125,20.5078125,0.0
1734582132.5185487,-28.3203125,-15.13671875,109.375,-16.11328125,0.0
1734582132.5224307,-88.37890625,-12.6953125,123.53515625,-88.37890625,0.0
1734582132.5263126,-74.70703125,-8.7890625,124.0234375,-71.2890625,0.0
1734582132.5301943,-35.64453125,-8.30078125,122.55859375,-22.94921875,0.0
1734582132.5340762,27.83203125,-11.71875,171.875,-9.27734375,0.0
1734582132.5383315,-2.44140625,-11.71875,83.49609375,-24.90234375,0.0
1734582132.5422134,-87.890625,-12.20703125,3.90625,-62.98828125,0.0
1734582132.5460954,-96.6796875,-12.20703125,77.1484375,-73.2421875,0.0
1734582132.5499773,4.8828125,-16.11328125,134.765625,-21.484375,0.0
1734582132.5538592,72.265625,-10.7421875,78.61328125,18.06640625,0.0
1734582132.5577414,-41.9921875,-7.32421875,-6.8359375,-11.23046875,0.0
1734582132.5616233,-88.8671875,-8.30078125,110.83984375,-76.66015625,0.0
1734582132.5655053,-89.35546875,-3.41796875,181.15234375,-85.44921875,0.0
1734582132.5693872,-14.16015625,-2.44140625,132.8125,-17.08984375,0.0
1734582132.5732691,50.29296875,-1.46484375,64.94140625,44.43359375,0.0
1734582132.577151,-12.6953125,1.46484375,134.765625,11.71875,0.0
1734582132.581033,-81.54296875,-0.9765625,98.6328125,-42.96875,0.0
1734582132.5852637,-80.078125,-5.37109375,91.796875,-66.40625,0.0
1734582132.589146,-2.44140625,-5.37109375,109.86328125,-41.015625,0.0
1734582132.593028,37.109375,-1.953125,159.1796875,12.20703125,0.0
1734582132.59691,15.13671875,-2.44140625,136.23046875,3.41796875,0.0
1734582132.6007922,-67.87109375,-7.32421875,89.35546875,-40.0390625,0.0
1734582132.6046743,-99.12109375,-6.34765625,104.98046875,-41.9921875,0.0
1734582132.6085563,-39.55078125,-6.34765625,103.02734375,-12.6953125,0.0
1734582132.6124384,52.734375,-5.859375,150.87890625,19.53125,0.0
1734582132.6163204,44.921875,-4.8828125,73.2421875,37.59765625,0.0
1734582132.6202025,-55.17578125,-4.8828125,44.921875,-19.04296875,0.0
1734582132.6240847,-92.28515625,-0.48828125,184.5703125,-70.80078125,0.0
1734582132.6279666,-46.875,-0.48828125,96.19140625,-26.85546875,0.0
1734582132.6321514,5.37109375,-3.41796875,169.921875,30.2734375,0.0
1734582132.6360335,44.921875,3.90625,228.02734375,27.83203125,0.0
1734582132.6399157,-36.1328125,3.41796875,167.96875,-25.87890625,0.0
1734582132.6437979,-105.95703125,-8.30078125,103.02734375,-59.5703125,0.0
1734582132.64768,-49.8046875,-7.32421875,37.59765625,-12.6953125,0.0
1734582132.6515622,33.69140625,0.0,129.8828125,26.85546875,0.0
1734582132.6554444,74.21875,3.90625,235.83984375,23.4375,0.0
1734582132.6593268,-40.0390625,-1.46484375,81.54296875,-16.6015625,0.0
1734582132.663209,-118.65234375,-5.859375,1.46484375,-48.828125,0.0
1734582132.6670911,-31.73828125,1.953125,200.68359375,-34.1796875,0.0
1734582132.6709733,67.87109375,0.48828125,187.01171875,10.7421875,0.0
1734582132.6748555,65.91796875,-4.39453125,154.296875,29.78515625,0.0
1734582132.67902,-67.87109375,-14.16015625,131.34765625,-16.6015625,0.0
1734582132.682902,-140.625,-18.5546875,164.55078125,-71.77734375,0.0
1734582132.6867845,-61.5234375,-13.18359375,160.64453125,-75.1953125,0.0
1734582132.6906667,9.765625,-11.71875,195.3125,-19.53125,0.0
1734582132.694549,22.4609375,-9.765625,163.0859375,35.64453125,0.0
1734582132.6984313,-41.015625,-5.37109375,104.98046875,4.8828125,0.0
1734582132.7023134,-107.91015625,-2.9296875,152.83203125,-69.3359375,0.0
1734582132.7061958,-55.17578125,-7.32421875,56.640625,-58.10546875,0.0
1734582132.710078,32.2265625,-8.7890625,24.4140625,-6.34765625,0.0
1734582132.7139604,47.36328125,-5.37109375,204.1015625,7.32421875,0.0
1734582132.7178426,-45.8984375,-0.9765625,125.0,-22.4609375,0.0
1734582132.721725,-112.79296875,5.37109375,104.00390625,-72.265625,0.0
1734582132.7258642,-70.80078125,1.953125,124.0234375,-73.73046875,0.0
1734582132.7297463,-13.671875,-2.44140625,148.92578125,-26.3671875,0.0
1734582132.7336287,7.8125,0.0,80.56640625,13.671875,0.0
1734582132.7375112,-17.578125,1.46484375,39.0625,-6.34765625,0.0
1734582132.7413936,-107.421875,0.0,89.84375,-77.1484375,0.0
1734582132.745276,-110.83984375,-0.9765625,33.69140625,-94.23828125,0.0
1734582132.7491581,10.25390625,3.41796875,9.765625,-41.015625,0.0
1734582132.7530406,25.390625,3.41796875,-26.85546875,17.578125,0.0
1734582132.756923,-38.57421875,10.25390625,112.79296875,8.7890625,0.0
1734582132.7608054,-77.1484375,11.71875,103.515625,-62.98828125,0.0
1734582132.7646878,-75.1953125,1.953125,75.1953125,-87.890625,0.0
1734582132.76857,-41.50390625,-3.41796875,65.91796875,-45.41015625,0.0
1734582132.7727075,34.1796875,-4.8828125,112.3046875,-2.44140625,0.0
1734582132.7765899,-14.16015625,-4.8828125,94.23828125,-13.18359375,0.0
1734582132.7804723,-133.7890625,-8.30078125,1.953125,-62.98828125,0.0
1734582132.784355,-113.28125,-11.23046875,-64.94140625,-89.35546875,0.0
1734582132.7882373,-61.03515625,-14.6484375,-46.38671875,-49.8046875,0.0
1734582132.7921197,9.27734375,-12.6953125,98.6328125,3.41796875,0.0
1734582132.7960021,9.765625,-7.8125,-63.4765625,21.97265625,0.0
1734582132.7998846,-60.05859375,-16.6015625,-177.734375,-16.6015625,0.0
1734582132.803767,-99.609375,-19.04296875,83.0078125,-83.0078125,0.0
1734582132.8076496,-40.52734375,-12.20703125,102.05078125,-53.7109375,0.0
1734582132.811532,-7.8125,-8.30078125,133.7890625,-0.48828125,0.0
1734582132.8154144,-32.2265625,-5.37109375,147.94921875,-4.8828125,0.0
1734582132.8195214,-58.10546875,-0.9765625,150.87890625,-54.19921875,0.0
1734582132.8234038,-98.6328125,-4.39453125,67.87109375,-105.95703125,0.0
1734582132.8272865,-70.3125,-10.25390625,5.37109375,-81.54296875,0.0
1734582132.831169,-18.5546875,-2.9296875,139.16015625,-17.08984375,0.0
1734582132.8350515,19.53125,1.953125,156.73828125,10.7421875,0.0
1734582132.838934,-37.59765625,-2.44140625,-22.4609375,-20.99609375,0.0
1734582132.8428166,-122.0703125,-1.953125,-250.9765625,-69.3359375,0.0
1734582132.846699,-76.66015625,5.859375,11.23046875,-57.12890625,0.0
1734582132.8505816,5.37109375,12.20703125,185.546875,11.23046875,0.0
1734582132.854464,24.90234375,8.7890625,141.6015625,23.92578125,0.0
1734582132.8583465,-11.71875,1.46484375,72.75390625,-43.9453125,0.0
1734582132.862229,-107.421875,1.46484375,127.44140625,-112.3046875,0.0
1734582132.866484,-89.84375,0.48828125,145.5078125,-94.7265625,0.0
1734582132.8703666,19.53125,-2.9296875,127.9296875,-26.85546875,0.0
1734582132.8742492,56.15234375,-0.48828125,148.4375,-0.9765625,0.0
1734582132.8781319,-37.109375,-3.41796875,152.83203125,-32.2265625,0.0
1734582132.8820145,-97.65625,-2.9296875,105.95703125,-78.125,0.0
1734582132.8858972,-70.3125,2.9296875,62.01171875,-76.66015625,0.0
1734582132.8897798,23.92578125,4.39453125,102.5390625,-15.13671875,0.0
1734582132.8936625,33.69140625,13.18359375,129.8828125,15.13671875,0.0
1734582132.897545,-51.26953125,8.30078125,138.671875,-21.484375,0.0
1734582132.9014277,-86.42578125,2.44140625,75.1953125,-54.6875,0.0
1734582132.9053104,-80.078125,10.7421875,73.73046875,-60.546875,0.0
1734582132.909193,-10.25390625,11.23046875,169.43359375,-24.90234375,0.0
1734582132.9134152,37.59765625,0.48828125,102.05078125,14.6484375,0.0
1734582132.917298,20.01953125,6.8359375,22.4609375,-11.23046875,0.0
1734582132.9211807,-95.703125,13.18359375,94.7265625,-62.01171875,0.0
1734582132.9250636,-98.14453125,11.71875,131.8359375,-79.1015625,0.0
1734582132.9289463,23.4375,11.71875,11.71875,-31.25,0.0
1734582132.9328291,23.92578125,7.32421875,-54.19921875,15.625,0.0
1734582132.9367118,-66.40625,7.32421875,74.70703125,-18.5546875,0.0
1734582132.9405947,-120.60546875,9.765625,133.30078125,-75.68359375,0.0
1734582132.9444773,-95.21484375,7.32421875,34.66796875,-95.703125,0.0
1734582132.9483602,-10.7421875,-0.9765625,-70.80078125,-55.6640625,0.0
1734582132.9522429,18.06640625,-0.9765625,92.7734375,-4.8828125,0.0
1734582132.9561255,-21.484375,-0.48828125,157.71484375,-9.765625,0.0
1734582132.9603455,-104.00390625,-3.41796875,-53.22265625,-59.08203125,0.0
1734582132.9642284,-133.7890625,4.8828125,-173.33984375,-83.0078125,0.0
1734582132.9681113,-67.87109375,15.625,109.86328125,-51.26953125,0.0
1734582132.9719942,34.1796875,12.20703125,134.765625,-0.9765625,0.0
1734582132.9758768,4.39453125,4.39453125,63.96484375,-6.34765625,0.0
1734582132.9797597,-129.39453125,-6.8359375,12.20703125,-69.82421875,0.0
1734582132.9836426,-116.69921875,-6.8359375,21.484375,-105.46875,0.0
1734582132.9875255,-27.83203125,-3.41796875,99.609375,-74.70703125,0.0
1734582132.9914083,32.71484375,0.0,54.6875,11.23046875,0.0
1734582132.9952912,-21.97265625,-3.90625,17.08984375,35.64453125,0.0
1734582132.999174,-131.34765625,-8.30078125,98.14453125,-32.2265625,0.0
1734582133.003057,-105.46875,3.90625,18.06640625,-65.4296875,0.0
1734582133.0072436,-98.6328125,0.0,32.71484375,-55.17578125,0.0
1734582133.0111265,-47.8515625,-7.8125,134.27734375,-15.13671875,0.0
1734582133.0150094,31.25,-1.46484375,165.0390625,15.625,0.0
1734582133.0188925,-45.8984375,0.0,77.63671875,-14.6484375,0.0
1734582133.0227754,-116.2109375,-5.37109375,1.46484375,-56.15234375,0.0
1734582133.0266583,-71.77734375,-2.44140625,89.35546875,-36.62109375,0.0
1734582133.0305414,21.484375,3.90625,198.2421875,23.92578125,0.0
1734582133.0344243,24.90234375,9.765625,192.3828125,41.9921875,0.0
1734582133.0383072,-14.16015625,9.765625,64.453125,19.04296875,0.0
1734582133.0421903,-141.6015625,8.30078125,116.69921875,-46.38671875,0.0
1734582133.0460732,-91.30859375,10.7421875,161.1328125,-65.91796875,0.0
1734582133.049956,76.66015625,7.8125,122.55859375,-2.9296875,0.0
1734582133.0541222,31.25,8.30078125,121.09375,26.85546875,0.0
1734582133.058005,-23.92578125,6.34765625,171.38671875,-4.8828125,0.0
1734582133.0618882,-60.05859375,-0.48828125,128.90625,-55.17578125,0.0
1734582133.0657713,-53.22265625,-0.48828125,88.37890625,-68.84765625,0.0
1734582133.0696542,23.92578125,7.32421875,132.32421875,-19.04296875,0.0
1734582133.0735373,49.8046875,9.27734375,137.6953125,42.48046875,0.0
1734582133.0774205,13.18359375,6.8359375,169.43359375,20.01953125,0.0
1734582133.0813034,-68.84765625,4.8828125,-23.92578125,-32.2265625,0.0
1734582133.0851865,-91.796875,2.44140625,-77.63671875,-34.66796875,0.0
1734582133.0890696,29.78515625,10.25390625,186.5234375,-5.859375,0.0
1734582133.0929527,95.703125,9.765625,123.046875,40.52734375,0.0
1734582133.0968356,5.859375,2.9296875,84.47265625,30.2734375,0.0
1734582133.100978,-59.08203125,11.23046875,136.23046875,-31.25,0.0
1734582133.104861,-30.2734375,12.6953125,166.015625,-62.5,0.0
1734582133.1087441,51.26953125,6.34765625,81.54296875,-19.53125,0.0
1734582133.1126273,81.54296875,4.8828125,37.59765625,31.73828125,0.0
1734582133.1165104,54.6875,2.44140625,136.71875,14.6484375,0.0
1734582133.1203935,-45.41015625,-1.953125,127.44140625,-41.015625,0.0
1734582133.1242766,-72.265625,3.90625,-20.99609375,-59.5703125,0.0
1734582133.1281598,-23.92578125,6.34765625,-34.66796875,-38.57421875,0.0
1734582133.132043,34.1796875,6.34765625,155.2734375,1.953125,0.0
1734582133.135926,47.8515625,7.8125,145.99609375,28.80859375,0.0
1734582133.1398091,-32.2265625,-1.46484375,86.42578125,-22.94921875,0.0
1734582133.1436923,-61.5234375,-1.953125,48.828125,-85.9375,0.0
1734582133.147811,-69.3359375,4.8828125,130.859375,-52.24609375,0.0
1734582133.151694,-8.30078125,6.34765625,158.69140625,5.37109375,0.0
1734582133.1555774,74.21875,5.37109375,98.14453125,24.90234375,0.0
1734582133.1594605,-29.78515625,6.8359375,106.93359375,-32.2265625,0.0
1734582133.1633437,-106.4453125,8.7890625,111.81640625,-85.44921875,0.0
1734582133.167227,-35.64453125,7.8125,120.60546875,-57.6171875,0.0
1734582133.1711102,34.1796875,4.39453125,-9.27734375,2.9296875,0.0
1734582133.1749933,42.48046875,-0.9765625,-47.36328125,25.87890625,0.0
1734582133.1788766,-47.8515625,-1.46484375,149.90234375,-39.0625,0.0
1734582133.1827598,-114.2578125,-5.37109375,99.12109375,-91.796875,0.0
1734582133.186643,-65.4296875,-0.9765625,124.51171875,-68.84765625,0.0
1734582133.1905262,19.04296875,5.859375,175.29296875,-15.625,0.0
1734582133.194615,41.50390625,8.30078125,176.7578125,-4.39453125,0.0
1734582133.1984982,-39.55078125,0.48828125,111.81640625,-36.62109375,0.0
1734582133.2023814,-107.91015625,2.9296875,50.78125,-64.94140625,0.0
1734582133.2062647,-102.05078125,8.30078125,133.30078125,-61.5234375,0.0
1734582133.210148,-36.1328125,1.953125,235.83984375,-22.94921875,0.0
1734582133.2140312,42.48046875,0.48828125,98.14453125,19.04296875,0.0
1734582133.2179146,-21.97265625,2.44140625,-125.48828125,-12.6953125,0.0
1734582133.221798,-114.74609375,4.8828125,114.2578125,-86.9140625,0.0
1734582133.225681,-88.37890625,4.39453125,182.6171875,-77.1484375,0.0
1734582133.2295644,-21.97265625,4.8828125,178.7109375,-15.13671875,0.0
1734582133.2334478,50.29296875,13.18359375,134.27734375,26.3671875,0.0
1734582133.237331,-11.71875,13.671875,143.5546875,-6.34765625,0.0
1734582133.241561,-86.42578125,6.8359375,163.57421875,-75.68359375,0.0
1734582133.2454443,-75.1953125,0.0,101.07421875,-81.0546875,0.0
1734582133.2493277,-54.19921875,-0.9765625,129.39453125,-36.1328125,0.0
1734582133.253211,10.25390625,2.9296875,184.08203125,7.32421875,0.0
1734582133.2570944,7.8125,7.8125,131.8359375,-5.859375,0.0
1734582133.2609777,-104.4921875,5.37109375,14.16015625,-57.6171875,0.0
1734582133.264861,-133.30078125,-3.41796875,34.1796875,-74.70703125,0.0
1734582133.2687445,-11.71875,5.859375,139.16015625,-35.64453125,0.0
1734582133.2726278,48.828125,8.7890625,123.046875,15.13671875,0.0
1734582133.2765114,-55.17578125,-6.8359375,70.3125,0.48828125,0.0
1734582133.2803948,-121.09375,-1.46484375,107.91015625,-57.12890625,0.0
1734582133.2842782,-123.53515625,6.8359375,154.78515625,-82.51953125,0.0
1734582133.2885108,-50.29296875,4.39453125,0.0,0.0,0.0
1734582133.2923942,16.11328125,5.37109375,0.0,0.0,0.0
1734582133.2962778,-63.96484375,9.765625,0.0,0.0,0.0
1734582133.3001611,-155.2734375,11.71875,0.0,0.0,0.0
1734582133.3040447,-118.65234375,7.8125,0.0,0.0,0.0
1734582133.307928,-63.4765625,1.46484375,0.0,0.0,0.0
1734582133.3118117,-7.8125,-6.8359375,0.0,0.0,0.0
1734582133.3156953,-25.87890625,-8.7890625,0.0,0.0,0.0
1734582133.3195786,-93.75,-1.46484375,0.0,0.0,0.0
1734582133.3234622,-118.65234375,9.765625,0.0,0.0,0.0
1734582133.3273456,-41.9921875,15.13671875,0.0,0.0,0.0
1734582133.3312292,22.4609375,3.41796875,0.0,0.0,0.0
1734582133.3354185,8.30078125,-3.90625,141.6015625,19.53125,0.0
1734582133.339302,-138.18359375,-4.8828125,125.9765625,-29.78515625,0.0
1734582133.3431857,-167.48046875,-1.953125,122.0703125,-85.44921875,0.0
1734582133.3470693,-71.2890625,-8.30078125,126.953125,-63.96484375,0.0
1734582133.3509529,-17.08984375,-8.7890625,108.88671875,-8.30078125,0.0
1734582133.3548365,-31.25,-0.48828125,58.59375,29.296875,0.0
1734582133.35872,-104.98046875,-12.20703125,45.41015625,-2.44140625,0.0
1734582133.3626037,-133.30078125,-11.23046875,115.234375,-86.42578125,0.0
1734582133.3664873,-134.27734375,-7.32421875,64.94140625,-63.96484375,0.0
1734582133.3703709,-50.29296875,-8.30078125,34.1796875,24.4140625,0.0
1734582133.3742545,-23.4375,-6.8359375,139.6484375,31.25,0.0
1734582133.378138,-96.19140625,0.0,69.3359375,-24.90234375,0.0
1734582133.3823016,-138.18359375,8.30078125,78.61328125,-70.80078125,0.0
1734582133.3861852,-124.51171875,10.7421875,137.6953125,-72.265625,0.0
1734582133.3900688,-52.734375,15.13671875,163.0859375,-14.6484375,0.0
1734582133.3939526,-5.37109375,13.18359375,82.51953125,25.390625,0.0
1734582133.3978362,-97.65625,0.0,7.32421875,-4.8828125,0.0
1734582133.4017198,-152.34375,-0.9765625,95.703125,-64.94140625,0.0
1734582133.4056036,-152.34375,-1.46484375,103.02734375,-78.125,0.0
1734582133.4094872,-92.7734375,-5.37109375,297.8515625,-25.87890625,0.0
1734582133.4133708,-44.43359375,-0.9765625,257.32421875,27.83203125,0.0
1734582133.4172547,-79.1015625,7.8125,110.83984375,10.25390625,0.0
1734582133.4211383,-102.05078125,1.46484375,108.3984375,-41.9921875,0.0
1734582133.425022,-107.91015625,-3.41796875,45.8984375,-76.171875,0.0
1734582133.4291716,0.0,-3.41796875,98.14453125,-41.50390625,0.0
1734582133.4330554,0.0,-1.953125,134.27734375,22.4609375,0.0
1734582133.4369392,0.0,3.90625,103.02734375,2.9296875,0.0
1734582133.440823,0.0,-1.46484375,67.87109375,-64.94140625,0.0
1734582133.4447067,0.0,-3.90625,98.6328125,-84.47265625,0.0
1734582133.4485905,0.0,-0.9765625,86.42578125,-31.73828125,0.0
1734582133.4524744,0.0,-4.8828125,153.80859375,5.37109375,0.0
1734582133.456358,0.0,1.46484375,-49.8046875,5.37109375,0.0
1734582133.4602418,0.0,15.625,-125.48828125,-35.64453125,0.0
1734582133.4641256,0.0,13.671875,146.97265625,-84.9609375,0.0
1734582133.4680092,0.0,-8.30078125,104.4921875,-49.8046875,0.0
1734582133.471893,0.0,-11.23046875,141.11328125,8.30078125,0.0
1734582133.4760368,-7.8125,-2.44140625,169.43359375,4.8828125,0.0
1734582133.4799206,-75.68359375,-11.71875,138.18359375,-48.828125,0.0
1734582133.4838045,-105.46875,-20.01953125,38.57421875,-79.58984375,0.0
1734582133.4876883,-49.31640625,-9.765625,-2.9296875,-47.8515625,0.0
1734582133.4915721,36.1328125,3.41796875,135.7421875,23.4375,0.0
1734582133.495456,15.625,-13.18359375,136.71875,39.55078125,0.0
1734582133.4993398,-113.28125,-22.94921875,-1.953125,-26.85546875,0.0
1734582133.5032237,-113.76953125,-12.20703125,-32.71484375,-83.984375,0.0
1734582133.5071075,-42.48046875,-2.44140625,128.90625,-73.2421875,0.0
1734582133.5109913,9.765625,3.90625,180.6640625,-5.37109375,0.0
1734582133.5148752,-2.44140625,3.90625,134.27734375,19.53125,0.0
1734582133.518759,-65.91796875,5.37109375,54.19921875,-20.01953125,0.0
1734582133.5228684,-124.0234375,-6.34765625,137.20703125,-72.75390625,0.0
1734582133.5267525,-88.8671875,-9.27734375,125.48828125,-69.82421875,0.0
1734582133.5306363,20.5078125,-7.8125,101.5625,-8.30078125,0.0
1734582133.5345201,-7.8125,-11.23046875,151.85546875,22.4609375,0.0
1734582133.5384042,-85.44921875,-4.39453125,116.69921875,-24.90234375,0.0
1734582133.542288,-122.0703125,-8.30078125,98.14453125,-76.66015625,0.0
1734582133.546172,-93.26171875,-9.765625,-148.4375,-65.4296875,0.0
1734582133.550056,-41.50390625,-6.34765625,-124.0234375,-7.32421875,0.0
1734582133.5539398,31.25,-3.41796875,179.6875,19.53125,0.0
1734582133.5578237,-13.671875,-4.39453125,131.8359375,-10.7421875,0.0
1734582133.5617077,-130.37109375,-4.39453125,157.71484375,-68.84765625,0.0
1734582133.5655916,-73.73046875,-3.41796875,148.4375,-87.890625,0.0
1734582133.5696774,-2.9296875,-2.44140625,169.43359375,-20.5078125,0.0
1734582133.5735612,32.71484375,2.44140625,130.859375,24.4140625,0.0
1734582133.5774453,-41.015625,2.9296875,74.70703125,-12.6953125,0.0
1734582133.581329,-130.37109375,-9.27734375,138.671875,-68.359375,0.0
1734582133.5852132,-72.75390625,-18.06640625,142.08984375,-81.54296875,0.0
1734582133.5890973,8.7890625,-14.16015625,45.41015625,-32.71484375,0.0
1734582133.592981,22.4609375,-17.578125,113.28125,12.20703125,0.0
1734582133.5968652,-38.57421875,-15.13671875,222.16796875,16.11328125,0.0
1734582133.600749,-80.078125,-16.6015625,115.234375,-49.8046875,0.0
1734582133.604633,-64.94140625,-4.8828125,298.828125,-81.0546875,0.0
1734582133.608517,-0.48828125,5.859375,230.46875,-20.01953125,0.0
1734582133.612401,68.359375,-0.48828125,99.12109375,24.90234375,0.0
1734582133.6166325,0.0,-7.8125,160.64453125,17.578125,0.0
1734582133.6205165,-84.47265625,-11.23046875,83.984375,-48.33984375,0.0
1734582133.6244006,-59.08203125,-3.41796875,94.23828125,-69.82421875,0.0
1734582133.6282847,1.46484375,-5.859375,148.92578125,-48.828125,0.0
1734582133.6321688,38.0859375,-10.25390625,142.08984375,2.44140625,0.0
1734582133.6360528,5.37109375,-8.30078125,63.4765625,18.5546875,0.0
1734582133.639937,-41.50390625,-7.8125,70.3125,-54.19921875,0.0
1734582133.6438212,-56.640625,-1.953125,73.2421875,-79.1015625,0.0
1734582133.6477053,-8.7890625,3.90625,95.21484375,-42.96875,0.0
1734582133.6515894,57.12890625,-1.953125,91.796875,15.625,0.0
1734582133.6554735,20.5078125,-13.18359375,97.65625,21.484375,0.0
1734582133.6593575,-62.5,-12.20703125,151.85546875,-30.76171875,0.0
1734582133.6635695,-132.32421875,-10.25390625,81.0546875,-67.3828125,0.0
1734582133.6674535,-46.38671875,-12.6953125,67.3828125,-44.921875,0.0
1734582133.6713378,33.203125,-2.9296875,148.4375,-3.41796875,0.0
1734582133.675222,7.8125,2.9296875,164.55078125,7.8125,0.0
1734582133.6791062,-35.15625,-1.953125,70.3125,-37.109375,0.0
1734582133.6829903,-71.2890625,-4.39453125,-6.34765625,-81.54296875,0.0
1734582133.6868746,-39.55078125,-7.8125,109.375,-62.98828125,0.0
1734582133.6907587,-6.34765625,-11.71875,206.0546875,3.90625,0.0
1734582133.6946428,3.41796875,-11.71875,59.08203125,21.484375,0.0
1734582133.698527,-24.90234375,-6.34765625,-33.203125,-15.13671875,0.0
1734582133.7024112,-67.3828125,-3.90625,157.2265625,-67.87109375,0.0
1734582133.7062955,-36.1328125,-2.44140625,139.16015625,-82.51953125,0.0
1734582133.7104723,57.6171875,-1.953125,129.8828125,-16.6015625,0.0
1734582133.7143564,42.96875,-4.8828125,143.06640625,24.4140625,0.0
1734582133.7182407,-13.18359375,1.46484375,152.83203125,-3.90625,0.0
1734582133.722125,-26.3671875,8.7890625,133.30078125,-51.26953125,0.0
1734582133.7260094,-18.06640625,2.44140625,68.359375,-49.8046875,0.0
1734582133.7298937,9.27734375,-12.6953125,60.546875,-4.8828125,0.0
1734582133.733778,36.62109375,-9.765625,126.46484375,11.23046875,0.0
1734582133.7376623,-3.41796875,1.953125,174.31640625,-18.06640625,0.0
1734582133.7415464,-73.73046875,3.90625,54.6875,-70.3125,0.0
1734582133.7454307,-34.66796875,3.90625,-28.80859375,-85.9375,0.0
1734582133.749315,23.4375,1.953125,166.9921875,-41.50390625,0.0
1734582133.7531993,33.203125,-3.41796875,152.34375,1.46484375,0.0
1734582133.757355,4.39453125,0.9765625,122.55859375,-16.11328125,0.0
1734582133.7612395,-76.171875,-2.9296875,155.76171875,-80.078125,0.0
1734582133.7651238,-85.44921875,-9.27734375,156.25,-95.21484375,0.0
1734582133.7690082,15.13671875,-6.34765625,88.8671875,-41.50390625,0.0
1734582133.7728925,56.15234375,-14.16015625,89.35546875,3.41796875,0.0
1734582133.7767768,-5.37109375,-21.484375,130.37109375,-14.16015625,0.0
1734582133.7806613,-53.22265625,-15.625,159.66796875,-71.77734375,0.0
1734582133.7845457,-66.89453125,-6.8359375,67.3828125,-74.70703125,0.0
1734582133.78843,-22.94921875,-15.13671875,-57.6171875,-23.4375,0.0
1734582133.7923143,63.96484375,-12.6953125,141.11328125,10.25390625,0.0
1734582133.7961986,31.25,-0.48828125,182.12890625,3.41796875,0.0
1734582133.8000832,-74.70703125,-7.8125,126.46484375,-79.58984375,0.0
1734582133.8042333,-86.9140625,-18.06640625,104.4921875,-118.65234375,0.0
1734582133.8081179,-39.0625,-10.7421875,157.2265625,-78.125,0.0
1734582133.8120022,15.625,-2.9296875,181.15234375,-23.92578125,0.0
1734582133.8158867,8.30078125,-1.46484375,177.734375,-16.11328125,0.0
1734582133.819771,-63.4765625,3.90625,134.27734375,-83.49609375,0.0
1734582133.8236556,-73.73046875,11.71875,62.01171875,-110.83984375,0.0
1734582133.82754,-23.92578125,6.34765625,133.30078125,-82.03125,0.0
1734582133.8314245,36.1328125,-1.953125,-7.32421875,-15.13671875,0.0
1734582133.8353088,25.390625,-0.48828125,-51.7578125,5.859375,0.0
1734582133.8391933,-47.8515625,-3.41796875,190.91796875,-73.2421875,0.0
1734582133.843078,-80.078125,-3.41796875,130.859375,-116.69921875,0.0
1734582133.8469622,-37.109375,-8.30078125,84.9609375,-90.8203125,0.0
1734582133.851088,25.87890625,-16.11328125,125.0,-40.0390625,0.0
1734582133.8549726,22.4609375,-16.6015625,199.70703125,-13.18359375,0.0
1734582133.8588572,-49.8046875,-15.13671875,89.35546875,-40.52734375,0.0
1734582133.8627417,-84.47265625,-11.71875,15.625,-100.09765625,0.0
1734582133.8666263,-26.3671875,-4.8828125,120.1171875,-89.35546875,0.0
1734582133.8705106,30.2734375,-7.8125,140.625,-30.2734375,0.0
1734582133.8743951,24.4140625,-9.765625,74.70703125,-6.8359375,0.0
1734582133.8782797,-26.3671875,-8.30078125,84.47265625,-34.66796875,0.0
1734582133.8821642,-62.5,-4.39453125,154.296875,-85.44921875,0.0
1734582133.8860488,-49.31640625,1.46484375,159.1796875,-84.9609375,0.0
1734582133.8899333,-0.9765625,-7.8125,141.11328125,-39.55078125,0.0
1734582133.8938177,43.9453125,-20.01953125,73.2421875,-17.08984375,0.0
1734582133.8979137,-4.8828125,-15.625,163.0859375,-38.57421875,0.0
1734582133.9017982,-76.66015625,-7.32421875,145.01953125,-83.49609375,0.0
1734582133.9056828,-44.43359375,-1.953125,75.1953125,-82.51953125,0.0
1734582133.9095674,19.53125,0.0,104.00390625,-25.390625,0.0
1734582133.913452,37.59765625,-3.41796875,153.80859375,9.765625,0.0
1734582133.9173367,10.25390625,-5.859375,133.7890625,-20.99609375,0.0
1734582133.9212213,-70.80078125,-7.32421875,-176.26953125,-45.41015625,0.0
1734582133.9251058,-69.82421875,-16.11328125,-169.921875,-44.43359375,0.0
1734582133.9289904,12.6953125,-8.7890625,180.6640625,-20.5078125,0.0
1734582133.932875,50.29296875,1.46484375,138.671875,27.83203125,0.0
1734582133.9367595,13.671875,-4.39453125,130.37109375,-7.32421875,0.0
1734582133.940644,-73.2421875,-11.71875,95.21484375,-67.87109375,0.0
1734582133.9447224,-74.70703125,-8.7890625,122.55859375,-77.1484375,0.0
1734582133.9486072,12.6953125,-5.37109375,101.07421875,-31.73828125,0.0
1734582133.9524918,56.15234375,-5.859375,56.640625,30.2734375,0.0
1734582133.9563763,20.99609375,-7.32421875,142.578125,18.06640625,0.0
1734582133.960261,-59.08203125,-20.5078125,105.46875,-59.08203125,0.0
1734582133.9641457,-81.0546875,-25.390625,-52.734375,-85.44921875,0.0
1734582133.9680305,-19.53125,-20.01953125,-11.71875,-41.50390625,0.0
1734582133.971915,32.71484375,-14.16015625,142.578125,8.30078125,0.0
1734582133.9757996,-1.46484375,-10.25390625,164.55078125,4.8828125,0.0
1734582133.9796844,-65.91796875,-9.27734375,213.8671875,-57.6171875,0.0
1734582133.983569,-64.453125,-11.71875,123.53515625,-76.171875,0.0
1734582133.9874535,-7.8125,-8.30078125,119.140625,-37.59765625,0.0
1734582133.9916809,35.15625,2.9296875,168.9453125,7.8125,0.0
1734582133.9955657,16.6015625,-1.46484375,114.74609375,13.18359375,0.0
1734582133.9994504,-56.15234375,-7.32421875,101.07421875,-32.2265625,0.0
1734582134.0033352,-86.9140625,-4.8828125,118.1640625,-61.03515625,0.0
1734582134.00722,-15.625,-1.953125,85.9375,-38.0859375,0.0
1734582134.0111046,45.41015625,-5.859375,61.03515625,5.859375,0.0
1734582134.0149894,34.66796875,-16.11328125,94.7265625,18.06640625,0.0
1734582134.0188742,-28.3203125,-15.625,102.05078125,-15.13671875,0.0
1734582134.022759,-61.03515625,-6.8359375,119.62890625,-47.8515625,0.0
1734582134.0266435,-26.3671875,-16.6015625,59.08203125,-29.296875,0.0
1734582134.0305283,19.53125,-18.06640625,99.609375,8.30078125,0.0
1734582134.034413,28.80859375,-1.46484375,177.734375,18.5546875,0.0
1734582134.0386195,-28.80859375,-8.7890625,85.44921875,-19.04296875,0.0
1734582134.0425043,-75.1953125,-15.13671875,20.5078125,-52.24609375,0.0
1734582134.046389,-33.203125,-9.765625,106.93359375,-41.015625,0.0
1734582134.050274,36.62109375,-15.13671875,185.546875,0.48828125,0.0
1734582134.054159,56.640625,-20.5078125,92.7734375,40.52734375,0.0
1734582134.0580437,-12.20703125,-18.06640625,14.6484375,2.44140625,0.0
1734582134.0619285,-75.1953125,-17.578125,108.88671875,-60.05859375,0.0
1734582134.0658133,-45.41015625,-14.6484375,158.203125,-55.6640625,0.0
1734582134.069698,17.08984375,-12.20703125,74.70703125,5.37109375,0.0
1734582134.073583,36.62109375,-12.20703125,40.52734375,45.41015625,0.0
1734582134.077468,-22.4609375,-13.671875,189.94140625,9.27734375,0.0
1734582134.0813527,-82.03125,-14.6484375,129.8828125,-50.29296875,0.0
1734582134.0855231,-62.01171875,-16.6015625,83.49609375,-65.4296875,0.0
1734582134.0894082,7.8125,-20.01953125,135.7421875,-9.27734375,0.0
1734582134.093293,38.57421875,-14.16015625,188.4765625,36.1328125,0.0
1734582134.097178,-1.953125,-7.8125,166.50390625,0.0,0.0
1734582134.1010628,-57.6171875,-5.859375,136.71875,-56.15234375,0.0
1734582134.1049478,-50.78125,-6.34765625,123.53515625,-68.359375,0.0
1734582134.1088326,17.578125,-3.90625,110.3515625,-15.625,0.0
1734582134.1127176,64.453125,-0.48828125,207.03125,34.1796875,0.0
1734582134.1166027,25.390625,-2.44140625,158.69140625,16.11328125,0.0
1734582134.1204875,-45.41015625,-5.859375,25.390625,-41.9921875,0.0
1734582134.1243725,-48.828125,-2.44140625,164.55078125,-72.75390625,0.0
1734582134.1282573,10.25390625,-6.8359375,125.9765625,-34.1796875,0.0
1734582134.1324167,58.10546875,-10.25390625,136.23046875,21.484375,0.0
1734582134.1363018,17.08984375,-11.23046875,187.5,16.11328125,0.0
1734582134.1401868,-47.8515625,-14.6484375,193.84765625,-46.38671875,0.0
1734582134.1440718,-54.6875,-17.578125,81.54296875,-75.1953125,0.0
1734582134.1479568,-11.23046875,-19.53125,89.84375,-36.62109375,0.0
1734582134.1518419,36.1328125,-21.484375,208.0078125,14.6484375,0.0
1734582134.1557267,15.625,-17.08984375,194.82421875,19.04296875,0.0
1734582134.1596117,-48.33984375,-5.37109375,94.23828125,-32.2265625,0.0
1734582134.1634967,-82.51953125,-12.20703125,-0.9765625,-78.125,0.0
1734582134.1673818,-33.203125,-15.625,151.85546875,-42.48046875,0.0
1734582134.1712668,35.15625,-16.6015625,195.80078125,14.6484375,0.0
1734582134.1751518,13.18359375,-20.5078125,191.89453125,10.25390625,0.0
1734582134.1792874,-55.17578125,-16.6015625,124.51171875,-41.50390625,0.0
1734582134.1831725,-80.078125,-14.6484375,134.27734375,-96.6796875,0.0
1734582134.1870577,-42.48046875,-15.625,167.96875,-71.2890625,0.0
1734582134.1909428,18.06640625,-16.11328125,202.1484375,-6.8359375,0.0
1734582134.1948278,24.4140625,-13.671875,165.52734375,12.6953125,0.0
1734582134.1987128,-39.55078125,-11.23046875,125.9765625,-31.73828125,0.0
1734582134.2025979,-79.1015625,-11.23046875,90.33203125,-76.66015625,0.0
1734582134.2064831,-43.45703125,-10.25390625,35.15625,-63.96484375,0.0
1734582134.2103682,10.7421875,-4.8828125,120.1171875,0.0,0.0
1734582134.2142532,27.34375,-4.39453125,208.49609375,24.90234375,0.0
1734582134.2181382,-31.73828125,-8.7890625,125.48828125,-38.0859375,0.0
1734582134.2220232,-88.37890625,-15.13671875,24.4140625,-80.078125,0.0
1734582134.2261405,-54.6875,-14.16015625,106.4453125,-73.73046875,0.0
1734582134.2300258,11.23046875,-8.30078125,181.640625,-21.97265625,0.0
1734582134.2339108,26.3671875,-10.7421875,104.4921875,20.5078125,0.0
1734582134.237796,-34.1796875,-17.08984375,47.36328125,-15.625,0.0
1734582134.241681,-83.49609375,-11.23046875,95.703125,-71.77734375,0.0
1734582134.2455664,-45.8984375,-10.25390625,127.9296875,-76.66015625,0.0
1734582134.2494514,19.04296875,-17.08984375,37.59765625,-15.625,0.0
1734582134.2533364,39.0625,-13.671875,17.578125,33.203125,0.0
1734582134.2572217,-7.32421875,-9.27734375,162.109375,-5.37109375,0.0
1734582134.2611067,-59.5703125,-4.39453125,118.1640625,-62.01171875,0.0
1734582134.264992,-51.7578125,-7.8125,30.76171875,-64.94140625,0.0
1734582134.268877,8.7890625,-15.13671875,36.62109375,-24.90234375,0.0
1734582134.2729661,55.17578125,-13.671875,189.94140625,19.53125,0.0
1734582134.2768514,15.13671875,-13.18359375,153.80859375,19.53125,0.0
1734582134.2807367,-65.91796875,-12.20703125,77.63671875,-40.52734375,0.0
1734582134.284622,-70.80078125,-8.30078125,122.55859375,-94.7265625,0.0
1734582134.288507,-2.9296875,-4.8828125,121.09375,-50.78125,0.0
1734582134.2923923,39.55078125,-12.6953125,151.3671875,6.34765625,0.0
1734582134.2962775,10.25390625,-13.18359375,-47.8515625,6.8359375,0.0
1734582134.3001628,-63.4765625,-1.46484375,-98.6328125,-52.24609375,0.0
1734582134.3040478,-72.75390625,4.8828125,169.43359375,-94.7265625,0.0
1734582134.307933,-4.39453125,1.953125,136.23046875,-51.7578125,0.0
1734582134.3118184,26.3671875,-9.27734375,184.5703125,9.765625,0.0
1734582134.3157034,7.32421875,-17.578125,175.29296875,1.46484375,0.0
1734582134.3197768,-61.03515625,-17.08984375,93.26171875,-58.10546875,0.0
1734582134.3236618,-83.984375,-13.671875,47.8515625,-76.66015625,0.0
1734582134.327547,-28.3203125,-18.5546875,32.71484375,-49.8046875,0.0
1734582134.3314323,33.69140625,-21.97265625,163.0859375,0.0,0.0
1734582134.3353176,22.4609375,-21.484375,176.26953125,8.7890625,0.0
1734582134.339203,-48.828125,-19.53125,-19.53125,-40.52734375,0.0
1734582134.3430882,-71.77734375,-13.18359375,2.9296875,-71.2890625,0.0
1734582134.3469734,-24.90234375,-7.32421875,163.0859375,-43.45703125,0.0
1734582134.3508587,22.94921875,-6.34765625,173.33984375,11.71875,0.0
1734582134.354744,6.34765625,-10.7421875,208.49609375,26.85546875,0.0
1734582134.3586292,-47.8515625,-17.08984375,105.46875,-32.2265625,0.0
1734582134.3625145,-77.1484375,-17.08984375,96.6796875,-85.44921875,0.0
1734582134.3667226,-44.43359375,-17.578125,119.140625,-58.10546875,0.0
1734582134.3706079,20.5078125,-20.5078125,113.28125,5.859375,0.0
1734582134.3744934,19.53125,-14.16015625,129.8828125,21.484375,0.0
1734582134.3783786,-44.43359375,-12.6953125,107.421875,-32.71484375,0.0
1734582134.382264,-81.54296875,-11.71875,62.98828125,-79.1015625,0.0
1734582134.3861494,-49.31640625,-12.6953125,28.3203125,-63.96484375,0.0
1734582134.3900347,12.20703125,-15.625,75.68359375,-14.6484375,0.0
1734582134.39392,29.296875,-7.8125,99.609375,19.04296875,0.0
1734582134.3978055,-24.90234375,0.9765625,153.3203125,-11.23046875,0.0
1734582134.4016907,-85.9375,-9.27734375,92.7734375,-81.54296875,0.0
1734582134.405576,-60.546875,-17.08984375,57.6171875,-84.9609375,0.0
1734582134.4094615,19.04296875,-11.71875,180.6640625,-23.92578125,0.0
1734582134.413647,39.55078125,-14.6484375,126.46484375,15.625,0.0
1734582134.4175322,-14.6484375,-17.08984375,95.21484375,-30.76171875,0.0
1734582134.4214177,-69.82421875,-12.20703125,141.11328125,-87.890625,0.0
1734582134.4253032,-51.7578125,-10.25390625,164.0625,-80.078125,0.0
1734582134.4291887,18.5546875,-10.25390625,102.5390625,-20.01953125,0.0
1734582134.433074,50.78125,-15.625,69.82421875,24.90234375,0.0
1734582134.4369595,7.32421875,-15.625,138.18359375,-4.8828125,0.0
1734582134.440845,-50.29296875,-8.30078125,174.31640625,-67.87109375,0.0
1734582134.4447303,-48.33984375,-6.8359375,151.85546875,-69.82421875,0.0
1734582134.4486158,10.25390625,-6.34765625,84.47265625,-9.27734375,0.0
1734582134.4525013,45.8984375,0.48828125,164.55078125,22.94921875,0.0
1734582134.4563868,-2.44140625,5.859375,158.69140625,-4.39453125,0.0
1734582134.4605527,-68.84765625,6.8359375,108.3984375,-64.453125,0.0
1734582134.4644382,-59.5703125,9.765625,99.12109375,-85.9375,0.0
1734582134.4683237,2.44140625,8.7890625,161.1328125,-47.36328125,0.0
1734582134.4722092,38.57421875,0.48828125,177.24609375,2.9296875,0.0
1734582134.4760947,10.7421875,-3.41796875,144.04296875,-2.9296875,0.0
1734582134.4799802,-55.17578125,-11.71875,115.72265625,-51.26953125,0.0
1734582134.4838657,-62.98828125,-14.16015625,73.2421875,-93.26171875,0.0
1734582134.4877512,-16.11328125,-1.953125,125.9765625,-70.80078125,0.0
1734582134.4916368,21.97265625,0.48828125,27.83203125,1.953125,0.0
1734582134.4955223,11.23046875,-6.34765625,-71.2890625,-8.7890625,0.0
1734582134.499408,-56.640625,-7.8125,125.9765625,-73.2421875,0.0
1734582134.5032935,-71.2890625,-7.8125,104.00390625,-101.07421875,0.0
1734582134.5074453,-17.08984375,-9.765625,104.00390625,-73.73046875,0.0
1734582134.511331,29.78515625,-4.39453125,177.734375,8.7890625,0.0
1734582134.5152166,24.4140625,-2.44140625,193.84765625,23.92578125,0.0
1734582134.519102,-41.015625,-3.41796875,101.07421875,-63.96484375,0.0
1734582134.5229878,-69.3359375,-5.859375,-16.11328125,-98.14453125,0.0
1734582134.5268734,-26.85546875,-11.23046875,73.2421875,-65.4296875,0.0
1734582134.5307589,21.484375,-11.71875,202.1484375,-21.97265625,0.0
1734582134.5346446,26.3671875,-5.37109375,86.42578125,5.859375,0.0
1734582134.53853,-30.2734375,-4.8828125,-14.16015625,-37.59765625,0.0
1734582134.5424159,-86.9140625,-6.8359375,147.94921875,-99.12109375,0.0
1734582134.5463014,-47.36328125,-8.30078125,172.8515625,-81.54296875,0.0
1734582134.5501869,26.3671875,-12.6953125,158.69140625,-20.99609375,0.0
1734582134.5543265,0.0,-10.25390625,94.23828125,5.37109375,0.0
1734582134.5582123,0.0,-4.8828125,150.390625,-39.0625,0.0
1734582134.5620978,0.0,-4.39453125,151.85546875,-96.6796875,0.0
1734582134.5659835,0.0,-5.37109375,122.55859375,-91.30859375,0.0
1734582134.5698693,0.0,-7.32421875,139.6484375,-30.76171875,0.0
1734582134.5737548,0.0,-5.859375,120.60546875,4.8828125,0.0
1734582134.5776405,0.0,-5.859375,137.6953125,-34.1796875,0.0
1734582134.5815263,0.0,-8.30078125,23.4375,-96.6796875,0.0
1734582134.5854118,0.0,-1.46484375,-28.3203125,-98.6328125,0.0
1734582134.5892975,0.0,6.34765625,174.31640625,-44.921875,0.0
1734582134.5931833,0.0,-3.90625,160.64453125,7.32421875,0.0
1734582134.597069,0.0,-8.7890625,142.578125,-20.99609375,0.0
1734582134.601172,-96.19140625,-2.9296875,147.4609375,-89.35546875,0.0
1734582134.6050577,-68.84765625,0.48828125,136.71875,-97.65625,0.0
1734582134.6089435,-7.8125,-1.46484375,117.67578125,-42.96875,0.0
1734582134.6128292,23.4375,-8.7890625,117.1875,1.46484375,0.0
1734582134.616715,-19.04296875,-8.30078125,121.09375,-15.13671875,0.0
1734582134.6206007,-88.8671875,-4.39453125,125.48828125,-92.28515625,0.0
1734582134.6244864,-70.80078125,-3.90625,-5.859375,-124.51171875,0.0
1734582134.6283722,1.46484375,-7.32421875,-134.27734375,-68.84765625,0.0
1734582134.6322577,36.1328125,-6.8359375,148.4375,-23.4375,0.0
1734582134.6361434,2.44140625,-8.30078125,209.47265625,-51.26953125,0.0
1734582134.6400292,-58.59375,-13.18359375,159.1796875,-100.09765625,0.0
1734582134.643915,-66.89453125,-12.20703125,100.09765625,-93.26171875,0.0
1734582134.6480098,3.90625,-2.44140625,167.96875,-49.31640625,0.0
1734582134.6518955,48.33984375,2.44140625,190.91796875,-8.7890625,0.0
1734582134.6557813,1.46484375,-7.32421875,155.2734375,-5.859375,0.0
1734582134.659667,-77.1484375,-14.16015625,158.69140625,-66.89453125,0.0
1734582134.6635528,-78.61328125,-9.27734375,133.30078125,-102.5390625,0.0
1734582134.6674387,-10.7421875,-11.23046875,142.578125,-57.6171875,0.0
1734582134.6713245,33.69140625,-15.625,-21.484375,8.7890625,0.0
1734582134.6752102,18.06640625,-2.44140625,-57.12890625,9.765625,0.0
1734582134.679096,-38.0859375,6.8359375,187.5,-62.01171875,0.0
1734582134.6829817,-48.33984375,2.44140625,147.94921875,-98.14453125,0.0
1734582134.6868677,-5.859375,-4.8828125,136.23046875,-65.4296875,0.0
1734582134.6907535,47.36328125,-11.23046875,144.04296875,-3.41796875,0.0
1734582134.6948285,0.0,-11.71875,179.6875,22.94921875,0.0
1734582134.6987145,0.0,-5.859375,108.3984375,-36.62109375,0.0
1734582134.7026002,0.0,-5.859375,22.4609375,-95.21484375,0.0
1734582134.706486,0.0,-9.27734375,146.484375,-78.61328125,0.0
1734582134.710372,0.0,-8.30078125,175.29296875,-7.32421875,0.0
1734582134.7142577,0.0,-23.4375,31.25,33.69140625,0.0
1734582134.7181437,0.0,-26.3671875,43.45703125,-17.578125,0.0
1734582134.7220294,0.0,-11.23046875,150.87890625,-74.21875,0.0
1734582134.7259154,0.0,-10.25390625,138.18359375,-69.3359375,0.0
1734582134.7298012,0.0,-6.8359375,161.1328125,-10.25390625,0.0
1734582134.733687,0.0,-6.8359375,98.14453125,42.96875,0.0
1734582134.737573,0.0,-9.765625,111.81640625,-2.44140625,0.0
1734582134.7417731,-85.9375,-10.25390625,119.140625,-81.54296875,0.0
1734582134.745659,-39.0625,-16.11328125,93.26171875,-74.21875,0.0
1734582134.749545,14.16015625,-21.97265625,123.53515625,-4.39453125,0.0
1734582134.753431,32.2265625,-15.13671875,175.29296875,32.71484375,0.0
1734582134.757317,-14.6484375,-9.27734375,130.37109375,-6.8359375,0.0
1734582134.7612028,-85.44921875,-9.765625,34.66796875,-64.94140625,0.0
1734582134.7650888,-63.4765625,-8.7890625,71.2890625,-67.87109375,0.0
1734582134.7689748,9.27734375,-10.7421875,103.515625,-13.671875,0.0
1734582134.7728608,35.64453125,-6.8359375,156.73828125,31.73828125,0.0
1734582134.7767467,-33.69140625,-7.32421875,80.078125,2.44140625,0.0
1734582134.7806325,-94.7265625,-6.34765625,30.76171875,-65.4296875,0.0
1734582134.7845185,-62.98828125,-0.9765625,159.1796875,-81.54296875,0.0
1734582134.7886927,-8.30078125,5.37109375,128.41796875,-27.34375,0.0
1734582134.7925787,39.0625,5.37109375,98.6328125,28.80859375,0.0
1734582134.7964647,0.0,-2.9296875,126.953125,8.30078125,0.0
1734582134.8003507,-80.56640625,-7.32421875,156.25,-63.96484375,0.0
1734582134.8042367,-85.44921875,-4.8828125,75.1953125,-81.0546875,0.0
1734582134.8081226,-37.109375,-0.48828125,6.34765625,-37.59765625,0.0
1734582134.8120089,18.5546875,1.46484375,151.85546875,9.765625,0.0
1734582134.8158948,-12.6953125,0.9765625,163.0859375,7.8125,0.0
1734582134.8197808,-98.14453125,4.39453125,230.46875,-51.7578125,0.0
1734582134.8236668,-92.7734375,2.9296875,195.80078125,-85.44921875,0.0
1734582134.8275528,-15.625,4.8828125,93.75,-47.36328125,0.0
1734582134.8314388,22.4609375,7.32421875,217.28515625,22.4609375,0.0
1734582134.835604,1.953125,-6.34765625,52.24609375,22.4609375,0.0
1734582134.83949,-56.640625,-12.6953125,-143.06640625,-42.96875,0.0
1734582134.8433762,-79.1015625,-8.7890625,131.8359375,-88.37890625,0.0
1734582134.8472621,-29.296875,-4.39453125,140.13671875,-64.453125,0.0
1734582134.8511481,8.7890625,-8.30078125,86.42578125,0.48828125,0.0
1734582134.8550344,-5.859375,-12.20703125,116.2109375,13.671875,0.0
1734582134.8589203,-60.05859375,-9.765625,83.49609375,-64.94140625,0.0
1734582134.8628066,-99.12109375,-8.7890625,92.28515625,-117.1875,0.0
1734582134.8666925,-57.12890625,-7.8125,-82.03125,-75.68359375,0.0
1734582134.8705788,16.11328125,-4.39453125,-99.12109375,-12.6953125,0.0
1734582134.8744648,12.20703125,-2.9296875,186.5234375,-2.9296875,0.0
1734582134.878351,-50.78125,-3.90625,98.6328125,-45.8984375,0.0
1734582134.882495,-73.2421875,-6.34765625,88.37890625,-101.07421875,0.0
1734582134.886381,-9.765625,0.9765625,112.3046875,-97.65625,0.0
1734582134.8902671,32.71484375,11.23046875,142.08984375,-36.62109375,0.0
1734582134.8941534,7.8125,6.34765625,79.58984375,3.41796875,0.0
1734582134.8980396,-53.22265625,1.46484375,-54.19921875,-44.43359375,0.0
1734582134.9019256,-88.37890625,-1.46484375,31.25,-95.703125,0.0
1734582134.9058118,-46.875,-7.32421875,102.05078125,-92.7734375,0.0
1734582134.909698,15.13671875,-2.44140625,18.06640625,-35.15625,0.0
1734582134.9135842,29.78515625,3.41796875,-17.08984375,23.4375,0.0
1734582134.9174702,-23.4375,0.0,112.3046875,-17.578125,0.0
1734582134.9213564,-71.77734375,-3.41796875,143.5546875,-87.40234375,0.0
1734582134.9252427,-55.6640625,-2.44140625,78.61328125,-95.703125,0.0
1734582134.9293718,-1.953125,-0.9765625,44.921875,-39.55078125,0.0
1734582134.933258,24.90234375,6.34765625,154.78515625,5.859375,0.0
1734582134.9371443,-39.0625,9.27734375,105.95703125,-24.4140625,0.0
1734582134.9410305,-113.28125,0.9765625,51.7578125,-89.35546875,0.0
1734582134.9449167,-88.37890625,-2.44140625,54.6875,-91.796875,0.0
1734582134.948803,-19.53125,2.9296875,75.1953125,-31.25,0.0
1734582134.9526894,42.48046875,1.46484375,175.78125,2.9296875,0.0
1734582134.9565756,-41.50390625,-7.32421875,-117.1875,-4.8828125,0.0
1734582134.9604619,-134.27734375,-0.48828125,-165.0390625,-64.94140625,0.0
1734582134.964348,-66.89453125,7.8125,166.9921875,-89.35546875,0.0
1734582134.9682343,-14.6484375,8.30078125,119.62890625,-38.0859375,0.0
1734582134.9721205,5.859375,4.39453125,138.18359375,4.39453125,0.0
1734582134.9762223,-30.76171875,0.9765625,156.73828125,-10.7421875,0.0
1734582134.9801087,-88.37890625,-0.48828125,155.2734375,-70.3125,0.0
1734582134.983995,-104.4921875,-3.41796875,69.3359375,-84.9609375,0.0
1734582134.9878812,-42.48046875,-3.90625,25.390625,-36.62109375,0.0
1734582134.9917676,20.5078125,1.46484375,166.015625,8.7890625,0.0
1734582134.9956539,6.8359375,-1.46484375,148.92578125,3.90625,0.0
1734582134.99954,-82.03125,-9.765625,-14.16015625,-65.91796875,0.0
1734582135.0034263,-97.16796875,0.0,8.7890625,-93.75,0.0
1734582135.0073128,-23.92578125,12.6953125,152.34375,-50.78125,0.0
1734582135.011199,7.32421875,10.25390625,176.26953125,2.9296875,0.0
1734582135.0150852,0.9765625,6.34765625,187.01171875,10.25390625,0.0
1734582135.0189717,-81.0546875,3.90625,66.40625,-44.43359375,0.0
1734582135.0230572,-107.421875,1.46484375,98.6328125,-85.9375,0.0
1734582135.0269437,-51.26953125,-0.48828125,122.55859375,-62.98828125,0.0
1734582135.03083,-7.8125,-7.8125,107.91015625,11.23046875,0.0
1734582135.0347164,-42.48046875,5.37109375,160.15625,18.5546875,0.0
1734582135.0386026,-86.9140625,6.8359375,64.453125,-47.36328125,0.0
1734582135.042489,-77.63671875,4.8828125,7.32421875,-93.26171875,0.0
1734582135.0463753,-86.42578125,9.765625,-30.76171875,-60.05859375,0.0
1734582135.0502617,1.46484375,0.48828125,-58.59375,11.23046875,0.0
1734582135.054148,-23.4375,3.41796875,164.55078125,20.99609375,0.0
1734582135.0580344,-139.6484375,-0.48828125,133.7890625,-26.85546875,0.0
1734582135.0619206,-116.2109375,-5.37109375,104.00390625,-52.734375,0.0
1734582135.065807,-30.76171875,5.37109375,115.72265625,-46.38671875,0.0
1734582135.0698802,-1.46484375,5.859375,145.01953125,-9.27734375,0.0
1734582135.0737667,-25.390625,7.32421875,109.375,25.87890625,0.0
1734582135.0776532,-53.7109375,1.46484375,40.0390625,-17.08984375,0.0
1734582135.0815394,-83.984375,8.30078125,86.42578125,-86.42578125,0.0
1734582135.0854259,-74.70703125,3.90625,117.67578125,-75.1953125,0.0
1734582135.0893123,-22.94921875,-3.41796875,62.01171875,-11.71875,0.0
1734582135.0931988,-2.44140625,-4.39453125,19.04296875,28.3203125,0.0
1734582135.0970852,-88.8671875,-11.71875,102.5390625,-16.6015625,0.0
1734582135.1009715,-111.328125,-7.8125,140.625,-77.1484375,0.0
1734582135.104858,-76.66015625,2.9296875,47.36328125,-71.2890625,0.0
1734582135.1087444,-75.1953125,-9.27734375,-0.48828125,-23.4375,0.0
1734582135.1126308,-53.22265625,-15.13671875,161.1328125,9.27734375,0.0
1734582135.1168225,-74.70703125,-0.48828125,150.87890625,-21.97265625,0.0
1734582135.120709,-126.953125,1.953125,62.98828125,-83.49609375,0.0
1734582135.1245954,-69.3359375,-7.32421875,72.75390625,-79.58984375,0.0
1734582135.1284819,-10.7421875,-12.20703125,134.27734375,-22.94921875,0.0
1734582135.1323683,-17.578125,-11.71875,131.8359375,41.015625,0.0
1734582135.136255,-67.3828125,-14.6484375,42.96875,29.296875,0.0
1734582135.1401415,-97.16796875,-8.30078125,25.87890625,-64.94140625,0.0
1734582135.144028,-93.75,-6.34765625,32.71484375,-102.5390625,0.0
1734582135.1479144,-33.203125,-13.18359375,76.66015625,-50.78125,0.0
1734582135.1518009,-34.1796875,-3.90625,133.30078125,-0.48828125,0.0
1734582135.1556873,-75.1953125,-4.8828125,115.234375,-7.32421875,0.0
1734582135.1595738,-140.13671875,-11.71875,93.75,-53.7109375,0.0
1734582135.1637466,-136.23046875,-19.04296875,59.5703125,-61.5234375,0.0
1734582135.167633,-30.2734375,-14.16015625,56.15234375,-12.20703125,0.0
1734582135.1715198,6.34765625,5.859375,126.46484375,20.01953125,0.0
1734582135.1754062,4.8828125,2.9296875,140.625,4.8828125,0.0
1734582135.1792927,-62.01171875,-3.41796875,3.90625,-47.8515625,0.0
1734582135.1831794,-121.58203125,-6.8359375,-135.7421875,-90.33203125,0.0
1734582135.1870658,-43.9453125,-17.578125,36.1328125,-54.19921875,0.0
1734582135.1909525,-29.78515625,-16.6015625,174.8046875,-3.41796875,0.0
1734582135.194839,-48.828125,-16.11328125,9.27734375,7.32421875,0.0
1734582135.1987257,-69.82421875,-30.76171875,-145.99609375,-25.87890625,0.0
1734582135.2026122,-125.48828125,-24.90234375,67.87109375,-89.35546875,0.0
1734582135.2064989,-92.28515625,-8.30078125,96.19140625,-64.94140625,0.0
1734582135.2106555,-21.484375,-13.671875,59.08203125,17.578125,0.0
1734582135.2145422,-7.32421875,-13.18359375,109.375,10.7421875,0.0
1734582135.2184289,-147.94921875,5.37109375,119.140625,-32.71484375,0.0
1734582135.2223153,-136.23046875,12.6953125,67.87109375,-67.87109375,0.0
1734582135.226202,7.32421875,-3.41796875,14.16015625,-57.12890625,0.0
1734582135.2300887,-1.46484375,-0.48828125,78.125,-2.44140625,0.0
1734582135.2339754,-33.69140625,4.39453125,108.3984375,22.94921875,0.0
1734582135.2378619,-30.76171875,0.0,116.69921875,-28.80859375,0.0
1734582135.2417486,-79.58984375,0.9765625,-78.125,-86.42578125,0.0
1734582135.2456353,-95.21484375,-2.9296875,-148.92578125,-72.265625,0.0
1734582135.249522,-28.3203125,-5.37109375,162.59765625,-16.11328125,0.0
1734582135.2534084,22.94921875,-14.6484375,145.5078125,18.5546875,0.0
1734582135.2575417,-51.7578125,-18.06640625,121.09375,-24.4140625,0.0
1734582135.2614284,-87.890625,-11.23046875,111.328125,-96.6796875,0.0
1734582135.265315,-106.93359375,2.9296875,68.84765625,-106.4453125,0.0
1734582135.2692018,-50.29296875,-2.44140625,49.31640625,-40.0390625,0.0
1734582135.2730885,-12.20703125,5.37109375,83.49609375,-4.8828125,0.0
1734582135.2769752,-33.203125,7.32421875,113.76953125,-24.4140625,0.0
1734582135.2808619,-63.96484375,3.90625,122.0703125,-80.56640625,0.0
1734582135.2847486,-65.4296875,-5.37109375,20.99609375,-82.03125,0.0
1734582135.2886353,-29.78515625,-12.20703125,-1.953125,-22.4609375,0.0
1734582135.292522,-11.23046875,-4.8828125,158.69140625,4.39453125,0.0
1734582135.2964087,-19.04296875,-0.48828125,164.55078125,-12.6953125,0.0
1734582135.3002954,-95.703125,11.23046875,91.796875,-74.21875,0.0
1734582135.3044193,-75.1953125,4.8828125,10.7421875,-92.28515625,0.0
1734582135.308306,-52.24609375,-6.34765625,138.671875,-34.66796875,0.0
1734582135.3121927,-27.83203125,-7.32421875,149.4140625,3.41796875,0.0
1734582135.3160796,-24.90234375,-15.13671875,118.65234375,-7.32421875,0.0
1734582135.3199663,-151.85546875,3.90625,75.1953125,-74.21875,0.0
1734582135.323853,-141.6015625,-2.9296875,23.4375,-93.26171875,0.0
1734582135.32774,0.9765625,-22.94921875,109.375,-36.1328125,0.0
1734582135.3316267,-21.484375,0.9765625,-70.3125,1.46484375,0.0
1734582135.3355134,-61.5234375,-8.7890625,-106.4453125,-0.48828125,0.0
1734582135.3394003,-34.66796875,-16.11328125,143.5546875,-52.734375,0.0
1734582135.343287,-40.0390625,-19.53125,115.72265625,-82.03125,0.0
1734582135.3471737,-31.25,-16.6015625,140.625,-48.828125,0.0
1734582135.3512774,-1.46484375,-6.8359375,0.0,16.11328125,0.0
1734582135.355164,21.484375,-17.578125,0.0,37.109375,0.0
1734582135.359051,-106.93359375,-18.06640625,0.0,-61.03515625,0.0
1734582135.3629377,-138.18359375,-6.34765625,0.0,-128.90625,0.0
1734582135.3668246,-45.8984375,-7.8125,0.0,-76.171875,0.0
1734582135.3707113,-25.390625,-14.16015625,0.0,-35.64453125,0.0
1734582135.3745983,-42.96875,-15.13671875,0.0,-24.90234375,0.0
1734582135.378485,-71.77734375,-11.71875,0.0,-59.08203125,0.0
1734582135.382372,-116.2109375,-14.16015625,0.0,-109.86328125,0.0
1734582135.3862588,-124.51171875,2.44140625,0.0,-115.234375,0.0
1734582135.3901455,-41.015625,-2.9296875,0.0,-57.6171875,0.0
1734582135.3940325,-24.4140625,-23.92578125,0.0,-7.32421875,0.0
1734582135.397715,0.0,-8.30078125,158.203125,0.0,0.0
1734582135.4016018,0.0,-10.25390625,170.41015625,0.0,0.0
1734582135.4054885,0.0,-19.53125,81.0546875,0.0,0.0
1734582135.4093754,0.0,-12.6953125,4.39453125,0.0,0.0
1734582135.4132621,0.0,1.953125,111.328125,0.0,0.0
1734582135.4171488,0.0,4.39453125,133.30078125,0.0,0.0
1734582135.4210358,0.0,-19.04296875,39.0625,0.0,0.0
1734582135.4249225,0.0,-9.765625,-32.71484375,0.0,0.0
1734582135.4288092,0.0,2.44140625,49.8046875,0.0,0.0
1734582135.432696,0.0,-8.30078125,104.98046875,0.0,0.0
1734582135.4365828,0.0,-12.6953125,241.69921875,0.0,0.0
1734582135.4404695,0.0,-25.390625,173.33984375,0.0,0.0
1734582135.444543,-79.1015625,-15.625,95.21484375,-78.61328125,0.0
1734582135.4484296,-21.484375,1.46484375,137.20703125,-28.3203125,0.0
1734582135.4523165,-36.62109375,0.0,108.3984375,7.8125,0.0
1734582135.4562032,1.953125,-8.30078125,156.25,-21.484375,0.0
1734582135.4600902,-42.96875,-3.41796875,165.0390625,-80.56640625,0.0
1734582135.4639769,-58.59375,-12.6953125,44.921875,-76.171875,0.0
1734582135.4678638,23.4375,-20.01953125,-36.62109375,-15.13671875,0.0
1734582135.4717505,16.6015625,-5.37109375,147.4609375,12.20703125,0.0
1734582135.4756374,-0.9765625,-4.8828125,186.03515625,-17.578125,0.0
1734582135.4795241,-68.84765625,2.44140625,109.86328125,-79.1015625,0.0
1734582135.483411,-77.63671875,11.23046875,47.8515625,-93.26171875,0.0
1734582135.4872978,17.08984375,-1.46484375,136.23046875,-29.296875,0.0
