timestamps,TP9,AF7,AF8,TP10,Right AUX
1734581133.0004964,-45.41015625,-37.109375,-48.33984375,-30.76171875,0.0
1734581133.004402,-40.52734375,-36.1328125,-22.94921875,-25.390625,0.0
1734581133.0083075,-35.64453125,-37.109375,3.41796875,-26.3671875,0.0
1734581133.012213,-37.109375,-36.62109375,-22.4609375,-12.6953125,0.0
1734581133.0161185,-31.73828125,-30.76171875,-47.8515625,1.953125,0.0
1734581133.0200243,-27.34375,-28.3203125,-46.38671875,-13.18359375,0.0
1734581133.0239298,-31.25,-31.73828125,-11.23046875,-28.80859375,0.0
1734581133.0278354,-29.296875,-37.109375,-19.53125,-27.34375,0.0
1734581133.031741,-23.92578125,-41.50390625,-109.375,-20.01953125,0.0
1734581133.0356464,-26.85546875,-40.0390625,-21.97265625,-28.3203125,0.0
1734581133.039552,-22.94921875,-40.0390625,11.71875,-33.203125,0.0
1734581133.0434575,-21.484375,-40.52734375,-48.828125,-35.15625,0.0
1734581133.0473697,-19.53125,-36.1328125,-27.34375,-32.2265625,0.0
1734581133.0512753,-17.08984375,-36.1328125,-4.8828125,-26.3671875,0.0
1734581133.0551808,-19.04296875,-42.96875,-9.27734375,-30.2734375,0.0
1734581133.0590866,-15.13671875,-45.41015625,-36.62109375,-30.2734375,0.0
1734581133.062992,-22.94921875,-39.0625,-38.0859375,-32.2265625,0.0
1734581133.0668976,-37.109375,-36.62109375,-54.19921875,-32.71484375,0.0
1734581133.0708032,-36.62109375,-38.0859375,-47.36328125,-35.15625,0.0
1734581133.0747087,-27.34375,-38.57421875,-71.2890625,-31.25,0.0
1734581133.0786142,-33.69140625,-34.1796875,-70.3125,-23.92578125,0.0
1734581133.0825198,-33.69140625,-27.83203125,9.765625,-25.390625,0.0
1734581133.0864255,-29.296875,-26.3671875,-5.37109375,-24.90234375,0.0
1734581133.090331,-32.71484375,-35.64453125,-57.6171875,-25.87890625,0.0
1734581133.0942426,-23.4375,-35.64453125,-31.25,-25.390625,0.0
1734581133.098148,-23.4375,-30.76171875,-3.90625,-22.94921875,0.0
1734581133.1020536,-33.69140625,-35.15625,-33.203125,-16.11328125,0.0
1734581133.1059592,-32.71484375,-42.48046875,-62.5,-17.578125,0.0
1734581133.1098647,-25.87890625,-42.48046875,-46.875,-22.94921875,0.0
1734581133.1137702,-16.6015625,-42.48046875,-48.33984375,-19.53125,0.0
1734581133.1176758,-20.01953125,-43.9453125,-75.1953125,-22.94921875,0.0
1734581133.1215813,-24.90234375,-36.62109375,-127.9296875,-14.16015625,0.0
1734581133.125487,-26.85546875,-32.71484375,-58.10546875,-14.16015625,0.0
1734581133.1293926,-23.92578125,-37.59765625,-10.25390625,-22.4609375,0.0
1734581133.1332982,-18.5546875,-39.55078125,-54.19921875,-20.5078125,0.0
1734581133.1372037,-22.94921875,-45.8984375,-73.73046875,-24.90234375,0.0
1734581133.1411145,-29.78515625,-44.921875,0.0,-27.34375,0.0
1734581133.14502,-28.3203125,-39.55078125,0.0,-30.76171875,0.0
1734581133.1489255,-31.73828125,-41.015625,0.0,-32.2265625,0.0
1734581133.152831,-34.1796875,-37.109375,0.0,-25.87890625,0.0
1734581133.1567366,-30.2734375,-31.73828125,0.0,-28.80859375,0.0
1734581133.1606421,-26.3671875,-32.71484375,0.0,-33.203125,0.0
1734581133.164548,-27.34375,-35.64453125,0.0,-23.4375,0.0
1734581133.1684535,-31.73828125,-40.52734375,0.0,-22.94921875,0.0
1734581133.172359,-35.64453125,-37.109375,0.0,-34.1796875,0.0
1734581133.1762645,-31.73828125,-34.66796875,0.0,-29.78515625,0.0
1734581133.18017,-25.390625,-35.15625,0.0,-17.578125,0.0
1734581133.1840756,-27.34375,-31.73828125,0.0,-21.484375,0.0
1734581133.1879687,-32.71484375,-26.85546875,-38.57421875,-26.85546875,0.0
1734581133.1918745,-20.5078125,-27.83203125,-15.13671875,-20.5078125,0.0
1734581133.19578,-19.04296875,-34.66796875,-50.29296875,-11.71875,0.0
1734581133.1996856,-29.296875,-35.15625,-41.015625,-16.6015625,0.0
1734581133.203591,-25.87890625,-34.1796875,-20.01953125,-29.78515625,0.0
1734581133.2074966,-22.4609375,-36.1328125,-49.31640625,-24.90234375,0.0
1734581133.2114022,-19.04296875,-36.1328125,-98.14453125,-13.18359375,0.0
1734581133.2153077,-14.6484375,-29.78515625,-85.9375,-11.71875,0.0
1734581133.2192132,-18.5546875,-25.87890625,-6.8359375,-12.20703125,0.0
1734581133.223119,-21.484375,-31.73828125,-9.27734375,-18.06640625,0.0
1734581133.2270246,-22.94921875,-36.62109375,-58.10546875,-20.5078125,0.0
1734581133.23093,-21.97265625,-38.57421875,-43.45703125,-19.53125,0.0
1734581133.2348394,-8.7890625,-40.52734375,-14.16015625,-9.27734375,0.0
1734581133.238745,-4.39453125,-38.0859375,-29.296875,-0.9765625,0.0
1734581133.2426505,-10.7421875,-27.34375,-43.45703125,-9.27734375,0.0
1734581133.246556,-18.06640625,-20.99609375,-29.296875,-30.76171875,0.0
1734581133.2504616,-25.390625,-32.71484375,-46.875,-34.66796875,0.0
1734581133.254367,-25.87890625,-33.203125,-84.9609375,-22.94921875,0.0
1734581133.2582726,-33.203125,-26.3671875,-75.1953125,-28.3203125,0.0
1734581133.2621784,-35.64453125,-33.203125,-28.3203125,-32.2265625,0.0
1734581133.266084,-34.66796875,-28.80859375,-29.296875,-25.87890625,0.0
1734581133.2699895,-31.73828125,-25.390625,-93.26171875,-26.3671875,0.0
1734581133.273895,-26.85546875,-29.296875,-63.4765625,-27.34375,0.0
1734581133.2778006,-21.97265625,-29.78515625,-2.9296875,-26.85546875,0.0
1734581133.281715,-26.85546875,-25.87890625,-39.0625,-26.3671875,0.0
1734581133.2856205,-35.64453125,-29.78515625,-79.1015625,-30.2734375,0.0
1734581133.289526,-29.296875,-33.69140625,-48.33984375,-28.80859375,0.0
1734581133.2934318,-20.99609375,-36.1328125,-24.4140625,-22.4609375,0.0
1734581133.2973373,-21.97265625,-39.55078125,-51.26953125,-24.4140625,0.0
1734581133.3012428,-22.4609375,-41.50390625,-94.23828125,-16.11328125,0.0
1734581133.3051484,-32.71484375,-41.015625,-55.6640625,-17.08984375,0.0
1734581133.309054,-32.2265625,-40.0390625,-26.3671875,-25.87890625,0.0
1734581133.3129594,-23.92578125,-41.015625,-78.125,-21.484375,0.0
1734581133.316865,-21.484375,-41.015625,-99.609375,-11.23046875,0.0
1734581133.3207707,-31.25,-39.55078125,-35.64453125,-17.08984375,0.0
1734581133.3246763,-35.15625,-36.62109375,-30.2734375,-13.671875,0.0
1734581133.3285902,-33.203125,-35.15625,-41.50390625,-10.7421875,0.0
1734581133.3324957,-30.2734375,-35.15625,-29.296875,-20.01953125,0.0
1734581133.3364012,-27.34375,-38.0859375,-17.578125,-16.6015625,0.0
1734581133.3403068,-34.1796875,-43.45703125,-25.390625,-13.18359375,0.0
1734581133.3442123,-29.296875,-40.0390625,-67.87109375,-17.578125,0.0
1734581133.3481178,-23.92578125,-39.0625,-95.703125,-26.3671875,0.0
1734581133.3520234,-29.78515625,-39.55078125,-54.6875,-25.390625,0.0
1734581133.355929,-30.76171875,-35.64453125,-21.97265625,-21.97265625,0.0
1734581133.3598347,-22.94921875,-33.203125,-87.890625,-19.53125,0.0
1734581133.3637402,-28.80859375,-36.1328125,-80.56640625,-13.18359375,0.0
1734581133.3676457,-31.25,-33.69140625,-9.765625,-15.13671875,0.0
1734581133.3715513,-25.390625,-33.203125,-40.0390625,-17.08984375,0.0
1734581133.37547,-25.390625,-38.57421875,-61.03515625,-14.6484375,0.0
1734581133.3793755,-32.71484375,-38.57421875,-25.390625,-20.99609375,0.0
1734581133.383281,-33.69140625,-35.15625,-9.765625,-20.99609375,0.0
1734581133.3871865,-22.4609375,-34.1796875,-36.62109375,-10.25390625,0.0
1734581133.3910923,-15.625,-35.15625,-48.33984375,-9.27734375,0.0
1734581133.3949978,-27.83203125,-37.109375,-54.6875,-10.25390625,0.0
1734581133.3989034,-37.109375,-35.15625,-31.25,-5.859375,0.0
1734581133.402809,-33.69140625,-35.15625,-19.04296875,-14.6484375,0.0
1734581133.4067144,-32.2265625,-39.55078125,-116.69921875,-13.18359375,0.0
1734581133.41062,-43.45703125,-42.48046875,-40.52734375,-24.4140625,0.0
1734581133.4145255,-36.62109375,-38.0859375,9.765625,-31.73828125,0.0
1734581133.418431,-27.34375,-38.57421875,-47.36328125,-21.484375,0.0
1734581133.4223433,-31.25,-40.52734375,-36.62109375,-20.01953125,0.0
1734581133.4262488,-26.3671875,-31.73828125,-24.4140625,-18.5546875,0.0
1734581133.4301543,-23.92578125,-26.85546875,-51.7578125,-20.99609375,0.0
1734581133.43406,-20.99609375,-27.83203125,-62.01171875,-20.5078125,0.0
1734581133.4379656,-20.5078125,-31.25,-31.25,-11.71875,0.0
1734581133.4418712,-18.06640625,-33.203125,-46.875,-7.8125,0.0
1734581133.4457767,-20.5078125,-24.90234375,-52.24609375,-5.37109375,0.0
1734581133.4496822,-19.04296875,-19.53125,-61.5234375,-9.765625,0.0
1734581133.4535878,-15.625,-26.85546875,-50.78125,-14.6484375,0.0
1734581133.4574933,-25.390625,-34.1796875,-17.08984375,-16.11328125,0.0
1734581133.4613988,-36.1328125,-34.66796875,-32.2265625,-17.08984375,0.0
1734581133.4653046,-31.73828125,-34.66796875,-113.76953125,-9.765625,0.0
1734581133.469216,-23.92578125,-33.203125,-87.890625,-10.7421875,0.0
1734581133.4731216,-17.578125,-28.3203125,-1.46484375,-12.6953125,0.0
1734581133.4770272,-22.94921875,-30.2734375,-29.78515625,-11.71875,0.0
1734581133.4809327,-31.73828125,-32.71484375,-65.4296875,-12.6953125,0.0
1734581133.4848382,-25.87890625,-30.2734375,-41.9921875,-12.20703125,0.0
1734581133.4887438,-29.78515625,-32.2265625,-39.0625,-21.97265625,0.0
1734581133.4926493,-34.1796875,-36.62109375,-74.70703125,-30.76171875,0.0
1734581133.496555,-27.34375,-33.69140625,-127.44140625,-13.671875,0.0
1734581133.5004606,-30.2734375,-33.69140625,-47.36328125,-17.08984375,0.0
1734581133.5043662,-38.0859375,-32.2265625,4.39453125,-33.203125,0.0
1734581133.5082717,-29.296875,-31.73828125,-35.15625,-29.296875,0.0
1734581133.5121772,-20.01953125,-38.57421875,-46.875,-21.484375,0.0
1734581133.516088,0.0,-43.45703125,-17.578125,-26.3671875,0.0
1734581133.5199935,0.0,-43.45703125,-11.71875,-28.80859375,0.0
1734581133.523899,0.0,-43.9453125,-50.29296875,-21.97265625,0.0
1734581133.5278046,0.0,-39.55078125,-41.015625,-18.5546875,0.0
1734581133.5317101,0.0,-35.64453125,-15.625,-14.16015625,0.0
1734581133.5356157,0.0,-39.55078125,-42.96875,-7.8125,0.0
1734581133.5395215,0.0,-44.43359375,-89.35546875,-3.90625,0.0
1734581133.543427,0.0,-43.9453125,-77.63671875,-3.90625,0.0
1734581133.5473325,0.0,-41.50390625,-17.08984375,-12.20703125,0.0
1734581133.551238,0.0,-37.109375,-17.578125,-10.25390625,0.0
1734581133.5551436,0.0,-30.76171875,-48.828125,-4.39453125,0.0
1734581133.5590491,0.0,-29.296875,-37.59765625,-9.27734375,0.0
1734581133.5629592,-2.9296875,-29.296875,-13.18359375,-17.578125,0.0
1734581133.5668647,-2.9296875,-25.87890625,-34.1796875,-16.11328125,0.0
1734581133.5707703,-5.37109375,-30.2734375,-56.15234375,-11.71875,0.0
1734581133.574676,-16.11328125,-38.0859375,-29.296875,-13.671875,0.0
1734581133.5785816,-20.99609375,-35.15625,-19.53125,-13.18359375,0.0
1734581133.582487,-17.08984375,-34.66796875,-76.171875,-10.7421875,0.0
1734581133.5863926,-18.06640625,-38.57421875,-147.4609375,-6.8359375,0.0
1734581133.5902982,-27.34375,-41.9921875,-52.734375,-19.04296875,0.0
1734581133.5942037,-24.4140625,-39.55078125,14.6484375,-22.94921875,0.0
1734581133.5981092,-19.04296875,-35.64453125,-27.34375,-18.5546875,0.0
1734581133.6020148,-22.4609375,-37.59765625,-57.12890625,-25.87890625,0.0
1734581133.6059206,-27.83203125,-41.9921875,-62.98828125,-33.69140625,0.0
1734581133.6098297,-25.87890625,-42.48046875,-52.24609375,-35.15625,0.0
1734581133.6137352,-17.578125,-41.50390625,-50.29296875,-26.3671875,0.0
1734581133.6176407,-18.06640625,-38.57421875,-29.296875,-21.484375,0.0
1734581133.6215463,-18.5546875,-36.62109375,-13.671875,-11.23046875,0.0
1734581133.625452,-14.16015625,-37.109375,-18.5546875,-6.8359375,0.0
1734581133.6293576,-12.20703125,-40.52734375,-72.75390625,-14.6484375,0.0
1734581133.633263,-20.5078125,-41.50390625,-76.171875,-21.484375,0.0
1734581133.6371686,-30.76171875,-40.52734375,-8.30078125,-21.484375,0.0
1734581133.6410742,-26.85546875,-43.45703125,-16.11328125,-19.53125,0.0
1734581133.6449797,-22.94921875,-39.55078125,-81.0546875,-21.484375,0.0
1734581133.6488853,-26.3671875,-35.64453125,-57.6171875,-28.3203125,0.0
1734581133.652791,-29.296875,-35.15625,-12.20703125,-23.92578125,0.0
1734581133.6567054,-21.484375,-34.1796875,-37.109375,-17.08984375,0.0
1734581133.660611,-13.671875,-32.2265625,-61.5234375,-24.90234375,0.0
1734581133.6645164,-20.5078125,-30.2734375,-63.4765625,-32.71484375,0.0
1734581133.668422,-15.13671875,-32.71484375,-46.38671875,-28.80859375,0.0
1734581133.6723275,-7.8125,-31.25,-41.9921875,-20.01953125,0.0
1734581133.676233,-6.8359375,-28.80859375,-95.703125,-17.08984375,0.0
1734581133.6801386,-20.99609375,-30.2734375,-68.84765625,-18.5546875,0.0
1734581133.6840444,-27.34375,-24.4140625,-10.25390625,-23.4375,0.0
1734581133.68795,-20.99609375,-26.85546875,-48.828125,-22.4609375,0.0
1734581133.6918554,-15.13671875,-32.71484375,-106.4453125,-8.7890625,0.0
1734581133.695761,-20.99609375,-35.15625,-45.41015625,-16.11328125,0.0
1734581133.6996665,-23.92578125,-40.52734375,-41.9921875,-24.4140625,0.0
1734581133.7035801,-30.76171875,-35.15625,-61.5234375,-22.94921875,0.0
1734581133.7074857,-32.71484375,-28.80859375,-32.71484375,-20.5078125,0.0
1734581133.7113912,-30.76171875,-31.73828125,-18.06640625,-18.06640625,0.0
1734581133.7152967,-33.203125,-34.1796875,-30.76171875,-21.97265625,0.0
1734581133.7192023,-25.390625,-41.015625,-73.2421875,-20.01953125,0.0
1734581133.7231078,-28.80859375,-41.015625,-83.49609375,-16.11328125,0.0
1734581133.7270133,-30.76171875,-39.55078125,-64.453125,-14.6484375,0.0
1734581133.730919,-23.4375,-37.59765625,-50.29296875,-15.13671875,0.0
1734581133.7348247,-26.85546875,-33.69140625,-76.171875,-8.7890625,0.0
1734581133.7387302,-33.69140625,-37.109375,-65.4296875,-10.25390625,0.0
1734581133.7426357,-37.109375,-33.203125,13.18359375,-20.01953125,0.0
1734581133.7465413,-37.59765625,-33.69140625,-7.32421875,-25.390625,0.0
1734581133.7504542,-33.69140625,-36.62109375,-54.6875,-21.97265625,0.0
1734581133.7543597,-23.4375,-31.25,-26.85546875,-17.08984375,0.0
1734581133.7582653,-27.83203125,-35.64453125,-9.27734375,-19.04296875,0.0
1734581133.7621708,-32.2265625,-41.9921875,-38.0859375,-16.6015625,0.0
1734581133.7660763,-20.01953125,-39.0625,-61.5234375,-13.671875,0.0
1734581133.769982,-15.13671875,-37.109375,-62.01171875,-20.5078125,0.0
1734581133.7738876,-18.5546875,-39.0625,-31.73828125,-29.296875,0.0
1734581133.7777932,-23.92578125,-39.0625,-37.59765625,-20.01953125,0.0
1734581133.7816987,-24.90234375,-37.109375,-134.765625,-5.37109375,0.0
1734581133.7856042,-26.3671875,-32.2265625,-65.4296875,-16.11328125,0.0
1734581133.7895098,-28.80859375,-29.296875,-12.20703125,-14.6484375,0.0
1734581133.7934153,-16.6015625,-30.76171875,-55.6640625,2.44140625,0.0
1734581133.7973275,-19.53125,-28.80859375,-30.76171875,-6.34765625,0.0
1734581133.8012333,-24.90234375,-29.296875,-6.8359375,-15.13671875,0.0
1734581133.8051388,-23.4375,-30.76171875,-9.27734375,-16.11328125,0.0
1734581133.8090444,-20.5078125,-26.85546875,-35.15625,-20.01953125,0.0
1734581133.81295,-17.578125,-31.73828125,-35.15625,-21.97265625,0.0
1734581133.8168554,-24.90234375,-37.59765625,-48.828125,-17.578125,0.0
1734581133.820761,-27.83203125,-36.62109375,-35.15625,-22.4609375,0.0
1734581133.8246665,-28.80859375,-38.57421875,-68.359375,-22.94921875,0.0
1734581133.828572,-28.3203125,-35.15625,-77.63671875,-19.04296875,0.0
1734581133.8324778,-25.390625,-32.71484375,6.34765625,-28.3203125,0.0
1734581133.8363833,-23.4375,-31.73828125,-7.32421875,-28.3203125,0.0
1734581133.8402889,-22.94921875,-31.25,-65.4296875,-19.53125,0.0
1734581133.8442001,-19.04296875,-33.203125,-49.31640625,-16.6015625,0.0
1734581133.848106,-15.625,-30.2734375,-9.765625,-13.18359375,0.0
1734581133.8520114,-12.20703125,-31.73828125,-26.3671875,-7.8125,0.0
1734581133.855917,-15.13671875,-37.59765625,-50.29296875,-4.39453125,0.0
1734581133.8598225,-20.5078125,-41.015625,-28.3203125,-5.859375,0.0
1734581133.863728,-16.11328125,-39.0625,-41.9921875,-8.30078125,0.0
1734581133.8676336,-17.578125,-35.64453125,-70.3125,-4.8828125,0.0
1734581133.871539,-26.85546875,-34.1796875,-106.4453125,0.0,0.0
1734581133.875445,-32.2265625,-35.64453125,-50.29296875,-8.7890625,0.0
1734581133.8793504,-35.64453125,-35.64453125,-0.48828125,-9.27734375,0.0
1734581133.883256,-33.203125,-31.25,-41.9921875,-6.8359375,0.0
1734581133.8871615,-25.87890625,-32.2265625,-58.59375,-12.6953125,0.0
1734581133.8910723,-25.87890625,-33.69140625,-18.06640625,-19.04296875,0.0
1734581133.8949778,-24.90234375,-31.73828125,-8.7890625,-25.87890625,0.0
1734581133.8988833,-28.80859375,-32.71484375,-47.36328125,-22.4609375,0.0
1734581133.9027889,-31.25,-32.2265625,-57.6171875,-20.5078125,0.0
1734581133.9066944,-27.34375,-32.71484375,-30.2734375,-26.3671875,0.0
1734581133.9106002,-22.4609375,-32.2265625,-31.73828125,-31.25,0.0
1734581133.9145057,-19.53125,-31.73828125,-70.3125,-28.80859375,0.0
1734581133.9184113,-33.203125,-32.2265625,-77.1484375,-23.92578125,0.0
1734581133.9223168,-47.36328125,-29.78515625,-4.8828125,-37.109375,0.0
1734581133.9262223,-42.96875,-30.2734375,-6.8359375,-50.29296875,0.0
1734581133.9301279,-33.69140625,-34.66796875,-49.31640625,-44.43359375,0.0
1734581133.9340334,-34.1796875,-35.64453125,-33.69140625,-44.921875,0.0
1734581133.9379551,-36.1328125,-39.55078125,-16.6015625,-41.015625,0.0
1734581133.9418607,-28.3203125,-39.55078125,-29.78515625,-34.66796875,0.0
1734581133.9457662,-28.3203125,-35.15625,-63.4765625,-31.73828125,0.0
1734581133.9496717,-28.3203125,-36.1328125,-41.9921875,-32.2265625,0.0
1734581133.9535773,-28.3203125,-33.203125,-17.08984375,-33.69140625,0.0
1734581133.957483,-33.203125,-31.25,-73.2421875,-30.2734375,0.0
1734581133.9613886,-33.203125,-33.69140625,-138.18359375,-18.06640625,0.0
1734581133.9652941,-32.2265625,-33.203125,-51.26953125,-28.80859375,0.0
1734581133.9691997,-32.71484375,-31.73828125,2.9296875,-49.31640625,0.0
1734581133.9731052,-37.109375,-36.1328125,-32.71484375,-49.8046875,0.0
1734581133.9770107,-38.0859375,-35.15625,-37.109375,-53.22265625,0.0
1734581133.9809163,-30.76171875,-29.78515625,-41.9921875,-54.6875,0.0
1734581133.9848251,-24.4140625,-27.34375,-30.76171875,-51.26953125,0.0
1734581133.9887307,-23.4375,-28.80859375,-40.0390625,-48.33984375,0.0
1734581133.9926364,-26.3671875,-33.203125,-33.69140625,-42.48046875,0.0
1734581133.996542,-36.1328125,-38.57421875,-15.625,-41.50390625,0.0
1734581134.0004475,-45.41015625,-40.0390625,-24.90234375,-47.8515625,0.0
1734581134.004353,-44.921875,-33.69140625,-69.3359375,-51.26953125,0.0
1734581134.0082586,-41.9921875,-33.69140625,-78.61328125,-42.96875,0.0
1734581134.012164,-38.0859375,-34.66796875,-20.5078125,-42.48046875,0.0
1734581134.0160697,-38.57421875,-34.66796875,-19.04296875,-40.52734375,0.0
1734581134.0199752,-36.62109375,-39.55078125,-80.078125,-37.59765625,0.0
1734581134.023881,-37.59765625,-41.9921875,-49.31640625,-44.921875,0.0
1734581134.0277865,-32.2265625,-40.0390625,-7.8125,-48.33984375,0.0
1734581134.0317008,-18.5546875,-36.62109375,-18.06640625,-40.52734375,0.0
1734581134.0356064,-22.4609375,-35.15625,-99.609375,-29.78515625,0.0
1734581134.039512,-32.2265625,-35.15625,-78.125,-37.59765625,0.0
1734581134.0434175,-27.34375,-35.64453125,5.859375,-43.9453125,0.0
1734581134.047323,-31.25,-40.52734375,-30.76171875,-37.109375,0.0
1734581134.0512285,-37.59765625,-42.48046875,-85.44921875,-39.0625,0.0
1734581134.055134,-42.48046875,-35.64453125,-52.734375,-40.52734375,0.0
1734581134.0590398,-52.734375,-34.1796875,9.27734375,-42.48046875,0.0
1734581134.0629454,-52.734375,-36.62109375,-34.1796875,-51.7578125,0.0
1734581134.066851,-45.41015625,-35.15625,-107.91015625,-42.96875,0.0
1734581134.0707564,-41.015625,-35.15625,-32.71484375,-36.1328125,0.0
1734581134.074662,-27.34375,-38.0859375,-30.2734375,-28.3203125,0.0
1734581134.0785756,-26.3671875,-35.15625,-61.03515625,-18.5546875,0.0
1734581134.0824811,-40.52734375,-25.390625,-35.64453125,-42.96875,0.0
1734581134.0863867,-55.17578125,-27.83203125,-25.87890625,-61.5234375,0.0
1734581134.0902922,-42.48046875,-32.2265625,-29.78515625,-36.62109375,0.0
1734581134.0941978,-22.4609375,-29.78515625,-60.05859375,-26.3671875,0.0
1734581134.0981033,-28.80859375,-32.71484375,-84.9609375,-37.109375,0.0
1734581134.102009,-34.1796875,-36.1328125,-62.98828125,-36.1328125,0.0
1734581134.1059146,-26.85546875,-32.2265625,-24.4140625,-39.0625,0.0
1734581134.1098201,-16.6015625,-31.25,-83.984375,-32.71484375,0.0
1734581134.1137257,-20.99609375,-35.64453125,-103.02734375,-25.390625,0.0
1734581134.1176312,-25.87890625,-35.64453125,-19.04296875,-30.76171875,0.0
1734581134.1215367,-26.85546875,-33.69140625,-30.2734375,-30.2734375,0.0
1734581134.1254497,-33.203125,-32.2265625,-75.1953125,-32.71484375,0.0
1734581134.1293552,-35.15625,-33.203125,-42.96875,-35.15625,0.0
1734581134.1332607,-30.76171875,-32.71484375,-25.390625,-32.2265625,0.0
1734581134.1371665,-17.578125,-28.3203125,-64.94140625,-29.78515625,0.0
1734581134.141072,-19.53125,-28.80859375,-76.66015625,-23.92578125,0.0
1734581134.1449776,-27.83203125,-30.76171875,-68.84765625,-26.85546875,0.0
1734581134.148883,-22.94921875,-31.73828125,-34.66796875,-27.83203125,0.0
1734581134.1527886,-21.97265625,-28.3203125,-28.80859375,-20.01953125,0.0
1734581134.1566942,-23.92578125,-34.66796875,-121.58203125,-16.6015625,0.0
1734581134.1605997,-43.9453125,-41.50390625,-46.38671875,-26.3671875,0.0
1734581134.1645055,-54.6875,-36.62109375,-4.39453125,-27.83203125,0.0
1734581134.168411,-46.38671875,-38.57421875,-59.5703125,-29.296875,0.0
1734581134.1723235,-38.0859375,-38.57421875,-37.59765625,-32.71484375,0.0
1734581134.176229,-23.4375,-34.1796875,-15.13671875,-24.4140625,0.0
1734581134.1801345,-14.16015625,-34.66796875,-27.83203125,-20.99609375,0.0
1734581134.18404,-19.04296875,-30.2734375,-58.10546875,-23.4375,0.0
1734581134.1879456,-19.53125,-26.85546875,-47.36328125,-25.87890625,0.0
1734581134.1918511,-7.8125,-26.85546875,-49.8046875,-22.94921875,0.0
1734581134.1957567,-12.6953125,-29.78515625,-58.10546875,-25.87890625,0.0
1734581134.1996624,-16.6015625,-30.2734375,-80.078125,-30.2734375,0.0
1734581134.203568,-26.3671875,-30.2734375,-79.1015625,-27.34375,0.0
1734581134.2074735,-27.83203125,-32.2265625,-3.41796875,-31.73828125,0.0
1734581134.211379,-18.06640625,-30.76171875,-9.765625,-26.3671875,0.0
1734581134.2152846,-14.16015625,-37.109375,-54.6875,-14.6484375,0.0
1734581134.2191958,-17.578125,-41.9921875,-27.34375,-22.94921875,0.0
1734581134.2231014,-20.01953125,-36.1328125,-7.8125,-28.80859375,0.0
1734581134.227007,-22.4609375,-32.2265625,-42.48046875,-25.390625,0.0
1734581134.2309124,-17.08984375,-28.80859375,-59.08203125,-28.3203125,0.0
1734581134.234818,-11.23046875,-28.80859375,-40.0390625,-31.73828125,0.0
1734581134.2387235,-6.34765625,-34.1796875,-51.7578125,-30.2734375,0.0
1734581134.2426293,-19.53125,-35.15625,-71.2890625,-21.97265625,0.0
1734581134.2465348,-20.99609375,-34.1796875,-123.53515625,-7.8125,0.0
1734581134.2504404,-27.34375,-43.45703125,-46.875,-20.01953125,0.0
1734581134.254346,-33.203125,-48.33984375,5.37109375,-27.34375,0.0
1734581134.2582514,-26.3671875,-41.9921875,-55.6640625,-25.87890625,0.0
1734581134.262157,-30.2734375,-37.109375,-55.17578125,-36.62109375,0.0
1734581134.2660677,-33.69140625,-36.1328125,-25.390625,-42.48046875,0.0
1734581134.2699733,-30.76171875,-37.59765625,-20.5078125,-38.57421875,0.0
1734581134.273879,-17.578125,-33.203125,-55.6640625,-30.76171875,0.0
1734581134.2777846,-18.5546875,-33.203125,-51.7578125,-40.52734375,0.0
1734581134.2816901,-29.296875,-36.62109375,-37.59765625,-42.96875,0.0
1734581134.2855957,-22.4609375,-36.62109375,-56.640625,-38.57421875,0.0
1734581134.2895012,-20.01953125,-37.59765625,-98.6328125,-41.9921875,0.0
1734581134.2934067,-33.203125,-39.0625,-96.19140625,-43.45703125,0.0
1734581134.2973123,-41.9921875,-35.15625,-5.37109375,-44.921875,0.0
1734581134.3012178,-42.96875,-33.203125,-9.765625,-44.43359375,0.0
1734581134.3051236,-29.78515625,-31.25,-59.5703125,-45.41015625,0.0
1734581134.309029,-16.11328125,-28.80859375,-30.2734375,-39.0625,0.0
1734581134.3129392,-8.7890625,-29.78515625,-22.94921875,-33.203125,0.0
1734581134.3168447,-10.25390625,-39.0625,-65.91796875,-26.85546875,0.0
1734581134.3207502,-17.08984375,-46.38671875,-70.80078125,-17.578125,0.0
1734581134.3246558,-27.34375,-41.50390625,-40.0390625,-35.15625,0.0
1734581134.3285613,-36.1328125,-45.8984375,-24.4140625,-49.31640625,0.0
1734581134.3324668,-19.04296875,-43.9453125,-79.58984375,-26.3671875,0.0
1734581134.3363726,-20.99609375,-40.0390625,-139.6484375,-30.76171875,0.0
1734581134.3402781,-32.2265625,-39.55078125,-48.828125,-39.55078125,0.0
1734581134.3441837,-33.203125,-40.0390625,-9.765625,-23.92578125,0.0
1734581134.3480892,-26.3671875,-39.55078125,-49.8046875,-24.4140625,0.0
1734581134.3519948,-21.484375,-40.52734375,-65.91796875,-26.3671875,0.0
1734581134.3559003,-21.97265625,-39.55078125,-55.17578125,-31.73828125,0.0
1734581134.3598096,-21.97265625,-32.2265625,-28.3203125,-36.1328125,0.0
1734581134.3637152,-27.83203125,-32.71484375,-40.52734375,-32.71484375,0.0
1734581134.3676207,-30.2734375,-37.59765625,-47.8515625,-36.1328125,0.0
1734581134.3715265,-31.73828125,-29.78515625,-37.109375,-40.0390625,0.0
1734581134.375432,-31.73828125,-25.87890625,-66.40625,-38.0859375,0.0
1734581134.3793375,-22.94921875,-29.78515625,-92.28515625,-38.0859375,0.0
1734581134.383243,-22.4609375,-27.83203125,-68.84765625,-29.78515625,0.0
1734581134.3871486,-26.3671875,-24.90234375,-14.16015625,-29.296875,0.0
1734581134.3910542,-34.66796875,-31.25,-26.3671875,-37.59765625,0.0
1734581134.3949597,-33.203125,-33.203125,-76.66015625,-33.203125,0.0
1734581134.3988652,-25.390625,-34.66796875,-49.8046875,-32.2265625,0.0
1734581134.402771,-30.2734375,-37.59765625,-16.11328125,-34.66796875,0.0
1734581134.4066854,0.0,-37.59765625,-44.921875,-36.62109375,0.0
1734581134.410591,0.0,-36.62109375,-68.359375,-37.59765625,0.0
1734581134.4144964,0.0,-38.0859375,-32.71484375,-27.34375,0.0
1734581134.418402,0.0,-40.0390625,-16.11328125,-33.69140625,0.0
1734581134.4223075,0.0,-37.109375,-48.828125,-34.1796875,0.0
1734581134.426213,0.0,-39.55078125,-98.14453125,-26.85546875,0.0
1734581134.4301186,0.0,-39.55078125,-83.984375,-27.34375,0.0
1734581134.4340243,0.0,-37.109375,-42.48046875,-23.92578125,0.0
1734581134.4379299,0.0,-37.109375,-49.31640625,-22.94921875,0.0
1734581134.4418354,0.0,-35.64453125,-99.609375,-11.71875,0.0
1734581134.445741,0.0,-34.66796875,-52.24609375,-15.625,0.0
1734581134.4496465,0.0,-37.59765625,-49.31640625,-29.78515625,0.0
1734581134.4535606,-11.23046875,-39.55078125,-60.05859375,-29.78515625,0.0
1734581134.4574661,-9.27734375,-36.62109375,-45.41015625,-26.3671875,0.0
1734581134.4613717,-16.6015625,-37.59765625,-32.71484375,-27.34375,0.0
1734581134.4652772,-24.90234375,-41.015625,-33.69140625,-27.34375,0.0
1734581134.4691827,-26.85546875,-39.0625,-62.5,-28.80859375,0.0
1734581134.4730883,-23.92578125,-32.71484375,-77.63671875,-26.85546875,0.0
1734581134.476994,-30.2734375,-29.78515625,-51.7578125,-23.4375,0.0
1734581134.4808996,-28.3203125,-33.203125,-20.5078125,-33.203125,0.0
1734581134.484805,-22.4609375,-32.71484375,-81.0546875,-31.73828125,0.0
1734581134.4887106,-31.73828125,-36.62109375,-88.8671875,-22.4609375,0.0
1734581134.4926162,-35.64453125,-39.55078125,-20.5078125,-29.78515625,0.0
1734581134.4965217,-34.1796875,-31.25,-19.04296875,-34.1796875,0.0
1734581134.5004346,-31.73828125,-32.2265625,-49.8046875,-38.0859375,0.0
1734581134.5043404,-28.3203125,-37.59765625,-27.34375,-45.8984375,0.0
1734581134.508246,-25.87890625,-36.62109375,-9.27734375,-42.48046875,0.0
1734581134.5121515,-32.71484375,-39.0625,-38.0859375,-47.36328125,0.0
1734581134.516057,-34.66796875,-43.45703125,-63.4765625,-49.31640625,0.0
1734581134.5199625,-34.1796875,-44.921875,-66.40625,-39.55078125,0.0
1734581134.523868,-38.57421875,-42.48046875,-37.59765625,-33.69140625,0.0
1734581134.5277736,-28.80859375,-40.0390625,-41.50390625,-37.109375,0.0
1734581134.5316794,-16.11328125,-40.0390625,-126.953125,-33.69140625,0.0
1734581134.535585,-29.296875,-41.9921875,-43.45703125,-40.52734375,0.0
1734581134.5394905,-37.59765625,-40.0390625,6.34765625,-46.875,0.0
1734581134.543396,-36.1328125,-33.69140625,-52.734375,-44.921875,0.0
1734581134.5473077,-44.43359375,-31.25,-35.15625,-50.29296875,0.0
1734581134.5512133,-36.1328125,-34.1796875,-22.4609375,-57.12890625,0.0
1734581134.5551188,-31.25,-37.109375,-31.73828125,-47.36328125,0.0
1734581134.5590246,-36.1328125,-32.2265625,-41.50390625,-48.33984375,0.0
1734581134.56293,-37.109375,-26.3671875,-33.69140625,-51.7578125,0.0
1734581134.5668356,-31.73828125,-26.3671875,-55.17578125,-42.48046875,0.0
1734581134.5707412,-19.04296875,-25.87890625,-41.9921875,-38.57421875,0.0
1734581134.5746467,-23.4375,-29.78515625,-58.59375,-36.1328125,0.0
1734581134.5785522,-37.59765625,-34.1796875,-86.42578125,-34.66796875,0.0
1734581134.5824578,-32.71484375,-37.59765625,-12.20703125,-41.50390625,0.0
1734581134.5863636,-23.4375,-38.0859375,-15.625,-39.55078125,0.0
1734581134.590269,-23.4375,-40.52734375,-58.10546875,-37.59765625,0.0
1734581134.59418,-16.6015625,-42.48046875,-42.96875,-43.45703125,0.0
1734581134.5980856,-6.34765625,-39.0625,-25.87890625,-36.62109375,0.0
1734581134.6019912,-10.25390625,-39.55078125,-47.36328125,-27.83203125,0.0
1734581134.6058967,-9.765625,-41.9921875,-72.265625,-18.5546875,0.0
1734581134.6098022,-5.37109375,-41.9921875,-55.6640625,-18.5546875,0.0
1734581134.6137078,-3.90625,-40.52734375,-37.59765625,-19.04296875,0.0
1734581134.6176133,-5.37109375,-36.62109375,-61.03515625,-9.765625,0.0
1734581134.6215189,-14.16015625,-37.59765625,-114.74609375,-7.8125,0.0
1734581134.6254246,-28.3203125,-40.52734375,-43.45703125,-25.390625,0.0
1734581134.6293302,-23.4375,-36.1328125,12.20703125,-29.296875,0.0
1734581134.6332357,-21.484375,-36.1328125,-27.83203125,-27.83203125,0.0
1734581134.6371412,-36.62109375,-40.0390625,-71.77734375,-32.2265625,0.0
1734581134.641052,-41.015625,-43.45703125,-43.45703125,-31.73828125,0.0
1734581134.6449575,-34.1796875,-41.015625,-21.484375,-27.83203125,0.0
1734581134.648863,-33.69140625,-36.62109375,-51.26953125,-21.484375,0.0
1734581134.6527686,-29.296875,-38.0859375,-29.296875,-20.99609375,0.0
1734581134.6566744,-21.97265625,-36.1328125,-13.18359375,-25.87890625,0.0
1734581134.66058,-24.4140625,-35.15625,-51.26953125,-25.87890625,0.0
1734581134.6644855,-22.4609375,-40.52734375,-91.796875,-20.99609375,0.0
1734581134.668391,-12.6953125,-46.875,-99.12109375,-20.01953125,0.0
1734581134.6722965,-16.11328125,-41.015625,-17.08984375,-25.390625,0.0
1734581134.676202,-18.06640625,-37.109375,-3.90625,-29.296875,0.0
1734581134.6801076,-15.625,-37.109375,-57.6171875,-25.87890625,0.0
1734581134.6840134,-12.6953125,-35.64453125,-38.57421875,-21.97265625,0.0
1734581134.687923,-6.8359375,-35.64453125,-13.18359375,-23.92578125,0.0
1734581134.6918285,1.46484375,-34.66796875,-29.296875,-21.484375,0.0
1734581134.6957343,2.44140625,-33.203125,-62.5,-19.04296875,0.0
1734581134.6996398,-10.25390625,-28.3203125,-46.875,-19.53125,0.0
1734581134.7035453,-9.27734375,-28.3203125,-33.69140625,-20.99609375,0.0
1734581134.7074509,-8.7890625,-34.66796875,-77.1484375,-20.01953125,0.0
1734581134.7113564,-6.34765625,-35.64453125,-130.859375,-8.7890625,0.0
1734581134.715262,-5.37109375,-37.109375,-51.7578125,-16.6015625,0.0
1734581134.7191675,-10.25390625,-40.0390625,4.8828125,-28.80859375,0.0
1734581134.7230732,-20.5078125,-41.50390625,-37.59765625,-25.390625,0.0
1734581134.7269788,-21.97265625,-41.9921875,-61.03515625,-23.92578125,0.0
1734581134.7308843,-20.01953125,-41.015625,-64.453125,-20.01953125,0.0
1734581134.7347934,-25.390625,-37.109375,-56.15234375,-23.92578125,0.0
1734581134.7386992,-25.390625,-34.1796875,-42.96875,-22.94921875,0.0
1734581134.7426047,-23.92578125,-36.1328125,-40.0390625,-14.16015625,0.0
1734581134.7465103,-30.2734375,-34.66796875,-20.99609375,-21.484375,0.0
1734581134.7504158,-31.25,-32.71484375,-12.6953125,-29.296875,0.0
1734581134.7543213,-21.484375,-33.203125,-69.3359375,-28.3203125,0.0
1734581134.7582269,-21.97265625,-39.0625,-76.66015625,-33.69140625,0.0
1734581134.7621324,-27.83203125,-38.57421875,-15.625,-36.62109375,0.0
1734581134.7660382,-27.34375,-36.1328125,-18.06640625,-39.0625,0.0
1734581134.7699437,-28.3203125,-36.1328125,-81.54296875,-37.109375,0.0
1734581134.7738492,-29.296875,-37.109375,-68.359375,-38.57421875,0.0
1734581134.7777548,-35.64453125,-37.109375,-14.6484375,-40.0390625,0.0
1734581134.7816694,-42.48046875,-36.62109375,-30.76171875,-32.71484375,0.0
1734581134.785575,-35.15625,-42.96875,-80.56640625,-35.15625,0.0
1734581134.7894807,-41.015625,-45.8984375,-62.98828125,-37.59765625,0.0
1734581134.7933862,-52.24609375,-42.48046875,-10.25390625,-40.52734375,0.0
1734581134.7972918,-51.7578125,-40.0390625,-32.2265625,-41.9921875,0.0
1734581134.8011973,-56.15234375,-37.109375,-89.84375,-37.59765625,0.0
1734581134.8051028,-51.26953125,-37.59765625,-60.05859375,-40.0390625,0.0
1734581134.8090084,-44.43359375,-38.0859375,-4.8828125,-41.9921875,0.0
1734581134.812914,-47.36328125,-37.109375,-42.96875,-38.57421875,0.0
1734581134.8168197,-51.26953125,-33.203125,-101.07421875,-26.85546875,0.0
1734581134.8207252,-56.15234375,-35.64453125,-37.109375,-33.203125,0.0
1734581134.8246307,-62.01171875,-43.9453125,-38.57421875,-43.9453125,0.0
1734581134.8285444,-54.6875,-44.43359375,-53.22265625,-41.9921875,0.0
1734581134.83245,-39.55078125,-35.64453125,-19.53125,-36.1328125,0.0
1734581134.8363554,-45.8984375,-33.203125,-7.32421875,-41.50390625,0.0
1734581134.840261,-37.109375,-36.62109375,-10.25390625,-37.109375,0.0
1734581134.8441665,-21.97265625,-34.66796875,-51.7578125,-25.87890625,0.0
1734581134.8480723,-31.25,-32.2265625,-66.89453125,-34.66796875,0.0
1734581134.8519778,-28.3203125,-29.78515625,-46.875,-36.62109375,0.0
1734581134.8558834,-25.390625,-30.2734375,-43.9453125,-34.66796875,0.0
1734581134.859789,-34.1796875,-33.203125,-77.63671875,-31.73828125,0.0
1734581134.8636944,-33.203125,-33.69140625,-76.171875,-25.87890625,0.0
1734581134.8676,-30.2734375,-33.69140625,-2.44140625,-24.4140625,0.0
1734581134.8715055,-29.78515625,-34.1796875,-13.18359375,-20.5078125,0.0
1734581134.8754184,-20.5078125,-32.71484375,-53.22265625,-21.484375,0.0
1734581134.8793242,-24.4140625,-36.1328125,-24.90234375,-22.94921875,0.0
1734581134.8832297,-25.87890625,-34.66796875,-10.25390625,-20.01953125,0.0
1734581134.8871353,-16.11328125,-30.76171875,-36.62109375,-12.6953125,0.0
1734581134.8910408,-19.04296875,-31.73828125,-54.19921875,-11.71875,0.0
1734581134.8949463,-19.04296875,-32.2265625,-63.4765625,-13.671875,0.0
1734581134.8988519,-21.484375,-36.1328125,-42.96875,-15.13671875,0.0
1734581134.9027574,-28.3203125,-36.1328125,-43.45703125,-13.18359375,0.0
1734581134.9066632,-23.92578125,-33.203125,-127.9296875,-3.41796875,0.0
1734581134.9105687,-19.04296875,-32.2265625,-38.57421875,-20.01953125,0.0
1734581134.9144742,-20.99609375,-28.80859375,1.953125,-27.34375,0.0
1734581134.9183798,-14.16015625,-30.2734375,-55.17578125,-18.06640625,0.0
1734581134.922292,-17.578125,-31.73828125,-21.484375,-17.08984375,0.0
1734581134.9261975,-25.390625,-31.25,-8.30078125,-14.16015625,0.0
1734581134.930103,-17.578125,-32.71484375,-19.53125,-11.23046875,0.0
1734581134.9340086,-11.71875,-34.66796875,-38.57421875,-9.27734375,0.0
1734581134.9379141,-9.765625,-35.64453125,-40.52734375,-3.41796875,0.0
1734581134.9418197,-11.71875,-34.66796875,-55.6640625,-4.39453125,0.0
1734581134.9457252,-9.765625,-32.2265625,-51.26953125,-8.7890625,0.0
1734581134.949631,-0.48828125,-26.85546875,-65.91796875,-0.9765625,0.0
1734581134.9535365,-1.46484375,-30.2734375,-78.61328125,5.37109375,0.0
1734581134.957442,-15.625,-33.69140625,-4.39453125,-15.13671875,0.0
1734581134.9613476,-14.6484375,-28.80859375,-16.11328125,-15.13671875,0.0
1734581134.965253,-5.859375,-34.1796875,-64.453125,-11.71875,0.0
1734581134.9691644,-11.23046875,-37.59765625,-27.34375,-20.01953125,0.0
1734581134.97307,-15.13671875,-34.66796875,-7.32421875,-19.04296875,0.0
1734581134.9769757,-12.6953125,-35.15625,-39.0625,-15.625,0.0
1734581134.9808812,-19.04296875,-36.1328125,-64.94140625,-17.578125,0.0
1734581134.9847867,-31.25,-41.50390625,-44.921875,-24.90234375,0.0
1734581134.9886923,-24.4140625,-42.48046875,-55.6640625,-26.3671875,0.0
1734581134.9925978,-18.06640625,-37.59765625,-85.9375,-20.5078125,0.0
1734581134.9965034,-31.25,-35.64453125,-130.37109375,-13.18359375,0.0
1734581135.000409,-34.66796875,-32.2265625,-59.08203125,-15.625,0.0
1734581135.0043147,-38.57421875,-32.2265625,-4.39453125,-24.90234375,0.0
1734581135.0082202,-36.1328125,-36.62109375,-44.43359375,-36.62109375,0.0
1734581135.0121257,-32.71484375,-39.0625,-67.3828125,-36.1328125,0.0
1734581135.016037,-35.15625,-38.0859375,-30.76171875,-33.203125,0.0
1734581135.0199425,-31.73828125,-40.52734375,-20.99609375,-37.109375,0.0
1734581135.023848,-29.78515625,-41.50390625,-61.03515625,-42.48046875,0.0
1734581135.0277536,-31.73828125,-37.109375,-40.0390625,-44.43359375,0.0
1734581135.0316591,-19.53125,-33.69140625,-19.53125,-30.76171875,0.0
1734581135.0355647,-11.23046875,-31.25,-41.9921875,-29.78515625,0.0
1734581135.0394702,-16.6015625,-33.203125,-83.49609375,-29.78515625,0.0
1734581135.043376,-24.90234375,-39.0625,-97.16796875,-22.4609375,0.0
1734581135.0472815,-33.203125,-44.43359375,-10.25390625,-37.109375,0.0
1734581135.051187,-33.203125,-42.96875,0.9765625,-36.62109375,0.0
1734581135.0550926,-33.203125,-45.41015625,-61.03515625,-29.78515625,0.0
1734581135.058998,-34.66796875,-46.875,-46.38671875,-30.76171875,0.0
1734581135.0629082,-35.64453125,-38.0859375,-7.32421875,-29.78515625,0.0
1734581135.0668137,-26.3671875,-31.25,-29.78515625,-31.25,0.0
1734581135.0707192,-27.34375,-32.71484375,-60.546875,-24.90234375,0.0
1734581135.0746248,-32.2265625,-35.64453125,-31.25,-28.80859375,0.0
1734581135.0785303,-25.390625,-31.25,-20.99609375,-29.296875,0.0
1734581135.082436,-22.94921875,-31.25,-73.73046875,-20.5078125,0.0
1734581135.0863416,-20.99609375,-34.1796875,-142.578125,-10.7421875,0.0
1734581135.0902472,-19.04296875,-28.80859375,-70.3125,-15.13671875,0.0
1734581135.0941527,-13.671875,-26.3671875,9.27734375,-19.53125,0.0
1734581135.0980582,-17.578125,-29.78515625,-25.390625,-18.5546875,0.0
1734581135.1019638,-22.94921875,-34.66796875,-59.5703125,-28.3203125,0.0
1734581135.1058693,-18.06640625,-36.62109375,-46.38671875,-22.94921875,0.0
1734581135.1097786,-13.18359375,-35.15625,-22.4609375,-22.4609375,0.0
1734581135.1136842,-13.18359375,-35.15625,-48.828125,-17.578125,0.0
1734581135.1175897,-6.34765625,-33.69140625,-37.109375,-8.7890625,0.0
1734581135.1214952,-13.18359375,-34.66796875,-19.53125,-16.11328125,0.0
1734581135.125401,-20.5078125,-36.1328125,-26.3671875,-19.53125,0.0
1734581135.1293066,2.44140625,-36.1328125,-78.125,-7.8125,0.0
1734581135.133212,-6.34765625,-35.64453125,-77.63671875,-1.953125,0.0
1734581135.1371176,-24.90234375,-37.109375,-2.9296875,-12.6953125,0.0
1734581135.1410232,-23.4375,-39.0625,-38.0859375,-16.11328125,0.0
1734581135.1449287,-23.92578125,-36.62109375,-84.9609375,-21.484375,0.0
1734581135.1488342,-23.92578125,-34.66796875,-38.57421875,-27.34375,0.0
1734581135.15274,-20.01953125,-34.66796875,1.46484375,-25.87890625,0.0
1734581135.1566544,-9.765625,-32.71484375,-23.4375,-23.4375,0.0
1734581135.16056,-9.27734375,-28.3203125,-60.05859375,-14.16015625,0.0
1734581135.1644654,-14.6484375,-27.83203125,-36.62109375,-16.11328125,0.0
1734581135.168371,-9.765625,-31.73828125,-17.08984375,-20.99609375,0.0
1734581135.1722765,-5.859375,-34.1796875,-45.41015625,-24.90234375,0.0
1734581135.176182,-9.765625,-28.3203125,-87.890625,-22.94921875,0.0
1734581135.1800878,-17.08984375,-30.76171875,-55.6640625,-20.99609375,0.0
1734581135.1839933,-18.06640625,-36.62109375,-3.41796875,-32.71484375,0.0
1734581135.1878989,-9.765625,-34.1796875,-35.15625,-26.3671875,0.0
1734581135.1918044,-0.9765625,-32.2265625,-93.75,-10.25390625,0.0
1734581135.19571,-8.7890625,-35.64453125,-35.64453125,-19.04296875,0.0
1734581135.1996155,-9.765625,-34.66796875,-24.4140625,-14.6484375,0.0
1734581135.2035291,0.0,-33.69140625,-44.43359375,0.0,0.0
1734581135.2074347,0.0,-33.203125,-13.18359375,0.0,0.0
1734581135.2113404,0.0,-32.71484375,5.37109375,0.0,0.0
1734581135.215246,0.0,-34.1796875,-11.23046875,0.0,0.0
1734581135.2191515,0.0,-36.1328125,-44.921875,0.0,0.0
1734581135.223057,0.0,-41.50390625,-67.87109375,0.0,0.0
1734581135.2269626,0.0,-43.9453125,-55.17578125,0.0,0.0
1734581135.230868,0.0,-37.59765625,-16.6015625,0.0,0.0
1734581135.2347736,0.0,-35.15625,-72.75390625,0.0,0.0
1734581135.2386794,0.0,-37.59765625,-86.9140625,0.0,0.0
1734581135.242585,0.0,-33.203125,0.9765625,0.0,0.0
1734581135.2464905,0.0,-34.1796875,-15.13671875,0.0,0.0
1734581135.2504034,-20.5078125,-36.62109375,-51.7578125,-35.64453125,0.0
1734581135.254309,-23.92578125,-34.66796875,-20.01953125,-35.64453125,0.0
1734581135.2582145,-20.5078125,-35.15625,-13.671875,-30.76171875,0.0
1734581135.26212,-19.53125,-38.0859375,-53.22265625,-26.3671875,0.0
1734581135.2660258,-24.4140625,-44.921875,-44.921875,-32.2265625,0.0
1734581135.2699313,-22.4609375,-47.36328125,-39.55078125,-39.0625,0.0
1734581135.2738369,-34.1796875,-43.45703125,-32.71484375,-41.015625,0.0
1734581135.2777424,-34.1796875,-37.109375,-20.99609375,-40.52734375,0.0
1734581135.281648,-23.92578125,-35.15625,-97.65625,-27.34375,0.0
1734581135.2855535,-32.71484375,-37.59765625,-41.50390625,-34.1796875,0.0
1734581135.289459,-32.71484375,-33.69140625,13.671875,-36.1328125,0.0
1734581135.2933648,-31.25,-35.64453125,-41.015625,-32.2265625,0.0
1734581135.297277,-43.9453125,-41.9921875,-22.94921875,-37.109375,0.0
1734581135.3011825,-45.41015625,-41.015625,4.8828125,-30.2734375,0.0
1734581135.305088,-33.203125,-41.015625,-9.765625,-25.87890625,0.0
1734581135.3089936,-33.203125,-45.41015625,-39.0625,-31.73828125,0.0
1734581135.312899,-32.2265625,-41.9921875,-37.109375,-29.78515625,0.0
1734581135.3168046,-25.87890625,-38.57421875,-52.734375,-32.2265625,0.0
1734581135.3207102,-32.71484375,-41.50390625,-58.59375,-39.55078125,0.0
1734581135.324616,-29.78515625,-36.62109375,-83.49609375,-25.390625,0.0
1734581135.3285215,-26.85546875,-33.203125,-84.47265625,-18.06640625,0.0
1734581135.332427,-23.4375,-29.296875,0.9765625,-28.3203125,0.0
1734581135.3363326,-22.94921875,-28.3203125,-8.7890625,-25.87890625,0.0
1734581135.340238,-30.2734375,-34.1796875,-52.24609375,-20.99609375,0.0
1734581135.34415,-25.87890625,-38.57421875,-27.34375,-19.04296875,0.0
1734581135.3480556,-22.4609375,-38.57421875,-8.7890625,-22.94921875,0.0
1734581135.3519611,-17.578125,-38.0859375,-34.1796875,-25.390625,0.0
1734581135.3558667,-10.7421875,-41.50390625,-65.91796875,-22.94921875,0.0
1734581135.3597722,-14.6484375,-39.0625,-41.015625,-18.06640625,0.0
1734581135.363678,-15.13671875,-31.73828125,-47.36328125,-23.92578125,0.0
1734581135.3675835,-16.11328125,-30.2734375,-72.75390625,-41.015625,0.0
1734581135.371489,-17.578125,-31.73828125,-111.81640625,-30.2734375,0.0
1734581135.3753946,-22.94921875,-27.83203125,-49.31640625,-28.80859375,0.0
1734581135.3793,-19.04296875,-27.34375,-8.7890625,-32.2265625,0.0
1734581135.3832057,-8.7890625,-33.203125,-38.0859375,-25.390625,0.0
1734581135.3871112,0.9765625,-30.2734375,-52.734375,-23.4375,0.0
1734581135.391022,-7.32421875,-34.1796875,-20.5078125,-26.85546875,0.0
1734581135.3949277,-12.20703125,-40.52734375,-11.23046875,-23.4375,0.0
1734581135.3988333,-16.11328125,-38.57421875,-49.31640625,-16.6015625,0.0
1734581135.4027388,-21.97265625,-40.0390625,-40.0390625,-20.5078125,0.0
1734581135.4066443,-14.6484375,-38.57421875,-27.34375,-20.01953125,0.0
1734581135.4105499,-5.37109375,-36.1328125,-49.31640625,-12.20703125,0.0
1734581135.4144554,-11.71875,-37.109375,-87.40234375,-17.578125,0.0
1734581135.418361,-26.3671875,-38.0859375,-84.9609375,-24.90234375,0.0
1734581135.4222667,-26.85546875,-36.1328125,-0.9765625,-24.4140625,0.0
1734581135.4261723,-22.4609375,-32.71484375,-3.90625,-17.08984375,0.0
1734581135.4300778,-23.92578125,-31.25,-45.8984375,-16.11328125,0.0
1734581135.4339833,-27.34375,-38.57421875,-30.76171875,-28.3203125,0.0
1734581135.4378934,-25.87890625,-41.015625,-38.0859375,-35.15625,0.0
1734581135.441799,-20.99609375,-34.66796875,-42.96875,-23.92578125,0.0
1734581135.4457045,-16.11328125,-32.2265625,-49.31640625,-16.6015625,0.0
1734581135.44961,-13.671875,-31.73828125,-37.109375,-23.92578125,0.0
1734581135.4535158,-17.08984375,-30.2734375,-20.5078125,-25.87890625,0.0
1734581135.4574213,-22.4609375,-30.76171875,-59.08203125,-20.01953125,0.0
1734581135.4613268,-25.390625,-33.203125,-121.58203125,-14.6484375,0.0
1734581135.4652324,-28.80859375,-34.1796875,-43.45703125,-27.83203125,0.0
1734581135.469138,-23.4375,-36.1328125,14.16015625,-37.109375,0.0
1734581135.4730434,-14.16015625,-33.203125,-30.2734375,-30.76171875,0.0
1734581135.476949,-22.94921875,-29.296875,-51.26953125,-25.87890625,0.0
1734581135.4808547,-27.83203125,-34.66796875,-55.6640625,-23.4375,0.0
1734581135.4847636,0.0,-33.69140625,-33.203125,-12.20703125,0.0
1734581135.4886692,0.0,-30.2734375,-26.85546875,-6.8359375,0.0
1734581135.4925747,0.0,-36.1328125,-33.69140625,-10.25390625,0.0
1734581135.4964802,0.0,-43.45703125,-38.0859375,-13.671875,0.0
1734581135.5003858,0.0,-40.52734375,-31.25,-24.4140625,0.0
1734581135.5042913,0.0,-39.55078125,-70.80078125,-17.578125,0.0
1734581135.5081968,0.0,-34.66796875,-76.171875,-9.27734375,0.0
1734581135.5121026,0.0,-22.4609375,7.32421875,-15.625,0.0
1734581135.5160081,0.0,-23.92578125,5.37109375,-15.625,0.0
1734581135.5199137,0.0,-26.85546875,-41.9921875,-18.5546875,0.0
1734581135.5238192,0.0,-25.87890625,-32.2265625,-33.69140625,0.0
1734581135.5277247,0.0,-28.80859375,-2.44140625,-50.78125,0.0
1734581135.531639,-31.25,-34.1796875,-20.99609375,-50.78125,0.0
1734581135.5355446,-33.203125,-38.57421875,-59.08203125,-47.8515625,0.0
1734581135.5394504,-39.0625,-33.69140625,-30.76171875,-50.29296875,0.0
1734581135.543356,-37.59765625,-27.34375,-14.6484375,-40.52734375,0.0
1734581135.5472615,-29.296875,-28.3203125,-35.15625,-38.57421875,0.0
1734581135.551167,-17.578125,-29.296875,-77.1484375,-35.15625,0.0
1734581135.5550725,-21.484375,-32.2265625,-63.96484375,-31.73828125,0.0
1734581135.558978,-29.78515625,-39.55078125,-2.9296875,-42.96875,0.0
1734581135.5628836,-30.76171875,-42.96875,-24.90234375,-45.8984375,0.0
1734581135.5667894,-16.11328125,-42.48046875,-94.7265625,-34.1796875,0.0
1734581135.570695,-23.92578125,-41.9921875,-32.2265625,-37.59765625,0.0
1734581135.5746005,-30.76171875,-36.62109375,-17.08984375,-36.1328125,0.0
1734581135.578514,-19.53125,-33.203125,-37.109375,-32.71484375,0.0
1734581135.5824196,-7.8125,-32.2265625,-15.13671875,-32.71484375,0.0
1734581135.5863252,5.859375,-24.90234375,-8.30078125,-21.97265625,0.0
1734581135.590231,8.7890625,-24.4140625,-5.859375,-15.625,0.0
1734581135.5941365,-1.46484375,-29.296875,-34.66796875,-14.6484375,0.0
1734581135.598042,-11.71875,-36.62109375,-63.4765625,-23.4375,0.0
1734581135.6019475,-20.01953125,-40.52734375,-37.109375,-36.62109375,0.0
1734581135.605853,-35.15625,-48.828125,-7.8125,-49.31640625,0.0
1734581135.6097586,-38.57421875,-53.22265625,-70.80078125,-46.875,0.0
1734581135.6136642,-36.62109375,-52.734375,-110.83984375,-38.0859375,0.0
1734581135.61757,-34.1796875,-45.8984375,-20.99609375,-39.55078125,0.0
1734581135.6214755,-23.4375,-32.71484375,-5.37109375,-27.34375,0.0
1734581135.6253884,-15.13671875,-24.4140625,-55.6640625,-13.671875,0.0
1734581135.629294,2.9296875,-23.92578125,-32.71484375,-10.7421875,0.0
1734581135.6331995,0.48828125,-24.90234375,-7.32421875,-16.11328125,0.0
1734581135.637105,-22.4609375,-29.296875,-26.3671875,-28.3203125,0.0
1734581135.6410105,-30.2734375,-37.59765625,-60.546875,-43.9453125,0.0
1734581135.6449163,-42.96875,-46.875,-75.1953125,-49.8046875,0.0
1734581135.6488218,-48.828125,-55.17578125,-46.875,-52.24609375,0.0
1734581135.6527274,-41.9921875,-55.6640625,-44.43359375,-54.6875,0.0
1734581135.656633,-23.4375,-47.36328125,-126.953125,-33.203125,0.0
1734581135.6605384,-16.6015625,-38.0859375,-49.8046875,-13.671875,0.0
1734581135.664444,-5.859375,-30.2734375,-10.25390625,-9.27734375,0.0
1734581135.6683495,3.90625,-23.92578125,-63.96484375,-12.6953125,0.0
1734581135.6722674,6.8359375,-16.11328125,-53.22265625,-5.859375,0.0
1734581135.6761732,0.48828125,-18.06640625,-33.203125,-8.7890625,0.0
1734581135.6800787,-13.671875,-23.92578125,-19.53125,-24.90234375,0.0
1734581135.6839843,-34.1796875,-29.78515625,-47.36328125,-31.25,0.0
1734581135.6878898,-42.96875,-37.59765625,-42.96875,-41.015625,0.0
1734581135.6917953,-38.0859375,-39.55078125,-44.43359375,-46.38671875,0.0
1734581135.695701,-36.1328125,-40.0390625,-45.8984375,-47.8515625,0.0
1734581135.6996064,-45.41015625,-41.50390625,-65.4296875,-46.38671875,0.0
1734581135.7035122,-37.59765625,-36.62109375,-71.77734375,-47.8515625,0.0
1734581135.7074177,-41.50390625,-32.2265625,-13.18359375,-52.734375,0.0
1734581135.7113233,-47.36328125,-36.1328125,-11.23046875,-47.8515625,0.0
1734581135.7152288,-36.62109375,-32.71484375,-44.921875,-40.0390625,0.0
1734581135.7191403,-41.50390625,-30.2734375,-20.99609375,-46.38671875,0.0
1734581135.7230458,-41.50390625,-31.73828125,-6.8359375,-54.19921875,0.0
1734581135.7269514,-33.203125,-31.73828125,-36.1328125,-47.36328125,0.0
1734581135.730857,-27.83203125,-32.2265625,-65.91796875,-39.55078125,0.0
1734581135.7347624,-32.71484375,-33.203125,-47.8515625,-35.15625,0.0
1734581135.738668,-38.0859375,-35.64453125,-38.0859375,-38.0859375,0.0
1734581135.7425735,-36.1328125,-35.15625,-66.89453125,-37.109375,0.0
1734581135.7464793,-42.96875,-36.1328125,-66.40625,-36.62109375,0.0
1734581135.7503848,-47.8515625,-41.50390625,-22.4609375,-48.828125,0.0
1734581135.7542903,-44.921875,-42.48046875,-9.765625,-54.19921875,0.0
1734581135.7581959,-57.12890625,-42.48046875,-48.33984375,-50.78125,0.0
1734581135.7621014,-59.08203125,-42.96875,-121.58203125,-43.9453125,0.0
1734581135.7660122,-45.8984375,-37.59765625,-42.96875,-48.828125,0.0
1734581135.7699177,-35.64453125,-35.64453125,13.18359375,-45.41015625,0.0
1734581135.7738233,-29.78515625,-34.66796875,-24.4140625,-30.2734375,0.0
1734581135.7777288,-36.62109375,-31.73828125,-27.34375,-31.73828125,0.0
1734581135.7816343,-33.69140625,-25.390625,-11.23046875,-39.0625,0.0
1734581135.78554,-23.4375,-29.78515625,-31.25,-35.64453125,0.0
1734581135.7894456,-29.296875,-36.1328125,-81.0546875,-27.83203125,0.0
1734581135.7933512,-43.45703125,-37.59765625,-83.984375,-39.0625,0.0
1734581135.7972567,-49.31640625,-41.9921875,0.9765625,-53.22265625,0.0
1734581135.8011622,-43.45703125,-43.9453125,3.41796875,-49.8046875,0.0
1734581135.8050678,-43.9453125,-44.43359375,-51.26953125,-45.8984375,0.0
1734581135.8089733,-38.0859375,-44.43359375,-31.73828125,-40.0390625,0.0
1734581135.8128839,-31.25,-39.0625,-5.859375,-23.92578125,0.0
1734581135.8167894,-32.2265625,-35.15625,-31.73828125,-17.578125,0.0
1734581135.820695,-25.390625,-32.2265625,-64.94140625,-18.5546875,0.0
1734581135.8246005,-21.484375,-30.2734375,-39.0625,-20.99609375,0.0
1734581135.828506,-22.4609375,-32.2265625,-18.06640625,-25.87890625,0.0
1734581135.8324115,-9.27734375,-32.2265625,-65.4296875,-19.53125,0.0
1734581135.8363173,2.9296875,-32.71484375,-132.32421875,-7.8125,0.0
1734581135.8402228,-0.9765625,-35.15625,-53.22265625,-14.6484375,0.0
1734581135.8441284,-9.27734375,-33.69140625,3.41796875,-22.4609375,0.0
1734581135.848034,-13.18359375,-29.296875,-37.109375,-19.53125,0.0
1734581135.8519394,-21.97265625,-32.2265625,-63.96484375,-21.97265625,0.0
1734581135.855845,-21.97265625,-36.1328125,-55.17578125,-21.97265625,0.0
1734581135.8597543,-20.99609375,-33.203125,0.0,-29.78515625,0.0
1734581135.8636599,-19.04296875,-30.2734375,0.0,-37.59765625,0.0
1734581135.8675654,-18.06640625,-34.1796875,0.0,-33.69140625,0.0
1734581135.8714712,-16.6015625,-33.203125,0.0,-33.203125,0.0
1734581135.8753767,-10.25390625,-30.76171875,0.0,-26.3671875,0.0
1734581135.8792822,-13.18359375,-37.59765625,0.0,-23.92578125,0.0
1734581135.8831878,-17.08984375,-39.0625,0.0,-27.34375,0.0
1734581135.8870933,-16.6015625,-35.15625,0.0,-28.3203125,0.0
1734581135.8909988,-16.11328125,-35.64453125,0.0,-28.80859375,0.0
1734581135.8949044,-6.34765625,-33.203125,0.0,-21.484375,0.0
1734581135.8988101,-0.9765625,-28.3203125,0.0,-20.99609375,0.0
1734581135.9027157,-9.765625,-29.78515625,0.0,-20.99609375,0.0
1734581135.9066298,-6.8359375,-30.2734375,-6.34765625,-17.578125,0.0
1734581135.9105356,-0.48828125,-28.80859375,-40.52734375,-11.71875,0.0
1734581135.914441,5.859375,-30.76171875,-18.5546875,-3.41796875,0.0
1734581135.9183466,5.859375,-31.25,-4.8828125,-6.34765625,0.0
1734581135.9222522,-3.90625,-28.80859375,-37.59765625,-10.25390625,0.0
1734581135.9261577,-8.30078125,-28.80859375,-83.49609375,-8.7890625,0.0
1734581135.9300632,3.90625,-28.80859375,-52.734375,-8.30078125,0.0
1734581135.9339688,0.9765625,-29.296875,3.41796875,-8.7890625,0.0
1734581135.9378746,-14.16015625,-31.25,-32.2265625,-7.8125,0.0
1734581135.94178,-16.6015625,-35.15625,-101.5625,-8.30078125,0.0
1734581135.9456856,-26.85546875,-41.50390625,-42.48046875,-25.390625,0.0
1734581135.9495912,-36.62109375,-43.9453125,-26.3671875,-41.015625,0.0
1734581135.9535048,-37.109375,-42.96875,-45.8984375,-41.50390625,0.0
1734581135.9574103,-38.57421875,-41.9921875,-18.06640625,-37.109375,0.0
1734581135.9613159,-40.52734375,-37.109375,-12.20703125,-35.15625,0.0
1734581135.9652216,-36.62109375,-33.203125,-28.3203125,-34.66796875,0.0
1734581135.9691272,-33.69140625,-36.62109375,-52.734375,-29.296875,0.0
1734581135.9730327,-25.87890625,-36.62109375,-67.87109375,-27.83203125,0.0
1734581135.9769382,-22.94921875,-30.76171875,-57.6171875,-33.69140625,0.0
1734581135.9808438,-32.2265625,-29.78515625,-23.92578125,-34.1796875,0.0
1734581135.9847493,-28.80859375,-36.62109375,-81.0546875,-20.5078125,0.0
1734581135.9886549,-27.83203125,-38.57421875,-94.23828125,-17.578125,0.0
1734581135.9925606,-30.2734375,-31.25,-13.18359375,-35.64453125,0.0
1734581135.9964662,-24.4140625,-33.203125,-25.87890625,-35.64453125,0.0
1734581136.000379,-15.13671875,-34.1796875,-71.77734375,-23.92578125,0.0
1734581136.0042846,-4.39453125,-30.2734375,-59.08203125,-18.5546875,0.0
1734581136.0081902,-6.8359375,-29.78515625,-36.62109375,-22.94921875,0.0
1734581136.0120957,-2.44140625,-28.80859375,-46.38671875,-25.87890625,0.0
1734581136.0160012,-2.9296875,-29.296875,-72.75390625,-19.04296875,0.0
1734581136.0199068,-18.06640625,-33.203125,-79.58984375,-16.6015625,0.0
1734581136.0238125,-23.4375,-33.203125,-58.59375,-27.83203125,0.0
1734581136.027718,-20.5078125,-32.2265625,-65.4296875,-33.69140625,0.0
1734581136.0316236,-31.25,-32.71484375,-120.1171875,-18.06640625,0.0
1734581136.0355291,-33.203125,-32.71484375,-40.52734375,-24.90234375,0.0
1734581136.0394347,-34.66796875,-31.73828125,-3.90625,-42.48046875,0.0
1734581136.0433402,-39.55078125,-26.85546875,-58.59375,-39.55078125,0.0
1734581136.0472524,-40.52734375,-26.85546875,-34.1796875,-36.62109375,0.0
1734581136.051158,-25.87890625,-29.296875,-6.34765625,-32.71484375,0.0
1734581136.0550635,-22.4609375,-29.296875,-19.53125,-33.69140625,0.0
1734581136.058969,-28.80859375,-33.203125,-52.24609375,-32.2265625,0.0
1734581136.0628746,-36.1328125,-41.9921875,-57.12890625,-37.59765625,0.0
1734581136.06678,-33.69140625,-44.43359375,-56.15234375,-41.50390625,0.0
1734581136.0706856,-26.85546875,-34.1796875,-55.6640625,-38.0859375,0.0
1734581136.0745914,-23.4375,-35.15625,-89.84375,-38.57421875,0.0
1734581136.078497,-25.87890625,-39.0625,-94.23828125,-27.34375,0.0
1734581136.0824025,-28.3203125,-37.109375,-11.71875,-25.390625,0.0
1734581136.086308,-19.53125,-36.62109375,-28.80859375,-24.90234375,0.0
1734581136.0902135,-11.23046875,-36.62109375,-67.3828125,-15.13671875,0.0
1734581136.0941253,-7.32421875,-33.69140625,-30.76171875,-18.5546875,0.0
1734581136.0980308,-16.11328125,-31.25,-6.8359375,-29.296875,0.0
1734581136.1019363,-22.4609375,-30.76171875,-33.203125,-23.4375,0.0
1734581136.1058419,-18.5546875,-31.73828125,-58.59375,-25.87890625,0.0
1734581136.1097476,-10.25390625,-32.71484375,-27.83203125,-36.62109375,0.0
1734581136.1136532,-22.4609375,-32.2265625,-41.50390625,-36.62109375,0.0
1734581136.1175587,-33.69140625,-28.80859375,-65.91796875,-34.1796875,0.0
1734581136.1214643,-27.83203125,-28.80859375,-106.4453125,-24.90234375,0.0
1734581136.1253698,-28.3203125,-25.87890625,-39.0625,-27.83203125,0.0
1734581136.1292753,-30.76171875,-23.4375,17.578125,-36.1328125,0.0
1734581136.1331809,-25.87890625,-29.296875,-33.69140625,-36.1328125,0.0
1734581136.1370866,-35.15625,-29.78515625,-62.01171875,-41.9921875,0.0
1734581136.1409974,-45.41015625,-29.78515625,-25.87890625,-50.78125,0.0
1734581136.144903,-37.59765625,-35.15625,-40.0390625,-45.8984375,0.0
1734581136.1488085,-41.9921875,-36.1328125,-70.3125,-37.59765625,0.0
1734581136.152714,-37.59765625,-30.2734375,-26.85546875,-28.3203125,0.0
1734581136.1566195,-35.64453125,-28.3203125,-11.23046875,-24.90234375,0.0
1734581136.160525,-38.57421875,-27.83203125,-38.0859375,-26.85546875,0.0
1734581136.1644309,-35.15625,-32.2265625,-77.63671875,-27.34375,0.0
1734581136.1683364,-34.1796875,-39.55078125,-86.42578125,-25.87890625,0.0
1734581136.172242,-30.2734375,-37.59765625,-2.9296875,-27.83203125,0.0
1734581136.1761475,-22.4609375,-36.62109375,0.48828125,-26.3671875,0.0
1734581136.180053,-23.92578125,-38.0859375,-60.546875,-21.484375,0.0
1734581136.1839585,-20.99609375,-39.0625,-44.43359375,-25.87890625,0.0
1734581136.1878688,-20.5078125,-35.64453125,-13.18359375,-35.15625,0.0
1734581136.1917744,-7.32421875,-31.73828125,-30.2734375,-31.25,0.0
1734581136.19568,-1.46484375,-32.2265625,-61.03515625,-22.94921875,0.0
1734581136.1995854,-10.7421875,-36.1328125,-41.9921875,-27.83203125,0.0
1734581136.203491,-13.18359375,-35.64453125,-29.78515625,-22.4609375,0.0
1734581136.2073965,-9.765625,-36.1328125,-64.94140625,-17.08984375,0.0
1734581136.211302,-11.23046875,-33.203125,-105.95703125,-13.18359375,0.0
1734581136.2152078,-24.4140625,-34.1796875,-30.76171875,-23.92578125,0.0
1734581136.2191133,-29.78515625,-37.109375,9.765625,-33.203125,0.0
1734581136.223019,-28.80859375,-41.50390625,-40.52734375,-29.78515625,0.0
1734581136.2269244,-20.99609375,-40.52734375,-59.08203125,-22.4609375,0.0
1734581136.23083,-4.8828125,-34.1796875,-49.31640625,-14.6484375,0.0
1734581136.2347393,-14.16015625,-35.15625,-25.390625,-16.6015625,0.0
1734581136.2386448,-23.92578125,-39.55078125,-37.59765625,-20.5078125,0.0
1734581136.2425504,-22.94921875,-40.0390625,-42.96875,-16.6015625,0.0
1734581136.246456,-13.671875,-33.69140625,-19.53125,-6.8359375,0.0
1734581136.2503614,-14.16015625,-33.69140625,-18.06640625,-5.859375,0.0
1734581136.2542672,-18.06640625,-35.64453125,-79.58984375,-4.8828125,0.0
1734581136.2581728,-9.765625,-25.87890625,-83.49609375,4.8828125,0.0
1734581136.2620783,-13.18359375,-26.3671875,-15.13671875,2.44140625,0.0
1734581136.2659838,-7.8125,-31.25,-42.48046875,-4.39453125,0.0
1734581136.2698894,-9.27734375,-22.4609375,-59.08203125,-3.90625,0.0
1734581136.273795,-20.5078125,-17.08984375,-23.4375,-8.7890625,0.0
1734581136.2777007,-18.5546875,-16.11328125,-3.90625,-15.625,0.0
1734581136.281615,-20.01953125,-18.06640625,-26.85546875,-21.97265625,0.0
1734581136.2855206,-14.6484375,-16.11328125,-63.4765625,-26.3671875,0.0
1734581136.289426,-20.5078125,-12.20703125,-40.52734375,-32.2265625,0.0
1734581136.2933316,-27.83203125,-13.18359375,-11.23046875,-39.55078125,0.0
1734581136.2972372,-14.16015625,-11.71875,-41.50390625,-31.25,0.0
1734581136.3011427,-12.20703125,-10.25390625,-90.8203125,-25.390625,0.0
1734581136.3050485,-28.3203125,-17.08984375,-62.5,-39.55078125,0.0
1734581136.308954,-21.97265625,-19.04296875,-10.7421875,-44.43359375,0.0
1734581136.3128595,-12.6953125,-18.06640625,-43.45703125,-37.59765625,0.0
1734581136.316765,-16.11328125,-23.92578125,-102.5390625,-30.2734375,0.0
1734581136.3206706,-27.34375,-26.85546875,-33.69140625,-35.64453125,0.0
1734581136.3245761,-28.80859375,-31.73828125,-25.87890625,-38.0859375,0.0
1734581136.32849,-19.04296875,-35.64453125,-47.8515625,-36.1328125,0.0
1734581136.3323956,-17.08984375,-34.66796875,-22.4609375,-32.71484375,0.0
1734581136.336301,-16.6015625,-35.64453125,-13.671875,-28.80859375,0.0
1734581136.3402069,-13.18359375,-34.1796875,-24.4140625,-28.3203125,0.0
1734581136.3441124,-16.6015625,-32.71484375,-62.5,-27.34375,0.0
1734581136.348018,-6.8359375,-28.3203125,-72.265625,-17.08984375,0.0
1734581136.3519235,-2.9296875,-25.87890625,-30.76171875,-15.13671875,0.0
1734581136.355829,-14.16015625,-26.3671875,-4.8828125,-25.390625,0.0
1734581136.3597345,-11.23046875,-24.4140625,-71.77734375,-21.484375,0.0
1734581136.36364,-13.671875,-24.4140625,-85.44921875,-23.4375,0.0
1734581136.3675458,-25.390625,-23.4375,10.7421875,-35.15625,0.0
1734581136.3714514,-18.5546875,-25.87890625,6.8359375,-28.3203125,0.0
1734581136.3753643,-12.6953125,-26.85546875,-34.66796875,-36.1328125,0.0
1734581136.3792698,-23.4375,-28.3203125,-21.484375,-48.828125,0.0
1734581136.3831754,-20.01953125,-34.1796875,-31.73828125,-51.26953125,0.0
1734581136.387081,-26.3671875,-36.62109375,-29.296875,-58.10546875,0.0
1734581136.3909867,-33.69140625,-34.66796875,-41.015625,-60.05859375,0.0
1734581136.3948922,-28.3203125,-37.109375,-60.05859375,-55.17578125,0.0
1734581136.3987978,-29.296875,-35.64453125,-29.296875,-63.96484375,0.0
1734581136.4027033,-18.5546875,-27.83203125,-21.484375,-56.15234375,0.0
1734581136.4066088,-19.53125,-30.76171875,-106.4453125,-33.69140625,0.0
1734581136.4105144,-31.73828125,-35.64453125,-31.25,-43.45703125,0.0
1734581136.41442,-21.484375,-35.64453125,24.90234375,-54.19921875,0.0
1734581136.4183257,-22.4609375,-37.109375,-40.0390625,-49.31640625,0.0
1734581136.4222379,-25.390625,-33.69140625,-27.83203125,-46.38671875,0.0
1734581136.4261434,-29.296875,-33.203125,-0.48828125,-43.9453125,0.0
1734581136.430049,-32.71484375,-36.1328125,-3.41796875,-40.0390625,0.0
1734581136.4339545,-18.06640625,-33.203125,-30.76171875,-31.25,0.0
1734581136.43786,-19.04296875,-35.15625,-47.8515625,-27.34375,0.0
1734581136.4417655,-33.69140625,-38.57421875,-45.41015625,-22.4609375,0.0
1734581136.4456713,-34.1796875,-39.0625,-33.69140625,-23.92578125,0.0
1734581136.4495769,-21.97265625,-35.64453125,-63.96484375,-20.5078125,0.0
1734581136.4534824,-27.83203125,-37.59765625,-81.54296875,-19.53125,0.0
1734581136.457388,-41.9921875,-39.0625,-4.39453125,-37.59765625,0.0
1734581136.4612935,-37.59765625,-40.0390625,-7.8125,-38.57421875,0.0
1734581136.465199,-28.3203125,-40.52734375,-53.7109375,-37.109375,0.0
1734581136.469111,-27.34375,-36.1328125,0.0,-41.50390625,0.0
1734581136.4730165,-31.25,-34.66796875,0.0,-42.96875,0.0
1734581136.476922,-28.80859375,-35.64453125,0.0,-44.921875,0.0
1734581136.4808276,-35.15625,-36.62109375,0.0,-42.48046875,0.0
1734581136.4847333,-40.52734375,-36.62109375,0.0,-50.78125,0.0
1734581136.4886389,-32.71484375,-32.2265625,0.0,-52.734375,0.0
1734581136.4925444,-21.484375,-30.2734375,0.0,-41.50390625,0.0
1734581136.49645,-14.6484375,-33.69140625,0.0,-30.76171875,0.0
1734581136.5003555,-25.87890625,-35.15625,0.0,-39.0625,0.0
1734581136.504261,-30.2734375,-31.73828125,0.0,-48.33984375,0.0
1734581136.5081666,-20.01953125,-28.80859375,0.0,-36.1328125,0.0
1734581136.5120723,-30.76171875,-31.73828125,0.0,-29.296875,0.0
1734581136.5159829,-35.15625,-34.66796875,-17.578125,-38.0859375,0.0
1734581136.5198886,-33.203125,-35.15625,-10.7421875,-43.45703125,0.0
1734581136.5237942,-35.64453125,-39.0625,-45.41015625,-40.52734375,0.0
1734581136.5276997,-33.203125,-41.50390625,-37.109375,-36.62109375,0.0
1734581136.5316052,-20.99609375,-36.1328125,-26.3671875,-28.3203125,0.0
1734581136.5355108,-26.85546875,-35.15625,-44.43359375,-36.62109375,0.0
1734581136.5394163,-38.0859375,-39.55078125,-82.03125,-35.64453125,0.0
1734581136.543322,-29.296875,-42.96875,-83.984375,-20.5078125,0.0
1734581136.5472276,-36.62109375,-43.9453125,9.27734375,-29.78515625,0.0
1734581136.5511332,-28.80859375,-38.0859375,17.578125,-21.97265625,0.0
1734581136.5550387,-27.34375,-38.57421875,-45.41015625,-19.53125,0.0
1734581136.5589442,-44.921875,-43.9453125,-48.828125,-32.2265625,0.0
1734581136.5628543,-39.55078125,-43.45703125,-16.6015625,-29.296875,0.0
1734581136.5667598,-33.203125,-37.109375,-22.94921875,-25.87890625,0.0
1734581136.5706656,-32.71484375,-33.69140625,-51.7578125,-30.2734375,0.0
1734581136.5745711,-25.87890625,-32.2265625,-34.66796875,-27.34375,0.0
1734581136.5784767,-12.20703125,-32.2265625,-23.92578125,-20.5078125,0.0
1734581136.5823822,-8.30078125,-37.59765625,-68.359375,-20.5078125,0.0
1734581136.5862877,-12.6953125,-42.96875,-129.39453125,-15.625,0.0
1734581136.5901933,-21.484375,-43.45703125,-51.7578125,-25.87890625,0.0
1734581136.5940988,-21.484375,-43.45703125,0.0,-37.59765625,0.0
1734581136.5980046,-30.2734375,-45.41015625,-37.109375,-36.1328125,0.0
1734581136.60191,-33.69140625,-41.9921875,-62.01171875,-33.69140625,0.0
1734581136.6058156,-20.99609375,-41.015625,-60.546875,-28.80859375,0.0
1734581136.6097307,-22.94921875,-43.9453125,-24.90234375,-31.25,0.0
1734581136.6136363,-24.4140625,-42.48046875,-31.73828125,-27.83203125,0.0
1734581136.617542,-24.90234375,-35.64453125,-50.29296875,-21.484375,0.0
1734581136.6214476,-31.73828125,-31.73828125,-28.80859375,-28.3203125,0.0
1734581136.625353,-34.1796875,-34.1796875,-18.5546875,-29.78515625,0.0
1734581136.6292586,-33.203125,-34.1796875,-65.4296875,-23.92578125,0.0
1734581136.6331642,-30.76171875,-33.203125,-79.1015625,-22.94921875,0.0
1734581136.6370697,-26.3671875,-30.2734375,-6.8359375,-33.69140625,0.0
1734581136.6409752,-34.66796875,-27.34375,0.9765625,-35.64453125,0.0
1734581136.644881,-33.69140625,-28.80859375,-54.19921875,-26.85546875,0.0
1734581136.6487865,-22.94921875,-26.3671875,-33.69140625,-19.53125,0.0
1734581136.652692,-21.484375,-24.4140625,1.46484375,-16.11328125,0.0
1734581136.6566064,-23.4375,-26.85546875,-20.01953125,-14.16015625,0.0
1734581136.660512,-23.92578125,-30.2734375,-55.17578125,-21.97265625,0.0
1734581136.6644175,-21.97265625,-25.390625,-34.1796875,-24.90234375,0.0
1734581136.668323,-24.90234375,-24.90234375,-3.41796875,-27.34375,0.0
1734581136.6722288,-8.7890625,-21.97265625,-37.59765625,-23.92578125,0.0
1734581136.6761343,0.0,-16.11328125,-79.58984375,-12.6953125,0.0
1734581136.68004,-21.484375,-20.01953125,-70.80078125,-14.16015625,0.0
1734581136.6839454,-31.25,-24.4140625,-30.2734375,-26.85546875,0.0
1734581136.687851,-27.34375,-23.92578125,-25.87890625,-30.76171875,0.0
1734581136.6917565,-30.2734375,-30.76171875,-111.328125,-19.53125,0.0
1734581136.695662,-43.9453125,-37.59765625,-57.12890625,-30.2734375,0.0
1734581136.6995678,-41.015625,-34.66796875,-12.6953125,-33.69140625,0.0
1734581136.7034817,0.0,-33.69140625,-32.71484375,-32.71484375,0.0
1734581136.7073872,0.0,-34.1796875,-21.484375,-39.0625,0.0
1734581136.7112927,0.0,-31.25,-10.7421875,-35.64453125,0.0
1734581136.7151983,0.0,-32.2265625,-17.578125,-23.4375,0.0
1734581136.719104,0.0,-35.15625,-43.9453125,-20.99609375,0.0
1734581136.7230096,0.0,-41.9921875,-71.2890625,-29.296875,0.0
1734581136.7269151,0.0,-42.48046875,-43.45703125,-25.87890625,0.0
1734581136.7308207,0.0,-41.015625,-1.953125,-30.2734375,0.0
1734581136.7347262,0.0,-40.52734375,-71.2890625,-29.78515625,0.0
1734581136.7386317,0.0,-38.57421875,-89.84375,-16.11328125,0.0
1734581136.7425375,0.0,-41.015625,-5.37109375,-29.78515625,0.0
1734581136.746443,0.0,-41.50390625,-21.97265625,-35.15625,0.0
1734581136.7503557,-23.4375,-39.55078125,-53.22265625,-30.2734375,0.0
1734581136.7542615,-19.04296875,-40.52734375,-29.296875,-37.59765625,0.0
1734581136.758167,-22.94921875,-39.0625,-5.37109375,-36.1328125,0.0
1734581136.7620726,-31.73828125,-42.48046875,-29.78515625,-35.64453125,0.0
1734581136.765978,-27.83203125,-41.9921875,-67.3828125,-34.1796875,0.0
1734581136.7698836,-23.4375,-40.52734375,-68.84765625,-29.296875,0.0
1734581136.7737892,-24.90234375,-43.45703125,-52.24609375,-31.73828125,0.0
1734581136.777695,-23.4375,-39.0625,-41.015625,-30.76171875,0.0
1734581136.7816005,-23.92578125,-39.55078125,-118.65234375,-23.4375,0.0
1734581136.785506,-28.80859375,-43.9453125,-56.640625,-29.296875,0.0
1734581136.7894115,-23.92578125,-38.57421875,0.48828125,-33.203125,0.0
1734581136.793317,-22.94921875,-37.109375,-53.22265625,-22.4609375,0.0
1734581136.7972293,-33.69140625,-37.109375,-36.62109375,-14.6484375,0.0
1734581136.8011348,-30.2734375,-32.71484375,-3.90625,-16.6015625,0.0
1734581136.8050404,-23.4375,-36.62109375,-15.13671875,-16.11328125,0.0
1734581136.808946,-19.53125,-36.62109375,-37.59765625,-12.6953125,0.0
1734581136.8128517,-14.6484375,-32.71484375,-46.875,-10.7421875,0.0
1734581136.8167572,-19.04296875,-39.55078125,-60.546875,-11.23046875,0.0
1734581136.8206627,-15.13671875,-42.96875,-46.875,-11.23046875,0.0
1734581136.8245683,-15.625,-37.59765625,-38.57421875,-5.37109375,0.0
1734581136.8284738,-18.06640625,-36.1328125,-35.15625,-11.71875,0.0
1734581136.8323793,-11.23046875,-31.73828125,-8.7890625,-14.16015625,0.0
1734581136.8362849,-7.32421875,-30.76171875,-15.13671875,-11.71875,0.0
1734581136.8401906,-7.8125,-29.78515625,-78.61328125,-12.20703125,0.0
1734581136.844102,-8.30078125,-28.80859375,-65.91796875,-12.6953125,0.0
1734581136.8480074,-10.25390625,-27.34375,-1.953125,-18.06640625,0.0
1734581136.851913,-4.8828125,-22.94921875,-23.92578125,-18.06640625,0.0
1734581136.8558185,-8.30078125,-27.34375,-62.5,-22.94921875,0.0
1734581136.8597243,-21.484375,-30.2734375,-39.55078125,-26.3671875,0.0
1734581136.8636298,-20.5078125,-27.83203125,-44.921875,-27.34375,0.0
1734581136.8675354,-12.20703125,-26.3671875,-72.75390625,-23.92578125,0.0
1734581136.871441,2.9296875,-23.92578125,-118.1640625,-10.25390625,0.0
1734581136.8753464,-9.765625,-26.3671875,-48.828125,-16.6015625,0.0
1734581136.879252,-20.99609375,-28.80859375,17.578125,-29.78515625,0.0
1734581136.8831575,-15.13671875,-29.296875,-30.76171875,-29.78515625,0.0
1734581136.8870633,-14.6484375,-33.203125,-61.03515625,-30.76171875,0.0
1734581136.890974,-18.06640625,-35.64453125,-30.2734375,-28.3203125,0.0
1734581136.8948796,-26.85546875,-37.109375,-19.04296875,-32.71484375,0.0
1734581136.898785,-34.66796875,-40.0390625,-41.9921875,-36.1328125,0.0
1734581136.9026906,-31.73828125,-37.109375,-32.71484375,-33.203125,0.0
1734581136.9065962,-34.1796875,-33.69140625,-16.6015625,-32.71484375,0.0
1734581136.910502,-33.203125,-34.1796875,-40.0390625,-33.203125,0.0
1734581136.9144075,-20.99609375,-36.1328125,-83.984375,-28.80859375,0.0
1734581136.918313,-28.80859375,-35.64453125,-91.796875,-24.90234375,0.0
1734581136.9222186,-35.64453125,-27.34375,-5.37109375,-30.2734375,0.0
1734581136.926124,-28.3203125,-26.85546875,-3.90625,-36.1328125,0.0
1734581136.9300296,-23.92578125,-30.76171875,-50.78125,-34.1796875,0.0
1734581136.9339352,-28.80859375,-31.73828125,-26.3671875,-33.69140625,0.0
1734581136.9378452,-34.1796875,-32.71484375,-10.7421875,-37.109375,0.0
1734581136.9417508,-38.57421875,-35.15625,-40.0390625,-38.0859375,0.0
1734581136.9456563,-33.69140625,-34.1796875,-63.96484375,-35.15625,0.0
1734581136.9495618,-25.390625,-33.203125,-37.109375,-31.73828125,0.0
1734581136.9534674,-27.34375,-33.69140625,-28.3203125,-41.50390625,0.0
1734581136.957373,-22.94921875,-37.59765625,-66.40625,-47.8515625,0.0
1734581136.9612787,-12.6953125,-40.52734375,-125.9765625,-30.76171875,0.0
1734581136.9651842,-11.71875,-40.52734375,-57.6171875,-22.4609375,0.0
1734581136.9690897,-17.08984375,-33.203125,4.8828125,-22.4609375,0.0
1734581136.9729953,-24.4140625,-26.85546875,-56.640625,-33.69140625,0.0
1734581136.9769008,-26.3671875,-28.3203125,-71.77734375,-40.52734375,0.0
1734581136.9808064,-15.625,-29.78515625,-51.7578125,-34.1796875,0.0
1734581136.9847155,-15.13671875,-28.80859375,-20.01953125,-29.78515625,0.0
1734581136.988621,-23.92578125,-34.1796875,-36.1328125,-22.4609375,0.0
1734581136.9925265,-21.484375,-40.52734375,-53.22265625,-23.4375,0.0
1734581136.996432,-8.7890625,-35.15625,-31.25,-21.97265625,0.0
1734581137.0003378,-20.99609375,-38.57421875,-33.69140625,-16.6015625,0.0
1734581137.0042434,-17.578125,-39.55078125,-100.09765625,-20.01953125,0.0
1734581137.008149,-2.9296875,-37.59765625,-102.5390625,-20.5078125,0.0
1734581137.0120544,-18.5546875,-37.109375,-20.5078125,-34.66796875,0.0
1734581137.01596,-22.94921875,-36.1328125,-32.2265625,-45.41015625,0.0
1734581137.0198655,-18.06640625,-35.64453125,-77.63671875,-38.0859375,0.0
1734581137.023771,-23.4375,-34.1796875,-50.78125,-37.109375,0.0
1734581137.0276768,-22.4609375,-31.73828125,-20.99609375,-35.64453125,0.0
1734581137.0315914,-22.4609375,-32.71484375,-61.03515625,-31.25,0.0
1734581137.035497,-26.3671875,-32.71484375,-69.82421875,-20.99609375,0.0
1734581137.0394025,-29.78515625,-28.3203125,-24.90234375,-22.4609375,0.0
1734581137.0433083,-31.73828125,-31.25,-16.6015625,-27.34375,0.0
1734581137.0472138,-34.1796875,-34.66796875,-55.17578125,-26.3671875,0.0
1734581137.0511193,-36.62109375,-36.1328125,-94.7265625,-27.34375,0.0
1734581137.0550249,-34.66796875,-37.59765625,-62.98828125,-28.3203125,0.0
1734581137.0589304,-36.62109375,-36.1328125,-12.6953125,-34.66796875,0.0
1734581137.062836,-31.25,-37.59765625,-49.31640625,-31.73828125,0.0
1734581137.0667415,-25.390625,-36.62109375,-121.09375,-17.578125,0.0
1734581137.0706472,-27.34375,-38.0859375,-49.8046875,-27.34375,0.0
1734581137.0745528,-20.99609375,-41.50390625,-34.1796875,-34.1796875,0.0
1734581137.0784664,-18.5546875,-41.015625,-58.59375,-22.4609375,0.0
1734581137.082372,-22.4609375,-42.48046875,-31.73828125,-21.484375,0.0
1734581137.0862775,-22.94921875,-38.0859375,-13.671875,-25.390625,0.0
1734581137.090183,-18.5546875,-36.62109375,-37.109375,-19.53125,0.0
1734581137.0940888,-17.578125,-42.96875,-59.5703125,-16.11328125,0.0
1734581137.0979943,-24.4140625,-43.9453125,-55.17578125,-16.11328125,0.0
1734581137.1018999,-20.01953125,-44.921875,-43.45703125,-23.92578125,0.0
1734581137.1058054,-21.484375,-45.8984375,-10.25390625,-36.62109375,0.0
1734581137.109711,-18.5546875,-44.43359375,-52.24609375,-32.71484375,0.0
1734581137.1136165,-14.16015625,-44.43359375,-81.54296875,-23.4375,0.0
1734581137.117522,-29.78515625,-39.55078125,-7.8125,-26.85546875,0.0
1734581137.1214278,-40.0390625,-38.57421875,-15.13671875,-35.15625,0.0
1734581137.1253405,-37.109375,-42.48046875,-60.546875,-36.62109375,0.0
1734581137.1292462,-32.71484375,-42.96875,-31.73828125,-40.0390625,0.0
1734581137.1331518,-27.83203125,-44.43359375,-7.8125,-39.0625,0.0
1734581137.1370573,-24.4140625,-42.48046875,-29.78515625,-41.015625,0.0
1734581137.1409628,-24.90234375,-43.9453125,-72.265625,-43.45703125,0.0
1734581137.1448684,-23.4375,-41.50390625,-74.21875,-32.71484375,0.0
1734581137.148774,-19.04296875,-36.1328125,-40.0390625,-28.80859375,0.0
1734581137.1526794,-15.625,-36.62109375,-44.921875,-29.78515625,0.0
1734581137.1565852,-16.6015625,-38.57421875,-108.3984375,-27.34375,0.0
1734581137.1604908,-30.76171875,-43.45703125,-32.71484375,-38.0859375,0.0
1734581137.1643963,-31.25,-41.9921875,17.08984375,-41.50390625,0.0
1734581137.1683018,-17.08984375,-40.0390625,-61.03515625,-33.69140625,0.0
1734581137.172214,-18.5546875,-43.45703125,-94.23828125,-20.99609375,0.0
1734581137.1761196,-24.4140625,-41.015625,-9.765625,-30.2734375,0.0
1734581137.1800253,-31.25,-36.1328125,4.39453125,-41.50390625,0.0
1734581137.1839309,-25.390625,-34.1796875,-41.015625,-33.69140625,0.0
1734581137.1878364,-18.06640625,-31.73828125,-26.85546875,-34.1796875,0.0
1734581137.191742,-27.83203125,-33.203125,-39.55078125,-36.62109375,0.0
1734581137.1956475,-32.71484375,-35.64453125,-37.109375,-32.71484375,0.0
1734581137.199553,-23.92578125,-30.2734375,-60.546875,-29.296875,0.0
1734581137.2034588,-23.4375,-29.296875,-110.83984375,-18.06640625,0.0
1734581137.2073643,-32.71484375,-37.109375,-20.01953125,-24.4140625,0.0
1734581137.2112699,-29.296875,-43.45703125,-22.4609375,-32.71484375,0.0
1734581137.2151754,-27.34375,-40.0390625,-58.10546875,-31.25,0.0
1734581137.2190874,-33.203125,-37.59765625,-20.99609375,-34.66796875,0.0
1734581137.222993,-24.4140625,-37.109375,-11.71875,-34.66796875,0.0
1734581137.2268984,-17.578125,-35.15625,-39.0625,-35.64453125,0.0
1734581137.230804,-14.16015625,-37.109375,-65.91796875,-41.50390625,0.0
1734581137.2347095,-15.625,-37.59765625,-56.15234375,-39.0625,0.0
1734581137.2386153,-24.4140625,-33.203125,-61.5234375,-31.73828125,0.0
1734581137.2425208,-18.5546875,-33.203125,-73.2421875,-26.3671875,0.0
1734581137.2464263,-7.8125,-38.0859375,-121.58203125,-19.53125,0.0
1734581137.2503319,-22.94921875,-37.109375,-52.734375,-23.92578125,0.0
1734581137.2542374,-26.85546875,-35.64453125,15.625,-30.76171875,0.0
1734581137.258143,-20.99609375,-35.64453125,-31.25,-26.3671875,0.0
1734581137.2620485,-24.4140625,-36.1328125,-56.640625,-28.80859375,0.0
1734581137.2659652,-25.390625,-36.62109375,-33.203125,-35.15625,0.0
1734581137.2698708,-11.71875,-35.64453125,-33.69140625,-30.76171875,0.0
1734581137.2737763,-9.27734375,-30.76171875,-35.64453125,-25.87890625,0.0
1734581137.2776818,-20.01953125,-29.78515625,-25.390625,-26.85546875,0.0
1734581137.2815874,-21.97265625,-31.73828125,-28.3203125,-25.87890625,0.0
1734581137.285493,-23.4375,-32.2265625,-52.24609375,-36.1328125,0.0
1734581137.2893984,-27.83203125,-34.66796875,-85.9375,-40.52734375,0.0
1734581137.2933042,-32.71484375,-41.9921875,-89.84375,-35.15625,0.0
1734581137.2972097,-45.41015625,-41.9921875,-0.48828125,-44.43359375,0.0
1734581137.3011153,-52.734375,-41.9921875,-7.32421875,-50.29296875,0.0
1734581137.3050208,-47.8515625,-42.48046875,-60.05859375,-49.8046875,0.0
1734581137.3089263,-48.828125,-40.52734375,-29.296875,-57.6171875,0.0
1734581137.3128364,-42.48046875,-36.1328125,-6.34765625,-53.22265625,0.0
1734581137.3167422,-39.55078125,-36.1328125,-23.4375,-51.26953125,0.0
1734581137.3206477,-50.29296875,-42.96875,-54.19921875,-58.10546875,0.0
1734581137.3245533,-45.8984375,-45.8984375,-56.640625,-64.94140625,0.0
1734581137.3284588,-45.8984375,-42.96875,-52.24609375,-63.4765625,0.0
1734581137.3323643,-44.921875,-40.0390625,-68.359375,-52.24609375,0.0
1734581137.3362699,-35.64453125,-33.203125,-82.51953125,-53.22265625,0.0
1734581137.3401756,-41.50390625,-34.1796875,-36.62109375,-57.6171875,0.0
1734581137.3440812,-37.59765625,-36.1328125,-13.18359375,-53.7109375,0.0
1734581137.3479867,-37.109375,-38.57421875,-38.0859375,-52.24609375,0.0
1734581137.3518922,-36.1328125,-41.015625,-117.67578125,-40.52734375,0.0
1734581137.3557978,-35.64453125,-42.48046875,-74.21875,-43.9453125,0.0
1734581137.3597066,-44.43359375,-42.48046875,-2.9296875,-50.29296875,0.0
1734581137.3636122,-41.9921875,-45.8984375,-34.66796875,-45.41015625,0.0
1734581137.367518,-38.0859375,-48.828125,-35.15625,-47.8515625,0.0
1734581137.3714235,-43.45703125,-45.8984375,-15.625,-48.828125,0.0
1734581137.375329,-40.52734375,-41.015625,-24.90234375,-50.29296875,0.0
1734581137.3792346,-31.25,-40.0390625,-77.63671875,-37.59765625,0.0
1734581137.38314,-30.76171875,-40.52734375,-110.83984375,-26.85546875,0.0
1734581137.3870456,-39.0625,-40.0390625,-44.43359375,-37.109375,0.0
1734581137.3909514,-35.15625,-40.52734375,-6.34765625,-36.62109375,0.0
1734581137.394857,-29.296875,-42.48046875,-36.1328125,-27.83203125,0.0
1734581137.3987625,-42.96875,-44.921875,-27.83203125,-31.25,0.0
1734581137.402668,-43.9453125,-44.43359375,-7.8125,-36.62109375,0.0
1734581137.4065824,-34.66796875,-42.48046875,-20.99609375,-45.41015625,0.0
1734581137.410488,-35.64453125,-45.41015625,-44.43359375,-46.38671875,0.0
1734581137.4143934,-41.50390625,-45.41015625,-25.390625,-41.015625,0.0
1734581137.418299,-43.9453125,-43.9453125,-12.20703125,-44.43359375,0.0
1734581137.4222045,-41.015625,-44.43359375,-46.38671875,-44.921875,0.0
1734581137.42611,-34.66796875,-43.9453125,-99.12109375,-40.52734375,0.0
1734581137.4300158,-36.62109375,-39.0625,-67.3828125,-41.015625,0.0
1734581137.4339213,-37.109375,-35.15625,-5.859375,-37.109375,0.0
1734581137.4378269,-34.66796875,-35.64453125,-41.9921875,-40.52734375,0.0
1734581137.4417324,-32.2265625,-37.59765625,-129.39453125,-36.62109375,0.0
1734581137.445638,-31.25,-40.52734375,-72.75390625,-32.2265625,0.0
1734581137.4495435,-30.2734375,-38.0859375,-29.296875,-27.83203125,0.0
1734581137.4534576,-31.25,-33.203125,0.0,-22.94921875,0.0
1734581137.4573631,-29.78515625,-34.66796875,0.0,-23.4375,0.0
1734581137.4612687,-32.71484375,-36.1328125,0.0,-20.5078125,0.0
1734581137.4651742,-35.64453125,-35.64453125,0.0,-17.08984375,0.0
1734581137.46908,-23.92578125,-35.15625,0.0,-13.671875,0.0
1734581137.4729855,-15.625,-35.15625,0.0,-7.32421875,0.0
1734581137.476891,-14.16015625,-34.66796875,0.0,-6.8359375,0.0
1734581137.4807966,-21.484375,-32.71484375,0.0,-10.7421875,0.0
1734581137.484702,-16.6015625,-30.76171875,0.0,-1.953125,0.0
1734581137.4886076,-6.8359375,-28.80859375,0.0,0.9765625,0.0
1734581137.4925134,-22.4609375,-31.73828125,0.0,-12.6953125,0.0
1734581137.496419,-27.83203125,-35.15625,0.0,-13.671875,0.0
1734581137.500332,-27.34375,-40.0390625,-70.80078125,-19.53125,0.0
1734581137.5042377,-27.34375,-39.55078125,-74.70703125,-26.85546875,0.0
1734581137.5081432,-20.5078125,-37.59765625,-39.0625,-22.94921875,0.0
1734581137.5120487,-21.484375,-34.66796875,-37.109375,-19.53125,0.0
1734581137.5159543,-14.6484375,-31.25,-68.359375,-19.53125,0.0
1734581137.5198598,-8.30078125,-29.78515625,-71.2890625,-17.08984375,0.0
1734581137.5237656,-5.859375,-24.90234375,-51.26953125,-10.25390625,0.0
1734581137.527671,3.41796875,-22.94921875,-32.71484375,-5.37109375,0.0
1734581137.5315766,4.39453125,-28.3203125,-115.72265625,4.39453125,0.0
1734581137.5354822,-13.18359375,-30.76171875,-58.59375,-4.39453125,0.0
1734581137.5393877,-18.06640625,-29.78515625,-11.23046875,-9.765625,0.0
1734581137.5432932,-17.578125,-35.15625,-62.98828125,-11.23046875,0.0
1734581137.547206,-16.6015625,-32.71484375,-40.0390625,-18.06640625,0.0
1734581137.5511115,-5.859375,-32.2265625,-21.484375,-20.5078125,0.0
1734581137.555017,-4.8828125,-37.109375,-38.0859375,-14.16015625,0.0
1734581137.5589225,-12.6953125,-36.1328125,-64.94140625,-3.90625,0.0
1734581137.562828,-8.30078125,-32.71484375,-69.82421875,-9.765625,0.0
1734581137.5667338,-2.44140625,-30.2734375,-63.96484375,-15.625,0.0
1734581137.5706394,-3.41796875,-30.2734375,-58.59375,-9.27734375,0.0
1734581137.574545,-4.8828125,-29.78515625,-63.96484375,-3.90625,0.0
1734581137.5784504,-6.8359375,-30.2734375,-51.7578125,-10.25390625,0.0
1734581137.582356,-11.71875,-31.73828125,-23.92578125,-18.5546875,0.0
1734581137.5862615,-16.11328125,-33.203125,-25.390625,-16.11328125,0.0
1734581137.5901673,-1.953125,-30.76171875,-78.61328125,-11.71875,0.0
1734581137.5940793,0.9765625,-28.3203125,-65.4296875,-18.06640625,0.0
1734581137.5979848,-6.34765625,-27.34375,-2.9296875,-32.2265625,0.0
1734581137.6018906,-7.8125,-29.78515625,-34.1796875,-30.76171875,0.0
1734581137.605796,-13.18359375,-30.76171875,-64.453125,-30.2734375,0.0
1734581137.6097016,-16.11328125,-30.76171875,-31.25,-32.2265625,0.0
1734581137.6136072,-4.8828125,-28.3203125,-38.57421875,-29.296875,0.0
1734581137.6175127,-7.8125,-21.97265625,-61.5234375,-31.25,0.0
1734581137.6214182,-10.7421875,-22.4609375,-108.88671875,-25.87890625,0.0
1734581137.6253238,-11.23046875,-25.87890625,-48.33984375,-31.73828125,0.0
1734581137.6292295,-20.01953125,-26.85546875,22.4609375,-38.57421875,0.0
1734581137.633135,-20.01953125,-27.34375,-8.7890625,-35.15625,0.0
1734581137.6370406,-22.4609375,-31.25,-42.48046875,-39.0625,0.0
1734581137.6409514,-22.4609375,-33.203125,-19.04296875,-39.0625,0.0
1734581137.644857,-27.34375,-32.71484375,1.953125,-39.0625,0.0
1734581137.6487627,-36.62109375,-36.1328125,-31.73828125,-41.50390625,0.0
1734581137.6526682,-32.2265625,-35.15625,-30.2734375,-33.69140625,0.0
1734581137.6565738,-38.0859375,-35.15625,-15.13671875,-31.73828125,0.0
1734581137.6604793,-43.9453125,-33.69140625,-38.57421875,-45.41015625,0.0
1734581137.6643848,-38.57421875,-34.66796875,-69.82421875,-44.43359375,0.0
1734581137.6682904,-36.1328125,-37.59765625,-102.5390625,-27.34375,0.0
1734581137.6721961,-47.8515625,-37.109375,-11.23046875,-37.109375,0.0
1734581137.6761017,-43.9453125,-37.109375,14.6484375,-39.0625,0.0
1734581137.6800072,-33.203125,-37.59765625,-53.7109375,-35.15625,0.0
1734581137.6839128,-38.57421875,-38.57421875,-46.875,-49.8046875,0.0
1734581137.6878285,-42.96875,-38.57421875,-5.37109375,-59.08203125,0.0
1734581137.691734,-36.62109375,-38.0859375,-19.53125,-51.26953125,0.0
1734581137.6956396,-32.71484375,-38.0859375,-56.640625,-47.36328125,0.0
1734581137.6995454,-35.64453125,-38.0859375,-37.109375,-51.26953125,0.0
1734581137.703451,-44.43359375,-40.52734375,-19.04296875,-52.24609375,0.0
1734581137.7073565,-36.1328125,-42.96875,-56.15234375,-40.52734375,0.0
1734581137.711262,-26.85546875,-42.48046875,-108.88671875,-27.83203125,0.0
1734581137.7151675,-38.0859375,-44.43359375,-48.33984375,-38.0859375,0.0
1734581137.719073,-48.33984375,-44.43359375,12.6953125,-49.31640625,0.0
1734581137.7229786,-54.6875,-46.38671875,-18.5546875,-47.36328125,0.0
1734581137.7268844,-45.41015625,-47.36328125,-41.9921875,-49.8046875,0.0
1734581137.73079,-33.69140625,-44.921875,-43.9453125,-51.26953125,0.0
1734581137.734705,-41.9921875,-45.41015625,-19.53125,-47.8515625,0.0
1734581137.7386105,-50.78125,-45.8984375,-20.01953125,-42.96875,0.0
1734581137.742516,-48.828125,-46.875,-32.2265625,-35.15625,0.0
1734581137.7464216,-41.50390625,-43.9453125,-6.8359375,-33.203125,0.0
1734581137.7503273,-37.109375,-35.64453125,-6.34765625,-29.296875,0.0
1734581137.754233,-37.59765625,-37.59765625,-54.19921875,-31.73828125,0.0
1734581137.7581384,-38.57421875,-41.015625,-64.453125,-37.109375,0.0
1734581137.762044,-40.0390625,-39.55078125,-22.4609375,-32.2265625,0.0
1734581137.7659495,-44.921875,-41.015625,-22.4609375,-31.73828125,0.0
1734581137.769855,-26.3671875,-36.1328125,-64.94140625,-23.4375,0.0
1734581137.7737606,-17.578125,-34.66796875,-52.24609375,-19.04296875,0.0
1734581137.7776663,-26.3671875,-36.62109375,-9.765625,-23.4375,0.0
1734581137.7815807,-23.4375,-33.69140625,-19.04296875,-27.83203125,0.0
1734581137.7854862,-11.23046875,-34.1796875,-94.7265625,-16.6015625,0.0
1734581137.7893918,-4.39453125,-34.66796875,-69.3359375,-12.20703125,0.0
1734581137.7932973,-9.27734375,-30.2734375,-4.39453125,-22.4609375,0.0
1734581137.7972028,-3.41796875,-27.83203125,-47.36328125,-21.484375,0.0
1734581137.8011084,1.46484375,-34.1796875,-85.44921875,-10.25390625,0.0
1734581137.8050141,7.8125,-35.15625,-74.21875,-11.23046875,0.0
1734581137.8089197,10.25390625,-28.80859375,-42.48046875,-21.97265625,0.0
1734581137.8128252,-1.953125,-27.83203125,-44.921875,-19.53125,0.0
1734581137.8167307,-5.37109375,-25.390625,-120.60546875,-5.37109375,0.0
1734581137.8206363,-11.71875,-24.4140625,-58.59375,-10.7421875,0.0
1734581137.8245418,-19.53125,-30.2734375,-19.04296875,-21.97265625,0.0
1734581137.8284564,-22.94921875,-33.203125,0.0,-25.390625,0.0
1734581137.832362,-20.99609375,-31.73828125,0.0,-17.08984375,0.0
1734581137.8362675,-23.4375,-34.66796875,0.0,-17.08984375,0.0
1734581137.840173,-26.85546875,-37.109375,0.0,-24.90234375,0.0
1734581137.8440785,-23.4375,-32.71484375,0.0,-15.13671875,0.0
1734581137.847984,-8.7890625,-31.25,0.0,-6.8359375,0.0
1734581137.8518898,-2.9296875,-30.2734375,0.0,-2.9296875,0.0
1734581137.8557954,-15.13671875,-30.2734375,0.0,-5.859375,0.0
1734581137.859701,-12.6953125,-31.25,0.0,-3.90625,0.0
1734581137.8636065,-7.8125,-32.71484375,0.0,7.32421875,0.0
1734581137.867512,-3.41796875,-31.73828125,0.0,-12.20703125,0.0
1734581137.8714175,-0.48828125,-30.2734375,0.0,-17.578125,0.0
1734581137.8753307,-3.41796875,-31.73828125,-62.98828125,-7.32421875,0.0
1734581137.8792362,-2.9296875,-34.66796875,-45.8984375,-19.04296875,0.0
1734581137.8831418,-8.7890625,-33.69140625,-14.6484375,-21.97265625,0.0
1734581137.8870473,-11.23046875,-30.76171875,-25.87890625,-23.4375,0.0
1734581137.8909528,-8.7890625,-26.85546875,-61.03515625,-26.3671875,0.0
1734581137.8948584,-9.765625,-25.390625,-82.51953125,-26.85546875,0.0
1734581137.898764,-19.04296875,-26.3671875,-50.78125,-29.78515625,0.0
1734581137.9026697,-26.85546875,-31.25,-33.203125,-28.80859375,0.0
1734581137.9065752,-16.6015625,-38.0859375,-108.88671875,-11.71875,0.0
1734581137.9104807,-14.6484375,-39.55078125,-51.26953125,-22.4609375,0.0
1734581137.9143863,-26.85546875,-40.0390625,-5.37109375,-32.2265625,0.0
1734581137.9182918,-33.203125,-39.0625,-58.59375,-28.3203125,0.0
1734581137.922204,-30.2734375,-34.66796875,-48.33984375,-25.390625,0.0
1734581137.9261098,-33.203125,-33.203125,-7.32421875,-26.85546875,0.0
1734581137.9300153,-32.2265625,-35.64453125,-5.37109375,-24.4140625,0.0
1734581137.9339209,-25.390625,-37.109375,-37.59765625,-11.71875,0.0
1734581137.9378264,-27.83203125,-39.55078125,-38.0859375,-12.6953125,0.0
1734581137.941732,-30.76171875,-41.9921875,-49.31640625,-14.6484375,0.0
1734581137.9456375,-24.90234375,-41.50390625,-42.48046875,-14.6484375,0.0
1734581137.9495432,-16.11328125,-45.41015625,-62.98828125,-12.20703125,0.0
1734581137.9534488,-21.97265625,-46.38671875,-99.609375,-16.11328125,0.0
1734581137.9573543,-28.80859375,-42.48046875,-7.8125,-34.66796875,0.0
1734581137.9612598,-23.92578125,-44.43359375,10.7421875,-31.25,0.0
1734581137.9651654,-21.484375,-45.8984375,-40.0390625,-23.4375,0.0
1734581137.9690769,-17.578125,-44.43359375,-23.92578125,-24.90234375,0.0
1734581137.9729824,-12.20703125,-41.9921875,-11.71875,-28.3203125,0.0
1734581137.976888,-14.6484375,-37.59765625,-58.59375,-26.3671875,0.0
1734581137.9807935,-23.4375,-36.1328125,-73.73046875,-26.3671875,0.0
1734581137.984699,-23.4375,-37.109375,-37.59765625,-35.64453125,0.0
1734581137.9886048,-9.765625,-37.109375,-38.57421875,-36.1328125,0.0
1734581137.9925103,1.46484375,-34.1796875,-64.94140625,-29.78515625,0.0
1734581137.9964159,-2.44140625,-31.25,-115.234375,-17.08984375,0.0
1734581138.0003214,-9.765625,-31.73828125,-46.38671875,-16.6015625,0.0
1734581138.004227,-11.71875,-32.71484375,22.94921875,-19.04296875,0.0
1734581138.0081325,-20.01953125,-36.1328125,-21.484375,-13.671875,0.0
1734581138.0120382,-19.53125,-35.15625,-63.4765625,-9.27734375,0.0
1734581138.0159488,-22.4609375,-32.71484375,-26.85546875,-15.13671875,0.0
1734581138.0198545,-27.83203125,-30.76171875,-0.48828125,-21.484375,0.0
1734581138.02376,-37.109375,-32.2265625,-39.0625,-26.85546875,0.0
1734581138.0276656,-32.71484375,-32.71484375,-39.0625,-35.15625,0.0
1734581138.0315711,-16.11328125,-31.25,-22.94921875,-29.78515625,0.0
1734581138.0354767,-15.625,-31.73828125,-43.9453125,-23.92578125,0.0
1734581138.0393822,-13.671875,-28.80859375,-80.078125,-10.7421875,0.0
1734581138.043288,-12.6953125,-29.296875,-92.28515625,-12.6953125,0.0
1734581138.0471935,-15.13671875,-32.2265625,-3.90625,-25.87890625,0.0
1734581138.051099,-9.27734375,-32.2265625,-3.41796875,-23.92578125,0.0
1734581138.0550046,-15.625,-34.66796875,-50.29296875,-32.71484375,0.0
1734581138.0589101,-27.83203125,-39.0625,-31.25,-45.8984375,0.0
1734581138.0628197,-28.80859375,-36.62109375,-22.4609375,-49.31640625,0.0
1734581138.0667255,-21.484375,-34.1796875,-34.66796875,-41.9921875,0.0
1734581138.070631,-25.87890625,-40.0390625,-63.96484375,-43.45703125,0.0
1734581138.0745366,-39.55078125,-46.38671875,-47.8515625,-47.8515625,0.0
1734581138.078442,-40.0390625,-42.48046875,-15.625,-53.7109375,0.0
1734581138.0823476,-37.109375,-40.52734375,-58.10546875,-58.10546875,0.0
1734581138.0862532,-29.296875,-38.0859375,-125.9765625,-52.734375,0.0
1734581138.090159,-23.92578125,-35.64453125,-50.78125,-60.546875,0.0
1734581138.0940645,-31.73828125,-33.69140625,-0.9765625,-56.15234375,0.0
1734581138.09797,-37.59765625,-28.3203125,-37.109375,-57.6171875,0.0
1734581138.1018755,-28.80859375,-28.80859375,-42.96875,-58.59375,0.0
1734581138.105781,-27.34375,-35.64453125,-34.66796875,-52.734375,0.0
1734581138.1096904,-41.015625,-35.15625,0.0,-55.6640625,0.0
1734581138.113596,-38.0859375,-32.71484375,0.0,-52.734375,0.0
1734581138.1175017,-36.62109375,-37.59765625,0.0,-60.546875,0.0
1734581138.1214073,-34.66796875,-37.59765625,0.0,-59.08203125,0.0
1734581138.1253128,-25.87890625,-36.62109375,0.0,-57.6171875,0.0
1734581138.1292183,-27.83203125,-42.96875,0.0,-57.12890625,0.0
1734581138.1331239,-33.203125,-46.38671875,0.0,-49.31640625,0.0
1734581138.1370294,-35.64453125,-45.41015625,0.0,-48.33984375,0.0
1734581138.1409352,-33.203125,-43.45703125,0.0,-41.50390625,0.0
1734581138.1448407,-32.71484375,-43.45703125,0.0,-45.8984375,0.0
1734581138.1487463,-22.94921875,-40.52734375,0.0,-56.640625,0.0
1734581138.1526518,-26.3671875,-37.59765625,0.0,-67.3828125,0.0
1734581138.1565661,-36.62109375,-31.73828125,-47.36328125,-63.96484375,0.0
1734581138.1604717,-36.1328125,-36.1328125,-56.15234375,-60.05859375,0.0
1734581138.1643772,-43.45703125,-41.015625,-45.8984375,-68.359375,0.0
1734581138.1682827,-35.15625,-39.55078125,-25.390625,-64.94140625,0.0
1734581138.1721885,-23.92578125,-39.55078125,-39.0625,-58.59375,0.0
1734581138.176094,-28.3203125,-31.73828125,-88.37890625,-44.43359375,0.0
1734581138.1799996,-41.9921875,-31.73828125,-63.4765625,-45.41015625,0.0
1734581138.1839051,-44.921875,-35.15625,-2.44140625,-57.12890625,0.0
1734581138.1878107,-36.1328125,-32.71484375,-37.59765625,-49.31640625,0.0
1734581138.1917162,-35.15625,-38.0859375,-117.1875,-34.1796875,0.0
1734581138.195622,-32.71484375,-39.0625,-53.22265625,-40.52734375,0.0
1734581138.1995275,-27.34375,-37.59765625,-15.625,-45.41015625,0.0
1734581138.203441,-33.203125,-38.0859375,-36.62109375,-37.59765625,0.0
1734581138.2073464,-27.83203125,-36.62109375,-23.4375,-37.109375,0.0
1734581138.211252,-23.4375,-34.66796875,-29.78515625,-32.71484375,0.0
1734581138.2151575,-25.390625,-31.25,-43.9453125,-32.2265625,0.0
1734581138.219063,-24.90234375,-31.73828125,-37.59765625,-34.1796875,0.0
1734581138.2229686,-19.53125,-31.73828125,-58.59375,-32.2265625,0.0
1734581138.2268744,-19.53125,-32.2265625,-52.24609375,-32.71484375,0.0
1734581138.23078,-11.71875,-35.64453125,-3.90625,-30.2734375,0.0
1734581138.2346854,-7.32421875,-33.69140625,-45.8984375,-31.73828125,0.0
1734581138.238591,-15.625,-36.1328125,-79.1015625,-22.94921875,0.0
1734581138.2424965,-8.7890625,-33.69140625,7.8125,-18.5546875,0.0
1734581138.246402,-2.9296875,-29.78515625,0.48828125,-22.4609375,0.0
1734581138.2503152,-17.578125,-31.73828125,-58.10546875,-23.92578125,0.0
1734581138.2542207,-20.99609375,-26.85546875,-33.203125,-22.4609375,0.0
1734581138.2581263,-22.4609375,-28.80859375,-8.7890625,-29.296875,0.0
1734581138.2620318,-20.99609375,-37.109375,-24.4140625,-34.1796875,0.0
1734581138.2659373,-20.01953125,-41.015625,-56.640625,-29.78515625,0.0
1734581138.2698429,-18.5546875,-41.015625,-58.59375,-27.34375,0.0
1734581138.2737484,-20.01953125,-44.43359375,-44.921875,-29.78515625,0.0
1734581138.2776542,-19.53125,-42.48046875,-54.19921875,-30.76171875,0.0
1734581138.2815597,-17.08984375,-34.1796875,-111.81640625,-22.4609375,0.0
1734581138.2854652,-23.4375,-31.25,-56.640625,-29.78515625,0.0
1734581138.2893708,-21.97265625,-35.64453125,2.9296875,-31.73828125,0.0
1734581138.2932763,-23.92578125,-35.15625,-47.8515625,-33.69140625,0.0
1734581138.2971885,-19.04296875,-29.78515625,-52.24609375,-37.59765625,0.0
1734581138.3010943,-6.34765625,-27.83203125,-24.4140625,-27.83203125,0.0
1734581138.3049998,-12.6953125,-30.2734375,-24.4140625,-33.203125,0.0
1734581138.3089054,-15.13671875,-33.69140625,-49.8046875,-37.109375,0.0
1734581138.312811,-11.23046875,-33.203125,-55.17578125,-32.2265625,0.0
1734581138.3167164,-16.6015625,-26.85546875,-58.59375,-28.3203125,0.0
1734581138.320622,-7.8125,-27.34375,-62.98828125,-28.80859375,0.0
1734581138.3245277,-7.8125,-34.1796875,-80.078125,-29.296875,0.0
1734581138.3284333,-15.13671875,-33.203125,-104.98046875,-22.94921875,0.0
1734581138.3323388,-9.765625,-28.3203125,-40.0390625,-23.4375,0.0
1734581138.3362443,-7.8125,-30.76171875,-14.16015625,-24.4140625,0.0
1734581138.3401499,-9.27734375,-29.78515625,-50.78125,-20.5078125,0.0
1734581138.3440614,-9.765625,-25.87890625,-27.34375,-18.5546875,0.0
1734581138.3479671,-10.25390625,-26.85546875,3.41796875,-17.578125,0.0
1734581138.3518727,-5.859375,-25.87890625,-21.97265625,-15.625,0.0
1734581138.3557782,-11.71875,-24.90234375,-58.59375,-12.6953125,0.0
1734581138.3596838,-14.16015625,-25.87890625,-42.96875,-11.71875,0.0
1734581138.3635893,-6.8359375,-26.3671875,-46.38671875,-8.30078125,0.0
1734581138.3674948,-4.39453125,-26.85546875,-60.05859375,-10.25390625,0.0
1734581138.3714006,-3.41796875,-27.83203125,-97.65625,-8.7890625,0.0
1734581138.3753061,-3.41796875,-28.3203125,-42.96875,-5.37109375,0.0
1734581138.3792117,-7.8125,-27.34375,17.08984375,-18.06640625,0.0
1734581138.3831172,-20.99609375,-26.85546875,-19.04296875,-24.90234375,0.0
1734581138.3870227,-13.671875,-26.85546875,-54.6875,-18.06640625,0.0
1734581138.3909335,-4.8828125,-24.90234375,0.0,-21.484375,0.0
1734581138.3948393,-7.8125,-23.92578125,0.0,-25.87890625,0.0
1734581138.3987448,-4.39453125,-20.99609375,0.0,-23.92578125,0.0
1734581138.4026504,-5.859375,-23.92578125,0.0,-29.78515625,0.0
1734581138.406556,-16.6015625,-26.85546875,0.0,-32.2265625,0.0
1734581138.4104614,-20.5078125,-27.83203125,0.0,-30.76171875,0.0
1734581138.414367,-23.4375,-32.2265625,0.0,-32.2265625,0.0
1734581138.4182727,-33.69140625,-29.78515625,0.0,-21.97265625,0.0
1734581138.4221783,-28.80859375,-27.83203125,0.0,-23.4375,0.0
1734581138.4260838,-27.83203125,-32.2265625,0.0,-27.83203125,0.0
1734581138.4299893,-24.4140625,-33.69140625,0.0,-22.94921875,0.0
1734581138.4338949,-20.01953125,-36.62109375,0.0,-21.97265625,0.0
1734581138.4378054,-19.53125,-37.109375,-27.34375,-27.34375,0.0
1734581138.441711,-19.04296875,-32.71484375,-34.66796875,-21.484375,0.0
1734581138.4456165,-17.578125,-34.66796875,-70.3125,-13.18359375,0.0
1734581138.449522,-16.6015625,-32.2265625,-56.640625,-8.7890625,0.0
1734581138.4534276,-14.6484375,-29.296875,-11.71875,-8.7890625,0.0
1734581138.457333,-18.5546875,-36.1328125,-44.921875,-9.27734375,0.0
1734581138.4612389,-23.4375,-41.50390625,-118.1640625,-5.859375,0.0
1734581138.4651444,-20.99609375,-39.0625,-51.26953125,-14.16015625,0.0
1734581138.46905,-16.6015625,-34.66796875,15.13671875,-20.01953125,0.0
1734581138.4729555,-13.671875,-34.1796875,-10.7421875,-20.01953125,0.0
1734581138.476861,-14.16015625,-31.73828125,-46.875,-16.6015625,0.0
1734581138.4807665,-16.11328125,-32.71484375,-51.7578125,-14.16015625,0.0
1734581138.4846761,-25.87890625,-31.73828125,-21.484375,-25.390625,0.0
1734581138.4885817,-31.25,-32.71484375,-23.4375,-31.25,0.0
1734581138.4924872,-31.73828125,-35.15625,-30.2734375,-31.73828125,0.0
1734581138.4963927,-30.76171875,-34.1796875,-18.06640625,-32.2265625,0.0
1734581138.5002983,-28.80859375,-33.203125,-23.4375,-40.0390625,0.0
1734581138.5042038,-29.296875,-30.76171875,-78.125,-41.50390625,0.0
1734581138.5081096,-23.4375,-35.15625,-98.6328125,-39.0625,0.0
1734581138.512015,-29.296875,-35.15625,-18.5546875,-47.36328125,0.0
1734581138.5159206,-45.8984375,-29.78515625,3.41796875,-49.31640625,0.0
1734581138.5198262,-47.8515625,-31.25,-43.9453125,-42.96875,0.0
1734581138.5237317,-41.015625,-34.66796875,-32.2265625,-33.203125,0.0
1734581138.5276372,-43.45703125,-35.15625,1.46484375,-33.69140625,0.0
1734581138.5315518,-48.33984375,-33.203125,0.0,-33.69140625,0.0
1734581138.5354574,-35.64453125,-30.2734375,0.0,-23.92578125,0.0
1734581138.539363,-31.73828125,-35.64453125,0.0,-17.08984375,0.0
1734581138.5432684,-28.3203125,-34.66796875,0.0,-21.484375,0.0
1734581138.547174,-21.97265625,-28.80859375,0.0,-20.5078125,0.0
1734581138.5510798,-14.6484375,-28.80859375,0.0,-2.9296875,0.0
1734581138.5549853,-22.4609375,-32.71484375,0.0,-9.27734375,0.0
1734581138.5588908,-38.57421875,-36.1328125,0.0,-26.3671875,0.0
1734581138.5627964,-35.64453125,-35.64453125,0.0,-13.18359375,0.0
1734581138.566702,-20.99609375,-34.66796875,0.0,1.953125,0.0
1734581138.5706074,-32.2265625,-41.015625,0.0,-17.08984375,0.0
1734581138.5745132,-35.64453125,-40.0390625,0.0,-29.296875,0.0
1734581138.5784268,-27.34375,-34.1796875,-31.73828125,-23.92578125,0.0
1734581138.5823324,-29.78515625,-31.73828125,-28.3203125,-34.66796875,0.0
1734581138.586238,-31.25,-33.69140625,-19.04296875,-44.921875,0.0
1734581138.5901434,-32.2265625,-37.59765625,-11.23046875,-43.45703125,0.0
1734581138.594049,-38.0859375,-36.1328125,-42.96875,-40.0390625,0.0
1734581138.5979548,-43.45703125,-35.15625,-70.80078125,-39.55078125,0.0
1734581138.6018603,-41.50390625,-38.57421875,-42.48046875,-44.43359375,0.0
1734581138.6057658,-34.1796875,-39.0625,-14.6484375,-49.31640625,0.0
1734581138.6096714,-33.203125,-41.015625,-73.73046875,-39.55078125,0.0
1734581138.613577,-30.76171875,-35.64453125,-100.09765625,-15.13671875,0.0
1734581138.6174824,-30.76171875,-32.71484375,-10.25390625,-22.94921875,0.0
1734581138.6213882,-37.59765625,-39.0625,-4.8828125,-26.85546875,0.0
1734581138.6253011,-40.0390625,-38.0859375,-55.6640625,-17.578125,0.0
1734581138.6292067,-32.71484375,-34.1796875,-38.0859375,-18.5546875,0.0
1734581138.6331122,-39.55078125,-38.0859375,-6.34765625,-16.11328125,0.0
1734581138.6370177,-41.9921875,-39.55078125,-24.4140625,-17.578125,0.0
1734581138.6409233,-31.73828125,-37.59765625,-55.17578125,-10.7421875,0.0
1734581138.6448288,-25.390625,-36.1328125,-59.08203125,-3.90625,0.0
1734581138.6487346,-23.92578125,-31.25,-42.96875,-4.39453125,0.0
1734581138.65264,-18.06640625,-33.69140625,-49.8046875,-4.39453125,0.0
1734581138.6565456,-16.11328125,-41.50390625,-104.4921875,1.46484375,0.0
1734581138.6604512,-28.3203125,-42.48046875,-30.76171875,-4.8828125,0.0
1734581138.6643567,-30.76171875,-38.57421875,14.16015625,-22.94921875,0.0
1734581138.6682622,-24.90234375,-37.59765625,-41.015625,-33.69140625,0.0
1734581138.6721747,-12.6953125,-41.015625,-34.1796875,-35.64453125,0.0
1734581138.6760802,-15.13671875,-41.50390625,-13.671875,-36.62109375,0.0
1734581138.6799858,-28.80859375,-39.0625,-23.92578125,-44.43359375,0.0
1734581138.6838913,-27.83203125,-37.59765625,-50.29296875,-43.9453125,0.0
1734581138.6877968,-22.94921875,-38.57421875,-50.78125,-33.69140625,0.0
1734581138.6917024,-25.87890625,-36.62109375,-60.05859375,-28.80859375,0.0
1734581138.6956081,-27.83203125,-32.2265625,-44.921875,-36.1328125,0.0
1734581138.6995137,-26.85546875,-32.2265625,-62.5,-40.0390625,0.0
1734581138.7034192,-33.203125,-37.59765625,-102.5390625,-38.57421875,0.0
1734581138.7073247,-42.96875,-40.52734375,-12.20703125,-43.45703125,0.0
1734581138.7112303,-38.0859375,-42.48046875,-2.9296875,-44.921875,0.0
1734581138.7151358,-35.64453125,-41.9921875,-56.640625,-37.59765625,0.0
1734581138.7190473,0.0,-40.52734375,-41.50390625,-30.76171875,0.0
1734581138.722953,0.0,-41.50390625,-24.90234375,-41.50390625,0.0
1734581138.7268586,0.0,-38.57421875,-43.45703125,-43.9453125,0.0
1734581138.7307642,0.0,-39.0625,-72.75390625,-34.1796875,0.0
1734581138.7346697,0.0,-44.43359375,-52.734375,-31.73828125,0.0
1734581138.7385752,0.0,-41.9921875,-65.91796875,-28.80859375,0.0
1734581138.7424808,0.0,-39.0625,-94.7265625,-22.94921875,0.0
1734581138.7463863,0.0,-36.62109375,-124.51171875,-9.27734375,0.0
1734581138.750292,0.0,-37.109375,-56.15234375,-16.6015625,0.0
1734581138.7541976,0.0,-40.0390625,5.37109375,-23.4375,0.0
1734581138.7581031,0.0,-36.62109375,-35.15625,-22.4609375,0.0
1734581138.7620087,0.0,-32.2265625,-60.546875,-23.92578125,0.0
1734581138.7659194,-27.83203125,-34.66796875,-20.99609375,-25.390625,0.0
1734581138.7698252,-18.5546875,-31.73828125,-10.7421875,-21.97265625,0.0
1734581138.7737308,-18.5546875,-34.66796875,-43.45703125,-12.6953125,0.0
1734581138.7776363,-20.01953125,-38.0859375,-41.015625,-17.08984375,0.0
1734581138.7815418,-26.3671875,-37.109375,-32.2265625,-25.390625,0.0
1734581138.7854474,-26.3671875,-34.1796875,-41.9921875,-28.80859375,0.0
1734581138.789353,-20.99609375,-34.1796875,-74.70703125,-27.83203125,0.0
1734581138.7932587,-19.53125,-34.1796875,-100.09765625,-26.3671875,0.0
1734581138.7971642,-10.25390625,-28.80859375,-22.94921875,-34.66796875,0.0
1734581138.8010697,-18.5546875,-30.2734375,-18.06640625,-33.203125,0.0
1734581138.8049753,-17.08984375,-34.1796875,-62.98828125,-27.83203125,0.0
1734581138.8088808,-7.32421875,-32.2265625,-38.57421875,-27.83203125,0.0
1734581138.812791,-13.18359375,-29.296875,-12.20703125,-27.83203125,0.0
1734581138.8166966,-23.92578125,-34.66796875,-26.85546875,-25.87890625,0.0
1734581138.8206022,-21.484375,-37.59765625,-74.70703125,-24.4140625,0.0
1734581138.8245077,-17.08984375,-35.15625,-44.43359375,-21.97265625,0.0
1734581138.8284132,-17.08984375,-37.109375,-8.30078125,-14.6484375,0.0
1734581138.8323188,-11.71875,-35.64453125,-51.7578125,-8.7890625,0.0
1734581138.8362243,-11.71875,-37.109375,-108.88671875,-6.34765625,0.0
1734581138.84013,-7.8125,-39.0625,-42.96875,-9.765625,0.0
1734581138.8440356,-15.625,-37.59765625,25.390625,-18.5546875,0.0
1734581138.8479412,-25.390625,-33.69140625,-3.90625,-19.04296875,0.0
1734581138.8518467,-27.34375,-30.76171875,-32.2265625,-20.01953125,0.0
1734581138.8557522,-25.390625,-28.3203125,-34.66796875,-16.6015625,0.0
1734581138.8596616,-18.06640625,-27.34375,-15.13671875,-8.30078125,0.0
1734581138.863567,-7.32421875,-26.85546875,-16.6015625,-9.27734375,0.0
1734581138.867473,-11.23046875,-29.296875,-7.32421875,-16.6015625,0.0
1734581138.8713784,-20.01953125,-32.2265625,2.9296875,-19.53125,0.0
1734581138.875284,-24.4140625,-33.69140625,-11.23046875,-27.34375,0.0
1734581138.8791895,-21.484375,-33.203125,-65.4296875,-29.296875,0.0
1734581138.883095,-29.78515625,-32.71484375,-74.70703125,-29.78515625,0.0
1734581138.8870006,-37.59765625,-31.73828125,8.7890625,-34.1796875,0.0
1734581138.8909063,-26.3671875,-30.2734375,0.48828125,-38.57421875,0.0
1734581138.8948119,-12.6953125,-28.80859375,-54.6875,-37.109375,0.0
1734581138.8987174,-22.4609375,-29.296875,-34.1796875,-34.66796875,0.0
1734581138.902623,-25.87890625,-32.2265625,-2.9296875,-35.64453125,0.0
1734581138.9065375,-1.46484375,-29.296875,-19.04296875,-24.90234375,0.0
1734581138.910443,-4.39453125,-30.2734375,-59.08203125,-21.484375,0.0
1734581138.9143488,-24.90234375,-34.66796875,-37.59765625,-26.3671875,0.0
1734581138.9182544,-24.4140625,-33.69140625,-14.16015625,-33.203125,0.0
1734581138.92216,-12.20703125,-33.203125,-59.08203125,-25.87890625,0.0
1734581138.9260654,-13.18359375,-33.203125,-89.35546875,-16.11328125,0.0
1734581138.929971,-19.04296875,-34.1796875,-41.50390625,-14.16015625,0.0
1734581138.9338765,-15.13671875,-39.0625,4.39453125,-17.08984375,0.0
1734581138.9377823,-13.18359375,-39.0625,-31.73828125,-15.13671875,0.0
1734581138.9416878,-22.4609375,-34.1796875,-104.4921875,-4.39453125,0.0
1734581138.9455934,-29.296875,-31.73828125,-49.8046875,-10.7421875,0.0
1734581138.949499,-20.99609375,-38.57421875,-22.94921875,-16.6015625,0.0
1734581138.9534125,-20.5078125,-41.015625,-29.78515625,-26.3671875,0.0
1734581138.957318,-26.3671875,-39.0625,-26.85546875,-36.1328125,0.0
1734581138.9612238,-37.109375,-42.48046875,-29.296875,-37.59765625,0.0
1734581138.9651294,-31.73828125,-41.50390625,-29.78515625,-31.25,0.0
1734581138.969035,-14.6484375,-39.55078125,-52.734375,-26.85546875,0.0
1734581138.9729404,-27.83203125,-42.48046875,-73.2421875,-33.203125,0.0
1734581138.976846,-35.64453125,-43.9453125,-58.10546875,-41.50390625,0.0
1734581138.9807515,-23.4375,-39.0625,-38.0859375,-41.50390625,0.0
1734581138.9846573,-19.53125,-32.71484375,-69.82421875,-32.2265625,0.0
1734581138.9885628,-14.16015625,-33.203125,-81.54296875,-19.53125,0.0
1734581138.9924684,-9.765625,-34.66796875,-1.46484375,-15.13671875,0.0
1734581138.996374,-14.16015625,-33.69140625,-8.7890625,-21.484375,0.0
1734581139.0002863,-14.16015625,-33.69140625,-60.546875,-17.08984375,0.0
1734581139.004192,-4.39453125,-35.64453125,-29.296875,-4.8828125,0.0
1734581139.0080976,2.44140625,-36.62109375,-3.41796875,-0.9765625,0.0
1734581139.0120032,-10.7421875,-38.57421875,-22.94921875,-4.8828125,0.0
1734581139.0159087,-8.30078125,-40.0390625,-49.31640625,-10.25390625,0.0
1734581139.0198143,-3.90625,-41.015625,-58.59375,-11.71875,0.0
1734581139.0237198,-8.7890625,-40.0390625,-31.73828125,-14.16015625,0.0
1734581139.0276256,-0.48828125,-35.64453125,-19.53125,-9.27734375,0.0
1734581139.031531,3.90625,-31.25,-115.234375,4.39453125,0.0
1734581139.0354366,-12.20703125,-38.57421875,-59.08203125,-5.37109375,0.0
1734581139.0393422,-28.3203125,-44.43359375,-8.30078125,-22.4609375,0.0
1734581139.0432477,-29.296875,-39.55078125,-68.84765625,-25.390625,0.0
1734581139.0471597,-28.3203125,-40.0390625,-42.48046875,-27.34375,0.0
1734581139.0510652,-35.15625,-38.57421875,-10.7421875,-32.71484375,0.0
1734581139.054971,-33.203125,-32.2265625,-18.5546875,-41.50390625,0.0
1734581139.0588765,-32.2265625,-33.203125,-41.9921875,-46.38671875,0.0
1734581139.062782,-38.57421875,-34.1796875,-44.43359375,-44.921875,0.0
1734581139.0666876,-26.3671875,-35.15625,-55.6640625,-40.52734375,0.0
1734581139.070593,-30.76171875,-36.62109375,-51.26953125,-38.0859375,0.0
1734581139.0744987,-40.0390625,-35.15625,-62.98828125,-28.3203125,0.0
1734581139.0784044,-30.2734375,-36.62109375,-92.7734375,-29.78515625,0.0
1734581139.08231,-40.0390625,-37.59765625,-11.23046875,-39.55078125,0.0
1734581139.0862155,-48.33984375,-40.52734375,-2.44140625,-39.55078125,0.0
1734581139.090121,-38.57421875,-41.9921875,-57.6171875,-37.109375,0.0
1734581139.0940323,-34.66796875,-40.0390625,-33.69140625,-34.66796875,0.0
1734581139.0979378,-34.66796875,-43.45703125,-33.203125,-31.73828125,0.0
1734581139.1018434,-28.3203125,-44.43359375,-55.17578125,-26.85546875,0.0
1734581139.105749,-27.83203125,-39.55078125,-50.29296875,-21.484375,0.0
1734581139.1096547,-30.76171875,-41.015625,-31.25,-32.71484375,0.0
1734581139.1135602,-28.3203125,-41.9921875,-47.36328125,-31.25,0.0
1734581139.1174657,-33.69140625,-37.109375,-65.4296875,-31.25,0.0
1734581139.1213713,-32.71484375,-34.66796875,-103.02734375,-20.99609375,0.0
1734581139.1252768,-37.109375,-34.1796875,-54.19921875,-22.4609375,0.0
1734581139.1291823,-35.15625,-30.76171875,16.11328125,-32.71484375,0.0
1734581139.133088,-24.4140625,-26.3671875,-20.99609375,-24.4140625,0.0
1734581139.1369936,-25.390625,-32.71484375,-57.12890625,-28.3203125,0.0
1734581139.1409104,-35.15625,-39.0625,0.0,-39.55078125,0.0
1734581139.1448162,-23.4375,-36.1328125,0.0,-31.73828125,0.0
1734581139.1487217,-26.85546875,-40.52734375,0.0,-36.1328125,0.0
1734581139.1526272,-34.66796875,-44.43359375,0.0,-38.57421875,0.0
1734581139.1565328,-30.2734375,-42.96875,0.0,-26.3671875,0.0
1734581139.1604383,-29.296875,-39.0625,0.0,-28.3203125,0.0
1734581139.1643438,-18.06640625,-28.3203125,0.0,-24.4140625,0.0
1734581139.1682496,-17.578125,-25.87890625,0.0,-13.18359375,0.0
1734581139.1721551,-19.04296875,-30.2734375,0.0,-20.99609375,0.0
1734581139.1760607,-7.32421875,-29.78515625,0.0,-19.04296875,0.0
1734581139.1799662,-12.6953125,-32.2265625,0.0,-17.08984375,0.0
1734581139.1838717,-17.08984375,-36.62109375,0.0,-16.6015625,0.0
1734581139.1877818,-23.4375,-38.0859375,0.0,-16.6015625,0.0
1734581139.1916873,-23.92578125,-37.109375,-19.04296875,-25.390625,0.0
1734581139.195593,-12.20703125,-34.1796875,-61.03515625,-22.94921875,0.0
1734581139.1994987,-26.3671875,-34.66796875,-26.85546875,-22.4609375,0.0
1734581139.2034042,-32.71484375,-34.1796875,-1.953125,-20.99609375,0.0
1734581139.2073097,-20.01953125,-30.2734375,-59.08203125,-17.578125,0.0
1734581139.2112153,-20.99609375,-34.1796875,-66.40625,-23.92578125,0.0
1734581139.2151208,-13.671875,-36.62109375,-34.1796875,-21.97265625,0.0
1734581139.2190266,-16.6015625,-35.15625,-34.66796875,-24.4140625,0.0
1734581139.222932,-25.390625,-38.57421875,-30.76171875,-25.390625,0.0
1734581139.2268376,-6.34765625,-39.55078125,-102.5390625,-10.25390625,0.0
1734581139.2307432,-17.08984375,-38.57421875,-63.4765625,-19.04296875,0.0
1734581139.2346525,-26.85546875,-35.15625,6.8359375,-22.4609375,0.0
1734581139.238558,-14.6484375,-30.76171875,-25.390625,-18.5546875,0.0
1734581139.2424638,-11.23046875,-34.66796875,-33.69140625,-22.4609375,0.0
1734581139.2463694,-9.27734375,-34.66796875,-2.44140625,-20.99609375,0.0
1734581139.250275,-3.41796875,-27.83203125,-0.48828125,-19.04296875,0.0
1734581139.2541804,0.9765625,-29.296875,-63.96484375,-15.13671875,0.0
1734581139.258086,-0.48828125,-32.2265625,-78.61328125,-3.90625,0.0
1734581139.2619915,-11.23046875,-34.1796875,-2.44140625,-6.8359375,0.0
1734581139.2658973,-11.71875,-35.15625,8.30078125,-9.27734375,0.0
1734581139.2698028,-8.30078125,-35.15625,-31.25,-5.859375,0.0
1734581139.2737083,-11.71875,-38.57421875,-39.0625,-14.16015625,0.0
1734581139.2776139,-19.53125,-38.57421875,-40.52734375,-20.01953125,0.0
1734581139.2815285,0.0,-34.66796875,-38.57421875,0.0,0.0
1734581139.285434,0.0,-36.62109375,-49.31640625,0.0,0.0
1734581139.2893395,0.0,-36.62109375,-29.78515625,0.0,0.0
1734581139.293245,0.0,-37.59765625,-13.671875,0.0,0.0
1734581139.2971509,0.0,-41.015625,-37.59765625,0.0,0.0
1734581139.3010564,0.0,-32.71484375,-95.703125,0.0,0.0
1734581139.304962,0.0,-31.73828125,-73.2421875,0.0,0.0
1734581139.3088675,0.0,-33.69140625,-5.37109375,0.0,0.0
1734581139.312773,0.0,-32.2265625,-30.2734375,0.0,0.0
1734581139.3166785,0.0,-36.1328125,-108.88671875,0.0,0.0
1734581139.3205843,0.0,-37.109375,-67.3828125,0.0,0.0
1734581139.3244898,0.0,-34.66796875,-33.203125,0.0,0.0
1734581139.3284032,-29.296875,-31.73828125,-40.0390625,-26.3671875,0.0
1734581139.3323088,-25.390625,-31.25,-42.96875,-24.4140625,0.0
1734581139.3362145,-16.11328125,-31.73828125,-46.875,-16.6015625,0.0
1734581139.34012,-19.53125,-32.2265625,-25.390625,-20.99609375,0.0
1734581139.3440256,-22.94921875,-32.71484375,-35.15625,-22.94921875,0.0
1734581139.3479311,-19.53125,-35.15625,-64.94140625,-19.53125,0.0
1734581139.3518367,-18.5546875,-39.0625,-50.29296875,-23.92578125,0.0
1734581139.3557422,-21.484375,-40.52734375,-10.25390625,-22.94921875,0.0
1734581139.359648,-10.25390625,-34.1796875,-62.98828125,-20.5078125,0.0
1734581139.3635535,-12.6953125,-35.15625,-104.98046875,-17.578125,0.0
1734581139.367459,-37.109375,-40.0390625,-15.625,-24.90234375,0.0
1734581139.3713646,-40.0390625,-39.55078125,-8.30078125,-35.64453125,0.0
1734581139.3752775,-44.43359375,-44.921875,-62.01171875,-40.52734375,0.0
1734581139.379183,-53.22265625,-44.43359375,-45.41015625,-42.48046875,0.0
1734581139.3830886,-48.33984375,-38.57421875,-16.6015625,-48.33984375,0.0
1734581139.3869941,-38.0859375,-40.0390625,-39.55078125,-46.875,0.0
1734581139.3908997,-40.52734375,-43.45703125,-74.70703125,-47.8515625,0.0
1734581139.3948054,-47.8515625,-40.52734375,-61.03515625,-51.26953125,0.0
1734581139.398711,-33.69140625,-39.55078125,-50.78125,-49.31640625,0.0
1734581139.4026165,-37.59765625,-41.015625,-59.5703125,-42.96875,0.0
1734581139.406522,-44.921875,-38.57421875,-110.3515625,-26.85546875,0.0
1734581139.4104276,-41.50390625,-41.015625,-48.828125,-29.78515625,0.0
1734581139.414333,-40.52734375,-37.59765625,7.32421875,-32.2265625,0.0
1734581139.4182389,-34.66796875,-36.1328125,-50.29296875,-18.06640625,0.0
1734581139.422151,-30.2734375,-38.0859375,-45.8984375,-25.390625,0.0
1734581139.4260566,-14.16015625,-33.69140625,-16.6015625,-25.390625,0.0
1734581139.4299622,-10.7421875,-34.1796875,-26.85546875,-17.08984375,0.0
1734581139.4338677,-21.97265625,-34.66796875,-48.33984375,-25.87890625,0.0
1734581139.4377735,-19.04296875,-33.203125,-45.8984375,-27.83203125,0.0
1734581139.441679,-15.625,-32.2265625,-49.31640625,-19.04296875,0.0
1734581139.4455845,-20.99609375,-29.78515625,-29.296875,-20.5078125,0.0
1734581139.44949,-23.4375,-30.76171875,-61.03515625,-22.4609375,0.0
1734581139.4533956,-17.578125,-33.69140625,-116.69921875,-20.99609375,0.0
1734581139.4573011,-21.97265625,-34.66796875,-23.92578125,-32.2265625,0.0
1734581139.461207,-23.92578125,-33.69140625,2.9296875,-29.78515625,0.0
1734581139.4651124,-20.99609375,-35.64453125,-52.24609375,-33.203125,0.0
1734581139.4690242,-18.06640625,-34.1796875,-40.0390625,-35.64453125,0.0
1734581139.4729297,-19.53125,-29.296875,-15.13671875,-29.78515625,0.0
1734581139.4768353,-24.4140625,-29.78515625,-33.203125,-33.69140625,0.0
1734581139.4807408,-23.92578125,-33.69140625,-62.5,-32.71484375,0.0
1734581139.4846466,-38.57421875,-31.73828125,-45.41015625,-39.0625,0.0
1734581139.488552,-33.69140625,-33.69140625,-47.8515625,-46.875,0.0
1734581139.4924576,-27.34375,-38.0859375,-65.91796875,-40.52734375,0.0
1734581139.4963632,-30.2734375,-37.109375,-102.5390625,-24.90234375,0.0
1734581139.5002687,-27.34375,-35.15625,-48.33984375,-23.92578125,0.0
1734581139.5041742,-35.64453125,-32.71484375,13.18359375,-24.4140625,0.0
1734581139.50808,-31.73828125,-33.69140625,-29.78515625,-9.765625,0.0
1734581139.5119855,-21.484375,-34.66796875,-63.96484375,-2.9296875,0.0
1734581139.5158963,-25.390625,-34.1796875,-45.8984375,0.0,0.0
1734581139.5198019,-37.109375,-35.15625,-15.13671875,0.0,0.0
1734581139.5237074,-35.15625,-32.71484375,-34.66796875,0.0,0.0
1734581139.527613,-25.390625,-30.76171875,-34.1796875,0.0,0.0
1734581139.5315185,-29.296875,-30.2734375,-27.83203125,0.0,0.0
1734581139.5354242,-36.62109375,-30.2734375,-53.22265625,0.0,0.0
1734581139.5393298,-41.50390625,-36.62109375,-83.984375,0.0,0.0
1734581139.5432353,-37.59765625,-36.62109375,-86.9140625,0.0,0.0
1734581139.5471408,-24.90234375,-31.73828125,-13.18359375,0.0,0.0
1734581139.5510464,-19.53125,-32.71484375,-3.90625,0.0,0.0
1734581139.554952,-28.80859375,-34.1796875,-50.78125,0.0,0.0
1734581139.5588577,-25.87890625,-36.62109375,-34.66796875,0.0,0.0
1734581139.5627677,0.0,-41.015625,-0.9765625,-21.97265625,0.0
1734581139.5666733,0.0,-41.015625,-9.27734375,-28.80859375,0.0
1734581139.5705788,0.0,-41.015625,-56.15234375,-30.76171875,0.0
1734581139.5744846,0.0,-35.64453125,-39.55078125,-28.3203125,0.0
1734581139.5783901,0.0,-27.83203125,-9.27734375,-33.69140625,0.0
1734581139.5822957,0.0,-29.78515625,-51.26953125,-43.9453125,0.0
1734581139.5862012,0.0,-35.64453125,-104.00390625,-37.109375,0.0
1734581139.5901067,0.0,-40.52734375,-37.109375,-31.73828125,0.0
1734581139.5940123,0.0,-36.62109375,30.76171875,-26.3671875,0.0
1734581139.597918,0.0,-33.203125,-4.39453125,-14.6484375,0.0
1734581139.6018236,0.0,-31.73828125,-37.59765625,-8.30078125,0.0
1734581139.605729,0.0,-33.69140625,-39.55078125,-9.765625,0.0
1734581139.6096385,-28.80859375,-31.25,0.0,-13.671875,0.0
1734581139.613544,-24.90234375,-23.92578125,0.0,-16.11328125,0.0
1734581139.6174495,-29.78515625,-25.390625,0.0,-12.20703125,0.0
1734581139.621355,-37.109375,-29.78515625,0.0,-12.6953125,0.0
1734581139.6252606,-32.2265625,-26.85546875,0.0,-20.5078125,0.0
1734581139.6291664,-25.87890625,-26.3671875,0.0,-15.13671875,0.0
1734581139.633072,-40.0390625,-30.76171875,0.0,-16.6015625,0.0
1734581139.6369774,-51.26953125,-30.2734375,0.0,-28.3203125,0.0
1734581139.640883,-41.9921875,-34.66796875,0.0,-31.73828125,0.0
1734581139.6447885,-41.015625,-34.66796875,0.0,-31.25,0.0
1734581139.648694,-44.43359375,-31.25,0.0,-30.2734375,0.0
1734581139.6525998,-42.96875,-33.69140625,0.0,-36.1328125,0.0
1734581139.656514,-48.33984375,-40.0390625,-11.71875,-36.1328125,0.0
1734581139.6604195,-39.0625,-39.0625,-52.734375,-35.15625,0.0
1734581139.664325,-23.92578125,-33.69140625,-31.25,-30.2734375,0.0
1734581139.6682305,-23.4375,-36.62109375,0.9765625,-27.83203125,0.0
1734581139.6721363,-28.80859375,-39.0625,-19.04296875,-29.78515625,0.0
1734581139.6760418,-16.11328125,-41.015625,-76.66015625,-22.94921875,0.0
1734581139.6799474,-9.27734375,-40.0390625,-54.6875,-26.85546875,0.0
1734581139.683853,-10.7421875,-37.59765625,4.39453125,-36.1328125,0.0
1734581139.6877584,-9.27734375,-35.64453125,-22.94921875,-34.66796875,0.0
1734581139.691664,-3.90625,-35.15625,-103.515625,-18.5546875,0.0
1734581139.6955698,-7.8125,-35.15625,-46.38671875,-16.11328125,0.0
1734581139.6994753,-14.16015625,-33.203125,-17.578125,-23.92578125,0.0
1734581139.703389,-7.32421875,-37.109375,-31.73828125,-17.08984375,0.0
1734581139.7072945,2.44140625,-41.015625,-12.20703125,-6.34765625,0.0
1734581139.7112,-3.90625,-40.0390625,-4.39453125,-11.23046875,0.0
1734581139.7151055,-15.13671875,-37.109375,-6.34765625,-13.671875,0.0
1734581139.719011,-10.25390625,-34.1796875,-36.1328125,-5.37109375,0.0
1734581139.7229166,-13.671875,-30.2734375,-68.359375,-0.48828125,0.0
1734581139.7268224,-19.04296875,-29.78515625,-35.64453125,-8.7890625,0.0
1734581139.730728,-17.08984375,-30.76171875,12.6953125,-22.4609375,0.0
1734581139.7346334,-24.4140625,-30.2734375,-42.96875,-16.6015625,0.0
1734581139.738539,-20.99609375,-26.85546875,-83.49609375,-12.20703125,0.0
1734581139.7424445,-22.94921875,-22.4609375,6.34765625,-28.3203125,0.0
1734581139.74635,-23.92578125,-20.5078125,0.9765625,-34.66796875,0.0
1734581139.7502632,-22.94921875,-22.94921875,-57.6171875,-37.109375,0.0
