timestamps,TP9,AF7,AF8,TP10,Right AUX
1734582366.8539531,177.734375,337.40234375,144.53125,-20.5078125,0.0
1734582366.8578596,90.33203125,-11.71875,-8.7890625,-19.53125,0.0
1734582366.8617659,-240.234375,-80.56640625,-38.57421875,-27.83203125,0.0
1734582366.865672,-242.1875,204.58984375,127.9296875,-31.73828125,0.0
1734582366.8695786,-83.0078125,16.11328125,52.24609375,-28.3203125,0.0
1734582366.8734848,-117.1875,-481.93359375,-231.93359375,-21.484375,0.0
1734582366.877391,-264.16015625,-688.4765625,-270.01953125,-26.85546875,0.0
1734582366.8812976,-161.1328125,-192.3828125,25.87890625,-29.78515625,0.0
1734582366.8852038,-111.81640625,-178.7109375,-68.84765625,-15.625,0.0
1734582366.88911,-273.92578125,-332.03125,-190.91796875,-18.5546875,0.0
1734582366.8930166,-210.44921875,20.01953125,27.34375,-25.87890625,0.0
1734582366.8965154,-562.5,302.24609375,176.7578125,-32.71484375,0.0
1734582366.9004216,-665.0390625,178.22265625,104.4921875,-32.71484375,0.0
1734582366.904328,-719.23828125,-194.3359375,-127.9296875,-29.78515625,0.0
1734582366.9082344,-576.66015625,53.22265625,43.9453125,-39.55078125,0.0
1734582366.9121406,-585.9375,307.6171875,169.43359375,-40.52734375,0.0
1734582366.916047,-854.00390625,-252.9296875,-184.08203125,-36.1328125,0.0
1734582366.9199533,-937.01171875,-666.9921875,-322.75390625,-41.015625,0.0
1734582366.9238596,-718.26171875,-115.234375,6.34765625,-34.1796875,0.0
1734582366.927766,-640.13671875,291.50390625,171.38671875,-28.80859375,0.0
1734582366.9316723,-791.9921875,40.0390625,44.43359375,-37.59765625,0.0
1734582366.9355786,-969.23828125,-731.93359375,-390.625,-32.71484375,0.0
1734582366.939485,-969.7265625,-563.4765625,-282.71484375,-39.0625,0.0
1734582366.9543135,0.0,-30.2734375,-11.71875,-58.59375,0.0
1734582366.95822,0.0,-39.0625,-31.73828125,-57.6171875,0.0
1734582366.9621263,0.0,-95.703125,-53.22265625,-46.38671875,0.0
1734582366.9660325,0.0,115.72265625,94.7265625,-50.78125,0.0
1734582366.969939,0.0,198.2421875,127.9296875,-55.6640625,0.0
1734582366.9738452,0.0,-307.12890625,-197.265625,-41.015625,0.0
1734582366.9777517,0.0,-643.06640625,-291.9921875,-36.1328125,0.0
1734582366.981658,0.0,23.92578125,88.8671875,-39.0625,0.0
1734582366.9855642,0.0,117.1875,53.7109375,-33.203125,0.0
1734582366.9894707,0.0,-488.28125,-289.55078125,-30.76171875,0.0
1734582366.993377,0.0,-301.26953125,-155.76171875,-32.71484375,0.0
1734582366.9972835,0.0,161.1328125,112.79296875,-36.62109375,0.0
1734582367.0014987,0.0,80.078125,58.10546875,-46.38671875,0.0
1734582367.0054052,0.0,-494.140625,-316.40625,-38.0859375,0.0
1734582367.0093114,0.0,-569.3359375,-316.40625,-44.43359375,0.0
1734582367.0132177,0.0,-310.05859375,-184.08203125,-51.7578125,0.0
1734582367.0171242,0.0,-171.38671875,-179.6875,-39.55078125,0.0
1734582367.0210304,0.0,-680.6640625,-373.046875,-44.43359375,0.0
1734582367.024937,0.0,-688.96484375,-322.75390625,-46.38671875,0.0
1734582367.0288432,0.0,-103.02734375,-124.0234375,-33.203125,0.0
1734582367.0327497,0.0,-205.56640625,-224.12109375,-33.203125,0.0
1734582367.036656,0.0,-593.26171875,-285.15625,-36.1328125,0.0
1734582367.0405622,0.0,-225.09765625,-142.578125,-40.0390625,0.0
1734582367.0444686,0.0,99.609375,-52.734375,-45.8984375,0.0
1734582367.0477636,-1000.0,-241.69921875,-157.2265625,-46.38671875,0.0
1734582367.05167,-1000.0,-578.125,-286.1328125,-51.7578125,0.0
1734582367.0555763,-1000.0,-176.26953125,-155.2734375,-54.19921875,0.0
1734582367.0594828,-1000.0,109.86328125,-74.70703125,-58.59375,0.0
1734582367.063389,-1000.0,-264.16015625,-217.7734375,-57.6171875,0.0
1734582367.0672953,-1000.0,-793.9453125,-367.1875,-54.19921875,0.0
1734582367.0712018,-1000.0,-685.546875,-339.35546875,-67.3828125,0.0
1734582367.075108,-1000.0,-294.43359375,-217.7734375,-66.40625,0.0
1734582367.0790145,-1000.0,-400.390625,-313.4765625,-40.52734375,0.0
1734582367.0829208,-1000.0,-978.515625,-607.91015625,-34.66796875,0.0
1734582367.0868273,-1000.0,-558.10546875,-307.6171875,-41.50390625,0.0
1734582367.0907335,-1000.0,-55.6640625,-95.703125,-53.7109375,0.0
1734582367.0966036,-1000.0,-256.34765625,-294.921875,-55.6640625,0.0
1734582367.1005101,-1000.0,-54.6875,-146.484375,-44.43359375,0.0
1734582367.1044164,-1000.0,273.4375,131.8359375,-35.64453125,0.0
1734582367.1083229,-1000.0,70.80078125,52.24609375,-33.69140625,0.0
1734582367.112229,-1000.0,-518.5546875,-338.37890625,-31.73828125,0.0
1734582367.1161356,-1000.0,-586.9140625,-400.87890625,-27.34375,0.0
1734582367.1200418,-1000.0,-224.609375,-189.94140625,-43.9453125,0.0
1734582367.123948,-1000.0,-26.3671875,-84.47265625,-46.875,0.0
1734582367.1278546,-1000.0,-743.1640625,-465.8203125,-23.4375,0.0
1734582367.1317608,-1000.0,-702.63671875,-418.9453125,-25.390625,0.0
1734582367.1356673,-1000.0,73.2421875,-36.1328125,-37.59765625,0.0
1734582367.1395736,-1000.0,20.99609375,-62.98828125,-35.64453125,0.0
1734582367.1447284,-1000.0,-192.87109375,-215.33203125,-26.85546875,0.0
1734582367.1486347,-1000.0,22.4609375,-71.77734375,-23.4375,0.0
1734582367.1525412,-1000.0,158.203125,77.63671875,-18.06640625,0.0
1734582367.1564474,-1000.0,-116.2109375,-97.16796875,-26.3671875,0.0
1734582367.160354,-1000.0,-347.65625,-248.046875,-16.11328125,0.0
1734582367.1642601,-1000.0,-345.21484375,-271.484375,-14.6484375,0.0
1734582367.1681664,-1000.0,-325.68359375,-251.46484375,-27.83203125,0.0
1734582367.172073,-1000.0,-270.99609375,-185.05859375,-30.2734375,0.0
1734582367.1759791,-1000.0,-387.6953125,-222.16796875,-30.2734375,0.0
1734582367.1798856,-1000.0,-315.4296875,-226.07421875,-20.01953125,0.0
1734582367.1837919,-1000.0,80.56640625,9.765625,-30.2734375,0.0
1734582367.1876984,-1000.0,-374.0234375,-232.91015625,-37.59765625,0.0
1734582367.1896224,-1000.0,-815.4296875,-425.78125,-43.9453125,0.0
1734582367.193529,-1000.0,15.625,-29.296875,-49.31640625,0.0
1734582367.1974351,-1000.0,187.5,44.43359375,-37.109375,0.0
1734582367.2013414,-1000.0,-236.328125,-224.609375,-38.0859375,0.0
1734582367.2052479,-1000.0,-105.46875,-160.64453125,-43.45703125,0.0
1734582367.2091541,-1000.0,-111.81640625,-145.01953125,-34.66796875,0.0
1734582367.2130606,-1000.0,-422.36328125,-310.05859375,-33.203125,0.0
1734582367.2169669,-1000.0,-592.7734375,-296.38671875,-37.109375,0.0
1734582367.2208734,-1000.0,-100.09765625,-49.31640625,-45.41015625,0.0
1734582367.2247796,-1000.0,263.671875,141.11328125,-52.734375,0.0
1734582367.2286859,-1000.0,-54.6875,-33.203125,-44.43359375,0.0
1734582367.2325923,-1000.0,-787.59765625,-471.19140625,-27.34375,0.0
1734582367.2344954,-1000.0,-329.1015625,-172.36328125,-46.875,0.0
1734582367.238402,-1000.0,319.3359375,180.17578125,-55.6640625,0.0
1734582367.2423081,-1000.0,-41.50390625,-64.453125,-7.32421875,0.0
1734582367.2462146,-1000.0,-398.92578125,-282.71484375,16.11328125,0.0
1734582367.2501209,-1000.0,-109.375,-109.86328125,-25.87890625,0.0
1734582367.2540274,-1000.0,-72.75390625,-76.66015625,-63.4765625,0.0
1734582367.2579336,-1000.0,-521.97265625,-342.7734375,-41.50390625,0.0
1734582367.2618399,-1000.0,-719.7265625,-358.3984375,-32.2265625,0.0
1734582367.2657464,-1000.0,-155.2734375,-75.68359375,-50.78125,0.0
1734582367.2696526,-1000.0,-127.44140625,-163.57421875,-38.57421875,0.0
1734582367.273559,-1000.0,-494.140625,-361.81640625,-32.2265625,0.0
1734582367.2774653,-1000.0,-236.328125,-122.55859375,-51.7578125,0.0
1734582367.2792504,-1000.0,175.78125,103.515625,-42.48046875,0.0
1734582367.2831566,-1000.0,113.28125,45.41015625,-22.94921875,0.0
1734582367.287063,-1000.0,-241.2109375,-229.4921875,-28.80859375,0.0
1734582367.2909694,-1000.0,-47.8515625,-153.3203125,-30.2734375,0.0
1734582367.2948756,-1000.0,176.7578125,31.73828125,-20.01953125,0.0
1734582367.298782,-1000.0,-282.71484375,-230.95703125,-16.6015625,0.0
1734582367.3026884,-1000.0,-903.80859375,-533.69140625,-13.671875,0.0
1734582367.3065946,-1000.0,-668.9453125,-349.12109375,-24.90234375,0.0
1734582367.310501,-1000.0,48.828125,-34.66796875,-38.57421875,0.0
1734582367.3144073,-1000.0,26.85546875,-83.49609375,-38.57421875,0.0
1734582367.3183138,-1000.0,-228.02734375,-186.5234375,-41.015625,0.0
1734582367.32222,-1000.0,-4.8828125,-111.328125,-42.48046875,0.0
1734582367.3270042,-1000.0,155.76171875,-43.9453125,-38.57421875,0.0
1734582367.3309104,-1000.0,-46.38671875,-76.171875,-39.0625,0.0
1734582367.334817,-1000.0,-155.2734375,-192.87109375,-48.828125,0.0
1734582367.3387232,-1000.0,49.8046875,-55.17578125,-49.31640625,0.0
1734582367.3426297,-1000.0,129.8828125,70.80078125,-47.36328125,0.0
1734582367.346536,-1000.0,-337.40234375,-229.4921875,-34.66796875,0.0
1734582367.3504422,-1000.0,-656.25,-323.73046875,-27.34375,0.0
1734582367.3543487,-985.3515625,8.7890625,57.6171875,-30.2734375,0.0
1734582367.358255,-992.67578125,170.41015625,43.45703125,-33.69140625,0.0
1734582367.3621614,-1000.0,-452.1484375,-309.08203125,-24.90234375,0.0
1734582367.3660676,-1000.0,-548.33984375,-328.61328125,-32.71484375,0.0
1734582367.369974,-992.67578125,25.390625,-50.78125,-43.45703125,0.0
1734582367.374214,-937.5,178.22265625,0.0,-49.31640625,0.0
1734582367.3781202,-958.0078125,-235.83984375,0.0,-44.921875,0.0
1734582367.3820267,-947.265625,-165.52734375,0.0,-48.33984375,0.0
1734582367.385933,-918.45703125,154.78515625,0.0,-60.546875,0.0
1734582367.3898392,-919.921875,60.546875,0.0,-51.26953125,0.0
1734582367.3937457,-956.0546875,-659.1796875,0.0,-41.9921875,0.0
1734582367.397652,-776.3671875,-533.69140625,0.0,-54.19921875,0.0
1734582367.4015584,-646.97265625,137.6953125,0.0,-62.5,0.0
1734582367.4054646,-785.15625,15.625,0.0,-49.31640625,0.0
1734582367.409371,-950.68359375,-751.953125,0.0,-44.43359375,0.0
1734582367.4132774,-662.59765625,-405.2734375,0.0,-57.6171875,0.0
1734582367.4171836,-427.24609375,231.4453125,0.0,-64.453125,0.0
1734582367.4210165,-611.328125,-150.390625,-91.796875,-51.26953125,0.0
1734582367.424923,-690.91796875,-492.1875,-245.1171875,-42.96875,0.0
1734582367.4288292,-530.76171875,-44.43359375,-74.70703125,-49.31640625,0.0
1734582367.4327354,-372.55859375,209.9609375,46.875,-40.52734375,0.0
1734582367.436642,-366.69921875,-73.2421875,-47.36328125,-40.0390625,0.0
1734582367.4405482,-440.91796875,-510.25390625,-283.69140625,-54.6875,0.0
1734582367.4444547,-404.296875,-368.65234375,-273.92578125,-60.546875,0.0
1734582367.448361,-304.6875,113.28125,-72.75390625,-63.96484375,0.0
1734582367.4522672,-402.34375,-309.08203125,-249.0234375,-49.8046875,0.0
1734582367.4561737,-392.08984375,-771.484375,-378.90625,-53.7109375,0.0
1734582367.46008,-62.5,-94.23828125,-29.296875,-52.734375,0.0
1734582367.4639864,-88.37890625,183.10546875,71.2890625,-40.52734375,0.0
1734582367.4703348,-237.79296875,-205.56640625,-185.05859375,-48.828125,0.0
1734582367.474241,-83.984375,-78.61328125,-139.6484375,-67.87109375,0.0
1734582367.4781473,83.0078125,218.26171875,92.28515625,-55.6640625,0.0
1734582367.4820538,25.390625,21.97265625,-4.8828125,-34.1796875,0.0
1734582367.48596,-88.37890625,-343.26171875,-255.859375,-34.1796875,0.0
1734582367.4898665,-102.05078125,-446.77734375,-341.30859375,-33.69140625,0.0
1734582367.4937727,20.99609375,-309.5703125,-265.13671875,-41.50390625,0.0
1734582367.4976792,167.48046875,-84.47265625,-148.4375,-45.8984375,0.0
1734582367.5015855,-33.203125,-715.8203125,-470.21484375,-40.0390625,0.0
1734582367.5054917,112.79296875,-391.11328125,-203.61328125,-39.0625,0.0
1734582367.5093982,254.39453125,258.7890625,143.5546875,-44.921875,0.0
1734582367.5133045,110.83984375,-219.23828125,-208.0078125,-49.31640625,0.0
1734582367.5160148,212.40234375,-445.3125,-251.46484375,-50.78125,0.0
1734582367.519921,374.51171875,20.99609375,53.22265625,-55.17578125,0.0
1734582367.5238273,335.44921875,248.53515625,101.07421875,-57.6171875,0.0
1734582367.5277338,196.2890625,-35.64453125,-76.171875,-51.7578125,0.0
1734582367.53164,222.65625,-279.296875,-229.00390625,-43.45703125,0.0
1734582367.5355465,343.75,-263.18359375,-246.09375,-52.734375,0.0
1734582367.5394528,380.37109375,-256.8359375,-239.2578125,-59.08203125,0.0
1734582367.543359,304.19921875,-286.1328125,-215.33203125,-48.828125,0.0
1734582367.5472655,225.09765625,-365.234375,-208.49609375,-52.734375,0.0
1734582367.5511718,278.3203125,-256.8359375,-213.8671875,-59.5703125,0.0
1734582367.5550783,455.078125,148.92578125,5.37109375,-60.05859375,0.0
1734582367.5589845,352.5390625,-300.78125,-175.29296875,-52.734375,0.0
1734582367.5674236,281.73828125,-632.8125,-289.55078125,-48.828125,0.0
1734582367.5713298,450.1953125,155.2734375,93.26171875,-69.82421875,0.0
1734582367.5752363,377.44140625,235.3515625,73.2421875,-70.3125,0.0
1734582367.5791426,348.6328125,-164.55078125,-219.23828125,-54.6875,0.0
1734582367.583049,487.79296875,-3.90625,-91.796875,-59.08203125,0.0
1734582367.5869553,402.34375,-44.43359375,-68.359375,-57.6171875,0.0
1734582367.5908618,257.32421875,-326.171875,-270.01953125,-48.828125,0.0
1734582367.594768,136.23046875,-771.484375,-466.796875,-37.59765625,0.0
1734582367.5986745,416.015625,-352.05078125,-181.640625,-48.33984375,0.0
1734582367.6025808,642.578125,246.09375,151.85546875,-52.734375,0.0
1734582367.6064873,456.0546875,-131.34765625,-116.69921875,-36.1328125,0.0
1734582367.6103935,415.52734375,-196.2890625,-197.75390625,-34.1796875,0.0
1734582367.6116421,0.0,180.6640625,44.921875,-40.52734375,0.0
1734582367.6155484,0.0,274.4140625,122.0703125,-42.48046875,0.0
1734582367.6194549,0.0,-21.97265625,-53.22265625,-39.55078125,0.0
1734582367.623361,0.0,-72.265625,-93.75,-34.66796875,0.0
1734582367.6272676,0.0,149.4140625,55.6640625,-32.71484375,0.0
1734582367.6311738,0.0,-131.34765625,-153.80859375,-42.48046875,0.0
1734582367.6350803,0.0,-425.29296875,-304.6875,-45.41015625,0.0
1734582367.6389866,0.0,-265.625,-138.671875,-49.31640625,0.0
1734582367.6428928,0.0,47.8515625,30.2734375,-47.36328125,0.0
1734582367.6467993,0.0,-165.52734375,-134.765625,-31.25,0.0
1734582367.6507056,0.0,-424.8046875,-299.31640625,-31.25,0.0
1734582367.654612,0.0,-133.7890625,-103.02734375,-56.640625,0.0
1734582367.658972,655.76171875,142.08984375,96.6796875,-51.7578125,0.0
1734582367.6628783,578.61328125,-44.43359375,-19.04296875,-32.71484375,0.0
1734582367.6667848,345.21484375,-628.41796875,-421.875,-31.73828125,0.0
1734582367.670691,397.94921875,-639.6484375,-315.91796875,-41.50390625,0.0
1734582367.6745975,701.171875,121.58203125,98.6328125,-41.015625,0.0
1734582367.6785038,667.96875,-162.59765625,-161.1328125,-28.3203125,0.0
1734582367.6824102,512.6953125,-851.5625,-517.578125,-13.18359375,0.0
1734582367.6863165,664.0625,-338.37890625,-203.125,-18.5546875,0.0
1734582367.6902227,756.8359375,324.21875,142.08984375,-23.4375,0.0
1734582367.6941292,655.76171875,147.94921875,14.16015625,-30.76171875,0.0
1734582367.6980355,696.2890625,-96.19140625,-78.61328125,-41.50390625,0.0
1734582367.701942,796.875,143.06640625,88.37890625,-24.4140625,0.0
1734582367.7030346,750.48828125,326.171875,145.99609375,-22.94921875,0.0
1734582367.7069411,619.62890625,95.703125,3.90625,-29.296875,0.0
1734582367.7108474,654.296875,-41.50390625,-58.59375,-35.64453125,0.0
1734582367.7147539,797.8515625,143.06640625,81.0546875,-44.921875,0.0
1734582367.71866,777.34375,24.90234375,-21.484375,-44.921875,0.0
1734582367.7225664,606.93359375,-432.6171875,-295.41015625,-32.71484375,0.0
1734582367.7264729,526.85546875,-704.1015625,-315.91796875,-23.4375,0.0
1734582367.730379,745.60546875,-55.17578125,6.8359375,-22.94921875,0.0
1734582367.7342856,849.609375,303.22265625,149.4140625,-33.203125,0.0
1734582367.7381918,683.10546875,-359.375,-199.21875,-45.8984375,0.0
1734582367.7420983,628.90625,-613.28125,-264.16015625,-34.66796875,0.0
1734582367.7460046,783.69140625,89.84375,83.49609375,-30.2734375,0.0
1734582367.7501605,0.0,260.25390625,103.02734375,-24.4140625,0.0
1734582367.7540667,0.0,-365.234375,-263.671875,-20.01953125,0.0
1734582367.7579732,0.0,-238.76953125,-131.34765625,-22.94921875,0.0
1734582367.7618794,0.0,276.85546875,168.45703125,-43.45703125,0.0
1734582367.7657857,0.0,190.4296875,82.51953125,-41.9921875,0.0
1734582367.7696922,0.0,-442.3828125,-297.36328125,-28.80859375,0.0
1734582367.7735984,0.0,-361.81640625,-228.02734375,-43.45703125,0.0
1734582367.777505,0.0,36.1328125,44.921875,-47.36328125,0.0
1734582367.7814112,0.0,-301.7578125,-198.2421875,-35.64453125,0.0
1734582367.7853174,0.0,-795.41015625,-477.05078125,-32.2265625,0.0
1734582367.789224,0.0,-256.8359375,-119.140625,-42.48046875,0.0
1734582367.7931302,0.0,293.9453125,176.26953125,-40.52734375,0.0
1734582367.7996445,604.4921875,7.8125,0.0,-48.33984375,0.0
1734582367.8035507,584.9609375,-89.35546875,-59.08203125,-43.9453125,0.0
1734582367.807457,566.89453125,164.55078125,104.4921875,-30.76171875,0.0
1734582367.8113635,477.05078125,246.58203125,130.859375,-36.1328125,0.0
1734582367.8152697,415.0390625,-60.546875,-46.38671875,-39.55078125,0.0
1734582367.8191762,457.51953125,-479.98046875,-271.484375,-28.3203125,0.0
1734582367.8230824,540.52734375,-333.0078125,-213.37890625,-26.85546875,0.0
1734582367.826989,569.3359375,148.4375,89.84375,-40.0390625,0.0
1734582367.8308952,363.28125,-240.234375,-115.234375,-31.25,0.0
1734582367.8348014,301.26953125,-746.09375,-321.2890625,-20.01953125,0.0
1734582367.838708,621.09375,-229.98046875,-2.44140625,-39.0625,0.0
1734582367.8426142,631.8359375,-148.4375,-72.75390625,-40.52734375,0.0
1734582367.8453996,469.23828125,-455.078125,-298.828125,-26.3671875,0.0
1734582367.8493059,533.203125,-159.66796875,-92.7734375,-29.78515625,0.0
1734582367.8532124,666.9921875,256.8359375,145.5078125,-36.1328125,0.0
1734582367.8571186,701.171875,156.73828125,85.44921875,-37.59765625,0.0
1734582367.8610249,631.8359375,-179.19921875,-148.4375,-30.76171875,0.0
1734582367.8649313,527.83203125,-413.0859375,-290.0390625,-27.34375,0.0
1734582367.8688376,568.359375,-144.04296875,-113.76953125,-28.80859375,0.0
1734582367.872744,601.5625,25.87890625,24.4140625,-31.25,0.0
1734582367.8766503,591.796875,-446.2890625,-162.59765625,-33.203125,0.0
1734582367.8805568,778.3203125,-74.70703125,-4.8828125,-25.390625,0.0
1734582367.884463,800.78125,384.27734375,202.1484375,-18.5546875,0.0
1734582367.8883693,577.1484375,82.03125,53.7109375,-25.87890625,0.0
1734582367.8910248,354.4921875,-722.16796875,-385.7421875,-29.296875,0.0
1734582367.894931,653.3203125,-416.015625,-136.23046875,-40.52734375,0.0
1734582367.8988376,819.82421875,-35.64453125,71.2890625,-40.52734375,0.0
1734582367.9027438,708.0078125,-94.7265625,-65.91796875,-23.4375,0.0
1734582367.9066503,632.32421875,-31.73828125,-59.08203125,-21.97265625,0.0
1734582367.9105566,540.52734375,-266.6015625,-179.19921875,-24.90234375,0.0
1734582367.914463,661.62109375,-247.55859375,-183.59375,-31.73828125,0.0
1734582367.9183693,686.5234375,-210.44921875,-155.76171875,-33.69140625,0.0
1734582367.9222755,428.22265625,-875.48828125,-473.6328125,-31.73828125,0.0
1734582367.926182,583.0078125,-505.859375,-270.01953125,-35.15625,0.0
1734582367.9300883,697.265625,145.5078125,49.31640625,-41.9921875,0.0
1734582367.9339948,600.5859375,-171.875,-153.80859375,-18.06640625,0.0
1734582367.9364297,743.1640625,-8.7890625,-28.80859375,-5.37109375,0.0
1734582367.9403362,776.85546875,384.27734375,193.84765625,-24.90234375,0.0
1734582367.9442425,595.703125,253.41796875,101.07421875,-31.25,0.0
1734582367.948149,405.2734375,-335.44921875,-245.1171875,-31.73828125,0.0
1734582367.9520552,554.6875,-260.7421875,-120.60546875,-34.1796875,0.0
1734582367.9559615,695.80078125,-72.265625,-6.8359375,-30.76171875,0.0
1734582367.959868,593.26171875,-321.2890625,-232.91015625,-19.04296875,0.0
1734582367.9637742,359.86328125,-765.13671875,-427.734375,-10.7421875,0.0
1734582367.9676807,464.84375,-368.1640625,-150.87890625,-23.92578125,0.0
1734582367.971587,668.9453125,327.1484375,188.4765625,-30.76171875,0.0
1734582367.9754932,591.796875,138.671875,48.33984375,-28.3203125,0.0
1734582367.9793997,448.2421875,-285.64453125,-127.44140625,-38.57421875,0.0
1734582367.9845793,442.3828125,67.87109375,63.4765625,-44.43359375,0.0
1734582367.9884856,410.64453125,364.2578125,186.5234375,-27.34375,0.0
1734582367.992392,312.01171875,-58.59375,-62.5,-9.765625,0.0
1734582367.9962983,374.0234375,-308.59375,-182.12890625,-20.99609375,0.0
1734582368.0002048,439.94140625,59.5703125,56.640625,-30.2734375,0.0
1734582368.004111,252.9296875,-90.33203125,-73.73046875,-32.2265625,0.0
1734582368.0080175,66.89453125,-457.51953125,-283.203125,-32.71484375,0.0
1734582368.0119238,9.765625,-704.1015625,-335.9375,-24.4140625,0.0
1734582368.01583,250.0,-388.671875,-204.58984375,-28.3203125,0.0
1734582368.0197365,302.734375,-218.26171875,-163.57421875,-35.64453125,0.0
1734582368.0236428,161.1328125,-295.41015625,-207.03125,-42.96875,0.0
1734582368.0275493,140.13671875,-0.48828125,-12.6953125,-50.29296875,0.0
1734582368.0353262,0.0,217.7734375,109.86328125,-47.8515625,0.0
1734582368.0392327,0.0,167.48046875,86.9140625,-41.9921875,0.0
1734582368.043139,0.0,-157.71484375,-112.3046875,-12.6953125,0.0
1734582368.0470455,0.0,-28.3203125,-44.921875,-26.3671875,0.0
1734582368.0509517,0.0,223.14453125,122.55859375,-76.171875,0.0
1734582368.0548582,0.0,-315.91796875,-211.42578125,-64.94140625,0.0
1734582368.0587645,0.0,-713.8671875,-394.53125,-39.0625,0.0
1734582368.0626707,0.0,-148.92578125,-80.078125,-46.875,0.0
1734582368.0665772,0.0,279.296875,146.97265625,-38.0859375,0.0
1734582368.0704834,0.0,95.703125,67.87109375,-28.80859375,0.0
1734582368.07439,0.0,-734.375,-412.59765625,-7.8125,0.0
1734582368.0782962,0.0,-598.14453125,-306.15234375,-16.11328125,0.0
1734582368.0791545,222.16796875,137.6953125,120.1171875,-31.73828125,0.0
1734582368.083061,68.84765625,65.4296875,22.4609375,-27.34375,0.0
1734582368.0869672,-32.71484375,-79.1015625,-38.0859375,-31.25,0.0
1734582368.0908735,23.92578125,136.71875,116.69921875,-26.3671875,0.0
1734582368.09478,82.03125,213.8671875,120.1171875,-28.80859375,0.0
1734582368.0986862,19.04296875,-216.30859375,-103.515625,-25.390625,0.0
1734582368.1025927,-20.01953125,-524.4140625,-225.5859375,-40.0390625,0.0
1734582368.106499,104.98046875,43.45703125,75.1953125,-41.015625,0.0
1734582368.1104054,57.12890625,151.3671875,101.5625,-30.76171875,0.0
1734582368.1143117,-54.19921875,-398.4375,-210.44921875,-30.76171875,0.0
1734582368.118218,105.95703125,-267.578125,-89.84375,-34.66796875,0.0
1734582368.1221244,210.44921875,181.640625,126.953125,-40.0390625,0.0
1734582368.1235998,104.4921875,229.98046875,107.91015625,-31.25,0.0
1734582368.127506,-147.94921875,-438.96484375,-226.5625,-24.90234375,0.0
1734582368.1314125,-73.73046875,-842.7734375,-374.0234375,-23.4375,0.0
1734582368.1353188,319.82421875,-15.625,39.0625,-30.2734375,0.0
1734582368.1392252,245.1171875,261.23046875,100.5859375,-25.87890625,0.0
1734582368.1431315,5.859375,-403.80859375,-298.828125,-9.27734375,0.0
1734582368.1470377,53.7109375,-485.83984375,-287.109375,-22.4609375,0.0
1734582368.1509442,286.1328125,101.5625,92.28515625,-39.0625,0.0
1734582368.1548505,335.44921875,71.2890625,76.171875,-34.66796875,0.0
1734582368.158757,208.49609375,-474.12109375,-193.84765625,-31.73828125,0.0
1734582368.1626632,268.5546875,-126.46484375,-72.75390625,-33.203125,0.0
1734582368.1665695,271.97265625,228.515625,135.25390625,-35.15625,0.0
1734582368.170573,209.47265625,-70.3125,-12.6953125,-28.80859375,0.0
1734582368.1744792,276.3671875,-380.859375,-181.15234375,-32.71484375,0.0
1734582368.1783855,398.4375,5.859375,41.9921875,-39.55078125,0.0
1734582368.182292,381.8359375,279.78515625,167.48046875,-32.2265625,0.0
1734582368.1861982,156.73828125,-136.71875,-96.19140625,-25.87890625,0.0
1734582368.1901047,-33.203125,-831.0546875,-450.68359375,-12.20703125,0.0
1734582368.194011,260.25390625,-647.94921875,-332.51953125,-16.11328125,0.0
1734582368.1979172,448.73046875,-101.5625,-98.14453125,-29.296875,0.0
1734582368.2018237,280.76171875,-206.54296875,-99.609375,-22.94921875,0.0
1734582368.20573,144.53125,-559.5703125,-270.99609375,-26.85546875,0.0
1734582368.2096364,328.61328125,-28.80859375,-17.578125,-34.66796875,0.0
1734582368.2135427,427.734375,341.30859375,182.12890625,-20.5078125,0.0
1734582368.2172992,0.0,-194.3359375,-126.46484375,-13.18359375,0.0
1734582368.2212055,0.0,-181.640625,-77.1484375,-26.3671875,0.0
1734582368.225112,0.0,249.51171875,170.8984375,-35.64453125,0.0
1734582368.2290182,0.0,190.91796875,104.00390625,-20.01953125,0.0
1734582368.2329245,0.0,-472.65625,-258.7890625,2.44140625,0.0
1734582368.236831,0.0,-740.234375,-380.859375,-3.41796875,0.0
1734582368.2407372,0.0,-81.0546875,-41.50390625,-15.13671875,0.0
1734582368.2446437,0.0,124.0234375,70.80078125,-25.87890625,0.0
1734582368.24855,0.0,-726.5625,-410.15625,-22.4609375,0.0
1734582368.2524562,0.0,-427.24609375,-175.78125,-31.73828125,0.0
1734582368.2563627,0.0,403.80859375,237.3046875,-44.43359375,0.0
1734582368.260269,0.0,160.15625,40.0390625,-30.76171875,0.0
1734582368.266391,157.2265625,-220.703125,-88.8671875,-25.87890625,0.0
1734582368.2702973,250.48828125,164.0625,142.08984375,-25.87890625,0.0
1734582368.2742035,330.56640625,418.45703125,185.546875,-33.203125,0.0
1734582368.27811,314.453125,168.9453125,31.73828125,-31.73828125,0.0
1734582368.2820163,299.8046875,78.61328125,64.94140625,-29.78515625,0.0
1734582368.2859228,148.4375,-132.32421875,-39.0625,-32.2265625,0.0
1734582368.289829,134.765625,-160.64453125,-87.40234375,-35.15625,0.0
1734582368.2937355,183.59375,-113.76953125,-36.1328125,-26.85546875,0.0
1734582368.2976418,60.05859375,-789.55078125,-393.5546875,-17.08984375,0.0
1734582368.301548,248.046875,-422.8515625,-204.58984375,-30.76171875,0.0
1734582368.3054545,299.8046875,257.8125,161.1328125,-39.55078125,0.0
1734582368.3093607,78.61328125,-104.98046875,-62.5,-37.59765625,0.0
1734582368.3118408,149.90234375,-158.69140625,-129.8828125,-40.0390625,0.0
1734582368.3157473,350.5859375,324.70703125,151.3671875,-41.9921875,0.0
1734582368.3196535,280.76171875,309.08203125,144.53125,-32.2265625,0.0
1734582368.32356,86.42578125,-85.44921875,-57.12890625,-24.90234375,0.0
1734582368.3274662,68.359375,7.32421875,33.203125,-28.80859375,0.0
1734582368.3313725,98.14453125,30.76171875,49.8046875,-32.2265625,0.0
1734582368.335279,100.09765625,-276.85546875,-129.39453125,-32.71484375,0.0
1734582368.3391852,78.61328125,-453.125,-202.63671875,-31.73828125,0.0
1734582368.3430917,121.09375,-7.32421875,35.64453125,-16.6015625,0.0
1734582368.346998,115.72265625,357.421875,203.125,-12.6953125,0.0
1734582368.3509045,51.7578125,135.7421875,58.10546875,-12.6953125,0.0
1734582368.3548107,-84.47265625,-712.40234375,-366.69921875,-6.8359375,0.0
1734582368.3571165,145.01953125,-278.3203125,-48.828125,-29.296875,0.0
1734582368.361023,218.75,402.34375,232.91015625,-49.8046875,0.0
1734582368.3649292,-11.71875,-5.37109375,-22.94921875,-52.24609375,0.0
1734582368.3688354,30.2734375,-216.30859375,-115.72265625,-53.7109375,0.0
1734582368.372742,200.1953125,112.79296875,61.5234375,-56.15234375,0.0
1734582368.3766482,191.89453125,-10.7421875,-22.4609375,-52.24609375,0.0
1734582368.3805547,8.7890625,-418.9453125,-249.0234375,-36.62109375,0.0
1734582368.384461,-209.47265625,-791.015625,-456.0546875,-30.76171875,0.0
1734582368.3883672,67.3828125,-265.625,-151.85546875,-39.55078125,0.0
1734582368.3922737,201.171875,-104.00390625,-78.61328125,-39.55078125,0.0
1734582368.39618,166.50390625,-294.921875,-216.30859375,-24.4140625,0.0
1734582368.4000864,189.94140625,28.3203125,-6.34765625,-30.76171875,0.0
1734582368.4024594,114.2578125,266.6015625,141.11328125,-48.33984375,0.0
1734582368.4063659,82.03125,257.8125,110.83984375,-23.4375,0.0
1734582368.4102721,70.3125,-82.03125,-65.4296875,-11.71875,0.0
1734582368.4141786,180.17578125,69.3359375,45.8984375,-29.78515625,0.0
1734582368.4180849,182.12890625,304.19921875,157.71484375,-34.66796875,0.0
1734582368.421991,-53.7109375,-166.50390625,-105.46875,-34.66796875,0.0
1734582368.4258976,-248.046875,-835.9375,-488.76953125,-30.2734375,0.0
1734582368.4298038,52.734375,-493.1640625,-275.87890625,-31.25,0.0
1734582368.43371,351.07421875,306.15234375,167.96875,-19.53125,0.0
1734582368.4376166,144.53125,176.7578125,53.7109375,-31.73828125,0.0
1734582368.4415228,-30.76171875,-148.4375,-83.49609375,-57.6171875,0.0
1734582368.4454293,57.12890625,152.83203125,107.421875,-37.109375,0.0
1734582368.4478097,142.08984375,381.8359375,183.10546875,-22.94921875,0.0
1734582368.4517162,94.7265625,74.70703125,24.4140625,-37.109375,0.0
1734582368.4556224,62.98828125,-273.92578125,-136.71875,-21.97265625,0.0
1734582368.459529,98.14453125,19.04296875,62.5,5.37109375,0.0
1734582368.4634352,50.29296875,217.7734375,137.20703125,-27.34375,0.0
1734582368.4673414,-62.01171875,-302.24609375,-187.01171875,-39.0625,0.0
1734582368.471248,-7.32421875,-609.375,-260.7421875,-15.13671875,0.0
1734582368.4751542,200.68359375,35.15625,91.30859375,-29.296875,0.0
1734582368.4790604,76.171875,126.46484375,74.21875,-32.2265625,0.0
1734582368.482967,-112.79296875,-403.3203125,-207.03125,-23.4375,0.0
1734582368.4868731,10.25390625,-378.90625,-179.19921875,-20.99609375,0.0
1734582368.4907796,232.421875,214.84375,128.41796875,-19.04296875,0.0
1734582368.4989316,168.9453125,305.17578125,169.921875,-26.85546875,0.0
1734582368.5028381,-41.50390625,-178.22265625,-102.5390625,-17.08984375,0.0
1734582368.5067444,-32.71484375,-96.19140625,-52.734375,-11.71875,0.0
1734582368.5106509,66.40625,252.44140625,154.78515625,-10.7421875,0.0
1734582368.5145571,90.8203125,170.41015625,60.05859375,-9.27734375,0.0
1734582368.5184634,-40.0390625,-506.34765625,-323.73046875,-14.16015625,0.0
1734582368.5223699,-29.296875,-525.87890625,-265.13671875,-12.6953125,0.0
1734582368.526276,66.40625,145.01953125,133.7890625,-26.85546875,0.0
1734582368.5301826,-23.92578125,91.30859375,76.66015625,-36.1328125,0.0
1734582368.5340889,-185.546875,-734.375,-406.73828125,-16.6015625,0.0
1734582368.537995,66.40625,-313.96484375,-136.71875,-17.08984375,0.0
1734582368.5419016,95.703125,245.1171875,196.77734375,-13.18359375,0.0
1734582368.5458002,-158.69140625,-177.734375,-61.5234375,-2.44140625,0.0
1734582368.5497067,-73.73046875,-220.703125,-139.6484375,-2.9296875,0.0
1734582368.553613,110.3515625,119.140625,72.265625,-6.8359375,0.0
1734582368.5575192,129.8828125,240.234375,134.765625,-7.8125,0.0
1734582368.5614257,-24.4140625,-46.38671875,-42.48046875,-8.30078125,0.0
1734582368.565332,-121.58203125,-406.73828125,-245.60546875,-11.23046875,0.0
1734582368.5692384,-56.15234375,-391.11328125,-250.9765625,-2.44140625,0.0
1734582368.5731447,99.609375,0.0,-11.71875,-9.765625,0.0
1734582368.5770512,70.80078125,-126.953125,-18.5546875,-11.71875,0.0
1734582368.5809574,-46.875,-561.5234375,-248.046875,-3.90625,0.0
1734582368.5848637,22.4609375,-80.078125,3.90625,-6.34765625,0.0
1734582368.5887702,96.6796875,329.1015625,207.51953125,-2.44140625,0.0
1734582368.592417,-49.31640625,-319.3359375,-157.2265625,8.30078125,0.0
1734582368.5963235,215.8203125,-570.3125,-208.0078125,11.23046875,0.0
1734582368.6002297,909.66796875,426.26953125,248.046875,32.2265625,0.0
1734582368.6041362,988.28125,674.31640625,243.65234375,62.98828125,0.0
1734582368.6080425,944.82421875,444.3359375,164.0625,62.5,0.0
1734582368.6119487,974.609375,409.1796875,184.5703125,65.4296875,0.0
1734582368.6158552,968.75,659.66796875,298.33984375,59.08203125,0.0
1734582368.6197615,968.75,878.41796875,312.98828125,44.43359375,0.0
1734582368.623668,968.75,6.34765625,-50.78125,53.22265625,0.0
1734582368.6275742,968.75,308.59375,198.73046875,62.01171875,0.0
1734582368.6314805,968.75,-935.05859375,412.109375,61.03515625,0.0
1734582368.635387,968.75,844.23828125,323.2421875,66.89453125,0.0
1734582368.6401644,968.75,724.12109375,369.140625,54.6875,0.0
1734582368.6440709,968.75,882.32421875,358.88671875,44.43359375,0.0
1734582368.647977,968.75,930.6640625,321.77734375,36.1328125,0.0
1734582368.6518834,968.75,698.2421875,270.5078125,31.73828125,0.0
1734582368.6557899,968.75,563.96484375,282.2265625,47.36328125,0.0
1734582368.659696,968.75,389.6484375,213.37890625,58.59375,0.0
1734582368.6636026,968.75,303.22265625,236.81640625,45.41015625,0.0
1734582368.6675088,968.75,147.94921875,135.25390625,31.73828125,0.0
1734582368.671415,969.23828125,-585.9375,-209.9609375,48.33984375,0.0
1734582368.6753216,967.28515625,-55.17578125,103.515625,40.0390625,0.0
1734582368.6792278,968.26171875,619.62890625,296.38671875,28.3203125,0.0
1734582368.6831343,956.54296875,306.640625,153.3203125,22.94921875,0.0
1734582368.6857316,869.140625,403.80859375,232.421875,6.34765625,0.0
1734582368.689638,731.93359375,707.51953125,288.0859375,-20.5078125,0.0
1734582368.6935444,604.98046875,580.56640625,210.44921875,-18.5546875,0.0
1734582368.6974506,358.3984375,171.38671875,74.21875,-3.41796875,0.0
1734582368.7013571,158.203125,223.6328125,140.625,-29.296875,0.0
1734582368.7052634,-50.29296875,134.765625,132.32421875,-18.06640625,0.0
1734582368.7091696,-192.3828125,-118.65234375,53.22265625,-16.6015625,0.0
1734582368.713076,-347.65625,-595.703125,-280.2734375,-20.5078125,0.0
1734582368.7169824,-246.09375,-271.484375,-103.02734375,-15.13671875,0.0
1734582368.7208889,-296.38671875,250.0,171.38671875,-24.4140625,0.0
1734582368.724795,-616.2109375,-97.65625,26.85546875,-26.85546875,0.0
1734582368.7287014,-606.93359375,-38.0859375,35.64453125,-3.41796875,0.0
1734582368.731264,-474.12109375,312.01171875,149.4140625,19.04296875,0.0
1734582368.7351704,-496.58203125,360.3515625,162.59765625,11.71875,0.0
1734582368.7390769,-690.91796875,37.109375,14.6484375,-1.46484375,0.0
1734582368.742983,-815.4296875,-38.57421875,-21.97265625,-38.57421875,0.0
1734582368.7468896,-824.21875,170.8984375,96.6796875,-93.26171875,0.0
1734582368.7507958,-868.1640625,-44.43359375,-15.13671875,-91.30859375,0.0
1734582368.754702,-899.90234375,-444.82421875,-271.97265625,-81.0546875,0.0
1734582368.7586086,-934.08203125,-660.15625,-347.16796875,-96.19140625,0.0
1734582368.7625148,-898.4375,-148.92578125,-51.26953125,-92.28515625,0.0
1734582368.766421,-979.00390625,-115.234375,-81.54296875,-91.796875,0.0
1734582368.7703276,-998.046875,-386.71875,-260.7421875,-109.86328125,0.0
1734582368.7742338,-848.6328125,-198.73046875,-149.4140625,-109.375,0.0
1734582368.776612,-847.65625,112.3046875,56.15234375,-112.79296875,0.0
1734582368.7805183,-986.328125,-140.625,-133.7890625,-120.60546875,0.0
1734582368.7844248,-1000.0,-372.0703125,-331.54296875,-142.08984375,0.0
1734582368.788331,-944.3359375,-4.8828125,-73.73046875,-168.45703125,0.0
1734582368.7922373,-875.0,209.9609375,92.28515625,-156.73828125,0.0
1734582368.7961438,-965.33203125,-244.140625,-200.1953125,-144.53125,0.0
1734582368.80005,-1000.0,-827.63671875,-536.1328125,-131.34765625,0.0
1734582368.8039563,-908.69140625,-453.125,-293.9453125,-140.625,0.0
1734582368.8078628,-799.31640625,251.953125,123.046875,-153.80859375,0.0
1734582368.811769,-825.68359375,69.82421875,30.2734375,-148.4375,0.0
1734582368.8156755,-937.01171875,-483.3984375,-199.70703125,-125.48828125,0.0
1734582368.8195817,-914.55078125,-64.453125,-14.6484375,-121.58203125,0.0
1734582368.8220212,-904.78515625,307.12890625,136.23046875,-131.8359375,0.0
1734582368.8259275,-914.55078125,44.921875,1.46484375,-97.16796875,0.0
1734582368.829834,-834.9609375,-97.16796875,-99.609375,-100.09765625,0.0
1734582368.8337402,-797.8515625,15.625,-0.48828125,-103.02734375,0.0
1734582368.8376467,-917.48046875,-160.15625,-126.953125,-83.49609375,0.0
1734582368.841553,-1000.0,-541.9921875,-354.4921875,-83.0078125,0.0
1734582368.8454592,-961.42578125,-802.24609375,-454.1015625,-63.96484375,0.0
1734582368.8493657,-702.63671875,-162.59765625,-158.69140625,-80.56640625,0.0
1734582368.853272,-711.9140625,2.44140625,-91.796875,-88.37890625,0.0
1734582368.8571782,-903.3203125,-444.3359375,-318.359375,-66.89453125,0.0
1734582368.8610847,-864.2578125,-205.56640625,-134.765625,-54.19921875,0.0
1734582368.864991,-774.4140625,141.6015625,88.8671875,-60.05859375,0.0
1734582368.870215,-736.328125,120.60546875,58.10546875,-62.98828125,0.0
1734582368.8741214,-816.89453125,-309.08203125,-250.9765625,-50.78125,0.0
1734582368.8780277,-795.41015625,-192.3828125,-181.15234375,-55.6640625,0.0
1734582368.881934,-770.99609375,168.45703125,98.6328125,-72.265625,0.0
1734582368.8858404,-828.125,38.57421875,-18.5546875,-60.546875,0.0
1734582368.8897467,-853.02734375,-579.1015625,-366.2109375,-36.62109375,0.0
1734582368.893653,-741.69921875,-638.18359375,-331.0546875,-44.921875,0.0
1734582368.8975594,-696.77734375,-265.13671875,-212.890625,-56.640625,0.0
1734582368.9014657,-770.99609375,-198.73046875,-221.19140625,-52.24609375,0.0
1734582368.9053721,-912.109375,-727.05078125,-446.2890625,-43.45703125,0.0
1734582368.9092784,-679.6875,-415.52734375,-202.63671875,-52.734375,0.0
1734582368.9131846,-511.23046875,154.78515625,124.51171875,-41.9921875,0.0
1734582368.9176772,-689.94140625,-122.55859375,-57.6171875,-30.2734375,0.0
1734582368.9215834,-807.12890625,-477.5390625,-255.37109375,-38.0859375,0.0
1734582368.92549,-686.5234375,-93.26171875,-77.63671875,-39.55078125,0.0
1734582368.9293962,-573.73046875,204.1015625,96.19140625,-34.66796875,0.0
1734582368.9333024,-615.234375,-221.19140625,-119.62890625,-22.4609375,0.0
1734582368.937209,-725.09765625,-716.796875,-348.6328125,-25.390625,0.0
1734582368.9411151,-701.66015625,-463.37890625,-257.8125,-34.66796875,0.0
1734582368.9450216,-579.1015625,116.69921875,15.13671875,-33.69140625,0.0
1734582368.9489279,-644.53125,-181.640625,-69.82421875,-28.80859375,0.0
1734582368.9528341,-745.60546875,-826.171875,-367.67578125,-25.390625,0.0
1734582368.9567406,-534.66796875,-408.69140625,-240.234375,-47.8515625,0.0
1734582368.9606469,-481.93359375,74.21875,-5.37109375,-35.64453125,0.0
1734582368.970634,-614.74609375,-144.04296875,-119.62890625,-13.671875,0.0
1734582368.9745405,-504.8828125,-36.62109375,-96.19140625,-26.85546875,0.0
1734582368.9784467,-384.765625,227.05078125,112.79296875,-33.69140625,0.0
1734582368.982353,-450.68359375,107.91015625,61.5234375,-49.31640625,0.0
1734582368.9862595,-611.328125,-264.6484375,-250.0,-59.5703125,0.0
1734582368.9901657,-653.3203125,-471.19140625,-359.375,-61.03515625,0.0
1734582368.9940722,-498.046875,-330.56640625,-240.72265625,-53.22265625,0.0
1734582368.9979784,-356.93359375,-142.578125,-142.08984375,-35.15625,0.0
1734582369.001885,-565.4296875,-718.75,-422.36328125,-26.3671875,0.0
1734582369.0057912,-479.4921875,-430.17578125,-226.5625,-43.45703125,0.0
1734582369.0096974,-326.66015625,239.2578125,145.99609375,-47.8515625,0.0
1734582369.013604,-393.06640625,38.57421875,-12.6953125,-30.76171875,0.0
1734582369.0162387,-327.1484375,-138.671875,-120.60546875,-26.85546875,0.0
1734582369.020145,-299.8046875,-107.421875,-73.2421875,-35.15625,0.0
1734582369.0240514,-330.078125,-21.97265625,-56.15234375,-49.8046875,0.0
1734582369.0279577,-408.69140625,-61.03515625,-78.125,-51.26953125,0.0
1734582369.031864,-385.25390625,-142.578125,-151.3671875,-45.41015625,0.0
1734582369.0357704,-317.3828125,-273.4375,-248.53515625,-47.36328125,0.0
1734582369.0396767,-339.35546875,-410.64453125,-310.05859375,-44.43359375,0.0
1734582369.0435832,-399.90234375,-376.46484375,-247.55859375,-38.0859375,0.0
1734582369.0474894,-440.91796875,-374.0234375,-224.12109375,-49.8046875,0.0
1734582369.051396,-416.9921875,-336.9140625,-268.06640625,-39.55078125,0.0
1734582369.0553021,-302.24609375,-89.35546875,-163.0859375,-30.76171875,0.0
1734582369.0592084,-367.67578125,-320.3125,-250.0,-42.48046875,0.0
1734582369.0617201,-419.43359375,-322.265625,-191.40625,-44.921875,0.0
1734582369.0656266,-390.625,131.8359375,66.89453125,-53.22265625,0.0
1734582369.0695329,-418.9453125,170.8984375,70.3125,-50.78125,0.0
1734582369.0734394,-561.03515625,-488.76953125,-335.9375,-39.55078125,0.0
1734582369.0773456,-535.15625,-789.55078125,-431.640625,-43.9453125,0.0
1734582369.0812519,-437.98828125,-395.5078125,-249.0234375,-47.36328125,0.0
1734582369.0851583,-561.03515625,-393.5546875,-284.66796875,-49.31640625,0.0
1734582369.0890646,-667.48046875,-792.48046875,-472.65625,-59.08203125,0.0
1734582369.092971,-375.9765625,-402.34375,-206.54296875,-68.84765625,0.0
1734582369.0968773,-131.34765625,253.41796875,153.3203125,-57.6171875,0.0
1734582369.1007836,-300.29296875,99.609375,19.04296875,-45.41015625,0.0
1734582369.10469,-457.03125,-133.7890625,-136.71875,-46.875,0.0
1734582369.1070101,-453.125,109.375,20.99609375,-45.8984375,0.0
1734582369.1109164,-423.33984375,223.6328125,135.25390625,-45.41015625,0.0
1734582369.1148229,-475.5859375,-56.15234375,-20.5078125,-49.31640625,0.0
1734582369.118729,-500.9765625,-119.140625,-124.51171875,-39.55078125,0.0
1734582369.1226354,-518.5546875,93.75,13.18359375,-28.80859375,0.0
1734582369.1265419,-577.63671875,-136.71875,-122.0703125,-23.4375,0.0
1734582369.130448,-588.8671875,-492.67578125,-336.42578125,-18.5546875,0.0
1734582369.1343546,-590.8203125,-803.22265625,-421.38671875,-17.578125,0.0
1734582369.1382608,-396.97265625,-457.03125,-268.06640625,-51.26953125,0.0
1734582369.142167,-436.03515625,-251.46484375,-234.375,-52.24609375,0.0
1734582369.1460736,-518.06640625,-362.3046875,-292.96875,-37.109375,0.0
1734582369.1499798,-357.421875,-77.63671875,-104.4921875,-39.55078125,0.0
1734582369.1556666,-201.171875,204.58984375,107.421875,-44.43359375,0.0
1734582369.1595728,-222.65625,229.98046875,114.2578125,-42.48046875,0.0
1734582369.1634793,-357.421875,-304.6875,-231.93359375,-36.62109375,0.0
1734582369.1673856,-18.5546875,-149.4140625,-118.1640625,-40.0390625,0.0
1734582369.1712918,324.21875,296.875,138.18359375,-44.921875,0.0
1734582369.1751983,260.7421875,-153.3203125,-150.390625,-29.78515625,0.0
1734582369.1791046,184.08203125,-753.41796875,-447.75390625,-36.1328125,0.0
1734582369.183011,424.31640625,-354.4921875,-162.59765625,-61.5234375,0.0
1734582369.1869173,545.41015625,375.0,190.91796875,-29.296875,0.0
1734582369.1908236,413.0859375,279.78515625,108.3984375,-13.18359375,0.0
1734582369.19473,348.6328125,-149.4140625,-116.2109375,-24.4140625,0.0
1734582369.1986363,387.20703125,-192.87109375,-128.90625,-15.13671875,0.0
1734582369.2003503,0.0,244.62890625,150.390625,-29.78515625,0.0
1734582369.2042568,0.0,274.4140625,127.44140625,-35.15625,0.0
1734582369.208163,0.0,62.5,19.53125,-10.7421875,0.0
1734582369.2120695,0.0,257.32421875,125.0,-17.08984375,0.0
1734582369.2159758,0.0,372.55859375,176.7578125,-35.15625,0.0
1734582369.219882,0.0,-71.77734375,-30.2734375,-26.3671875,0.0
1734582369.2237885,0.0,-260.7421875,-117.67578125,-33.69140625,0.0
1734582369.2276947,0.0,212.40234375,128.90625,-41.9921875,0.0
1734582369.2316012,0.0,272.4609375,169.43359375,-34.1796875,0.0
1734582369.2355075,0.0,-313.4765625,-105.95703125,-10.7421875,0.0
1734582369.2394137,0.0,-549.8046875,-196.77734375,-7.32421875,0.0
1734582369.2433202,0.0,126.46484375,129.39453125,-20.01953125,0.0
1734582369.2478971,187.98828125,389.16015625,0.0,0.0,0.0
1734582369.2518034,54.19921875,-310.05859375,0.0,0.0,0.0
1734582369.25571,130.859375,-468.26171875,0.0,0.0,0.0
1734582369.2596161,254.8828125,240.72265625,0.0,0.0,0.0
1734582369.2635226,76.66015625,282.2265625,0.0,0.0,0.0
1734582369.2674289,-152.83203125,-410.15625,0.0,0.0,0.0
1734582369.2713351,-20.5078125,-378.41796875,0.0,0.0,0.0
1734582369.2752416,191.89453125,294.921875,0.0,0.0,0.0
1734582369.2791479,39.55078125,188.4765625,0.0,0.0,0.0
1734582369.2830544,-177.24609375,-340.8203125,0.0,0.0,0.0
1734582369.2869606,-84.9609375,-17.578125,0.0,0.0,0.0
1734582369.2908669,37.59765625,344.23828125,0.0,0.0,0.0
1734582369.2950616,-28.80859375,65.91796875,49.8046875,-38.0859375,0.0
1734582369.298968,-256.8359375,-635.7421875,-296.38671875,-25.390625,0.0
1734582369.3028743,-143.06640625,-142.08984375,17.08984375,-26.3671875,0.0
1734582369.3067806,-103.515625,346.6796875,215.33203125,-27.83203125,0.0
1734582369.310687,-202.63671875,-47.36328125,-42.48046875,-12.6953125,0.0
1734582369.3145933,-157.71484375,-372.55859375,-220.703125,-8.7890625,0.0
1734582369.3184998,-168.9453125,-392.578125,-247.55859375,-7.32421875,0.0
1734582369.322406,-156.73828125,-64.94140625,-60.546875,-16.11328125,0.0
1734582369.3263123,-305.17578125,-242.67578125,-100.09765625,-15.625,0.0
1734582369.3302188,-410.64453125,-722.65625,-285.64453125,-12.20703125,0.0
1734582369.334125,-35.64453125,2.44140625,76.66015625,-30.2734375,0.0
1734582369.3380315,-5.859375,347.16796875,185.05859375,-34.1796875,0.0
1734582369.344796,-263.18359375,-47.36328125,-18.5546875,-20.01953125,0.0
1734582369.3487022,-253.90625,40.52734375,64.94140625,-19.53125,0.0
1734582369.3526084,-140.13671875,235.83984375,164.0625,-26.85546875,0.0
1734582369.356515,-97.16796875,169.43359375,93.75,0.0,0.0
1734582369.3604212,-212.40234375,-182.12890625,-107.421875,1.46484375,0.0
1734582369.3643277,-316.89453125,-415.0390625,-250.9765625,-21.97265625,0.0
1734582369.368234,-252.9296875,-178.7109375,-122.55859375,-9.27734375,0.0
1734582369.3721404,-167.96875,-1.953125,40.52734375,-0.48828125,0.0
1734582369.3760467,-299.8046875,-701.171875,-361.81640625,2.44140625,0.0
1734582369.379953,-92.7734375,-375.0,-174.31640625,-1.953125,0.0
1734582369.3838594,37.109375,368.1640625,226.07421875,-12.20703125,0.0
1734582369.3877656,-169.921875,157.71484375,75.68359375,-11.71875,0.0
1734582369.390593,-204.1015625,-112.3046875,-29.296875,-27.83203125,0.0
1734582369.3944995,-36.1328125,117.1875,90.33203125,-40.52734375,0.0
1734582369.3984058,43.9453125,324.70703125,164.0625,-23.92578125,0.0
1734582369.402312,-108.3984375,38.57421875,28.80859375,-18.5546875,0.0
1734582369.4062185,-201.66015625,-271.97265625,-126.46484375,-35.15625,0.0
1734582369.4101248,-173.828125,-293.45703125,-162.59765625,-32.2265625,0.0
1734582369.4140313,-125.0,-294.921875,-179.6875,-10.7421875,0.0
1734582369.4179375,-54.6875,-269.04296875,-137.20703125,-2.44140625,0.0
1734582369.421844,-66.89453125,-242.67578125,-111.81640625,-10.7421875,0.0
1734582369.4257503,-141.6015625,-236.328125,-152.34375,-24.4140625,0.0
1734582369.4296565,-83.49609375,51.7578125,22.94921875,-26.85546875,0.0
1734582369.433563,-141.6015625,-253.41796875,-100.09765625,-13.671875,0.0
1734582369.4361682,-164.0625,-689.94140625,0.0,-0.9765625,0.0
1734582369.4400744,95.703125,123.53515625,0.0,-16.11328125,0.0
1734582369.443981,16.11328125,327.63671875,0.0,-27.34375,0.0
1734582369.4478872,-157.2265625,-142.578125,0.0,-33.69140625,0.0
1734582369.4517937,-6.8359375,12.20703125,0.0,-21.97265625,0.0
1734582369.4557,56.640625,-28.3203125,0.0,-21.484375,0.0
1734582369.4596062,-44.921875,-269.04296875,0.0,-30.2734375,0.0
1734582369.4635127,-240.234375,-694.82421875,0.0,-14.6484375,0.0
1734582369.467419,-100.5859375,-414.55078125,0.0,-34.1796875,0.0
1734582369.4713254,158.69140625,324.21875,0.0,-37.59765625,0.0
1734582369.4752316,115.72265625,261.23046875,0.0,-21.97265625,0.0
1734582369.479138,36.1328125,29.296875,0.0,-20.99609375,0.0
1734582369.481534,47.36328125,265.625,114.74609375,-18.5546875,0.0
1734582369.4854403,25.390625,400.390625,170.41015625,-22.4609375,0.0
1734582369.4893467,-22.4609375,70.80078125,-1.46484375,-27.83203125,0.0
1734582369.493253,84.9609375,-22.94921875,-34.66796875,-22.94921875,0.0
1734582369.4971592,130.37109375,229.00390625,124.0234375,-34.1796875,0.0
1734582369.5010657,2.9296875,58.10546875,26.3671875,-37.109375,0.0
1734582369.504972,-140.625,-406.73828125,-246.09375,-15.625,0.0
1734582369.5088785,-157.2265625,-670.8984375,-347.65625,-10.7421875,0.0
1734582369.5127847,150.390625,-38.0859375,39.55078125,-21.484375,0.0
1734582369.516691,128.41796875,21.484375,72.75390625,-18.06640625,0.0
1734582369.5205975,-62.5,-352.05078125,-139.16015625,-22.94921875,0.0
1734582369.5245037,-40.0390625,-165.52734375,-63.96484375,-36.62109375,0.0
1734582369.5269122,87.890625,267.578125,134.765625,-58.59375,0.0
1734582369.5308185,124.51171875,312.01171875,133.7890625,-47.36328125,0.0
1734582369.534725,34.1796875,-69.3359375,-46.875,-20.99609375,0.0
1734582369.5386312,51.26953125,65.4296875,53.7109375,-32.71484375,0.0
1734582369.5425375,31.25,303.22265625,167.48046875,-35.64453125,0.0
1734582369.546444,-74.21875,-93.75,-74.21875,-37.109375,0.0
1734582369.5503502,-135.7421875,-768.06640625,-455.078125,-11.23046875,0.0
1734582369.5542567,47.8515625,-456.0546875,-219.23828125,-15.625,0.0
1734582369.558163,164.55078125,328.125,194.3359375,-27.34375,0.0
1734582369.5620692,-21.484375,190.91796875,53.7109375,-17.08984375,0.0
1734582369.5659757,-94.7265625,-158.203125,-109.375,-29.296875,0.0
1734582369.569882,81.54296875,134.27734375,80.56640625,-31.73828125,0.0
1734582369.5753229,0.0,363.76953125,176.7578125,0.0,0.0
1734582369.579229,0.0,118.65234375,14.16015625,0.0,0.0
1734582369.5831356,0.0,-83.0078125,-39.55078125,0.0,0.0
1734582369.5870419,0.0,129.8828125,106.93359375,0.0,0.0
1734582369.590948,0.0,297.8515625,146.97265625,0.0,0.0
1734582369.5948546,0.0,-216.796875,-122.0703125,0.0,0.0
1734582369.5987608,0.0,-600.5859375,-227.5390625,0.0,0.0
1734582369.602667,0.0,52.734375,107.91015625,0.0,0.0
1734582369.6065736,0.0,197.265625,130.37109375,0.0,0.0
1734582369.6104798,0.0,-314.453125,-126.953125,0.0,0.0
1734582369.6143863,0.0,-390.625,-191.40625,0.0,0.0
1734582369.6182926,0.0,41.015625,49.31640625,0.0,0.0
1734582369.6232388,16.6015625,226.5625,136.71875,-33.203125,0.0
1734582369.627145,-149.90234375,-275.87890625,-156.73828125,-24.90234375,0.0
1734582369.6310515,26.3671875,-182.12890625,-75.1953125,-28.80859375,0.0
1734582369.6349578,225.09765625,335.44921875,191.40625,-22.4609375,0.0
1734582369.6388643,99.12109375,278.3203125,121.09375,-28.80859375,0.0
1734582369.6427705,-169.921875,-503.41796875,-329.1015625,-29.78515625,0.0
1734582369.6466768,-87.40234375,-487.79296875,-250.0,-20.99609375,0.0
1734582369.6505833,149.90234375,286.62109375,171.38671875,-35.15625,0.0
1734582369.6544895,132.32421875,199.70703125,90.33203125,-33.69140625,0.0
1734582369.658396,-141.11328125,-703.61328125,-404.296875,-11.71875,0.0
1734582369.6623023,-21.484375,-341.796875,-174.8046875,-37.109375,0.0
1734582369.6662085,78.125,227.05078125,169.921875,-56.15234375,0.0
1734582369.6701462,0.0,-202.63671875,-112.79296875,-25.87890625,0.0
1734582369.6740525,0.0,-123.046875,-69.3359375,-30.76171875,0.0
1734582369.6779587,0.0,238.76953125,133.30078125,-39.55078125,0.0
1734582369.6818652,0.0,293.45703125,135.7421875,-27.34375,0.0
1734582369.6857715,0.0,-1.953125,-5.859375,-24.4140625,0.0
1734582369.689678,0.0,-392.08984375,-230.46875,-20.01953125,0.0
1734582369.6935842,0.0,-204.1015625,-120.1171875,-15.625,0.0
1734582369.6974905,0.0,269.04296875,152.83203125,-17.08984375,0.0
1734582369.701397,0.0,-134.27734375,-75.1953125,-13.671875,0.0
1734582369.7053032,0.0,-699.70703125,-280.76171875,-16.11328125,0.0
1734582369.7092097,0.0,30.2734375,96.19140625,-29.296875,0.0
1734582369.713116,0.0,366.69921875,173.828125,-29.296875,0.0
1734582369.7169576,14.16015625,-43.45703125,-27.83203125,-23.92578125,0.0
1734582369.720864,4.39453125,61.5234375,39.55078125,-33.69140625,0.0
1734582369.7247703,-35.15625,212.40234375,138.18359375,-24.4140625,0.0
1734582369.7286768,-118.65234375,-114.2578125,-16.6015625,-3.90625,0.0
1734582369.732583,-112.79296875,-480.95703125,-291.9921875,-16.6015625,0.0
1734582369.7364893,-39.55078125,-449.21875,-292.96875,-22.4609375,0.0
1734582369.7403958,8.7890625,-131.34765625,-84.9609375,-11.71875,0.0
1734582369.744302,-55.17578125,62.98828125,66.40625,-13.18359375,0.0
1734582369.7482085,-265.625,-618.1640625,-333.49609375,-6.8359375,0.0
1734582369.7521148,-21.97265625,-375.48828125,-173.828125,-10.7421875,0.0
1734582369.756021,226.5625,422.36328125,228.515625,-16.6015625,0.0
1734582369.7599275,-7.32421875,151.85546875,36.62109375,-22.94921875,0.0
1734582369.7662368,-192.3828125,-359.375,-111.328125,-29.78515625,0.0
1734582369.7701433,-28.3203125,98.6328125,119.140625,-23.92578125,0.0
1734582369.7740495,69.3359375,409.1796875,175.29296875,-21.484375,0.0
1734582369.777956,19.53125,161.1328125,47.8515625,-15.13671875,0.0
1734582369.7818623,-19.53125,17.08984375,6.34765625,-10.7421875,0.0
1734582369.7857685,-144.53125,-197.265625,-109.375,-13.18359375,0.0
1734582369.789675,-159.66796875,-252.44140625,-184.5703125,-20.99609375,0.0
1734582369.7935812,-114.74609375,-309.5703125,-187.98828125,-19.53125,0.0
1734582369.7974877,-155.76171875,-769.53125,-354.98046875,-14.16015625,0.0
1734582369.801394,16.6015625,-354.98046875,-184.5703125,-31.25,0.0
1734582369.8053002,45.41015625,214.35546875,124.51171875,-31.73828125,0.0
1734582369.8092067,-89.84375,-0.48828125,35.15625,-26.85546875,0.0
1734582369.814707,31.25,87.40234375,49.31640625,-31.25,0.0
1734582369.8186133,187.5,383.7890625,167.96875,-41.9921875,0.0
1734582369.8225195,109.375,291.9921875,128.41796875,-49.8046875,0.0
1734582369.826426,-90.8203125,-120.60546875,-71.77734375,-36.62109375,0.0
1734582369.8303323,-46.38671875,-7.32421875,16.11328125,-37.59765625,0.0
1734582369.8342388,30.76171875,4.8828125,37.109375,-38.0859375,0.0
1734582369.838145,37.109375,-309.08203125,-186.03515625,-47.8515625,0.0
1734582369.8420515,19.04296875,-491.69921875,-291.50390625,-45.41015625,0.0
1734582369.8459578,64.453125,-79.1015625,1.46484375,-42.48046875,0.0
1734582369.849864,18.06640625,44.921875,70.80078125,-47.36328125,0.0
1734582369.8537705,2.9296875,-216.30859375,-116.69921875,-46.38671875,0.0
1734582369.8576767,-46.875,-722.16796875,-374.51171875,-42.48046875,0.0
1734582369.859528,175.78125,-215.33203125,-44.921875,-48.33984375,0.0
1734582369.8634346,268.06640625,470.21484375,249.51171875,-44.921875,0.0
1734582369.8673408,50.29296875,120.1171875,23.4375,-42.96875,0.0
1734582369.8712473,59.5703125,-113.28125,-80.56640625,-47.8515625,0.0
1734582369.8751535,215.8203125,240.72265625,117.67578125,-41.50390625,0.0
1734582369.8790598,109.375,67.87109375,46.875,-49.31640625,0.0
1734582369.8829663,-41.015625,-349.12109375,-185.05859375,-52.24609375,0.0
1734582369.8868725,34.1796875,-174.8046875,-92.7734375,-48.828125,0.0
1734582369.890779,136.71875,201.171875,112.79296875,-49.31640625,0.0
1734582369.8946853,157.2265625,54.6875,82.03125,-56.640625,0.0
1734582369.8985915,110.3515625,-325.1953125,-86.42578125,-37.59765625,0.0
1734582369.902498,59.5703125,-480.95703125,-151.85546875,-26.3671875,0.0
1734582369.904117,169.921875,-30.2734375,80.56640625,-39.55078125,0.0
1734582369.9080234,220.21484375,233.3984375,154.296875,-38.57421875,0.0
1734582369.9119296,232.421875,51.26953125,19.04296875,-34.1796875,0.0
1734582369.915836,358.3984375,256.34765625,98.14453125,-43.9453125,0.0
1734582369.9197423,346.19140625,475.09765625,211.9140625,-46.875,0.0
1734582369.9236488,124.51171875,45.8984375,80.56640625,-26.85546875,0.0
1734582369.927555,-42.48046875,-651.3671875,-323.73046875,-11.71875,0.0
1734582369.9314613,207.51953125,-364.74609375,-161.1328125,-22.94921875,0.0
1734582369.9353678,461.9140625,458.0078125,229.98046875,-23.92578125,0.0
1734582369.939274,253.90625,246.58203125,80.56640625,-14.6484375,0.0
1734582369.9431806,13.18359375,-324.70703125,-84.47265625,-19.53125,0.0
1734582369.9470868,129.39453125,121.09375,119.62890625,-22.94921875,0.0
1734582369.9491298,234.86328125,490.234375,219.7265625,-35.64453125,0.0
1734582369.953036,169.43359375,207.51953125,78.61328125,-42.96875,0.0
1734582369.9569423,67.87109375,-37.109375,-10.25390625,-26.85546875,0.0
1734582369.9608488,-28.3203125,12.6953125,59.5703125,-14.16015625,0.0
1734582369.964755,-31.25,100.5859375,105.95703125,-31.25,0.0
1734582369.9686615,-92.7734375,-192.87109375,-62.98828125,-45.8984375,0.0
1734582369.9725678,-118.1640625,-569.3359375,-209.47265625,-37.59765625,0.0
1734582369.976474,86.42578125,105.95703125,122.0703125,-30.2734375,0.0
1734582369.9803805,-8.7890625,310.05859375,167.96875,-21.97265625,0.0
1734582369.9842868,-209.9609375,-242.67578125,-90.33203125,-27.34375,0.0
1734582369.9881933,-66.40625,-153.80859375,-34.1796875,-37.59765625,0.0
1734582369.9920995,138.18359375,357.421875,187.5,-44.43359375,0.0
1734582369.996935,56.15234375,351.07421875,154.296875,-38.57421875,0.0
1734582370.0008411,-160.64453125,-240.234375,-134.27734375,-27.83203125,0.0
1734582370.0047476,-125.0,-171.875,-78.61328125,-41.9921875,0.0
1734582370.0086539,42.48046875,340.8203125,188.96484375,-51.7578125,0.0
1734582370.0125601,118.1640625,311.5234375,134.765625,-25.390625,0.0
1734582370.0164666,-99.609375,-474.609375,-308.10546875,-15.13671875,0.0
1734582370.0203729,-117.67578125,-692.87109375,-361.328125,-36.1328125,0.0
1734582370.024279,94.23828125,0.0,10.7421875,-40.0390625,0.0
1734582370.0281856,125.9765625,166.9921875,98.14453125,-34.66796875,0.0
1734582370.0320919,74.21875,-426.7578125,-269.04296875,-24.4140625,0.0
1734582370.0359983,233.88671875,-137.6953125,-110.83984375,-24.90234375,0.0
1734582370.0399046,268.5546875,249.51171875,140.625,-29.296875,0.0
1734582370.0441122,124.51171875,46.875,19.04296875,-22.4609375,0.0
1734582370.0480187,134.27734375,-271.484375,-111.81640625,-33.69140625,0.0
1734582370.051925,391.6015625,102.05078125,89.35546875,-46.38671875,0.0
1734582370.0558314,449.70703125,400.87890625,189.94140625,-40.52734375,0.0
1734582370.0597377,305.17578125,106.93359375,46.38671875,-32.2265625,0.0
1734582370.063644,193.359375,-320.80078125,-179.6875,-30.2734375,0.0
1734582370.0675504,302.24609375,-186.5234375,-107.91015625,-27.83203125,0.0
1734582370.0714567,518.06640625,317.3828125,171.875,-30.2734375,0.0
1734582370.0753632,395.99609375,-12.6953125,-32.71484375,-26.3671875,0.0
1734582370.0792694,151.85546875,-787.59765625,-370.1171875,-12.6953125,0.0
1734582370.0831757,342.7734375,-325.68359375,-172.8515625,-15.625,0.0
1734582370.0870821,469.7265625,265.13671875,123.046875,-27.34375,0.0
1734582370.09101,388.18359375,-22.94921875,-23.92578125,-36.62109375,0.0
1734582370.0949163,423.828125,28.3203125,-22.94921875,-39.0625,0.0
1734582370.0988226,398.4375,299.31640625,156.73828125,-38.57421875,0.0
1734582370.102729,242.1875,249.0234375,127.9296875,-42.96875,0.0
1734582370.1066353,73.73046875,-293.9453125,-200.68359375,-46.875,0.0
1734582370.1105418,193.359375,-457.51953125,-309.08203125,-38.57421875,0.0
1734582370.114448,353.515625,-188.96484375,-151.85546875,-36.62109375,0.0
1734582370.1183543,305.17578125,-20.5078125,5.37109375,-42.48046875,0.0
1734582370.1222608,12.20703125,-631.8359375,-357.91015625,-39.55078125,0.0
1734582370.126167,119.140625,-375.0,-189.94140625,-45.41015625,0.0
1734582370.1300735,333.49609375,362.79296875,189.453125,-47.8515625,0.0
1734582370.1339798,243.1640625,175.78125,57.6171875,-38.0859375,0.0
1734582370.137344,115.234375,-161.62109375,-97.65625,-34.66796875,0.0
1734582370.1412501,-5.37109375,-183.59375,-137.20703125,-38.57421875,0.0
1734582370.1451566,-8.7890625,99.609375,45.8984375,-50.78125,0.0
1734582370.1490629,14.6484375,55.6640625,36.62109375,-46.875,0.0
1734582370.1529691,12.20703125,-118.65234375,-92.28515625,-41.9921875,0.0
1734582370.1568756,-135.25390625,-331.54296875,-244.140625,-41.9921875,0.0
1734582370.1607819,-221.19140625,-382.32421875,-280.2734375,-27.34375,0.0
1734582370.164688,-287.59765625,-335.44921875,-242.1875,-20.99609375,0.0
1734582370.1685946,-431.640625,-877.9296875,-489.2578125,-22.94921875,0.0
1734582370.1725008,-163.57421875,-583.0078125,-335.9375,-41.015625,0.0
1734582370.1764073,-92.7734375,32.71484375,-23.92578125,-45.8984375,0.0
1734582370.1803136,-337.890625,-131.8359375,-120.1171875,-37.109375,0.0
1734582370.1833863,-352.5390625,-61.5234375,-141.6015625,-42.48046875,0.0
1734582370.1872926,-270.5078125,236.81640625,75.1953125,-55.17578125,0.0
1734582370.191199,-253.90625,200.68359375,96.19140625,-17.578125,0.0
1734582370.1951053,-380.37109375,-272.4609375,-227.05078125,33.203125,0.0
1734582370.1990116,-464.84375,-440.4296875,-337.40234375,9.27734375,0.0
1734582370.202918,-499.51171875,-340.8203125,-254.39453125,-44.921875,0.0
1734582370.2068243,-494.140625,-380.859375,-272.4609375,-61.03515625,0.0
1734582370.2107308,-522.94921875,-769.53125,-496.58203125,-39.55078125,0.0
1734582370.214637,-366.69921875,-516.11328125,-293.9453125,-48.33984375,0.0
1734582370.2185433,-267.08984375,193.359375,114.2578125,-79.1015625,0.0
1734582370.2224498,-502.9296875,37.109375,12.6953125,-94.23828125,0.0
1734582370.226356,-620.60546875,-458.984375,-197.265625,-100.09765625,0.0
1734582370.2292871,-462.890625,-54.19921875,3.41796875,-135.25390625,0.0
1734582370.2331934,-477.05078125,229.4921875,133.7890625,-177.24609375,0.0
1734582370.2371,-674.31640625,-53.22265625,-35.15625,-181.15234375,0.0
1734582370.2410061,-725.09765625,-170.8984375,-211.9140625,-176.26953125,0.0
1734582370.2449124,-653.3203125,24.90234375,-99.609375,-173.33984375,0.0
1734582370.2488189,-628.90625,-198.2421875,-188.96484375,-187.5,0.0
1734582370.2527251,-676.7578125,-628.41796875,-391.6015625,-204.58984375,0.0
1734582370.2566316,-775.390625,-818.84765625,-440.91796875,-220.21484375,0.0
1734582370.2605379,-641.11328125,-354.4921875,-247.0703125,-222.65625,0.0
1734582370.264444,-620.60546875,-267.578125,-259.765625,-227.5390625,0.0
1734582370.2683506,-569.3359375,-378.90625,-322.265625,-257.8125,0.0
1734582370.2722569,-445.3125,-140.13671875,-182.6171875,-263.18359375,0.0
1734582370.2778497,-456.0546875,157.71484375,-0.9765625,-271.484375,0.0
1734582370.281756,-602.05078125,148.92578125,23.4375,-281.25,0.0
1734582370.2856624,-772.94921875,-310.05859375,-293.45703125,-278.3203125,0.0
1734582370.2895687,-650.390625,-145.99609375,-243.65234375,-304.6875,0.0
1734582370.293475,-564.453125,104.4921875,-71.2890625,-318.359375,0.0
1734582370.2973814,-756.8359375,-302.734375,-278.3203125,-305.6640625,0.0
1734582370.3012877,-958.984375,-837.890625,-539.0625,-296.38671875,0.0
1734582370.3051941,-875.48828125,-540.0390625,-344.23828125,-291.50390625,0.0
1734582370.3091004,-661.62109375,117.1875,-70.80078125,-290.52734375,0.0
1734582370.3130066,-663.0859375,-0.48828125,-129.8828125,-272.4609375,0.0
1734582370.3169131,-779.296875,-500.0,-284.1796875,-268.06640625,0.0
1734582370.3208194,-708.984375,-226.07421875,-206.54296875,-259.27734375,0.0
1734582370.3228073,-673.828125,125.48828125,-107.421875,-245.1171875,0.0
1734582370.3267138,-671.875,-92.7734375,-197.75390625,-237.3046875,0.0
1734582370.33062,-558.59375,-297.8515625,-254.39453125,-218.26171875,0.0
1734582370.3345263,-460.9375,-82.03125,-127.44140625,-206.0546875,0.0
1734582370.3384328,-526.3671875,98.6328125,-93.26171875,-201.171875,0.0
1734582370.342339,-658.203125,-357.91015625,-294.921875,-168.45703125,0.0
1734582370.3462455,-544.921875,-689.94140625,-351.07421875,-149.90234375,0.0
1734582370.3501518,-302.734375,-162.59765625,-145.99609375,-135.7421875,0.0
1734582370.354058,-320.80078125,44.921875,-72.75390625,-133.30078125,0.0
1734582370.3579645,-594.7265625,-530.76171875,-342.7734375,-117.67578125,0.0
1734582370.3618708,-649.90234375,-778.80859375,-379.39453125,-76.171875,0.0
1734582370.365777,-372.0703125,-145.5078125,-128.41796875,-82.03125,0.0
1734582370.3706555,-334.47265625,49.31640625,-62.5,-95.703125,0.0
1734582370.374562,-476.07421875,-415.52734375,-280.76171875,-82.03125,0.0
1734582370.3784683,-473.6328125,-346.19140625,-263.18359375,-56.15234375,0.0
1734582370.3823745,-446.77734375,44.921875,-89.84375,-60.05859375,0.0
1734582370.386281,-466.30859375,31.25,-124.51171875,-68.84765625,0.0
1734582370.3901873,-512.20703125,-606.93359375,-404.78515625,-42.48046875,0.0
1734582370.3940938,-412.59765625,-643.06640625,-343.75,-51.7578125,0.0
1734582370.398,-344.7265625,22.94921875,-15.13671875,-81.0546875,0.0
1734582370.4019063,-533.69140625,-48.33984375,-53.7109375,-49.31640625,0.0
1734582370.4058127,-746.58203125,-752.9296875,-467.7734375,-23.4375,0.0
1734582370.409719,-504.39453125,-428.22265625,-264.6484375,-52.24609375,0.0
1734582370.4136252,-391.6015625,115.234375,80.56640625,-94.23828125,0.0
1734582370.4180696,-591.796875,-45.41015625,-17.578125,-53.7109375,0.0
1734582370.421976,-704.58984375,-262.6953125,-206.54296875,-18.5546875,0.0
1734582370.4258823,-702.1484375,-75.68359375,-82.03125,-56.640625,0.0
1734582370.4297886,-666.50390625,67.87109375,79.58984375,-72.75390625,0.0
1734582370.433695,-738.28125,-205.078125,-66.40625,-58.10546875,0.0
1734582370.4376013,-865.72265625,-583.49609375,-297.8515625,-63.4765625,0.0
1734582370.4415076,-911.1328125,-579.1015625,-313.4765625,-70.3125,0.0
1734582370.445414,-832.03125,-129.39453125,-129.8828125,-74.70703125,0.0
1734582370.4493203,-870.60546875,-313.96484375,-229.4921875,-77.1484375,0.0
1734582370.4532268,-942.3828125,-824.70703125,-406.25,-70.3125,0.0
1734582370.457133,-807.6171875,-251.46484375,-119.62890625,-81.0546875,0.0
1734582370.4610393,-932.6171875,-133.30078125,-119.62890625,-66.89453125,0.0
1734582370.4652321,0.0,-521.97265625,-335.44921875,-65.4296875,0.0
1734582370.4691386,0.0,-301.26953125,-148.4375,-58.59375,0.0
1734582370.4730449,0.0,68.359375,91.30859375,-35.15625,0.0
1734582370.4769514,0.0,84.47265625,44.43359375,-37.109375,0.0
1734582370.4808576,0.0,-304.6875,-236.81640625,-27.34375,0.0
1734582370.4847639,0.0,-588.8671875,-367.1875,-23.4375,0.0
1734582370.4886703,0.0,-315.4296875,-208.0078125,-33.69140625,0.0
1734582370.4925766,0.0,-86.9140625,-90.8203125,-33.69140625,0.0
1734582370.4964828,0.0,-730.46875,-413.0859375,-13.671875,0.0
1734582370.5003893,0.0,-506.34765625,-266.11328125,-11.23046875,0.0
1734582370.5042956,0.0,170.41015625,104.00390625,-24.90234375,0.0
1734582370.508202,0.0,-11.23046875,14.6484375,-18.5546875,0.0
1734582370.5146973,-977.05078125,-291.9921875,-169.43359375,-1.46484375,0.0
1734582370.5186036,-929.6875,-18.5546875,-21.97265625,5.37109375,0.0
1734582370.52251,-973.6328125,155.76171875,114.2578125,19.04296875,0.0
1734582370.5264163,-1000.0,-87.40234375,-45.8984375,22.94921875,0.0
1734582370.5303228,-958.49609375,-270.99609375,-219.23828125,13.671875,0.0
1734582370.534229,-877.9296875,-417.96875,-283.203125,4.8828125,0.0
1734582370.5381353,-828.61328125,-431.640625,-282.2265625,-0.48828125,0.0
1734582370.5420418,-902.83203125,-461.42578125,-311.5234375,13.18359375,0.0
1734582370.545948,-979.4921875,-838.37890625,-439.94140625,17.578125,0.0
1734582370.5498545,-818.359375,-553.22265625,-290.52734375,2.44140625,0.0
1734582370.5537608,-644.53125,-126.953125,-107.91015625,5.37109375,0.0
1734582370.557667,-694.82421875,-318.84765625,-245.60546875,2.9296875,0.0
1734582370.5603454,-711.42578125,-167.48046875,-163.57421875,12.20703125,0.0
1734582370.564252,-696.77734375,172.36328125,91.796875,11.23046875,0.0
1734582370.5681581,-708.984375,93.75,62.01171875,22.4609375,0.0
1734582370.5720644,-677.734375,-314.94140625,-257.8125,44.43359375,0.0
1734582370.575971,-548.828125,-117.67578125,-150.390625,41.50390625,0.0
1734582370.5798771,-636.71875,-107.421875,-122.0703125,39.0625,0.0
1734582370.5837836,-773.4375,-491.2109375,-327.1484375,31.73828125,0.0
1734582370.5876899,-744.62890625,-691.89453125,-411.1328125,25.87890625,0.0
1734582370.5915961,-500.9765625,-299.31640625,-184.5703125,21.484375,0.0
1734582370.5955026,-362.79296875,198.2421875,126.46484375,20.01953125,0.0
1734582370.5994089,-509.27734375,32.2265625,7.8125,24.4140625,0.0
1734582370.6033154,-782.2265625,-767.08984375,-481.4453125,39.55078125,0.0
1734582370.6058702,-556.640625,-378.90625,-213.8671875,24.4140625,0.0
1734582370.6097767,-303.22265625,159.66796875,126.46484375,27.83203125,0.0
1734582370.613683,-371.58203125,-262.6953125,-172.36328125,48.33984375,0.0
1734582370.6175892,-343.26171875,-210.9375,-200.68359375,42.48046875,0.0
1734582370.6214957,-364.74609375,79.1015625,-7.32421875,36.1328125,0.0
1734582370.625402,-413.0859375,-163.57421875,-126.46484375,28.3203125,0.0
1734582370.6293085,-371.58203125,-572.265625,-350.09765625,31.73828125,0.0
1734582370.6332147,-277.83203125,-741.69921875,-394.04296875,34.1796875,0.0
1734582370.637121,-83.984375,-198.2421875,-109.86328125,16.6015625,0.0
1734582370.6410275,-128.41796875,-174.8046875,-151.3671875,27.83203125,0.0
1734582370.6449337,-117.67578125,-353.515625,-270.5078125,32.2265625,0.0
1734582370.64884,100.09765625,-68.84765625,-59.5703125,22.4609375,0.0
1734582370.6513126,289.55078125,275.390625,129.39453125,5.859375,0.0
1734582370.655219,276.3671875,304.19921875,103.515625,-3.90625,0.0
1734582370.6591253,140.625,-88.37890625,-73.73046875,13.18359375,0.0
1734582370.6630316,218.26171875,23.92578125,14.6484375,10.25390625,0.0
1734582370.666938,384.27734375,241.69921875,151.85546875,-2.44140625,0.0
1734582370.6708443,414.55078125,-62.01171875,-12.6953125,4.8828125,0.0
1734582370.6747506,239.2578125,-754.39453125,-458.984375,1.46484375,0.0
1734582370.678657,335.44921875,-654.296875,-333.984375,-21.484375,0.0
1734582370.6825633,556.640625,210.44921875,149.90234375,-24.90234375,0.0
1734582370.6864698,499.51171875,165.52734375,69.82421875,-22.94921875,0.0
1734582370.690376,534.66796875,-157.2265625,-124.0234375,-12.20703125,0.0
1734582370.6942823,604.00390625,125.9765625,44.921875,-17.08984375,0.0
1734582370.7026484,510.25390625,353.515625,162.59765625,0.0,0.0
1734582370.7065547,328.61328125,64.453125,16.6015625,0.0,0.0
1734582370.710461,297.8515625,-384.27734375,-164.55078125,0.0,0.0
1734582370.7143674,473.14453125,-18.06640625,37.109375,0.0,0.0
1734582370.7182736,404.296875,229.98046875,120.60546875,0.0,0.0
1734582370.7221801,52.734375,-335.44921875,-223.6328125,0.0,0.0
1734582370.7260864,-207.03125,-821.77734375,-469.7265625,0.0,0.0
1734582370.7299929,-21.97265625,-224.12109375,-86.9140625,0.0,0.0
1734582370.733899,-9.765625,-75.68359375,-14.6484375,0.0,0.0
1734582370.7378054,-149.90234375,-435.546875,-266.6015625,0.0,0.0
1734582370.7417119,-219.7265625,-215.8203125,-109.375,0.0,0.0
1734582370.745618,-324.70703125,140.13671875,103.515625,0.0,0.0
1734582370.752556,-392.578125,84.47265625,73.73046875,-181.15234375,0.0
1734582370.7564623,-437.98828125,-297.36328125,-203.125,-189.453125,0.0
1734582370.7603686,-355.46875,-184.5703125,-188.96484375,-210.9375,0.0
1734582370.764275,-333.984375,105.95703125,41.9921875,-196.2890625,0.0
1734582370.7681813,-443.359375,34.66796875,2.44140625,-192.3828125,0.0
1734582370.7720878,-585.9375,-681.15234375,-450.1953125,-203.61328125,0.0
1734582370.775994,-345.21484375,-680.6640625,-379.39453125,-214.35546875,0.0
1734582370.7799006,-34.1796875,83.984375,13.671875,-187.5,0.0
1734582370.7838068,-157.71484375,9.27734375,23.92578125,-170.8984375,0.0
1734582370.787713,-315.4296875,-582.03125,-260.7421875,-178.22265625,0.0
1734582370.7916195,-99.12109375,-242.67578125,-162.109375,-164.0625,0.0
1734582370.7955258,80.56640625,-62.98828125,-64.453125,-156.73828125,0.0
1734582370.7987313,94.23828125,-395.5078125,-267.578125,-144.04296875,0.0
1734582370.8026378,-54.6875,-822.75390625,-500.9765625,-115.72265625,0.0
1734582370.806544,146.97265625,-394.04296875,-200.68359375,-107.91015625,0.0
1734582370.8104506,369.62890625,224.609375,145.5078125,-83.0078125,0.0
1734582370.8143568,376.46484375,-28.80859375,-17.578125,-61.5234375,0.0
1734582370.818263,462.40234375,-528.80859375,-281.73828125,-52.24609375,0.0
1734582370.8221695,595.21484375,-325.1953125,-222.65625,-43.9453125,0.0
1734582370.8260758,661.1328125,243.1640625,81.0546875,-43.9453125,0.0
1734582370.8299823,585.44921875,-59.08203125,-29.296875,-15.625,0.0
1734582370.8338885,706.54296875,-499.51171875,-232.421875,11.71875,0.0
1734582370.837795,944.82421875,17.08984375,-20.99609375,4.39453125,0.0
1734582370.8417013,991.2109375,431.15234375,173.828125,28.3203125,0.0
1734582370.84453,847.16796875,-180.17578125,-120.60546875,61.5234375,0.0
1734582370.8484364,833.0078125,-565.91796875,-240.72265625,63.4765625,0.0
1734582370.8523426,981.4453125,-29.78515625,39.55078125,60.05859375,0.0
1734582370.856249,967.7734375,-61.5234375,-65.4296875,66.89453125,0.0
1734582370.8601553,965.8203125,-209.9609375,-156.25,113.28125,0.0
1734582370.8640618,969.23828125,-249.0234375,-204.1015625,125.48828125,0.0
1734582370.867968,968.75,-46.38671875,-88.37890625,104.00390625,0.0
1734582370.8718746,968.75,233.3984375,86.9140625,119.62890625,0.0
1734582370.8757808,968.75,-450.1953125,-291.9921875,138.671875,0.0
1734582370.879687,968.75,-235.83984375,-109.86328125,155.2734375,0.0
1734582370.8835936,968.75,514.16015625,244.62890625,166.50390625,0.0
1734582370.8874998,968.75,62.5,17.578125,174.8046875,0.0
1734582370.8902779,968.75,-661.1328125,-318.359375,173.828125,0.0
1734582370.894184,968.75,12.20703125,31.25,166.015625,0.0
1734582370.8980906,968.75,599.12109375,251.953125,179.19921875,0.0
1734582370.9019969,968.75,281.25,56.15234375,188.4765625,0.0
1734582370.9059033,969.23828125,25.390625,-25.87890625,181.15234375,0.0
1734582370.9098096,966.30859375,-102.05078125,7.32421875,167.48046875,0.0
1734582370.9137158,974.12109375,-43.9453125,75.1953125,165.0390625,0.0
1734582370.9176223,957.51953125,-162.109375,-11.23046875,165.0390625,0.0
1734582370.9215286,934.08203125,-685.05859375,-322.265625,178.22265625,0.0
1734582370.925435,965.8203125,-303.7109375,-144.53125,170.8984375,0.0
1734582370.9293413,974.12109375,298.828125,152.83203125,154.78515625,0.0
1734582370.9332476,958.49609375,36.62109375,2.9296875,149.4140625,0.0
1734582370.9358675,952.1484375,31.73828125,27.34375,127.44140625,0.0
1734582370.9397738,979.98046875,543.45703125,219.23828125,106.93359375,0.0
1734582370.9436803,868.65234375,486.81640625,161.1328125,102.5390625,0.0
1734582370.9475865,607.91015625,-177.734375,-126.46484375,105.46875,0.0
1734582370.951493,688.4765625,-28.80859375,14.6484375,118.1640625,0.0
1734582370.9553993,686.03515625,107.91015625,100.09765625,113.28125,0.0
1734582370.9593055,473.6328125,-160.15625,-15.625,98.6328125,0.0
1734582370.963212,223.6328125,-563.4765625,-289.55078125,86.42578125,0.0
1734582370.9671183,245.60546875,-458.0078125,-199.21875,89.84375,0.0
1734582370.9710248,404.296875,87.890625,126.953125,92.7734375,0.0
1734582370.974931,363.76953125,187.5,75.68359375,73.73046875,0.0
1734582370.9788373,223.14453125,34.1796875,-36.1328125,63.96484375,0.0
1734582370.98413,143.06640625,236.328125,107.91015625,52.24609375,0.0
1734582370.9880364,108.88671875,367.67578125,180.6640625,37.109375,0.0
1734582370.9919426,92.28515625,148.4375,50.29296875,58.10546875,0.0
1734582370.9958491,130.859375,42.48046875,2.44140625,64.453125,0.0
1734582370.9997554,121.58203125,224.609375,125.48828125,52.734375,0.0
1734582371.0036619,8.30078125,42.48046875,47.8515625,61.5234375,0.0
1734582371.0075681,-103.515625,-413.57421875,-236.328125,74.70703125,0.0
1734582371.0114744,-92.7734375,-685.546875,-362.79296875,69.3359375,0.0
1734582371.0153809,183.10546875,-111.81640625,14.16015625,52.24609375,0.0
1734582371.019287,113.28125,-58.10546875,27.34375,47.8515625,0.0
1734582371.0231936,-46.875,-211.42578125,-63.96484375,51.26953125,0.0
1734582371.0270998,-49.8046875,-33.69140625,42.48046875,41.9921875,0.0
1734582371.0288332,-25.87890625,-38.57421875,8.30078125,39.55078125,0.0
1734582371.0327394,40.0390625,146.97265625,88.8671875,47.36328125,0.0
1734582371.036646,-93.75,-20.99609375,-0.9765625,48.828125,0.0
1734582371.0405521,-156.73828125,41.015625,41.50390625,36.1328125,0.0
1734582371.0444584,-166.015625,273.92578125,173.33984375,27.34375,0.0
1734582371.0483649,-279.296875,-157.2265625,-71.77734375,26.3671875,0.0
1734582371.0522711,-292.96875,-647.94921875,-402.34375,20.99609375,0.0
1734582371.0561774,-126.46484375,-158.203125,-125.48828125,9.765625,0.0
1734582371.0600839,-142.578125,344.7265625,185.546875,11.71875,0.0
1734582371.06399,-330.56640625,46.875,49.8046875,3.90625,0.0
1734582371.0678966,-501.953125,-746.58203125,-400.87890625,5.37109375,0.0
1734582371.0718029,-236.81640625,-393.5546875,-178.22265625,10.25390625,0.0
1734582371.0735612,-62.01171875,261.23046875,184.5703125,-14.6484375,0.0
1734582371.0774674,-272.4609375,85.44921875,42.48046875,-17.578125,0.0
1734582371.081374,-395.99609375,-215.8203125,-100.09765625,-21.484375,0.0
1734582371.0852802,-356.4453125,-287.109375,-151.85546875,-15.13671875,0.0
1734582371.0891864,-172.8515625,23.4375,11.23046875,-3.41796875,0.0
1734582371.093093,-245.1171875,-248.046875,-146.97265625,2.44140625,0.0
1734582371.0969992,-470.21484375,-866.2109375,-494.62890625,11.71875,0.0
1734582371.1009054,-249.0234375,-246.09375,-104.98046875,-2.9296875,0.0
1734582371.104812,-183.10546875,70.3125,64.453125,-21.484375,0.0
1734582371.1087182,-253.90625,-397.4609375,-256.8359375,-16.6015625,0.0
1734582371.1126246,-128.41796875,-196.2890625,-110.83984375,-27.83203125,0.0
1734582371.116531,-113.76953125,215.33203125,138.671875,-32.2265625,0.0
1734582371.121264,-201.66015625,132.8125,106.4453125,16.6015625,0.0
1734582371.1251702,-270.01953125,-225.09765625,-110.83984375,25.390625,0.0
1734582371.1290765,-181.15234375,-95.21484375,-92.28515625,-38.57421875,0.0
1734582371.132983,-79.1015625,192.87109375,125.0,-55.17578125,0.0
1734582371.1368892,-161.62109375,106.93359375,67.3828125,-49.31640625,0.0
1734582371.1407957,-384.765625,-526.85546875,-334.9609375,-30.76171875,0.0
1734582371.144702,-357.91015625,-714.84375,-395.99609375,-40.0390625,0.0
1734582371.1486082,-133.30078125,-228.02734375,-127.44140625,-72.75390625,0.0
1734582371.1525147,-104.4921875,23.4375,38.57421875,-87.40234375,0.0
1734582371.156421,-366.69921875,-645.5078125,-354.4921875,-89.84375,0.0
1734582371.1603272,-307.12890625,-435.546875,-181.15234375,-96.6796875,0.0
1734582371.1642337,-190.91796875,253.41796875,203.125,-95.21484375,0.0
1734582371.168409,-284.1796875,6.8359375,19.53125,-85.44921875,0.0
1734582371.1723154,-281.73828125,-415.52734375,-152.34375,-78.125,0.0
1734582371.1762218,-180.17578125,-21.484375,33.203125,-89.84375,0.0
1734582371.180128,-232.91015625,217.28515625,153.3203125,-91.796875,0.0
1734582371.1840346,-342.28515625,-74.21875,9.765625,-80.56640625,0.0
1734582371.1879408,-348.6328125,-485.83984375,-262.20703125,-80.56640625,0.0
1734582371.191847,-213.37890625,-350.5859375,-228.02734375,-83.0078125,0.0
1734582371.1957536,-115.72265625,146.484375,73.2421875,-71.77734375,0.0
1734582371.1996598,-311.03515625,-174.8046875,-83.984375,-50.78125,0.0
1734582371.203566,-494.140625,-819.3359375,-379.8828125,-28.3203125,0.0
1734582371.2074726,-241.2109375,-490.234375,-249.0234375,-34.66796875,0.0
1734582371.2113788,-50.78125,83.984375,24.4140625,-39.55078125,0.0
1734582371.2182555,-186.03515625,-179.6875,-68.84765625,-25.87890625,0.0
1734582371.222162,-208.984375,-277.83203125,-82.03125,-20.01953125,0.0
1734582371.2260683,-157.2265625,139.6484375,140.13671875,-24.4140625,0.0
1734582371.2299745,-185.546875,155.76171875,80.078125,-32.2265625,0.0
1734582371.233881,-205.56640625,-222.16796875,-170.41015625,-22.94921875,0.0
1734582371.2377872,-185.05859375,-463.37890625,-323.2421875,8.30078125,0.0
1734582371.2416937,-134.27734375,-237.3046875,-149.90234375,-10.7421875,0.0
1734582371.2456,-178.7109375,23.4375,46.38671875,-56.640625,0.0
1734582371.2495062,-369.62890625,-639.6484375,-381.34765625,-52.734375,0.0
1734582371.2534127,-178.22265625,-466.796875,-264.6484375,-73.2421875,0.0
1734582371.257319,2.44140625,244.140625,137.6953125,-94.23828125,0.0
1734582371.2612255,-192.3828125,-45.41015625,-37.109375,-72.265625,0.0
1734582371.2642539,-299.8046875,-475.09765625,-277.83203125,-82.51953125,0.0
1734582371.26816,-143.5546875,-154.78515625,-84.47265625,-108.88671875,0.0
1734582371.2720666,-7.8125,212.890625,140.625,-102.05078125,0.0
1734582371.2759728,-35.15625,50.78125,27.34375,-86.42578125,0.0
1734582371.2798793,-72.75390625,-113.28125,-28.80859375,-69.3359375,0.0
1734582371.2837856,-128.90625,-189.453125,-65.4296875,-52.24609375,0.0
1734582371.2876918,-134.27734375,-321.2890625,-207.51953125,-53.7109375,0.0
1734582371.2915983,-27.83203125,-326.171875,-194.82421875,-50.78125,0.0
1734582371.2955046,11.71875,-325.68359375,-183.10546875,-49.8046875,0.0
1734582371.299411,-48.33984375,-327.1484375,-221.19140625,-58.10546875,0.0
1734582371.3033173,-7.32421875,-25.87890625,-28.3203125,-62.01171875,0.0
1734582371.3072236,-126.46484375,-319.3359375,-190.4296875,-50.78125,0.0
1734582371.3099756,-125.0,-637.20703125,-282.2265625,-45.8984375,0.0
1734582371.313882,194.3359375,108.88671875,107.91015625,-51.7578125,0.0
1734582371.3177884,154.78515625,302.734375,130.859375,-46.38671875,0.0
1734582371.3216946,-74.70703125,-253.41796875,-202.1484375,-32.2265625,0.0
1734582371.325601,-7.32421875,-217.7734375,-170.8984375,-21.484375,0.0
1734582371.3295074,81.54296875,-119.62890625,-94.7265625,-25.390625,0.0
1734582371.3334136,80.078125,-254.39453125,-201.66015625,-27.83203125,0.0
1734582371.33732,-64.453125,-652.34375,-427.734375,-23.4375,0.0
1734582371.3412263,-0.48828125,-448.73046875,-248.046875,-32.2265625,0.0
1734582371.3451328,175.78125,334.9609375,157.71484375,-29.296875,0.0
1734582371.349039,117.1875,247.55859375,76.66015625,-25.87890625,0.0
1734582371.3529453,104.98046875,-49.31640625,-22.4609375,-18.5546875,0.0
1734582371.3585446,149.90234375,173.828125,104.98046875,-12.20703125,0.0
1734582371.3624508,108.3984375,321.77734375,153.3203125,-34.1796875,0.0
1734582371.3663573,42.48046875,117.1875,50.78125,-44.921875,0.0
1734582371.3702636,104.00390625,-25.87890625,-28.3203125,-19.53125,0.0
1734582371.37417,203.61328125,168.45703125,89.35546875,-4.8828125,0.0
1734582371.3780763,127.44140625,-15.13671875,-2.44140625,-10.7421875,0.0
1734582371.3819826,-43.9453125,-513.671875,-291.9921875,-11.23046875,0.0
1734582371.385889,-94.23828125,-733.88671875,-388.671875,0.9765625,0.0
1734582371.3897953,152.83203125,-124.51171875,-6.8359375,-5.37109375,0.0
1734582371.3937018,175.29296875,-50.78125,2.9296875,-18.06640625,0.0
1734582371.397608,108.88671875,-226.07421875,-132.32421875,-8.30078125,0.0
1734582371.4015143,106.93359375,20.5078125,56.640625,-7.32421875,0.0
1734582371.403418,136.23046875,322.75390625,151.85546875,-1.46484375,0.0
1734582371.4073246,134.765625,354.4921875,136.71875,-7.32421875,0.0
1734582371.4112308,16.6015625,-186.03515625,-128.41796875,-9.765625,0.0
1734582371.4151373,83.49609375,-130.859375,-88.8671875,-17.578125,0.0
1734582371.4190435,114.74609375,274.4140625,153.3203125,-14.16015625,0.0
1734582371.4229498,-82.03125,-157.71484375,-126.46484375,-8.30078125,0.0
1734582371.4268563,-145.99609375,-629.8828125,-416.015625,-8.30078125,0.0
1734582371.4307625,49.8046875,-148.92578125,-95.21484375,-14.16015625,0.0
1734582371.434669,148.92578125,335.9375,174.8046875,-20.99609375,0.0
1734582371.4385753,-8.7890625,63.4765625,37.59765625,-16.11328125,0.0
1734582371.4424815,-271.484375,-736.328125,-403.3203125,-8.7890625,0.0
1734582371.446388,-83.0078125,-403.3203125,-241.2109375,-4.8828125,0.0
1734582371.4511542,130.859375,346.6796875,180.6640625,-18.06640625,0.0
1734582371.4550605,6.34765625,77.1484375,32.71484375,-18.5546875,0.0
1734582371.458967,-95.703125,-408.69140625,-163.0859375,-7.32421875,0.0
1734582371.4628732,-4.39453125,1.953125,55.6640625,-24.90234375,0.0
1734582371.4667795,16.11328125,302.24609375,159.66796875,-36.1328125,0.0
1734582371.470686,-141.11328125,-272.94921875,-185.05859375,-7.32421875,0.0
1734582371.4745922,-229.98046875,-836.42578125,-476.07421875,8.7890625,0.0
1734582371.4784987,19.04296875,-175.78125,-61.5234375,-16.6015625,0.0
1734582371.482405,7.8125,149.90234375,111.328125,-32.2265625,0.0
1734582371.4863112,-159.1796875,-320.80078125,-191.89453125,-29.296875,0.0
1734582371.4902177,-27.83203125,-133.7890625,-92.28515625,-40.52734375,0.0
1734582371.494124,84.9609375,260.25390625,130.859375,-31.25,0.0
1734582371.4984407,-14.16015625,171.38671875,106.4453125,-17.08984375,0.0
1734582371.502347,-150.87890625,-260.7421875,-168.45703125,-24.4140625,0.0
1734582371.5062535,-62.01171875,-107.91015625,-131.34765625,-34.1796875,0.0
1734582371.5101597,40.0390625,242.67578125,126.46484375,-36.62109375,0.0
1734582371.5140662,15.625,156.73828125,78.125,-23.4375,0.0
1734582371.5179725,-130.859375,-391.6015625,-267.08984375,-24.4140625,0.0
1734582371.5218787,-145.99609375,-545.8984375,-343.26171875,-35.64453125,0.0
1734582371.5257852,8.30078125,20.01953125,-0.48828125,-37.59765625,0.0
1734582371.5296915,-10.7421875,156.73828125,102.05078125,-35.64453125,0.0
1734582371.533598,-260.25390625,-677.734375,-388.671875,-30.76171875,0.0
1734582371.5375042,-147.4609375,-495.60546875,-226.07421875,-62.98828125,0.0
1734582371.5414104,21.484375,216.30859375,164.0625,-70.3125,0.0
1734582371.5452654,-77.1484375,68.84765625,22.4609375,-37.109375,0.0
1734582371.5491717,-99.609375,-152.34375,-104.00390625,-43.9453125,0.0
1734582371.553078,0.9765625,102.05078125,62.5,-41.9921875,0.0
1734582371.5569844,5.859375,155.2734375,111.81640625,-16.6015625,0.0
1734582371.5608907,-107.421875,-205.56640625,-93.75,-8.7890625,0.0
1734582371.5647972,-170.41015625,-534.1796875,-296.875,-30.2734375,0.0
1734582371.5687034,-64.94140625,-301.26953125,-200.68359375,-46.38671875,0.0
1734582371.5726097,77.63671875,209.9609375,98.6328125,-48.33984375,0.0
1734582371.5765162,-130.859375,-269.53125,-152.34375,-28.3203125,0.0
1734582371.5804224,-301.26953125,-819.3359375,-390.13671875,-32.71484375,0.0
1734582371.584329,-55.17578125,-75.1953125,59.5703125,-53.22265625,0.0
1734582371.5882351,4.8828125,283.69140625,183.59375,-45.41015625,0.0
1734582371.5916834,-69.82421875,-107.421875,-42.48046875,-41.9921875,0.0
1734582371.5955899,-24.4140625,-71.77734375,22.94921875,-50.29296875,0.0
1734582371.5994961,-13.671875,243.65234375,155.76171875,-45.41015625,0.0
1734582371.6034026,-120.1171875,206.54296875,104.98046875,-33.203125,0.0
1734582371.6073089,-214.84375,-207.03125,-77.1484375,-26.3671875,0.0
1734582371.611215,-168.9453125,-441.40625,-223.14453125,-34.1796875,0.0
1734582371.6151216,-46.875,-223.6328125,-74.70703125,-30.2734375,0.0
1734582371.6190279,-92.28515625,-137.20703125,-13.671875,-22.4609375,0.0
1734582371.6229343,-295.8984375,-699.70703125,-379.39453125,-27.34375,0.0
1734582371.6268406,-127.44140625,-334.47265625,-139.16015625,-49.8046875,0.0
1734582371.6307468,25.390625,312.01171875,197.75390625,-39.55078125,0.0
1734582371.6346533,-114.2578125,28.80859375,46.38671875,-29.78515625,0.0
1734582371.6378303,-247.55859375,-565.91796875,-225.5859375,-41.50390625,0.0
1734582371.6417365,-94.23828125,-110.3515625,11.23046875,-41.50390625,0.0
1734582371.645643,-18.06640625,308.10546875,186.5234375,-31.25,0.0
1734582371.6495492,-89.35546875,-10.7421875,5.859375,-19.53125,0.0
1734582371.6534555,-103.515625,-328.61328125,-137.6953125,-28.80859375,0.0
1734582371.657362,-108.3984375,-319.3359375,-155.76171875,-39.0625,0.0
1734582371.6612682,-137.20703125,-261.71875,-150.390625,-35.15625,0.0
1734582371.6651747,-188.96484375,-330.56640625,-167.96875,-21.97265625,0.0
1734582371.669081,-297.8515625,-816.89453125,-424.8046875,-41.015625,0.0
1734582371.6729872,-70.80078125,-447.75390625,-192.3828125,-45.8984375,0.0
1734582371.6768937,-32.71484375,-2.9296875,60.05859375,-27.34375,0.0
1734582371.6808,-180.6640625,-240.234375,-128.90625,-48.33984375,0.0
1734582371.6895638,-124.0234375,-35.15625,-26.85546875,-61.5234375,0.0
1734582371.69347,-47.36328125,310.546875,151.3671875,-48.828125,0.0
1734582371.6973765,-83.0078125,200.68359375,81.0546875,-38.0859375,0.0
1734582371.7012827,-212.40234375,-238.76953125,-207.03125,-25.87890625,0.0
1734582371.7051892,-192.3828125,-63.96484375,-111.81640625,-25.390625,0.0
1734582371.7090955,-254.39453125,-107.91015625,-79.58984375,-44.43359375,0.0
1734582371.713002,-320.3125,-320.3125,-213.8671875,-49.8046875,0.0
1734582371.7169082,-366.69921875,-680.17578125,-437.5,-29.78515625,0.0
1734582371.7208145,-168.9453125,-494.62890625,-284.1796875,-25.390625,0.0
1734582371.724721,-0.48828125,302.24609375,143.06640625,-30.2734375,0.0
1734582371.7286272,-194.82421875,146.97265625,36.1328125,-20.5078125,0.0
1734582371.7325337,-260.7421875,-416.50390625,-150.390625,-42.48046875,0.0
1734582371.7341394,-56.640625,41.015625,72.75390625,-47.8515625,0.0
1734582371.7380457,-93.26171875,151.3671875,80.56640625,-41.9921875,0.0
1734582371.7419522,-199.21875,-261.71875,-164.0625,-55.6640625,0.0
1734582371.7458584,-129.39453125,-123.046875,-116.2109375,-40.0390625,0.0
1734582371.749765,-51.7578125,191.40625,111.328125,-31.73828125,0.0
1734582371.7536712,-98.6328125,-54.19921875,-19.04296875,-31.73828125,0.0
1734582371.7575774,-143.06640625,-477.05078125,-294.43359375,-29.78515625,0.0
1734582371.761484,-53.22265625,-287.59765625,-184.5703125,-38.57421875,0.0
1734582371.7653902,-29.78515625,74.21875,65.4296875,-51.7578125,0.0
1734582371.7692966,-138.18359375,-140.13671875,-77.1484375,-55.17578125,0.0
1734582371.773203,-127.9296875,-368.1640625,-212.40234375,-43.45703125,0.0
1734582371.7771094,-18.06640625,-266.11328125,-88.37890625,-46.875,0.0
1734582371.77901,37.109375,120.1171875,88.37890625,-40.0390625,0.0
1734582371.7829165,-45.8984375,284.1796875,142.08984375,-20.99609375,0.0
1734582371.7868228,-213.37890625,-366.2109375,-200.68359375,-17.08984375,0.0
1734582371.790729,-100.5859375,-638.18359375,-287.109375,-25.87890625,0.0
1734582371.7946355,92.7734375,-42.96875,52.734375,-39.0625,0.0
1734582371.7985418,-22.4609375,-177.24609375,-84.9609375,-28.3203125,0.0
1734582371.8024483,-191.89453125,-778.80859375,-482.421875,-11.23046875,0.0
1734582371.8063545,-19.04296875,-458.984375,-270.5078125,-17.08984375,0.0
1734582371.8102608,202.1484375,299.8046875,167.48046875,-23.92578125,0.0
1734582371.8141673,77.63671875,144.04296875,64.94140625,-41.015625,0.0
1734582371.8180735,-21.484375,-183.59375,-134.27734375,-48.33984375,0.0
1734582371.82198,-2.9296875,79.58984375,43.45703125,-35.64453125,0.0
1734582371.8268569,5.859375,330.078125,177.24609375,-36.1328125,0.0
1734582371.830763,-22.94921875,30.76171875,-1.953125,-42.96875,0.0
1734582371.8346696,-30.76171875,-437.98828125,-161.62109375,-36.62109375,0.0
1734582371.8385758,70.80078125,-1.46484375,66.89453125,-8.7890625,0.0
1734582371.8424823,48.828125,298.828125,178.22265625,-11.23046875,0.0
1734582371.8463886,-146.97265625,-282.2265625,-136.71875,-37.109375,0.0
1734582371.8502948,-164.55078125,-658.69140625,-270.01953125,-30.2734375,0.0
1734582371.8542013,89.84375,-124.0234375,33.69140625,-49.8046875,0.0
1734582371.8581076,39.0625,-123.53515625,-83.49609375,-56.15234375,0.0
1734582371.862014,-62.01171875,-399.4140625,-236.81640625,-36.62109375,0.0
1734582371.8659203,19.04296875,-131.8359375,-36.62109375,-26.85546875,0.0
1734582371.8698266,100.09765625,236.81640625,129.8828125,-17.578125,0.0
1734582371.8740907,0.0,249.51171875,138.18359375,-33.203125,0.0
1734582371.8779972,0.0,-220.703125,-105.46875,-77.63671875,0.0
1734582371.8819034,0.0,-226.5625,-92.28515625,-70.3125,0.0
1734582371.88581,0.0,232.421875,154.296875,-38.57421875,0.0
1734582371.8897161,0.0,192.87109375,76.171875,-30.2734375,0.0
1734582371.8936224,0.0,-619.140625,-434.08203125,-29.78515625,0.0
1734582371.897529,0.0,-651.3671875,-359.86328125,-42.48046875,0.0
1734582371.9014351,0.0,104.00390625,101.5625,-46.875,0.0
1734582371.9053416,0.0,72.75390625,45.8984375,-58.10546875,0.0
1734582371.9092479,0.0,-706.54296875,-403.3203125,-57.6171875,0.0
1734582371.9131541,0.0,-544.921875,-260.25390625,-56.15234375,0.0
1734582371.9170606,0.0,-133.7890625,-89.84375,-59.08203125,0.0
1734582371.9238825,-115.72265625,-145.99609375,-165.52734375,-51.26953125,0.0
1734582371.9277887,-121.09375,-118.1640625,-131.34765625,-33.203125,0.0
1734582371.931695,-106.93359375,63.96484375,32.2265625,-34.66796875,0.0
1734582371.9356015,-78.61328125,162.59765625,125.48828125,-39.0625,0.0
1734582371.9395077,-120.60546875,-71.77734375,-26.85546875,-18.06640625,0.0
1734582371.9434142,-242.1875,-624.0234375,-295.41015625,-9.765625,0.0
1734582371.9473205,-210.9375,-544.43359375,-297.8515625,-21.97265625,0.0
1734582371.951227,-62.01171875,62.98828125,9.27734375,-22.4609375,0.0
1734582371.9551332,-128.41796875,-243.65234375,-114.74609375,-7.32421875,0.0
1734582371.9590394,-133.7890625,-847.65625,-425.29296875,-15.13671875,0.0
1734582371.962946,241.2109375,-175.29296875,-84.9609375,-48.828125,0.0
1734582371.9668522,290.0390625,129.39453125,97.65625,-43.9453125,0.0
1734582371.9696712,154.296875,-301.7578125,-146.97265625,-41.9921875,0.0
1734582371.9735775,226.07421875,-331.0546875,-212.40234375,-58.10546875,0.0
1734582371.9774837,274.90234375,-346.19140625,-234.375,-72.265625,0.0
1734582371.9813902,302.734375,-267.08984375,-204.58984375,-77.1484375,0.0
1734582371.9852965,220.703125,-400.390625,-288.0859375,-74.21875,0.0
1734582371.989203,145.99609375,-663.0859375,-371.58203125,-76.171875,0.0
1734582371.9931092,193.359375,-557.6171875,-267.08984375,-75.68359375,0.0
1734582371.9970157,180.6640625,-329.1015625,-191.89453125,-83.0078125,0.0
1734582372.000922,14.16015625,-690.4296875,-395.01953125,-88.37890625,0.0
1734582372.0048282,79.58984375,-497.55859375,-281.25,-106.93359375,0.0
1734582372.0087347,107.91015625,-68.359375,-86.42578125,-113.28125,0.0
1734582372.012641,-51.7578125,-313.4765625,-226.5625,-93.75,0.0
1734582372.015407,-271.97265625,-867.67578125,-517.08984375,-77.63671875,0.0
1734582372.0193133,-125.48828125,-518.06640625,-299.31640625,-94.23828125,0.0
1734582372.0232198,-83.984375,-57.12890625,-57.6171875,-115.234375,0.0
1734582372.027126,-236.328125,-246.58203125,-124.51171875,-96.19140625,0.0
1734582372.0310323,-306.640625,-419.43359375,-210.44921875,-64.94140625,0.0
1734582372.0349388,-314.453125,-424.8046875,-232.91015625,-62.01171875,0.0
1734582372.038845,-335.9375,-479.98046875,-271.484375,-67.87109375,0.0
1734582372.0427516,-443.359375,-553.22265625,-291.9921875,-36.1328125,0.0
1734582372.0466578,-500.0,-695.80078125,-317.87109375,-20.99609375,0.0
1734582372.0505643,-341.30859375,-496.58203125,-250.9765625,-42.96875,0.0
1734582372.0544705,-35.64453125,47.8515625,53.22265625,-50.78125,0.0
1734582372.0583768,29.78515625,-136.23046875,-43.9453125,-49.31640625,0.0
1734582372.0608635,152.83203125,-341.796875,-191.89453125,-56.15234375,0.0
1734582372.06477,245.60546875,240.72265625,106.4453125,-56.15234375,0.0
1734582372.0686762,129.8828125,354.00390625,153.3203125,-41.015625,0.0
1734582372.0725827,-30.2734375,-206.54296875,-132.8125,-25.87890625,0.0
1734582372.076489,-10.25390625,-149.4140625,-72.75390625,-33.203125,0.0
1734582372.0803952,6.34765625,29.296875,-16.6015625,-21.97265625,0.0
1734582372.0843017,-83.984375,-147.94921875,-199.70703125,-5.859375,0.0
1734582372.088208,-194.82421875,-553.7109375,-444.3359375,-19.04296875,0.0
1734582372.0921144,-69.82421875,-563.96484375,-354.98046875,-31.73828125,0.0
1734582372.0960207,198.2421875,254.8828125,71.77734375,-29.78515625,0.0
1734582372.099927,23.4375,376.46484375,73.2421875,-22.4609375,0.0
1734582372.1038334,-84.9609375,73.73046875,-86.42578125,-30.76171875,0.0
1734582372.106331,168.45703125,295.41015625,74.70703125,-25.87890625,0.0
1734582372.1102376,-61.5234375,460.9375,157.71484375,-24.90234375,0.0
1734582372.1141438,-458.0078125,176.7578125,-4.8828125,-32.71484375,0.0
1734582372.11805,-423.828125,-134.27734375,-144.04296875,-28.80859375,0.0
1734582372.1219566,-317.87109375,136.71875,7.32421875,-23.92578125,0.0
1734582372.1258628,-442.87109375,-2.44140625,-92.7734375,-2.44140625,0.0
1734582372.129769,-471.19140625,-406.73828125,-301.26953125,15.13671875,0.0
1734582372.1336756,-474.12109375,-682.12890625,-400.87890625,9.27734375,0.0
1734582372.1375818,-333.0078125,-124.0234375,-80.56640625,-12.20703125,0.0
1734582372.1414883,-396.484375,-17.08984375,-25.390625,-13.18359375,0.0
1734582372.1453946,-477.5390625,-276.3671875,-202.63671875,-19.53125,0.0
1734582372.1493008,-464.84375,-263.671875,-204.1015625,-22.94921875,0.0
1734582372.1518414,-436.5234375,35.64453125,-41.015625,-29.78515625,0.0
1734582372.1557477,-558.59375,270.5078125,131.34765625,-31.25,0.0
1734582372.1596541,-841.796875,-96.19140625,-83.49609375,-1.953125,0.0
1734582372.1635604,-870.1171875,-35.64453125,-60.05859375,-0.9765625,0.0
1734582372.1674666,-837.890625,184.5703125,122.0703125,-24.4140625,0.0
1734582372.1713731,-872.55859375,-144.04296875,-114.74609375,-13.18359375,0.0
1734582372.1752794,-873.046875,-733.3984375,-483.88671875,0.48828125,0.0
1734582372.1791856,-595.703125,-517.578125,-290.52734375,-8.7890625,0.0
1734582372.183092,-427.24609375,209.9609375,123.53515625,-6.8359375,0.0
1734582372.1869984,-524.4140625,154.296875,76.66015625,12.20703125,0.0
1734582372.1909049,-514.16015625,-119.62890625,-131.34765625,4.39453125,0.0
1734582372.194811,-459.47265625,135.25390625,17.08984375,-14.6484375,0.0
1734582372.1971834,-266.11328125,351.5625,166.9921875,-23.4375,0.0
1734582372.2010896,-140.13671875,145.5078125,42.96875,-22.4609375,0.0
1734582372.204996,-267.08984375,-289.55078125,-212.40234375,-32.2265625,0.0
1734582372.2089024,-16.11328125,-169.921875,-170.8984375,-34.1796875,0.0
1734582372.2128086,264.16015625,287.109375,85.44921875,-18.5546875,0.0
1734582372.216715,111.81640625,-85.44921875,-144.04296875,-0.9765625,0.0
1734582372.2206213,7.8125,-602.05078125,-299.31640625,-11.71875,0.0
1734582372.2245278,236.328125,51.26953125,73.2421875,-25.390625,0.0
1734582372.228434,267.578125,375.0,159.66796875,-37.109375,0.0
1734582372.2323403,73.73046875,-157.71484375,-95.703125,-36.1328125,0.0
1734582372.2362468,157.71484375,-143.06640625,-87.890625,-26.3671875,0.0
1734582372.240153,324.70703125,344.23828125,131.34765625,-39.0625,0.0
1734582372.2452834,275.87890625,381.8359375,127.44140625,-40.0390625,0.0
1734582372.2491896,157.2265625,-25.390625,-91.30859375,-38.57421875,0.0
1734582372.253096,136.23046875,-35.15625,-97.65625,-28.3203125,0.0
1734582372.2570024,82.51953125,303.22265625,134.765625,-21.97265625,0.0
1734582372.2609088,-42.48046875,230.95703125,85.9375,-38.0859375,0.0
1734582372.264815,-198.2421875,-378.41796875,-298.33984375,-39.0625,0.0
1734582372.2687213,-271.97265625,-576.66015625,-373.046875,-39.55078125,0.0
1734582372.2726278,-124.51171875,-151.85546875,-157.2265625,-55.6640625,0.0
1734582372.276534,-2.9296875,69.3359375,-7.8125,-62.01171875,0.0
1734582372.2804403,-144.53125,-643.5546875,-379.39453125,-62.5,0.0
1734582372.2843468,74.70703125,-420.41015625,-197.75390625,-62.01171875,0.0
1734582372.288253,319.82421875,307.6171875,192.87109375,-54.19921875,0.0
1734582372.293398,245.1171875,105.46875,13.671875,-45.8984375,0.0
1734582372.2973042,195.3125,-144.53125,-125.0,-58.59375,0.0
1734582372.3012106,235.3515625,84.47265625,50.78125,-57.6171875,0.0
1734582372.305117,250.9765625,173.33984375,144.53125,-44.43359375,0.0
1734582372.3090231,181.15234375,-33.203125,-7.32421875,-55.6640625,0.0
1734582372.3129296,83.49609375,-457.03125,-268.5546875,-58.59375,0.0
1734582372.3168359,145.5078125,-347.16796875,-229.98046875,-66.40625,0.0
1734582372.3207424,177.734375,100.09765625,58.59375,-82.51953125,0.0
1734582372.3246486,-27.83203125,-284.1796875,-129.39453125,-44.921875,0.0
1734582372.3285549,-115.72265625,-926.7578125,-470.703125,-21.97265625,0.0
1734582372.3324614,188.4765625,-471.6796875,-214.35546875,-52.24609375,0.0
1734582372.3363676,236.81640625,62.01171875,77.63671875,-57.12890625,0.0
1734582372.34064,98.14453125,-207.51953125,-78.61328125,-40.0390625,0.0
1734582372.3445463,91.796875,-187.5,-66.40625,-36.1328125,0.0
1734582372.3484528,28.3203125,153.3203125,122.55859375,-41.9921875,0.0
1734582372.352359,11.23046875,140.625,102.05078125,-39.55078125,0.0
1734582372.3562653,-108.3984375,-204.1015625,-65.4296875,-44.43359375,0.0
1734582372.3601718,-397.4609375,-404.78515625,-213.37890625,-42.48046875,0.0
1734582372.364078,-578.61328125,-388.671875,-220.21484375,-37.59765625,0.0
1734582372.3679845,-662.59765625,-95.21484375,-28.3203125,-41.50390625,0.0
1734582372.3718908,-899.4140625,-568.84765625,-319.82421875,-34.66796875,0.0
1734582372.375797,-916.015625,-472.16796875,-245.1171875,-35.64453125,0.0
1734582372.3797035,-854.98046875,292.48046875,206.54296875,-35.15625,0.0
1734582372.3836098,-921.38671875,81.54296875,67.3828125,-29.78515625,0.0
1734582372.3874452,-976.5625,-316.40625,-169.43359375,-41.50390625,0.0
1734582372.3913517,-940.91796875,59.5703125,51.7578125,-27.83203125,0.0
1734582372.395258,-972.16796875,316.40625,174.31640625,-34.66796875,0.0
1734582372.3991642,-1000.0,103.02734375,45.41015625,-51.26953125,0.0
1734582372.4030707,-996.58203125,-75.68359375,0.9765625,-20.5078125,0.0
1734582372.406977,-1000.0,-203.125,-25.87890625,-15.13671875,0.0
1734582372.4108834,-1000.0,-243.1640625,-122.55859375,-26.3671875,0.0
1734582372.4147897,-995.1171875,-292.96875,-177.734375,-22.94921875,0.0
1734582372.418696,-1000.0,-792.48046875,-401.85546875,-17.08984375,0.0
1734582372.4226024,-956.0546875,-520.01953125,-244.62890625,-23.92578125,0.0
1734582372.4265087,-871.58203125,196.77734375,123.046875,-30.2734375,0.0
1734582372.4304152,-967.7734375,-27.34375,-9.765625,-20.99609375,0.0
1734582372.4346373,-940.4296875,-172.36328125,-58.10546875,-31.25,0.0
1734582372.4385438,-867.1875,267.578125,141.11328125,-19.53125,0.0
1734582372.44245,-840.33203125,227.5390625,102.5390625,-3.41796875,0.0
1734582372.4463563,-593.26171875,-180.17578125,-106.93359375,-13.671875,0.0
1734582372.4502628,-444.3359375,23.92578125,25.390625,-20.99609375,0.0
1734582372.454169,-584.9609375,9.27734375,35.15625,-8.30078125,0.0
1734582372.4580755,-671.875,-227.05078125,-153.80859375,3.90625,0.0
1734582372.4619818,-668.45703125,-625.48828125,-433.10546875,-9.765625,0.0
1734582372.465888,-397.4609375,-416.015625,-230.95703125,2.44140625,0.0
1734582372.4697945,-245.60546875,401.3671875,199.21875,14.6484375,0.0
1734582372.4737008,-301.7578125,276.3671875,71.2890625,0.48828125,0.0
1734582372.477607,-414.0625,-287.109375,-144.04296875,4.8828125,0.0
1734582372.4834266,-317.3828125,78.61328125,75.68359375,2.9296875,0.0
1734582372.487333,-206.0546875,446.77734375,205.56640625,-2.44140625,0.0
1734582372.4912393,-304.19921875,217.7734375,69.82421875,2.44140625,0.0
1734582372.4951458,-321.77734375,93.75,14.16015625,-5.37109375,0.0
1734582372.499052,-84.9609375,287.109375,130.37109375,-10.7421875,0.0
1734582372.5029583,14.16015625,86.9140625,44.921875,-16.11328125,0.0
1734582372.5068648,-151.3671875,-346.6796875,-213.37890625,-18.5546875,0.0
1734582372.510771,-131.8359375,-670.8984375,-342.28515625,-1.46484375,0.0
1734582372.5146775,208.0078125,-79.58984375,16.6015625,-4.39453125,0.0
1734582372.5185838,251.46484375,80.56640625,89.35546875,-25.390625,0.0
1734582372.52249,150.390625,-128.41796875,9.765625,-39.0625,0.0
1734582372.5263965,220.703125,157.71484375,134.765625,-33.203125,0.0
1734582372.534248,323.2421875,494.62890625,205.56640625,-41.50390625,0.0
1734582372.5381544,359.86328125,458.984375,158.69140625,-41.015625,0.0
1734582372.5420606,367.1875,83.0078125,2.9296875,-23.4375,0.0
1734582372.545967,417.48046875,168.9453125,80.56640625,-31.25,0.0
1734582372.5498734,418.45703125,404.78515625,202.1484375,-27.83203125,0.0
1734582372.5537798,313.96484375,-28.80859375,-23.4375,-16.6015625,0.0
1734582372.557686,300.78125,-362.3046875,-277.34375,-20.99609375,0.0
1734582372.5615926,462.40234375,49.31640625,-47.36328125,-22.4609375,0.0
1734582372.5654988,544.43359375,342.7734375,167.96875,-20.5078125,0.0
1734582372.569405,476.5625,69.82421875,0.9765625,-30.2734375,0.0
1734582372.5733116,281.25,-753.90625,-461.42578125,-22.94921875,0.0
1734582372.5772178,443.84765625,-484.375,-254.39453125,-23.4375,0.0
1734582372.5782301,653.80859375,364.2578125,202.63671875,-21.97265625,0.0
1734582372.5821364,492.67578125,126.953125,12.6953125,-23.92578125,0.0
1734582372.586043,411.1328125,-343.26171875,-167.96875,-34.1796875,0.0
1734582372.5899491,553.22265625,111.81640625,72.75390625,-29.78515625,0.0
1734582372.5938554,564.453125,364.74609375,151.85546875,-41.9921875,0.0
1734582372.5977619,424.31640625,-135.25390625,-122.55859375,-42.48046875,0.0
1734582372.6016681,428.7109375,-445.80078125,-218.75,-40.52734375,0.0
1734582372.6055746,547.36328125,95.21484375,97.16796875,-38.57421875,0.0
1734582372.6094809,493.1640625,300.29296875,137.20703125,-32.2265625,0.0
1734582372.613387,352.05078125,-232.91015625,-146.97265625,-28.3203125,0.0
1734582372.6172936,390.13671875,-258.30078125,-143.5546875,-41.015625,0.0
1734582372.6211998,428.22265625,202.1484375,114.74609375,-46.38671875,0.0
1734582372.6312582,330.078125,146.97265625,0.0,-44.921875,0.0
1734582372.6351645,165.52734375,-429.19921875,0.0,-37.59765625,0.0
1734582372.639071,147.94921875,-596.6796875,0.0,-20.99609375,0.0
1734582372.6429772,342.28515625,138.671875,0.0,-24.4140625,0.0
1734582372.6468837,291.9921875,309.08203125,0.0,-23.4375,0.0
1734582372.65079,51.26953125,-407.2265625,0.0,0.0,0.0
1734582372.6546965,83.0078125,-440.91796875,0.0,2.44140625,0.0
1734582372.6586027,239.2578125,229.4921875,0.0,-15.13671875,0.0
1734582372.662509,238.76953125,268.06640625,0.0,-26.85546875,0.0
1734582372.6664155,45.8984375,-550.29296875,0.0,-18.5546875,0.0
1734582372.6703217,145.5078125,-346.19140625,0.0,-12.20703125,0.0
1734582372.6742282,329.58984375,374.0234375,0.0,-23.92578125,0.0
1734582372.6743667,0.0,158.203125,75.68359375,0.0,0.0
1734582372.678273,0.0,-671.38671875,-278.80859375,0.0,0.0
1734582372.6821792,0.0,-186.03515625,-278.80859375,0.0,0.0
1734582372.6860857,0.0,328.125,130.37109375,0.0,0.0
1734582372.689992,0.0,-118.1640625,120.60546875,0.0,0.0
1734582372.6938984,0.0,-500.9765625,-325.1953125,0.0,0.0
1734582372.6978047,0.0,-243.65234375,-315.4296875,0.0,0.0
1734582372.7017112,0.0,262.6953125,101.5625,0.0,0.0
1734582372.7056174,0.0,-98.14453125,117.67578125,0.0,0.0
1734582372.7095237,0.0,-536.62109375,-367.67578125,0.0,0.0
1734582372.7134302,0.0,-6.8359375,-183.59375,0.0,0.0
1734582372.7173364,0.0,324.21875,189.453125,0.0,0.0
1734582372.720279,294.921875,-153.80859375,-109.375,-9.765625,0.0
1734582372.7241852,377.9296875,-254.39453125,-62.01171875,-5.37109375,0.0
1734582372.7280915,487.79296875,199.21875,145.01953125,-18.5546875,0.0
1734582372.731998,384.765625,312.5,148.92578125,-17.08984375,0.0
1734582372.7359042,163.57421875,-371.09375,-173.828125,-19.53125,0.0
1734582372.7398107,187.98828125,-834.9609375,-374.51171875,-21.484375,0.0
1734582372.743717,362.3046875,-274.4140625,-76.66015625,-34.1796875,0.0
1734582372.7476232,267.578125,-82.03125,38.0859375,-40.0390625,0.0
1734582372.7515297,87.890625,-640.625,-316.89453125,-26.3671875,0.0
1734582372.755436,218.75,-436.03515625,-234.375,-26.3671875,0.0
1734582372.7593424,353.515625,295.8984375,170.41015625,-44.921875,0.0
1734582372.7632487,267.08984375,163.0859375,82.51953125,-42.96875,0.0
1734582372.768816,220.703125,-86.9140625,-97.65625,-27.34375,0.0
1734582372.7727225,233.3984375,196.2890625,76.171875,-23.4375,0.0
1734582372.7766287,169.921875,352.05078125,167.96875,-28.3203125,0.0
1734582372.7805352,20.99609375,140.13671875,48.33984375,-11.71875,0.0
1734582372.7844415,-52.734375,-97.16796875,-21.97265625,-17.08984375,0.0
1734582372.788348,-109.86328125,-213.8671875,-86.42578125,-28.80859375,0.0
1734582372.7922542,-135.7421875,-225.09765625,-173.33984375,-22.4609375,0.0
1734582372.7961605,-98.6328125,-293.45703125,-226.07421875,-15.13671875,0.0
1734582372.800067,-237.3046875,-772.4609375,-413.0859375,4.8828125,0.0
1734582372.8039732,-161.1328125,-519.04296875,-293.45703125,-6.8359375,0.0
1734582372.8078797,-81.54296875,-182.12890625,-170.41015625,-24.4140625,0.0
1734582372.811786,-78.125,-208.0078125,-173.33984375,-23.92578125,0.0
1734582372.813747,31.73828125,72.75390625,-12.20703125,-21.97265625,0.0
1734582372.8176534,65.4296875,360.3515625,145.99609375,-16.6015625,0.0
1734582372.8215597,-32.2265625,292.96875,127.44140625,-21.484375,0.0
1734582372.825466,-151.3671875,-202.1484375,-133.7890625,-26.85546875,0.0
1734582372.8293724,-57.12890625,-112.79296875,-88.8671875,-39.55078125,0.0
1734582372.8332787,23.92578125,40.52734375,19.53125,-48.828125,0.0
1734582372.8371851,-22.94921875,-275.390625,-217.7734375,-38.0859375,0.0
1734582372.8410914,-81.54296875,-585.44921875,-432.6171875,-36.62109375,0.0
1734582372.8449976,49.31640625,-138.18359375,-115.72265625,-48.828125,0.0
1734582372.8489041,146.97265625,423.828125,203.61328125,-52.24609375,0.0
1734582372.8528104,68.359375,235.83984375,60.546875,-38.57421875,0.0
1734582372.8567169,-130.37109375,-622.0703125,-384.765625,-24.90234375,0.0
1734582372.8589623,-6.8359375,-412.59765625,-196.77734375,-28.80859375,0.0
1734582372.8628685,109.86328125,35.15625,16.6015625,-43.45703125,0.0
1734582372.866775,62.98828125,-25.390625,-46.38671875,-36.1328125,0.0
1734582372.8706813,100.5859375,23.92578125,-30.2734375,-38.0859375,0.0
1734582372.8745878,122.0703125,195.80078125,66.89453125,-51.26953125,0.0
1734582372.878494,53.7109375,27.34375,-58.10546875,-41.50390625,0.0
1734582372.8824003,-21.484375,-335.9375,-267.08984375,-39.55078125,0.0
1734582372.8863068,-96.19140625,-661.62109375,-374.51171875,-30.76171875,0.0
1734582372.890213,66.40625,-146.97265625,-60.05859375,-38.57421875,0.0
1734582372.8941195,41.50390625,-22.4609375,-22.4609375,-42.96875,0.0
1734582372.8980258,-35.15625,-250.9765625,-187.01171875,-29.296875,0.0
1734582372.901932,70.80078125,37.109375,-10.7421875,-41.9921875,0.0
1734582372.9038045,144.04296875,387.20703125,155.2734375,-47.8515625,0.0
1734582372.9077108,62.5,349.609375,134.27734375,-34.66796875,0.0
1734582372.9116173,-49.8046875,-38.57421875,-71.2890625,-55.17578125,0.0
1734582372.9155235,-15.625,-32.71484375,-51.26953125,-42.96875,0.0
1734582372.91943,-55.17578125,-26.85546875,0.0,-26.3671875,0.0
1734582372.9233363,-118.1640625,-237.3046875,-197.75390625,-40.52734375,0.0
1734582372.9272425,-229.98046875,-691.89453125,-488.28125,-26.85546875,0.0
1734582372.931149,-175.78125,-496.58203125,-300.29296875,-30.76171875,0.0
1734582372.9350553,-48.828125,285.64453125,155.76171875,-50.29296875,0.0
1734582372.9389617,-178.22265625,165.0390625,84.47265625,-55.17578125,0.0
1734582372.942868,-324.21875,-407.2265625,-237.79296875,-49.31640625,0.0
1734582372.9467742,-179.19921875,-75.68359375,-141.11328125,-46.875,0.0
1734582372.9517696,-70.80078125,319.3359375,127.9296875,-47.36328125,0.0
1734582372.955676,-167.48046875,72.265625,17.08984375,-45.8984375,0.0
1734582372.9595823,-210.44921875,-184.08203125,-179.6875,-45.8984375,0.0
1734582372.9634886,-132.32421875,113.76953125,38.0859375,-41.9921875,0.0
1734582372.967395,-81.0546875,277.34375,141.6015625,-45.8984375,0.0
1734582372.9713013,-229.98046875,-255.859375,-205.078125,-39.55078125,0.0
1734582372.9752078,-381.34765625,-826.171875,-456.54296875,-30.76171875,0.0
1734582372.979114,-131.8359375,-336.42578125,-145.5078125,-48.33984375,0.0
1734582372.9830203,-48.828125,-120.60546875,-121.09375,-51.26953125,0.0
1734582372.9869268,-102.05078125,-270.5078125,-205.078125,-58.10546875,0.0
1734582372.990833,17.578125,-34.66796875,-65.91796875,-56.15234375,0.0
1734582372.9947395,72.75390625,90.8203125,28.3203125,-37.109375,0.0
1734582372.9991696,0.0,146.97265625,96.6796875,0.0,0.0
1734582373.003076,0.0,-68.84765625,-61.5234375,0.0,0.0
1734582373.0069823,0.0,-3.90625,2.44140625,0.0,0.0
1734582373.0108888,0.0,307.6171875,161.62109375,0.0,0.0
1734582373.014795,0.0,226.07421875,101.07421875,0.0,0.0
1734582373.0187016,0.0,-333.49609375,-232.421875,0.0,0.0
1734582373.0226078,0.0,-435.546875,-299.8046875,0.0,0.0
1734582373.026514,0.0,140.625,91.30859375,0.0,0.0
1734582373.0304205,0.0,193.84765625,108.3984375,0.0,0.0
1734582373.0343268,0.0,-623.53515625,-390.625,0.0,0.0
1734582373.0382333,0.0,-615.72265625,-343.75,0.0,0.0
1734582373.0421395,0.0,7.32421875,-24.4140625,0.0,0.0
1734582373.0375679,61.03515625,74.70703125,17.578125,-35.64453125,0.0
1734582373.041474,-21.97265625,-91.30859375,-43.9453125,-36.62109375,0.0
1734582373.0453804,-19.04296875,103.515625,89.35546875,-46.38671875,0.0
1734582373.0492868,33.69140625,252.44140625,144.53125,-62.5,0.0
1734582373.053193,32.71484375,45.8984375,15.13671875,-54.19921875,0.0
1734582373.0570993,-114.74609375,-562.01171875,-283.203125,-35.15625,0.0
1734582373.0610058,-138.671875,-410.15625,-250.9765625,-30.76171875,0.0
1734582373.064912,12.6953125,213.37890625,103.02734375,-28.80859375,0.0
1734582373.0688183,-28.80859375,-162.59765625,-75.68359375,-27.34375,0.0
1734582373.0727248,-271.484375,-753.41796875,-423.828125,-9.27734375,0.0
1734582373.076631,-192.3828125,-63.96484375,-49.31640625,-3.90625,0.0
1734582373.0805373,-11.71875,302.24609375,174.8046875,-9.27734375,0.0
1734582373.0957878,-187.98828125,-53.7109375,-62.01171875,-0.9765625,0.0
1734582373.0996943,240.72265625,-155.2734375,106.4453125,-8.7890625,0.0
1734582373.1036005,-183.59375,-74.21875,169.43359375,-21.97265625,0.0
1734582373.1075068,-545.41015625,134.765625,63.96484375,-30.2734375,0.0
1734582373.1114132,-515.13671875,-121.09375,-87.40234375,-26.85546875,0.0
1734582373.1153195,140.625,-414.0625,-166.9921875,-25.390625,0.0
1734582373.119226,443.84765625,-163.57421875,-171.38671875,-14.6484375,0.0
1734582373.1231322,254.8828125,174.31640625,-166.015625,-37.109375,0.0
1734582373.1270387,123.046875,-512.6953125,-227.5390625,-29.296875,0.0
1734582373.130945,-20.01953125,-433.10546875,-210.44921875,-5.859375,0.0
1734582373.1348512,-45.41015625,336.9140625,50.29296875,-19.04296875,0.0
1734582373.1387577,-108.3984375,144.04296875,-4.8828125,-17.08984375,0.0
1734582373.1431143,0.0,-51.26953125,0.0,-10.7421875,0.0
1734582373.1470206,0.0,269.53125,0.0,-20.5078125,0.0
1734582373.150927,0.0,390.625,0.0,-30.76171875,0.0
1734582373.1548333,0.0,164.0625,0.0,-22.94921875,0.0
1734582373.1587396,0.0,-114.74609375,0.0,-18.5546875,0.0
1734582373.162646,0.0,-162.109375,0.0,-14.6484375,0.0
1734582373.1665523,0.0,-156.73828125,0.0,-9.27734375,0.0
1734582373.1704588,0.0,-171.875,0.0,0.0,0.0
1734582373.174365,0.0,-238.28125,0.0,5.859375,0.0
1734582373.1782715,0.0,-240.234375,0.0,-6.8359375,0.0
1734582373.1821778,0.0,153.80859375,0.0,-19.53125,0.0
1734582373.186084,0.0,21.97265625,0.0,-20.99609375,0.0
1734582373.1882665,18.5546875,-96.6796875,-40.0390625,-18.5546875,0.0
1734582373.1921728,207.03125,351.5625,178.22265625,-17.578125,0.0
1734582373.1960793,182.12890625,342.28515625,162.59765625,-8.30078125,0.0
1734582373.1999855,107.421875,-165.52734375,-107.421875,-10.25390625,0.0
1734582373.2038918,222.16796875,-100.5859375,-48.33984375,-20.5078125,0.0
1734582373.2077982,278.80859375,-5.37109375,25.87890625,-8.7890625,0.0
1734582373.2117045,333.984375,-174.31640625,-134.765625,-10.25390625,0.0
1734582373.215611,216.30859375,-631.8359375,-451.171875,-6.34765625,0.0
1734582373.2195172,162.109375,-1000.0,-582.51953125,-3.41796875,0.0
1734582373.2234235,774.90234375,-38.57421875,31.25,-17.578125,0.0
1734582373.22733,732.421875,361.328125,162.59765625,-18.5546875,0.0
1734582373.2312362,392.08984375,-40.0390625,-32.2265625,-27.83203125,0.0
1734582373.2363474,463.8671875,192.87109375,0.0,-33.69140625,0.0
1734582373.240254,416.9921875,438.96484375,0.0,-28.3203125,0.0
1734582373.2441602,218.75,176.26953125,0.0,-19.04296875,0.0
1734582373.2480664,109.375,-41.9921875,0.0,-22.94921875,0.0
1734582373.251973,142.08984375,157.2265625,0.0,-31.25,0.0
1734582373.2558792,117.1875,-97.16796875,0.0,-31.73828125,0.0
1734582373.2597857,44.43359375,-425.78125,0.0,-33.203125,0.0
1734582373.263692,-103.02734375,-786.1328125,0.0,-25.390625,0.0
1734582373.2675984,154.78515625,-369.140625,0.0,-32.2265625,0.0
1734582373.2715046,347.16796875,-79.58984375,0.0,-39.55078125,0.0
1734582373.275411,343.26171875,-301.7578125,0.0,-47.36328125,0.0
1734582373.2793174,431.640625,-287.59765625,0.0,-41.015625,0.0
1734582373.2807896,685.546875,178.22265625,111.81640625,-35.64453125,0.0
1734582373.2846959,884.27734375,384.27734375,163.0859375,-46.875,0.0
1734582373.288602,886.71875,25.87890625,-10.7421875,-30.2734375,0.0
1734582373.2925086,954.58984375,137.20703125,102.5390625,-21.97265625,0.0
1734582373.2964149,974.609375,466.796875,237.3046875,-26.85546875,0.0
1734582373.3003213,965.33203125,109.375,31.73828125,-37.59765625,0.0
1734582373.3042276,969.7265625,-443.84765625,-255.859375,-55.6640625,0.0
1734582373.308134,967.28515625,15.625,26.85546875,-64.94140625,0.0
1734582373.3120403,970.21484375,488.28125,241.69921875,-72.75390625,0.0
1734582373.3159466,967.28515625,342.28515625,135.7421875,-75.1953125,0.0
1734582373.319853,941.40625,-494.62890625,-299.31640625,-48.33984375,0.0
1734582373.3237593,956.0546875,-300.29296875,-113.76953125,-77.1484375,0.0
1734582373.3253467,972.65625,522.4609375,278.3203125,-113.28125,0.0
1734582373.329253,967.28515625,280.76171875,101.07421875,-92.28515625,0.0
1734582373.3331594,968.75,-175.29296875,-97.16796875,-90.8203125,0.0
1734582373.3370657,968.75,160.64453125,87.890625,-122.55859375,0.0
1734582373.3409722,968.26171875,520.99609375,259.765625,-110.3515625,0.0
1734582373.3448784,968.75,1.953125,39.55078125,-105.95703125,0.0
1734582373.3487847,968.75,-751.953125,-342.28515625,-98.14453125,0.0
1734582373.3526912,968.75,49.31640625,68.359375,-112.3046875,0.0
1734582373.3565974,968.75,554.6875,258.30078125,-134.27734375,0.0
1734582373.360504,968.75,28.80859375,73.73046875,-133.7890625,0.0
1734582373.3644102,968.75,199.70703125,188.4765625,-132.8125,0.0
1734582373.3683164,968.75,570.80078125,261.23046875,-123.53515625,0.0
1734582373.372908,968.75,608.88671875,0.0,-135.25390625,0.0
1734582373.3768144,968.75,353.02734375,0.0,-131.34765625,0.0
1734582373.3807209,969.23828125,397.4609375,0.0,-127.9296875,0.0
1734582373.384627,968.75,653.80859375,0.0,-116.69921875,0.0
1734582373.3885336,968.26171875,572.75390625,0.0,-82.03125,0.0
1734582373.3924398,968.75,5.859375,0.0,-42.48046875,0.0
1734582373.396346,968.75,-180.6640625,0.0,-29.78515625,0.0
1734582373.4002526,968.75,225.09765625,0.0,-28.3203125,0.0
1734582373.4041588,968.75,477.5390625,0.0,3.90625,0.0
1734582373.4080653,968.75,-218.26171875,0.0,39.0625,0.0
1734582373.4119716,968.75,-119.62890625,0.0,31.25,0.0
1734582373.4158778,968.75,520.99609375,0.0,15.13671875,0.0
1734582373.4200919,968.75,383.30078125,132.8125,30.76171875,0.0
1734582373.4239984,968.75,-56.15234375,-32.71484375,61.5234375,0.0
1734582373.4279046,968.75,285.15625,164.0625,37.109375,0.0
1734582373.431811,968.75,588.37890625,253.41796875,20.5078125,0.0
1734582373.4357173,968.75,328.125,113.28125,47.36328125,0.0
1734582373.4396236,971.6796875,-133.7890625,-72.75390625,58.59375,0.0
1734582373.44353,956.54296875,-30.2734375,38.0859375,69.3359375,0.0
1734582373.4474363,988.76953125,460.44921875,243.1640625,80.56640625,0.0
1734582373.4513428,928.7109375,95.703125,16.6015625,45.8984375,0.0
1734582373.455249,716.30859375,-751.953125,-378.41796875,31.25,0.0
1734582373.4591553,802.734375,-202.63671875,-64.453125,44.921875,0.0
1734582373.4630618,801.26953125,409.66796875,226.5625,41.015625,0.0
1734582373.4694722,598.6328125,86.42578125,54.6875,53.22265625,0.0
1734582373.4733784,588.8671875,106.4453125,107.421875,41.50390625,0.0
1734582373.477285,598.6328125,396.97265625,198.73046875,25.87890625,0.0
1734582373.4811912,459.47265625,371.58203125,178.7109375,33.69140625,0.0
1734582373.4850976,252.44140625,1.953125,23.92578125,41.9921875,0.0
1734582373.489004,128.90625,-326.171875,-138.671875,36.1328125,0.0
1734582373.4929104,183.59375,-125.0,7.8125,18.06640625,0.0
1734582373.4968166,196.2890625,241.2109375,187.98828125,6.34765625,0.0
1734582373.500723,-127.44140625,-486.81640625,-236.328125,9.27734375,0.0
1734582373.5046294,-98.14453125,-445.80078125,-133.30078125,14.16015625,0.0
1734582373.5085356,24.90234375,334.47265625,245.1171875,0.9765625,0.0
1734582373.512442,-154.78515625,79.58984375,75.68359375,-5.37109375,0.0
1734582373.5153997,-212.40234375,-189.94140625,-25.87890625,-15.13671875,0.0
1734582373.5193062,-184.5703125,123.046875,119.62890625,-2.9296875,0.0
1734582373.5232124,-254.39453125,337.40234375,221.19140625,5.859375,0.0
1734582373.5271187,-416.015625,63.96484375,84.9609375,-8.30078125,0.0
1734582373.5310252,-473.14453125,-377.9296875,-106.93359375,-3.90625,0.0
1734582373.5349314,-403.80859375,-265.625,33.69140625,0.9765625,0.0
1734582373.538838,-457.03125,-235.83984375,102.5390625,2.9296875,0.0
1734582373.5427442,-527.83203125,-284.66796875,31.25,11.23046875,0.0
1734582373.5466506,-552.734375,-319.3359375,-54.6875,-1.953125,0.0
1734582373.550557,-525.87890625,-292.96875,28.3203125,-16.6015625,0.0
1734582373.5544631,-405.76171875,105.46875,194.3359375,0.0,0.0
1734582373.5583696,-573.2421875,-122.55859375,-21.484375,1.46484375,0.0
1734582373.5611813,-754.8828125,-619.62890625,0.0,0.9765625,0.0
1734582373.5650876,-542.48046875,113.76953125,0.0,-6.8359375,0.0
1734582373.568994,-559.5703125,270.01953125,0.0,-18.5546875,0.0
1734582373.5729003,-661.62109375,-205.56640625,0.0,-10.7421875,0.0
1734582373.5768068,-586.9140625,45.8984375,0.0,-6.8359375,0.0
1734582373.580713,-690.4296875,-0.48828125,0.0,-10.7421875,0.0
1734582373.5846193,-816.89453125,-216.30859375,0.0,-31.73828125,0.0
1734582373.5885258,-877.44140625,-627.9296875,0.0,-24.90234375,0.0
