timestamps,TP9,AF7,AF8,TP10,Right AUX
1734582166.5076797,66.89453125,312.5,160.64453125,-29.296875,0.0
1734582166.511586,19.04296875,95.703125,37.59765625,-41.015625,0.0
1734582166.5154922,-37.109375,-211.42578125,-184.5703125,-31.25,0.0
1734582166.5193987,-46.875,-74.21875,-94.7265625,-18.06640625,0.0
1734582166.523305,-77.63671875,-186.03515625,-148.92578125,-26.85546875,0.0
1734582166.5272114,-69.3359375,-519.53125,-341.796875,-37.59765625,0.0
1734582166.5311177,24.4140625,-520.99609375,-252.9296875,-28.3203125,0.0
1734582166.535024,86.42578125,-37.109375,0.0,-25.390625,0.0
1734582166.5389304,-12.20703125,153.3203125,110.3515625,-36.1328125,0.0
1734582166.5428367,-169.43359375,-349.609375,-192.3828125,-43.9453125,0.0
1734582166.546743,-176.7578125,-811.03515625,-477.05078125,-45.41015625,0.0
1734582166.548011,102.5390625,-171.875,-114.74609375,-47.8515625,0.0
1734582166.5519176,92.7734375,210.44921875,114.2578125,-48.828125,0.0
1734582166.5558238,-140.13671875,-246.09375,-162.59765625,-55.6640625,0.0
1734582166.55973,-76.66015625,-175.78125,-171.38671875,-39.55078125,0.0
1734582166.5636365,15.13671875,18.06640625,-74.21875,-29.296875,0.0
1734582166.5675428,-5.37109375,-264.16015625,-224.609375,-33.203125,0.0
1734582166.571449,-63.4765625,-575.1953125,-383.30078125,-35.64453125,0.0
1734582166.5753555,-37.59765625,-385.7421875,-194.3359375,-29.78515625,0.0
1734582166.5792618,17.578125,192.3828125,141.11328125,-36.1328125,0.0
1734582166.583168,-15.625,219.7265625,108.88671875,-40.0390625,0.0
1734582166.5870745,-67.87109375,-385.25390625,-303.7109375,-26.85546875,0.0
1734582166.5909808,29.78515625,-186.5234375,-140.13671875,-33.203125,0.0
1734582166.5944154,-1.953125,200.1953125,150.87890625,-37.59765625,0.0
1734582166.5983217,-159.1796875,-215.8203125,-76.66015625,-20.5078125,0.0
1734582166.602228,-120.60546875,-598.6328125,-275.390625,-14.16015625,0.0
1734582166.6061344,68.359375,-112.79296875,-80.56640625,-31.25,0.0
1734582166.6100407,68.359375,187.5,84.9609375,-42.96875,0.0
1734582166.613947,-115.72265625,-277.34375,-177.734375,-29.78515625,0.0
1734582166.6178534,-368.65234375,-957.51953125,-583.0078125,-27.34375,0.0
1734582166.6217597,-187.5,-808.59375,-413.57421875,-35.15625,0.0
1734582166.625666,160.64453125,66.40625,73.73046875,-42.48046875,0.0
1734582166.6295724,53.22265625,33.203125,-15.13671875,-42.48046875,0.0
1734582166.6334786,-44.43359375,-302.734375,-181.15234375,-38.0859375,0.0
1734582166.637385,-31.25,57.6171875,54.19921875,-48.828125,0.0
1734582166.6407588,-22.4609375,227.5390625,115.72265625,-50.29296875,0.0
1734582166.644665,-3.90625,-96.19140625,-92.7734375,-20.99609375,0.0
1734582166.6485713,35.64453125,-91.30859375,-73.73046875,-12.20703125,0.0
1734582166.6524777,7.32421875,135.25390625,100.09765625,-21.484375,0.0
1734582166.656384,-118.65234375,-145.5078125,-88.8671875,-30.76171875,0.0
1734582166.6602902,-147.4609375,-501.953125,-343.26171875,-36.62109375,0.0
1734582166.6641967,-48.33984375,-539.55078125,-335.44921875,-44.43359375,0.0
1734582166.668103,44.921875,-326.66015625,-236.81640625,-41.015625,0.0
1734582166.6720092,39.0625,-39.0625,-75.1953125,-21.97265625,0.0
1734582166.6759157,-176.7578125,-474.12109375,-307.12890625,-34.1796875,0.0
1734582166.679822,-97.16796875,-403.80859375,-239.2578125,-44.921875,0.0
1734582166.6837282,107.91015625,109.375,16.11328125,-29.78515625,0.0
1734582166.6866848,0.0,65.91796875,21.97265625,-8.7890625,0.0
1734582166.690591,0.0,-463.8671875,-246.09375,-10.25390625,0.0
1734582166.6944973,0.0,-200.68359375,-134.27734375,-34.1796875,0.0
1734582166.6984038,0.0,291.50390625,142.08984375,-35.64453125,0.0
1734582166.70231,0.0,33.203125,26.85546875,-38.0859375,0.0
1734582166.7062163,0.0,-644.53125,-275.87890625,-34.1796875,0.0
1734582166.7101226,0.0,-428.7109375,-233.88671875,-37.109375,0.0
1734582166.714029,0.0,-76.66015625,-72.75390625,-45.8984375,0.0
1734582166.7179353,0.0,-377.44140625,-249.51171875,-33.203125,0.0
1734582166.7218416,0.0,-874.0234375,-546.875,-16.6015625,0.0
1734582166.725748,0.0,-394.53125,-213.37890625,-18.5546875,0.0
1734582166.7296543,0.0,236.81640625,156.25,-35.15625,0.0
1734582166.7392402,-78.125,-79.58984375,-55.6640625,-14.6484375,0.0
1734582166.7431464,-52.24609375,-139.16015625,-132.8125,-11.71875,0.0
1734582166.747053,47.8515625,183.59375,79.58984375,-41.015625,0.0
1734582166.7509592,62.98828125,259.765625,130.859375,-34.1796875,0.0
1734582166.7548654,-42.48046875,-164.55078125,-142.08984375,-20.99609375,0.0
1734582166.758772,-118.1640625,-512.20703125,-311.5234375,-21.97265625,0.0
1734582166.7626781,-102.05078125,-417.96875,-279.296875,-19.04296875,0.0
1734582166.7665846,-64.94140625,-369.140625,-289.55078125,-22.4609375,0.0
1734582166.770491,-96.6796875,-701.66015625,-492.1875,-32.2265625,0.0
1734582166.7743971,-20.99609375,-583.984375,-312.01171875,-58.59375,0.0
1734582166.7783036,36.1328125,-41.9921875,-43.45703125,-48.828125,0.0
1734582166.7822099,-97.65625,-264.16015625,-246.09375,-25.87890625,0.0
1734582166.784363,-124.51171875,-585.9375,-377.9296875,-35.64453125,0.0
1734582166.7882695,76.171875,-82.03125,-83.49609375,-30.76171875,0.0
1734582166.7921758,118.65234375,260.25390625,130.37109375,-34.66796875,0.0
1734582166.796082,-33.203125,-10.7421875,-12.6953125,-52.734375,0.0
1734582166.7999885,-98.14453125,-217.7734375,-187.5,-42.96875,0.0
1734582166.8038948,-100.5859375,-333.49609375,-295.8984375,-28.80859375,0.0
1734582166.807801,-21.484375,-336.42578125,-288.57421875,-36.1328125,0.0
1734582166.8117075,20.5078125,-278.80859375,-251.953125,-40.52734375,0.0
1734582166.8156137,-60.05859375,-475.5859375,-261.23046875,-41.50390625,0.0
1734582166.81952,-16.6015625,-102.5390625,-124.0234375,-44.921875,0.0
1734582166.8234265,35.15625,161.1328125,-29.78515625,-31.73828125,0.0
1734582166.8273327,20.99609375,-180.17578125,-145.5078125,-35.15625,0.0
1734582166.8290908,61.03515625,-320.3125,-201.66015625,-51.26953125,0.0
1734582166.8329973,34.1796875,-80.56640625,-56.15234375,-44.43359375,0.0
1734582166.8369036,-97.65625,-273.4375,-215.33203125,-28.3203125,0.0
1734582166.8408098,-105.46875,-466.30859375,-315.91796875,-20.01953125,0.0
1734582166.8447163,0.9765625,-343.75,-185.05859375,-29.78515625,0.0
1734582166.8486226,26.85546875,-348.6328125,-269.53125,-21.484375,0.0
1734582166.8525288,-31.25,-482.421875,-320.80078125,-14.6484375,0.0
1734582166.8564353,-189.453125,-747.55859375,-471.19140625,-30.2734375,0.0
1734582166.8603415,-282.2265625,-1000.0,-631.8359375,-30.76171875,0.0
1734582166.8642478,86.42578125,-243.1640625,-131.8359375,-34.66796875,0.0
1734582166.8681543,175.78125,235.83984375,102.05078125,-43.45703125,0.0
1734582166.8720605,-45.41015625,-179.19921875,-190.91796875,-36.1328125,0.0
1734582166.8799753,-22.94921875,93.75,0.9765625,-28.3203125,0.0
1734582166.8838818,12.6953125,387.6953125,175.78125,-27.34375,0.0
1734582166.887788,7.8125,149.90234375,44.43359375,-24.90234375,0.0
1734582166.8916943,51.26953125,-103.515625,-115.234375,-10.7421875,0.0
1734582166.8956008,45.41015625,7.8125,-16.11328125,-15.625,0.0
1734582166.899507,-70.3125,-124.0234375,-103.02734375,-27.34375,0.0
1734582166.9034135,-149.4140625,-443.84765625,-324.21875,-23.4375,0.0
1734582166.9073198,-193.84765625,-832.51953125,-510.25390625,-30.76171875,0.0
1734582166.911226,65.4296875,-282.71484375,-145.5078125,-42.48046875,0.0
1734582166.9151325,97.16796875,212.40234375,146.97265625,-31.25,0.0
1734582166.9190388,-88.37890625,-44.921875,-58.10546875,-37.109375,0.0
1734582166.922945,-76.66015625,-96.6796875,-116.2109375,-35.64453125,0.0
1734582166.9239852,44.921875,134.27734375,52.24609375,-26.85546875,0.0
1734582166.9278917,91.30859375,226.07421875,98.6328125,-33.203125,0.0
1734582166.931798,-69.82421875,-244.140625,-143.5546875,-27.34375,0.0
1734582166.9357042,-64.94140625,-299.8046875,-125.48828125,-38.57421875,0.0
1734582166.9396107,-44.43359375,-12.20703125,-20.5078125,-41.50390625,0.0
1734582166.943517,-98.14453125,-352.05078125,-268.06640625,-36.62109375,0.0
1734582166.9474232,-63.4765625,-681.640625,-419.43359375,-39.0625,0.0
1734582166.9513297,16.11328125,-499.0234375,-250.9765625,-29.78515625,0.0
1734582166.955236,23.4375,-201.66015625,-108.3984375,-20.5078125,0.0
1734582166.9591422,-33.203125,2.9296875,3.41796875,-28.3203125,0.0
1734582166.9630487,-168.45703125,-529.296875,-330.078125,-12.20703125,0.0
1734582166.966955,-27.83203125,-578.125,-334.9609375,-18.5546875,0.0
1734582166.9724398,0.0,170.41015625,113.28125,-29.296875,0.0
1734582166.9763463,0.0,83.49609375,75.68359375,-30.76171875,0.0
1734582166.9802525,0.0,-471.6796875,-216.796875,-22.4609375,0.0
1734582166.9841588,0.0,-83.49609375,-30.76171875,-17.578125,0.0
1734582166.9880652,0.0,258.7890625,133.7890625,-25.87890625,0.0
1734582166.9919715,0.0,-326.171875,-223.6328125,-37.59765625,0.0
1734582166.995878,0.0,-883.7890625,-500.0,-37.109375,0.0
1734582166.9997842,0.0,-267.08984375,-109.86328125,-41.9921875,0.0
1734582167.0036905,0.0,263.18359375,155.76171875,-50.29296875,0.0
1734582167.007597,0.0,4.39453125,-37.109375,-48.828125,0.0
1734582167.0115032,0.0,-159.66796875,-142.578125,-55.6640625,0.0
1734582167.0154095,0.0,-171.38671875,-169.43359375,-52.24609375,0.0
1734582167.0180564,-57.6171875,-16.6015625,-44.921875,-54.19921875,0.0
1734582167.021963,-64.453125,-75.68359375,-29.296875,-48.33984375,0.0
1734582167.0258691,32.71484375,-150.87890625,-122.0703125,-28.80859375,0.0
1734582167.0297754,121.58203125,87.890625,36.1328125,-35.64453125,0.0
1734582167.0336819,38.57421875,65.91796875,64.94140625,-44.921875,0.0
1734582167.0375881,-104.00390625,-387.6953125,-241.69921875,-42.96875,0.0
1734582167.0414944,-110.3515625,-631.34765625,-378.90625,-50.29296875,0.0
1734582167.0454009,40.52734375,-328.125,-229.98046875,-56.15234375,0.0
1734582167.049307,102.5390625,-53.7109375,-69.3359375,-43.45703125,0.0
1734582167.0532134,-50.29296875,-508.30078125,-331.54296875,-11.71875,0.0
1734582167.0571198,-7.32421875,-301.26953125,-218.75,-21.484375,0.0
1734582167.061026,69.82421875,194.82421875,121.09375,-28.3203125,0.0
1734582167.0637965,39.55078125,79.58984375,63.96484375,-19.53125,0.0
1734582167.0677028,-112.79296875,-688.4765625,-405.2734375,-27.83203125,0.0
1734582167.071609,-42.48046875,-778.80859375,-428.22265625,-44.43359375,0.0
1734582167.0755155,87.40234375,-47.36328125,-26.85546875,-56.15234375,0.0
1734582167.0794218,-17.08984375,21.484375,20.5078125,-45.41015625,0.0
1734582167.083328,-76.171875,-555.17578125,-272.4609375,-41.015625,0.0
1734582167.0872345,47.8515625,-414.55078125,-231.93359375,-56.15234375,0.0
1734582167.0911407,125.9765625,166.015625,101.07421875,-45.8984375,0.0
1734582167.095047,-55.6640625,-51.26953125,-31.25,-26.85546875,0.0
1734582167.0989535,-237.3046875,-777.83203125,-449.21875,-35.15625,0.0
1734582167.1028597,36.62109375,-299.8046875,-175.78125,-46.38671875,0.0
1734582167.106766,164.55078125,74.70703125,44.921875,-32.2265625,0.0
1734582167.1115675,44.43359375,-164.55078125,-65.91796875,-40.0390625,0.0
1734582167.115474,-2.44140625,-94.7265625,-112.3046875,-68.84765625,0.0
1734582167.1193802,-4.8828125,118.65234375,24.4140625,-61.03515625,0.0
1734582167.1232865,19.04296875,173.828125,118.65234375,-50.78125,0.0
1734582167.127193,-21.97265625,-184.5703125,-84.47265625,-50.78125,0.0
1734582167.1310992,-14.6484375,-498.046875,-282.71484375,-25.390625,0.0
1734582167.1350055,-35.15625,-436.5234375,-291.50390625,-13.671875,0.0
1734582167.138912,-95.21484375,-426.7578125,-301.7578125,-27.83203125,0.0
1734582167.1428182,-188.96484375,-760.7421875,-487.79296875,-24.90234375,0.0
1734582167.1467245,-68.359375,-729.00390625,-367.1875,-22.94921875,0.0
1734582167.150631,174.31640625,16.6015625,33.69140625,-30.76171875,0.0
1734582167.1545372,37.109375,120.1171875,43.9453125,-41.015625,0.0
1734582167.1567516,-129.8828125,-261.71875,-207.51953125,-56.640625,0.0
1734582167.160658,-47.36328125,-49.31640625,-114.2578125,-51.26953125,0.0
1734582167.1645641,42.96875,217.7734375,82.03125,-55.17578125,0.0
1734582167.1684706,-19.04296875,-29.296875,-1.46484375,-63.96484375,0.0
1734582167.1723769,-115.72265625,-476.07421875,-209.47265625,-48.828125,0.0
1734582167.1762831,-126.953125,-499.0234375,-296.38671875,-41.9921875,0.0
1734582167.1801894,-58.59375,-217.28515625,-213.37890625,-48.33984375,0.0
1734582167.1840959,18.06640625,-137.20703125,-189.453125,-32.2265625,0.0
1734582167.188002,-21.97265625,-561.5234375,-311.03515625,-32.2265625,0.0
1734582167.1919084,10.25390625,-321.2890625,-217.28515625,-41.50390625,0.0
1734582167.1958148,30.2734375,186.5234375,13.671875,-38.0859375,0.0
1734582167.199721,-121.09375,-162.109375,-110.83984375,-32.2265625,0.0
1734582167.2018793,-160.15625,-778.80859375,-433.59375,-26.3671875,0.0
1734582167.2057855,96.19140625,-246.09375,-156.25,-41.50390625,0.0
1734582167.2096918,92.28515625,187.98828125,57.12890625,-47.36328125,0.0
1734582167.213598,-96.19140625,-229.00390625,-160.64453125,-36.62109375,0.0
1734582167.2175045,-99.609375,-393.06640625,-217.7734375,-35.64453125,0.0
1734582167.2214108,-7.8125,-349.12109375,-243.65234375,-33.203125,0.0
1734582167.225317,24.4140625,-433.10546875,-310.05859375,-25.87890625,0.0
1734582167.2292235,-94.7265625,-726.07421875,-452.63671875,-30.76171875,0.0
1734582167.2331297,-81.0546875,-664.0625,-344.23828125,-33.203125,0.0
1734582167.237036,98.14453125,89.35546875,62.5,-18.5546875,0.0
1734582167.2409425,83.49609375,215.8203125,104.00390625,-20.99609375,0.0
1734582167.2448487,-40.0390625,-295.41015625,-235.3515625,-41.9921875,0.0
1734582167.2470152,-40.0390625,-330.56640625,-269.53125,-49.8046875,0.0
1734582167.2509215,9.27734375,221.6796875,88.8671875,-50.78125,0.0
1734582167.2548277,-83.984375,114.2578125,57.12890625,-56.15234375,0.0
1734582167.2587342,-115.72265625,-471.19140625,-192.87109375,-60.05859375,0.0
1734582167.2626405,67.3828125,-159.66796875,-21.484375,-41.50390625,0.0
1734582167.2665467,41.015625,-97.16796875,-85.9375,-35.15625,0.0
1734582167.2704532,-109.86328125,-466.796875,-339.84375,-38.0859375,0.0
1734582167.2743595,-232.91015625,-830.56640625,-512.20703125,-36.62109375,0.0
1734582167.2782657,-4.39453125,-317.3828125,-163.57421875,-63.4765625,0.0
1734582167.282172,110.83984375,181.15234375,135.25390625,-58.59375,0.0
1734582167.2860785,-28.3203125,-22.94921875,-57.6171875,-43.45703125,0.0
1734582167.2899847,-49.31640625,-63.96484375,-103.02734375,-47.36328125,0.0
1734582167.2920132,-28.3203125,145.99609375,83.984375,-45.41015625,0.0
1734582167.2959194,-38.57421875,188.96484375,95.703125,-46.875,0.0
1734582167.2998257,-102.05078125,-315.91796875,-177.734375,-50.78125,0.0
1734582167.3037322,-52.24609375,-442.87109375,-270.99609375,-60.546875,0.0
1734582167.3076384,-45.41015625,-124.51171875,-149.4140625,-54.19921875,0.0
1734582167.3115447,-158.69140625,-350.5859375,-273.4375,-49.31640625,0.0
1734582167.315451,-208.984375,-749.51171875,-437.5,-50.29296875,0.0
1734582167.3193574,-84.47265625,-768.5546875,-376.46484375,-46.875,0.0
1734582167.3232636,126.46484375,-53.22265625,-82.51953125,-40.0390625,0.0
1734582167.32717,22.94921875,142.578125,36.1328125,-40.0390625,0.0
1734582167.3310764,-156.73828125,-387.6953125,-299.31640625,-37.59765625,0.0
1734582167.3349826,-43.9453125,-199.70703125,-222.65625,-38.0859375,0.0
1734582167.3395467,0.0,148.4375,80.56640625,0.0,0.0
1734582167.3434532,0.0,-12.6953125,23.92578125,0.0,0.0
1734582167.3473594,0.0,-294.921875,-174.31640625,0.0,0.0
1734582167.3512657,0.0,-28.3203125,-17.578125,0.0,0.0
1734582167.355172,0.0,145.5078125,113.28125,0.0,0.0
1734582167.3590784,0.0,-367.1875,-236.81640625,0.0,0.0
1734582167.3629847,0.0,-928.7109375,-555.17578125,0.0,0.0
1734582167.366891,0.0,-485.3515625,-271.97265625,0.0,0.0
1734582167.3707974,0.0,144.53125,69.3359375,0.0,0.0
1734582167.3747036,0.0,-54.19921875,-54.19921875,0.0,0.0
1734582167.37861,0.0,-245.60546875,-213.8671875,0.0,0.0
1734582167.3825161,0.0,57.6171875,-79.58984375,0.0,0.0
1734582167.3843193,46.875,187.5,58.10546875,-30.76171875,0.0
1734582167.3882256,-117.67578125,-198.73046875,-84.47265625,-36.1328125,0.0
1734582167.392132,-145.01953125,-358.88671875,-226.07421875,-54.6875,0.0
1734582167.3960383,-18.06640625,-6.34765625,-26.85546875,-52.734375,0.0
1734582167.3999445,20.01953125,-11.23046875,1.46484375,-26.85546875,0.0
1734582167.4038508,-94.7265625,-522.4609375,-333.0078125,-19.53125,0.0
1734582167.4077573,-151.85546875,-713.37890625,-387.20703125,-41.015625,0.0
1734582167.4116635,-61.5234375,-275.87890625,-197.75390625,-55.6640625,0.0
1734582167.4155698,0.0,40.52734375,-31.73828125,-42.96875,0.0
1734582167.4194763,-119.62890625,-612.79296875,-399.4140625,-24.4140625,0.0
1734582167.4233825,-39.55078125,-653.3203125,-389.6484375,-30.76171875,0.0
1734582167.4272888,49.31640625,77.63671875,-38.57421875,-48.33984375,0.0
1734582167.4311514,-72.75390625,20.99609375,-86.9140625,-47.8515625,0.0
1734582167.4350576,-83.0078125,-372.0703125,-222.16796875,-36.62109375,0.0
1734582167.438964,42.48046875,-131.34765625,-106.93359375,-20.01953125,0.0
1734582167.4428701,39.55078125,157.71484375,55.17578125,-34.1796875,0.0
1734582167.4467766,-101.5625,-81.0546875,-86.9140625,-33.69140625,0.0
1734582167.4506829,-202.63671875,-661.62109375,-319.3359375,-30.76171875,0.0
1734582167.4545891,-79.58984375,-538.0859375,-257.32421875,-45.8984375,0.0
1734582167.4584956,88.8671875,51.7578125,-54.6875,-36.62109375,0.0
1734582167.4624019,-9.27734375,-125.9765625,-112.3046875,-23.92578125,0.0
1734582167.466308,-184.08203125,-689.453125,-377.44140625,-20.5078125,0.0
1734582167.4702144,-41.50390625,-176.7578125,-169.43359375,-39.0625,0.0
1734582167.4741209,-9.27734375,129.8828125,56.640625,-39.0625,0.0
1734582167.477825,-60.05859375,-225.09765625,-95.703125,-42.48046875,0.0
1734582167.4817312,25.390625,-187.5,-154.78515625,-45.41015625,0.0
1734582167.4856377,14.16015625,113.76953125,24.4140625,-50.29296875,0.0
1734582167.489544,-75.68359375,136.23046875,88.8671875,-65.4296875,0.0
1734582167.4934502,-168.9453125,-340.8203125,-201.66015625,-63.96484375,0.0
1734582167.4973564,-117.1875,-630.37109375,-344.23828125,-58.59375,0.0
1734582167.501263,-29.296875,-475.5859375,-291.50390625,-50.78125,0.0
1734582167.5051692,-81.54296875,-414.0625,-299.8046875,-55.17578125,0.0
1734582167.5090754,-217.7734375,-723.6328125,-471.19140625,-51.7578125,0.0
1734582167.512982,-128.90625,-672.8515625,-340.33203125,-54.6875,0.0
1734582167.5168881,96.6796875,4.39453125,-17.578125,-39.0625,0.0
1734582167.5207944,5.859375,-151.85546875,-170.8984375,-29.296875,0.0
1734582167.5265522,-147.94921875,-645.99609375,-408.69140625,-50.78125,0.0
1734582167.5304587,-57.12890625,-182.12890625,-200.68359375,-53.22265625,0.0
1734582167.534365,-3.90625,197.265625,18.5546875,-36.1328125,0.0
1734582167.5382712,-73.2421875,-170.8984375,-103.515625,-31.25,0.0
1734582167.5421777,-49.8046875,-349.609375,-215.33203125,-54.19921875,0.0
1734582167.546084,-74.70703125,-371.58203125,-270.01953125,-34.1796875,0.0
1734582167.5499902,-60.546875,-174.8046875,-165.0390625,-11.23046875,0.0
1734582167.5538964,-94.7265625,-118.1640625,-80.078125,-6.8359375,0.0
1734582167.557803,-132.32421875,-597.16796875,-270.99609375,-15.625,0.0
1734582167.5617092,77.1484375,-129.8828125,-41.50390625,-41.015625,0.0
1734582167.5656154,64.94140625,266.11328125,132.32421875,-41.015625,0.0
1734582167.569522,-131.8359375,-170.41015625,-116.2109375,-35.64453125,0.0
1734582167.574511,-180.6640625,-603.515625,-281.73828125,-36.62109375,0.0
1734582167.5784173,20.01953125,-96.6796875,-14.6484375,-54.19921875,0.0
1734582167.5823238,77.63671875,164.55078125,72.75390625,-55.6640625,0.0
1734582167.58623,-34.66796875,-162.109375,-109.375,-54.19921875,0.0
1734582167.5901363,-78.61328125,-198.73046875,-144.53125,-51.26953125,0.0
1734582167.5940425,-123.53515625,-326.66015625,-235.83984375,-55.17578125,0.0
1734582167.597949,-101.07421875,-498.53515625,-312.98828125,-48.828125,0.0
1734582167.6018553,-75.1953125,-712.890625,-432.6171875,-19.04296875,0.0
1734582167.6057615,-4.8828125,-504.39453125,-296.875,-25.390625,0.0
1734582167.609668,32.2265625,84.9609375,60.05859375,-49.8046875,0.0
1734582167.6135743,-64.453125,80.56640625,41.015625,-53.22265625,0.0
1734582167.6174805,-213.8671875,-687.98828125,-432.12890625,-40.52734375,0.0
1734582167.6197076,-5.37109375,-591.796875,-372.0703125,-32.2265625,0.0
1734582167.6236138,162.109375,175.29296875,29.78515625,-29.296875,0.0
1734582167.62752,-42.48046875,41.50390625,52.734375,-30.76171875,0.0
1734582167.6314266,-191.89453125,-510.25390625,-190.91796875,-49.31640625,0.0
1734582167.6353328,-53.22265625,-202.63671875,-132.32421875,-58.10546875,0.0
1734582167.639239,-19.53125,-133.30078125,-176.26953125,-51.26953125,0.0
1734582167.6431453,-118.1640625,-524.4140625,-350.09765625,-43.9453125,0.0
1734582167.6470518,-109.86328125,-538.0859375,-257.8125,-40.0390625,0.0
1734582167.650958,-65.91796875,-67.87109375,-24.90234375,-37.109375,0.0
1734582167.6548643,-65.4296875,49.8046875,-1.46484375,-41.9921875,0.0
1734582167.6587708,-89.84375,-373.046875,-267.08984375,-41.9921875,0.0
1734582167.662677,-161.62109375,-788.0859375,-480.95703125,-20.99609375,0.0
1734582167.664933,-16.11328125,-178.22265625,-119.140625,-38.57421875,0.0
1734582167.6688395,-48.828125,238.28125,140.13671875,-65.91796875,0.0
1734582167.6727457,-171.875,-172.36328125,-96.19140625,-69.3359375,0.0
1734582167.676652,-10.25390625,-76.66015625,-60.546875,-61.03515625,0.0
1734582167.6805582,42.48046875,93.75,71.77734375,-66.40625,0.0
1734582167.6844647,-100.09765625,-252.9296875,-191.89453125,-73.73046875,0.0
1734582167.688371,-228.02734375,-663.0859375,-425.78125,-47.36328125,0.0
1734582167.6922772,-145.01953125,-574.21875,-281.73828125,-39.55078125,0.0
1734582167.6961834,64.453125,84.47265625,69.3359375,-42.96875,0.0
1734582167.70009,28.80859375,139.16015625,58.10546875,-41.015625,0.0
1734582167.7039962,-163.57421875,-500.48828125,-376.953125,-42.96875,0.0
1734582167.7079024,-101.5625,-275.87890625,-236.81640625,-49.8046875,0.0
1734582167.7124412,-20.99609375,82.51953125,4.39453125,-47.36328125,0.0
1734582167.7163475,-85.44921875,-321.77734375,-227.05078125,-55.17578125,0.0
1734582167.7202537,-162.109375,-818.84765625,-505.859375,-57.6171875,0.0
1734582167.7241602,-27.34375,-339.35546875,-212.890625,-61.03515625,0.0
1734582167.7280664,-7.32421875,200.68359375,96.19140625,-55.17578125,0.0
1734582167.7319727,-204.1015625,-343.75,-248.53515625,-21.484375,0.0
1734582167.735879,-251.46484375,-900.87890625,-550.78125,-11.71875,0.0
1734582167.7397854,23.4375,-336.9140625,-184.08203125,-35.15625,0.0
1734582167.7436917,100.09765625,257.32421875,147.4609375,-41.50390625,0.0
1734582167.747598,-100.5859375,-64.453125,-55.6640625,-40.52734375,0.0
1734582167.7515042,-121.58203125,-391.6015625,-240.234375,-44.921875,0.0
1734582167.7554107,20.01953125,23.4375,-16.11328125,-41.9921875,0.0
1734582167.7574494,0.0,238.28125,125.9765625,-46.875,0.0
1734582167.7613556,0.0,-160.64453125,-94.7265625,-48.828125,0.0
1734582167.7652621,0.0,-309.5703125,-195.3125,-50.29296875,0.0
1734582167.7691684,0.0,15.13671875,12.20703125,-60.05859375,0.0
1734582167.7730746,0.0,-158.69140625,-91.796875,-59.5703125,0.0
1734582167.7769809,0.0,-454.1015625,-311.5234375,-35.15625,0.0
1734582167.7808874,0.0,-482.91015625,-316.40625,-41.9921875,0.0
1734582167.7847936,0.0,-227.5390625,-200.1953125,-62.5,0.0
1734582167.7886999,0.0,64.94140625,-20.5078125,-40.52734375,0.0
1734582167.792606,0.0,-518.06640625,-334.47265625,-40.0390625,0.0
1734582167.7965126,0.0,-600.5859375,-326.171875,-53.22265625,0.0
1734582167.8004189,0.0,198.2421875,132.32421875,-56.15234375,0.0
1734582167.8051047,-67.3828125,142.08984375,83.0078125,-35.64453125,0.0
1734582167.809011,-231.93359375,-551.26953125,-318.359375,-20.01953125,0.0
1734582167.8129175,-77.1484375,-229.98046875,-196.77734375,-37.109375,0.0
1734582167.8168237,42.96875,254.8828125,110.3515625,-45.8984375,0.0
1734582167.82073,-50.29296875,-23.4375,-41.9921875,-36.62109375,0.0
1734582167.8246362,-188.96484375,-610.3515625,-308.10546875,-41.9921875,0.0
1734582167.8285427,-125.0,-497.55859375,-252.44140625,-53.7109375,0.0
1734582167.832449,-74.21875,-258.30078125,-208.0078125,-53.22265625,0.0
1734582167.8363552,-48.33984375,-391.6015625,-278.80859375,-38.0859375,0.0
1734582167.8402617,4.39453125,-414.0625,-232.91015625,-34.66796875,0.0
1734582167.844168,30.2734375,-19.04296875,2.44140625,-38.57421875,0.0
1734582167.8480742,-6.8359375,199.70703125,115.234375,-29.78515625,0.0
1734582167.8519683,-133.7890625,-211.9140625,-112.3046875,-25.390625,0.0
1734582167.8558745,-103.515625,-566.89453125,-289.55078125,-26.3671875,0.0
1734582167.8597808,91.30859375,-44.43359375,-23.4375,-45.41015625,0.0
1734582167.8636873,12.20703125,182.6171875,76.171875,-70.3125,0.0
1734582167.8675935,-190.91796875,-399.90234375,-237.79296875,-53.7109375,0.0
1734582167.8714998,-184.08203125,-666.015625,-350.5859375,-57.12890625,0.0
1734582167.875406,-62.98828125,-443.359375,-257.8125,-68.359375,0.0
1734582167.8793125,-42.96875,-346.19140625,-257.8125,-55.6640625,0.0
1734582167.8832188,-147.4609375,-622.0703125,-430.6640625,-49.8046875,0.0
1734582167.887125,-125.9765625,-688.96484375,-345.703125,-43.9453125,0.0
1734582167.8910313,-30.2734375,-230.46875,-173.33984375,-42.48046875,0.0
1734582167.8949378,-3.41796875,-55.17578125,-123.046875,-46.875,0.0
1734582167.8985019,24.90234375,-214.35546875,-196.77734375,-43.9453125,0.0
1734582167.9024084,57.12890625,8.30078125,-82.51953125,-46.38671875,0.0
1734582167.9063146,-28.3203125,195.3125,103.02734375,-77.1484375,0.0
1734582167.9102209,-108.3984375,0.0,-12.20703125,-81.0546875,0.0
1734582167.914127,-46.38671875,-236.328125,-211.42578125,-54.19921875,0.0
1734582167.9180336,-25.87890625,-416.015625,-322.75390625,-72.75390625,0.0
1734582167.9219398,11.23046875,-252.9296875,-220.21484375,-93.26171875,0.0
1734582167.925846,-90.8203125,-180.17578125,-202.63671875,-89.35546875,0.0
1734582167.9297523,-316.40625,-826.66015625,-517.08984375,-78.61328125,0.0
1734582167.9336588,-30.2734375,-334.9609375,-226.07421875,-90.33203125,0.0
1734582167.937565,96.19140625,187.98828125,45.41015625,-104.4921875,0.0
1734582167.9414713,-59.5703125,-208.0078125,-159.1796875,-98.6328125,0.0
1734582167.9450932,-89.35546875,-236.81640625,-197.75390625,-103.515625,0.0
1734582167.9489994,-131.8359375,-159.1796875,-153.80859375,-108.88671875,0.0
1734582167.9529057,-94.7265625,-90.8203125,-151.85546875,-106.4453125,0.0
1734582167.956812,-52.734375,-141.6015625,-197.75390625,-104.4921875,0.0
1734582167.9607184,-43.45703125,-212.40234375,-196.2890625,-102.5390625,0.0
1734582167.9646246,-109.86328125,-332.51953125,-255.37109375,-105.95703125,0.0
1734582167.968531,-152.83203125,-425.78125,-294.921875,-119.140625,0.0
1734582167.9724371,-197.265625,-702.63671875,-435.05859375,-114.74609375,0.0
1734582167.9763436,-63.96484375,-687.5,-357.91015625,-106.4453125,0.0
1734582167.98025,99.12109375,85.44921875,5.37109375,-115.234375,0.0
1734582167.9841561,-55.17578125,115.234375,27.83203125,-115.72265625,0.0
1734582167.9880624,-230.46875,-545.8984375,-372.0703125,-124.51171875,0.0
1734582167.9917636,0.0,-213.8671875,-174.8046875,-121.58203125,0.0
1734582167.9956698,0.0,261.23046875,146.97265625,-106.93359375,0.0
1734582167.999576,0.0,41.015625,4.39453125,-107.91015625,0.0
1734582168.0034823,0.0,-232.91015625,-137.6953125,-103.515625,0.0
1734582168.0073888,0.0,-225.5859375,-141.6015625,-104.00390625,0.0
1734582168.011295,0.0,-306.15234375,-241.2109375,-111.328125,0.0
1734582168.0152013,0.0,-487.3046875,-332.51953125,-102.5390625,0.0
1734582168.0191076,0.0,-838.37890625,-519.53125,-86.9140625,0.0
1734582168.023014,0.0,-331.0546875,-185.546875,-102.05078125,0.0
1734582168.0269203,0.0,195.3125,155.76171875,-122.55859375,0.0
1734582168.0308266,0.0,-26.85546875,-44.43359375,-95.21484375,0.0
1734582168.0347328,0.0,-105.95703125,-152.34375,-89.84375,0.0
1734582168.0399237,50.29296875,119.62890625,33.69140625,-91.30859375,0.0
1734582168.04383,-21.484375,167.96875,109.375,-72.75390625,0.0
1734582168.0477364,-152.34375,-161.1328125,-81.0546875,-73.2421875,0.0
1734582168.0516427,-101.07421875,-135.7421875,-139.6484375,-90.8203125,0.0
1734582168.055549,-24.90234375,23.4375,-57.12890625,-92.28515625,0.0
1734582168.0594552,-62.5,-304.6875,-250.48828125,-82.03125,0.0
1734582168.0633616,-155.2734375,-659.66796875,-421.38671875,-82.51953125,0.0
1734582168.067268,-168.45703125,-720.703125,-362.79296875,-87.40234375,0.0
1734582168.0711741,-36.62109375,-267.08984375,-202.63671875,-88.37890625,0.0
1734582168.0750806,36.62109375,67.87109375,-94.23828125,-74.70703125,0.0
1734582168.078987,-57.12890625,-480.95703125,-376.46484375,-63.4765625,0.0
1734582168.0828931,-10.7421875,-401.85546875,-234.86328125,-64.94140625,0.0
1734582168.08768,31.25,140.625,104.00390625,-66.89453125,0.0
1734582168.0915864,-66.89453125,43.45703125,46.875,-59.08203125,0.0
1734582168.0954928,-78.125,-270.99609375,-152.83203125,-67.3828125,0.0
1734582168.099399,51.26953125,0.9765625,7.8125,-73.2421875,0.0
1734582168.1033053,60.05859375,201.171875,131.34765625,-53.7109375,0.0
1734582168.1072116,-117.1875,-373.046875,-239.74609375,-43.9453125,0.0
1734582168.111118,-182.6171875,-728.02734375,-376.953125,-49.31640625,0.0
1734582168.1150243,6.34765625,-189.453125,-142.08984375,-46.875,0.0
1734582168.1189306,134.27734375,185.05859375,80.078125,-46.875,0.0
1734582168.122837,3.41796875,-89.84375,-36.62109375,-42.48046875,0.0
1734582168.1267433,-253.90625,-833.984375,-484.375,-33.203125,0.0
1734582168.1306496,-95.703125,-536.1328125,-302.24609375,-60.546875,0.0
1734582168.1349635,76.66015625,131.34765625,24.4140625,-68.359375,0.0
1734582168.1388698,31.73828125,-59.5703125,-64.453125,-47.8515625,0.0
1734582168.1427763,46.875,-110.83984375,-75.68359375,-47.8515625,0.0
1734582168.1466825,12.6953125,113.28125,104.00390625,-64.94140625,0.0
1734582168.1505888,-79.1015625,18.06640625,26.85546875,-72.265625,0.0
1734582168.154495,-102.5390625,-438.4765625,-290.52734375,-59.5703125,0.0
1734582168.1584015,-26.3671875,-602.05078125,-359.86328125,-58.59375,0.0
1734582168.1623077,33.69140625,-397.94921875,-255.37109375,-59.08203125,0.0
1734582168.166214,17.08984375,-67.87109375,-80.078125,-50.78125,0.0
1734582168.1701205,-194.82421875,-513.671875,-336.9140625,-49.8046875,0.0
1734582168.1740267,-96.6796875,-631.8359375,-368.1640625,-49.31640625,0.0
1734582168.177933,149.90234375,87.40234375,3.90625,-47.8515625,0.0
1734582168.1841316,87.890625,145.5078125,72.265625,-30.2734375,0.0
1734582168.188038,-72.75390625,-330.078125,-187.98828125,-34.66796875,0.0
1734582168.1919444,-104.00390625,-332.51953125,-271.97265625,-56.640625,0.0
1734582168.1958506,-2.9296875,100.5859375,-6.8359375,-65.4296875,0.0
1734582168.1997569,34.66796875,73.2421875,44.921875,-49.31640625,0.0
1734582168.2036633,-40.0390625,-466.30859375,-268.06640625,-43.9453125,0.0
1734582168.2075696,-46.38671875,-470.703125,-283.69140625,-61.5234375,0.0
1734582168.2114758,1.953125,85.44921875,-34.1796875,-79.58984375,0.0
1734582168.2153823,-128.41796875,-69.82421875,-136.71875,-87.890625,0.0
1734582168.2192886,-203.61328125,-757.8125,-469.23828125,-56.15234375,0.0
1734582168.2231948,73.73046875,-264.6484375,-203.125,-37.109375,0.0
1734582168.227101,76.171875,148.92578125,43.45703125,-50.29296875,0.0
1734582168.2302675,-86.9140625,-223.14453125,-95.703125,-42.96875,0.0
1734582168.2341738,-50.29296875,-342.28515625,-228.515625,-39.55078125,0.0
1734582168.2380803,85.44921875,42.96875,-34.66796875,-36.62109375,0.0
1734582168.2419865,142.578125,207.51953125,114.2578125,-29.296875,0.0
1734582168.2458928,-48.828125,-360.3515625,-235.83984375,-17.578125,0.0
1734582168.2497993,-161.62109375,-846.6796875,-414.55078125,-9.27734375,0.0
1734582168.2537055,-5.859375,-517.578125,-274.4140625,-8.30078125,0.0
1734582168.2576118,36.1328125,-355.46875,-292.48046875,3.41796875,0.0
1734582168.261518,14.16015625,-516.11328125,-362.3046875,6.34765625,0.0
1734582168.2654245,48.828125,-265.13671875,-145.5078125,-4.39453125,0.0
1734582168.2693307,63.96484375,178.7109375,113.76953125,-4.8828125,0.0
1734582168.273237,5.859375,168.45703125,48.33984375,7.32421875,0.0
1734582168.2761953,-144.04296875,-592.7734375,-423.33984375,17.08984375,0.0
1734582168.2801015,38.57421875,-506.8359375,-344.7265625,14.16015625,0.0
1734582168.284008,167.48046875,155.76171875,69.82421875,6.8359375,0.0
1734582168.2879143,-11.23046875,59.08203125,39.0625,-7.32421875,0.0
1734582168.2918205,-71.2890625,-186.5234375,-161.1328125,-12.6953125,0.0
1734582168.2957268,-32.2265625,-333.0078125,-281.73828125,-9.27734375,0.0
1734582168.2996333,104.00390625,-149.4140625,-177.24609375,-23.92578125,0.0
1734582168.3035395,40.52734375,-96.6796875,-144.53125,-24.4140625,0.0
1734582168.3074458,-224.12109375,-803.7109375,-499.51171875,-17.578125,0.0
1734582168.3113523,-12.6953125,-321.77734375,-212.890625,-25.390625,0.0
1734582168.3152585,97.65625,271.484375,129.8828125,-30.2734375,0.0
1734582168.3191648,24.4140625,-70.80078125,-67.87109375,-25.390625,0.0
1734582168.3222342,50.29296875,-167.48046875,-144.04296875,-41.9921875,0.0
1734582168.3261404,38.57421875,92.7734375,32.2265625,-42.96875,0.0
1734582168.3300467,-19.53125,166.9921875,78.125,-29.296875,0.0
1734582168.333953,-78.61328125,-101.07421875,-79.1015625,-24.90234375,0.0
1734582168.3378594,8.30078125,-190.91796875,-146.484375,-28.3203125,0.0
1734582168.3417656,10.25390625,-322.265625,-226.5625,-28.3203125,0.0
1734582168.345672,-44.921875,-408.203125,-280.76171875,-25.390625,0.0
1734582168.3495781,-167.96875,-693.84765625,-425.78125,-2.9296875,0.0
1734582168.3534846,-91.30859375,-692.3828125,-355.46875,0.0,0.0
1734582168.3573909,175.29296875,62.98828125,11.23046875,-21.484375,0.0
1734582168.3612971,81.0546875,48.33984375,5.37109375,-30.2734375,0.0
1734582168.3652034,-85.44921875,-467.7734375,-303.7109375,-35.15625,0.0
1734582168.3680778,-9.27734375,-221.19140625,-189.453125,-38.57421875,0.0
1734582168.371984,66.89453125,191.89453125,85.9375,-34.1796875,0.0
1734582168.3758903,49.31640625,30.76171875,23.4375,-26.85546875,0.0
1734582168.3797967,32.2265625,-252.9296875,-150.390625,-21.97265625,0.0
1734582168.383703,37.59765625,-82.51953125,-101.5625,-18.06640625,0.0
1734582168.3876092,-46.38671875,-205.078125,-181.640625,-14.6484375,0.0
1734582168.3915155,-105.95703125,-492.67578125,-321.2890625,-2.44140625,0.0
1734582168.395422,-128.90625,-818.359375,-502.44140625,7.8125,0.0
1734582168.3993282,113.28125,-354.98046875,-194.3359375,-9.27734375,0.0
1734582168.4032345,160.15625,188.4765625,132.32421875,-5.859375,0.0
1734582168.4071407,-20.5078125,-64.94140625,-85.9375,8.7890625,0.0
1734582168.4110472,-21.97265625,-161.62109375,-187.01171875,-4.8828125,0.0
1734582168.4137383,60.05859375,110.83984375,11.23046875,-21.484375,0.0
1734582168.4176445,80.078125,137.20703125,104.4921875,-26.3671875,0.0
1734582168.4215508,-28.3203125,-270.01953125,-118.1640625,-8.30078125,0.0
1734582168.4254572,-44.43359375,-237.79296875,-166.9921875,-13.671875,0.0
1734582168.4293635,-37.59765625,-14.16015625,-84.47265625,-39.55078125,0.0
1734582168.4332697,-45.8984375,-279.296875,-241.69921875,-21.484375,0.0
1734582168.437176,-50.78125,-650.87890625,-410.15625,-22.4609375,0.0
1734582168.4410825,-13.18359375,-573.2421875,-295.41015625,-37.59765625,0.0
1734582168.4449887,62.01171875,46.875,21.97265625,-32.2265625,0.0
1734582168.448895,-7.32421875,160.64453125,80.56640625,-17.08984375,0.0
1734582168.4528012,-110.3515625,-476.5625,-309.08203125,-15.13671875,0.0
1734582168.4567077,36.62109375,-414.0625,-271.97265625,-31.73828125,0.0
1734582168.461627,136.23046875,122.0703125,25.87890625,-27.83203125,0.0
1734582168.4655335,-10.25390625,1.953125,10.7421875,-11.23046875,0.0
1734582168.4694397,-153.80859375,-578.61328125,-289.0625,-21.97265625,0.0
1734582168.473346,-13.671875,-217.7734375,-109.86328125,-43.45703125,0.0
1734582168.4772522,119.62890625,156.73828125,110.3515625,-35.15625,0.0
1734582168.4811587,-7.8125,-356.4453125,-220.703125,-22.4609375,0.0
1734582168.485065,-220.703125,-915.52734375,-546.38671875,-22.4609375,0.0
1734582168.4889712,-56.15234375,-501.46484375,-309.08203125,-36.1328125,0.0
1734582168.4928775,101.5625,138.18359375,28.3203125,-24.90234375,0.0
1734582168.496784,41.9921875,-33.69140625,-50.78125,-20.01953125,0.0
1734582168.5006902,41.015625,-186.5234375,-194.3359375,-27.83203125,0.0
1734582168.5045965,55.17578125,106.4453125,-30.76171875,-23.92578125,0.0
1734582168.5113788,6.34765625,197.265625,111.328125,-27.34375,0.0
1734582168.515285,-41.015625,-93.26171875,-61.03515625,-25.87890625,0.0
1734582168.5191915,55.6640625,-177.734375,-144.53125,-15.13671875,0.0
1734582168.5230978,125.48828125,47.36328125,51.26953125,-26.3671875,0.0
1734582168.527004,8.7890625,12.6953125,51.26953125,-29.78515625,0.0
1734582168.5309105,-143.06640625,-440.4296875,-252.44140625,-24.4140625,0.0
1734582168.5348167,-99.12109375,-638.671875,-354.00390625,-20.99609375,0.0
1734582168.538723,67.87109375,-335.9375,-205.56640625,-21.97265625,0.0
1734582168.5426292,87.40234375,-114.2578125,-106.4453125,-22.94921875,0.0
1734582168.5465357,-114.2578125,-686.5234375,-451.171875,-7.32421875,0.0
1734582168.550442,-76.66015625,-691.40625,-381.8359375,-11.71875,0.0
1734582168.5543482,72.75390625,66.89453125,34.66796875,-27.83203125,0.0
1734582168.557859,30.2734375,83.0078125,47.8515625,-31.73828125,0.0
1734582168.5617652,-4.8828125,-328.125,-200.1953125,-29.78515625,0.0
1734582168.5656717,36.1328125,-92.28515625,-120.1171875,-38.0859375,0.0
1734582168.569578,20.01953125,185.546875,102.5390625,-33.69140625,0.0
1734582168.5734842,-63.4765625,-33.69140625,-5.37109375,-23.92578125,0.0
1734582168.5773904,-132.8125,-664.0625,-301.26953125,-19.04296875,0.0
1734582168.581297,-2.44140625,-649.90234375,-320.80078125,-26.3671875,0.0
1734582168.5852032,80.078125,-9.27734375,-54.19921875,-45.41015625,0.0
1734582168.5891094,-74.21875,-64.453125,-34.66796875,-52.734375,0.0
1734582168.5930157,-130.859375,-458.49609375,-248.046875,-42.48046875,0.0
1734582168.5969222,33.69140625,-63.96484375,-64.94140625,-40.52734375,0.0
1734582168.6008284,92.28515625,117.1875,71.2890625,-40.52734375,0.0
1734582168.611458,-89.35546875,-418.45703125,-247.55859375,-36.1328125,0.0
1734582168.6153646,-191.89453125,-724.12109375,-356.93359375,-40.52734375,0.0
1734582168.6192708,-17.578125,-134.765625,-85.9375,-50.78125,0.0
1734582168.623177,47.36328125,157.71484375,-16.6015625,-41.9921875,0.0
1734582168.6270835,-28.80859375,-362.3046875,-250.0,-15.625,0.0
1734582168.6309898,-56.15234375,-806.15234375,-371.09375,-9.27734375,0.0
1734582168.634896,-24.4140625,-499.0234375,-253.90625,-37.109375,0.0
1734582168.6388025,-61.5234375,-307.12890625,-257.8125,-41.9921875,0.0
1734582168.6427088,-94.7265625,-565.4296875,-395.01953125,-23.4375,0.0
1734582168.646615,31.73828125,-432.6171875,-215.8203125,-16.6015625,0.0
1734582168.6505215,136.23046875,166.50390625,125.9765625,-35.64453125,0.0
1734582168.6544278,0.9765625,185.546875,79.58984375,-41.015625,0.0
1734582168.6573508,0.0,-523.4375,0.0,0.0,0.0
1734582168.661257,0.0,-267.578125,0.0,0.0,0.0
1734582168.6651633,0.0,167.96875,0.0,0.0,0.0
1734582168.6690698,0.0,-254.39453125,0.0,0.0,0.0
1734582168.672976,0.0,-338.8671875,0.0,0.0,0.0
1734582168.6768823,0.0,-335.9375,0.0,0.0,0.0
1734582168.6807888,0.0,-197.265625,0.0,0.0,0.0
1734582168.684695,0.0,-107.91015625,0.0,0.0,0.0
1734582168.6886013,0.0,-385.7421875,0.0,0.0,0.0
1734582168.6925077,0.0,12.6953125,0.0,0.0,0.0
1734582168.696414,0.0,288.57421875,0.0,0.0,0.0
1734582168.7003202,0.0,-109.86328125,0.0,0.0,0.0
1734582168.7024117,-23.92578125,-376.46484375,-205.078125,-49.31640625,0.0
1734582168.7063181,85.44921875,11.71875,22.94921875,-59.5703125,0.0
1734582168.7102244,19.04296875,184.5703125,106.93359375,-57.6171875,0.0
1734582168.7141306,-106.4453125,-170.41015625,-53.7109375,-43.9453125,0.0
1734582168.7180371,-112.3046875,-423.828125,-199.21875,-41.015625,0.0
1734582168.7219434,-28.80859375,-427.24609375,-285.15625,-27.83203125,0.0
1734582168.7258496,42.96875,-377.44140625,-262.20703125,-20.01953125,0.0
1734582168.7297559,-126.46484375,-645.01953125,-429.19921875,-31.73828125,0.0
1734582168.7336624,-299.31640625,-1000.0,-619.140625,-36.62109375,0.0
1734582168.7375686,7.32421875,-266.11328125,-114.2578125,-53.7109375,0.0
1734582168.7414749,93.75,186.03515625,130.37109375,-74.21875,0.0
1734582168.7453814,-6.8359375,-178.7109375,-137.20703125,-61.5234375,0.0
1734582168.749585,0.0,55.17578125,1.953125,-61.03515625,0.0
1734582168.7534912,0.0,391.6015625,191.40625,-69.3359375,0.0
1734582168.7573974,0.0,128.41796875,44.43359375,-58.59375,0.0
1734582168.761304,0.0,-474.12109375,-230.46875,-41.9921875,0.0
1734582168.7652102,0.0,-155.76171875,-96.19140625,-33.203125,0.0
1734582168.7691164,0.0,-90.8203125,-101.07421875,-36.62109375,0.0
1734582168.773023,0.0,-458.984375,-311.03515625,-54.6875,0.0
1734582168.7769291,0.0,-795.8984375,-466.796875,-52.24609375,0.0
1734582168.7808354,0.0,-337.890625,-157.71484375,-45.41015625,0.0
1734582168.7847419,0.0,-69.3359375,-83.0078125,-50.29296875,0.0
1734582168.7886481,0.0,-309.5703125,-271.97265625,-39.55078125,0.0
1734582168.7925544,0.0,-172.8515625,-187.5,-22.94921875,0.0
1734582168.7941117,-11.71875,162.59765625,26.3671875,-38.0859375,0.0
1734582168.798018,-1.953125,239.74609375,140.13671875,-58.10546875,0.0
1734582168.8019245,-4.39453125,-85.44921875,-32.71484375,-41.50390625,0.0
1734582168.8058307,41.015625,-37.59765625,-55.17578125,-22.94921875,0.0
1734582168.809737,-18.06640625,119.62890625,56.640625,-35.64453125,0.0
1734582168.8136432,-161.62109375,-222.16796875,-160.64453125,-52.734375,0.0
1734582168.8175497,-169.921875,-631.34765625,-409.66796875,-38.57421875,0.0
1734582168.821456,16.11328125,-496.58203125,-270.5078125,-25.87890625,0.0
1734582168.8253622,122.55859375,95.21484375,62.98828125,-33.203125,0.0
1734582168.8292687,16.6015625,229.4921875,104.00390625,-35.64453125,0.0
1734582168.833175,-186.5234375,-481.4453125,-331.54296875,-24.90234375,0.0
1734582168.8370812,-81.0546875,-569.82421875,-271.484375,-28.3203125,0.0
1734582168.8459582,0.0,-86.42578125,0.0,0.0,0.0
1734582168.8498647,0.0,-160.15625,0.0,0.0,0.0
1734582168.853771,0.0,-315.4296875,0.0,0.0,0.0
1734582168.8576772,0.0,-78.125,0.0,0.0,0.0
1734582168.8615837,0.0,116.69921875,0.0,0.0,0.0
1734582168.86549,0.0,-341.796875,0.0,0.0,0.0
1734582168.8693962,0.0,-875.9765625,0.0,0.0,0.0
1734582168.8733027,0.0,-330.078125,0.0,0.0,0.0
1734582168.877209,0.0,218.75,0.0,0.0,0.0
1734582168.8811152,0.0,-73.2421875,0.0,0.0,0.0
1734582168.8850217,0.0,-231.4453125,0.0,0.0,0.0
1734582168.888928,0.0,93.26171875,0.0,0.0,0.0
1734582168.890452,-6.34765625,183.59375,125.9765625,-18.06640625,0.0
1734582168.8943584,-136.71875,-112.3046875,-71.77734375,-35.64453125,0.0
1734582168.8982646,-116.69921875,-145.5078125,-117.67578125,-43.45703125,0.0
1734582168.902171,-27.34375,-62.98828125,-42.48046875,-28.80859375,0.0
1734582168.9060774,3.90625,-168.9453125,-146.484375,-22.4609375,0.0
1734582168.9099836,-55.17578125,-399.90234375,-272.4609375,-29.296875,0.0
1734582168.91389,-137.6953125,-582.51953125,-340.33203125,-36.62109375,0.0
1734582168.9177964,-43.9453125,-264.6484375,-187.01171875,-38.57421875,0.0
1734582168.9217026,43.45703125,62.98828125,40.0390625,-33.203125,0.0
1734582168.9256089,-56.640625,-384.27734375,-249.51171875,-18.06640625,0.0
1734582168.9295154,-37.109375,-297.8515625,-203.61328125,-15.13671875,0.0
1734582168.9334216,-1.46484375,222.65625,131.8359375,-34.1796875,0.0
1734582168.936506,-100.09765625,63.96484375,50.78125,-33.69140625,0.0
1734582168.9404125,-150.87890625,-547.8515625,-310.546875,-29.78515625,0.0
1734582168.9443188,40.0390625,-237.79296875,-196.77734375,-40.52734375,0.0
1734582168.948225,79.58984375,213.37890625,81.0546875,-42.96875,0.0
1734582168.9521315,-67.87109375,4.8828125,52.734375,-42.48046875,0.0
1734582168.9560378,-341.796875,-785.15625,-473.14453125,-36.1328125,0.0
1734582168.959944,-212.890625,-883.30078125,-467.7734375,-41.50390625,0.0
1734582168.9638505,112.3046875,-162.109375,-38.57421875,-51.26953125,0.0
1734582168.9677567,30.76171875,23.92578125,-9.27734375,-32.2265625,0.0
1734582168.971663,-44.921875,-144.53125,-119.140625,-17.578125,0.0
1734582168.9755695,4.39453125,130.859375,60.546875,-19.04296875,0.0
1734582168.9794757,12.6953125,258.7890625,154.296875,-36.1328125,0.0
1734582168.984738,0.0,9.27734375,0.0,-52.734375,0.0
1734582168.9886444,0.0,-58.59375,0.0,-30.2734375,0.0
1734582168.9925506,0.0,176.26953125,0.0,-35.64453125,0.0
1734582168.996457,0.0,176.26953125,0.0,-50.78125,0.0
1734582169.0003633,0.0,-250.48828125,0.0,-53.22265625,0.0
1734582169.0042696,0.0,-494.62890625,0.0,-55.17578125,0.0
1734582169.008176,0.0,-437.01171875,0.0,-60.546875,0.0
1734582169.0120823,0.0,-396.484375,0.0,-59.08203125,0.0
1734582169.0159886,0.0,-603.02734375,0.0,-48.33984375,0.0
1734582169.019895,0.0,-800.78125,0.0,-55.6640625,0.0
1734582169.0238013,0.0,-208.49609375,0.0,-61.03515625,0.0
1734582169.0277076,0.0,150.87890625,0.0,-49.8046875,0.0
1734582169.03011,-76.171875,-177.734375,-175.29296875,-48.33984375,0.0
1734582169.0340161,-58.10546875,-17.08984375,-132.8125,-33.203125,0.0
1734582169.0379226,-8.7890625,188.4765625,98.14453125,-25.390625,0.0
1734582169.0418289,9.27734375,62.5,36.1328125,-35.15625,0.0
1734582169.0457351,-15.625,-169.43359375,-152.34375,-43.9453125,0.0
1734582169.0496416,-98.14453125,-353.515625,-277.83203125,-42.96875,0.0
1734582169.0535479,-111.328125,-264.6484375,-210.44921875,-28.80859375,0.0
1734582169.057454,-94.23828125,-188.96484375,-136.23046875,-22.4609375,0.0
1734582169.0613604,-62.5,-414.0625,-202.63671875,-28.80859375,0.0
1734582169.0652668,66.40625,-33.69140625,17.578125,-28.3203125,0.0
1734582169.069173,33.203125,257.8125,130.37109375,-30.2734375,0.0
1734582169.0730793,-172.36328125,-74.21875,-67.87109375,-30.76171875,0.0
1734582169.0753787,0.0,-787.109375,-461.42578125,-20.5078125,0.0
1734582169.0792851,0.0,-510.25390625,-335.9375,-39.0625,0.0
1734582169.0831914,0.0,74.21875,-26.3671875,-44.43359375,0.0
1734582169.0870976,0.0,-80.56640625,-56.15234375,-29.296875,0.0
1734582169.091004,0.0,-243.65234375,-187.01171875,-30.76171875,0.0
1734582169.0949104,0.0,-352.5390625,-289.55078125,-28.3203125,0.0
1734582169.0988166,0.0,-318.359375,-273.92578125,-46.875,0.0
1734582169.102723,0.0,-596.19140625,-396.97265625,-30.76171875,0.0
1734582169.1066294,0.0,-668.9453125,-333.984375,-32.71484375,0.0
1734582169.1105356,0.0,44.43359375,55.17578125,-57.6171875,0.0
1734582169.1144419,0.0,100.09765625,63.96484375,-50.78125,0.0
1734582169.1183484,0.0,-250.0,-216.796875,-44.921875,0.0
1734582169.1205554,32.71484375,-5.859375,-92.28515625,-40.52734375,0.0
1734582169.1244617,43.45703125,305.17578125,157.2265625,-44.921875,0.0
1734582169.128368,-82.03125,165.52734375,72.75390625,-35.64453125,0.0
1734582169.1322744,-164.55078125,-245.60546875,-156.73828125,-32.2265625,0.0
1734582169.1361806,-111.81640625,-327.1484375,-231.4453125,-30.2734375,0.0
1734582169.140087,-27.34375,-292.96875,-226.5625,-30.76171875,0.0
1734582169.1439934,-71.77734375,-406.25,-297.36328125,-29.78515625,0.0
1734582169.1478996,-240.234375,-820.3125,-502.9296875,-15.625,0.0
1734582169.1518059,-76.171875,-365.234375,-167.48046875,-33.203125,0.0
1734582169.1557121,75.68359375,235.83984375,154.78515625,-42.96875,0.0
1734582169.1596186,21.484375,64.94140625,10.25390625,-31.25,0.0
1734582169.1635249,20.5078125,-39.0625,-66.89453125,-29.296875,0.0
1734582169.166044,0.0,132.8125,0.0,-27.83203125,0.0
1734582169.1699502,0.0,164.55078125,0.0,-19.53125,0.0
1734582169.1738565,0.0,-215.8203125,0.0,-25.87890625,0.0
1734582169.177763,0.0,-278.3203125,0.0,-45.41015625,0.0
1734582169.1816692,0.0,1.46484375,0.0,-35.64453125,0.0
1734582169.1855755,0.0,-209.9609375,0.0,-29.78515625,0.0
1734582169.1894817,0.0,-637.6953125,0.0,-22.94921875,0.0
1734582169.1933882,0.0,-748.53515625,0.0,-26.3671875,0.0
1734582169.1972945,0.0,-91.30859375,0.0,-46.38671875,0.0
1734582169.2012007,0.0,253.41796875,0.0,-52.24609375,0.0
1734582169.2051072,0.0,-282.71484375,0.0,-45.41015625,0.0
1734582169.2090135,0.0,-268.06640625,0.0,-31.73828125,0.0
1734582169.2158625,3.41796875,238.28125,135.25390625,-41.50390625,0.0
1734582169.2197688,-6.34765625,165.0390625,73.2421875,-44.43359375,0.0
1734582169.223675,-37.59765625,-186.5234375,-149.90234375,-31.25,0.0
1734582169.2275815,-14.16015625,45.8984375,21.97265625,-39.0625,0.0
1734582169.2314878,-67.87109375,224.12109375,140.13671875,-46.38671875,0.0
1734582169.235394,-168.45703125,-258.7890625,-183.10546875,-35.15625,0.0
1734582169.2393005,-221.19140625,-846.19140625,-520.99609375,-19.53125,0.0
1734582169.2432067,32.71484375,-321.77734375,-171.38671875,-47.8515625,0.0
1734582169.247113,104.00390625,298.828125,166.015625,-66.40625,0.0
1734582169.2510192,-96.6796875,20.5078125,-27.34375,-52.24609375,0.0
1734582169.2549257,-134.27734375,-392.578125,-276.3671875,-50.29296875,0.0
1734582169.258832,18.06640625,-45.41015625,-68.84765625,-62.98828125,0.0
1734582169.2602506,70.80078125,291.015625,142.08984375,-69.3359375,0.0
1734582169.2641568,-55.6640625,21.97265625,-39.55078125,-57.6171875,0.0
1734582169.268063,-113.28125,-93.75,-71.2890625,-55.17578125,0.0
1734582169.2719693,-77.1484375,138.671875,117.1875,-58.10546875,0.0
1734582169.2758758,-55.17578125,123.53515625,75.68359375,-43.9453125,0.0
1734582169.279782,-95.703125,-321.2890625,-182.6171875,-49.8046875,0.0
1734582169.2836883,-126.953125,-550.29296875,-320.80078125,-61.03515625,0.0
1734582169.2875946,-84.9609375,-280.2734375,-185.05859375,-54.19921875,0.0
1734582169.291501,-81.0546875,28.3203125,28.3203125,-58.10546875,0.0
1734582169.2954073,-163.57421875,-386.23046875,-259.27734375,-53.22265625,0.0
1734582169.2993135,-52.24609375,-275.390625,-191.40625,-70.80078125,0.0
1734582169.30322,-6.8359375,217.7734375,134.765625,-101.5625,0.0
1734582169.3074214,-164.55078125,68.84765625,52.24609375,-118.1640625,0.0
1734582169.3113277,-361.81640625,-695.80078125,-424.31640625,-96.19140625,0.0
1734582169.3152342,-158.69140625,-529.78515625,-327.63671875,-67.87109375,0.0
1734582169.3191404,66.89453125,186.03515625,123.53515625,-52.734375,0.0
1734582169.3230467,-81.0546875,29.78515625,-4.39453125,-45.41015625,0.0
1734582169.326953,-259.27734375,-619.140625,-300.78125,-68.359375,0.0
1734582169.3308594,-202.63671875,-488.76953125,-264.16015625,-95.703125,0.0
1734582169.3347657,-61.03515625,172.8515625,20.99609375,-105.95703125,0.0
1734582169.338672,-81.0546875,-35.64453125,-43.9453125,-57.12890625,0.0
1734582169.3425784,-185.05859375,-695.3125,-404.296875,-34.66796875,0.0
1734582169.3464847,-70.3125,-192.3828125,-115.72265625,-68.84765625,0.0
1734582169.350391,-74.70703125,198.2421875,140.13671875,-74.21875,0.0
1734582169.3540215,-166.9921875,-88.37890625,-77.1484375,-68.359375,0.0
1734582169.3579278,-64.453125,-132.8125,-156.73828125,-66.89453125,0.0
1734582169.361834,10.7421875,133.30078125,45.41015625,-65.91796875,0.0
1734582169.3657403,-84.9609375,187.5,107.91015625,-60.546875,0.0
1734582169.3696468,-204.58984375,-203.125,-114.74609375,-41.50390625,0.0
1734582169.373553,-165.52734375,-491.2109375,-318.359375,-40.0390625,0.0
1734582169.3774593,-43.9453125,-404.296875,-286.1328125,-57.6171875,0.0
1734582169.3813658,-3.41796875,-333.0078125,-273.4375,-30.76171875,0.0
1734582169.385272,-140.625,-644.04296875,-440.4296875,5.37109375,0.0
1734582169.3891783,-144.04296875,-689.453125,-365.72265625,-34.1796875,0.0
1734582169.3930845,40.52734375,56.15234375,-16.11328125,-92.28515625,0.0
1734582169.396991,35.15625,151.85546875,18.5546875,-80.56640625,0.0
1734582169.4026704,-41.015625,-490.72265625,-380.859375,-40.52734375,0.0
1734582169.4065766,54.6875,-230.46875,-226.07421875,-35.64453125,0.0
1734582169.410483,65.91796875,202.63671875,105.95703125,-39.55078125,0.0
1734582169.4143891,-20.5078125,-0.48828125,-3.41796875,-30.76171875,0.0
1734582169.4182956,-36.62109375,-520.99609375,-245.1171875,-24.4140625,0.0
1734582169.4222019,65.91796875,-510.7421875,-329.58984375,-44.921875,0.0
1734582169.4261081,66.40625,-372.55859375,-278.3203125,-68.84765625,0.0
1734582169.4300146,-69.82421875,-503.90625,-314.453125,-71.2890625,0.0
1734582169.4339209,-187.5,-855.95703125,-532.71484375,-45.41015625,0.0
1734582169.437827,105.46875,-308.10546875,-182.6171875,-41.9921875,0.0
1734582169.4417336,233.3984375,269.04296875,154.296875,-72.265625,0.0
1734582169.4456398,73.2421875,0.0,-35.64453125,-72.265625,0.0
1734582169.453083,0.0,-160.64453125,-189.94140625,-66.40625,0.0
1734582169.4569895,0.0,88.8671875,-61.5234375,-90.8203125,0.0
1734582169.4608958,0.0,178.7109375,73.2421875,-105.46875,0.0
1734582169.464802,0.0,-71.2890625,-61.5234375,-88.37890625,0.0
1734582169.4687085,0.0,-229.98046875,-199.70703125,-70.80078125,0.0
1734582169.4726148,0.0,-416.015625,-295.41015625,-55.6640625,0.0
1734582169.476521,0.0,-490.234375,-335.44921875,-66.89453125,0.0
1734582169.4804273,0.0,-629.39453125,-403.3203125,-92.28515625,0.0
1734582169.4843338,0.0,-324.21875,-211.42578125,-96.6796875,0.0
1734582169.48824,0.0,154.296875,59.08203125,-83.49609375,0.0
1734582169.4921463,0.0,72.75390625,30.2734375,-73.73046875,0.0
1734582169.4960527,0.0,-658.203125,-453.125,-55.6640625,0.0
1734582169.4979312,-222.16796875,-606.93359375,-378.90625,-57.6171875,0.0
1734582169.5018375,-4.8828125,166.50390625,2.9296875,-80.56640625,0.0
1734582169.5057437,-128.90625,85.44921875,-40.52734375,-68.84765625,0.0
1734582169.5096502,-262.6953125,-281.73828125,-158.69140625,-53.7109375,0.0
1734582169.5135565,-205.56640625,-36.1328125,-34.1796875,-21.97265625,0.0
1734582169.5174627,-205.078125,-117.67578125,-121.58203125,-16.11328125,0.0
1734582169.5213692,-177.734375,-482.91015625,-333.984375,-11.71875,0.0
1734582169.5252755,-120.60546875,-516.11328125,-262.20703125,5.37109375,0.0
1734582169.5291817,-116.69921875,-95.703125,-52.24609375,-12.6953125,0.0
1734582169.5330882,-135.25390625,251.46484375,120.60546875,-24.4140625,0.0
1734582169.5369945,-147.94921875,26.3671875,9.27734375,-27.34375,0.0
1734582169.5409007,-49.31640625,-253.90625,-150.390625,-17.578125,0.0
1734582169.5452218,66.40625,125.9765625,70.3125,-16.11328125,0.0
1734582169.549128,21.484375,337.890625,197.75390625,-18.06640625,0.0
1734582169.5530343,-165.52734375,-218.75,-79.1015625,-5.37109375,0.0
1734582169.5569408,-185.546875,-667.48046875,-301.7578125,-4.39453125,0.0
1734582169.560847,68.359375,-129.39453125,-12.6953125,-9.27734375,0.0
1734582169.5647533,72.75390625,-63.96484375,-32.2265625,7.8125,0.0
1734582169.5686598,-82.51953125,-575.1953125,-331.54296875,5.859375,0.0
1734582169.572566,-49.31640625,-574.70703125,-255.37109375,0.0,0.0
1734582169.5764723,124.51171875,169.921875,107.421875,1.953125,0.0
1734582169.5803785,171.38671875,332.03125,151.85546875,-2.9296875,0.0
1734582169.584285,78.125,-184.08203125,-117.67578125,15.13671875,0.0
1734582169.5881913,81.0546875,-86.42578125,-9.765625,20.5078125,0.0
1734582169.592003,116.69921875,308.10546875,181.15234375,-1.953125,0.0
1734582169.5959094,49.8046875,133.30078125,52.24609375,-19.53125,0.0
1734582169.5998156,40.0390625,-240.234375,-145.01953125,-36.62109375,0.0
1734582169.603722,180.17578125,20.01953125,33.69140625,-26.3671875,0.0
1734582169.6076283,180.17578125,155.2734375,109.375,-12.6953125,0.0
1734582169.6115346,-22.94921875,-318.359375,-184.5703125,-38.0859375,0.0
1734582169.615441,-113.76953125,-698.2421875,-334.9609375,-49.8046875,0.0
1734582169.6193473,100.5859375,-337.40234375,-187.5,-24.90234375,0.0
1734582169.6232536,262.6953125,220.703125,117.1875,-0.9765625,0.0
1734582169.6271598,104.00390625,-19.53125,-18.06640625,16.11328125,0.0
1734582169.6310663,-135.7421875,-831.54296875,-492.67578125,24.90234375,0.0
1734582169.6349726,43.9453125,-429.6875,-236.81640625,0.0,0.0
1734582169.636255,179.19921875,267.08984375,152.34375,-28.3203125,0.0
1734582169.6401613,94.23828125,43.9453125,-16.6015625,-42.48046875,0.0
1734582169.6440675,79.1015625,-222.65625,-156.73828125,-34.1796875,0.0
1734582169.647974,99.609375,109.86328125,75.68359375,-18.06640625,0.0
1734582169.6518803,50.29296875,260.25390625,132.32421875,-23.92578125,0.0
1734582169.6557865,-41.9921875,-312.01171875,-171.38671875,-27.34375,0.0
1734582169.659693,25.390625,-625.9765625,-307.12890625,-6.34765625,0.0
1734582169.6635993,108.3984375,-242.67578125,-89.84375,-21.484375,0.0
1734582169.6675055,31.25,-85.44921875,-2.9296875,-27.83203125,0.0
1734582169.6714118,-135.7421875,-573.2421875,-348.6328125,-17.08984375,0.0
1734582169.6753182,-15.625,-591.796875,-286.1328125,-24.4140625,0.0
1734582169.6792245,236.81640625,219.7265625,168.45703125,-25.87890625,0.0
1734582169.685265,155.2734375,260.7421875,116.2109375,-9.27734375,0.0
1734582169.6891713,-79.1015625,-460.9375,-347.16796875,-12.6953125,0.0
1734582169.6930778,-39.0625,-333.0078125,-265.625,-32.2265625,0.0
1734582169.696984,131.8359375,277.34375,116.2109375,-18.5546875,0.0
1734582169.7008903,131.8359375,204.58984375,83.984375,-4.39453125,0.0
1734582169.7047968,-5.37109375,-487.3046875,-237.3046875,-15.13671875,0.0
1734582169.708703,62.98828125,-353.515625,-203.125,-19.04296875,0.0
1734582169.7126093,141.11328125,273.4375,119.140625,-3.41796875,0.0
1734582169.7165158,32.71484375,47.36328125,10.7421875,-7.8125,0.0
1734582169.720422,52.24609375,-334.47265625,-161.1328125,-17.08984375,0.0
1734582169.7243283,166.015625,72.75390625,99.12109375,-28.3203125,0.0
1734582169.7282345,50.29296875,101.5625,52.734375,-30.2734375,0.0
1734582169.7312794,-86.42578125,-312.01171875,-229.4921875,-15.625,0.0
1734582169.7351856,-13.671875,-404.78515625,-210.9375,-19.04296875,0.0
1734582169.7390919,156.25,108.3984375,84.47265625,-47.36328125,0.0
1734582169.7429981,174.8046875,314.453125,162.59765625,-41.50390625,0.0
1734582169.7469046,32.71484375,-110.3515625,-45.41015625,-25.87890625,0.0
1734582169.7508109,-58.59375,-381.34765625,-227.5390625,-23.4375,0.0
1734582169.754717,-1.46484375,-296.38671875,-199.70703125,-16.6015625,0.0
1734582169.7586236,96.6796875,-228.02734375,-178.22265625,-20.01953125,0.0
1734582169.7625299,94.23828125,-408.69140625,-279.78515625,-16.6015625,0.0
1734582169.766436,110.3515625,-193.359375,-93.75,-23.92578125,0.0
1734582169.7703424,116.69921875,313.96484375,158.203125,-17.08984375,0.0
1734582169.7742488,71.2890625,314.94140625,134.27734375,-20.5078125,0.0
1734582169.7795262,-19.53125,-462.40234375,-290.52734375,-20.01953125,0.0
1734582169.7834325,151.85546875,-453.61328125,-265.13671875,-13.671875,0.0
1734582169.787339,194.82421875,92.7734375,53.22265625,-28.3203125,0.0
1734582169.7912452,-12.20703125,-161.62109375,-121.58203125,-33.69140625,0.0
1734582169.7951515,-7.32421875,-195.80078125,-160.15625,-30.76171875,0.0
1734582169.7990577,40.0390625,-179.6875,-149.90234375,-31.25,0.0
1734582169.8029642,118.1640625,-111.81640625,-121.58203125,-33.69140625,0.0
1734582169.8068705,63.4765625,-5.37109375,13.18359375,-41.015625,0.0
1734582169.8107767,-158.69140625,-704.58984375,-364.2578125,-17.578125,0.0
1734582169.8146832,51.7578125,-245.1171875,-115.234375,3.41796875,0.0
1734582169.8185894,178.7109375,437.5,225.09765625,-14.6484375,0.0
1734582169.8224957,82.03125,121.09375,4.8828125,-18.06640625,0.0
1734582169.8247573,76.171875,0.0,-14.6484375,-40.52734375,0.0
1734582169.8286638,18.5546875,263.671875,133.30078125,-53.7109375,0.0
1734582169.83257,-76.171875,313.96484375,136.23046875,-36.1328125,0.0
1734582169.8364763,-56.15234375,54.19921875,20.99609375,-35.64453125,0.0
1734582169.8403828,48.828125,-55.17578125,23.92578125,-44.921875,0.0
1734582169.844289,-8.7890625,-157.71484375,-41.015625,-49.31640625,0.0
1734582169.8481953,-115.234375,-204.1015625,-147.4609375,-46.875,0.0
1734582169.8521018,-229.4921875,-481.93359375,-303.22265625,-41.9921875,0.0
1734582169.856008,-145.5078125,-458.0078125,-198.2421875,-54.19921875,0.0
1734582169.8599143,74.21875,211.42578125,144.53125,-58.10546875,0.0
1734582169.8638206,18.5546875,334.47265625,152.83203125,-39.0625,0.0
1734582169.867727,-236.81640625,-409.1796875,-244.140625,-20.01953125,0.0
1734582169.8700006,-202.63671875,-491.2109375,-247.0703125,-33.203125,0.0
1734582169.8739069,-4.8828125,328.61328125,176.26953125,-45.41015625,0.0
1734582169.8778133,-47.36328125,230.46875,76.66015625,-41.9921875,0.0
1734582169.8817196,-148.92578125,-405.2734375,-224.609375,-35.64453125,0.0
1734582169.8856258,-111.328125,-30.76171875,19.53125,-41.9921875,0.0
1734582169.889532,-187.5,76.66015625,42.48046875,-42.48046875,0.0
1734582169.8934386,-267.08984375,-325.68359375,-234.375,-27.83203125,0.0
1734582169.8973448,-277.34375,-748.53515625,-417.96875,-23.92578125,0.0
1734582169.901251,-78.61328125,-339.84375,-107.91015625,-45.41015625,0.0
1734582169.9051576,-60.05859375,91.796875,93.26171875,-47.8515625,0.0
1734582169.9090638,-202.1484375,44.43359375,7.8125,-27.34375,0.0
1734582169.91297,-164.0625,91.796875,20.99609375,-25.390625,0.0
1734582169.9152682,-42.48046875,330.078125,124.0234375,-40.52734375,0.0
1734582169.9191744,-50.78125,363.28125,143.06640625,-48.33984375,0.0
1734582169.9230807,-197.265625,74.70703125,-36.1328125,-53.7109375,0.0
1734582169.9269872,-221.6796875,116.2109375,-28.3203125,-35.64453125,0.0
1734582169.9308934,-174.8046875,236.81640625,88.8671875,-15.13671875,0.0
1734582169.9347997,-147.4609375,-33.203125,-88.37890625,-8.7890625,0.0
1734582169.9387062,-163.57421875,-503.90625,-355.95703125,-15.13671875,0.0
1734582169.9426124,-128.90625,-558.10546875,-262.20703125,-31.25,0.0
1734582169.9465187,-56.15234375,207.03125,115.72265625,-54.19921875,0.0
1734582169.950425,-126.953125,366.69921875,135.7421875,-49.8046875,0.0
1734582169.9543314,-140.13671875,-125.48828125,-145.99609375,-18.06640625,0.0
1734582169.9582376,1.953125,-39.55078125,-34.66796875,-31.25,0.0
1734582169.9628427,3.90625,111.328125,79.1015625,-62.01171875,0.0
1734582169.966749,-79.1015625,135.7421875,47.36328125,-67.87109375,0.0
1734582169.9706552,-134.765625,-7.8125,-57.6171875,-61.03515625,0.0
1734582169.9745615,-21.97265625,190.91796875,60.546875,-60.05859375,0.0
1734582169.978468,64.453125,390.625,184.08203125,-61.5234375,0.0
1734582169.9823742,-90.33203125,-87.40234375,-73.2421875,-58.59375,0.0
1734582169.9862804,-302.24609375,-791.50390625,-460.9375,-50.29296875,0.0
1734582169.990187,-110.3515625,-238.28125,-111.81640625,-43.45703125,0.0
1734582169.9940932,51.7578125,405.76171875,205.56640625,-47.36328125,0.0
1734582169.9979994,8.30078125,118.1640625,14.6484375,-48.828125,0.0
1734582170.0019057,15.625,13.671875,-27.34375,-59.08203125,0.0
1734582170.0058122,-20.5078125,272.4609375,115.72265625,-71.77734375,0.0
1734582170.0076833,-92.7734375,357.421875,151.85546875,-58.59375,0.0
1734582170.0115895,-125.48828125,110.3515625,-16.6015625,-49.8046875,0.0
1734582170.015496,-62.5,-85.44921875,-65.4296875,-54.6875,0.0
1734582170.0194023,-38.57421875,-61.03515625,12.20703125,-52.24609375,0.0
1734582170.0233085,-113.28125,22.94921875,30.76171875,-57.6171875,0.0
1734582170.0272148,-254.39453125,-357.421875,-186.03515625,-50.78125,0.0
1734582170.0311213,-207.03125,-594.7265625,-326.171875,-48.33984375,0.0
1734582170.0350275,-2.44140625,-165.52734375,-104.00390625,-46.38671875,0.0
1734582170.0389338,37.59765625,278.3203125,151.3671875,-26.3671875,0.0
1734582170.04284,-222.65625,-287.59765625,-163.57421875,-25.87890625,0.0
1734582170.0467465,-257.8125,-640.13671875,-322.265625,-63.4765625,0.0
1734582170.0506527,-56.640625,63.96484375,0.0,-77.63671875,0.0
1734582170.0548575,-25.390625,205.56640625,76.171875,-71.2890625,0.0
1734582170.0587637,-73.73046875,-111.328125,-119.62890625,-72.75390625,0.0
1734582170.0626702,-89.84375,139.16015625,37.109375,-71.2890625,0.0
1734582170.0665765,-115.72265625,397.4609375,165.52734375,-65.91796875,0.0
1734582170.0704827,-156.25,186.5234375,42.96875,-58.10546875,0.0
1734582170.074389,-182.6171875,-410.15625,-202.1484375,-57.6171875,0.0
1734582170.0782955,-108.3984375,-443.84765625,-284.66796875,-55.6640625,0.0
1734582170.0822017,-46.875,58.59375,-51.7578125,-38.57421875,0.0
1734582170.086108,-165.52734375,57.12890625,9.27734375,-31.25,0.0
1734582170.0900142,-291.9921875,-624.0234375,-342.28515625,-38.57421875,0.0
1734582170.0939207,-38.57421875,-118.1640625,-69.82421875,-75.68359375,0.0
1734582170.097827,72.265625,444.3359375,206.54296875,-77.1484375,0.0
1734582170.1016703,-45.41015625,182.12890625,24.4140625,-30.2734375,0.0
1734582170.1055768,-104.00390625,113.76953125,7.32421875,-32.2265625,0.0
1734582170.109483,-130.859375,333.984375,124.51171875,-74.70703125,0.0
1734582170.1133893,-102.5390625,383.30078125,156.25,-87.890625,0.0
1734582170.1172955,-107.91015625,-34.66796875,-13.18359375,-72.265625,0.0
1734582170.121202,-160.15625,-390.13671875,-206.54296875,-87.40234375,0.0
1734582170.1251082,-205.56640625,-302.24609375,-236.328125,-111.328125,0.0
1734582170.1290145,-208.0078125,-156.73828125,-201.171875,-111.328125,0.0
1734582170.1329207,-255.37109375,-434.08203125,-323.2421875,-98.6328125,0.0
1734582170.1368272,-211.9140625,-725.09765625,-341.30859375,-108.3984375,0.0
1734582170.1407335,-10.25390625,73.2421875,50.29296875,-110.83984375,0.0
1734582170.1446397,-84.47265625,370.1171875,136.23046875,-79.1015625,0.0
1734582170.148288,-225.09765625,-32.2265625,-69.82421875,-86.42578125,0.0
1734582170.1521943,-135.7421875,146.97265625,73.73046875,-125.48828125,0.0
1734582170.1561005,-20.01953125,418.9453125,183.10546875,-124.51171875,0.0
1734582170.160007,-79.1015625,297.8515625,95.703125,-120.60546875,0.0
1734582170.1639132,-230.95703125,-35.64453125,-46.38671875,-124.0234375,0.0
1734582170.1678195,-291.9921875,-243.65234375,-173.828125,-113.76953125,0.0
1734582170.1717257,-183.59375,-44.43359375,-50.78125,-110.3515625,0.0
1734582170.1756322,-115.234375,53.7109375,52.734375,-103.515625,0.0
1734582170.1795385,-296.38671875,-718.75,-380.859375,-106.4453125,0.0
1734582170.1834447,-175.78125,-258.7890625,-122.0703125,-120.1171875,0.0
1734582170.187351,-123.046875,413.57421875,201.171875,-112.3046875,0.0
1734582170.1912575,-224.12109375,116.69921875,25.87890625,-111.328125,0.0
1734582170.1947577,-138.671875,-175.78125,-110.3515625,-113.76953125,0.0
1734582170.198664,-48.33984375,20.99609375,-6.34765625,-112.79296875,0.0
1734582170.2025702,-98.14453125,312.98828125,144.53125,-104.4921875,0.0
1734582170.2064764,-217.7734375,75.68359375,-8.7890625,-111.328125,0.0
1734582170.210383,-190.91796875,-57.12890625,-50.78125,-119.62890625,0.0
1734582170.2142892,-104.00390625,-144.53125,-92.7734375,-98.6328125,0.0
1734582170.2181954,-81.54296875,-155.76171875,-136.23046875,-72.265625,0.0
1734582170.2221017,-203.125,-459.47265625,-286.1328125,-85.44921875,0.0
1734582170.2260082,-183.59375,-498.046875,-192.3828125,-110.83984375,0.0
1734582170.2299144,-16.6015625,243.1640625,168.45703125,-109.375,0.0
1734582170.2338207,-42.48046875,300.78125,132.32421875,-138.671875,0.0
1734582170.237727,-152.83203125,-279.78515625,-204.1015625,-134.27734375,0.0
1734582170.2409024,-109.375,-81.0546875,-78.61328125,-84.47265625,0.0
1734582170.2448087,-81.54296875,378.41796875,220.21484375,-79.58984375,0.0
1734582170.248715,-183.10546875,194.3359375,92.7734375,-112.3046875,0.0
1734582170.2526214,-299.31640625,-658.69140625,-377.44140625,-106.4453125,0.0
1734582170.2565277,-113.28125,-468.26171875,-238.28125,-101.07421875,0.0
1734582170.260434,-71.77734375,-25.87890625,-31.25,-107.421875,0.0
1734582170.2643402,-244.62890625,-284.1796875,-188.4765625,-105.46875,0.0
1734582170.2682467,-371.58203125,-856.93359375,-480.95703125,-108.3984375,0.0
1734582170.272153,-91.30859375,-572.265625,-274.90234375,-125.0,0.0
1734582170.2760592,113.76953125,306.640625,166.015625,-120.1171875,0.0
1734582170.2799654,-74.70703125,214.84375,54.19921875,-101.07421875,0.0
1734582170.2838717,-154.296875,63.4765625,17.08984375,-101.07421875,0.0
1734582170.289247,-136.71875,299.8046875,141.6015625,-104.4921875,0.0
1734582170.2931533,-87.40234375,325.1953125,133.30078125,-99.609375,0.0
1734582170.2970598,-89.35546875,57.6171875,-6.8359375,-100.5859375,0.0
1734582170.300966,-143.06640625,66.40625,26.3671875,-110.83984375,0.0
1734582170.3048723,-195.80078125,184.08203125,95.703125,-106.93359375,0.0
1734582170.3087785,-241.2109375,-141.6015625,-133.7890625,-110.83984375,0.0
1734582170.312685,-228.02734375,-491.2109375,-303.22265625,-114.74609375,0.0
1734582170.3165913,-145.99609375,-599.12109375,-309.5703125,-108.88671875,0.0
1734582170.3204975,-38.57421875,-110.3515625,-76.171875,-107.421875,0.0
1734582170.3244038,-127.9296875,267.08984375,109.375,-117.67578125,0.0
1734582170.3283103,-343.75,-307.6171875,-185.546875,-113.28125,0.0
1734582170.3322165,-235.83984375,-308.10546875,-82.03125,-142.08984375,0.0
1734582170.336944,-49.31640625,309.08203125,193.84765625,-171.38671875,0.0
1734582170.3408506,-163.57421875,206.0546875,81.0546875,-159.1796875,0.0
1734582170.3447568,-355.95703125,-396.484375,-280.2734375,-159.1796875,0.0
1734582170.348663,-285.15625,-106.93359375,-87.890625,-152.34375,0.0
1734582170.3525693,-219.7265625,264.6484375,169.921875,-154.78515625,0.0
1734582170.3564758,-285.15625,-217.7734375,-129.8828125,-159.66796875,0.0
1734582170.360382,-292.96875,-510.25390625,-196.2890625,-156.73828125,0.0
1734582170.3642883,-244.140625,-17.578125,46.38671875,-180.6640625,0.0
1734582170.3681948,-294.921875,300.29296875,157.2265625,-187.01171875,0.0
1734582170.372101,-410.15625,-45.8984375,-22.94921875,-187.5,0.0
1734582170.3760073,-493.65234375,-788.57421875,-473.14453125,-188.4765625,0.0
1734582170.3799136,-238.28125,-255.37109375,-141.6015625,-171.38671875,0.0
1734582170.3818817,-187.98828125,324.21875,187.98828125,-168.9453125,0.0
1734582170.385788,-372.55859375,-3.41796875,-21.484375,-155.76171875,0.0
1734582170.3896942,-339.35546875,-132.32421875,-53.7109375,-143.06640625,0.0
1734582170.3936005,-187.5,156.25,90.33203125,-128.41796875,0.0
1734582170.397507,-172.8515625,150.87890625,55.17578125,-105.95703125,0.0
1734582170.4014132,-301.26953125,-369.62890625,-197.75390625,-102.05078125,0.0
1734582170.4053195,-352.5390625,-616.2109375,-318.84765625,-120.60546875,0.0
1734582170.4092257,-258.30078125,-254.8828125,-139.6484375,-139.6484375,0.0
1734582170.4131322,-119.140625,212.40234375,125.48828125,-127.44140625,0.0
1734582170.4170384,-220.703125,-329.1015625,-188.4765625,-81.0546875,0.0
1734582170.4209447,-227.05078125,-635.25390625,-291.9921875,-53.7109375,0.0
1734582170.424851,-108.88671875,146.484375,125.48828125,-89.84375,0.0
1734582170.431524,-223.6328125,97.16796875,74.70703125,-107.91015625,0.0
1734582170.4354303,-236.81640625,-330.56640625,-220.21484375,-87.40234375,0.0
1734582170.4393365,-109.375,-29.296875,-57.6171875,-82.51953125,0.0
1734582170.4432428,-103.02734375,256.34765625,144.53125,-69.82421875,0.0
1734582170.4471493,-220.21484375,93.75,54.19921875,-42.48046875,0.0
1734582170.4510555,-345.21484375,-564.453125,-250.48828125,-41.9921875,0.0
1734582170.4549618,-149.90234375,-451.171875,-263.18359375,-45.41015625,0.0
1734582170.458868,20.5078125,193.359375,83.0078125,-44.921875,0.0
1734582170.4627745,-128.90625,-8.30078125,0.0,-34.1796875,0.0
1734582170.4666808,-236.81640625,-382.8125,-207.03125,-29.78515625,0.0
1734582170.470587,-176.26953125,-82.51953125,-0.48828125,-21.484375,0.0
1734582170.4744933,-131.34765625,7.8125,24.4140625,-2.44140625,0.0
1734582170.4780958,-103.515625,-170.41015625,-85.44921875,-4.39453125,0.0
1734582170.482002,-95.703125,-304.6875,-158.203125,1.953125,0.0
1734582170.4859083,-91.30859375,31.25,43.45703125,12.20703125,0.0
1734582170.4898145,-127.9296875,185.546875,131.34765625,28.3203125,0.0
1734582170.493721,-175.78125,-301.7578125,-112.79296875,45.41015625,0.0
1734582170.4976273,-108.3984375,-752.44140625,-319.3359375,54.19921875,0.0
1734582170.5015335,-8.30078125,-466.796875,-257.32421875,64.94140625,0.0
1734582170.5054398,-72.265625,-312.98828125,-248.046875,83.0078125,0.0
1734582170.5093462,-166.015625,-542.48046875,-364.74609375,89.35546875,0.0
1734582170.5132525,-50.29296875,-264.6484375,-135.7421875,72.75390625,0.0
1734582170.5171587,111.328125,249.51171875,155.2734375,74.70703125,0.0
1734582170.521065,62.98828125,271.97265625,124.0234375,86.42578125,0.0
1734582170.5291326,-149.90234375,-471.19140625,-308.10546875,116.2109375,0.0
1734582170.5330389,-73.2421875,-564.453125,-297.36328125,128.41796875,0.0
1734582170.536945,99.12109375,169.43359375,119.62890625,115.234375,0.0
1734582170.5408516,65.91796875,182.6171875,92.28515625,110.3515625,0.0
1734582170.5447578,4.8828125,-154.296875,-111.81640625,89.35546875,0.0
1734582170.548664,-56.15234375,-338.37890625,-244.140625,111.328125,0.0
1734582170.5525703,-42.96875,-179.6875,-143.06640625,127.9296875,0.0
1734582170.5564768,-82.51953125,-167.48046875,-71.2890625,118.65234375,0.0
1734582170.560383,-182.12890625,-785.64453125,-411.1328125,153.3203125,0.0
1734582170.5642893,23.92578125,-267.08984375,-125.0,144.53125,0.0
1734582170.5681958,73.2421875,356.4453125,192.3828125,117.1875,0.0
1734582170.572102,-80.078125,35.15625,-31.73828125,123.53515625,0.0
1734582170.5744987,-44.921875,-55.6640625,-68.359375,102.05078125,0.0
1734582170.578405,69.82421875,235.83984375,109.86328125,96.19140625,0.0
1734582170.5823112,80.078125,290.52734375,115.72265625,112.3046875,0.0
1734582170.5862176,-31.25,-20.5078125,-27.34375,102.05078125,0.0
1734582170.590124,-76.171875,-243.1640625,-123.046875,88.8671875,0.0
1734582170.5940301,-41.50390625,-232.91015625,-164.0625,97.16796875,0.0
1734582170.5979366,-1.953125,-278.80859375,-215.8203125,83.984375,0.0
1734582170.6018429,16.6015625,-499.0234375,-307.12890625,97.65625,0.0
1734582170.6057491,88.37890625,-236.328125,-102.05078125,116.69921875,0.0
1734582170.6096554,117.1875,264.16015625,150.87890625,116.2109375,0.0
1734582170.6135619,16.11328125,72.265625,58.10546875,125.0,0.0
1734582170.617468,-21.97265625,-498.53515625,-312.01171875,137.6953125,0.0
1734582170.6199172,169.43359375,-177.734375,-142.578125,145.5078125,0.0
1734582170.6238236,222.65625,358.3984375,190.4296875,146.97265625,0.0
1734582170.62773,77.1484375,165.52734375,81.54296875,137.6953125,0.0
1734582170.6316361,-62.98828125,-664.0625,-384.765625,147.4609375,0.0
1734582170.6355424,116.2109375,-433.10546875,-219.7265625,149.90234375,0.0
1734582170.639449,222.16796875,-30.2734375,13.18359375,142.578125,0.0
1734582170.6433551,124.0234375,-335.9375,-211.42578125,149.90234375,0.0
1734582170.6472614,-31.73828125,-783.69140625,-435.05859375,165.52734375,0.0
1734582170.6511676,116.2109375,-282.2265625,-95.703125,170.8984375,0.0
1734582170.6550741,278.3203125,380.37109375,203.61328125,168.45703125,0.0
1734582170.6589804,216.30859375,154.296875,54.6875,167.48046875,0.0
1734582170.6628866,216.796875,42.48046875,41.9921875,148.92578125,0.0
1734582170.6650474,207.51953125,264.6484375,139.6484375,132.32421875,0.0
1734582170.6689537,144.53125,120.60546875,100.09765625,151.85546875,0.0
1734582170.67286,155.2734375,-233.88671875,-89.35546875,152.34375,0.0
1734582170.6767662,276.3671875,-6.34765625,-6.8359375,143.06640625,0.0
1734582170.6806726,262.6953125,192.87109375,149.4140625,145.99609375,0.0
1734582170.684579,137.6953125,-137.20703125,-31.25,145.01953125,0.0
1734582170.6884851,66.40625,-523.92578125,-291.50390625,131.8359375,0.0
1734582170.6923914,143.06640625,-578.125,-259.27734375,123.53515625,0.0
1734582170.696298,335.44921875,63.96484375,95.21484375,116.69921875,0.0
1734582170.7002041,312.01171875,345.21484375,187.01171875,116.2109375,0.0
1734582170.7041104,108.3984375,-272.94921875,-173.828125,126.46484375,0.0
1734582170.7080169,157.2265625,-212.890625,-107.91015625,118.65234375,0.0
1734582170.7126832,291.015625,342.28515625,183.59375,98.6328125,0.0
1734582170.7165895,249.0234375,234.375,95.21484375,94.23828125,0.0
1734582170.7204957,104.4921875,-464.84375,-301.26953125,102.05078125,0.0
1734582170.7244022,203.125,-166.015625,-83.49609375,113.28125,0.0
1734582170.7283084,266.6015625,270.99609375,175.78125,128.90625,0.0
1734582170.7322147,113.76953125,-267.578125,-178.7109375,95.21484375,0.0
1734582170.736121,38.57421875,-739.74609375,-397.4609375,39.55078125,0.0
1734582170.7400274,221.6796875,-216.796875,-89.84375,35.64453125,0.0
1734582170.7439337,237.79296875,313.96484375,174.31640625,50.78125,0.0
1734582170.74784,39.55078125,-53.22265625,-22.94921875,24.4140625,0.0
1734582170.7517462,24.90234375,-439.94140625,-173.828125,10.7421875,0.0
1734582170.7556527,186.5234375,73.73046875,74.70703125,15.625,0.0
1734582170.7575338,192.87109375,369.62890625,168.9453125,12.20703125,0.0
1734582170.76144,57.6171875,43.9453125,5.37109375,-17.08984375,0.0
1734582170.7653465,33.69140625,-91.30859375,-6.34765625,-2.9296875,0.0
1734582170.7692528,104.4921875,212.890625,141.11328125,8.30078125,0.0
1734582170.773159,94.23828125,213.37890625,122.0703125,-3.90625,0.0
1734582170.7770653,44.921875,-260.25390625,-124.0234375,7.8125,0.0
1734582170.7809718,48.828125,-469.7265625,-288.0859375,4.8828125,0.0
1734582170.784878,69.3359375,-298.828125,-208.984375,14.6484375,0.0
1734582170.7887843,94.23828125,-158.69140625,-128.90625,21.484375,0.0
1734582170.7926905,18.5546875,-500.0,-303.22265625,20.5078125,0.0
1734582170.796597,76.66015625,-616.69921875,-250.48828125,18.06640625,0.0
1734582170.8005033,275.390625,173.33984375,144.53125,14.16015625,0.0
1734582170.807148,144.04296875,281.25,127.44140625,25.87890625,0.0
1734582170.8110542,30.76171875,-83.984375,-51.7578125,24.90234375,0.0
1734582170.8149605,157.2265625,140.13671875,77.63671875,21.97265625,0.0
1734582170.818867,245.1171875,409.66796875,186.03515625,37.109375,0.0
1734582170.8227732,165.52734375,239.2578125,104.4921875,44.43359375,0.0
1734582170.8266795,12.20703125,-434.5703125,-205.078125,52.734375,0.0
1734582170.8305857,86.42578125,-345.703125,-173.33984375,51.7578125,0.0
1734582170.8344922,250.0,311.03515625,161.62109375,53.7109375,0.0
1734582170.8383985,182.6171875,99.12109375,40.0390625,77.1484375,0.0
1734582170.8423047,43.45703125,-664.0625,-345.703125,78.125,0.0
1734582170.846211,175.78125,-199.21875,-64.453125,52.24609375,0.0
1734582170.8501174,137.6953125,3.41796875,54.19921875,56.15234375,0.0
1734582170.8537412,115.72265625,-223.6328125,-126.46484375,61.5234375,0.0
1734582170.8576474,234.375,-2.44140625,-28.80859375,58.59375,0.0
1734582170.861554,243.1640625,248.53515625,112.3046875,55.6640625,0.0
1734582170.8654602,171.38671875,273.4375,134.27734375,58.10546875,0.0
1734582170.8693664,56.15234375,-78.125,-43.9453125,59.5703125,0.0
1734582170.8732727,42.96875,-384.765625,-237.3046875,61.5234375,0.0
1734582170.8771791,166.9921875,-278.80859375,-205.56640625,56.15234375,0.0
1734582170.8810854,224.12109375,11.23046875,-18.06640625,49.31640625,0.0
1734582170.8849916,65.4296875,-307.12890625,-153.3203125,72.265625,0.0
1734582170.8888981,99.609375,-302.734375,-148.4375,68.84765625,0.0
1734582170.8928044,213.37890625,240.72265625,115.72265625,51.26953125,0.0
1734582170.8967106,147.4609375,24.90234375,18.06640625,55.17578125,0.0
1734582170.8999467,57.12890625,-541.9921875,-276.85546875,62.01171875,0.0
1734582170.903853,118.1640625,-476.5625,-203.61328125,61.5234375,0.0
1734582170.9077592,178.22265625,-13.18359375,69.82421875,63.96484375,0.0
1734582170.9116657,165.52734375,143.5546875,83.49609375,65.91796875,0.0
1734582170.915572,182.6171875,14.16015625,-1.46484375,60.05859375,0.0
1734582170.9194782,175.29296875,-169.921875,-28.80859375,60.546875,0.0
1734582170.9233844,198.2421875,9.27734375,74.70703125,60.05859375,0.0
1734582170.927291,144.53125,125.0,63.4765625,60.05859375,0.0
1734582170.9311972,84.9609375,-183.10546875,-90.33203125,73.2421875,0.0
1734582170.9351034,225.5859375,190.4296875,99.609375,60.546875,0.0
1734582170.93901,264.16015625,491.2109375,187.5,58.59375,0.0
1734582170.9429162,121.58203125,122.55859375,3.90625,65.91796875,0.0
1734582170.9459064,79.58984375,-132.32421875,-122.0703125,59.08203125,0.0
1734582170.949813,161.62109375,228.02734375,89.84375,51.26953125,0.0
1734582170.9537191,216.796875,465.33203125,199.21875,53.22265625,0.0
1734582170.9576254,135.7421875,18.06640625,-34.66796875,51.7578125,0.0
1734582170.9615316,73.73046875,-492.1875,-183.59375,34.1796875,0.0
1734582170.9654381,104.4921875,-253.90625,-42.96875,34.1796875,0.0
1734582170.9693444,91.30859375,-75.68359375,-18.06640625,44.921875,0.0
1734582170.9732506,31.25,-453.61328125,-263.671875,48.828125,0.0
1734582170.9771569,106.93359375,-563.4765625,-242.67578125,51.26953125,0.0
1734582170.9810634,276.3671875,222.16796875,157.2265625,32.2265625,0.0
1734582170.9849696,154.296875,383.7890625,151.85546875,30.2734375,0.0
1734582170.9888759,36.62109375,-44.921875,-67.87109375,45.8984375,0.0
1734582170.9941652,167.96875,120.60546875,50.78125,52.734375,0.0
1734582170.9980717,267.08984375,461.9140625,194.82421875,37.109375,0.0
1734582171.001978,200.68359375,262.20703125,98.6328125,51.26953125,0.0
1734582171.0058842,131.34765625,-56.15234375,-20.99609375,88.8671875,0.0
1734582171.0097907,109.375,153.3203125,82.03125,40.52734375,0.0
1734582171.013697,38.0859375,41.50390625,20.01953125,-16.11328125,0.0
1734582171.0176032,40.0390625,-242.1875,-133.7890625,-2.44140625,0.0
1734582171.0215094,-45.41015625,-718.75,-404.78515625,14.16015625,0.0
1734582171.025416,45.8984375,-472.65625,-217.7734375,3.41796875,0.0
1734582171.0293221,143.5546875,203.61328125,136.23046875,-0.48828125,0.0
1734582171.0332284,58.59375,208.49609375,91.796875,-26.85546875,0.0
1734582171.0371346,100.5859375,122.0703125,54.19921875,-12.6953125,0.0
1734582171.039394,151.3671875,305.17578125,143.06640625,6.34765625,0.0
1734582171.0433002,76.171875,355.46875,151.85546875,-23.92578125,0.0
1734582171.0472064,-5.859375,85.44921875,9.27734375,-15.625,0.0
1734582171.051113,70.3125,65.91796875,15.625,-3.90625,0.0
1734582171.0550191,151.3671875,219.7265625,122.55859375,-11.71875,0.0
1734582171.0589254,83.0078125,-83.984375,-35.64453125,-4.39453125,0.0
1734582171.0628316,-3.41796875,-481.4453125,-276.3671875,-1.46484375,0.0
1734582171.0667381,50.78125,-388.671875,-175.78125,0.9765625,0.0
1734582171.0706444,164.0625,200.1953125,116.2109375,-7.8125,0.0
1734582171.0745506,176.7578125,418.9453125,178.7109375,-3.90625,0.0
1734582171.0784569,23.92578125,-272.4609375,-160.64453125,6.8359375,0.0
1734582171.0823634,24.4140625,-696.77734375,-329.1015625,9.765625,0.0
1734582171.087099,0.0,27.34375,21.97265625,1.46484375,0.0
1734582171.0910053,0.0,306.15234375,131.34765625,-9.27734375,0.0
1734582171.0949116,0.0,-43.9453125,-21.484375,5.859375,0.0
1734582171.098818,0.0,149.90234375,82.03125,17.578125,0.0
1734582171.1027243,0.0,398.4375,175.29296875,19.04296875,0.0
1734582171.1066306,0.0,-11.23046875,-11.71875,26.3671875,0.0
1734582171.1105368,0.0,-780.2734375,-419.921875,19.53125,0.0
1734582171.1144433,0.0,-252.44140625,-83.0078125,3.41796875,0.0
1734582171.1183496,0.0,441.40625,245.60546875,19.53125,0.0
1734582171.1222558,0.0,172.8515625,46.875,13.671875,0.0
1734582171.126162,0.0,40.52734375,13.18359375,-9.765625,0.0
1734582171.1300685,0.0,305.6640625,147.94921875,-0.48828125,0.0
1734582171.1323373,143.06640625,411.62109375,173.33984375,18.06640625,0.0
1734582171.1362438,136.71875,163.0859375,48.828125,18.06640625,0.0
1734582171.14015,78.125,-142.578125,-52.24609375,-2.9296875,0.0
1734582171.1440563,65.4296875,-33.69140625,12.20703125,-3.41796875,0.0
1734582171.1479626,43.9453125,144.53125,102.5390625,0.48828125,0.0
1734582171.151869,-11.23046875,-195.80078125,-44.43359375,-10.7421875,0.0
1734582171.1557753,33.203125,-423.828125,-207.03125,-19.04296875,0.0
1734582171.1596816,104.4921875,-152.34375,-88.37890625,-16.6015625,0.0
1734582171.1635878,90.8203125,286.62109375,156.25,-20.99609375,0.0
1734582171.1674943,-82.51953125,-242.1875,-113.76953125,-20.01953125,0.0
1734582171.1714005,-23.92578125,-489.2578125,-202.63671875,-25.87890625,0.0
1734582171.1753068,151.85546875,269.04296875,181.15234375,-31.25,0.0
1734582171.1795733,65.91796875,281.73828125,138.671875,-24.4140625,0.0
1734582171.1834798,-110.3515625,-318.84765625,-190.4296875,-26.3671875,0.0
1734582171.187386,-43.9453125,-45.41015625,11.71875,-20.99609375,0.0
1734582171.1912923,71.2890625,453.61328125,246.58203125,-31.73828125,0.0
1734582171.1951985,-5.859375,187.5,70.80078125,-37.59765625,0.0
1734582171.199105,-212.40234375,-693.359375,-385.25390625,-24.90234375,0.0
1734582171.2030113,-117.1875,-670.8984375,-311.5234375,-20.99609375,0.0
1734582171.2069175,45.8984375,48.828125,72.75390625,-31.25,0.0
1734582171.2108238,9.27734375,123.53515625,70.80078125,-37.59765625,0.0
1734582171.2147303,-28.3203125,-344.7265625,-117.67578125,-20.01953125,0.0
1734582171.2186365,60.546875,42.96875,94.23828125,-31.25,0.0
1734582171.2225428,44.921875,391.11328125,190.91796875,-45.8984375,0.0
1734582171.2288914,-80.078125,83.0078125,21.97265625,-53.22265625,0.0
1734582171.2327976,-50.29296875,20.99609375,40.52734375,-62.01171875,0.0
1734582171.2367039,79.1015625,293.9453125,159.1796875,-52.24609375,0.0
1734582171.2406104,63.4765625,336.9140625,158.69140625,-57.6171875,0.0
1734582171.2445166,-103.515625,-65.91796875,-17.08984375,-55.17578125,0.0
1734582171.2484229,-195.80078125,-514.16015625,-224.609375,-55.17578125,0.0
1734582171.252329,-127.9296875,-403.3203125,-243.1640625,-62.01171875,0.0
1734582171.2562356,4.39453125,-7.32421875,-16.11328125,-65.91796875,0.0
1734582171.2601418,-104.98046875,-353.02734375,-130.37109375,-49.8046875,0.0
1734582171.264048,-177.24609375,-656.25,-255.37109375,-47.8515625,0.0
1734582171.2679546,-18.5546875,171.875,145.99609375,-65.91796875,0.0
1734582171.2718608,-60.05859375,349.12109375,157.71484375,-63.96484375,0.0
1734582171.2750502,-126.46484375,-71.77734375,-26.85546875,-56.15234375,0.0
1734582171.2789564,-62.5,44.43359375,71.77734375,-53.7109375,0.0
1734582171.282863,-35.15625,369.140625,186.03515625,-52.24609375,0.0
1734582171.2867692,-160.15625,224.609375,114.2578125,-58.59375,0.0
1734582171.2906754,-277.34375,-357.421875,-165.52734375,-74.21875,0.0
1734582171.2945817,-185.05859375,-397.94921875,-207.03125,-62.01171875,0.0
1734582171.2984881,-85.9375,-47.8515625,24.90234375,-64.94140625,0.0
1734582171.3023944,-136.23046875,37.59765625,64.94140625,-78.61328125,0.0
1734582171.3063006,-222.65625,-295.8984375,-83.984375,-73.2421875,0.0
1734582171.310207,-139.16015625,72.75390625,98.14453125,-78.125,0.0
1734582171.3141134,-67.3828125,400.390625,205.078125,-71.77734375,0.0
1734582171.3180196,-167.48046875,-162.109375,-69.3359375,-60.546875,0.0
1734582171.3210473,-272.94921875,-747.55859375,-347.65625,-53.22265625,0.0
1734582171.3249536,-102.05078125,-52.24609375,45.8984375,-51.26953125,0.0
1734582171.3288598,-70.80078125,424.31640625,221.19140625,-54.19921875,0.0
1734582171.332766,-164.55078125,-25.390625,-42.48046875,-55.17578125,0.0
1734582171.3366725,-101.5625,-290.0390625,-115.72265625,-50.78125,0.0
1734582171.3405788,-54.6875,-163.57421875,-8.30078125,-40.52734375,0.0
1734582171.344485,-101.5625,-130.859375,48.828125,-41.015625,0.0
1734582171.3483913,-185.546875,-467.7734375,-133.7890625,-54.6875,0.0
1734582171.3522978,-88.8671875,-569.3359375,-161.1328125,-55.6640625,0.0
1734582171.356204,143.5546875,144.53125,192.3828125,-64.453125,0.0
1734582171.3601103,62.5,311.03515625,173.828125,-61.5234375,0.0
1734582171.3640165,-111.81640625,-85.44921875,-26.3671875,-65.4296875,0.0
1734582171.3669043,-107.421875,70.80078125,83.0078125,-65.4296875,0.0
1734582171.3708105,-13.18359375,417.96875,204.58984375,-55.6640625,0.0
1734582171.3747168,7.8125,212.40234375,104.98046875,-49.8046875,0.0
1734582171.378623,-55.6640625,-285.64453125,-92.28515625,-53.22265625,0.0
1734582171.3825295,-33.203125,-59.08203125,47.8515625,-56.15234375,0.0
1734582171.3864357,-83.984375,-54.19921875,43.9453125,-33.203125,0.0
1734582171.390342,-139.6484375,-382.32421875,-145.99609375,-39.0625,0.0
1734582171.3942482,-194.82421875,-783.203125,-404.296875,-54.19921875,0.0
1734582171.3981547,18.06640625,-334.9609375,-96.19140625,-68.359375,0.0
1734582171.402061,107.421875,332.51953125,245.60546875,-64.453125,0.0
1734582171.4059672,-97.16796875,36.62109375,44.43359375,-61.5234375,0.0
1734582171.4098735,-106.4453125,-277.34375,-127.44140625,-72.75390625,0.0
1734582171.4126613,10.25390625,51.7578125,55.6640625,-74.70703125,0.0
1734582171.4165678,13.671875,256.34765625,179.19921875,-59.5703125,0.0
1734582171.420474,-116.69921875,-95.21484375,-46.875,-45.8984375,0.0
1734582171.4243803,-131.8359375,-233.88671875,-116.69921875,-59.5703125,0.0
1734582171.4282866,-63.4765625,82.03125,100.09765625,-79.1015625,0.0
1734582171.4321928,-80.56640625,-139.6484375,-41.015625,-74.21875,0.0
1734582171.4360993,-87.890625,-482.91015625,-260.25390625,-64.94140625,0.0
1734582171.4400055,-85.9375,-571.77734375,-269.53125,-62.01171875,0.0
1734582171.4439118,-28.3203125,-97.65625,-32.2265625,-63.96484375,0.0
1734582171.447818,-3.41796875,315.4296875,142.08984375,-64.453125,0.0
1734582171.4517245,-87.40234375,-212.890625,-124.51171875,-54.19921875,0.0
1734582171.4556308,-2.44140625,-215.33203125,-60.05859375,-48.828125,0.0
1734582171.4653888,87.890625,408.69140625,193.84765625,-63.4765625,0.0
1734582171.469295,-19.04296875,330.078125,91.30859375,-68.359375,0.0
1734582171.4732015,-95.703125,-52.734375,-83.49609375,-69.82421875,0.0
1734582171.4771078,27.83203125,146.484375,54.6875,-60.05859375,0.0
1734582171.481014,120.1171875,389.16015625,188.96484375,-62.98828125,0.0
1734582171.4849205,-14.6484375,-19.53125,-39.0625,-83.0078125,0.0
1734582171.4888268,-220.21484375,-785.64453125,-449.70703125,-69.82421875,0.0
1734582171.492733,-50.78125,-327.1484375,-148.4375,-83.49609375,0.0
1734582171.4966393,89.35546875,336.9140625,170.8984375,-97.16796875,0.0
1734582171.5005457,-27.83203125,-23.4375,-62.5,-77.1484375,0.0
1734582171.504452,-55.17578125,-419.921875,-179.19921875,-74.70703125,0.0
1734582171.5083582,34.66796875,114.74609375,85.44921875,-82.03125,0.0
1734582171.5100179,9.27734375,438.96484375,182.6171875,-76.171875,0.0
1734582171.5139241,-43.9453125,130.37109375,-9.27734375,-71.2890625,0.0
1734582171.5178304,32.71484375,-4.39453125,-54.19921875,-79.1015625,0.0
1734582171.5217366,73.2421875,278.3203125,120.1171875,-95.21484375,0.0
1734582171.525643,7.8125,296.38671875,99.609375,-86.42578125,0.0
1734582171.5295494,-72.75390625,-218.75,-129.39453125,-78.125,0.0
1734582171.5334556,-29.296875,-554.19921875,-278.3203125,-69.3359375,0.0
1734582171.5373619,89.84375,-275.87890625,-189.453125,-77.1484375,0.0
1734582171.5412683,94.23828125,142.08984375,31.25,-79.1015625,0.0
1734582171.5451746,-79.1015625,-176.26953125,-141.6015625,-53.7109375,0.0
1734582171.5490808,-64.453125,-122.0703125,-104.98046875,-56.640625,0.0
1734582171.5529873,65.4296875,401.3671875,180.17578125,-62.5,0.0
1734582171.556931,41.9921875,136.23046875,48.33984375,-67.87109375,0.0
1734582171.5608373,-13.671875,-304.6875,-205.078125,-76.171875,0.0
1734582171.5647435,18.06640625,27.83203125,-14.6484375,-78.125,0.0
1734582171.56865,20.01953125,375.9765625,187.01171875,-68.359375,0.0
1734582171.5725563,-24.4140625,215.33203125,99.12109375,-65.4296875,0.0
1734582171.5764625,-214.35546875,-759.765625,-444.82421875,-62.5,0.0
1734582171.580369,-122.0703125,-816.89453125,-386.71875,-58.59375,0.0
1734582171.5842752,111.328125,232.421875,169.921875,-70.3125,0.0
1734582171.5881815,-20.01953125,232.91015625,70.3125,-64.453125,0.0
1734582171.5920877,-63.96484375,-120.60546875,-97.65625,-71.77734375,0.0
1734582171.5959942,64.94140625,175.29296875,92.28515625,-66.40625,0.0
1734582171.5999005,71.2890625,374.51171875,160.64453125,-51.7578125,0.0
1734582171.6033707,-31.25,136.23046875,26.85546875,-67.3828125,0.0
1734582171.607277,-39.0625,43.9453125,24.90234375,-76.171875,0.0
1734582171.6111834,10.25390625,281.25,129.8828125,-57.6171875,0.0
1734582171.6150897,5.37109375,228.515625,95.703125,-49.8046875,0.0
1734582171.618996,-35.15625,-175.29296875,-89.84375,-41.015625,0.0
1734582171.6229022,-49.8046875,-353.515625,-190.91796875,-51.7578125,0.0
1734582171.6268086,-70.3125,-273.92578125,-178.22265625,-76.171875,0.0
1734582171.630715,-63.96484375,-152.83203125,-145.01953125,-63.96484375,0.0
1734582171.6346211,-91.796875,-452.63671875,-293.45703125,-52.734375,0.0
1734582171.6385276,-23.92578125,-583.49609375,-253.90625,-47.8515625,0.0
1734582171.642434,128.41796875,224.12109375,134.765625,-30.2734375,0.0
1734582171.6463401,29.296875,361.81640625,126.46484375,-19.53125,0.0
1734582171.6520994,-140.625,-311.03515625,-226.07421875,-24.4140625,0.0
1734582171.6560059,-31.73828125,-74.21875,-25.87890625,-41.015625,0.0
1734582171.659912,83.0078125,446.77734375,206.0546875,-52.734375,0.0
1734582171.6638184,-11.23046875,246.09375,54.6875,-48.828125,0.0
1734582171.6677248,-128.90625,-110.3515625,-126.46484375,-35.15625,0.0
1734582171.671631,-151.3671875,-275.390625,-236.328125,-25.87890625,0.0
1734582171.6755373,-50.29296875,-209.47265625,-198.2421875,-28.80859375,0.0
1734582171.6794436,-14.6484375,-244.140625,-244.62890625,-19.53125,0.0
1734582171.68335,-153.3203125,-777.34375,-486.81640625,4.39453125,0.0
1734582171.6872563,0.9765625,-229.4921875,-157.71484375,-6.34765625,0.0
1734582171.6911626,52.734375,385.25390625,138.18359375,-30.2734375,0.0
1734582171.695069,-59.08203125,71.77734375,-65.91796875,-31.25,0.0
1734582171.7001011,16.6015625,3.41796875,-128.90625,-22.4609375,0.0
1734582171.7040076,64.94140625,272.4609375,58.10546875,-25.390625,0.0
1734582171.7079139,-3.41796875,367.67578125,119.62890625,-37.59765625,0.0
1734582171.7118201,-93.26171875,90.8203125,-55.17578125,-27.83203125,0.0
1734582171.7157266,-44.921875,-155.76171875,-203.61328125,-14.16015625,0.0
1734582171.7196329,22.4609375,-151.85546875,-206.0546875,-3.41796875,0.0
1734582171.723539,-4.39453125,-167.48046875,-221.19140625,-1.46484375,0.0
1734582171.7274454,-39.55078125,-335.44921875,-284.1796875,13.671875,0.0
1734582171.7313519,27.34375,-91.30859375,-72.265625,27.83203125,0.0
1734582171.735258,62.01171875,245.1171875,125.9765625,19.04296875,0.0
1734582171.7391644,60.546875,18.06640625,-87.40234375,20.99609375,0.0
1734582171.7430708,8.7890625,-541.9921875,-425.29296875,36.1328125,0.0
1734582171.7452283,60.546875,-497.55859375,-285.64453125,23.4375,0.0
1734582171.7491345,159.66796875,283.69140625,109.86328125,3.90625,0.0
1734582171.7530408,66.40625,252.44140625,64.94140625,17.08984375,0.0
1734582171.7569473,72.75390625,-77.63671875,-117.67578125,49.8046875,0.0
1734582171.7608535,163.57421875,194.82421875,56.15234375,52.734375,0.0
1734582171.7647598,98.6328125,102.5390625,-10.25390625,44.921875,0.0
1734582171.768666,31.73828125,-264.16015625,-229.98046875,58.10546875,0.0
1734582171.7725725,57.6171875,-399.90234375,-174.8046875,64.94140625,0.0
1734582171.7764788,173.828125,97.65625,58.59375,62.01171875,0.0
1734582171.780385,203.61328125,510.7421875,176.26953125,44.921875,0.0
1734582171.7842915,54.19921875,163.57421875,10.7421875,26.85546875,0.0
1734582171.7881978,-96.19140625,-621.58203125,-339.84375,42.48046875,0.0
1734582171.7927854,93.75,-74.21875,-23.4375,48.828125,0.0
1734582171.7966917,134.27734375,236.81640625,112.79296875,39.0625,0.0
1734582171.8005981,59.5703125,-38.57421875,-7.8125,15.625,0.0
1734582171.8045044,135.7421875,263.671875,87.890625,10.25390625,0.0
1734582171.8084106,132.32421875,521.97265625,153.3203125,25.87890625,0.0
1734582171.8123171,34.1796875,243.65234375,101.07421875,35.64453125,0.0
1734582171.8162234,36.62109375,-136.71875,-50.78125,32.71484375,0.0
1734582171.8201296,134.27734375,-135.25390625,-100.5859375,33.203125,0.0
1734582171.824036,227.05078125,493.65234375,179.19921875,34.1796875,0.0
1734582171.8279424,144.04296875,699.21875,209.47265625,37.59765625,0.0
1734582171.8318486,-30.76171875,48.828125,-90.8203125,48.33984375,0.0
1734582171.8357549,80.078125,52.734375,-0.48828125,36.1328125,0.0
1734582171.8398297,225.09765625,645.01953125,227.05078125,30.2734375,0.0
1734582171.8437362,130.859375,555.6640625,129.39453125,35.15625,0.0
1734582171.8476424,22.94921875,184.08203125,-6.34765625,36.62109375,0.0
1734582171.8515487,65.4296875,353.515625,100.5859375,60.546875,0.0
1734582171.8554552,84.9609375,412.109375,115.72265625,70.3125,0.0
1734582171.8593614,37.109375,-34.66796875,-41.015625,58.59375,0.0
1734582171.8632677,22.94921875,-294.921875,-124.0234375,25.87890625,0.0
1734582171.867174,87.890625,279.296875,110.3515625,17.578125,0.0
1734582171.8710804,74.70703125,687.01171875,238.28125,25.87890625,0.0
1734582171.8749866,32.2265625,385.7421875,90.8203125,12.6953125,0.0
1734582171.878893,-47.36328125,-533.203125,-336.42578125,20.5078125,0.0
1734582171.8827994,147.4609375,-22.4609375,-30.2734375,4.39453125,0.0
1734582171.8842614,198.73046875,740.234375,273.92578125,-8.30078125,0.0
1734582171.8881676,48.828125,368.65234375,31.25,8.30078125,0.0
1734582171.892074,102.05078125,125.9765625,-45.41015625,10.7421875,0.0
1734582171.8959804,196.77734375,538.0859375,149.90234375,-2.9296875,0.0
1734582171.8998866,148.4375,632.8125,204.58984375,20.99609375,0.0
1734582171.9037929,66.89453125,152.83203125,8.7890625,79.58984375,0.0
1734582171.9076993,55.17578125,-50.29296875,-84.47265625,89.35546875,0.0
1734582171.9116056,74.21875,78.125,56.15234375,21.97265625,0.0
1734582171.9155118,121.58203125,378.90625,193.84765625,-18.5546875,0.0
1734582171.919418,39.0625,90.33203125,-39.55078125,-3.41796875,0.0
1734582171.9233246,22.4609375,-149.4140625,-134.27734375,-12.6953125,0.0
1734582171.9272308,99.609375,572.75390625,228.515625,-29.296875,0.0
1734582171.9359524,39.0625,687.98828125,203.61328125,-44.43359375,0.0
1734582171.9398587,-57.12890625,38.57421875,-135.7421875,-54.6875,0.0
1734582171.943765,31.25,197.75390625,22.94921875,-80.078125,0.0
1734582171.9476714,60.05859375,753.41796875,264.16015625,-101.07421875,0.0
1734582171.9515777,-57.6171875,595.21484375,154.296875,-90.8203125,0.0
1734582171.955484,-154.296875,-55.6640625,-127.44140625,-77.63671875,0.0
1734582171.9593904,-48.828125,-49.31640625,-51.7578125,-68.359375,0.0
1734582171.9632967,94.7265625,580.078125,230.95703125,-68.84765625,0.0
1734582171.967203,-11.23046875,501.953125,106.93359375,-52.734375,0.0
1734582171.9711092,-94.23828125,133.7890625,-31.73828125,-32.71484375,0.0
1734582171.9750156,-37.109375,316.89453125,123.53515625,-39.55078125,0.0
1734582171.978922,32.2265625,525.87890625,195.3125,-40.0390625,0.0
1734582171.9817488,4.8828125,389.6484375,70.80078125,-15.13671875,0.0
1734582171.985655,-83.0078125,-163.0859375,-85.44921875,-0.9765625,0.0
1734582171.9895613,22.4609375,419.921875,180.6640625,-15.13671875,0.0
1734582171.9934678,17.578125,811.5234375,254.8828125,-11.71875,0.0
1734582171.997374,-41.015625,447.75390625,98.14453125,-6.8359375,0.0
1734582172.0012803,-46.38671875,134.765625,41.9921875,3.41796875,0.0
1734582172.0051868,-34.66796875,222.65625,122.0703125,-2.9296875,0.0
1734582172.009093,-40.0390625,484.375,204.1015625,-6.8359375,0.0
1734582172.0129993,-108.88671875,294.921875,64.94140625,20.5078125,0.0
1734582172.0169058,-6.34765625,405.76171875,127.9296875,30.2734375,0.0
1734582172.020812,132.8125,883.30078125,284.1796875,26.3671875,0.0
1734582172.0247183,57.6171875,876.953125,236.81640625,22.94921875,0.0
1734582172.027365,-131.8359375,213.37890625,-36.62109375,32.2265625,0.0
1734582172.0312715,-109.375,37.109375,27.83203125,29.296875,0.0
1734582172.0351777,38.0859375,543.9453125,229.98046875,31.25,0.0
1734582172.039084,87.40234375,773.4375,187.98828125,47.36328125,0.0
1734582172.0429904,-91.796875,-24.4140625,-191.89453125,66.89453125,0.0
1734582172.0468967,-92.7734375,-274.4140625,-117.67578125,66.40625,0.0
1734582172.050803,72.75390625,504.8828125,240.234375,63.4765625,0.0
1734582172.0547092,75.1953125,721.19140625,191.89453125,78.125,0.0
1734582172.0586157,-73.73046875,-138.18359375,-189.453125,70.3125,0.0
1734582172.062522,90.8203125,284.1796875,83.0078125,60.546875,0.0
1734582172.0664282,156.25,-929.6875,351.5625,66.40625,0.0
1734582172.0703347,-19.04296875,706.54296875,161.62109375,72.265625,0.0
1734582172.0730114,41.015625,503.90625,135.7421875,59.08203125,0.0
1734582172.0769176,187.5,869.62890625,249.0234375,53.7109375,0.0
1734582172.080824,149.90234375,974.12109375,245.60546875,52.24609375,0.0
1734582172.0847301,45.8984375,729.4921875,170.8984375,33.69140625,0.0
1734582172.0886366,13.671875,572.75390625,182.6171875,44.43359375,0.0
1734582172.092543,52.24609375,515.13671875,163.57421875,43.45703125,0.0
1734582172.0964491,133.30078125,592.7734375,206.0546875,43.45703125,0.0
1734582172.1003556,88.8671875,258.7890625,68.359375,72.75390625,0.0
1734582172.1042619,56.640625,-32.71484375,-26.85546875,77.63671875,0.0
1734582172.1081681,159.1796875,782.71484375,272.94921875,53.22265625,0.0
1734582172.1120744,140.625,986.81640625,292.96875,48.828125,0.0
1734582172.1159809,117.1875,669.921875,153.3203125,51.7578125,0.0
1734582172.1184802,211.9140625,826.66015625,221.19140625,53.7109375,0.0
1734582172.1223865,225.09765625,-975.09765625,325.1953125,55.17578125,0.0
1734582172.126293,87.890625,862.3046875,223.14453125,57.12890625,0.0
1734582172.1301992,14.16015625,419.921875,-0.48828125,62.01171875,0.0
1734582172.1341054,177.734375,708.49609375,194.82421875,79.58984375,0.0
1734582172.1380117,215.8203125,792.48046875,250.48828125,86.9140625,0.0
1734582172.1419182,129.39453125,566.40625,143.06640625,75.68359375,0.0
1734582172.1458244,-38.0859375,-114.74609375,-174.8046875,97.65625,0.0
1734582172.1497307,100.5859375,85.44921875,41.9921875,101.5625,0.0
1734582172.153637,312.01171875,964.35546875,327.63671875,98.14453125,0.0
1734582172.1575434,256.8359375,896.97265625,234.375,98.6328125,0.0
1734582172.1614497,211.42578125,803.22265625,262.20703125,97.65625,0.0
1734582172.168698,205.56640625,942.3828125,285.15625,92.28515625,0.0
1734582172.1726043,199.21875,984.86328125,278.80859375,92.28515625,0.0
1734582172.1765108,163.0859375,789.55078125,196.77734375,95.21484375,0.0
1734582172.180417,229.98046875,753.41796875,234.86328125,114.74609375,0.0
1734582172.1843233,257.32421875,922.36328125,260.25390625,138.671875,0.0
1734582172.1882298,150.390625,772.94921875,170.8984375,179.19921875,0.0
1734582172.192136,153.3203125,494.140625,115.234375,236.81640625,0.0
1734582172.1960423,255.37109375,505.859375,151.3671875,243.65234375,0.0
1734582172.1999485,334.9609375,924.8046875,289.0625,195.3125,0.0
1734582172.203855,246.58203125,-986.328125,289.0625,157.2265625,0.0
1734582172.2077613,42.48046875,568.359375,46.38671875,165.52734375,0.0
1734582172.2116675,51.7578125,478.515625,96.6796875,186.03515625,0.0
1734582172.2157676,207.51953125,954.1015625,316.89453125,183.59375,0.0
1734582172.2196739,213.8671875,936.03515625,248.046875,190.4296875,0.0
1734582172.2235804,133.7890625,808.59375,147.4609375,187.5,0.0
1734582172.2274866,121.09375,909.66796875,245.1171875,179.6875,0.0
1734582172.2313929,131.8359375,-998.53515625,313.96484375,182.12890625,0.0
1734582172.2352993,73.2421875,757.8125,159.1796875,186.03515625,0.0
1734582172.2392056,104.00390625,466.30859375,41.015625,188.96484375,0.0
1734582172.2431118,219.23828125,840.33203125,250.0,153.80859375,0.0
1734582172.247018,183.10546875,-968.26171875,306.640625,154.78515625,0.0
1734582172.2509246,77.1484375,843.26171875,215.33203125,161.1328125,0.0
1734582172.2548308,82.51953125,711.9140625,164.0625,143.5546875,0.0
1734582172.258737,226.07421875,883.7890625,263.18359375,134.765625,0.0
1734582172.2601047,242.67578125,-949.70703125,329.58984375,126.46484375,0.0
1734582172.264011,47.8515625,717.7734375,138.18359375,125.48828125,0.0
1734582172.2679174,-91.796875,-43.9453125,-181.640625,130.37109375,0.0
1734582172.2718236,160.15625,643.06640625,168.45703125,117.67578125,0.0
1734582172.27573,243.65234375,-912.109375,344.7265625,132.32421875,0.0
1734582172.2796361,105.95703125,655.76171875,145.5078125,146.97265625,0.0
1734582172.2835426,63.96484375,487.79296875,154.296875,135.25390625,0.0
1734582172.287449,139.16015625,796.875,284.66796875,107.91015625,0.0
1734582172.2913551,185.546875,-940.4296875,341.796875,109.86328125,0.0
1734582172.2952614,72.265625,638.671875,133.30078125,111.81640625,0.0
1734582172.2991679,124.0234375,416.9921875,58.59375,97.65625,0.0
1734582172.3030741,237.79296875,955.56640625,334.47265625,94.7265625,0.0
1734582172.309388,114.2578125,956.0546875,312.5,83.49609375,0.0
1734582172.3132942,56.15234375,807.6171875,180.6640625,83.984375,0.0
1734582172.3172004,178.22265625,914.55078125,281.25,84.47265625,0.0
1734582172.321107,217.28515625,-998.046875,368.1640625,66.89453125,0.0
1734582172.3250132,103.02734375,905.2734375,290.0390625,77.1484375,0.0
1734582172.3289194,-35.15625,590.8203125,113.76953125,83.0078125,0.0
1734582172.332826,-3.41796875,699.70703125,177.734375,75.68359375,0.0
1734582172.3367321,128.90625,-987.79296875,315.91796875,69.82421875,0.0
1734582172.3406384,117.1875,880.859375,261.23046875,65.91796875,0.0
1734582172.3445446,-35.64453125,358.88671875,21.97265625,83.984375,0.0
1734582172.3484511,73.73046875,757.8125,249.51171875,86.42578125,0.0
1734582172.3523574,88.37890625,-949.21875,359.86328125,71.2890625,0.0
1734582172.355392,36.1328125,864.2578125,265.13671875,76.171875,0.0
1734582172.3592982,126.953125,868.1640625,306.640625,68.359375,0.0
1734582172.3632045,155.2734375,944.3359375,343.75,37.109375,0.0
1734582172.3671107,73.73046875,992.1875,340.33203125,31.25,0.0
1734582172.3710172,-32.71484375,834.47265625,221.19140625,57.12890625,0.0
1734582172.3749235,-15.13671875,660.15625,182.6171875,81.54296875,0.0
1734582172.3788297,108.88671875,869.62890625,248.046875,78.125,0.0
1734582172.3827362,83.0078125,975.5859375,262.20703125,91.796875,0.0
1734582172.3866425,-38.0859375,781.25,218.75,121.09375,0.0
1734582172.3905487,0.0,805.17578125,278.3203125,112.3046875,0.0
1734582172.394455,105.46875,982.91015625,383.7890625,112.3046875,0.0
1734582172.3983614,121.09375,995.60546875,363.28125,133.30078125,0.0
1734582172.406118,-23.92578125,586.9140625,95.703125,147.94921875,0.0
1734582172.4100244,16.6015625,587.40234375,161.1328125,170.8984375,0.0
1734582172.4139307,138.18359375,-976.5625,413.57421875,213.8671875,0.0
1734582172.417837,79.58984375,918.9453125,319.3359375,250.0,0.0
1734582172.4217434,97.16796875,872.55859375,226.07421875,288.0859375,0.0
1734582172.4256496,110.83984375,908.69140625,251.46484375,299.31640625,0.0
1734582172.429556,114.74609375,967.28515625,315.4296875,295.41015625,0.0
1734582172.4334624,67.87109375,924.31640625,328.125,289.55078125,0.0
1734582172.4373686,-53.22265625,431.15234375,52.24609375,292.48046875,0.0
1734582172.441275,188.96484375,734.375,271.97265625,278.3203125,0.0
1734582172.4451811,290.52734375,-958.0078125,442.3828125,267.08984375,0.0
1734582172.4490876,119.140625,918.45703125,338.8671875,269.04296875,0.0
1734582172.451004,86.42578125,955.56640625,381.34765625,251.46484375,0.0
1734582172.4549105,138.18359375,961.9140625,405.2734375,239.2578125,0.0
1734582172.4588168,169.43359375,964.84375,389.6484375,220.703125,0.0
1734582172.462723,157.2265625,929.19921875,327.63671875,195.3125,0.0
1734582172.4666295,123.046875,914.0625,333.0078125,200.1953125,0.0
1734582172.4705358,77.63671875,938.4765625,331.0546875,196.77734375,0.0
1734582172.474442,89.84375,957.03125,320.80078125,206.0546875,0.0
1734582172.4783483,90.8203125,874.51171875,306.15234375,194.82421875,0.0
1734582172.4822547,130.859375,878.90625,356.93359375,183.59375,0.0
1734582172.486161,153.80859375,981.4453125,431.15234375,191.40625,0.0
1734582172.4900672,83.984375,963.8671875,403.80859375,164.0625,0.0
1734582172.4939737,-10.25390625,771.484375,281.25,150.87890625,0.0
1734582172.4958875,139.6484375,842.7734375,370.60546875,146.484375,0.0
1734582172.4997938,271.97265625,-991.2109375,483.88671875,148.92578125,0.0
1734582172.5037,211.9140625,951.66015625,383.30078125,164.0625,0.0
1734582172.5076065,11.23046875,523.92578125,139.16015625,131.34765625,0.0
1734582172.5115128,42.48046875,671.38671875,324.21875,9.27734375,0.0
1734582172.515419,133.7890625,-954.58984375,456.54296875,-44.921875,0.0
1734582172.5193255,48.828125,896.97265625,322.265625,-38.0859375,0.0
1734582172.5232317,-98.14453125,441.89453125,125.9765625,-68.359375,0.0
1734582172.527138,39.55078125,735.3515625,355.95703125,-71.2890625,0.0
1734582172.5310442,111.328125,-958.984375,490.72265625,-82.51953125,0.0
1734582172.5349507,12.20703125,926.7578125,413.57421875,-133.7890625,0.0
1734582172.538857,40.52734375,964.35546875,440.91796875,-179.19921875,0.0
1734582172.5411532,15.13671875,959.47265625,436.03515625,-207.51953125,0.0
1734582172.5450597,-73.2421875,962.890625,429.6875,-236.328125,0.0
1734582172.548966,-182.6171875,930.6640625,374.51171875,-275.390625,0.0
1734582172.5528722,-137.20703125,940.4296875,424.31640625,-296.38671875,0.0
1734582172.5567784,-63.4765625,946.2890625,437.98828125,-291.9921875,0.0
1734582172.560685,-168.45703125,958.49609375,365.234375,-320.80078125,0.0
1734582172.5645912,-282.71484375,865.234375,347.16796875,-338.37890625,0.0
1734582172.5684974,-341.796875,810.546875,344.7265625,-352.5390625,0.0
1734582172.572404,-252.44140625,965.33203125,435.546875,-359.86328125,0.0
1734582172.5763102,-178.7109375,985.83984375,477.05078125,-332.03125,0.0
1734582172.5802164,-308.10546875,814.94140625,352.5390625,-354.98046875,0.0
1734582172.5841227,-274.4140625,836.42578125,399.90234375,-406.25,0.0
1734582172.5909252,-201.171875,-989.2578125,516.11328125,-384.765625,0.0
1734582172.5948315,-265.13671875,928.7109375,444.3359375,-354.4921875,0.0
1734582172.598738,-314.94140625,774.90234375,282.71484375,-362.79296875,0.0
1734582172.6026442,-229.00390625,899.90234375,423.828125,-362.3046875,0.0
1734582172.6065505,-237.79296875,997.0703125,522.94921875,-368.1640625,0.0
1734582172.610457,-380.859375,955.56640625,380.859375,-348.6328125,0.0
1734582172.6143632,-497.0703125,474.12109375,172.36328125,-315.4296875,0.0
1734582172.6182694,-236.328125,614.2578125,377.9296875,-300.29296875,0.0
1734582172.622176,-57.6171875,-968.26171875,513.671875,-267.08984375,0.0
1734582172.6260822,-228.02734375,942.87109375,437.98828125,-221.19140625,0.0
1734582172.6299884,-179.6875,962.890625,502.44140625,-187.98828125,0.0
1734582172.6338947,-48.828125,967.7734375,536.1328125,-205.078125,0.0
1734582172.6400235,-0.48828125,968.26171875,523.92578125,-227.05078125,0.0
1734582172.64393,-34.1796875,956.0546875,481.4453125,-200.68359375,0.0
1734582172.6478362,-62.5,957.03125,503.41796875,-188.4765625,0.0
1734582172.6517425,-38.0859375,967.28515625,535.15625,-197.75390625,0.0
1734582172.655649,-108.3984375,967.7734375,511.23046875,-197.75390625,0.0
1734582172.6595552,-207.51953125,944.82421875,434.5703125,-194.82421875,0.0
1734582172.6634614,-145.01953125,938.96484375,390.13671875,-150.87890625,0.0
1734582172.6673677,-14.6484375,964.84375,458.0078125,-66.40625,0.0
1734582172.6712742,16.11328125,967.28515625,519.04296875,-12.20703125,0.0
1734582172.6751804,-43.45703125,966.796875,479.00390625,3.90625,0.0
1734582172.6790867,38.0859375,963.37890625,505.859375,12.20703125,0.0
1734582172.6829932,51.26953125,968.75,522.94921875,-9.765625,0.0
1734582172.685966,-70.3125,970.21484375,442.3828125,-28.80859375,0.0
1734582172.6898723,-181.15234375,809.08203125,324.70703125,20.01953125,0.0
1734582172.6937785,-77.1484375,857.91015625,431.15234375,59.08203125,0.0
1734582172.697685,8.7890625,-985.3515625,563.96484375,2.9296875,0.0
1734582172.7015913,-131.8359375,895.01953125,415.0390625,-42.48046875,0.0
1734582172.7054975,-274.90234375,801.26953125,224.609375,-88.37890625,0.0
1734582172.709404,-207.03125,941.40625,409.66796875,-122.0703125,0.0
1734582172.7133102,-106.93359375,988.28125,534.1796875,-98.14453125,0.0
1734582172.7172165,-138.18359375,937.01171875,457.51953125,-78.61328125,0.0
1734582172.721123,-84.47265625,927.734375,424.8046875,-69.3359375,0.0
1734582172.7250292,41.50390625,951.66015625,487.79296875,-38.0859375,0.0
1734582172.7289355,59.5703125,-999.0234375,531.73828125,-4.8828125,0.0
1734582172.73422,-88.8671875,911.62109375,425.78125,-26.85546875,0.0
1734582172.7381263,-215.8203125,687.98828125,256.34765625,-33.69140625,0.0
1734582172.7420328,-1.953125,910.64453125,460.44921875,-18.5546875,0.0
1734582172.745939,-38.57421875,996.09375,492.67578125,-32.71484375,0.0
1734582172.7498453,-148.92578125,925.29296875,401.3671875,-2.44140625,0.0
1734582172.7537515,-132.8125,950.68359375,421.875,18.06640625,0.0
1734582172.757658,-58.10546875,958.49609375,417.96875,5.37109375,0.0
1734582172.7615643,59.5703125,981.4453125,471.19140625,-9.765625,0.0
1734582172.7654705,-75.1953125,907.71484375,428.7109375,-32.71484375,0.0
1734582172.769377,-197.75390625,875.0,387.6953125,-20.5078125,0.0
1734582172.7732832,-110.83984375,979.4921875,527.83203125,-38.57421875,0.0
1734582172.7771895,-83.984375,967.7734375,503.41796875,-23.92578125,0.0
1734582172.7795649,-47.8515625,965.8203125,413.0859375,25.87890625,0.0
1734582172.783471,45.41015625,967.7734375,487.79296875,-1.953125,0.0
1734582172.7873776,15.13671875,972.65625,547.8515625,-51.26953125,0.0
1734582172.7912838,-125.0,958.984375,479.00390625,-54.6875,0.0
1734582172.79519,-149.4140625,950.1953125,381.8359375,-35.15625,0.0
1734582172.7990966,-36.62109375,963.8671875,443.84765625,-51.26953125,0.0
1734582172.8030028,27.34375,970.703125,477.5390625,-81.54296875,0.0
1734582172.806909,-13.18359375,942.87109375,409.1796875,-20.5078125,0.0
1734582172.8108156,-111.328125,926.26953125,393.06640625,19.04296875,0.0
1734582172.8147218,-77.1484375,960.44921875,500.48828125,-13.671875,0.0
1734582172.818628,-8.7890625,987.3046875,549.31640625,-38.57421875,0.0
1734582172.8225343,-71.2890625,941.40625,441.89453125,-42.96875,0.0
1734582172.8248537,-196.77734375,793.45703125,261.71875,0.48828125,0.0
1734582172.82876,-66.89453125,925.29296875,474.609375,7.8125,0.0
1734582172.8326662,-37.59765625,996.09375,537.59765625,-14.16015625,0.0
1734582172.8365724,-88.8671875,933.59375,432.6171875,-11.23046875,0.0
1734582172.840479,-14.6484375,946.2890625,463.37890625,-11.71875,0.0
1734582172.8443851,-22.94921875,961.42578125,463.37890625,-3.41796875,0.0
1734582172.8482914,-64.94140625,979.00390625,459.47265625,-18.5546875,0.0
1734582172.852198,-97.16796875,909.66796875,396.484375,-25.390625,0.0
1734582172.8561041,-21.97265625,875.9765625,387.20703125,-36.62109375,0.0
1734582172.8600104,121.58203125,976.07421875,511.71875,-50.78125,0.0
1734582172.8639169,19.04296875,964.35546875,444.82421875,-40.52734375,0.0
1734582172.8678231,-73.73046875,965.33203125,441.40625,-40.52734375,0.0
1734582172.8701067,-16.11328125,967.28515625,516.6015625,-45.41015625,0.0
1734582172.8740132,68.359375,972.65625,532.2265625,-27.83203125,0.0
1734582172.8779194,114.2578125,957.51953125,484.375,-1.953125,0.0
1734582172.8818257,64.94140625,943.84765625,417.96875,-3.90625,0.0
1734582172.885732,34.1796875,957.51953125,485.3515625,-14.6484375,0.0
1734582172.8896384,-11.23046875,982.421875,493.65234375,-18.06640625,0.0
1734582172.8935447,-6.8359375,942.3828125,411.1328125,-10.7421875,0.0
1734582172.897451,-12.20703125,714.84375,250.9765625,30.76171875,0.0
1734582172.9013572,163.0859375,866.2109375,463.8671875,53.7109375,0.0
1734582172.9052637,202.63671875,-994.140625,572.75390625,37.59765625,0.0
1734582172.90917,82.51953125,950.1953125,492.1875,-5.859375,0.0
1734582172.9130762,114.2578125,970.21484375,525.87890625,-65.4296875,0.0
1734582172.915292,123.046875,964.35546875,520.01953125,-68.84765625,0.0
1734582172.9191983,138.671875,965.33203125,472.65625,-35.15625,0.0
1734582172.9231045,88.8671875,952.63671875,472.65625,-4.39453125,0.0
1734582172.9270108,0.9765625,954.1015625,519.53125,-4.39453125,0.0
1734582172.9309173,36.62109375,963.8671875,507.32421875,2.9296875,0.0
1734582172.9348235,87.40234375,976.5625,452.63671875,12.20703125,0.0
1734582172.9387298,43.45703125,917.96875,438.4765625,5.37109375,0.0
1734582172.942636,18.06640625,898.4375,475.09765625,17.578125,0.0
1734582172.9465425,81.54296875,977.5390625,565.91796875,-2.44140625,0.0
1734582172.9504488,87.890625,970.703125,550.29296875,-9.27734375,0.0
1734582172.954355,73.73046875,939.453125,482.91015625,36.1328125,0.0
1734582172.9582613,208.984375,945.3125,518.06640625,34.66796875,0.0
1734582172.9652793,253.41796875,982.421875,582.51953125,0.0,0.0
1734582172.9691856,40.52734375,950.68359375,524.90234375,-37.59765625,0.0
1734582172.973092,-81.0546875,901.3671875,410.15625,-50.29296875,0.0
1734582172.9769983,62.01171875,941.89453125,496.09375,-50.29296875,0.0
1734582172.9809046,92.28515625,982.91015625,543.45703125,-41.9921875,0.0
1734582172.9848108,-76.171875,946.77734375,440.4296875,-3.41796875,0.0
1734582172.9887173,-284.66796875,687.98828125,277.34375,12.6953125,0.0
1734582172.9926236,-233.3984375,840.33203125,471.6796875,-17.08984375,0.0
1734582172.9965298,-179.6875,-989.2578125,579.58984375,-41.50390625,0.0
1734582173.0004363,-215.33203125,949.70703125,532.71484375,-20.5078125,0.0
1734582173.0043426,-250.48828125,969.23828125,540.52734375,-1.46484375,0.0
1734582173.0082488,-273.92578125,967.7734375,552.24609375,-6.34765625,0.0
1734582173.014647,-309.5703125,968.26171875,554.19921875,-19.04296875,0.0
1734582173.0185533,-386.23046875,959.9609375,509.27734375,-30.2734375,0.0
1734582173.0224597,-252.9296875,961.9140625,535.15625,-21.97265625,0.0
1734582173.026366,-126.953125,968.75,575.1953125,-6.34765625,0.0
1734582173.0302722,-253.90625,969.23828125,547.8515625,0.9765625,0.0
1734582173.0341787,-296.875,947.75390625,466.796875,18.5546875,0.0
1734582173.038085,-319.82421875,942.87109375,442.87109375,21.97265625,0.0
1734582173.0419912,-472.65625,962.40234375,483.88671875,-7.32421875,0.0
1734582173.0458977,-503.90625,965.8203125,498.53515625,-8.30078125,0.0
1734582173.049804,-536.1328125,952.1484375,493.1640625,2.44140625,0.0
1734582173.0537102,-467.28515625,953.125,520.5078125,-5.37109375,0.0
1734582173.0576165,-306.15234375,971.19140625,583.0078125,-22.4609375,0.0
1734582173.0606663,-284.66796875,976.07421875,567.87109375,-9.27734375,0.0
1734582173.0645728,-387.6953125,910.15625,430.17578125,21.484375,0.0
1734582173.068479,-329.58984375,913.57421875,492.67578125,28.3203125,0.0
1734582173.0723853,-292.48046875,992.67578125,610.83984375,16.11328125,0.0
1734582173.0762916,-388.18359375,940.4296875,522.94921875,10.7421875,0.0
1734582173.080198,-430.6640625,874.51171875,351.5625,-29.296875,0.0
1734582173.0841043,-364.74609375,953.125,481.4453125,-31.25,0.0
1734582173.0880105,-399.4140625,981.93359375,605.46875,-4.39453125,0.0
1734582173.091917,-520.99609375,953.61328125,551.26953125,-11.71875,0.0
1734582173.0958233,-498.53515625,948.2421875,469.7265625,-3.41796875,0.0
1734582173.0997295,-423.828125,958.984375,498.53515625,-8.7890625,0.0
1734582173.103636,-429.19921875,982.421875,601.07421875,-34.1796875,0.0
1734582173.1186767,-592.28515625,955.078125,529.296875,-47.8515625,0.0
1734582173.1225832,-809.5703125,764.16015625,305.6640625,-13.671875,0.0
1734582173.1264894,-594.7265625,876.46484375,499.51171875,6.34765625,0.0
1734582173.1303957,-437.98828125,-995.60546875,622.55859375,-12.20703125,0.0
1734582173.1343021,-547.36328125,927.734375,489.2578125,-18.06640625,0.0
1734582173.1382084,-583.0078125,936.5234375,491.2109375,1.46484375,0.0
1734582173.1421149,-589.84375,969.23828125,524.90234375,-28.3203125,0.0
1734582173.1460211,-504.8828125,970.703125,563.96484375,-78.125,0.0
1734582173.1499276,-448.2421875,949.21875,529.78515625,-66.89453125,0.0
1734582173.1538339,-404.296875,947.265625,538.57421875,-84.9609375,0.0
1734582173.15774,-333.49609375,973.14453125,621.58203125,-91.796875,0.0
1734582173.1616466,-382.8125,968.75,596.6796875,-51.26953125,0.0
1734582173.167836,-451.66015625,968.75,514.16015625,-21.484375,0.0
1734582173.1717424,-361.81640625,964.84375,511.23046875,-46.875,0.0
1734582173.1756487,-208.49609375,974.12109375,620.60546875,-91.30859375,0.0
1734582173.179555,-287.109375,960.9375,582.51953125,-68.359375,0.0
1734582173.1834614,-516.6015625,920.8984375,384.765625,-60.05859375,0.0
1734582173.1873677,-368.1640625,954.1015625,489.2578125,-82.03125,0.0
1734582173.1912742,-142.08984375,975.5859375,620.1171875,-111.328125,0.0
1734582173.1951804,-167.96875,958.49609375,572.265625,-96.6796875,0.0
1734582173.1990867,-303.22265625,952.63671875,503.90625,-65.4296875,0.0
1734582173.2029932,-265.625,970.21484375,606.4453125,-75.68359375,0.0
1734582173.2068994,-216.796875,970.21484375,624.0234375,-68.84765625,0.0
1734582173.210806,-197.265625,968.75,585.9375,-53.7109375,0.0
1734582173.210825,-100.5859375,969.7265625,596.6796875,-46.38671875,0.0
