timestamps,TP9,AF7,AF8,TP10,Right AUX
1734409731.6260254,-334.47265625,968.75,195.80078125,-36.1328125,0.0
1734409731.6299314,-299.8046875,968.75,202.1484375,-8.7890625,0.0
1734409731.6338375,-275.390625,968.75,235.3515625,-8.30078125,0.0
1734409731.6377435,-326.66015625,968.75,246.58203125,-33.203125,0.0
1734409731.6416495,-387.20703125,968.75,51.7578125,-52.734375,0.0
1734409731.6455555,-349.12109375,968.75,-60.05859375,-29.78515625,0.0
1734409731.6494615,-298.828125,968.75,220.703125,-16.6015625,0.0
1734409731.6533678,-336.9140625,969.7265625,296.38671875,-33.69140625,0.0
1734409731.6572738,-397.4609375,959.47265625,129.8828125,-58.10546875,0.0
1734409731.6611798,-396.97265625,984.375,142.578125,-53.7109375,0.0
1734409731.6650858,-361.328125,893.5546875,288.0859375,-21.484375,0.0
1734409731.6695664,-340.8203125,683.10546875,257.8125,6.8359375,0.0
1734409731.6734724,-355.95703125,642.578125,253.41796875,-13.671875,0.0
1734409731.6773784,-383.7890625,631.34765625,198.2421875,-56.640625,0.0
1734409731.6812847,-390.13671875,522.4609375,209.9609375,-72.75390625,0.0
1734409731.6851907,-403.80859375,329.58984375,251.46484375,-42.96875,0.0
1734409731.6890967,-386.23046875,279.78515625,186.5234375,-8.7890625,0.0
1734409731.6930027,-379.8828125,361.81640625,202.63671875,-7.32421875,0.0
1734409731.6969087,-420.41015625,433.10546875,265.13671875,-54.6875,0.0
1734409731.7008147,-468.75,517.578125,238.76953125,-91.30859375,0.0
1734409731.7047207,-483.3984375,620.60546875,-46.875,-56.640625,0.0
1734409731.7086267,-467.28515625,694.3359375,101.5625,-25.87890625,0.0
1734409731.712533,-445.80078125,785.15625,354.4921875,-21.484375,0.0
1734409731.7168243,-464.84375,932.12890625,227.5390625,-30.2734375,0.0
1734409731.7207303,-541.50390625,971.6796875,250.0,-55.17578125,0.0
1734409731.7246363,-556.640625,965.33203125,313.4765625,-64.453125,0.0
1734409731.7285423,-527.34375,968.75,350.09765625,-41.015625,0.0
1734409731.7324483,-542.96875,968.75,263.18359375,-29.78515625,0.0
1734409731.7363546,-566.40625,968.75,193.359375,-59.5703125,0.0
1734409731.7402606,-590.33203125,968.75,247.55859375,-94.23828125,0.0
1734409731.7441666,-597.65625,968.75,288.57421875,-90.8203125,0.0
1734409731.7480726,-574.70703125,968.75,142.08984375,-52.24609375,0.0
1734409731.7519786,-546.875,968.75,129.8828125,-34.1796875,0.0
1734409731.7558846,-547.8515625,968.75,389.6484375,-64.453125,0.0
1734409731.7597907,-574.21875,968.75,377.44140625,-83.0078125,0.0
1734409731.7639172,-571.2890625,968.75,341.30859375,-72.265625,0.0
1734409731.7678232,-547.8515625,968.75,380.859375,-44.43359375,0.0
1734409731.7717292,-512.20703125,968.75,397.4609375,-38.57421875,0.0
1734409731.7756352,-493.65234375,968.75,372.55859375,-52.734375,0.0
1734409731.7795415,-493.1640625,968.75,383.30078125,-76.171875,0.0
1734409731.7834475,-508.7890625,968.75,358.88671875,-84.47265625,0.0
1734409731.7873535,-479.00390625,968.75,374.51171875,-49.31640625,0.0
1734409731.7912595,-437.98828125,968.75,421.38671875,-30.76171875,0.0
1734409731.7951655,-445.3125,968.75,216.796875,-41.015625,0.0
1734409731.7990716,-458.0078125,968.75,258.7890625,-57.12890625,0.0
1734409731.8029776,-438.4765625,968.75,464.84375,-80.56640625,0.0
1734409731.8068838,-395.99609375,968.75,396.484375,-69.3359375,0.0
1734409731.8117306,-389.16015625,968.75,385.7421875,-48.33984375,0.0
1734409731.8156369,-377.9296875,968.75,437.98828125,-71.77734375,0.0
1734409731.819543,-344.23828125,968.75,444.82421875,-103.515625,0.0
1734409731.823449,-309.08203125,968.75,376.953125,-94.23828125,0.0
1734409731.827355,-302.24609375,968.75,364.2578125,-51.26953125,0.0
1734409731.831261,-263.18359375,968.75,374.51171875,-15.13671875,0.0
1734409731.835167,-240.72265625,968.75,373.53515625,-43.9453125,0.0
1734409731.8390732,-281.73828125,968.26171875,272.4609375,-95.703125,0.0
1734409731.8429792,-311.03515625,968.26171875,253.90625,-100.09765625,0.0
1734409731.8468852,-251.953125,968.75,452.63671875,-82.03125,0.0
1734409731.8507912,-184.5703125,968.75,478.515625,-51.26953125,0.0
1734409731.8546972,-187.98828125,968.75,395.5078125,-43.45703125,0.0
1734409731.8585298,-215.33203125,968.75,375.48828125,-84.47265625,0.0
1734409731.8624358,-236.81640625,968.75,433.10546875,-125.48828125,0.0
1734409731.8663418,-223.14453125,968.75,441.89453125,-117.1875,0.0
1734409731.8702478,-193.84765625,968.26171875,456.0546875,-73.73046875,0.0
1734409731.8741539,-155.2734375,968.26171875,447.75390625,-50.78125,0.0
1734409731.87806,-193.359375,968.26171875,417.96875,-67.3828125,0.0
1734409731.881966,-239.74609375,968.75,395.5078125,-96.6796875,0.0
1734409731.8858721,-235.3515625,968.75,403.3203125,-102.05078125,0.0
1734409731.8897781,-198.73046875,968.75,463.8671875,-76.66015625,0.0
1734409731.8936841,-137.6953125,968.75,485.3515625,-60.05859375,0.0
1734409731.8975902,-153.3203125,968.75,453.125,-92.28515625,0.0
1734409731.9014964,-227.05078125,968.75,324.21875,-105.95703125,0.0
1734409731.9052625,-218.26171875,968.26171875,421.38671875,-69.82421875,0.0
1734409731.9091687,-184.5703125,968.75,549.8046875,-54.19921875,0.0
1734409731.9130747,-183.59375,968.75,458.0078125,-60.05859375,0.0
1734409731.9169807,-195.80078125,968.75,453.125,-95.703125,0.0
1734409731.9208868,-208.49609375,968.75,487.79296875,-114.74609375,0.0
1734409731.9247928,-207.51953125,968.75,471.19140625,-89.84375,0.0
1734409731.9286988,-183.10546875,968.75,387.20703125,-55.17578125,0.0
1734409731.9326048,-171.38671875,968.75,378.41796875,-33.203125,0.0
1734409731.936511,-171.875,968.75,534.66796875,-51.26953125,0.0
1734409731.940417,-206.54296875,968.75,539.0625,-83.0078125,0.0
1734409731.944323,-231.93359375,968.75,453.125,-96.19140625,0.0
1734409731.948229,-189.94140625,968.75,491.2109375,-91.30859375,0.0
1734409731.9519315,-168.45703125,968.75,541.50390625,-70.80078125,0.0
1734409731.9558375,-172.8515625,968.75,527.83203125,-76.171875,0.0
1734409731.9597435,-197.75390625,968.26171875,520.5078125,-105.95703125,0.0
1734409731.9636495,-218.26171875,968.26171875,517.08984375,-105.95703125,0.0
1734409731.9675555,-171.875,968.75,509.27734375,-79.1015625,0.0
1734409731.9714615,-121.58203125,968.75,466.796875,-64.453125,0.0
1734409731.9753675,-142.08984375,968.75,310.05859375,-60.05859375,0.0
1734409731.9792738,-174.31640625,968.75,382.8125,-84.47265625,0.0
1734409731.9831798,-159.1796875,968.75,552.24609375,-109.86328125,0.0
1734409731.9870858,-126.46484375,968.75,466.796875,-76.66015625,0.0
1734409731.9909918,-100.5859375,968.75,452.1484375,-50.29296875,0.0
1734409731.9948978,-96.19140625,968.75,494.62890625,-65.4296875,0.0
1734409731.9985077,-114.74609375,968.75,500.0,-99.12109375,0.0
1734409732.0024137,-133.30078125,968.26171875,464.84375,-110.83984375,0.0
1734409732.0063198,-117.67578125,968.26171875,464.35546875,-78.125,0.0
1734409732.0102258,-74.70703125,968.75,493.65234375,-38.0859375,0.0
1734409732.0141318,-51.7578125,968.75,487.3046875,-36.1328125,0.0
1734409732.018038,-98.14453125,968.75,354.4921875,-71.77734375,0.0
1734409732.021944,-117.67578125,968.75,293.45703125,-103.02734375,0.0
1734409732.02585,-76.66015625,968.26171875,450.1953125,-93.75,0.0
1734409732.029756,-58.59375,968.75,506.34765625,-70.3125,0.0
1734409732.033662,-54.6875,968.75,346.19140625,-63.4765625,0.0
1734409732.037568,-56.640625,968.26171875,368.65234375,-86.42578125,0.0
1734409732.041474,-71.2890625,968.75,490.234375,-107.91015625,0.0
1734409732.0457845,-64.94140625,968.75,447.75390625,-83.0078125,0.0
1734409732.0496905,-26.85546875,968.75,435.05859375,-37.59765625,0.0
1734409732.0535965,-6.8359375,968.75,439.94140625,-29.78515625,0.0
1734409732.0575025,-24.90234375,968.75,452.63671875,-68.359375,0.0
1734409732.0614085,-32.2265625,968.75,410.64453125,-91.796875,0.0
1734409732.0653148,-22.94921875,968.75,349.12109375,-73.2421875,0.0
1734409732.0692208,-11.23046875,968.75,371.09375,-41.015625,0.0
1734409732.0731268,27.34375,968.75,422.36328125,-39.0625,0.0
1734409732.0770328,39.55078125,968.75,377.9296875,-71.2890625,0.0
1734409732.0809388,15.13671875,968.75,272.94921875,-83.984375,0.0
1734409732.0848448,41.9921875,968.75,353.515625,-63.4765625,0.0
1734409732.088751,106.93359375,968.75,418.45703125,-46.38671875,0.0
1734409732.0929916,110.3515625,968.75,347.65625,-28.80859375,0.0
1734409732.0968976,76.171875,968.75,343.26171875,-43.45703125,0.0
1734409732.1008036,36.1328125,968.75,365.234375,-85.9375,0.0
1734409732.1047096,57.6171875,968.75,373.53515625,-68.359375,0.0
1734409732.1086156,81.54296875,968.75,306.15234375,-34.66796875,0.0
1734409732.1125216,70.80078125,968.75,242.67578125,-35.15625,0.0
1734409732.116428,75.1953125,968.75,283.203125,-50.78125,0.0
1734409732.120334,64.94140625,968.75,355.46875,-67.87109375,0.0
1734409732.12424,63.96484375,968.75,188.96484375,-44.921875,0.0
1734409732.128146,131.8359375,968.75,152.34375,-26.85546875,0.0
1734409732.132052,194.3359375,968.75,377.9296875,-34.66796875,0.0
1734409732.135958,158.203125,968.75,365.72265625,-47.36328125,0.0
1734409732.1400392,112.79296875,968.75,352.05078125,-73.2421875,0.0
1734409732.1439452,114.74609375,968.75,358.88671875,-70.80078125,0.0
1734409732.1478512,145.01953125,968.75,376.46484375,-59.08203125,0.0
1734409732.1517572,167.96875,968.75,340.8203125,-51.26953125,0.0
1734409732.1556635,178.7109375,968.75,331.54296875,-56.640625,0.0
1734409732.1595695,164.55078125,968.75,331.0546875,-83.49609375,0.0
1734409732.1634755,159.66796875,968.75,338.8671875,-89.35546875,0.0
1734409732.1673815,191.89453125,968.26171875,387.20703125,-58.59375,0.0
1734409732.1712875,208.0078125,968.75,150.87890625,-32.2265625,0.0
1734409732.1751935,209.47265625,968.75,198.2421875,-44.43359375,0.0
1734409732.1790998,210.9375,968.75,456.54296875,-70.3125,0.0
1734409732.1830058,207.51953125,968.75,372.55859375,-68.359375,0.0
1734409732.186945,220.21484375,968.75,337.890625,-36.62109375,0.0
1734409732.190851,246.09375,968.75,384.765625,-14.6484375,0.0
1734409732.1947572,245.1171875,968.75,405.2734375,-32.71484375,0.0
1734409732.1986632,228.515625,968.75,354.00390625,-62.5,0.0
1734409732.2025692,246.58203125,968.75,327.63671875,-49.31640625,0.0
1734409732.2064753,263.671875,968.75,330.078125,-22.4609375,0.0
1734409732.2103813,263.671875,968.75,336.9140625,-24.4140625,0.0
1734409732.2142873,217.7734375,968.75,192.87109375,-41.015625,0.0
1734409732.2181935,173.33984375,968.75,189.94140625,-78.61328125,0.0
1734409732.2220995,176.7578125,968.75,428.7109375,-100.5859375,0.0
1734409732.2260056,179.6875,968.26171875,419.43359375,-77.63671875,0.0
1734409732.2299116,191.40625,968.75,354.4921875,-46.38671875,0.0
1734409732.2337615,192.3828125,968.75,376.46484375,-48.828125,0.0
1734409732.2376676,172.36328125,968.75,426.26953125,-72.265625,0.0
1734409732.2415736,166.9921875,965.8203125,383.7890625,-83.984375,0.0
1734409732.2454796,152.83203125,971.6796875,366.2109375,-69.82421875,0.0
1734409732.2493856,128.41796875,947.265625,373.53515625,-61.5234375,0.0
1734409732.2532916,126.953125,854.4921875,319.82421875,-69.82421875,0.0
1734409732.2571979,95.21484375,766.11328125,343.26171875,-92.28515625,0.0
1734409732.2611039,37.109375,670.8984375,145.5078125,-117.67578125,0.0
1734409732.2650099,28.3203125,584.47265625,176.7578125,-111.81640625,0.0
1734409732.268916,35.64453125,531.25,378.41796875,-94.23828125,0.0
1734409732.272822,-0.48828125,463.37890625,231.93359375,-120.60546875,0.0
1734409732.276728,-57.12890625,387.6953125,235.83984375,-187.98828125,0.0
1734409732.2805033,-100.09765625,329.1015625,284.1796875,-241.69921875,0.0
1734409732.2844093,-128.41796875,265.625,254.8828125,-246.58203125,0.0
1734409732.2883155,-114.2578125,185.546875,195.80078125,-214.35546875,0.0
1734409732.2922215,-113.76953125,138.18359375,176.26953125,-202.1484375,0.0
1734409732.2961276,-160.15625,101.07421875,207.51953125,-226.07421875,0.0
1734409732.3000336,-176.26953125,49.8046875,166.50390625,-250.0,0.0
1734409732.3039396,-186.03515625,13.671875,-1.953125,-250.0,0.0
1734409732.3078456,-192.87109375,-13.671875,-131.34765625,-225.5859375,0.0
1734409732.3117518,-168.45703125,-19.53125,145.5078125,-199.70703125,0.0
1734409732.3156579,-161.62109375,-52.734375,227.5390625,-190.91796875,0.0
1734409732.3195639,-181.15234375,-104.00390625,92.7734375,-218.26171875,0.0
1734409732.3234699,-192.3828125,-123.53515625,116.2109375,-210.44921875,0.0
1734409732.3271487,-173.33984375,-111.81640625,196.2890625,-159.1796875,0.0
1734409732.3310547,-139.16015625,-125.0,142.08984375,-131.8359375,0.0
1734409732.3349607,-139.16015625,-151.3671875,121.09375,-131.8359375,0.0
1734409732.338867,-171.38671875,-175.29296875,187.5,-155.2734375,0.0
1734409732.342773,-175.29296875,-213.8671875,139.16015625,-163.0859375,0.0
1734409732.346679,-130.859375,-242.1875,137.6953125,-120.60546875,0.0
1734409732.350585,-78.61328125,-256.34765625,-90.8203125,-58.59375,0.0
1734409732.354491,-61.5234375,-237.79296875,-81.0546875,-56.640625,0.0
1734409732.358397,-87.40234375,-216.30859375,268.5546875,-100.09765625,0.0
1734409732.3623033,-143.06640625,-234.86328125,166.50390625,-93.26171875,0.0
1734409732.3662093,-116.69921875,-244.62890625,125.0,-53.22265625,0.0
1734409732.3701153,-67.87109375,-242.1875,239.74609375,-18.5546875,0.0
1734409732.37379,-74.21875,-247.0703125,264.6484375,-4.8828125,0.0
1734409732.377696,-86.9140625,-256.8359375,196.2890625,-28.80859375,0.0
1734409732.3816023,-112.3046875,-264.6484375,173.828125,-69.3359375,0.0
1734409732.3855083,-90.8203125,-263.671875,225.5859375,-60.546875,0.0
1734409732.3894143,-55.6640625,-267.08984375,221.19140625,-6.8359375,0.0
1734409732.3933203,-48.828125,-281.73828125,44.921875,-1.953125,0.0
1734409732.3972263,-49.31640625,-287.59765625,-33.203125,-27.83203125,0.0
1734409732.4011323,-49.31640625,-272.94921875,215.33203125,-54.6875,0.0
1734409732.4050386,-42.48046875,-264.16015625,290.52734375,-47.36328125,0.0
1734409732.4089446,-19.53125,-255.37109375,119.140625,-7.32421875,0.0
1734409732.4128506,-19.04296875,-230.95703125,144.53125,-0.9765625,0.0
1734409732.4167566,-34.66796875,-219.23828125,304.6875,-24.90234375,0.0
1734409732.4212313,-25.87890625,-225.09765625,271.97265625,-46.875,0.0
1734409732.4251373,-15.625,-229.4921875,226.07421875,-24.4140625,0.0
1734409732.4290433,-6.34765625,-200.68359375,255.37109375,11.71875,0.0
1734409732.4329495,13.671875,-166.50390625,282.2265625,5.859375,0.0
1734409732.4368556,7.32421875,-163.57421875,253.41796875,-29.296875,0.0
1734409732.4407616,-19.53125,-163.57421875,199.70703125,-43.45703125,0.0
1734409732.4446676,-7.8125,-159.1796875,221.6796875,-24.4140625,0.0
1734409732.4485736,24.90234375,-165.0390625,278.80859375,-1.953125,0.0
1734409732.4524796,36.62109375,-176.26953125,270.5078125,16.6015625,0.0
1734409732.4563859,28.3203125,-190.91796875,127.44140625,5.37109375,0.0
1734409732.4602919,16.11328125,-182.12890625,211.42578125,-36.62109375,0.0
1734409732.4641979,9.27734375,-136.23046875,337.40234375,-40.52734375,0.0
1734409732.4684615,20.01953125,-103.515625,275.390625,0.0,0.0
1734409732.4723678,41.50390625,-76.66015625,286.62109375,17.578125,0.0
1734409732.4762738,48.828125,-50.78125,330.56640625,-13.671875,0.0
1734409732.4801798,32.71484375,-46.875,337.40234375,-43.9453125,0.0
1734409732.4840858,25.390625,-47.36328125,239.74609375,-25.87890625,0.0
1734409732.4879918,48.33984375,-37.109375,197.265625,10.25390625,0.0
1734409732.491898,65.4296875,-15.625,235.3515625,28.80859375,0.0
1734409732.495804,52.24609375,12.6953125,273.92578125,17.08984375,0.0
1734409732.49971,26.3671875,40.0390625,92.28515625,0.9765625,0.0
1734409732.503616,31.73828125,82.51953125,57.12890625,-5.37109375,0.0
1734409732.507522,60.05859375,123.53515625,326.66015625,-0.9765625,0.0
1734409732.511428,76.171875,121.58203125,313.96484375,17.578125,0.0
1734409732.5155852,72.75390625,105.46875,298.33984375,2.9296875,0.0
1734409732.5194912,52.734375,90.8203125,323.2421875,-22.94921875,0.0
1734409732.5233974,45.41015625,75.68359375,338.8671875,-20.99609375,0.0
1734409732.5273035,58.10546875,52.24609375,325.68359375,4.39453125,0.0
1734409732.5312095,70.3125,32.71484375,313.4765625,6.8359375,0.0
1734409732.5351155,67.3828125,33.69140625,242.67578125,-4.8828125,0.0
1734409732.5390215,45.41015625,30.76171875,241.2109375,-24.90234375,0.0
1734409732.5429277,33.69140625,21.484375,291.50390625,-40.0390625,0.0
1734409732.5468338,24.90234375,0.0,60.05859375,-3.41796875,0.0
1734409732.5507398,36.62109375,-9.765625,146.97265625,13.18359375,0.0
1734409732.5546458,55.17578125,-20.5078125,338.8671875,-3.90625,0.0
1734409732.5585518,35.64453125,-52.24609375,219.7265625,-13.18359375,0.0
1734409732.5626302,21.97265625,-80.078125,227.05078125,-28.80859375,0.0
1734409732.5665362,38.0859375,-95.703125,243.1640625,-12.20703125,0.0
1734409732.5704422,53.22265625,-116.2109375,249.51171875,12.20703125,0.0
1734409732.5743482,70.80078125,-126.46484375,193.359375,9.765625,0.0
1734409732.5782542,49.8046875,-129.39453125,177.24609375,-15.13671875,0.0
1734409732.5821605,-10.7421875,-144.53125,175.78125,-31.25,0.0
1734409732.5860665,-10.7421875,-143.5546875,186.5234375,-20.5078125,0.0
1734409732.5899725,19.53125,-156.73828125,73.73046875,0.48828125,0.0
1734409732.5938785,27.83203125,-169.43359375,31.73828125,9.765625,0.0
1734409732.5977845,20.5078125,-156.25,290.52734375,-20.5078125,0.0
1734409732.6016905,16.11328125,-158.69140625,279.296875,-51.26953125,0.0
1734409732.6055968,9.765625,-169.43359375,175.78125,-40.52734375,0.0
1734409732.6094468,17.08984375,-159.1796875,230.46875,-1.46484375,0.0
1734409732.6133528,25.87890625,-142.578125,294.43359375,-5.859375,0.0
1734409732.6172588,1.46484375,-154.296875,241.69921875,-36.1328125,0.0
1734409732.6211648,-25.390625,-174.31640625,229.4921875,-52.734375,0.0
1734409732.6250708,-20.99609375,-186.5234375,194.3359375,-58.10546875,0.0
1734409732.6289768,1.46484375,-200.1953125,174.8046875,-27.83203125,0.0
1734409732.632883,10.25390625,-215.8203125,200.1953125,6.8359375,0.0
1734409732.636789,-4.8828125,-223.6328125,-61.5234375,-1.953125,0.0
1734409732.640695,-32.71484375,-212.890625,9.765625,-41.9921875,0.0
1734409732.644601,-36.62109375,-216.30859375,307.6171875,-42.96875,0.0
1734409732.648507,-21.484375,-238.76953125,212.40234375,-6.34765625,0.0
1734409732.6524131,-14.16015625,-238.76953125,182.6171875,-2.44140625,0.0
1734409732.6561353,-16.6015625,-235.83984375,243.65234375,-39.55078125,0.0
1734409732.6600413,-41.50390625,-248.53515625,251.46484375,-72.75390625,0.0
1734409732.6639476,-63.96484375,-271.97265625,173.828125,-59.08203125,0.0
1734409732.6678536,-40.52734375,-272.4609375,202.63671875,-19.53125,0.0
1734409732.6717596,-16.6015625,-244.62890625,227.5390625,-10.25390625,0.0
1734409732.6756656,-39.55078125,-228.02734375,197.265625,-33.203125,0.0
1734409732.6795716,-73.2421875,-229.4921875,62.5,-57.12890625,0.0
1734409732.6834776,-81.0546875,-225.09765625,-140.13671875,-53.7109375,0.0
1734409732.687384,-54.6875,-200.1953125,151.3671875,-37.109375,0.0
1734409732.69129,-29.296875,-201.66015625,296.875,-15.625,0.0
1734409732.695196,-27.83203125,-241.2109375,144.04296875,-12.20703125,0.0
1734409732.699102,-63.4765625,-283.69140625,172.8515625,-56.15234375,0.0
1734409732.7027266,-89.35546875,-311.5234375,239.74609375,-74.21875,0.0
1734409732.7066326,-45.8984375,-323.73046875,208.49609375,-31.25,0.0
1734409732.7105386,-5.859375,-334.47265625,232.421875,9.765625,0.0
1734409732.7144449,-8.7890625,-346.6796875,248.53515625,19.53125,0.0
1734409732.718351,-12.6953125,-353.515625,183.59375,10.25390625,0.0
1734409732.722257,-36.62109375,-357.421875,165.52734375,-11.23046875,0.0
1734409732.726163,-52.24609375,-370.1171875,-78.61328125,4.39453125,0.0
1734409732.730069,-21.97265625,-364.74609375,5.37109375,25.390625,0.0
1734409732.733975,-24.4140625,-357.421875,312.5,8.30078125,0.0
1734409732.7378812,-80.078125,-373.046875,196.77734375,-14.16015625,0.0
1734409732.7417872,-96.6796875,-384.765625,119.140625,-32.71484375,0.0
1734409732.7456932,-88.8671875,-369.62890625,194.82421875,-14.6484375,0.0
1734409732.7492573,-75.68359375,-356.93359375,284.66796875,9.27734375,0.0
1734409732.7531633,-69.82421875,-364.74609375,172.36328125,6.34765625,0.0
1734409732.7570693,-109.86328125,-374.0234375,138.18359375,-26.85546875,0.0
1734409732.7609754,-126.953125,-383.7890625,238.76953125,-48.828125,0.0
1734409732.7648814,-111.81640625,-396.97265625,248.53515625,-23.92578125,0.0
1734409732.7687874,-106.93359375,-416.015625,85.44921875,-0.9765625,0.0
1734409732.7726936,-115.234375,-416.9921875,-169.43359375,-0.9765625,0.0
1734409732.7765996,-106.4453125,-398.4375,55.6640625,-20.01953125,0.0
1734409732.7805057,-144.04296875,-401.3671875,253.41796875,-41.50390625,0.0
1734409732.7844117,-181.640625,-419.921875,85.9375,-36.62109375,0.0
1734409732.7883177,-140.625,-439.94140625,96.6796875,-21.97265625,0.0
1734409732.7922237,-137.6953125,-446.2890625,212.890625,-28.3203125,0.0
1734409732.7965493,-164.55078125,-437.5,192.87109375,-43.9453125,0.0
1734409732.8004553,-200.1953125,-453.125,83.49609375,-63.96484375,0.0
1734409732.8043613,-219.7265625,-467.7734375,85.9375,-72.265625,0.0
1734409732.8082674,-191.89453125,-450.1953125,187.98828125,-41.015625,0.0
1734409732.8121734,-190.91796875,-453.61328125,195.80078125,-26.85546875,0.0
1734409732.8160794,-216.796875,-468.26171875,46.875,-50.29296875,0.0
1734409732.8199856,-239.2578125,-463.37890625,61.5234375,-88.8671875,0.0
1734409732.8238916,-250.0,-458.984375,211.42578125,-108.3984375,0.0
1734409732.8277977,-241.69921875,-478.515625,171.875,-70.3125,0.0
1734409732.8317037,-229.98046875,-499.0234375,-50.78125,-29.78515625,0.0
1734409732.8356097,-244.62890625,-500.48828125,44.43359375,-57.12890625,0.0
1734409732.8395157,-280.2734375,-508.7890625,232.91015625,-116.2109375,0.0
1734409732.8445354,-286.62109375,-522.4609375,99.609375,-106.4453125,0.0
1734409732.8484414,-255.859375,-533.69140625,108.3984375,-54.19921875,0.0
1734409732.8523476,-229.98046875,-554.19921875,215.33203125,-35.15625,0.0
1734409732.8562536,-233.88671875,-607.421875,201.66015625,-58.59375,0.0
1734409732.8601596,-263.671875,-603.515625,85.9375,-93.75,0.0
1734409732.8640656,-274.4140625,-526.85546875,20.5078125,-90.33203125,0.0
1734409732.8679717,-224.609375,-501.46484375,78.61328125,-55.6640625,0.0
1734409732.871878,-175.78125,-526.3671875,153.80859375,-34.66796875,0.0
1734409732.875784,-181.15234375,-545.41015625,-44.43359375,-44.43359375,0.0
1734409732.87969,-199.21875,-550.29296875,-112.3046875,-66.89453125,0.0
1734409732.883596,-202.1484375,-558.10546875,239.74609375,-72.75390625,0.0
1734409732.887502,-169.43359375,-559.5703125,265.13671875,-58.10546875,0.0
1734409732.8915052,-122.0703125,-555.17578125,196.77734375,-45.8984375,0.0
1734409732.8954113,-87.890625,-550.78125,230.46875,-48.828125,0.0
1734409732.8993173,-94.23828125,-557.12890625,282.71484375,-71.77734375,0.0
1734409732.9032233,-96.19140625,-577.1484375,283.203125,-75.68359375,0.0
1734409732.9071295,-65.4296875,-596.6796875,288.57421875,-47.36328125,0.0
1734409732.9110355,-35.64453125,-604.4921875,252.9296875,-17.08984375,0.0
1734409732.9149415,1.46484375,-580.078125,289.0625,-14.16015625,0.0
1734409732.9188476,6.8359375,-569.3359375,298.33984375,-46.875,0.0
1734409732.9227536,-18.5546875,-578.125,264.6484375,-50.78125,0.0
1734409732.9266598,-22.4609375,-580.078125,345.703125,-28.3203125,0.0
1734409732.9305658,1.953125,-583.0078125,378.41796875,-4.8828125,0.0
1734409732.9344718,24.90234375,-613.76953125,339.84375,0.9765625,0.0
1734409732.938353,0.9765625,-645.01953125,117.1875,-25.87890625,0.0
1734409732.9422593,-32.2265625,-601.07421875,221.19140625,-62.01171875,0.0
1734409732.9461653,-18.5546875,-556.15234375,402.34375,-61.03515625,0.0
1734409732.9500713,1.46484375,-561.5234375,314.453125,-30.2734375,0.0
1734409732.9539773,12.6953125,-575.68359375,324.70703125,-27.83203125,0.0
1734409732.9578834,0.48828125,-580.078125,334.9609375,-59.5703125,0.0
1734409732.9617894,-19.04296875,-592.28515625,334.47265625,-82.03125,0.0
1734409732.9656956,-25.87890625,-605.46875,216.30859375,-62.01171875,0.0
1734409732.9696016,-20.5078125,-596.6796875,227.5390625,-27.83203125,0.0
1734409732.9735076,2.44140625,-587.40234375,433.10546875,-27.83203125,0.0
1734409732.9774137,0.9765625,-595.703125,360.83984375,-59.08203125,0.0
1734409732.9813197,-13.18359375,-607.421875,268.06640625,-71.2890625,0.0
1734409732.9850962,0.9765625,-606.93359375,347.16796875,-49.31640625,0.0
1734409732.9890025,10.7421875,-581.0546875,418.45703125,-29.78515625,0.0
1734409732.9929085,-22.94921875,-561.03515625,391.6015625,-9.765625,0.0
1734409732.9968145,-57.6171875,-559.5703125,365.72265625,-34.66796875,0.0
1734409733.0007205,-80.078125,-556.640625,349.609375,-81.54296875,0.0
1734409733.0046265,-98.6328125,-548.828125,297.36328125,-78.125,0.0
1734409733.0085325,-90.8203125,-581.0546875,326.171875,-48.828125,0.0
1734409733.0124388,-92.7734375,-590.8203125,167.48046875,-25.87890625,0.0
1734409733.0163448,-132.8125,-529.78515625,189.94140625,-54.6875,0.0
1734409733.0202508,-184.08203125,-509.27734375,408.203125,-89.84375,0.0
1734409733.0241568,-210.9375,-518.5546875,291.50390625,-85.9375,0.0
1734409733.0280628,-197.75390625,-528.3203125,273.4375,-77.63671875,0.0
1734409733.0317452,-187.5,-541.9921875,372.0703125,-63.96484375,0.0
1734409733.0356512,-201.171875,-527.34375,369.62890625,-71.2890625,0.0
1734409733.0395572,-222.65625,-503.90625,298.828125,-96.6796875,0.0
1734409733.0434632,-239.2578125,-493.1640625,301.26953125,-106.4453125,0.0
1734409733.0473692,-229.4921875,-493.65234375,351.07421875,-80.56640625,0.0
1734409733.0512753,-221.6796875,-499.0234375,349.12109375,-68.84765625,0.0
1734409733.0551815,-210.9375,-516.6015625,168.9453125,-79.1015625,0.0
1734409733.0590875,-228.02734375,-512.20703125,135.7421875,-98.6328125,0.0
1734409733.0629935,-251.46484375,-467.7734375,371.09375,-104.00390625,0.0
1734409733.0668995,-236.328125,-458.984375,362.3046875,-71.77734375,0.0
1734409733.0708055,-204.58984375,-471.6796875,267.08984375,-59.08203125,0.0
1734409733.0747118,-182.12890625,-463.37890625,292.48046875,-75.1953125,0.0
1734409733.0782733,-199.21875,-447.265625,358.3984375,-108.88671875,0.0
1734409733.0821795,-205.56640625,-443.359375,327.63671875,-115.72265625,0.0
1734409733.0860856,-187.01171875,-450.1953125,310.05859375,-74.70703125,0.0
1734409733.0899916,-183.59375,-466.796875,354.4921875,-70.80078125,0.0
1734409733.0938976,-180.6640625,-453.61328125,326.66015625,-86.42578125,0.0
1734409733.0978036,-190.4296875,-431.640625,289.0625,-105.46875,0.0
1734409733.1017096,-203.125,-453.125,64.94140625,-134.765625,0.0
1734409733.1056159,-187.01171875,-426.7578125,92.28515625,-119.140625,0.0
1734409733.1095219,-157.2265625,-379.39453125,386.23046875,-85.9375,0.0
1734409733.1134279,-163.57421875,-397.94921875,274.4140625,-74.70703125,0.0
1734409733.117334,-179.19921875,-411.1328125,225.09765625,-99.609375,0.0
1734409733.12124,-177.24609375,-409.66796875,313.96484375,-96.6796875,0.0
1734409733.1247578,-160.64453125,-409.1796875,319.3359375,-72.75390625,0.0
1734409733.128664,-147.94921875,-424.8046875,277.83203125,-62.01171875,0.0
1734409733.13257,-135.25390625,-441.89453125,268.5546875,-52.24609375,0.0
1734409733.136476,-121.58203125,-443.359375,314.94140625,-56.640625,0.0
1734409733.140382,-118.65234375,-458.49609375,319.3359375,-68.359375,0.0
1734409733.144288,-104.00390625,-468.75,158.203125,-61.5234375,0.0
1734409733.148194,-80.56640625,-467.7734375,94.23828125,-18.06640625,0.0
1734409733.1521003,-60.546875,-433.59375,279.296875,-3.90625,0.0
1734409733.1560063,-55.6640625,-420.41015625,288.0859375,-30.76171875,0.0
1734409733.1599123,-53.7109375,-445.3125,151.3671875,-39.55078125,0.0
1734409733.1638184,-29.296875,-442.3828125,239.74609375,-19.53125,0.0
1734409733.1677244,2.9296875,-429.6875,360.3515625,17.08984375,0.0
1734409733.1719468,44.43359375,-434.5703125,327.1484375,35.15625,0.0
1734409733.1758528,57.12890625,-464.35546875,316.89453125,40.52734375,0.0
1734409733.1797588,25.87890625,-450.1953125,319.82421875,28.3203125,0.0
1734409733.1836648,16.6015625,-402.34375,333.984375,1.953125,0.0
1734409733.187571,31.73828125,-385.25390625,309.5703125,17.578125,0.0
1734409733.191477,70.3125,-408.69140625,200.1953125,64.453125,0.0
1734409733.195383,96.6796875,-422.36328125,250.0,61.5234375,0.0
1734409733.199289,76.66015625,-387.6953125,389.6484375,23.4375,0.0
1734409733.203195,94.23828125,-378.90625,328.125,40.0390625,0.0
1734409733.207101,133.30078125,-373.046875,299.31640625,68.84765625,0.0
1734409733.2110074,179.6875,-366.2109375,386.71875,76.171875,0.0
1734409733.2149134,199.70703125,-394.04296875,370.60546875,54.19921875,0.0
1734409733.2190824,158.203125,-403.3203125,317.87109375,29.296875,0.0
1734409733.2229884,177.734375,-376.46484375,339.84375,36.62109375,0.0
1734409733.2268946,217.7734375,-364.74609375,380.37109375,70.3125,0.0
1734409733.2308006,230.46875,-365.234375,411.1328125,100.09765625,0.0
1734409733.2347066,258.30078125,-372.55859375,348.6328125,91.30859375,0.0
1734409733.2386127,297.8515625,-381.8359375,290.52734375,64.453125,0.0
1734409733.2425187,323.2421875,-379.39453125,318.84765625,62.01171875,0.0
1734409733.2464247,343.75,-371.58203125,375.9765625,101.5625,0.0
1734409733.250331,384.27734375,-380.37109375,259.27734375,123.046875,0.0
1734409733.254237,422.8515625,-387.20703125,248.53515625,131.8359375,0.0
1734409733.258143,480.95703125,-370.1171875,443.359375,115.72265625,0.0
1734409733.262049,504.39453125,-374.51171875,439.453125,109.86328125,0.0
1734409733.2660453,508.7890625,-391.11328125,409.1796875,138.18359375,0.0
1734409733.2699513,505.859375,-395.01953125,439.94140625,141.11328125,0.0
1734409733.2738574,517.08984375,-405.2734375,462.890625,118.65234375,0.0
1734409733.2777634,548.33984375,-416.015625,411.1328125,91.796875,0.0
1734409733.2816694,544.921875,-419.921875,426.7578125,91.796875,0.0
1734409733.2855754,564.453125,-429.19921875,413.57421875,105.95703125,0.0
1734409733.2894816,602.05078125,-436.5234375,433.59375,139.16015625,0.0
1734409733.2933877,625.48828125,-439.94140625,486.328125,155.76171875,0.0
1734409733.2972937,627.44140625,-445.80078125,309.08203125,160.64453125,0.0
1734409733.3011997,632.32421875,-440.4296875,357.91015625,151.3671875,0.0
1734409733.3051057,627.9296875,-427.734375,537.109375,126.46484375,0.0
1734409733.3090117,614.2578125,-436.03515625,447.265625,138.671875,0.0
1734409733.3129568,622.55859375,-433.59375,427.734375,152.34375,0.0
1734409733.3168628,636.23046875,-423.33984375,499.0234375,122.55859375,0.0
1734409733.3207688,609.375,-431.640625,505.859375,89.35546875,0.0
1734409733.3246748,566.89453125,-445.80078125,467.7734375,94.7265625,0.0
1734409733.328581,562.5,-462.40234375,478.02734375,131.8359375,0.0
1734409733.332487,576.171875,-470.21484375,467.7734375,133.7890625,0.0
1734409733.336393,557.6171875,-439.453125,469.23828125,85.9375,0.0
1734409733.3402991,512.20703125,-415.0390625,385.25390625,44.921875,0.0
1734409733.3442051,494.140625,-404.78515625,368.65234375,45.41015625,0.0
1734409733.3481112,481.4453125,-390.625,553.22265625,52.24609375,0.0
1734409733.3520174,451.66015625,-400.87890625,551.7578125,50.29296875,0.0
1734409733.3559234,414.0625,-416.015625,449.70703125,36.62109375,0.0
1734409733.359705,367.1875,-413.0859375,465.8203125,9.27734375,0.0
1734409733.363611,324.21875,-406.73828125,537.109375,4.8828125,0.0
1734409733.367517,302.734375,-413.0859375,528.3203125,18.5546875,0.0
1734409733.371423,282.71484375,-416.9921875,518.06640625,18.06640625,0.0
1734409733.3753293,254.8828125,-413.0859375,498.046875,-10.7421875,0.0
1734409733.3792353,200.1953125,-411.1328125,449.70703125,-48.33984375,0.0
1734409733.3831413,137.6953125,-402.83203125,446.77734375,-57.12890625,0.0
1734409733.3870473,82.51953125,-398.92578125,321.77734375,-37.109375,0.0
1734409733.3909533,60.05859375,-394.53125,368.1640625,-37.59765625,0.0
1734409733.3948596,49.8046875,-385.25390625,477.05078125,-55.6640625,0.0
1734409733.3987656,-9.27734375,-392.08984375,403.80859375,-92.7734375,0.0
1734409733.4026716,-70.3125,-409.1796875,396.484375,-106.4453125,0.0
1734409733.4063637,-82.51953125,-415.0390625,438.4765625,-72.265625,0.0
1734409733.4102697,-76.66015625,-417.48046875,437.5,-62.01171875,0.0
1734409733.4141757,-125.9765625,-422.36328125,374.0234375,-84.47265625,0.0
1734409733.4180818,-177.24609375,-420.8984375,379.39453125,-116.2109375,0.0
1734409733.421988,-208.49609375,-422.8515625,362.79296875,-135.7421875,0.0
1734409733.425894,-240.72265625,-426.7578125,331.54296875,-121.58203125,0.0
1734409733.4298,-268.06640625,-438.4765625,200.1953125,-111.81640625,0.0
1734409733.433706,-308.59375,-437.5,179.19921875,-123.53515625,0.0
1734409733.437612,-342.7734375,-417.96875,366.2109375,-163.0859375,0.0
1734409733.441518,-382.8125,-429.19921875,350.09765625,-186.03515625,0.0
1734409733.4454243,-423.33984375,-436.5234375,231.93359375,-171.875,0.0
1734409733.4493303,-418.9453125,-450.68359375,261.23046875,-148.92578125,0.0
1734409733.4529734,-432.6171875,-474.609375,286.1328125,-140.625,0.0
1734409733.4568794,-514.16015625,-456.54296875,248.53515625,-165.0390625,0.0
1734409733.4607854,-575.1953125,-421.38671875,268.5546875,-193.359375,0.0
1734409733.4646914,-598.14453125,-420.8984375,265.625,-196.2890625,0.0
1734409733.4685974,-607.421875,-435.546875,240.72265625,-177.734375,0.0
1734409733.4725037,-606.4453125,-446.77734375,245.60546875,-172.8515625,0.0
1734409733.4764097,-611.328125,-453.125,-71.77734375,-181.640625,0.0
1734409733.4803157,-640.13671875,-450.68359375,-97.65625,-198.2421875,0.0
1734409733.4842217,-673.33984375,-455.56640625,285.15625,-203.61328125,0.0
1734409733.4881277,-670.41015625,-468.75,171.875,-167.48046875,0.0
1734409733.4920337,-638.18359375,-478.02734375,105.95703125,-148.4375,0.0
1734409733.49594,-637.20703125,-491.2109375,220.21484375,-159.1796875,0.0
1734409733.4995172,-641.6015625,-523.4375,237.3046875,-167.48046875,0.0
1734409733.5034232,-607.91015625,-548.33984375,146.97265625,-161.62109375,0.0
1734409733.5073292,-585.44921875,-536.1328125,153.80859375,-140.625,0.0
1734409733.5112355,-556.640625,-517.578125,195.80078125,-112.3046875,0.0
1734409733.5151415,-517.578125,-514.16015625,187.01171875,-120.1171875,0.0
1734409733.5190475,-482.91015625,-538.57421875,56.15234375,-123.046875,0.0
1734409733.5229535,-468.26171875,-542.48046875,-165.52734375,-112.3046875,0.0
1734409733.5268595,-438.4765625,-506.8359375,84.47265625,-100.5859375,0.0
1734409733.5307655,-394.53125,-490.72265625,294.921875,-58.59375,0.0
1734409733.5346718,-382.32421875,-487.79296875,149.4140625,-69.3359375,0.0
1734409733.5385778,-384.765625,-488.76953125,182.6171875,-120.60546875,0.0
1734409733.5424838,-387.6953125,-486.81640625,299.31640625,-116.69921875,0.0
1734409733.5467699,-366.69921875,-492.1875,292.48046875,-89.84375,0.0
1734409733.5506759,-288.57421875,-498.046875,284.1796875,-81.54296875,0.0
1734409733.5545819,-167.48046875,-490.234375,302.734375,-77.63671875,0.0
1734409733.558488,-47.8515625,-495.60546875,337.890625,-78.61328125,0.0
1734409733.562394,35.15625,-500.48828125,349.609375,-70.3125,0.0
1734409733.5663,88.8671875,-501.953125,312.5,-42.48046875,0.0
1734409733.5702062,121.09375,-504.8828125,282.71484375,-20.99609375,0.0
1734409733.5741122,128.90625,-490.234375,362.3046875,-34.66796875,0.0
1734409733.5780182,115.72265625,-482.421875,386.23046875,-53.22265625,0.0
1734409733.5819242,82.51953125,-482.421875,275.87890625,-37.59765625,0.0
1734409733.5858302,61.03515625,-472.65625,350.09765625,-13.671875,0.0
1734409733.5897362,56.15234375,-470.21484375,444.3359375,-0.9765625,0.0
1734409733.593921,47.36328125,-465.33203125,392.578125,-17.08984375,0.0
1734409733.597827,49.8046875,-462.40234375,386.23046875,-30.2734375,0.0
1734409733.601733,29.78515625,-464.84375,425.78125,-33.69140625,0.0
1734409733.605639,-4.39453125,-461.9140625,435.05859375,-15.625,0.0
1734409733.6095452,10.7421875,-464.35546875,365.72265625,16.6015625,0.0
1734409733.6134512,23.92578125,-475.09765625,310.546875,15.13671875,0.0
1734409733.6173573,14.6484375,-477.5390625,346.19140625,9.27734375,0.0
1734409733.6212633,21.484375,-473.6328125,386.23046875,0.9765625,0.0
1734409733.6251693,37.109375,-480.46875,270.5078125,15.625,0.0
1734409733.6290753,36.62109375,-500.0,219.7265625,44.43359375,0.0
1734409733.6329815,21.97265625,-500.9765625,413.0859375,35.15625,0.0
1734409733.6368876,32.2265625,-507.8125,438.4765625,13.18359375,0.0
1734409733.640949,31.25,-523.4375,352.05078125,-17.08984375,0.0
1734409733.644855,26.85546875,-524.90234375,359.86328125,-7.8125,0.0
1734409733.6487613,46.875,-524.90234375,418.9453125,19.04296875,0.0
1734409733.6526673,61.03515625,-535.64453125,407.2265625,47.36328125,0.0
1734409733.6565733,60.546875,-554.19921875,374.0234375,51.7578125,0.0
1734409733.6604793,45.8984375,-562.5,314.94140625,16.6015625,0.0
1734409733.6643853,37.109375,-557.6171875,330.078125,5.37109375,0.0
1734409733.6682913,21.97265625,-562.01171875,399.90234375,12.6953125,0.0
1734409733.6721976,-15.625,-582.51953125,187.5,20.99609375,0.0
1734409733.6761036,-18.06640625,-574.21875,211.9140625,5.37109375,0.0
1734409733.6800096,-13.671875,-562.98828125,412.59765625,-7.8125,0.0
1734409733.6839156,-41.015625,-568.359375,311.5234375,13.18359375,0.0
1734409733.6878648,-58.10546875,-575.1953125,258.7890625,19.53125,0.0
1734409733.6917708,-48.828125,-583.0078125,334.9609375,13.18359375,0.0
1734409733.695677,-41.50390625,-593.75,380.37109375,17.08984375,0.0
1734409733.699583,-79.58984375,-613.76953125,298.33984375,-22.4609375,0.0
1734409733.703489,-183.59375,-631.8359375,261.71875,-76.66015625,0.0
1734409733.707395,-265.625,-657.2265625,278.3203125,-73.73046875,0.0
1734409733.711301,-290.52734375,-662.109375,288.57421875,-77.1484375,0.0
1734409733.715207,-331.54296875,-664.55078125,166.015625,-132.32421875,0.0
1734409733.7191133,-355.95703125,-669.43359375,139.6484375,-205.56640625,0.0
1734409733.7230194,-387.6953125,-664.0625,325.68359375,-244.62890625,0.0
1734409733.7269254,-440.4296875,-684.08203125,339.84375,-230.46875,0.0
1734409733.7308314,-452.1484375,-714.84375,231.93359375,-214.35546875,0.0
1734409733.7346234,-461.9140625,-727.05078125,251.46484375,-259.765625,0.0
1734409733.7385294,-463.8671875,-722.65625,327.1484375,-316.89453125,0.0
1734409733.7424355,-465.33203125,-725.5859375,274.90234375,-326.171875,0.0
1734409733.7463417,-479.4921875,-731.4453125,200.1953125,-315.91796875,0.0
1734409733.7502477,-467.28515625,-742.1875,208.49609375,-323.2421875,0.0
1734409733.7541537,-442.87109375,-759.27734375,211.42578125,-338.8671875,0.0
1734409733.7580597,-417.96875,-772.4609375,220.703125,-369.62890625,0.0
1734409733.7619658,-416.015625,-794.921875,-53.7109375,-378.41796875,0.0
1734409733.7658718,-424.31640625,-810.546875,-30.2734375,-355.46875,0.0
1734409733.769778,-399.90234375,-814.453125,312.01171875,-360.3515625,0.0
1734409733.773684,-361.328125,-838.37890625,149.4140625,-383.30078125,0.0
1734409733.77759,-327.1484375,-857.421875,89.35546875,-397.4609375,0.0
1734409733.7821605,-327.63671875,-872.0703125,176.7578125,-414.0625,0.0
1734409733.7860665,-343.75,-888.18359375,201.171875,-396.484375,0.0
1734409733.7899725,-331.54296875,-910.15625,102.5390625,-324.70703125,0.0
1734409733.7938786,-280.2734375,-924.8046875,99.12109375,-304.19921875,0.0
1734409733.7977848,-249.0234375,-905.2734375,140.13671875,-336.9140625,0.0
1734409733.8016908,-239.2578125,-890.625,92.7734375,-362.3046875,0.0
1734409733.8055968,-243.1640625,-894.04296875,-26.85546875,-345.703125,0.0
1734409733.8095028,-237.3046875,-911.62109375,-254.8828125,-300.78125,0.0
1734409733.8134089,-157.2265625,-920.8984375,16.6015625,-291.50390625,0.0
1734409733.817315,-101.07421875,-928.22265625,212.890625,-274.4140625,0.0
1734409733.821221,-94.7265625,-924.8046875,62.01171875,-252.44140625,0.0
1734409733.8251271,-100.09765625,-920.41015625,114.74609375,-252.9296875,0.0
1734409733.8287063,-109.86328125,-922.8515625,243.1640625,-208.0078125,0.0
1734409733.8326123,-88.37890625,-920.41015625,218.75,-166.015625,0.0
1734409733.8365183,-52.24609375,-917.96875,224.12109375,-165.0390625,0.0
1734409733.8404243,-34.66796875,-907.2265625,269.04296875,-184.5703125,0.0
1734409733.8443303,-71.77734375,-893.5546875,278.3203125,-177.734375,0.0
1734409733.8482366,-108.88671875,-876.46484375,222.65625,-133.7890625,0.0
1734409733.8521426,-111.328125,-854.00390625,266.11328125,-128.41796875,0.0
1734409733.8560486,-89.84375,-837.40234375,335.44921875,-125.0,0.0
1734409733.8599546,-90.8203125,-818.359375,345.21484375,-134.765625,0.0
1734409733.8638606,-119.62890625,-797.8515625,322.75390625,-128.41796875,0.0
1734409733.8677666,-132.8125,-778.80859375,126.46484375,-86.9140625,0.0
1734409733.8716729,-108.88671875,-738.28125,219.7265625,-73.73046875,0.0
1734409733.8751686,-75.1953125,-707.51953125,400.87890625,-65.4296875,0.0
1734409733.8790746,-63.4765625,-680.17578125,337.40234375,-62.98828125,0.0
1734409733.8829806,-73.2421875,-636.71875,339.84375,-61.5234375,0.0
1734409733.8868868,-66.89453125,-609.375,403.3203125,15.13671875,0.0
1734409733.8907928,-41.015625,-583.49609375,430.17578125,66.89453125,0.0
1734409733.8946989,23.92578125,-560.05859375,301.26953125,61.5234375,0.0
1734409733.8986049,108.88671875,-540.52734375,239.2578125,63.4765625,0.0
1734409733.902511,120.60546875,-513.18359375,355.46875,32.2265625,0.0
1734409733.9064171,82.03125,-493.65234375,428.22265625,25.87890625,0.0
1734409733.9103231,83.0078125,-481.93359375,309.5703125,69.82421875,0.0
1734409733.9142292,126.46484375,-470.703125,293.9453125,66.40625,0.0
1734409733.9181352,179.6875,-455.56640625,433.10546875,57.6171875,0.0
1734409733.9223306,179.19921875,-444.82421875,380.859375,90.33203125,0.0
1734409733.9262366,136.71875,-437.5,330.078125,132.32421875,0.0
1734409733.9301429,123.046875,-427.734375,379.39453125,184.5703125,0.0
1734409733.934049,141.6015625,-423.828125,402.34375,200.68359375,0.0
1734409733.937955,120.1171875,-421.38671875,368.65234375,146.484375,0.0
1734409733.941861,86.9140625,-408.69140625,288.57421875,122.0703125,0.0
1734409733.945767,75.68359375,-385.25390625,297.8515625,124.51171875,0.0
1734409733.949673,77.1484375,-389.6484375,400.87890625,119.140625,0.0
1734409733.9535792,69.3359375,-413.0859375,354.4921875,138.671875,0.0
1734409733.9574852,34.66796875,-417.48046875,208.0078125,169.43359375,0.0
1734409733.9613912,23.92578125,-410.64453125,274.90234375,180.6640625,0.0
1734409733.9652972,15.13671875,-401.85546875,353.02734375,174.8046875,0.0
1734409733.9694107,-19.53125,-404.78515625,282.71484375,175.78125,0.0
1734409733.973317,-20.01953125,-410.64453125,256.34765625,155.76171875,0.0
1734409733.977223,6.34765625,-403.3203125,299.8046875,117.67578125,0.0
1734409733.981129,15.13671875,-395.5078125,268.5546875,80.078125,0.0
1734409733.985035,-8.7890625,-395.99609375,161.62109375,82.51953125,0.0
1734409733.988941,-37.59765625,-410.64453125,150.87890625,123.046875,0.0
1734409733.992847,-45.41015625,-410.64453125,145.5078125,131.34765625,0.0
1734409733.9967532,-33.203125,-401.3671875,190.91796875,98.14453125,0.0
1734409734.0006592,-36.62109375,-417.96875,-8.30078125,96.6796875,0.0
1734409734.0045652,-67.87109375,-430.6640625,-99.609375,102.5390625,0.0
1734409734.0084713,-93.26171875,-417.48046875,271.484375,116.2109375,0.0
1734409734.0123773,-88.37890625,-417.48046875,270.5078125,133.30078125,0.0
1734409734.01636,-57.6171875,-410.64453125,170.8984375,108.3984375,0.0
1734409734.0202663,-42.96875,-396.484375,201.171875,118.1640625,0.0
1734409734.0241723,-55.6640625,-397.94921875,251.953125,121.58203125,0.0
1734409734.0280783,-48.828125,-401.85546875,256.8359375,106.93359375,0.0
1734409734.0319843,-62.5,-407.71484375,225.5859375,100.09765625,0.0
1734409734.0358903,-79.1015625,-413.57421875,175.29296875,96.6796875,0.0
1734409734.0397964,-65.91796875,-404.296875,225.09765625,91.30859375,0.0
1734409734.0437026,-66.89453125,-396.484375,283.69140625,79.58984375,0.0
1734409734.0476086,-94.23828125,-420.41015625,89.84375,105.95703125,0.0
1734409734.0515146,-77.1484375,-429.6875,142.08984375,127.44140625,0.0
1734409734.0554206,-52.24609375,-407.71484375,365.72265625,119.140625,0.0
1734409734.0593266,-48.828125,-412.109375,288.0859375,93.26171875,0.0
1734409734.0632093,-56.640625,-412.109375,269.53125,86.9140625,0.0
1734409734.0671155,-69.3359375,-395.01953125,365.72265625,89.84375,0.0
1734409734.0710216,-67.87109375,-401.85546875,381.34765625,74.70703125,0.0
1734409734.0749276,-48.828125,-419.43359375,301.26953125,79.58984375,0.0
1734409734.0788336,-34.66796875,-424.8046875,286.1328125,77.63671875,0.0
1734409734.0827396,-46.875,-420.8984375,288.0859375,96.19140625,0.0
1734409734.0866456,-59.08203125,-443.359375,307.6171875,136.23046875,0.0
1734409734.0905519,-54.19921875,-470.703125,220.21484375,158.69140625,0.0
1734409734.0944579,-31.73828125,-457.03125,189.94140625,171.875,0.0
1734409734.0983639,-10.7421875,-428.7109375,361.81640625,159.66796875,0.0
1734409734.10227,-32.71484375,-420.8984375,278.3203125,154.296875,0.0
1734409734.106176,-51.7578125,-401.3671875,183.10546875,115.234375,0.0
1734409734.1099842,-31.25,-375.9765625,270.99609375,94.23828125,0.0
1734409734.1138902,-22.4609375,-365.234375,301.7578125,68.84765625,0.0
1734409734.1177962,-27.83203125,-372.0703125,237.3046875,21.97265625,0.0
1734409734.1217024,-59.5703125,-369.140625,212.890625,20.99609375,0.0
1734409734.1256084,-67.87109375,-357.421875,213.37890625,59.08203125,0.0
1734409734.1295145,-65.4296875,-352.5390625,132.32421875,94.7265625,0.0
1734409734.1334205,-63.4765625,-330.078125,174.31640625,88.37890625,0.0
1734409734.1373265,-54.6875,-329.1015625,-140.13671875,84.9609375,0.0
1734409734.1412327,-74.70703125,-295.41015625,-206.0546875,70.3125,0.0
1734409734.1451387,-130.37109375,-216.796875,214.84375,60.546875,0.0
1734409734.1490448,-151.85546875,-170.41015625,138.671875,66.40625,0.0
1734409734.1529508,-125.0,-144.53125,83.0078125,60.546875,0.0
1734409734.1567464,-104.4921875,-121.58203125,178.22265625,50.29296875,0.0
1734409734.1606524,-94.23828125,-107.421875,123.046875,36.62109375,0.0
1734409734.1645584,-120.1171875,-91.796875,37.109375,34.1796875,0.0
1734409734.1684644,-144.53125,-80.078125,124.0234375,43.45703125,0.0
1734409734.1723704,-114.74609375,-68.359375,126.46484375,56.15234375,0.0
1734409734.1762767,-81.0546875,-41.50390625,92.7734375,41.015625,0.0
1734409734.1801827,-71.77734375,-21.97265625,-16.11328125,30.2734375,0.0
1734409734.1840887,-107.91015625,-11.71875,-185.546875,61.5234375,0.0
1734409734.1879947,-123.53515625,9.27734375,110.83984375,57.12890625,0.0
1734409734.1919007,-87.40234375,19.04296875,251.953125,31.25,0.0
1734409734.195807,-70.80078125,20.99609375,82.51953125,27.83203125,0.0
1734409734.199713,-61.03515625,34.66796875,88.37890625,26.85546875,0.0
1734409734.2033255,-73.73046875,62.98828125,194.3359375,17.08984375,0.0
1734409734.2072315,-102.05078125,70.80078125,207.51953125,30.76171875,0.0
1734409734.2111375,-104.98046875,66.40625,214.84375,63.96484375,0.0
1734409734.2150435,-90.33203125,73.2421875,221.19140625,74.70703125,0.0
1734409734.2189496,-77.1484375,80.078125,204.1015625,55.6640625,0.0
1734409734.2228558,-77.1484375,66.40625,152.83203125,55.17578125,0.0
1734409734.2267618,-83.0078125,58.10546875,35.64453125,64.453125,0.0
1734409734.2306678,-62.5,81.0546875,123.046875,43.9453125,0.0
1734409734.2345738,-65.4296875,102.05078125,280.76171875,-4.8828125,0.0
1734409734.2384799,-87.890625,102.05078125,190.91796875,-43.45703125,0.0
1734409734.2423859,-100.09765625,104.4921875,58.59375,-52.24609375,0.0
1734409734.246292,-125.9765625,118.65234375,181.15234375,-43.45703125,0.0
1734409734.2497606,-114.2578125,116.69921875,275.390625,-11.23046875,0.0
1734409734.2536666,-108.3984375,121.09375,184.08203125,2.9296875,0.0
1734409734.2575727,-136.71875,134.27734375,192.87109375,4.8828125,0.0
1734409734.2614787,-158.69140625,143.06640625,231.93359375,61.03515625,0.0
1734409734.265385,-180.6640625,162.59765625,264.16015625,95.21484375,0.0
1734409734.269291,-183.10546875,166.9921875,131.34765625,82.03125,0.0
1734409734.273197,-179.6875,153.3203125,11.71875,69.82421875,0.0
1734409734.277103,-171.38671875,155.76171875,202.63671875,43.45703125,0.0
1734409734.281009,-210.9375,166.50390625,256.34765625,-18.06640625,0.0
1734409734.2849152,-296.38671875,167.96875,119.62890625,-38.57421875,0.0
1734409734.2888212,-295.41015625,161.62109375,178.22265625,-8.7890625,0.0
1734409734.2927272,-273.92578125,161.1328125,287.59765625,-14.6484375,0.0
1734409734.2969975,-248.046875,150.390625,223.14453125,-42.96875,0.0
1734409734.3009036,-261.71875,181.640625,182.12890625,-94.23828125,0.0
1734409734.3048098,-325.68359375,235.83984375,212.40234375,-86.42578125,0.0
1734409734.3087158,-342.28515625,269.04296875,259.27734375,-61.5234375,0.0
1734409734.3126218,-397.94921875,303.7109375,221.6796875,-74.21875,0.0
1734409734.3165278,-484.86328125,327.63671875,165.52734375,-60.05859375,0.0
1734409734.3204339,-562.01171875,351.07421875,237.79296875,-64.94140625,0.0
1734409734.3243399,-607.421875,392.578125,334.9609375,-50.78125,0.0
1734409734.328246,-657.2265625,437.5,346.19140625,-13.18359375,0.0
1734409734.3321521,-703.61328125,478.02734375,270.5078125,-15.625,0.0
1734409734.3360581,-711.42578125,527.34375,353.515625,-30.2734375,0.0
1734409734.3399642,-685.05859375,575.68359375,449.70703125,-55.17578125,0.0
1734409734.3441365,-673.33984375,596.19140625,441.89453125,-91.796875,0.0
1734409734.3480427,-676.26953125,612.3046875,508.7890625,-78.61328125,0.0
1734409734.3519487,-590.8203125,631.34765625,574.70703125,-55.6640625,0.0
1734409734.3558547,-546.875,622.0703125,608.3984375,-72.265625,0.0
1734409734.3597608,-547.36328125,603.515625,620.60546875,-95.703125,0.0
1734409734.3636668,-564.453125,595.21484375,615.234375,-94.7265625,0.0
1734409734.367573,-604.98046875,606.93359375,635.25390625,-64.453125,0.0
1734409734.371479,-570.3125,617.67578125,712.40234375,-63.96484375,0.0
1734409734.375385,-483.3984375,617.67578125,698.2421875,-89.84375,0.0
1734409734.379291,-467.7734375,635.7421875,692.87109375,-86.42578125,0.0
1734409734.383197,-461.42578125,689.453125,803.7109375,-83.49609375,0.0
1734409734.387103,-409.66796875,737.79296875,820.3125,-71.2890625,0.0
1734409734.391098,-359.86328125,787.59765625,787.109375,-50.78125,0.0
1734409734.395004,-361.328125,843.26171875,802.24609375,-54.6875,0.0
1734409734.39891,-364.74609375,885.25390625,812.5,-88.37890625,0.0
1734409734.402816,-368.1640625,926.26953125,816.40625,-104.00390625,0.0
1734409734.4067223,-343.26171875,962.40234375,831.54296875,-62.01171875,0.0
1734409734.4106283,-316.40625,968.75,824.21875,-53.7109375,0.0
1734409734.4145343,-314.453125,968.26171875,824.21875,-81.54296875,0.0
1734409734.4184403,-310.546875,968.75,831.0546875,-112.3046875,0.0
1734409734.4223464,-345.703125,968.75,777.34375,-144.04296875,0.0
1734409734.4262524,-383.7890625,968.75,804.19921875,-126.46484375,0.0
1734409734.4301586,-366.2109375,968.75,848.14453125,-82.03125,0.0
1734409734.4340646,-330.56640625,968.75,818.84765625,-80.56640625,0.0
1734409734.437973,-331.54296875,968.75,806.15234375,-124.51171875,0.0
1734409734.4418793,-395.01953125,968.75,823.73046875,-139.6484375,0.0
1734409734.4457853,-396.97265625,968.75,828.61328125,-130.859375,0.0
1734409734.4496913,-373.046875,968.75,824.70703125,-111.328125,0.0
1734409734.4535973,-382.8125,968.75,813.96484375,-92.7734375,0.0
1734409734.4575033,-385.7421875,968.75,803.7109375,-99.12109375,0.0
1734409734.4614096,-424.31640625,968.75,805.17578125,-89.84375,0.0
1734409734.4653156,-434.08203125,968.75,777.83203125,-79.1015625,0.0
1734409734.4692216,-386.23046875,968.75,737.3046875,-103.02734375,0.0
1734409734.4731276,-341.30859375,968.75,800.29296875,-130.859375,0.0
1734409734.4770336,-332.03125,968.75,811.03515625,-145.5078125,0.0
1734409734.4809396,-336.42578125,968.75,712.890625,-164.55078125,0.0
1734409734.4847403,-335.9375,968.75,744.62890625,-137.6953125,0.0
1734409734.4886463,-298.828125,968.75,795.8984375,-129.39453125,0.0
1734409734.4925523,-252.9296875,968.26171875,756.34765625,-154.296875,0.0
1734409734.4964583,-228.515625,968.75,716.796875,-168.9453125,0.0
1734409734.5003643,-234.375,966.30859375,675.78125,-191.89453125,0.0
1734409734.5042703,-233.88671875,971.6796875,638.671875,-204.58984375,0.0
1734409734.5081766,-210.44921875,948.73046875,635.25390625,-175.78125,0.0
1734409734.5120826,-192.3828125,861.81640625,519.04296875,-116.69921875,0.0
1734409734.5159886,-169.43359375,811.03515625,536.62109375,-120.60546875,0.0
1734409734.5198946,-158.69140625,799.31640625,645.5078125,-168.45703125,0.0
1734409734.5238006,-150.87890625,766.11328125,581.0546875,-191.89453125,0.0
1734409734.5277069,-127.9296875,726.5625,544.921875,-169.921875,0.0
1734409734.5313785,-125.0,696.2890625,592.28515625,-142.08984375,0.0
1734409734.5352845,-111.81640625,666.50390625,592.28515625,-143.5546875,0.0
1734409734.5391908,-108.88671875,650.87890625,550.29296875,-165.0390625,0.0
1734409734.5430968,-136.71875,644.04296875,540.52734375,-193.84765625,0.0
1734409734.5470028,-92.7734375,621.09375,561.5234375,-162.109375,0.0
1734409734.5509088,-41.50390625,573.73046875,515.625,-124.51171875,0.0
1734409734.5548148,-52.24609375,522.4609375,413.57421875,-155.2734375,0.0
1734409734.5587208,-50.78125,485.83984375,426.7578125,-205.56640625,0.0
1734409734.562627,-53.22265625,454.1015625,526.3671875,-213.8671875,0.0
1734409734.566533,-44.921875,403.80859375,543.45703125,-127.44140625,0.0
1734409734.570439,1.953125,354.00390625,454.1015625,-102.5390625,0.0
1734409734.574345,48.33984375,315.4296875,404.296875,-158.69140625,0.0
1734409734.5779219,39.0625,280.76171875,459.9609375,-201.66015625,0.0
1734409734.5818279,19.04296875,245.1171875,475.09765625,-176.7578125,0.0
1734409734.585734,46.875,216.796875,478.515625,-125.0,0.0
1734409734.5896401,87.890625,202.63671875,496.58203125,-121.09375,0.0
1734409734.5935462,117.67578125,182.6171875,473.6328125,-143.06640625,0.0
1734409734.5974522,139.6484375,159.1796875,447.265625,-168.9453125,0.0
1734409734.6013582,145.01953125,129.8828125,264.16015625,-167.48046875,0.0
1734409734.6052642,122.55859375,122.0703125,313.96484375,-152.83203125,0.0
1734409734.6091702,144.04296875,116.69921875,511.23046875,-148.4375,0.0
1734409734.6130764,179.19921875,87.40234375,417.48046875,-129.8828125,0.0
1734409734.6169825,166.50390625,68.84765625,396.97265625,-128.41796875,0.0
1734409734.6208885,138.671875,56.640625,439.94140625,-132.8125,0.0
1734409734.6244135,170.41015625,39.55078125,441.40625,-123.53515625,0.0
1734409734.6283195,207.51953125,13.18359375,396.97265625,-98.6328125,0.0
1734409734.6322255,191.40625,-5.37109375,339.84375,-85.44921875,0.0
1734409734.6361318,191.40625,-7.8125,360.83984375,-111.81640625,0.0
1734409734.6400378,178.7109375,-16.11328125,386.71875,-117.67578125,0.0
1734409734.6439438,162.109375,-37.59765625,286.1328125,-93.26171875,0.0
1734409734.6478498,185.546875,-60.546875,246.09375,-64.94140625,0.0
1734409734.6517558,199.70703125,-59.08203125,352.05078125,-71.77734375,0.0
1734409734.6556618,203.125,-62.5,399.90234375,-104.98046875,0.0
1734409734.659568,185.05859375,-90.8203125,285.15625,-96.6796875,0.0
1734409734.663474,161.1328125,-114.2578125,267.08984375,-81.54296875,0.0
1734409734.66738,175.29296875,-124.0234375,393.5546875,-69.82421875,0.0
1734409734.6716862,202.1484375,-138.671875,364.2578125,-70.3125,0.0
1734409734.6755922,193.359375,-151.85546875,312.01171875,-116.2109375,0.0
1734409734.6794984,164.55078125,-155.76171875,321.2890625,-145.01953125,0.0
1734409734.6834044,151.3671875,-158.69140625,337.890625,-115.72265625,0.0
1734409734.6873105,158.69140625,-167.96875,325.1953125,-76.66015625,0.0
1734409734.6912165,161.1328125,-177.734375,282.2265625,-49.8046875,0.0
1734409734.6951225,159.1796875,-186.5234375,205.56640625,-35.64453125,0.0
1734409734.6990287,132.32421875,-188.96484375,236.81640625,-27.83203125,0.0
1734409734.7029347,74.21875,-189.94140625,306.15234375,-12.6953125,0.0
1734409734.7068408,80.078125,-201.66015625,125.48828125,-33.203125,0.0
1734409734.7107468,97.16796875,-199.21875,182.12890625,-69.3359375,0.0
1734409734.7146528,108.88671875,-187.5,358.88671875,-109.86328125,0.0
1734409734.718805,96.19140625,-192.3828125,251.953125,-137.6953125,0.0
1734409734.7227113,62.98828125,-194.82421875,209.47265625,-112.3046875,0.0
1734409734.7266173,73.73046875,-184.5703125,310.546875,-73.2421875,0.0
1734409734.7305233,127.9296875,-188.96484375,321.77734375,-62.5,0.0
1734409734.7344294,132.8125,-196.77734375,230.46875,-61.03515625,0.0
1734409734.7383354,99.12109375,-193.359375,155.76171875,-73.73046875,0.0
1734409734.7422414,81.0546875,-184.5703125,159.1796875,-79.58984375,0.0
1734409734.7461476,75.1953125,-180.6640625,270.99609375,-44.43359375,0.0
1734409734.7500536,93.75,-187.5,130.859375,-25.390625,0.0
1734409734.7539597,111.81640625,-186.5234375,9.765625,-46.38671875,0.0
1734409734.7578657,99.609375,-170.41015625,286.1328125,-72.75390625,0.0
1734409734.7617717,40.52734375,-169.43359375,299.8046875,-61.03515625,0.0
1734409734.765799,29.296875,-169.921875,212.890625,-19.04296875,0.0
1734409734.769705,66.40625,-165.0390625,243.65234375,-19.04296875,0.0
1734409734.773611,97.65625,-158.203125,312.01171875,-66.89453125,0.0
1734409734.777517,109.375,-146.97265625,274.4140625,-94.7265625,0.0
1734409734.7814233,61.5234375,-135.25390625,250.48828125,-58.10546875,0.0
1734409734.7853293,26.3671875,-124.51171875,219.7265625,-18.06640625,0.0
1734409734.7892354,65.4296875,-106.4453125,235.83984375,-41.50390625,0.0
1734409734.7931414,95.21484375,-91.796875,316.89453125,-59.5703125,0.0
1734409734.7970474,83.49609375,-102.5390625,-7.8125,-71.77734375,0.0
1734409734.8009536,68.359375,-95.21484375,14.16015625,-92.28515625,0.0
1734409734.8048596,57.6171875,-86.9140625,361.81640625,-85.9375,0.0
1734409734.8087656,64.453125,-106.4453125,248.046875,-63.96484375,0.0
1734409734.8127067,87.890625,-115.234375,220.21484375,-55.17578125,0.0
1734409734.816613,71.77734375,-121.58203125,300.78125,-80.56640625,0.0
1734409734.820519,50.29296875,-124.51171875,291.50390625,-70.3125,0.0
1734409734.824425,55.17578125,-139.6484375,212.40234375,-46.875,0.0
1734409734.828331,78.125,-154.78515625,233.88671875,-41.015625,0.0
1734409734.832237,99.609375,-139.16015625,215.8203125,-25.87890625,0.0
1734409734.8361433,92.7734375,-129.39453125,196.2890625,-31.73828125,0.0
1734409734.8400493,66.89453125,-134.765625,94.7265625,-29.296875,0.0
1734409734.8439553,61.03515625,-131.34765625,21.97265625,-19.53125,0.0
1734409734.8478613,80.56640625,-108.88671875,268.5546875,-43.45703125,0.0
1734409734.8517673,68.359375,-121.09375,288.0859375,-62.98828125,0.0
1734409734.8556733,44.921875,-155.76171875,145.99609375,-79.58984375,0.0
1734409734.8595037,31.73828125,-162.109375,198.2421875,-84.9609375,0.0
1734409734.8634098,7.32421875,-173.828125,305.17578125,-46.875,0.0
1734409734.867316,22.94921875,-190.91796875,278.3203125,-13.18359375,0.0
1734409734.871222,51.7578125,-178.22265625,256.8359375,-29.78515625,0.0
1734409734.875128,50.29296875,-158.69140625,254.8828125,-71.2890625,0.0
1734409734.879034,24.90234375,-138.671875,229.4921875,-73.73046875,0.0
1734409734.88294,11.71875,-116.2109375,263.671875,-67.3828125,0.0
1734409734.886846,28.3203125,-110.83984375,109.375,-41.50390625,0.0
1734409734.8907523,55.17578125,-92.7734375,144.04296875,-34.66796875,0.0
1734409734.8946583,66.89453125,-72.75390625,402.34375,-51.7578125,0.0
1734409734.8985643,65.4296875,-72.265625,282.71484375,-56.640625,0.0
1734409734.9024704,31.25,-69.82421875,243.1640625,-44.43359375,0.0
1734409734.906168,-6.34765625,-58.59375,334.9609375,-21.484375,0.0
1734409734.910074,49.8046875,-48.33984375,347.16796875,-30.76171875,0.0
1734409734.91398,84.9609375,-42.48046875,311.5234375,-34.66796875,0.0
1734409734.917886,31.25,-40.0390625,313.96484375,-46.875,0.0
1734409734.9217923,11.71875,-50.29296875,336.42578125,-53.7109375,0.0
1734409734.9256983,27.34375,-56.640625,326.66015625,-40.0390625,0.0
1734409734.9296043,39.0625,-40.0390625,246.09375,-41.50390625,0.0
1734409734.9335103,13.18359375,-33.69140625,176.7578125,-65.91796875,0.0
1734409734.9374163,15.625,-31.73828125,333.49609375,-103.02734375,0.0
1734409734.9413223,32.71484375,-20.99609375,410.64453125,-91.30859375,0.0
1734409734.9452286,13.671875,-29.296875,305.17578125,-52.24609375,0.0
1734409734.9491346,32.71484375,-33.203125,329.1015625,-38.0859375,0.0
1734409734.9527647,45.8984375,-31.73828125,426.26953125,-37.109375,0.0
1734409734.9566708,37.59765625,-41.50390625,395.01953125,-36.1328125,0.0
1734409734.9605768,20.01953125,-43.45703125,377.44140625,-21.97265625,0.0
1734409734.9644828,-6.34765625,-44.921875,415.0390625,-0.9765625,0.0
1734409734.968389,9.27734375,-35.64453125,402.34375,-1.46484375,0.0
1734409734.972295,23.4375,-20.01953125,378.41796875,-35.64453125,0.0
1734409734.976201,33.69140625,-14.16015625,201.171875,-58.59375,0.0
1734409734.980107,38.57421875,5.859375,247.55859375,-68.359375,0.0
1734409734.984013,-8.7890625,21.97265625,461.9140625,-67.87109375,0.0
1734409734.987919,11.71875,22.4609375,385.25390625,-49.31640625,0.0
1734409734.9918253,51.7578125,32.71484375,369.62890625,-20.01953125,0.0
1734409734.9957314,43.9453125,42.48046875,438.4765625,-40.52734375,0.0
1734409734.99927,18.5546875,45.8984375,453.125,-68.84765625,0.0
1734409735.003176,-8.30078125,27.34375,392.578125,-48.828125,0.0
1734409735.007082,15.13671875,26.3671875,394.53125,-23.4375,0.0
1734409735.010988,31.73828125,46.38671875,434.5703125,-24.4140625,0.0
1734409735.014894,25.390625,41.9921875,435.546875,-43.9453125,0.0
1734409735.0188003,-1.953125,31.73828125,353.02734375,-50.78125,0.0
1734409735.0227063,-25.87890625,39.55078125,270.5078125,-29.78515625,0.0
1734409735.0266123,-3.41796875,62.5,402.83203125,-16.11328125,0.0
1734409735.0305183,14.6484375,64.94140625,484.375,-19.04296875,0.0
1734409735.0344243,16.6015625,56.15234375,390.13671875,-39.0625,0.0
1734409735.0383303,15.625,51.26953125,375.48828125,-53.7109375,0.0
1734409735.0422366,1.46484375,36.62109375,461.9140625,-48.33984375,0.0
1734409735.0456579,6.8359375,15.625,427.734375,-31.73828125,0.0
1734409735.049564,27.34375,3.41796875,367.67578125,-14.16015625,0.0
1734409735.05347,20.01953125,0.0,427.734375,-44.43359375,0.0
1734409735.057376,-3.41796875,1.46484375,449.21875,-74.21875,0.0
1734409735.0612822,-15.13671875,-4.39453125,394.53125,-58.10546875,0.0
1734409735.0651882,-10.25390625,-17.08984375,366.2109375,-28.3203125,0.0
1734409735.0690942,1.46484375,-15.13671875,395.5078125,-21.484375,0.0
1734409735.0730002,21.484375,-10.25390625,422.36328125,-23.4375,0.0
1734409735.0769062,14.16015625,-20.99609375,398.92578125,-28.3203125,0.0
1734409735.0808122,-3.41796875,-42.48046875,255.859375,-20.01953125,0.0
1734409735.0847185,24.4140625,-46.875,302.734375,9.765625,0.0
1734409735.0886245,14.6484375,-41.015625,428.7109375,-9.765625,0.0
1734409735.0928597,-35.15625,-49.31640625,353.515625,-51.26953125,0.0
1734409735.0967658,-38.0859375,-63.4765625,353.515625,-84.9609375,0.0
1734409735.1006718,-22.94921875,-67.87109375,384.765625,-96.6796875,0.0
1734409735.1045778,-31.25,-71.77734375,349.609375,-67.3828125,0.0
1734409735.108484,-18.5546875,-82.51953125,296.38671875,-46.38671875,0.0
1734409735.11239,-15.13671875,-99.609375,268.5546875,-46.875,0.0
1734409735.116296,4.39453125,-110.83984375,317.3828125,-55.6640625,0.0
1734409735.120202,-2.44140625,-108.88671875,376.46484375,-55.6640625,0.0
1734409735.124108,-47.8515625,-117.67578125,270.01953125,-40.52734375,0.0
1734409735.128014,-22.94921875,-122.0703125,245.1171875,-27.83203125,0.0
1734409735.1319203,-1.46484375,-113.76953125,408.203125,-36.1328125,0.0
1734409735.1358263,-20.5078125,-128.41796875,383.30078125,-55.17578125,0.0
1734409735.139964,-38.0859375,-151.3671875,307.12890625,-76.171875,0.0
1734409735.14387,-21.97265625,-155.2734375,346.19140625,-71.2890625,0.0
1734409735.1477761,10.25390625,-151.3671875,403.80859375,-36.1328125,0.0
1734409735.1516821,20.5078125,-158.203125,395.99609375,-30.76171875,0.0
1734409735.1555884,-15.13671875,-167.48046875,376.953125,-69.3359375,0.0
1734409735.1594944,-50.78125,-180.6640625,325.68359375,-71.2890625,0.0
1734409735.1634004,-52.24609375,-184.5703125,304.19921875,-59.5703125,0.0
1734409735.1673064,-28.80859375,-181.15234375,372.0703125,-56.640625,0.0
1734409735.1712124,-8.30078125,-191.40625,221.19140625,-44.921875,0.0
1734409735.1751184,-1.46484375,-190.91796875,232.91015625,-57.12890625,0.0
1734409735.1790247,-37.109375,-188.4765625,438.4765625,-74.21875,0.0
1734409735.1829307,-60.05859375,-202.1484375,350.09765625,-76.66015625,0.0
1734409735.1869955,-28.3203125,-206.54296875,332.51953125,-41.015625,0.0
1734409735.1909018,-25.87890625,-206.54296875,398.92578125,-25.390625,0.0
1734409735.1948078,-40.52734375,-215.8203125,392.08984375,-75.1953125,0.0
1734409735.1987138,-52.24609375,-226.07421875,358.3984375,-91.30859375,0.0
1734409735.2026198,-34.66796875,-229.00390625,346.6796875,-51.7578125,0.0
1734409735.2065258,7.32421875,-240.234375,352.5390625,-40.52734375,0.0
1734409735.2104318,1.953125,-253.90625,335.44921875,-45.41015625,0.0
1734409735.214338,-55.6640625,-261.23046875,250.9765625,-38.0859375,0.0
1734409735.218244,-53.22265625,-264.16015625,242.67578125,-52.24609375,0.0
1734409735.22215,-25.390625,-252.9296875,380.859375,-74.21875,0.0
1734409735.226056,-37.109375,-262.20703125,366.2109375,-56.640625,0.0
1734409735.229962,-27.83203125,-270.99609375,292.48046875,-50.78125,0.0
1734409735.233902,0.0,-265.625,334.9609375,-65.4296875,0.0
1734409735.237808,0.0,-270.5078125,391.11328125,-77.63671875,0.0
1734409735.241714,0.0,-276.85546875,369.140625,-77.63671875,0.0
1734409735.24562,0.0,-278.3203125,369.140625,-55.6640625,0.0
1734409735.249526,0.0,-274.4140625,365.72265625,-57.6171875,0.0
1734409735.2534323,0.0,-274.90234375,309.08203125,-70.80078125,0.0
1734409735.2573383,0.0,-272.94921875,315.91796875,-90.33203125,0.0
1734409735.2612443,0.0,-278.80859375,153.3203125,-90.33203125,0.0
1734409735.2651503,0.0,-275.87890625,215.33203125,-53.7109375,0.0
1734409735.2690563,0.0,-265.13671875,434.5703125,-68.84765625,0.0
1734409735.2729626,0.0,-271.97265625,329.1015625,-92.7734375,0.0
1734409735.2768686,0.0,-282.2265625,296.38671875,-84.47265625,0.0
1734409735.280671,10.7421875,-280.2734375,356.4453125,-87.40234375,0.0
1734409735.284577,-54.19921875,-287.109375,356.4453125,-106.93359375,0.0
1734409735.288483,-55.6640625,-302.24609375,326.171875,-95.703125,0.0
1734409735.292389,-19.04296875,-304.6875,342.28515625,-75.68359375,0.0
1734409735.296295,-18.06640625,-309.08203125,333.984375,-97.65625,0.0
1734409735.300201,-53.22265625,-314.94140625,298.33984375,-108.88671875,0.0
1734409735.3041072,-52.734375,-311.5234375,250.0,-91.30859375,0.0
1734409735.3080132,-47.36328125,-319.3359375,244.140625,-86.9140625,0.0
1734409735.3119192,-18.5546875,-317.3828125,373.53515625,-106.93359375,0.0
1734409735.3158252,-34.66796875,-311.5234375,410.64453125,-119.140625,0.0
1734409735.3197312,-90.33203125,-315.91796875,263.18359375,-123.53515625,0.0
1734409735.3236372,-96.19140625,-314.453125,286.62109375,-129.8828125,0.0
1734409735.3273513,0.0,-310.546875,429.6875,-130.37109375,0.0
1734409735.3312573,0.0,-307.12890625,400.390625,-134.765625,0.0
1734409735.3351634,0.0,-313.4765625,374.0234375,-126.953125,0.0
1734409735.3390694,0.0,-315.91796875,384.765625,-118.65234375,0.0
1734409735.3429754,0.0,-302.24609375,363.76953125,-113.76953125,0.0
1734409735.3468816,0.0,-291.015625,371.09375,-106.4453125,0.0
1734409735.3507876,0.0,-296.875,197.265625,-119.62890625,0.0
1734409735.3546937,0.0,-285.64453125,220.21484375,-129.8828125,0.0
1734409735.3585997,0.0,-275.87890625,416.50390625,-125.9765625,0.0
1734409735.3625057,0.0,-292.48046875,344.23828125,-133.30078125,0.0
1734409735.3664117,0.0,-290.0390625,345.703125,-120.60546875,0.0
1734409735.370318,0.0,-286.62109375,376.46484375,-108.3984375,0.0
1734409735.3739252,-10.7421875,-285.15625,401.3671875,-109.86328125,0.0
1734409735.3778312,-1.46484375,-286.1328125,337.40234375,-97.65625,0.0
1734409735.3817372,-67.3828125,-286.62109375,306.15234375,-108.88671875,0.0
1734409735.3856435,-146.484375,-282.2265625,372.55859375,-116.69921875,0.0
1734409735.3895495,-120.60546875,-291.015625,370.60546875,-110.3515625,0.0
1734409735.3934555,-56.640625,-300.29296875,276.3671875,-110.3515625,0.0
1734409735.3973615,-65.4296875,-303.7109375,206.54296875,-102.5390625,0.0
1734409735.4012675,-106.4453125,-295.8984375,299.31640625,-114.2578125,0.0
1734409735.4051735,-131.8359375,-284.1796875,392.578125,-97.65625,0.0
1734409735.4090798,-132.32421875,-283.69140625,328.125,-61.03515625,0.0
1734409735.4129858,-124.0234375,-285.64453125,351.07421875,-68.84765625,0.0
1734409735.4168918,-153.3203125,-274.90234375,434.5703125,-93.75,0.0
1734409735.4213197,0.0,-274.90234375,399.4140625,-84.47265625,0.0
1734409735.4252257,0.0,-284.66796875,367.1875,-40.52734375,0.0
1734409735.429132,0.0,-289.0625,378.90625,-39.0625,0.0
1734409735.433038,0.0,-286.62109375,422.36328125,-96.19140625,0.0
1734409735.436944,0.0,-283.69140625,387.20703125,-120.60546875,0.0
1734409735.44085,0.0,-288.0859375,334.47265625,-90.8203125,0.0
1734409735.444756,0.0,-282.2265625,356.4453125,-46.875,0.0
1734409735.448662,0.0,-269.04296875,402.34375,-43.9453125,0.0
1734409735.4525683,0.0,-279.78515625,361.328125,-103.02734375,0.0
1734409735.4564743,0.0,-295.8984375,279.296875,-123.046875,0.0
1734409735.4603803,0.0,-289.0625,281.73828125,-83.0078125,0.0
1734409735.4642863,0.0,-276.3671875,359.86328125,-79.1015625,0.0
1734409735.4685435,-155.2734375,-284.1796875,331.54296875,-91.796875,0.0
1734409735.4724495,-202.63671875,-293.9453125,270.01953125,-74.70703125,0.0
1734409735.4763558,-272.94921875,-282.71484375,327.1484375,-78.125,0.0
1734409735.4802618,-332.51953125,-274.4140625,342.28515625,-91.30859375,0.0
1734409735.4841678,-360.3515625,-282.71484375,293.45703125,-70.80078125,0.0
1734409735.4880738,-358.3984375,-292.48046875,248.046875,-54.19921875,0.0
1734409735.4919798,-324.21875,-283.69140625,271.97265625,-56.640625,0.0
1734409735.495886,-311.03515625,-281.25,311.03515625,-81.0546875,0.0
1734409735.499792,-379.8828125,-295.8984375,194.82421875,-84.47265625,0.0
1734409735.503698,-413.57421875,-297.8515625,198.73046875,-50.29296875,0.0
1734409735.5076041,-456.0546875,-292.48046875,395.99609375,-43.45703125,0.0
1734409735.5115101,-529.78515625,-301.26953125,397.94921875,-60.05859375,0.0
1734409735.515695,-542.48046875,-312.5,324.21875,-61.5234375,0.0
1734409735.519601,-533.69140625,-316.89453125,317.87109375,-52.734375,0.0
1734409735.523507,-560.05859375,-305.6640625,416.9921875,-35.64453125,0.0
1734409735.5274131,-569.82421875,-297.36328125,441.89453125,-46.38671875,0.0
1734409735.5313191,-553.7109375,-310.546875,395.5078125,-49.31640625,0.0
1734409735.5352252,-524.90234375,-318.84765625,337.890625,-53.22265625,0.0
1734409735.5391314,-493.1640625,-298.828125,348.14453125,-64.453125,0.0
1734409735.5430374,-514.16015625,-289.55078125,418.9453125,-75.1953125,0.0
1734409735.5469434,-576.171875,-311.03515625,228.02734375,-67.3828125,0.0
1734409735.5508494,-537.109375,-308.10546875,212.40234375,-48.33984375,0.0
1734409735.5547554,-457.51953125,-290.0390625,397.94921875,-54.6875,0.0
1734409735.5586615,-464.35546875,-287.59765625,318.84765625,-86.9140625,0.0
1734409735.562713,0.0,-280.2734375,272.4609375,-99.609375,0.0
1734409735.566619,0.0,-279.78515625,343.26171875,-83.0078125,0.0
1734409735.5705252,0.0,-279.78515625,364.2578125,-60.546875,0.0
1734409735.5744312,0.0,-271.484375,281.25,-41.50390625,0.0
1734409735.5783372,0.0,-269.04296875,216.30859375,-67.87109375,0.0
1734409735.5822432,0.0,-275.390625,220.703125,-74.21875,0.0
1734409735.5861492,0.0,-270.5078125,246.58203125,-43.45703125,0.0
1734409735.5900555,0.0,-264.16015625,138.671875,-35.64453125,0.0
1734409735.5939615,0.0,-264.6484375,124.51171875,-35.64453125,0.0
1734409735.5978675,0.0,-257.32421875,324.70703125,-59.5703125,0.0
1734409735.6017735,0.0,-256.8359375,346.6796875,-54.6875,0.0
1734409735.6056795,0.0,-262.6953125,232.91015625,-35.15625,0.0
1734409735.607153,-478.515625,-256.8359375,262.20703125,-39.55078125,0.0
1734409735.611059,-443.359375,-251.953125,365.234375,-43.45703125,0.0
1734409735.614965,-415.0390625,-251.953125,326.66015625,-53.7109375,0.0
1734409735.618871,-391.6015625,-254.39453125,314.94140625,-70.80078125,0.0
1734409735.622777,-377.9296875,-260.7421875,329.58984375,-68.84765625,0.0
1734409735.626683,-427.734375,-266.6015625,280.76171875,-57.12890625,0.0
1734409735.630589,-431.640625,-266.11328125,306.15234375,-59.5703125,0.0
1734409735.6344953,-398.92578125,-266.11328125,138.18359375,-74.70703125,0.0
1734409735.6384013,-390.13671875,-263.671875,130.37109375,-87.890625,0.0
1734409735.6423073,-367.1875,-258.7890625,384.27734375,-62.5,0.0
1734409735.6462133,-319.82421875,-267.578125,287.59765625,-30.2734375,0.0
1734409735.6501193,-352.5390625,-270.5078125,238.28125,-34.66796875,0.0
1734409735.6540956,-370.60546875,-269.53125,315.4296875,-56.640625,0.0
1734409735.6580017,-348.14453125,-264.16015625,312.98828125,-53.7109375,0.0
1734409735.6619077,-354.98046875,-268.06640625,265.625,-40.0390625,0.0
1734409735.6658137,-339.84375,-278.3203125,296.38671875,-26.3671875,0.0
1734409735.66972,-314.453125,-276.85546875,272.94921875,-31.73828125,0.0
1734409735.673626,-302.734375,-278.80859375,220.703125,-45.8984375,0.0
1734409735.677532,-283.203125,-284.66796875,142.08984375,-46.875,0.0
1734409735.681438,-274.90234375,-279.78515625,4.8828125,-24.90234375,0.0
1734409735.685344,-295.8984375,-269.53125,195.80078125,-30.76171875,0.0
1734409735.68925,-313.4765625,-269.53125,301.7578125,-34.66796875,0.0
1734409735.693156,-282.71484375,-268.5546875,142.578125,-0.48828125,0.0
1734409735.6970623,-287.109375,-272.4609375,138.18359375,-7.8125,0.0
1734409735.7008765,-294.921875,-278.80859375,253.90625,-24.4140625,0.0
1734409735.7047825,-269.53125,-291.015625,245.60546875,-8.7890625,0.0
1734409735.7086885,-247.55859375,-302.24609375,190.91796875,0.9765625,0.0
1734409735.7125947,-200.68359375,-296.38671875,224.12109375,-19.04296875,0.0
1734409735.7165008,-179.19921875,-297.36328125,196.2890625,-50.29296875,0.0
1734409735.7204068,-202.1484375,-299.31640625,187.98828125,-43.9453125,0.0
1734409735.7243128,-178.7109375,-293.45703125,-12.20703125,-5.37109375,0.0
1734409735.7282188,-168.9453125,-278.80859375,-44.921875,-2.9296875,0.0
1734409735.7321248,-126.953125,-263.18359375,297.8515625,-45.8984375,0.0
1734409735.7360308,-38.57421875,-262.20703125,211.42578125,-68.84765625,0.0
1734409735.739937,-32.2265625,-266.11328125,138.18359375,-60.546875,0.0
1734409735.743843,-41.015625,-269.53125,217.7734375,-45.8984375,0.0
1734409735.7475348,10.7421875,-271.97265625,242.1875,-40.52734375,0.0
1734409735.7514408,62.5,-279.78515625,184.5703125,-64.453125,0.0
1734409735.755347,101.07421875,-282.71484375,167.96875,-89.84375,0.0
1734409735.759253,120.60546875,-263.18359375,220.21484375,-83.0078125,0.0
1734409735.763159,131.8359375,-255.859375,253.90625,-49.31640625,0.0
1734409735.767065,149.90234375,-272.4609375,132.8125,-34.66796875,0.0
1734409735.770971,135.7421875,-269.53125,-147.4609375,-34.1796875,0.0
1734409735.774877,124.0234375,-257.8125,53.7109375,-50.29296875,0.0
1734409735.778783,130.859375,-261.23046875,304.6875,-59.5703125,0.0
1734409735.7826893,169.43359375,-267.08984375,195.3125,-38.0859375,0.0
1734409735.7865953,200.1953125,-270.01953125,214.84375,-2.44140625,0.0
1734409735.7905014,239.74609375,-269.04296875,319.3359375,0.48828125,0.0
1734409735.7949805,289.55078125,-267.578125,311.03515625,-27.34375,0.0
1734409735.7988865,309.08203125,-270.01953125,250.48828125,-33.69140625,0.0
1734409735.8027925,318.84765625,-264.6484375,273.4375,-27.34375,0.0
1734409735.8066988,367.67578125,-259.765625,351.07421875,-25.87890625,0.0
1734409735.8106048,407.2265625,-263.671875,299.31640625,-22.94921875,0.0
1734409735.8145108,415.52734375,-271.97265625,249.51171875,-34.66796875,0.0
1734409735.8184168,406.73828125,-269.53125,227.5390625,-41.50390625,0.0
1734409735.8223228,406.73828125,-264.16015625,260.25390625,-31.25,0.0
1734409735.8262289,427.734375,-266.11328125,314.94140625,-27.83203125,0.0
1734409735.8301349,485.3515625,-272.94921875,151.3671875,-39.55078125,0.0
1734409735.834041,538.57421875,-270.99609375,212.890625,-55.6640625,0.0
1734409735.8379471,568.359375,-264.16015625,380.859375,-75.68359375,0.0
1734409735.8422868,625.9765625,-270.01953125,300.78125,-48.828125,0.0
1734409735.8461928,680.6640625,-276.85546875,276.85546875,-2.44140625,0.0
1734409735.8500988,696.2890625,-264.6484375,338.37890625,4.8828125,0.0
1734409735.854005,723.6328125,-255.37109375,361.328125,-16.11328125,0.0
1734409735.857911,760.7421875,-259.765625,303.7109375,-25.87890625,0.0
1734409735.8618171,752.44140625,-256.8359375,250.48828125,-2.9296875,0.0
1734409735.8657231,750.48828125,-253.90625,268.06640625,17.08984375,0.0
1734409735.8696291,755.859375,-253.90625,345.703125,0.48828125,0.0
1734409735.8735352,778.3203125,-252.9296875,224.12109375,-19.04296875,0.0
1734409735.8774414,775.87890625,-252.9296875,157.2265625,-19.53125,0.0
1734409735.8813474,747.55859375,-246.58203125,367.1875,-2.44140625,0.0
1734409735.8852534,732.91015625,-248.53515625,375.0,33.203125,0.0
1734409735.8894558,718.75,-250.0,254.39453125,19.04296875,0.0
1734409735.8933618,713.37890625,-246.09375,281.25,-15.13671875,0.0
1734409735.8972678,681.15234375,-249.51171875,350.09765625,-29.78515625,0.0
1734409735.9011738,652.34375,-254.8828125,313.96484375,-15.625,0.0
1734409735.9050798,620.60546875,-253.41796875,308.10546875,23.4375,0.0
1734409735.9089859,603.02734375,-252.9296875,237.79296875,44.43359375,0.0
1734409735.9128919,596.19140625,-251.46484375,222.65625,31.25,0.0
1734409735.916798,519.53125,-246.09375,306.15234375,-3.90625,0.0
1734409735.9207041,457.03125,-256.34765625,-4.8828125,14.16015625,0.0
1734409735.9246101,401.85546875,-254.8828125,12.20703125,17.08984375,0.0
1734409735.9285161,312.5,-241.69921875,310.05859375,-11.71875,0.0
1734409735.9324222,310.05859375,-239.2578125,163.0859375,-21.97265625,0.0
1734409735.936499,0.0,-242.1875,51.26953125,-41.9921875,0.0
1734409735.9404051,0.0,-253.41796875,134.27734375,-60.05859375,0.0
1734409735.9443111,0.0,-257.8125,219.23828125,-47.36328125,0.0
1734409735.9482172,0.0,-261.23046875,79.58984375,-55.6640625,0.0
1734409735.9521234,0.0,-272.4609375,-26.3671875,-79.1015625,0.0
1734409735.9560294,0.0,-278.80859375,14.6484375,-102.05078125,0.0
1734409735.9599354,0.0,-281.25,31.25,-92.28515625,0.0
1734409735.9638414,0.0,-286.62109375,-84.9609375,-47.8515625,0.0
1734409735.9677474,0.0,-292.96875,-311.03515625,-36.1328125,0.0
1734409735.9716535,0.0,-282.2265625,-17.578125,-59.08203125,0.0
1734409735.9755595,0.0,-278.80859375,172.8515625,-64.453125,0.0
1734409735.9794657,0.0,-290.52734375,-65.91796875,-60.05859375,0.0
1734409735.9834104,106.4453125,-291.9921875,-72.75390625,-40.0390625,0.0
1734409735.9873164,157.2265625,-287.109375,105.95703125,-31.73828125,0.0
1734409735.9912224,192.3828125,-292.96875,-8.7890625,-41.015625,0.0
1734409735.9951284,223.6328125,-298.33984375,-209.47265625,-57.6171875,0.0
1734409735.9990346,215.33203125,-304.19921875,-131.8359375,-63.96484375,0.0
1734409736.0029407,229.00390625,-319.3359375,-127.9296875,-35.64453125,0.0
1734409736.0068467,276.85546875,-325.68359375,-176.7578125,-28.80859375,0.0
1734409736.0107527,337.40234375,-330.078125,-408.69140625,-36.1328125,0.0
1734409736.0146587,380.859375,-323.2421875,-297.36328125,-53.22265625,0.0
1734409736.0185647,437.5,-316.40625,108.3984375,-84.47265625,0.0
1734409736.022471,480.46875,-322.265625,12.6953125,-63.96484375,0.0
1734409736.026377,506.34765625,-320.3125,-42.48046875,-41.50390625,0.0
1734409736.0302794,524.90234375,-317.87109375,19.53125,-48.828125,0.0
1734409736.0341856,551.26953125,-316.40625,112.3046875,-69.3359375,0.0
1734409736.0380917,560.05859375,-307.12890625,14.16015625,-68.84765625,0.0
1734409736.0419977,577.63671875,-300.29296875,-45.8984375,-69.82421875,0.0
1734409736.0459037,590.33203125,-300.78125,57.6171875,-69.82421875,0.0
1734409736.0498097,613.28125,-299.31640625,25.87890625,-59.5703125,0.0
1734409736.0537157,632.32421875,-301.26953125,-64.94140625,-70.80078125,0.0
1734409736.057622,635.25390625,-301.7578125,-320.3125,-72.265625,0.0
1734409736.061528,620.1171875,-287.59765625,-89.84375,-54.6875,0.0
1734409736.065434,636.71875,-289.0625,189.453125,-52.24609375,0.0
1734409736.06934,656.25,-296.875,3.41796875,-66.89453125,0.0
1734409736.073246,664.55078125,-293.9453125,25.390625,-85.44921875,0.0
1734409736.0769815,675.29296875,-290.0390625,139.16015625,-87.40234375,0.0
1734409736.0808876,640.13671875,-290.0390625,117.67578125,-72.75390625,0.0
1734409736.0847936,631.8359375,-296.875,72.265625,-57.6171875,0.0
1734409736.0886998,628.90625,-298.33984375,85.9375,-58.10546875,0.0
1734409736.0926058,611.81640625,-297.8515625,98.6328125,-70.80078125,0.0
1734409736.0965118,638.671875,-302.24609375,68.359375,-60.546875,0.0
1734409736.1004179,627.44140625,-310.05859375,-262.6953125,-61.03515625,0.0
1734409736.1043239,597.65625,-301.26953125,-241.2109375,-50.29296875,0.0
1734409736.1082299,585.9375,-286.1328125,131.8359375,-37.59765625,0.0
1734409736.1121361,572.265625,-294.43359375,12.20703125,-34.1796875,0.0
1734409736.1160421,598.6328125,-295.41015625,47.36328125,-45.8984375,0.0
1734409736.1199481,588.8671875,-289.0625,111.81640625,-69.82421875,0.0
1734409736.1236002,565.4296875,-283.203125,136.23046875,-54.6875,0.0
1734409736.1275063,576.171875,-278.3203125,47.36328125,-21.484375,0.0
1734409736.1314123,580.078125,-283.69140625,-20.99609375,-31.73828125,0.0
1734409736.1353183,562.5,-278.3203125,92.7734375,-51.26953125,0.0
1734409736.1392243,534.66796875,-274.90234375,75.68359375,-48.828125,0.0
1734409736.1431305,505.37109375,-282.71484375,-42.96875,-28.3203125,0.0
1734409736.1470366,474.12109375,-277.34375,-300.29296875,11.23046875,0.0
1734409736.1509426,490.234375,-257.8125,-123.53515625,4.8828125,0.0
1734409736.1548486,493.1640625,-251.953125,219.7265625,-24.4140625,0.0
1734409736.1587546,455.078125,-267.578125,-0.9765625,-23.4375,0.0
1734409736.1626606,437.5,-272.94921875,-28.3203125,-14.16015625,0.0
1734409736.1665668,420.8984375,-270.01953125,178.22265625,0.48828125,0.0
1734409736.170121,427.24609375,-280.76171875,77.63671875,-16.6015625,0.0
1734409736.174027,426.26953125,-285.64453125,36.62109375,-47.8515625,0.0
1734409736.177933,423.33984375,-287.59765625,88.8671875,-38.57421875,0.0
1734409736.181839,404.78515625,-278.80859375,175.29296875,1.953125,0.0
1734409736.1857452,328.125,-280.76171875,165.52734375,-16.11328125,0.0
1734409736.1896513,291.015625,-302.734375,-44.43359375,-86.42578125,0.0
1734409736.1935573,258.30078125,-295.41015625,-6.34765625,-152.83203125,0.0
1734409736.1974633,187.01171875,-277.34375,186.5234375,-192.3828125,0.0
1734409736.2013693,116.2109375,-283.69140625,165.52734375,-195.3125,0.0
1734409736.2052753,45.8984375,-304.6875,-31.25,-213.37890625,0.0
1734409736.2091813,35.64453125,-293.45703125,45.41015625,-229.00390625,0.0
1734409736.2130876,3.41796875,-272.4609375,242.67578125,-255.859375,0.0
1734409736.2174206,-31.73828125,-281.25,147.94921875,-289.0625,0.0
1734409736.2213266,-84.47265625,-291.50390625,160.15625,-314.453125,0.0
1734409736.2252326,-126.953125,-287.109375,231.4453125,-295.41015625,0.0
1734409736.2291386,-146.484375,-274.90234375,220.703125,-276.85546875,0.0
1734409736.2330446,-122.0703125,-270.01953125,214.84375,-310.05859375,0.0
1734409736.2369509,-82.03125,-267.08984375,174.31640625,-287.109375,0.0
1734409736.240857,-124.0234375,-262.6953125,199.21875,-252.9296875,0.0
1734409736.244763,-188.96484375,-260.7421875,322.75390625,-237.79296875,0.0
1734409736.248669,-170.41015625,-267.578125,246.58203125,-206.54296875,0.0
1734409736.252575,-108.3984375,-268.06640625,176.7578125,-183.59375,0.0
1734409736.256481,-121.58203125,-243.1640625,376.46484375,-196.2890625,0.0
1734409736.2603872,-138.18359375,-230.95703125,377.44140625,-192.3828125,0.0
1734409736.2646222,-126.953125,-222.65625,281.73828125,-145.99609375,0.0
1734409736.2685282,-179.6875,-219.23828125,332.51953125,-121.58203125,0.0
1734409736.2724342,-189.453125,-220.703125,416.015625,-114.74609375,0.0
1734409736.2763402,-181.640625,-213.37890625,378.90625,-111.328125,0.0
1734409736.2802463,-200.1953125,-201.171875,375.0,-101.5625,0.0
1734409736.2841523,-228.515625,-203.125,368.1640625,-75.68359375,0.0
1734409736.2880585,-247.0703125,-206.0546875,335.9375,-67.3828125,0.0
1734409736.2919645,-249.51171875,-196.77734375,368.1640625,-75.68359375,0.0
1734409736.2958705,-277.83203125,-191.89453125,213.37890625,-64.94140625,0.0
1734409736.2997766,-340.8203125,-189.453125,256.8359375,-41.50390625,0.0
1734409736.3036826,-391.11328125,-179.19921875,465.8203125,-22.4609375,0.0
1734409736.3075886,-401.85546875,-167.48046875,395.99609375,-9.765625,0.0
1734409736.3116255,-396.97265625,-154.78515625,375.48828125,-20.5078125,0.0
1734409736.3155315,-387.6953125,-145.99609375,436.03515625,-26.3671875,0.0
1734409736.3194375,-421.38671875,-145.5078125,463.8671875,-21.97265625,0.0
1734409736.3233435,-499.0234375,-139.6484375,444.82421875,-4.39453125,0.0
1734409736.3272495,-536.62109375,-131.8359375,424.31640625,22.94921875,0.0
1734409736.3311555,-555.6640625,-131.8359375,396.484375,21.484375,0.0
1734409736.3350618,-570.80078125,-137.6953125,419.921875,2.44140625,0.0
1734409736.3389678,-585.44921875,-142.08984375,395.99609375,18.06640625,0.0
1734409736.3428738,-634.765625,-145.01953125,386.71875,46.38671875,0.0
1734409736.3467798,-657.71484375,-143.06640625,468.75,53.7109375,0.0
1734409736.3506858,-640.625,-144.53125,471.6796875,51.26953125,0.0
1734409736.3545918,-621.09375,-140.625,430.6640625,40.52734375,0.0
1734409736.3585103,-621.58203125,-136.23046875,485.83984375,28.80859375,0.0
1734409736.3624163,-670.41015625,-139.6484375,553.7109375,38.57421875,0.0
1734409736.3663223,-694.82421875,-142.08984375,527.83203125,45.8984375,0.0
1734409736.3702283,-673.33984375,-137.20703125,527.34375,44.43359375,0.0
1734409736.3741343,-675.29296875,-121.58203125,562.01171875,37.59765625,0.0
1734409736.3780403,-676.26953125,-131.8359375,522.94921875,34.1796875,0.0
1734409736.3819466,-703.125,-148.4375,514.16015625,36.62109375,0.0
1734409736.3858526,-740.234375,-162.59765625,444.82421875,48.828125,0.0
1734409736.3897586,-748.046875,-152.83203125,480.46875,41.9921875,0.0
1734409736.3936646,-721.6796875,-130.37109375,609.375,9.27734375,0.0
1734409736.3975706,-697.265625,-120.1171875,555.17578125,5.37109375,0.0
1734409736.4014766,-763.671875,-111.81640625,532.71484375,2.9296875,0.0
1734409736.4052546,-803.7109375,-125.9765625,551.7578125,29.296875,0.0
1734409736.4091606,-751.46484375,-147.4609375,570.80078125,27.34375,0.0
1734409736.4130669,-710.44921875,-174.31640625,573.2421875,27.34375,0.0
1734409736.4169729,-743.1640625,-187.98828125,561.5234375,41.50390625,0.0
1734409736.420879,-796.875,-173.33984375,572.75390625,26.85546875,0.0
1734409736.424785,-793.45703125,-160.15625,558.10546875,20.01953125,0.0
1734409736.428691,-763.18359375,-170.41015625,513.671875,40.52734375,0.0
1734409736.432597,-791.9921875,-192.3828125,497.0703125,17.578125,0.0
1734409736.4365032,-803.22265625,-190.91796875,594.23828125,-10.7421875,0.0
1734409736.4404092,-857.91015625,-201.171875,604.00390625,14.6484375,0.0
1734409736.4443152,-927.24609375,-223.14453125,522.94921875,23.92578125,0.0
1734409736.4482212,-929.19921875,-228.515625,541.015625,2.44140625,0.0
1734409736.4518964,-909.66796875,-221.19140625,590.8203125,-17.578125,0.0
1734409736.4558024,-917.96875,-221.6796875,584.47265625,-27.34375,0.0
1734409736.4597085,-930.17578125,-218.75,537.59765625,-31.25,0.0
1734409736.4636145,-943.359375,-204.1015625,527.34375,-27.83203125,0.0
1734409736.4675205,-975.5859375,-196.2890625,542.96875,-27.34375,0.0
1734409736.4714267,-973.14453125,-182.6171875,543.45703125,-38.0859375,0.0
1734409736.4753327,-938.4765625,-166.50390625,416.50390625,-47.8515625,0.0
1734409736.4792387,-909.1796875,-157.71484375,438.96484375,-45.41015625,0.0
1734409736.4831448,-879.39453125,-145.99609375,593.26171875,-33.69140625,0.0
1734409736.4870508,-823.73046875,-146.484375,540.52734375,-28.3203125,0.0
1734409736.4909568,-741.69921875,-149.90234375,524.90234375,-37.59765625,0.0
1734409736.494863,-669.921875,-153.3203125,559.5703125,-68.359375,0.0
1734409736.4984145,-597.65625,-160.64453125,554.6875,-71.77734375,0.0
1734409736.5023205,-522.4609375,-178.22265625,507.32421875,-55.6640625,0.0
1734409736.5062265,-445.80078125,-187.01171875,486.328125,-56.15234375,0.0
1734409736.5101326,-341.796875,-181.15234375,529.78515625,-70.80078125,0.0
1734409736.5140386,-219.7265625,-183.59375,531.25,-89.35546875,0.0
1734409736.5179446,-153.3203125,-191.40625,414.55078125,-96.19140625,0.0
1734409736.5218508,-79.58984375,-202.63671875,361.81640625,-59.08203125,0.0
1734409736.5257568,30.76171875,-209.9609375,432.12890625,-51.26953125,0.0
1734409736.5296628,106.93359375,-199.21875,461.9140625,-89.35546875,0.0
1734409736.5335689,190.91796875,-187.5,409.1796875,-86.42578125,0.0
1734409736.5374749,264.16015625,-185.05859375,391.6015625,-65.91796875,0.0
1734409736.541381,286.1328125,-193.84765625,456.54296875,-87.890625,0.0
1734409736.5448728,339.84375,-203.125,449.21875,-124.0234375,0.0
1734409736.5487788,375.9765625,-205.078125,352.5390625,-112.79296875,0.0
1734409736.5526848,394.04296875,-213.8671875,361.328125,-129.39453125,0.0
1734409736.5565908,411.1328125,-230.95703125,403.3203125,-174.31640625,0.0
1734409736.5604968,408.203125,-244.140625,333.0078125,-174.31640625,0.0
1734409736.564403,430.6640625,-245.60546875,310.05859375,-145.99609375,0.0
1734409736.568309,480.46875,-248.046875,319.82421875,-148.92578125,0.0
1734409736.572215,481.4453125,-258.30078125,361.81640625,-185.05859375,0.0
1734409736.576121,500.48828125,-271.97265625,329.58984375,-197.75390625,0.0
1734409736.580027,498.53515625,-279.296875,89.35546875,-158.203125,0.0
1734409736.583933,480.95703125,-270.99609375,148.4375,-125.48828125,0.0
1734409736.5878391,528.80859375,-262.20703125,341.30859375,-139.16015625,0.0
1734409736.5921307,536.1328125,-266.11328125,242.67578125,-147.4609375,0.0
1734409736.5960367,522.4609375,-265.625,177.24609375,-169.921875,0.0
1734409736.5999427,521.484375,-255.859375,221.6796875,-169.43359375,0.0
1734409736.6038487,498.53515625,-246.09375,255.37109375,-114.2578125,0.0
1734409736.6077547,497.55859375,-242.67578125,127.44140625,-86.9140625,0.0
1734409736.611661,508.30078125,-233.3984375,20.5078125,-122.55859375,0.0
1734409736.615567,531.25,-225.09765625,85.44921875,-142.08984375,0.0
1734409736.619473,552.24609375,-225.5859375,168.9453125,-101.5625,0.0
1734409736.623379,492.1875,-242.1875,33.203125,-89.84375,0.0
1734409736.627285,484.86328125,-240.72265625,-81.54296875,-88.37890625,0.0
1734409736.631191,514.6484375,-221.6796875,169.43359375,-89.35546875,0.0
1734409736.6350973,520.99609375,-236.81640625,182.6171875,-111.328125,0.0
1734409736.6392262,539.55078125,-242.67578125,-16.11328125,-99.12109375,0.0
1734409736.6431322,493.1640625,-241.2109375,-27.83203125,-56.15234375,0.0
1734409736.6470382,487.3046875,-244.140625,133.30078125,-63.4765625,0.0
1734409736.6509442,518.06640625,-247.0703125,111.81640625,-80.56640625,0.0
1734409736.6548505,507.8125,-256.8359375,-38.0859375,-76.66015625,0.0
1734409736.6587565,489.74609375,-271.484375,-219.23828125,-66.40625,0.0
1734409736.6626625,495.1171875,-278.80859375,-75.68359375,-41.50390625,0.0
1734409736.6665685,461.9140625,-275.87890625,145.99609375,-34.1796875,0.0
1734409736.6704745,422.36328125,-296.875,-226.5625,-29.296875,0.0
1734409736.6743805,430.17578125,-296.38671875,-298.828125,-49.8046875,0.0
1734409736.6782868,418.9453125,-280.76171875,102.05078125,-65.4296875,0.0
1734409736.6821928,375.0,-275.390625,-2.44140625,-31.73828125,0.0
1734409736.6863024,0.0,-254.8828125,-71.77734375,-17.578125,0.0
1734409736.6902084,0.0,-239.74609375,37.59765625,-13.18359375,0.0
1734409736.6941144,0.0,-217.7734375,81.54296875,-38.0859375,0.0
1734409736.6980205,0.0,-207.51953125,-40.0390625,-70.3125,0.0
1734409736.7019267,0.0,-203.125,-239.2578125,-49.31640625,0.0
1734409736.7058327,0.0,-184.08203125,-259.27734375,-25.87890625,0.0
1734409736.7097387,0.0,-191.89453125,-226.07421875,-42.48046875,0.0
1734409736.7136447,0.0,-219.7265625,-366.2109375,-51.26953125,0.0
1734409736.7175508,0.0,-209.47265625,-470.21484375,-31.25,0.0
1734409736.7214568,0.0,-191.89453125,-98.14453125,-41.015625,0.0
1734409736.725363,0.0,-193.84765625,97.65625,-33.69140625,0.0
1734409736.729269,0.0,-182.6171875,-85.9375,-12.20703125,0.0
1734409736.7332234,176.7578125,-173.33984375,-71.77734375,-25.390625,0.0
1734409736.7371294,141.11328125,-160.15625,66.89453125,-40.52734375,0.0
1734409736.7410357,83.984375,-160.64453125,50.29296875,-45.8984375,0.0
1734409736.7449417,64.94140625,-166.015625,-40.52734375,-39.0625,0.0
1734409736.7488477,9.27734375,-164.55078125,-47.36328125,-14.6484375,0.0
1734409736.7527537,-45.41015625,-172.8515625,-42.96875,-56.640625,0.0
1734409736.7566597,-110.83984375,-173.33984375,-71.2890625,-99.609375,0.0
1734409736.7605658,-164.0625,-176.26953125,-339.35546875,-60.05859375,0.0
1734409736.7644718,-228.02734375,-190.91796875,-277.34375,-35.64453125,0.0
1734409736.768378,-281.73828125,-202.1484375,174.31640625,-62.98828125,0.0
1734409736.772284,-265.625,-204.58984375,105.46875,-66.40625,0.0
1734409736.77619,-296.875,-207.51953125,55.6640625,-81.0546875,0.0
1734409736.7800303,0.0,-195.3125,144.53125,-82.51953125,0.0
1734409736.7839365,0.0,-169.921875,187.01171875,-54.19921875,0.0
1734409736.7878425,0.0,-163.0859375,148.4375,-51.7578125,0.0
1734409736.7917485,0.0,-163.0859375,161.1328125,-74.70703125,0.0
1734409736.7956545,0.0,-162.109375,204.58984375,-95.703125,0.0
1734409736.7995605,0.0,-161.1328125,161.62109375,-89.35546875,0.0
1734409736.8034666,0.0,-154.296875,109.375,-55.17578125,0.0
1734409736.8073726,0.0,-134.27734375,14.6484375,-51.26953125,0.0
1734409736.8112788,0.0,-106.4453125,194.3359375,-65.4296875,0.0
1734409736.8151848,0.0,-122.55859375,318.359375,-53.22265625,0.0
1734409736.8190908,0.0,-156.73828125,122.55859375,-61.03515625,0.0
1734409736.8229969,0.0,-158.203125,159.1796875,-58.10546875,0.0
1734409736.8276362,-331.54296875,-145.5078125,332.51953125,-49.8046875,0.0
1734409736.8315423,-312.5,-150.87890625,293.45703125,-56.640625,0.0
1734409736.8354483,-271.97265625,-177.24609375,237.3046875,-67.3828125,0.0
1734409736.8393543,-280.76171875,-188.4765625,265.625,-76.171875,0.0
1734409736.8432605,-328.61328125,-183.59375,285.64453125,-70.3125,0.0
1734409736.8471665,-265.625,-191.40625,269.04296875,-49.31640625,0.0
1734409736.8510725,-216.796875,-205.56640625,85.44921875,-30.2734375,0.0
1734409736.8549786,-209.9609375,-209.47265625,107.91015625,-59.5703125,0.0
1734409736.8588846,-214.84375,-218.75,370.1171875,-79.58984375,0.0
1734409736.8627906,-204.58984375,-238.28125,330.078125,-59.08203125,0.0
1734409736.8666968,-159.1796875,-246.58203125,326.171875,-51.7578125,0.0
1734409736.8706028,-149.90234375,-253.41796875,354.00390625,-51.26953125,0.0
1734409736.8750823,0.0,-262.6953125,370.1171875,-65.4296875,0.0
1734409736.8789885,0.0,-260.25390625,291.50390625,-67.3828125,0.0
1734409736.8828945,0.0,-242.1875,286.62109375,-65.91796875,0.0
1734409736.8868005,0.0,-239.74609375,379.8828125,-55.17578125,0.0
1734409736.8907065,0.0,-261.71875,354.4921875,-56.640625,0.0
1734409736.8946126,0.0,-275.390625,265.625,-78.125,0.0
1734409736.8985188,0.0,-269.53125,224.609375,-59.5703125,0.0
1734409736.9024248,0.0,-275.87890625,295.8984375,-40.52734375,0.0
1734409736.9063308,0.0,-287.109375,398.92578125,-43.9453125,0.0
1734409736.9102368,0.0,-305.6640625,237.79296875,-40.0390625,0.0
1734409736.9141428,0.0,-333.984375,151.85546875,-56.640625,0.0
1734409736.9180489,0.0,-316.89453125,359.375,-69.3359375,0.0
1734409736.9214945,-1.953125,-296.38671875,354.98046875,-75.68359375,0.0
1734409736.9254005,-24.90234375,-304.19921875,261.71875,-53.7109375,0.0
1734409736.9293065,-42.96875,-318.359375,277.34375,-16.11328125,0.0
1734409736.9332125,-20.5078125,-344.23828125,356.93359375,-30.2734375,0.0
1734409736.9371188,-37.59765625,-336.9140625,283.203125,-61.5234375,0.0
1734409736.9410248,-71.77734375,-308.10546875,211.42578125,-61.5234375,0.0
1734409736.9449308,-86.9140625,-303.22265625,271.97265625,-61.5234375,0.0
1734409736.9488368,-113.28125,-284.66796875,327.1484375,-72.75390625,0.0
1734409736.9527428,-120.1171875,-276.3671875,330.078125,-61.03515625,0.0
1734409736.9566488,-122.55859375,-282.71484375,83.984375,-89.84375,0.0
1734409736.960555,-217.28515625,-266.6015625,120.60546875,-85.9375,0.0
1734409736.964461,-261.71875,-243.65234375,383.7890625,-38.57421875,0.0
1734409736.9687738,0.0,-242.1875,287.109375,-58.10546875,0.0
1734409736.9726799,0.0,-239.74609375,262.6953125,-87.890625,0.0
1734409736.9765859,0.0,-224.609375,343.75,-95.21484375,0.0
1734409736.980492,0.0,-209.9609375,365.234375,-80.56640625,0.0
1734409736.9843981,0.0,-210.9375,313.4765625,-48.33984375,0.0
1734409736.9883041,0.0,-197.75390625,255.859375,-57.6171875,0.0
1734409736.9922101,0.0,-179.19921875,270.99609375,-89.84375,0.0
1734409736.9961162,0.0,-172.8515625,287.59765625,-136.71875,0.0
1734409737.0000224,0.0,-169.43359375,222.16796875,-130.37109375,0.0
1734409737.0039284,0.0,-167.48046875,232.421875,-96.6796875,0.0
1734409737.0078344,0.0,-159.1796875,363.28125,-142.08984375,0.0
1734409737.0117404,0.0,-170.41015625,338.37890625,-157.71484375,0.0
1734409737.0158288,-572.75390625,-176.7578125,224.12109375,-168.9453125,0.0
1734409737.0197349,-604.98046875,-155.2734375,229.00390625,-171.38671875,0.0
1734409737.0236409,-593.75,-153.3203125,330.56640625,-169.921875,0.0
1734409737.027547,-585.9375,-155.76171875,344.7265625,-206.0546875,0.0
1734409737.0314531,-607.421875,-127.44140625,268.06640625,-239.74609375,0.0
1734409737.0353591,-584.9609375,-99.609375,187.98828125,-252.9296875,0.0
1734409737.0392652,-620.60546875,-83.0078125,241.69921875,-250.0,0.0
1734409737.0431712,-629.8828125,-76.66015625,345.21484375,-253.90625,0.0
1734409737.0470772,-634.765625,-100.5859375,93.75,-228.515625,0.0
1734409737.0509832,-634.765625,-103.515625,97.65625,-234.375,0.0
1734409737.0548894,-586.9140625,-95.21484375,308.10546875,-281.25,0.0
1734409737.0587955,-613.28125,-117.67578125,189.94140625,-290.0390625,0.0
1734409737.0628579,-656.73828125,-137.20703125,238.28125,-280.2734375,0.0
1734409737.066764,-626.46484375,-145.01953125,319.82421875,-258.7890625,0.0
1734409737.0706701,-600.09765625,-145.5078125,338.8671875,-249.51171875,0.0
1734409737.0745761,-580.56640625,-166.015625,291.50390625,-294.43359375,0.0
1734409737.0784822,-520.99609375,-184.5703125,270.5078125,-325.68359375,0.0
1734409737.0823882,-545.41015625,-188.4765625,270.5078125,-294.921875,0.0
1734409737.0862942,-604.4921875,-194.3359375,264.6484375,-264.16015625,0.0
1734409737.0902004,-604.4921875,-200.68359375,187.98828125,-281.25,0.0
1734409737.0941064,-568.84765625,-205.078125,192.3828125,-271.484375,0.0
1734409737.0980124,-551.7578125,-200.1953125,365.72265625,-294.921875,0.0
1734409737.1019185,-548.33984375,-204.58984375,361.81640625,-327.63671875,0.0
1734409737.1058245,-510.7421875,-211.9140625,246.58203125,-275.390625,0.0
1734409737.1097012,-483.3984375,-215.8203125,288.57421875,-254.8828125,0.0
1734409737.1136072,-485.3515625,-215.33203125,339.35546875,-291.9921875,0.0
1734409737.1175134,-506.34765625,-221.6796875,288.57421875,-282.2265625,0.0
1734409737.1214194,-507.8125,-222.16796875,314.94140625,-251.953125,0.0
1734409737.1253254,-505.37109375,-220.703125,356.4453125,-248.046875,0.0
1734409737.1292315,-470.703125,-217.7734375,339.35546875,-251.46484375,0.0
1734409737.1331375,-472.65625,-210.44921875,352.5390625,-268.5546875,0.0
1734409737.1370437,-505.37109375,-223.14453125,188.96484375,-287.109375,0.0
1734409737.1409497,-481.4453125,-226.5625,213.8671875,-261.71875,0.0
1734409737.1448557,-450.1953125,-211.9140625,466.30859375,-231.4453125,0.0
1734409737.1487617,-464.35546875,-217.7734375,398.4375,-257.8125,0.0
1734409737.1526678,-465.8203125,-216.796875,372.55859375,-255.37109375,0.0
1734409737.1564534,0.0,-208.49609375,0.0,-248.046875,0.0
1734409737.1603594,0.0,-204.58984375,0.0,-262.20703125,0.0
1734409737.1642654,0.0,-192.87109375,0.0,-230.46875,0.0
1734409737.1681714,0.0,-170.41015625,0.0,-206.54296875,0.0
1734409737.1720774,0.0,-144.04296875,0.0,-208.49609375,0.0
1734409737.1759834,0.0,-134.765625,0.0,-223.14453125,0.0
1734409737.1798897,0.0,-129.8828125,0.0,-251.46484375,0.0
1734409737.1837957,0.0,-98.14453125,0.0,-214.84375,0.0
1734409737.1877017,0.0,-62.01171875,0.0,-151.3671875,0.0
1734409737.1916077,0.0,-44.921875,0.0,-187.5,0.0
1734409737.1955137,0.0,-21.484375,0.0,-245.60546875,0.0
1734409737.19942,0.0,28.3203125,0.0,-229.00390625,0.0
1734409737.200611,-465.8203125,70.3125,429.6875,-208.0078125,0.0
1734409737.2045171,-475.5859375,123.53515625,435.05859375,-208.0078125,0.0
1734409737.2084234,-511.23046875,170.8984375,395.01953125,-201.171875,0.0
1734409737.2123294,-537.109375,181.15234375,376.46484375,-175.78125,0.0
1734409737.2162354,-568.84765625,174.8046875,408.203125,-173.33984375,0.0
1734409737.2201414,-625.0,138.18359375,395.5078125,-185.05859375,0.0
1734409737.2240474,-674.31640625,105.46875,307.12890625,-134.27734375,0.0
1734409737.2279534,-724.609375,122.0703125,259.27734375,-141.6015625,0.0
1734409737.2318594,-734.86328125,149.90234375,369.62890625,-172.36328125,0.0
1734409737.2357657,-780.2734375,175.29296875,428.22265625,-171.875,0.0
1734409737.2396717,-800.29296875,221.19140625,329.58984375,-183.59375,0.0
1734409737.2435777,-808.59375,271.97265625,329.58984375,-140.13671875,0.0
1734409737.2473037,-831.54296875,330.56640625,285.15625,-96.19140625,0.0
1734409737.2512097,-797.8515625,342.7734375,212.40234375,-110.3515625,0.0
1734409737.255116,-815.4296875,299.8046875,159.66796875,-124.0234375,0.0
1734409737.259022,-770.99609375,239.2578125,212.40234375,-91.30859375,0.0
1734409737.262928,-732.91015625,184.08203125,203.61328125,-51.7578125,0.0
1734409737.266834,-746.09375,166.50390625,108.3984375,-33.203125,0.0
1734409737.27074,-736.328125,169.43359375,-119.62890625,-34.1796875,0.0
1734409737.274646,-765.625,167.96875,35.15625,-63.4765625,0.0
1734409737.278552,-807.6171875,160.64453125,262.6953125,-83.0078125,0.0
1734409737.282458,-834.9609375,193.84765625,130.37109375,-46.38671875,0.0
1734409737.2863643,-911.1328125,236.328125,130.37109375,-13.18359375,0.0
1734409737.2902703,-951.171875,234.375,184.5703125,-35.64453125,0.0
1734409737.294755,-937.01171875,199.70703125,185.05859375,-44.43359375,0.0
1734409737.298661,-928.22265625,174.8046875,104.00390625,-33.203125,0.0
1734409737.302567,-927.734375,163.0859375,125.0,-7.32421875,0.0
1734409737.306473,-842.28515625,141.11328125,244.62890625,18.06640625,0.0
1734409737.3103793,-712.40234375,107.421875,218.26171875,-13.18359375,0.0
1734409737.3142853,-621.09375,86.9140625,47.36328125,-6.8359375,0.0
1734409737.3181913,-523.4375,108.88671875,82.51953125,39.55078125,0.0
1734409737.3220973,-407.71484375,131.34765625,318.359375,57.6171875,0.0
1734409737.3260033,-295.8984375,132.32421875,265.625,52.24609375,0.0
1734409737.3299093,-203.61328125,131.34765625,164.0625,31.73828125,0.0
1734409737.3338153,-69.82421875,152.34375,246.58203125,21.484375,0.0
1734409737.3377216,-8.30078125,188.4765625,327.63671875,27.34375,0.0
1734409737.3420806,-2.9296875,227.05078125,270.99609375,12.6953125,0.0
1734409737.3459866,105.95703125,278.80859375,277.83203125,6.34765625,0.0
1734409737.3498926,222.16796875,326.66015625,311.03515625,14.16015625,0.0
1734409737.3537986,331.0546875,365.72265625,326.171875,-17.08984375,0.0
1734409737.3577046,369.62890625,375.48828125,315.91796875,-9.765625,0.0
1734409737.3616107,381.34765625,389.16015625,271.97265625,58.10546875,0.0
1734409737.3655167,490.234375,442.87109375,280.2734375,72.265625,0.0
1734409737.369423,548.33984375,490.234375,324.70703125,46.38671875,0.0
1734409737.373329,596.19140625,530.76171875,277.34375,24.4140625,0.0
1734409737.377235,603.515625,607.91015625,259.27734375,23.92578125,0.0
1734409737.381141,625.48828125,684.5703125,440.4296875,32.71484375,0.0
1734409737.385047,659.1796875,715.8203125,461.42578125,53.22265625,0.0
1734409737.3892705,650.87890625,726.07421875,360.83984375,76.171875,0.0
1734409737.3931766,683.59375,763.18359375,396.484375,42.48046875,0.0
1734409737.3970826,743.65234375,822.75390625,487.3046875,38.57421875,0.0
1734409737.4009886,780.2734375,844.7265625,477.05078125,106.4453125,0.0
1734409737.4048946,832.51953125,864.74609375,444.3359375,154.296875,0.0
1734409737.4088008,934.08203125,899.4140625,415.52734375,176.26953125,0.0
1734409737.4127069,968.26171875,886.23046875,438.96484375,166.015625,0.0
1734409737.4166129,966.30859375,827.63671875,499.51171875,156.73828125,0.0
1734409737.4205189,967.28515625,754.8828125,387.6953125,186.03515625,0.0
1734409737.424425,968.26171875,727.05078125,437.01171875,236.328125,0.0
1734409737.428331,968.26171875,712.40234375,604.00390625,270.5078125,0.0
1734409737.4322371,968.26171875,684.5703125,537.59765625,208.49609375,0.0
1734409737.436326,0.0,701.66015625,520.99609375,174.31640625,0.0
1734409737.440232,0.0,711.9140625,571.2890625,189.94140625,0.0
1734409737.444138,0.0,693.84765625,581.0546875,206.54296875,0.0
1734409737.448044,0.0,693.84765625,535.15625,229.00390625,0.0
1734409737.45195,0.0,687.01171875,522.94921875,210.44921875,0.0
1734409737.455856,0.0,660.15625,508.7890625,191.89453125,0.0
1734409737.4597623,0.0,632.32421875,502.9296875,186.5234375,0.0
1734409737.4636683,0.0,596.6796875,475.5859375,227.05078125,0.0
1734409737.4675744,0.0,550.29296875,413.57421875,236.328125,0.0
1734409737.4714804,0.0,531.25,508.7890625,157.2265625,0.0
1734409737.4753864,0.0,504.8828125,557.6171875,138.671875,0.0
1734409737.4792924,0.0,456.0546875,452.63671875,154.78515625,0.0
1734409737.4807684,967.7734375,454.58984375,480.46875,167.48046875,0.0
1734409737.4846745,967.7734375,481.93359375,533.69140625,153.3203125,0.0
1734409737.4885805,968.26171875,508.7890625,489.2578125,95.703125,0.0
1734409737.4924865,968.26171875,545.8984375,439.453125,68.359375,0.0
1734409737.4963925,967.7734375,565.4296875,429.19921875,54.6875,0.0
1734409737.5002985,967.7734375,547.8515625,398.92578125,69.3359375,0.0
1734409737.5042045,968.26171875,561.03515625,402.34375,70.3125,0.0
1734409737.5081108,968.26171875,577.1484375,226.07421875,23.4375,0.0
1734409737.5120168,968.26171875,562.01171875,213.37890625,12.20703125,0.0
1734409737.5159228,967.7734375,550.29296875,424.8046875,6.34765625,0.0
1734409737.5198288,967.7734375,558.10546875,356.93359375,8.30078125,0.0
1734409737.5237348,968.26171875,541.50390625,256.34765625,21.97265625,0.0
1734409737.5252964,967.7734375,477.5390625,276.3671875,-10.25390625,0.0
1734409737.5292025,968.26171875,421.875,353.515625,-34.66796875,0.0
1734409737.5331085,968.26171875,391.11328125,281.25,-43.9453125,0.0
1734409737.5370145,968.26171875,381.34765625,258.7890625,-42.96875,0.0
1734409737.5409205,968.26171875,368.65234375,264.16015625,-10.25390625,0.0
1734409737.5448265,968.26171875,355.95703125,190.4296875,-21.97265625,0.0
1734409737.5487325,967.7734375,320.80078125,113.28125,-81.0546875,0.0
1734409737.5526385,968.26171875,261.23046875,-68.359375,-62.98828125,0.0
1734409737.5565445,967.7734375,238.28125,123.53515625,1.46484375,0.0
1734409737.5604508,967.7734375,206.54296875,299.8046875,3.41796875,0.0
1734409737.5643568,966.796875,162.109375,104.00390625,-40.52734375,0.0
1734409737.5682628,954.58984375,111.328125,121.09375,-47.36328125,0.0
1734409737.5722952,814.94140625,55.6640625,226.5625,-54.19921875,0.0
1734409737.5762012,870.60546875,32.2265625,205.078125,-37.109375,0.0
1734409737.5801075,837.890625,16.6015625,135.25390625,19.04296875,0.0
1734409737.5840135,791.015625,-8.7890625,133.7890625,5.859375,0.0
1734409737.5879195,727.5390625,-39.0625,187.5,-24.4140625,0.0
1734409737.5918255,654.78515625,-74.21875,199.70703125,-11.71875,0.0
1734409737.5957315,590.33203125,-115.72265625,-85.9375,2.44140625,0.0
1734409737.5996375,503.90625,-151.85546875,-129.8828125,24.90234375,0.0
1734409737.6035435,425.29296875,-140.13671875,271.97265625,-11.23046875,0.0
1734409737.6074495,376.953125,-95.21484375,224.609375,-29.296875,0.0
1734409737.6113555,242.1875,-73.2421875,179.6875,-18.5546875,0.0
1734409737.6152616,158.69140625,-48.33984375,230.95703125,-11.23046875,0.0
1734409737.6191664,89.35546875,-27.83203125,247.55859375,63.4765625,0.0
1734409737.6230724,-5.859375,-47.8515625,165.52734375,83.0078125,0.0
1734409737.6269784,-34.1796875,-62.5,134.765625,7.8125,0.0
1734409737.6308844,-80.56640625,-60.05859375,224.609375,-4.8828125,0.0
1734409737.6347904,-103.515625,-81.54296875,241.69921875,39.55078125,0.0
1734409737.6386964,-78.61328125,-105.95703125,147.94921875,86.42578125,0.0
1734409737.6426024,-114.74609375,-126.953125,97.16796875,90.8203125,0.0
1734409737.6465085,-80.56640625,-144.53125,161.1328125,69.3359375,0.0
1734409737.6504145,-41.9921875,-137.6953125,276.3671875,39.0625,0.0
1734409737.6543207,-89.84375,-94.23828125,179.6875,52.24609375,0.0
1734409737.6582267,-72.265625,-71.2890625,147.4609375,64.94140625,0.0
1734409737.6621327,-100.5859375,-77.1484375,309.5703125,47.8515625,0.0
1734409737.6659334,-110.83984375,-70.3125,287.109375,50.78125,0.0
1734409737.6698396,-95.21484375,-54.6875,184.08203125,32.2265625,0.0
1734409737.6737456,-194.3359375,-28.80859375,188.96484375,40.52734375,0.0
1734409737.6776516,-265.13671875,18.06640625,291.9921875,45.8984375,0.0
1734409737.6815577,-340.8203125,47.36328125,279.296875,23.4375,0.0
1734409737.6854637,-375.0,73.2421875,123.53515625,8.7890625,0.0
1734409737.6893697,-404.296875,97.65625,144.04296875,-21.97265625,0.0
1734409737.6932757,-474.12109375,98.6328125,309.5703125,-46.38671875,0.0
1734409737.6971817,-553.22265625,110.83984375,281.25,-37.59765625,0.0
1734409737.7010877,-549.31640625,123.046875,210.44921875,-72.75390625,0.0
1734409737.7049937,-575.68359375,127.9296875,218.26171875,-55.6640625,0.0
1734409737.7088997,-703.61328125,128.90625,302.734375,-53.22265625,0.0
1734409737.7134852,-684.5703125,118.65234375,225.09765625,-74.70703125,0.0
1734409737.7173913,-690.91796875,117.67578125,177.24609375,-56.640625,0.0
1734409737.7212975,-716.30859375,133.7890625,264.6484375,-69.82421875,0.0
1734409737.7252035,-705.56640625,143.5546875,266.6015625,-114.2578125,0.0
1734409737.7291095,-733.88671875,139.6484375,208.984375,-137.6953125,0.0
1734409737.7330155,-747.55859375,124.0234375,110.3515625,-139.6484375,0.0
1734409737.7369215,-727.5390625,139.16015625,123.53515625,-134.765625,0.0
1734409737.7408276,-723.14453125,164.55078125,189.94140625,-106.4453125,0.0
1734409737.7447336,-674.31640625,161.1328125,87.890625,-74.21875,0.0
1734409737.7486396,-627.9296875,156.73828125,46.38671875,-109.86328125,0.0
1734409737.7525456,-637.6953125,152.83203125,268.5546875,-147.4609375,0.0
1734409737.7564516,-602.05078125,127.9296875,285.15625,-103.02734375,0.0
1734409737.7608862,-588.8671875,89.35546875,142.08984375,-111.81640625,0.0
1734409737.7647924,-532.71484375,94.23828125,165.52734375,-124.51171875,0.0
1734409737.7686985,-495.1171875,129.39453125,271.97265625,-143.5546875,0.0
1734409737.7726045,-540.0390625,132.32421875,245.1171875,-145.5078125,0.0
1734409737.7765105,-501.46484375,143.5546875,216.30859375,-109.375,0.0
1734409737.7804165,-414.55078125,175.78125,187.98828125,-113.28125,0.0
1734409737.7843225,-469.23828125,164.0625,202.63671875,-149.90234375,0.0
1734409737.7882285,-523.4375,120.60546875,311.03515625,-153.80859375,0.0
1734409737.7921345,-535.15625,106.93359375,53.7109375,-159.1796875,0.0
1734409737.7960405,-541.50390625,131.34765625,-11.71875,-154.296875,0.0
1734409737.7999468,-568.359375,153.80859375,310.546875,-162.109375,0.0
1734409737.8038528,-595.703125,158.203125,261.71875,-174.8046875,0.0
1734409737.8081422,-555.6640625,177.24609375,231.93359375,-177.734375,0.0
1734409737.8120482,-564.94140625,224.609375,293.9453125,-216.796875,0.0
1734409737.8159544,-600.09765625,300.29296875,310.546875,-215.8203125,0.0
1734409737.8198605,-600.5859375,341.30859375,258.30078125,-175.78125,0.0
1734409737.8237665,-556.640625,338.37890625,239.2578125,-190.91796875,0.0
1734409737.8276725,-540.0390625,364.74609375,250.48828125,-216.796875,0.0
1734409737.8315785,-549.8046875,412.109375,233.3984375,-192.3828125,0.0
1734409737.8354845,-518.5546875,430.17578125,169.921875,-199.70703125,0.0
1734409737.8393905,-493.1640625,426.26953125,165.0390625,-186.5234375,0.0
1734409737.8432965,-477.5390625,435.546875,330.078125,-198.73046875,0.0
1734409737.8472025,-397.4609375,452.63671875,366.2109375,-254.8828125,0.0
1734409737.8511088,-360.83984375,480.46875,241.2109375,-251.46484375,0.0
1734409737.8552663,-321.77734375,515.625,0.0,-232.91015625,0.0
1734409737.8591723,-255.37109375,507.32421875,0.0,-195.3125,0.0
1734409737.8630784,-219.23828125,466.30859375,0.0,-173.33984375,0.0
1734409737.8669844,-189.94140625,437.01171875,0.0,-199.21875,0.0
1734409737.8708904,-140.13671875,392.578125,0.0,-214.35546875,0.0
1734409737.8747964,-65.91796875,341.30859375,0.0,-186.03515625,0.0
1734409737.8787024,-41.9921875,304.6875,0.0,-153.80859375,0.0
1734409737.8826084,-9.765625,250.0,0.0,-118.1640625,0.0
1734409737.8865147,67.87109375,221.19140625,0.0,-113.28125,0.0
1734409737.8904207,116.69921875,218.75,0.0,-149.90234375,0.0
1734409737.8943267,174.31640625,207.51953125,0.0,-139.6484375,0.0
1734409737.8982327,255.859375,199.21875,0.0,-65.91796875,0.0
1734409737.9023178,0.0,185.546875,435.546875,-42.96875,0.0
1734409737.9062238,0.0,144.53125,445.80078125,-70.3125,0.0
1734409737.91013,0.0,103.02734375,391.11328125,-58.10546875,0.0
1734409737.914036,0.0,71.77734375,381.8359375,-37.109375,0.0
1734409737.917942,0.0,46.875,442.3828125,-20.01953125,0.0
1734409737.921848,0.0,29.296875,425.78125,-9.27734375,0.0
1734409737.925754,0.0,0.0,372.0703125,-1.46484375,0.0
1734409737.92966,0.0,-29.78515625,391.6015625,11.23046875,0.0
1734409737.933566,0.0,-52.24609375,506.34765625,15.625,0.0
1734409737.937472,0.0,-82.51953125,501.46484375,14.6484375,0.0
1734409737.941378,0.0,-112.3046875,413.57421875,36.1328125,0.0
1734409737.9452844,0.0,-135.25390625,461.42578125,73.73046875,0.0
1734409737.9492607,515.625,-143.06640625,551.7578125,45.41015625,0.0
1734409737.9531667,533.203125,-151.85546875,535.15625,33.203125,0.0
1734409737.9570727,585.9375,-163.0859375,482.91015625,52.24609375,0.0
1734409737.9609787,654.78515625,-168.45703125,525.87890625,62.5,0.0
1734409737.964885,628.90625,-197.265625,539.55078125,76.171875,0.0
1734409737.968791,577.1484375,-233.88671875,501.46484375,61.5234375,0.0
1734409737.972697,583.49609375,-291.9921875,355.95703125,51.26953125,0.0
1734409737.976603,606.4453125,-314.453125,400.390625,57.12890625,0.0
1734409737.980509,581.54296875,-275.390625,603.02734375,74.70703125,0.0
1734409737.984415,615.72265625,-280.76171875,533.203125,103.515625,0.0
1734409737.988321,654.296875,-303.7109375,516.6015625,95.703125,0.0
1734409737.992227,572.75390625,-291.015625,555.17578125,57.6171875,0.0
1734409737.996023,557.6171875,-282.71484375,528.80859375,52.24609375,0.0
1734409737.999929,562.98828125,-299.8046875,490.234375,99.12109375,0.0
1734409738.0038352,571.2890625,-327.63671875,503.41796875,105.46875,0.0
1734409738.0077412,535.15625,-331.54296875,541.9921875,54.6875,0.0
1734409738.0116472,498.53515625,-317.3828125,547.36328125,18.5546875,0.0
1734409738.0155532,493.65234375,-319.3359375,504.39453125,11.71875,0.0
1734409738.0194592,472.65625,-327.1484375,467.28515625,39.55078125,0.0
1734409738.0233653,464.84375,-325.1953125,538.57421875,47.8515625,0.0
1734409738.0272713,447.75390625,-339.84375,609.375,14.16015625,0.0
1734409738.0311773,434.5703125,-361.328125,522.4609375,-20.01953125,0.0
1734409738.0350835,438.96484375,-364.74609375,486.328125,-18.06640625,0.0
1734409738.0389895,454.1015625,-356.4453125,599.12109375,-0.48828125,0.0
1734409738.0426807,440.4296875,-361.328125,622.0703125,34.66796875,0.0
1734409738.0465868,433.10546875,-362.79296875,515.625,24.90234375,0.0
1734409738.050493,432.12890625,-354.4921875,538.57421875,-16.6015625,0.0
1734409738.054399,374.0234375,-358.88671875,559.08203125,-37.109375,0.0
1734409738.058305,376.46484375,-362.79296875,550.29296875,-16.6015625,0.0
1734409738.062211,358.3984375,-359.86328125,473.14453125,50.78125,0.0
1734409738.066117,364.74609375,-343.75,503.41796875,20.01953125,0.0
1734409738.070023,370.60546875,-329.58984375,627.9296875,-39.55078125,0.0
1734409738.073929,368.1640625,-331.0546875,580.078125,-44.43359375,0.0
1734409738.077835,320.3125,-332.03125,573.73046875,-19.53125,0.0
1734409738.0817413,250.9765625,-320.3125,584.47265625,-7.32421875,0.0
1734409738.0856473,267.578125,-297.36328125,583.49609375,-19.04296875,0.0
1734409738.0901303,0.0,-294.43359375,544.921875,-39.55078125,0.0
1734409738.0940363,0.0,-290.52734375,502.44140625,-64.453125,0.0
1734409738.0979424,0.0,-288.0859375,542.48046875,-51.7578125,0.0
1734409738.1018486,0.0,-299.31640625,548.33984375,-24.4140625,0.0
1734409738.1057546,0.0,-305.6640625,492.67578125,-39.55078125,0.0
1734409738.1096606,0.0,-308.10546875,416.50390625,-64.94140625,0.0
1734409738.1135666,0.0,-302.734375,424.8046875,-68.84765625,0.0
1734409738.1174726,0.0,-302.24609375,464.35546875,-82.51953125,0.0
1734409738.1213787,0.0,-315.91796875,379.8828125,-57.12890625,0.0
1734409738.1252847,0.0,-321.2890625,355.95703125,-54.6875,0.0
1734409738.1291907,0.0,-315.91796875,461.9140625,-98.6328125,0.0
1734409738.133097,0.0,-322.265625,445.3125,-101.07421875,0.0
1734409738.1349692,223.6328125,-341.30859375,322.265625,-69.82421875,0.0
1734409738.1388752,200.1953125,-353.515625,328.61328125,-69.82421875,0.0
1734409738.1427813,156.73828125,-351.5625,410.64453125,-79.58984375,0.0
1734409738.1466873,170.41015625,-351.5625,377.44140625,-69.3359375,0.0
1734409738.1505935,157.71484375,-361.328125,312.01171875,-70.80078125,0.0
1734409738.1544995,92.28515625,-368.1640625,259.765625,-75.68359375,0.0
1734409738.1584055,66.40625,-373.046875,287.109375,-64.453125,0.0
1734409738.1623116,48.33984375,-393.06640625,355.95703125,-64.94140625,0.0
1734409738.1662176,73.2421875,-413.0859375,115.234375,-70.3125,0.0
1734409738.1701236,79.58984375,-419.921875,73.73046875,-82.03125,0.0
1734409738.1740296,125.9765625,-419.921875,302.24609375,-67.3828125,0.0
1734409738.1779356,111.328125,-414.55078125,245.1171875,-22.94921875,0.0
1734409738.1822858,169.921875,-412.109375,211.9140625,-40.0390625,0.0
1734409738.1861918,203.61328125,-415.0390625,274.4140625,-65.91796875,0.0
1734409738.1900978,246.58203125,-417.96875,262.6953125,-76.66015625,0.0
1734409738.194004,245.60546875,-425.29296875,172.36328125,-64.453125,0.0
1734409738.19791,189.94140625,-428.22265625,159.66796875,-17.578125,0.0
1734409738.201816,173.828125,-421.875,150.390625,-19.04296875,0.0
1734409738.205722,221.19140625,-416.9921875,143.5546875,-62.5,0.0
1734409738.209628,200.68359375,-422.8515625,75.68359375,-84.47265625,0.0
1734409738.213534,112.79296875,-429.6875,-125.9765625,-57.6171875,0.0
1734409738.2174401,88.37890625,-416.50390625,83.0078125,-33.203125,0.0
1734409738.2213461,86.9140625,-413.0859375,234.86328125,-36.1328125,0.0
1734409738.2252522,52.24609375,-419.43359375,55.17578125,-79.58984375,0.0
1734409738.2294598,15.625,-419.43359375,43.9453125,-129.8828125,0.0
1734409738.2333658,-5.37109375,-421.38671875,89.84375,-117.1875,0.0
1734409738.2372718,-31.73828125,-419.43359375,117.1875,-100.5859375,0.0
1734409738.2411778,-11.23046875,-413.0859375,45.41015625,-103.515625,0.0
1734409738.2450838,-42.96875,-412.59765625,22.94921875,-126.46484375,0.0
1734409738.2489898,-45.41015625,-422.36328125,59.08203125,-146.97265625,0.0
1734409738.2528958,-28.3203125,-430.17578125,97.65625,-164.55078125,0.0
1734409738.256802,-52.24609375,-446.77734375,-185.546875,-129.39453125,0.0
1734409738.260708,43.9453125,-452.63671875,-223.6328125,-56.640625,0.0
1734409738.264614,100.09765625,-424.31640625,245.1171875,-52.24609375,0.0
1734409738.26852,89.35546875,-412.109375,189.94140625,-95.21484375,0.0
1734409738.2724261,99.609375,-418.45703125,150.390625,-98.6328125,0.0
1734409738.2765055,81.0546875,-420.8984375,217.28515625,-28.3203125,0.0
1734409738.2804115,114.74609375,-419.43359375,250.48828125,25.87890625,0.0
1734409738.2843177,149.4140625,-419.921875,194.3359375,37.59765625,0.0
