timestamps,TP9,AF7,AF8,TP10,Right AUX
1734409622.38185,-7.8125,234.86328125,97.16796875,-1000.0,0.0
1734409622.385756,-9.27734375,-167.48046875,-125.9765625,-737.3046875,0.0
1734409622.3896623,-44.43359375,-416.015625,-239.74609375,497.55859375,0.0
1734409622.3935683,-68.84765625,-109.86328125,-171.38671875,-853.515625,0.0
1734409622.3974745,-37.59765625,-180.6640625,-178.22265625,157.71484375,0.0
1734409622.4013805,2.9296875,-703.125,-402.83203125,-1000.0,0.0
1734409622.4052868,9.765625,-685.546875,-371.58203125,-895.01953125,0.0
1734409622.4091928,-35.15625,26.85546875,37.59765625,250.9765625,0.0
1734409622.413099,-61.5234375,55.17578125,-19.53125,-837.40234375,0.0
1734409622.4170053,-28.80859375,-134.765625,-159.1796875,231.4453125,0.0
1734409622.4209113,1.46484375,-55.17578125,-61.03515625,-1000.0,0.0
1734409622.423404,9.765625,-34.1796875,-71.77734375,-995.1171875,0.0
1734409622.4273102,-23.92578125,-117.67578125,-129.8828125,1.953125,0.0
1734409622.4312162,-52.734375,-268.5546875,-199.21875,-868.65234375,0.0
1734409622.4351225,-43.9453125,-73.2421875,-102.05078125,331.0546875,0.0
1734409622.4390285,-13.18359375,161.62109375,83.0078125,-977.5390625,0.0
1734409622.4429348,4.39453125,-128.90625,-92.28515625,-1000.0,0.0
1734409622.4468408,-24.4140625,-696.2890625,-354.00390625,-8.7890625,0.0
1734409622.450747,-59.08203125,-440.4296875,-239.74609375,-880.859375,0.0
1734409622.454653,-43.9453125,158.69140625,9.27734375,437.5,0.0
1734409622.4585593,-13.671875,-76.171875,-47.36328125,-864.2578125,0.0
1734409622.4624653,-1.953125,-207.51953125,-121.09375,-1000.0,0.0
1734409622.4663715,-19.04296875,104.98046875,3.41796875,-294.43359375,0.0
1734409622.4687402,-51.7578125,122.0703125,13.18359375,955.56640625,0.0
1734409622.4726465,-43.45703125,-164.55078125,-121.58203125,662.109375,0.0
1734409622.4765525,-9.765625,-457.03125,-251.953125,-687.5,0.0
1734409622.4804587,13.18359375,-355.95703125,-218.26171875,-1000.0,0.0
1734409622.4843647,-15.13671875,-176.7578125,-170.41015625,-323.73046875,0.0
1734409622.488271,-61.5234375,-618.65234375,-402.83203125,909.1796875,0.0
1734409622.492177,-56.640625,-778.80859375,-488.28125,812.98828125,0.0
1734409622.4960833,-31.73828125,-17.08984375,-12.20703125,-479.4921875,0.0
1734409622.4999893,-10.25390625,222.65625,89.84375,-1000.0,0.0
1734409622.5038955,-17.578125,-141.11328125,-137.20703125,-385.7421875,0.0
1734409622.5078015,-58.59375,-188.4765625,-114.74609375,817.3828125,0.0
1734409622.5117078,-73.73046875,128.41796875,33.69140625,940.4296875,0.0
1734409622.5183027,-31.25,79.1015625,12.20703125,-227.5390625,0.0
1734409622.5222087,-0.48828125,-137.20703125,-90.33203125,-1000.0,0.0
1734409622.526115,-22.94921875,-7.8125,-47.8515625,-476.5625,0.0
1734409622.5300212,-58.10546875,133.7890625,43.45703125,740.72265625,0.0
1734409622.5339272,-66.40625,-93.75,-123.046875,-963.8671875,0.0
1734409622.5378335,-33.203125,-518.5546875,-264.16015625,21.97265625,0.0
1734409622.5417395,4.8828125,-559.08203125,-260.7421875,-1000.0,0.0
1734409622.5456457,-2.9296875,-293.9453125,-204.1015625,-598.6328125,0.0
1734409622.5495517,-46.875,-351.5625,-248.53515625,656.73828125,0.0
1734409622.553458,-62.01171875,-535.64453125,-377.9296875,-894.53125,0.0
1734409622.557364,-33.69140625,-134.765625,-83.984375,80.078125,0.0
1734409622.5612702,-2.44140625,258.7890625,142.578125,-1000.0,0.0
1734409622.5664723,6.34765625,-188.96484375,-174.31640625,-766.6015625,0.0
1734409622.5703785,-17.578125,-612.3046875,-396.484375,472.16796875,0.0
1734409622.5742846,-53.22265625,-366.69921875,-273.92578125,-845.21484375,0.0
1734409622.5781908,-27.34375,-329.58984375,-197.265625,151.85546875,0.0
1734409622.582097,12.6953125,-293.45703125,-114.2578125,-1000.0,0.0
1734409622.586003,20.01953125,-490.234375,-290.0390625,-884.765625,0.0
1734409622.5899093,-27.34375,-329.1015625,-226.5625,246.58203125,0.0
1734409622.5938153,-69.82421875,26.3671875,-24.4140625,-840.33203125,0.0
1734409622.5977216,-38.57421875,-494.62890625,-337.890625,253.90625,0.0
1734409622.6016276,-4.39453125,-912.109375,-499.0234375,-977.5390625,0.0
1734409622.6055338,-0.9765625,-135.25390625,-72.265625,-1000.0,0.0
1734409622.6094398,-30.76171875,97.16796875,3.90625,-50.78125,0.0
1734409622.6142492,-66.40625,-220.21484375,-212.40234375,-868.65234375,0.0
1734409622.6181555,-50.78125,-86.42578125,-111.81640625,367.67578125,0.0
1734409622.6220615,-15.625,220.703125,102.05078125,-936.03515625,0.0
1734409622.6259677,-0.48828125,168.45703125,-2.9296875,-1000.0,0.0
1734409622.6298738,-29.78515625,-138.18359375,-92.28515625,-175.29296875,0.0
1734409622.63378,-63.4765625,-377.9296875,-237.3046875,-943.84765625,0.0
1734409622.637686,-53.22265625,-379.8828125,-274.4140625,524.4140625,0.0
1734409622.6415923,-23.92578125,-209.47265625,-103.515625,-811.03515625,0.0
1734409622.6454985,-10.7421875,-631.34765625,-285.15625,-1000.0,0.0
1734409622.6494045,-45.41015625,-382.32421875,-149.90234375,-295.41015625,0.0
1734409622.6533108,-76.171875,147.4609375,54.19921875,945.80078125,0.0
1734409622.6572168,-57.6171875,-167.48046875,-176.7578125,729.98046875,0.0
1734409622.661214,-22.94921875,-456.54296875,-330.56640625,-601.07421875,0.0
1734409622.6651201,-6.34765625,-121.09375,-81.0546875,-1000.0,0.0
1734409622.6690264,-5.37109375,-149.90234375,-82.51953125,-278.80859375,0.0
1734409622.6729324,-32.71484375,-542.48046875,-284.1796875,922.8515625,0.0
1734409622.6768386,-53.7109375,-373.046875,-252.9296875,880.859375,0.0
1734409622.6807446,-10.25390625,-270.01953125,-215.8203125,-321.2890625,0.0
1734409622.684651,19.04296875,-223.14453125,-149.4140625,-1000.0,0.0
1734409622.6885571,-8.30078125,-581.54296875,-386.71875,-355.95703125,0.0
1734409622.6924632,-47.8515625,-742.1875,-445.3125,876.953125,0.0
1734409622.6963694,-55.17578125,-57.12890625,-29.78515625,986.328125,0.0
1734409622.7002754,-34.66796875,78.125,45.41015625,-126.46484375,0.0
1734409622.7041817,-9.765625,-44.43359375,-58.10546875,-1000.0,0.0
1734409622.7072635,0.48828125,80.56640625,-26.3671875,-506.34765625,0.0
1734409622.7111695,-40.52734375,193.359375,46.875,719.7265625,0.0
1734409622.7150757,-57.12890625,-24.90234375,-78.125,-935.05859375,0.0
1734409622.718982,-13.18359375,-386.23046875,-223.14453125,58.10546875,0.0
1734409622.722888,14.6484375,-270.99609375,-175.78125,-1000.0,0.0
1734409622.7267942,-8.30078125,-154.78515625,-181.640625,-623.046875,0.0
1734409622.7307003,-43.9453125,-423.828125,-325.1953125,639.16015625,0.0
1734409622.7346065,-65.91796875,-785.15625,-450.1953125,-871.58203125,0.0
1734409622.7385125,-48.828125,-397.4609375,-125.9765625,140.13671875,0.0
1734409622.7424188,-14.16015625,295.8984375,147.94921875,-1000.0,0.0
1734409622.7463248,-6.34765625,33.203125,-74.21875,-797.36328125,0.0
1734409622.750231,-41.015625,-257.32421875,-195.3125,449.21875,0.0
1734409622.7531116,-71.2890625,36.62109375,-18.06640625,-834.9609375,0.0
1734409622.7570179,-43.45703125,124.0234375,48.33984375,199.70703125,0.0
1734409622.7609239,-3.41796875,-286.1328125,-137.20703125,-1000.0,0.0
1734409622.76483,-3.90625,-266.6015625,-133.30078125,-937.01171875,0.0
1734409622.7687361,-30.2734375,35.64453125,-3.41796875,170.41015625,0.0
1734409622.7726424,-41.50390625,-301.26953125,-203.61328125,-856.4453125,0.0
1734409622.7765486,-9.765625,-807.6171875,-467.28515625,373.046875,0.0
1734409622.7804546,12.6953125,-705.56640625,-352.5390625,-851.5625,0.0
1734409622.784361,0.0,97.16796875,50.29296875,-1000.0,0.0
1734409622.788267,-15.625,162.59765625,26.3671875,-54.19921875,0.0
1734409622.7921731,-37.109375,-198.2421875,-171.38671875,-873.53515625,0.0
1734409622.7960792,-35.15625,-154.296875,-122.55859375,395.99609375,0.0
1734409622.7988167,-8.7890625,174.31640625,82.03125,-906.25,0.0
1734409622.802723,11.23046875,167.96875,27.34375,-1000.0,0.0
1734409622.806629,-20.01953125,-160.15625,-132.8125,-201.66015625,0.0
1734409622.8105352,-58.59375,-100.5859375,-99.609375,-967.7734375,0.0
1734409622.8144414,-51.7578125,15.625,-0.48828125,576.66015625,0.0
1734409622.8183475,-13.671875,-263.671875,-118.1640625,-750.9765625,0.0
1734409622.8222537,8.7890625,-699.21875,-324.21875,-1000.0,0.0
1734409622.8261597,-18.5546875,-382.32421875,-144.04296875,-294.43359375,0.0
1734409622.830066,-58.10546875,147.4609375,67.3828125,937.98828125,0.0
1734409622.833972,-52.734375,-183.59375,-196.2890625,773.4375,0.0
1734409622.8378782,-17.578125,-380.859375,-235.83984375,-532.2265625,0.0
1734409622.8417842,-0.48828125,76.171875,40.0390625,-1000.0,0.0
1734409622.8441925,-20.99609375,282.2265625,90.33203125,-301.26953125,0.0
1734409622.8480985,-49.8046875,-116.69921875,-90.8203125,867.67578125,0.0
1734409622.8520048,-49.31640625,-673.33984375,-382.8125,799.8046875,0.0
1734409622.8559108,-22.94921875,-367.67578125,-186.03515625,-334.9609375,0.0
1734409622.859817,8.30078125,128.90625,70.3125,-1000.0,0.0
1734409622.863723,4.8828125,-499.51171875,-341.796875,-346.19140625,0.0
1734409622.8676293,-29.296875,-802.734375,-496.09375,887.6953125,0.0
1734409622.8715353,-39.55078125,-144.53125,-160.64453125,993.65234375,0.0
1734409622.8754416,-2.9296875,57.6171875,-23.92578125,-104.98046875,0.0
1734409622.8793476,17.578125,-196.2890625,-125.9765625,-1000.0,0.0
1734409622.8832538,-1.46484375,-154.296875,-135.25390625,-578.125,0.0
1734409622.8871598,-41.015625,84.47265625,11.71875,639.6484375,0.0
1734409622.893578,-51.7578125,-142.578125,-149.4140625,-908.69140625,0.0
1734409622.897484,-27.83203125,-374.51171875,-208.0078125,62.01171875,0.0
1734409622.9013903,2.9296875,-95.703125,-43.45703125,-1000.0,0.0
1734409622.9052963,1.46484375,176.7578125,43.9453125,-728.515625,0.0
1734409622.9092026,-32.71484375,-42.48046875,-74.21875,512.6953125,0.0
1734409622.9131086,-48.828125,-652.83203125,-325.68359375,-854.4921875,0.0
1734409622.9170148,-30.2734375,-559.5703125,-250.0,146.97265625,0.0
1734409622.920921,-2.44140625,70.80078125,17.578125,-1000.0,0.0
1734409622.924827,11.71875,-106.4453125,-88.8671875,-869.140625,0.0
1734409622.9287333,-20.5078125,-527.83203125,-301.7578125,325.1953125,0.0
1734409622.9326394,-59.5703125,-273.92578125,-233.88671875,-831.54296875,0.0
1734409622.9365456,-51.26953125,63.96484375,-86.9140625,192.87109375,0.0
1734409622.941833,-11.71875,-243.1640625,-176.26953125,-1000.0,0.0
1734409622.945739,3.41796875,-590.8203125,-355.46875,-1000.0,0.0
1734409622.9496453,-38.0859375,-420.8984375,-241.2109375,52.734375,0.0
1734409622.9535513,-65.4296875,-410.15625,-275.390625,-838.8671875,0.0
1734409622.9574575,-41.9921875,-463.8671875,-271.97265625,304.19921875,0.0
1734409622.9613636,-9.27734375,-583.984375,-276.85546875,-947.265625,0.0
1734409622.9652698,2.44140625,-404.78515625,-270.01953125,-1000.0,0.0
1734409622.9691758,-25.390625,-96.6796875,-72.265625,-193.84765625,0.0
1734409622.973082,-52.24609375,-559.08203125,-362.3046875,-940.91796875,0.0
1734409622.9769883,-26.85546875,-780.76171875,-501.46484375,420.41015625,0.0
1734409622.9808943,0.0,38.57421875,22.4609375,-910.15625,0.0
1734409622.9848006,7.8125,167.96875,31.25,-1000.0,0.0
1734409622.9892075,-15.625,-143.06640625,-173.828125,-316.89453125,0.0
1734409622.9931135,-62.01171875,-163.57421875,-192.87109375,953.125,0.0
1734409622.9970198,-60.546875,23.4375,-69.3359375,596.6796875,0.0
1734409623.000926,-17.08984375,26.85546875,-5.37109375,-763.18359375,0.0
1734409623.004832,0.48828125,-104.98046875,-77.1484375,-1000.0,0.0
1734409623.0087383,-28.80859375,-304.19921875,-235.83984375,-357.91015625,0.0
1734409623.0126443,-61.5234375,-419.921875,-275.87890625,845.21484375,0.0
1734409623.0165505,-50.29296875,-424.8046875,-293.9453125,838.37890625,0.0
1734409623.0204566,-12.20703125,-760.25390625,-386.23046875,-441.89453125,0.0
1734409623.0243628,1.46484375,-329.58984375,-108.88671875,-1000.0,0.0
1734409623.0282688,-17.578125,239.2578125,77.1484375,-386.71875,0.0
1734409623.032175,-47.8515625,-208.0078125,-197.75390625,827.63671875,0.0
1734409623.0357056,-64.94140625,-376.46484375,-345.21484375,923.33984375,0.0
1734409623.0396116,-41.015625,93.75,-20.99609375,-270.99609375,0.0
1734409623.0435178,-11.23046875,-36.1328125,-20.99609375,-1000.0,0.0
1734409623.0474238,-10.25390625,-522.94921875,-258.7890625,-398.92578125,0.0
1734409623.05133,-44.921875,-568.359375,-276.3671875,835.9375,0.0
1734409623.0552363,-68.359375,-413.57421875,-291.50390625,-972.65625,0.0
1734409623.0591424,-32.2265625,-313.96484375,-208.984375,-38.57421875,0.0
1734409623.0630486,5.859375,-602.05078125,-320.3125,-1000.0,0.0
1734409623.0669546,2.9296875,-714.35546875,-410.64453125,-588.8671875,0.0
1734409623.0708609,-44.921875,-18.5546875,19.53125,653.80859375,0.0
1734409623.0747669,-63.96484375,-134.765625,-119.62890625,-881.34765625,0.0
1734409623.0786731,-41.015625,-341.796875,-273.4375,125.9765625,0.0
1734409623.0818014,-24.90234375,48.33984375,-7.32421875,-1000.0,0.0
1734409623.0857074,-28.3203125,302.734375,77.63671875,-764.6484375,0.0
1734409623.0896137,-66.89453125,-2.44140625,-54.6875,493.1640625,0.0
1734409623.0935197,-90.33203125,-329.58984375,-231.93359375,-846.19140625,0.0
1734409623.097426,-64.94140625,-76.171875,-98.14453125,179.6875,0.0
1734409623.1013322,-33.69140625,-97.16796875,22.94921875,-1000.0,0.0
1734409623.1052382,-18.5546875,-280.2734375,-104.4921875,-874.0234375,0.0
1734409623.1091444,-36.1328125,-655.76171875,-310.546875,349.12109375,0.0
1734409623.1130505,-71.2890625,-472.65625,-213.8671875,-818.359375,0.0
1734409623.1169567,-54.19921875,139.16015625,31.73828125,224.609375,0.0
1734409623.1208627,-12.20703125,-34.66796875,-46.875,-985.83984375,0.0
1734409623.124769,-4.39453125,-157.2265625,-138.18359375,-1000.0,0.0
1734409623.1277728,0.0,110.83984375,40.0390625,10.7421875,0.0
1734409623.1316788,0.0,-80.078125,-90.33203125,-860.83984375,0.0
1734409623.135585,0.0,-551.26953125,-318.84765625,356.4453125,0.0
1734409623.139491,0.0,-370.60546875,-125.9765625,-945.80078125,0.0
1734409623.1433973,0.0,108.88671875,8.30078125,-1000.0,0.0
1734409623.1473033,0.0,-196.2890625,-193.359375,-35.64453125,0.0
1734409623.1512096,0.0,-819.3359375,-491.2109375,-878.90625,0.0
1734409623.1551156,0.0,-736.81640625,-457.51953125,457.03125,0.0
1734409623.1590219,0.0,16.6015625,-9.27734375,-857.421875,0.0
1734409623.162928,0.0,247.55859375,60.546875,-1000.0,0.0
1734409623.166834,0.0,-123.53515625,-139.6484375,-308.59375,0.0
1734409623.1707404,0.0,-314.453125,-271.97265625,949.70703125,0.0
1734409623.173487,-43.9453125,27.83203125,-105.95703125,652.83203125,0.0
1734409623.1773932,-16.6015625,81.0546875,0.9765625,-701.171875,0.0
1734409623.1812992,4.8828125,-95.21484375,-81.0546875,-1000.0,0.0
1734409623.1852055,-18.5546875,14.16015625,-14.6484375,-395.5078125,0.0
1734409623.1891117,-55.17578125,-93.75,-67.87109375,784.66796875,0.0
1734409623.1930177,-45.8984375,-484.375,-326.66015625,866.2109375,0.0
1734409623.196924,-20.99609375,-673.33984375,-326.66015625,-363.76953125,0.0
1734409623.20083,-17.578125,-207.51953125,-58.10546875,-1000.0,0.0
1734409623.2047362,-27.34375,261.23046875,99.609375,-432.12890625,0.0
1734409623.2086422,-41.9921875,-165.0390625,-130.37109375,793.9453125,0.0
1734409623.2125485,-41.50390625,-590.8203125,-373.53515625,928.7109375,0.0
1734409623.2164545,-23.92578125,-100.09765625,-78.125,-258.30078125,0.0
1734409623.21886,-0.9765625,270.5078125,97.65625,-1000.0,0.0
1734409623.2227662,-5.859375,-85.9375,-108.88671875,-465.8203125,0.0
1734409623.2266722,-48.828125,-655.76171875,-341.30859375,785.15625,0.0
1734409623.2305784,-72.265625,-357.91015625,-254.39453125,-951.171875,0.0
1734409623.2344844,-37.59765625,166.015625,24.90234375,-23.92578125,0.0
1734409623.2383907,2.9296875,-428.22265625,-190.91796875,-1000.0,0.0
1734409623.2422967,-11.71875,-639.16015625,-330.078125,-640.625,0.0
1734409623.246203,-50.29296875,-90.8203125,-27.83203125,602.05078125,0.0
1734409623.250109,-63.96484375,-261.71875,-208.0078125,-877.44140625,0.0
1734409623.2540152,-38.0859375,-587.890625,-324.21875,90.8203125,0.0
1734409623.2579212,-26.85546875,-285.64453125,-50.78125,-1000.0,0.0
1734409623.2618275,-21.484375,234.86328125,73.2421875,-816.40625,0.0
1734409623.2682488,-36.1328125,39.0625,-30.2734375,403.3203125,0.0
1734409623.2721548,-65.4296875,-261.71875,-210.9375,-833.49609375,0.0
1734409623.276061,-48.828125,-76.171875,-109.86328125,164.0625,0.0
1734409623.279967,-15.13671875,205.078125,60.546875,-1000.0,0.0
1734409623.2838733,-3.41796875,57.12890625,-46.38671875,-946.2890625,0.0
1734409623.2877793,-37.109375,-549.8046875,-241.2109375,182.6171875,0.0
1734409623.2916856,-71.77734375,-559.08203125,-309.5703125,-823.73046875,0.0
1734409623.2955916,-56.15234375,0.48828125,-91.30859375,257.32421875,0.0
1734409623.2994978,-24.4140625,-75.68359375,-56.15234375,-982.91015625,0.0
1734409623.3034039,-13.671875,-558.10546875,-296.38671875,-1000.0,0.0
1734409623.30731,-42.96875,-305.6640625,-106.4453125,-88.8671875,0.0
1734409623.3112164,-69.3359375,-264.6484375,-149.90234375,-890.625,0.0
1734409623.3163674,-63.96484375,-584.47265625,-391.6015625,410.64453125,0.0
1734409623.3202736,-29.78515625,-364.74609375,-211.9140625,-915.0390625,0.0
1734409623.32418,-6.8359375,-201.66015625,-141.6015625,-1000.0,0.0
1734409623.328086,-29.296875,-227.05078125,-165.0390625,-163.57421875,0.0
1734409623.3319921,-55.17578125,-324.21875,-158.69140625,-959.47265625,0.0
1734409623.3358982,-43.9453125,-629.39453125,-350.5859375,588.37890625,0.0
1734409623.3398044,-15.13671875,-314.453125,-140.625,-754.8828125,0.0
1734409623.3437104,5.37109375,193.359375,106.93359375,-1000.0,0.0
1734409623.3476167,-0.48828125,-421.875,-296.38671875,-270.99609375,0.0
1734409623.3515227,-39.0625,-788.57421875,-494.140625,975.5859375,0.0
1734409623.355429,-51.26953125,-11.23046875,-67.3828125,733.3984375,0.0
1734409623.359335,-5.37109375,154.78515625,39.55078125,-590.8203125,0.0
1734409623.3636053,27.34375,-51.26953125,-91.30859375,-1000.0,0.0
1734409623.3675113,9.27734375,-8.30078125,-53.7109375,-385.25390625,0.0
1734409623.3714175,-22.4609375,-139.6484375,-113.28125,811.5234375,0.0
1734409623.3753235,-32.2265625,-269.53125,-261.23046875,892.08984375,0.0
1734409623.3792298,-9.27734375,-228.515625,-111.81640625,-349.12109375,0.0
1734409623.3831358,8.30078125,-312.5,-105.95703125,-1000.0,0.0
1734409623.387042,-3.41796875,-321.2890625,-207.03125,-391.11328125,0.0
1734409623.3909483,-40.52734375,-306.640625,-253.41796875,802.24609375,0.0
1734409623.3948543,-42.96875,-702.63671875,-431.15234375,984.86328125,0.0
1734409623.3987606,-17.08984375,-336.42578125,-109.375,-131.8359375,0.0
1734409623.4026666,-0.9765625,333.49609375,140.13671875,-1000.0,0.0
1734409623.4065728,0.0,-61.03515625,-126.953125,-551.7578125,0.0
1734409623.4105203,-36.62109375,-296.38671875,-208.984375,667.48046875,0.0
1734409623.4144263,-54.6875,82.03125,-9.765625,-926.26953125,0.0
1734409623.4183326,-28.3203125,-89.35546875,-32.71484375,60.05859375,0.0
1734409623.4222386,2.44140625,-363.76953125,-140.625,-1000.0,0.0
1734409623.4261448,-1.953125,-207.03125,-102.5390625,-685.05859375,0.0
1734409623.430051,-41.015625,-258.30078125,-144.53125,596.6796875,0.0
1734409623.433957,-57.6171875,-386.23046875,-281.73828125,-858.3984375,0.0
1734409623.4378633,-19.53125,-729.00390625,-430.17578125,160.15625,0.0
1734409623.4417694,13.18359375,-681.15234375,-322.75390625,-1000.0,0.0
1734409623.4456756,-3.41796875,102.5390625,65.91796875,-854.4921875,0.0
1734409623.4495816,-22.94921875,125.0,24.90234375,355.46875,0.0
1734409623.4534879,-29.296875,-187.01171875,-215.8203125,-831.54296875,0.0
1734409623.4567962,-13.671875,-29.296875,-120.60546875,187.5,0.0
1734409623.4607022,5.37109375,309.08203125,116.2109375,-1000.0,0.0
1734409623.4646084,4.39453125,128.90625,-3.41796875,-964.35546875,0.0
1734409623.4685147,-13.18359375,-199.70703125,-167.48046875,122.0703125,0.0
1734409623.4724207,-37.109375,-104.00390625,-157.2265625,-840.8203125,0.0
1734409623.476327,-36.1328125,-246.58203125,-200.68359375,299.8046875,0.0
1734409623.480233,-2.9296875,-372.55859375,-208.49609375,-930.17578125,0.0
1734409623.4841392,10.7421875,-596.19140625,-270.5078125,-1000.0,0.0
1734409623.4880452,-20.5078125,-620.60546875,-279.296875,-83.49609375,0.0
1734409623.4919515,-65.4296875,-131.8359375,-158.203125,-863.76953125,0.0
1734409623.4958575,-48.828125,-138.671875,-175.78125,426.26953125,0.0
1734409623.4997637,-8.30078125,-206.54296875,-152.83203125,-879.8828125,0.0
1734409623.502807,-3.90625,177.734375,52.24609375,-1000.0,0.0
1734409623.506713,-17.08984375,209.9609375,45.41015625,-244.62890625,0.0
1734409623.5106192,-44.43359375,-327.63671875,-187.98828125,-995.60546875,0.0
1734409623.5145252,-45.8984375,-437.01171875,-278.80859375,606.4453125,0.0
1734409623.5184314,-23.92578125,82.03125,-33.203125,-737.79296875,0.0
1734409623.5223374,5.37109375,-72.265625,-86.42578125,-1000.0,0.0
1734409623.5262437,-4.8828125,-713.37890625,-460.9375,-176.7578125,0.0
1734409623.53015,-53.22265625,-751.46484375,-469.23828125,-979.4921875,0.0
1734409623.534056,-61.03515625,-79.1015625,-90.33203125,758.30078125,0.0
1734409623.5379622,-22.94921875,127.9296875,17.08984375,-520.5078125,0.0
1734409623.5418682,7.32421875,-45.41015625,-58.59375,-1000.0,0.0
1734409623.5457745,-8.30078125,-229.00390625,-105.46875,-325.68359375,0.0
1734409623.5483534,-49.8046875,-166.50390625,-128.41796875,903.3203125,0.0
1734409623.5522594,-46.875,-83.49609375,-136.23046875,925.78125,0.0
1734409623.5561657,3.90625,-205.56640625,-77.1484375,-261.23046875,0.0
1734409623.560072,20.5078125,36.62109375,52.24609375,-1000.0,0.0
1734409623.563978,-1.46484375,138.18359375,28.80859375,-437.01171875,0.0
1734409623.5678842,-20.01953125,-312.01171875,-234.86328125,806.640625,0.0
1734409623.5717902,-12.6953125,-807.6171875,-443.359375,-975.09765625,0.0
1734409623.5756965,-10.25390625,-374.51171875,-137.20703125,-70.80078125,0.0
1734409623.5796025,-5.37109375,209.9609375,103.02734375,-1000.0,0.0
1734409623.5835087,3.41796875,-48.33984375,-66.89453125,-584.47265625,0.0
1734409623.5874147,-34.66796875,-372.55859375,-283.203125,657.2265625,0.0
1734409623.591321,-55.17578125,-219.7265625,-262.20703125,-897.4609375,0.0
1734409623.593826,-32.2265625,135.25390625,18.06640625,71.2890625,0.0
1734409623.597732,-11.71875,-87.890625,-75.68359375,-1000.0,0.0
1734409623.6016383,-17.08984375,-484.375,-333.0078125,-696.77734375,0.0
1734409623.6055443,-63.4765625,-460.9375,-284.1796875,579.58984375,0.0
1734409623.6094506,-76.171875,-263.671875,-260.25390625,-872.0703125,0.0
1734409623.6133566,-39.55078125,-532.71484375,-357.421875,274.90234375,0.0
1734409623.6172628,-18.06640625,-616.2109375,-231.93359375,-928.22265625,0.0
1734409623.6211689,-18.5546875,115.234375,90.33203125,-888.671875,0.0
1734409623.625075,-49.8046875,249.0234375,66.89453125,326.171875,0.0
1734409623.6289814,-59.08203125,-382.32421875,-196.77734375,-829.58984375,0.0
1734409623.6328874,-30.2734375,-368.65234375,-140.13671875,245.1171875,0.0
1734409623.6367936,-5.859375,270.99609375,104.4921875,-993.65234375,0.0
1734409623.6432936,17.578125,208.49609375,32.2265625,-979.4921875,0.0
1734409623.6471996,-17.08984375,-85.9375,-86.42578125,106.93359375,0.0
1734409623.6511059,-61.03515625,-55.6640625,-64.453125,-837.40234375,0.0
1734409623.655012,-40.0390625,173.828125,38.57421875,344.7265625,0.0
1734409623.6589181,-13.18359375,80.56640625,4.8828125,-936.03515625,0.0
1734409623.6628242,-3.90625,-396.484375,-217.7734375,-1000.0,0.0
1734409623.6667304,-32.71484375,-571.2890625,-311.5234375,-53.7109375,0.0
1734409623.6706364,-69.3359375,-270.01953125,-194.3359375,-866.2109375,0.0
1734409623.6745427,-53.22265625,-166.015625,-164.55078125,485.3515625,0.0
1734409623.678449,-13.18359375,-553.7109375,-281.25,-814.453125,0.0
1734409623.682355,-3.41796875,-175.29296875,-46.875,-1000.0,0.0
1734409623.6862612,-21.484375,237.79296875,93.75,-234.86328125,0.0
1734409623.6913154,-44.921875,-145.5078125,-159.66796875,-987.3046875,0.0
1734409623.6952217,-42.96875,-250.48828125,-269.04296875,660.15625,0.0
1734409623.699128,-17.08984375,-169.921875,-123.046875,-679.19921875,0.0
1734409623.703034,-2.9296875,-126.46484375,-57.12890625,-1000.0,0.0
1734409623.7069402,-31.73828125,-164.0625,-110.3515625,-287.59765625,0.0
1734409623.7108462,-62.98828125,-576.171875,-316.89453125,934.08203125,0.0
1734409623.7147524,-73.2421875,-380.37109375,-251.46484375,831.0546875,0.0
1734409623.7186584,-47.36328125,159.66796875,48.33984375,-445.3125,0.0
1734409623.7225647,-14.6484375,-394.53125,-258.30078125,-1000.0,0.0
1734409623.7264707,-34.66796875,-798.33984375,-463.37890625,-356.4453125,0.0
1734409623.730377,-76.66015625,-47.8515625,-27.34375,852.5390625,0.0
1734409623.734283,-77.63671875,54.6875,-25.87890625,948.73046875,0.0
1734409623.7387786,-46.38671875,-174.8046875,-130.859375,-217.7734375,0.0
1734409623.7426846,-44.921875,-24.90234375,-25.87890625,-1000.0,0.0
1734409623.7465909,-64.94140625,187.01171875,41.50390625,-485.83984375,0.0
1734409623.7504969,-89.84375,-11.23046875,-51.26953125,718.26171875,0.0
1734409623.754403,-108.3984375,-305.6640625,-217.7734375,-938.96484375,0.0
1734409623.7583091,-86.9140625,-415.0390625,-291.015625,66.40625,0.0
1734409623.7622154,-59.5703125,-216.796875,-140.13671875,-1000.0,0.0
1734409623.7661214,-57.12890625,-84.9609375,-105.46875,-628.41796875,0.0
1734409623.7700276,-91.30859375,-661.1328125,-364.2578125,650.87890625,0.0
1734409623.773934,-120.60546875,-460.9375,-276.3671875,-878.41796875,0.0
1734409623.77784,-95.21484375,198.2421875,39.0625,98.6328125,0.0
1734409623.7817461,-67.3828125,-78.125,-72.75390625,-1000.0,0.0
1734409623.785782,-67.87109375,-387.6953125,-275.390625,-733.88671875,0.0
1734409623.7896883,-107.421875,10.25390625,-13.671875,518.5546875,0.0
1734409623.7935944,-118.65234375,-172.8515625,-150.390625,-841.30859375,0.0
1734409623.7975006,-100.09765625,-503.90625,-300.29296875,175.29296875,0.0
1734409623.8014069,-74.70703125,-188.4765625,-43.45703125,-1000.0,0.0
1734409623.8053129,-49.31640625,-123.046875,-84.47265625,-873.53515625,0.0
1734409623.8092191,-74.21875,-312.5,-217.7734375,270.5078125,0.0
1734409623.8131251,-94.7265625,-714.84375,-439.94140625,-835.44921875,0.0
1734409623.8170314,-84.47265625,-786.1328125,-463.8671875,240.234375,0.0
1734409623.8209374,-62.98828125,-37.59765625,-3.90625,-996.58203125,0.0
1734409623.8248436,-39.0625,199.70703125,49.31640625,-1000.0,0.0
1734409623.8287497,-60.546875,-82.03125,-119.140625,-69.82421875,0.0
1734409623.8323276,-99.609375,-87.890625,-79.58984375,-874.51171875,0.0
1734409623.8362339,-93.75,138.671875,30.76171875,327.63671875,0.0
1734409623.8401399,-41.015625,41.9921875,-11.23046875,-961.42578125,0.0
1734409623.844046,-28.3203125,-260.7421875,-190.4296875,-1000.0,0.0
1734409623.8479524,-66.89453125,-170.41015625,-220.21484375,-318.359375,0.0
1734409623.8518584,-85.44921875,-316.89453125,-264.6484375,990.72265625,0.0
1734409623.8557646,-67.3828125,-480.95703125,-312.01171875,515.13671875,0.0
1734409623.8596706,-31.73828125,-760.7421875,-419.43359375,-840.33203125,0.0
1734409623.863577,-16.6015625,-496.09375,-265.13671875,-1000.0,0.0
1734409623.867483,-54.6875,216.30859375,56.640625,-388.18359375,0.0
1734409623.8713892,-78.61328125,-108.88671875,-152.83203125,875.0,0.0
1734409623.8752952,-51.26953125,-297.8515625,-299.8046875,691.40625,0.0
1734409623.878338,-17.08984375,83.0078125,0.48828125,-662.59765625,0.0
1734409623.882244,-18.5546875,252.44140625,88.8671875,-1000.0,0.0
1734409623.8861504,-38.0859375,-236.328125,-193.359375,-328.125,0.0
1734409623.8900566,-56.640625,-402.83203125,-262.6953125,911.62109375,0.0
1734409623.8939626,-57.6171875,47.36328125,-54.6875,851.07421875,0.0
1734409623.8978689,-19.04296875,-115.234375,-118.1640625,-419.43359375,0.0
1734409623.901775,3.41796875,-665.0390625,-423.828125,-1000.0,0.0
1734409623.9056811,-18.06640625,-712.890625,-444.82421875,-388.671875,0.0
1734409623.9095871,-62.98828125,-48.828125,-50.29296875,788.57421875,0.0
1734409623.9134934,-81.54296875,83.49609375,-21.97265625,974.609375,0.0
1734409623.9173994,-40.52734375,-135.25390625,-96.6796875,-146.97265625,0.0
1734409623.9213057,-4.39453125,13.18359375,2.44140625,-1000.0,0.0
1734409623.9240575,-19.04296875,308.59375,62.98828125,-506.34765625,0.0
1734409623.9279637,-47.36328125,112.3046875,-35.15625,721.6796875,0.0
1734409623.9318697,-61.5234375,-222.16796875,-231.4453125,-925.78125,0.0
1734409623.935776,-37.59765625,-71.77734375,-87.40234375,36.62109375,0.0
1734409623.939682,1.953125,124.51171875,72.75390625,-1000.0,0.0
1734409623.9435883,-3.41796875,-171.875,-186.5234375,-541.50390625,0.0
1734409623.9474945,-43.45703125,-704.58984375,-371.09375,737.79296875,0.0
1734409623.9514005,-73.2421875,-411.1328125,-185.546875,-880.37109375,0.0
1734409623.9553068,-49.8046875,189.453125,88.8671875,159.66796875,0.0
1734409623.9592128,-0.48828125,-54.6875,-41.015625,-1000.0,0.0
1734409623.963119,13.671875,-190.91796875,-155.76171875,-813.4765625,0.0
1734409623.967025,-26.3671875,100.09765625,15.13671875,427.734375,0.0
1734409623.9695635,-62.98828125,21.97265625,-108.3984375,-832.51953125,0.0
1734409623.9734695,-47.8515625,-262.20703125,-229.4921875,208.984375,0.0
1734409623.9773757,-4.39453125,-507.32421875,-289.0625,-1000.0,0.0
1734409623.9812818,-0.9765625,-188.96484375,-143.5546875,-948.2421875,0.0
1734409623.985188,-41.50390625,124.0234375,15.625,174.8046875,0.0
1734409623.989094,-54.6875,-517.08984375,-344.23828125,-834.47265625,0.0
1734409623.9930003,-37.109375,-742.67578125,-374.0234375,331.0546875,0.0
1734409623.9969063,-18.06640625,8.30078125,56.640625,-930.17578125,0.0
1734409624.0008125,-2.44140625,273.4375,61.5234375,-1000.0,0.0
1734409624.0047185,-22.4609375,-312.98828125,-166.015625,-46.38671875,0.0
1734409624.0086248,-51.7578125,-540.52734375,-262.20703125,-865.234375,0.0
1734409624.0125308,-39.0625,-109.375,-171.875,402.83203125,0.0
1734409624.0190194,-2.44140625,-88.8671875,-56.640625,-900.87890625,0.0
1734409624.0229256,5.859375,-207.03125,-134.27734375,-1000.0,0.0
1734409624.0268316,-13.671875,-24.90234375,-96.19140625,-246.58203125,0.0
1734409624.0307379,-42.48046875,132.8125,16.6015625,-999.51171875,0.0
1734409624.034644,-33.69140625,-45.41015625,-105.95703125,616.2109375,0.0
1734409624.0385501,14.16015625,-515.625,-281.73828125,-709.47265625,0.0
1734409624.0424564,16.11328125,-383.30078125,-226.5625,-1000.0,0.0
1734409624.0463624,-9.27734375,84.9609375,-12.6953125,-381.34765625,0.0
1734409624.0502687,-26.85546875,-130.859375,-151.85546875,859.375,0.0
1734409624.0541747,-15.625,-669.43359375,-405.2734375,740.72265625,0.0
1734409624.058081,6.34765625,-283.69140625,-112.79296875,-598.14453125,0.0
1734409624.061987,-1.953125,243.65234375,81.54296875,-1000.0,0.0
1734409624.0672088,-22.4609375,-109.86328125,-162.59765625,-411.62109375,0.0
1734409624.0711148,-49.8046875,-314.453125,-301.7578125,781.73828125,0.0
1734409624.075021,-50.29296875,-289.55078125,-278.80859375,918.9453125,0.0
1734409624.0789273,-19.53125,-388.18359375,-210.44921875,-334.47265625,0.0
1734409624.0828333,-2.9296875,-353.02734375,-144.53125,-1000.0,0.0
1734409624.0867395,-15.13671875,-490.72265625,-288.0859375,-326.171875,0.0
1734409624.0906456,-60.05859375,-380.37109375,-275.87890625,795.8984375,0.0
1734409624.0945518,-73.73046875,47.36328125,-86.42578125,-991.2109375,0.0
1734409624.0984578,-31.73828125,-467.7734375,-316.40625,-72.75390625,0.0
1734409624.102364,-13.671875,-719.23828125,-366.69921875,-1000.0,0.0
1734409624.10627,-30.2734375,126.46484375,77.63671875,-576.66015625,0.0
1734409624.1101763,-55.6640625,133.30078125,13.671875,658.69140625,0.0
1734409624.1145658,-74.21875,-236.328125,-240.234375,-913.57421875,0.0
1734409624.118472,-44.43359375,-107.421875,-100.09765625,45.41015625,0.0
1734409624.1223783,-4.39453125,238.28125,88.37890625,-1000.0,0.0
1734409624.1262844,-3.41796875,164.55078125,2.9296875,-708.984375,0.0
1734409624.1301906,-36.1328125,-202.63671875,-152.83203125,573.2421875,0.0
1734409624.1340966,-49.31640625,-416.50390625,-311.5234375,-907.2265625,0.0
1734409624.1380029,-19.04296875,-323.2421875,-203.61328125,163.57421875,0.0
1734409624.141909,9.765625,-249.51171875,-136.71875,-981.93359375,0.0
1734409624.1458151,16.11328125,-622.55859375,-310.05859375,-842.7734375,0.0
1734409624.1497211,-20.01953125,-375.48828125,-153.3203125,375.9765625,0.0
1734409624.1536274,-40.52734375,152.83203125,22.94921875,-832.03125,0.0
1734409624.1575336,-11.71875,-112.3046875,-104.98046875,237.3046875,0.0
1734409624.160952,-6.34765625,-151.85546875,-86.42578125,-992.1875,0.0
1734409624.164858,-30.2734375,265.625,84.47265625,-990.72265625,0.0
1734409624.1687644,-53.22265625,-53.22265625,-117.67578125,69.82421875,0.0
1734409624.1726706,-69.82421875,-528.3203125,-338.37890625,-841.796875,0.0
1734409624.1765766,-69.82421875,-296.875,-164.0625,324.70703125,0.0
1734409624.1804829,-35.64453125,-160.64453125,-71.77734375,-949.70703125,0.0
1734409624.1843889,-9.27734375,-189.453125,-167.48046875,-1000.0,0.0
1734409624.1882951,-30.2734375,-588.8671875,-410.64453125,-102.05078125,0.0
1734409624.1922011,-74.70703125,-714.84375,-448.73046875,-884.27734375,0.0
1734409624.1961074,-91.30859375,-34.1796875,-84.9609375,471.6796875,0.0
1734409624.2000134,-66.89453125,-65.91796875,5.859375,-845.703125,0.0
1734409624.2039196,-58.10546875,-142.578125,-64.453125,-1000.0,0.0
1734409624.2071733,-83.0078125,47.8515625,-36.62109375,-282.71484375,0.0
1734409624.2110794,-114.74609375,156.25,26.3671875,972.65625,0.0
1734409624.2149856,-107.421875,-32.2265625,-73.73046875,644.53125,0.0
1734409624.2188916,-67.87109375,-147.94921875,-55.17578125,-695.3125,0.0
1734409624.2227979,-42.96875,88.37890625,7.8125,-1000.0,0.0
1734409624.2267041,-48.828125,-145.5078125,-197.265625,-293.45703125,0.0
1734409624.2306101,-93.26171875,-465.33203125,-338.8671875,940.91796875,0.0
1734409624.2345164,-100.09765625,-711.42578125,-401.85546875,821.2890625,0.0
1734409624.2384224,-73.2421875,-319.82421875,-124.51171875,-473.14453125,0.0
1734409624.2423286,-66.40625,333.0078125,100.09765625,-1000.0,0.0
1734409624.2462347,-76.171875,-8.30078125,-94.7265625,-398.92578125,0.0
1734409624.250141,-96.19140625,-268.5546875,-229.00390625,812.01171875,0.0
1734409624.2532392,0.0,15.625,-71.77734375,919.43359375,0.0
1734409624.2571452,0.0,-105.95703125,-47.36328125,-273.4375,0.0
1734409624.2610514,0.0,-448.2421875,-242.67578125,-1000.0,0.0
1734409624.2649574,0.0,-250.0,-144.53125,-456.0546875,0.0
1734409624.2688637,0.0,79.58984375,-5.37109375,734.86328125,0.0
1734409624.27277,0.0,-215.33203125,-202.63671875,-925.29296875,0.0
1734409624.276676,0.0,-755.859375,-455.078125,58.10546875,0.0
1734409624.2805822,0.0,-690.91796875,-389.6484375,-1000.0,0.0
1734409624.2844882,0.0,86.42578125,13.18359375,-632.8125,0.0
1734409624.2883945,0.0,140.625,-19.53125,607.91015625,0.0
1734409624.2923005,0.0,-283.203125,-271.97265625,-901.3671875,0.0
1734409624.2962067,0.0,-159.66796875,-139.16015625,38.57421875,0.0
1734409624.299158,-60.546875,274.90234375,89.35546875,-1000.0,0.0
1734409624.303064,-49.8046875,200.1953125,-16.6015625,-801.7578125,0.0
1734409624.3069704,-76.66015625,-179.19921875,-201.66015625,403.3203125,0.0
1734409624.3108764,-101.07421875,-139.6484375,-241.69921875,-845.703125,0.0
1734409624.3147826,-71.77734375,-145.5078125,-198.2421875,120.60546875,0.0
1734409624.3186886,-24.4140625,-325.68359375,-252.9296875,-1000.0,0.0
1734409624.322595,-19.53125,-668.9453125,-391.11328125,-918.9453125,0.0
1734409624.326501,-61.5234375,-412.59765625,-166.9921875,184.08203125,0.0
1734409624.3304071,-67.3828125,124.51171875,36.1328125,-840.33203125,0.0
1734409624.3343134,-37.59765625,-75.68359375,-72.75390625,225.09765625,0.0
1734409624.3382194,-24.4140625,-137.6953125,-106.4453125,-998.53515625,0.0
1734409624.3421257,-30.2734375,178.7109375,18.06640625,-1000.0,0.0
1734409624.3447149,-56.640625,257.32421875,44.921875,-85.9375,0.0
1734409624.3486211,-79.1015625,-185.05859375,-167.48046875,-887.6953125,0.0
1734409624.3525271,-73.73046875,-569.3359375,-346.19140625,363.76953125,0.0
1734409624.3564334,-24.4140625,-192.87109375,-115.234375,-921.38671875,0.0
1734409624.3603394,-6.8359375,257.32421875,77.63671875,-1000.0,0.0
1734409624.3642457,-42.48046875,-388.18359375,-266.6015625,-153.80859375,0.0
1734409624.3681517,-76.66015625,-757.8125,-394.04296875,-890.625,0.0
1734409624.372058,-77.1484375,-293.45703125,-202.1484375,503.41796875,0.0
1734409624.375964,-39.55078125,-61.5234375,-107.91015625,-820.80078125,0.0
1734409624.3798702,-7.32421875,-245.1171875,-102.5390625,-1000.0,0.0
1734409624.3837762,-50.78125,-263.671875,-84.9609375,-266.11328125,0.0
1734409624.3876824,-83.984375,153.3203125,39.0625,979.4921875,0.0
1734409624.3938289,-57.12890625,28.3203125,-38.57421875,695.3125,0.0
1734409624.397735,-25.87890625,-76.66015625,-5.859375,-641.6015625,0.0
1734409624.4016411,-2.9296875,77.63671875,50.29296875,-1000.0,0.0
1734409624.4055474,-20.99609375,244.140625,77.1484375,-344.23828125,0.0
1734409624.4094534,-61.5234375,-10.7421875,-29.78515625,869.140625,0.0
1734409624.4133596,-54.6875,-563.4765625,-292.48046875,880.37109375,0.0
1734409624.4172657,-12.6953125,-391.11328125,-132.8125,-379.39453125,0.0
1734409624.421172,-11.71875,208.984375,128.90625,-1000.0,0.0
1734409624.4250782,-19.53125,20.99609375,-32.71484375,-374.0234375,0.0
1734409624.4289842,-34.66796875,-621.58203125,-290.0390625,855.95703125,0.0
1734409624.4328904,-76.66015625,-524.4140625,-275.87890625,978.02734375,0.0
1734409624.4367964,-35.64453125,-317.87109375,-180.17578125,-167.48046875,0.0
1734409624.441746,-5.37109375,-398.92578125,-151.85546875,-1000.0,0.0
1734409624.4456522,-37.59765625,-192.3828125,-81.0546875,-486.328125,0.0
1734409624.4495583,-60.546875,-244.62890625,-120.1171875,739.2578125,0.0
1734409624.4534645,-77.1484375,-350.5859375,-206.0546875,-938.96484375,0.0
1734409624.4573705,-46.38671875,-204.1015625,-57.12890625,20.01953125,0.0
1734409624.4612768,-15.625,-448.2421875,-211.42578125,-1000.0,0.0
1734409624.465183,-24.90234375,-328.61328125,-230.46875,-594.23828125,0.0
1734409624.469089,-43.9453125,31.73828125,44.921875,664.0625,0.0
1734409624.4729953,-56.15234375,-529.78515625,-291.015625,-871.58203125,0.0
1734409624.4769013,-36.1328125,-750.0,-353.515625,135.7421875,0.0
1734409624.4808075,-24.90234375,84.47265625,125.0,-1000.0,0.0
1734409624.4847136,-11.71875,176.26953125,42.48046875,-782.71484375,0.0
1734409624.489273,-38.57421875,-131.8359375,-70.80078125,478.02734375,0.0
1734409624.4931793,-53.7109375,-307.6171875,-138.18359375,-834.9609375,0.0
1734409624.4970853,-18.06640625,-179.6875,-68.359375,199.21875,0.0
1734409624.5009916,7.32421875,51.26953125,35.64453125,-1000.0,0.0
1734409624.5048976,21.484375,-128.41796875,-62.98828125,-906.73828125,0.0
1734409624.5088038,-7.8125,-435.05859375,-218.26171875,309.08203125,0.0
1734409624.5127099,-45.8984375,-373.046875,-231.93359375,-816.89453125,0.0
1734409624.516616,-35.15625,-136.71875,-70.3125,259.765625,0.0
1734409624.5205224,1.953125,-626.953125,-236.328125,-963.37890625,0.0
1734409624.5244284,5.37109375,-318.359375,-74.21875,-1000.0,0.0
1734409624.5283346,-27.83203125,231.4453125,122.55859375,32.2265625,0.0
1734409624.5322406,-54.19921875,-199.21875,-111.328125,-843.75,0.0
1734409624.5360196,-46.38671875,-286.62109375,-150.87890625,386.23046875,0.0
1734409624.5399258,-16.11328125,183.59375,94.23828125,-914.0625,0.0
1734409624.5438318,10.25390625,0.48828125,-12.20703125,-1000.0,0.0
1734409624.547738,-6.8359375,-429.19921875,-198.73046875,-65.4296875,0.0
1734409624.5516443,-45.41015625,-402.83203125,-170.8984375,-873.046875,0.0
1734409624.5555503,-39.55078125,-371.58203125,-231.93359375,540.0390625,0.0
1734409624.5594566,-16.11328125,-298.33984375,-148.4375,-776.85546875,0.0
1734409624.5633626,11.71875,-621.09375,-329.58984375,-1000.0,0.0
1734409624.5672688,-7.8125,-749.0234375,-371.58203125,-233.88671875,0.0
1734409624.5711749,-45.41015625,-58.10546875,56.15234375,994.62890625,0.0
1734409624.575081,-21.484375,81.0546875,13.18359375,717.7734375,0.0
1734409624.5789871,4.39453125,-121.58203125,6.34765625,-602.05078125,0.0
1734409624.5823257,0.0,52.734375,61.03515625,-1000.0,0.0
1734409624.586232,0.0,239.2578125,58.59375,-346.6796875,0.0
1734409624.590138,0.0,-24.4140625,-17.08984375,881.34765625,0.0
1734409624.5940442,0.0,-250.9765625,-155.76171875,878.41796875,0.0
1734409624.5979505,0.0,-11.23046875,-13.671875,-376.46484375,0.0
1734409624.6018565,0.0,-116.69921875,-15.13671875,-1000.0,0.0
1734409624.6057627,0.0,-344.7265625,-205.078125,-372.55859375,0.0
1734409624.6096687,0.0,-709.47265625,-375.0,854.00390625,0.0
1734409624.613575,0.0,-681.640625,-333.984375,984.375,0.0
1734409624.617481,0.0,71.77734375,9.27734375,-157.71484375,0.0
1734409624.6213872,0.0,53.7109375,-3.90625,-1000.0,0.0
1734409624.6252933,0.0,-182.12890625,-146.484375,-579.1015625,0.0
1734409624.6284692,-19.53125,21.484375,20.99609375,644.04296875,0.0
1734409624.6323755,-48.828125,116.69921875,33.203125,-933.59375,0.0
1734409624.6362815,-29.78515625,-244.140625,-175.29296875,-15.13671875,0.0
1734409624.6401877,3.41796875,-301.7578125,-166.9921875,-1000.0,0.0
1734409624.6440938,7.32421875,173.828125,38.57421875,-731.4453125,0.0
1734409624.648,-16.11328125,-121.09375,-102.05078125,484.86328125,0.0
1734409624.651906,-37.59765625,-779.296875,-484.86328125,-850.5859375,0.0
1734409624.6558123,-22.4609375,-722.16796875,-436.5234375,113.28125,0.0
1734409624.6597183,4.8828125,59.08203125,44.921875,-1000.0,0.0
1734409624.6636245,12.20703125,264.16015625,61.5234375,-886.23046875,0.0
1734409624.6675305,-1.953125,-186.03515625,-167.48046875,290.0390625,0.0
1734409624.6714368,-14.6484375,-410.15625,-307.12890625,-825.1953125,0.0
1734409624.674163,-14.16015625,7.32421875,-77.1484375,147.4609375,0.0
1734409624.678069,9.27734375,166.9921875,42.96875,-1000.0,0.0
1734409624.6819754,18.5546875,-51.26953125,-122.55859375,-1000.0,0.0
1734409624.6858814,-3.90625,-11.71875,-43.9453125,-26.3671875,0.0
1734409624.6897876,-25.87890625,48.33984375,-27.83203125,-855.95703125,0.0
1734409624.6936936,-5.37109375,-252.44140625,-250.9765625,273.4375,0.0
1734409624.6976,40.0390625,-714.35546875,-335.9375,-977.05078125,0.0
1734409624.701506,29.78515625,-347.16796875,-118.65234375,-1000.0,0.0
1734409624.7054121,-28.80859375,167.48046875,50.29296875,-232.421875,0.0
1734409624.7093184,-39.0625,-154.78515625,-178.22265625,-926.26953125,0.0
1734409624.7132244,-24.4140625,-268.5546875,-323.2421875,384.765625,0.0
1734409624.7171307,-17.578125,107.421875,-46.875,-947.265625,0.0
1734409624.7195296,6.34765625,320.80078125,72.75390625,-1000.0,0.0
1734409624.7234359,7.8125,-69.3359375,-144.04296875,-282.2265625,0.0
1734409624.727342,-33.203125,-571.2890625,-361.81640625,985.83984375,0.0
1734409624.7312481,-52.24609375,-488.28125,-311.03515625,642.08984375,0.0
1734409624.7351542,-27.83203125,-68.359375,-76.171875,-708.984375,0.0
1734409624.7390604,7.32421875,-417.48046875,-273.4375,-1000.0,0.0
1734409624.7429664,-8.7890625,-797.8515625,-437.98828125,-317.87109375,0.0
1734409624.7468727,-61.03515625,-112.79296875,-34.66796875,906.73828125,0.0
1734409624.7507787,-59.5703125,124.0234375,14.6484375,769.04296875,0.0
1734409624.754685,-23.4375,-166.9921875,-110.3515625,-554.19921875,0.0
1734409624.758591,-3.41796875,-57.6171875,-49.31640625,-1000.0,0.0
1734409624.7624972,-16.11328125,213.8671875,71.77734375,-375.9765625,0.0
1734409624.7692194,-39.0625,47.8515625,4.39453125,847.65625,0.0
1734409624.7731256,-34.1796875,-157.2265625,-145.5078125,906.73828125,0.0
1734409624.7770317,-13.18359375,-5.859375,-32.2265625,-315.91796875,0.0
1734409624.780938,4.39453125,293.9453125,124.0234375,-1000.0,0.0
1734409624.784844,0.0,100.09765625,8.30078125,-371.58203125,0.0
1734409624.7887502,-31.25,-491.2109375,-215.8203125,878.90625,0.0
1734409624.7926562,-41.50390625,-632.8125,-320.80078125,-963.8671875,0.0
1734409624.7965624,-16.11328125,-184.5703125,-74.21875,-33.69140625,0.0
1734409624.8004684,6.8359375,31.25,30.2734375,-1000.0,0.0
1734409624.8043747,2.44140625,-522.4609375,-247.0703125,-485.3515625,0.0
1734409624.808281,-38.0859375,-303.22265625,-78.61328125,783.203125,0.0
1734409624.812187,-50.78125,187.5,55.6640625,-902.83203125,0.0
1734409624.8174202,-13.18359375,-97.16796875,-68.84765625,135.25390625,0.0
1734409624.8213263,16.6015625,-89.84375,-5.859375,-1000.0,0.0
1734409624.8252325,5.859375,-86.42578125,-37.109375,-578.125,0.0
1734409624.8291385,-35.64453125,-254.8828125,-134.765625,719.23828125,0.0
1734409624.8330448,-65.4296875,-240.234375,-145.5078125,-877.9296875,0.0
1734409624.8369508,-31.73828125,-461.9140625,-227.5390625,291.9921875,0.0
1734409624.840857,4.39453125,-264.6484375,-44.921875,-1000.0,0.0
1734409624.844763,-2.44140625,194.82421875,147.94921875,-741.69921875,0.0
1734409624.8486693,-31.73828125,-401.3671875,-231.93359375,577.1484375,0.0
1734409624.8525755,-60.546875,-773.4375,-446.2890625,-839.84375,0.0
1734409624.8564816,-47.36328125,-77.1484375,-10.7421875,266.6015625,0.0
1734409624.8603878,-8.30078125,-121.58203125,28.3203125,-979.00390625,0.0
1734409624.8647206,6.34765625,-258.7890625,-65.4296875,-955.56640625,0.0
1734409624.8686268,-31.25,-112.79296875,-15.625,202.1484375,0.0
1734409624.8725328,-54.19921875,78.61328125,48.828125,-833.0078125,0.0
1734409624.876439,-25.390625,35.15625,10.7421875,386.71875,0.0
1734409624.880345,-4.8828125,-131.8359375,-10.25390625,-903.80859375,0.0
1734409624.8842514,10.7421875,-337.40234375,-96.19140625,-999.51171875,0.0
1734409624.8881576,-19.04296875,-310.05859375,-80.56640625,113.76953125,0.0
1734409624.8920636,-59.08203125,-153.3203125,-19.04296875,-862.3046875,0.0
1734409624.8959699,-38.57421875,-658.69140625,-280.76171875,537.109375,0.0
1734409624.8998759,-11.71875,-341.30859375,-51.7578125,-756.8359375,0.0
1734409624.9037821,-4.8828125,289.0625,176.7578125,-1000.0,0.0
1734409624.9076881,-38.0859375,-166.50390625,-65.4296875,-100.09765625,0.0
1734409624.9116576,-82.03125,-422.36328125,-155.76171875,-904.78515625,0.0
1734409624.9155636,-83.984375,10.7421875,47.8515625,680.17578125,0.0
1734409624.9194698,-41.015625,-97.16796875,42.48046875,-618.1640625,0.0
1734409624.923376,-17.578125,-420.41015625,-94.7265625,-1000.0,0.0
1734409624.927282,-56.640625,-282.71484375,-62.01171875,-184.08203125,0.0
1734409624.9311883,-88.8671875,-345.703125,-120.60546875,-982.91015625,0.0
1734409624.9350944,-90.33203125,-353.02734375,-141.11328125,856.93359375,0.0
1734409624.9390006,-61.5234375,-592.28515625,-265.625,-380.37109375,0.0
1734409624.9429066,-37.109375,-700.1953125,-284.1796875,-1000.0,0.0
1734409624.9468129,-58.59375,60.05859375,117.67578125,-307.6171875,0.0
1734409624.950719,-95.703125,134.27734375,67.3828125,927.734375,0.0
1734409624.9546251,-111.328125,-174.31640625,-94.23828125,926.7578125,0.0
1734409624.9579036,-83.49609375,0.9765625,10.25390625,-254.8828125,0.0
1734409624.9618099,-51.26953125,319.3359375,142.578125,-1000.0,0.0
1734409624.965716,-49.31640625,59.08203125,26.3671875,-445.3125,0.0
1734409624.9696221,-65.4296875,-282.2265625,-102.5390625,837.890625,0.0
1734409624.9735281,-77.1484375,-141.11328125,-83.49609375,968.75,0.0
1734409624.9774344,-58.59375,-180.17578125,-16.6015625,-170.41015625,0.0
1734409624.9813404,-21.484375,-310.05859375,-40.52734375,-1000.0,0.0
1734409624.9852467,-28.80859375,-637.6953125,-259.27734375,-607.421875,0.0
1734409624.989153,-90.33203125,-399.90234375,-82.03125,625.48828125,0.0
1734409624.993059,-113.76953125,169.921875,98.14453125,-901.3671875,0.0
1734409624.9969652,-68.84765625,-32.2265625,-3.41796875,16.11328125,0.0
1734409625.0008712,-58.10546875,-120.1171875,29.78515625,-1000.0,0.0
1734409625.0034573,-78.61328125,172.8515625,88.8671875,-840.8203125,0.0
1734409625.0073636,-83.0078125,233.88671875,98.6328125,343.26171875,0.0
1734409625.0112696,-95.703125,-270.01953125,-154.78515625,-832.51953125,0.0
1734409625.0151758,-90.33203125,-348.6328125,-145.01953125,95.21484375,0.0
1734409625.019082,-66.89453125,101.07421875,73.73046875,-1000.0,0.0
1734409625.022988,-61.5234375,-127.9296875,-72.265625,-869.140625,0.0
1734409625.0268943,-82.51953125,-670.41015625,-351.07421875,230.46875,0.0
1734409625.0308003,-113.76953125,-747.55859375,-429.6875,-820.3125,0.0
1734409625.0347066,-115.234375,-19.53125,23.92578125,173.828125,0.0
1734409625.0386126,-68.359375,235.3515625,113.28125,-1000.0,0.0
1734409625.0425189,-45.41015625,-79.58984375,-76.66015625,-1000.0,0.0
1734409625.0464249,-75.68359375,-106.93359375,-62.98828125,-169.43359375,0.0
1734409625.0492318,-94.7265625,120.1171875,48.828125,-889.6484375,0.0
1734409625.0531378,-84.9609375,72.75390625,0.48828125,310.05859375,0.0
1734409625.057044,-64.94140625,-104.00390625,-7.32421875,-989.74609375,0.0
1734409625.06095,-58.59375,35.64453125,56.640625,-1000.0,0.0
1734409625.0648563,-84.47265625,123.046875,27.34375,-276.85546875,0.0
1734409625.0687623,-100.5859375,-265.625,-213.37890625,-970.21484375,0.0
1734409625.0726686,-73.2421875,-756.34765625,-380.37109375,516.6015625,0.0
1734409625.0765746,-49.8046875,-352.5390625,-78.61328125,-839.84375,0.0
1734409625.0804808,-41.50390625,195.3125,83.49609375,-1000.0,0.0
1734409625.0843868,-53.22265625,-231.93359375,-134.27734375,-294.43359375,0.0
1734409625.088293,-81.54296875,-378.41796875,-269.04296875,999.0234375,0.0
1734409625.0921993,-83.984375,-20.99609375,-98.14453125,603.515625,0.0
1734409625.0944467,-63.4765625,209.47265625,102.05078125,-748.53515625,0.0
1734409625.098353,-48.828125,-40.0390625,-78.125,-1000.0,0.0
1734409625.102259,-62.01171875,-549.31640625,-346.6796875,-464.35546875,0.0
1734409625.1061652,-100.5859375,-256.34765625,-138.18359375,788.57421875,0.0
1734409625.1100712,-108.88671875,123.53515625,36.62109375,787.59765625,0.0
1734409625.1139774,-62.5,-516.11328125,-309.5703125,-551.26953125,0.0
1734409625.1178834,-28.80859375,-784.66796875,-397.4609375,-1000.0,0.0
1734409625.1217897,-62.5,-29.78515625,10.25390625,-504.39453125,0.0
1734409625.1256957,-99.12109375,123.53515625,38.57421875,711.42578125,0.0
1734409625.129602,-80.56640625,-312.01171875,-190.4296875,902.34375,0.0
1734409625.133508,-50.78125,-188.4765625,-64.453125,-344.23828125,0.0
1734409625.1374142,-22.94921875,213.8671875,95.703125,-1000.0,0.0
1734409625.1436427,-23.4375,-68.359375,-26.3671875,-481.93359375,0.0
1734409625.147549,-55.6640625,-280.2734375,-116.2109375,739.2578125,0.0
1734409625.151455,-78.61328125,-49.8046875,-84.9609375,-950.68359375,0.0
1734409625.1553612,-38.57421875,197.265625,82.03125,-68.84765625,0.0
1734409625.1592672,1.953125,83.0078125,29.296875,-1000.0,0.0
1734409625.1631734,-9.27734375,-416.9921875,-203.125,-588.37890625,0.0
1734409625.1670797,-47.8515625,-438.96484375,-219.23828125,628.41796875,0.0
1734409625.1709857,-72.75390625,29.78515625,-21.484375,-867.1875,0.0
1734409625.174892,-42.48046875,0.0,22.94921875,78.61328125,0.0
1734409625.178798,-15.13671875,-537.59765625,-189.94140625,-1000.0,0.0
1734409625.1827042,-18.06640625,-215.8203125,-69.3359375,-826.171875,0.0
1734409625.1866102,-56.15234375,198.2421875,110.83984375,405.2734375,0.0
1734409625.191816,-82.03125,-207.03125,-165.0390625,-823.73046875,0.0
1734409625.1957223,-52.734375,-250.48828125,-183.10546875,152.83203125,0.0
1734409625.1996284,-18.5546875,-101.5625,20.5078125,-1000.0,0.0
1734409625.2035346,9.765625,-319.82421875,-164.0625,-900.87890625,0.0
1734409625.2074406,-26.3671875,-490.234375,-271.484375,282.71484375,0.0
1734409625.2113469,-69.82421875,-642.08984375,-310.05859375,-812.98828125,0.0
1734409625.2152529,-52.734375,-327.63671875,-203.61328125,239.74609375,0.0
1734409625.2191591,-27.83203125,174.31640625,79.58984375,-1000.0,0.0
1734409625.2230651,-10.7421875,-408.203125,-229.00390625,-1000.0,0.0
1734409625.2269714,-31.73828125,-778.80859375,-424.8046875,-16.11328125,0.0
1734409625.2308776,-62.98828125,-46.38671875,-25.390625,-848.6328125,0.0
1734409625.2347836,-47.8515625,86.9140625,23.92578125,335.9375,0.0
1734409625.2389622,-14.6484375,-134.765625,7.8125,-955.56640625,0.0
1734409625.2428684,-8.30078125,3.41796875,59.5703125,-1000.0,0.0
1734409625.2467744,-15.13671875,232.421875,70.3125,-204.1015625,0.0
1734409625.2506807,-38.57421875,29.78515625,-40.52734375,-914.55078125,0.0
1734409625.2545867,-52.24609375,-237.79296875,-162.109375,502.44140625,0.0
1734409625.258493,-18.5546875,-340.33203125,-174.31640625,-838.37890625,0.0
1734409625.262399,-6.34765625,-327.1484375,-181.640625,-1000.0,0.0
1734409625.2663052,-29.296875,-327.63671875,-230.46875,-284.1796875,0.0
1734409625.2702112,-41.50390625,-698.2421875,-354.98046875,994.140625,0.0
1734409625.2741175,-41.50390625,-359.375,-141.6015625,673.828125,0.0
1734409625.2780237,-33.69140625,170.41015625,85.44921875,-665.0390625,0.0
1734409625.2819297,-11.71875,-179.6875,-98.14453125,-1000.0,0.0
1734409625.2858357,-29.78515625,-227.5390625,-118.65234375,-370.60546875,0.0
1734409625.289742,-62.01171875,140.625,67.87109375,887.20703125,0.0
1734409625.2936482,-43.9453125,-82.03125,-129.39453125,864.2578125,0.0
1734409625.2975543,-29.78515625,-438.4765625,-246.58203125,-416.9921875,0.0
1734409625.3014605,-9.765625,-208.49609375,-79.58984375,-1000.0,0.0
1734409625.3053665,-15.625,-198.73046875,-170.8984375,-394.04296875,0.0
1734409625.3092728,-63.4765625,-320.80078125,-238.76953125,839.84375,0.0
1734409625.3131788,-59.08203125,-654.296875,-446.77734375,991.2109375,0.0
1734409625.317085,-32.2265625,-665.0390625,-325.68359375,-164.55078125,0.0
1734409625.320991,-12.6953125,-72.265625,74.21875,-1000.0,0.0
1734409625.3248973,-15.625,-183.59375,-48.828125,-550.29296875,0.0
1734409625.3288035,-48.33984375,-266.11328125,-96.19140625,702.63671875,0.0
1734409625.3320131,-51.7578125,-53.22265625,-47.36328125,-921.38671875,0.0
1734409625.3359191,-34.1796875,208.984375,103.02734375,-15.13671875,0.0
1734409625.3398254,-4.39453125,155.76171875,67.87109375,-1000.0,0.0
1734409625.3437314,-13.18359375,-8.30078125,-0.9765625,-641.6015625,0.0
1734409625.3476377,-58.10546875,34.1796875,56.15234375,634.27734375,0.0
1734409625.3515437,-47.36328125,-221.19140625,-106.4453125,-849.609375,0.0
1734409625.35545,-19.04296875,-440.91796875,-220.21484375,163.0859375,0.0
1734409625.359356,6.8359375,-686.5234375,-288.0859375,-1000.0,0.0
1734409625.3632622,-7.32421875,-373.53515625,-127.44140625,-785.15625,0.0
1734409625.3671682,-61.03515625,193.359375,109.375,495.60546875,0.0
1734409625.3710744,-73.2421875,-128.41796875,-101.5625,-825.1953125,0.0
1734409625.3749807,-67.3828125,-237.3046875,-128.90625,249.0234375,0.0
1734409625.3778727,-32.71484375,-29.296875,11.23046875,-1000.0,0.0
1734409625.381779,-9.27734375,35.64453125,21.97265625,-861.328125,0.0
1734409625.385685,-62.98828125,-278.80859375,-136.71875,397.4609375,0.0
1734409625.3895912,-104.98046875,-461.42578125,-250.0,-840.8203125,0.0
1734409625.3934972,-73.73046875,-52.24609375,-31.73828125,440.91796875,0.0
1734409625.3974035,-42.48046875,-169.921875,-6.34765625,-858.88671875,0.0
1734409625.4013095,-22.4609375,-641.11328125,-311.5234375,-915.52734375,0.0
1734409625.4052157,-46.875,-757.8125,-432.6171875,354.00390625,0.0
1734409625.4091218,-78.61328125,-65.4296875,-22.4609375,-867.67578125,0.0
1734409625.413028,-47.8515625,130.37109375,36.1328125,618.65234375,0.0
1734409625.4169343,-22.4609375,-114.2578125,-32.71484375,-624.51171875,0.0
1734409625.4208403,-30.76171875,15.13671875,9.27734375,-1000.0,0.0
1734409625.4234824,-63.4765625,221.6796875,57.6171875,121.09375,0.0
1734409625.4273884,-75.1953125,35.64453125,-20.99609375,-901.3671875,0.0
1734409625.4312947,-58.10546875,-161.1328125,-126.953125,802.734375,0.0
1734409625.4352007,-34.66796875,-84.9609375,-49.31640625,-392.578125,0.0
1734409625.439107,-16.6015625,24.4140625,31.73828125,-1000.0,0.0
1734409625.443013,-41.9921875,-117.1875,-23.92578125,101.5625,0.0
1734409625.4469192,-80.078125,-678.7109375,-294.43359375,-959.9609375,0.0
1734409625.4508252,-72.75390625,-418.9453125,-153.3203125,995.1171875,0.0
1734409625.4547315,-36.1328125,259.27734375,135.25390625,59.5703125,0.0
1734409625.4586375,-19.04296875,94.7265625,-10.7421875,-1000.0,0.0
1734409625.4625437,-40.52734375,-105.95703125,-84.9609375,-36.62109375,0.0
1734409625.46645,-79.58984375,118.65234375,59.08203125,-966.30859375,0.0
1734409625.4688573,-80.078125,229.98046875,74.70703125,-971.19140625,0.0
1734409625.4727633,-50.78125,-20.99609375,-3.41796875,330.078125,0.0
1734409625.4766695,-34.1796875,-392.578125,-124.0234375,-1000.0,0.0
1734409625.4805756,-45.41015625,-204.58984375,-26.85546875,-176.7578125,0.0
1734409625.4844818,-63.96484375,107.91015625,86.42578125,-970.21484375,0.0
1734409625.4883878,-56.640625,-482.421875,-314.453125,-978.515625,0.0
1734409625.492294,-30.2734375,-860.83984375,-429.6875,559.5703125,0.0
1734409625.4962,-5.859375,-308.59375,-48.33984375,-917.48046875,0.0
1734409625.5001063,-10.25390625,87.40234375,45.8984375,-331.54296875,0.0
1734409625.5040123,-49.31640625,-165.52734375,-94.7265625,-994.140625,0.0
1734409625.5079186,-55.6640625,-176.26953125,-58.10546875,-955.56640625,0.0
1734409625.5118246,-21.97265625,225.09765625,133.7890625,435.546875,0.0
1734409625.5185108,2.44140625,190.91796875,69.3359375,-968.26171875,0.0
1734409625.5224168,14.6484375,-21.97265625,-32.2265625,-491.2109375,0.0
1734409625.526323,-11.71875,-25.87890625,10.25390625,879.8828125,0.0
1734409625.530229,-30.2734375,129.39453125,39.0625,-918.9453125,0.0
1734409625.5341353,-4.8828125,76.66015625,42.48046875,414.0625,0.0
1734409625.5380414,24.90234375,-339.84375,-129.39453125,-908.203125,0.0
1734409625.5419476,30.2734375,-293.9453125,-184.5703125,-717.28515625,0.0
1734409625.5458536,-20.99609375,127.9296875,55.6640625,631.34765625,0.0
1734409625.5497599,-57.6171875,-63.4765625,-105.95703125,-846.19140625,0.0
1734409625.5536659,-29.296875,-655.76171875,-379.39453125,326.66015625,0.0
1734409625.5575721,0.9765625,-526.85546875,-248.046875,-962.40234375,0.0
1734409625.5614784,-5.37109375,56.640625,-46.38671875,-928.7109375,0.0
1734409625.5665343,-44.921875,-142.08984375,-140.625,303.7109375,0.0
1734409625.5704403,-62.01171875,-311.03515625,-282.2265625,-818.84765625,0.0
1734409625.5743465,-50.78125,-250.9765625,-229.4921875,391.11328125,0.0
1734409625.5782526,-30.2734375,-249.51171875,-94.23828125,-914.0625,0.0
1734409625.5821588,-2.44140625,-188.4765625,-83.49609375,-1000.0,0.0
1734409625.5860648,-8.7890625,-620.1171875,-326.171875,74.70703125,0.0
1734409625.589971,-40.52734375,-519.53125,-315.91796875,-832.51953125,0.0
1734409625.593877,-67.3828125,-10.7421875,-35.64453125,489.74609375,0.0
1734409625.5977833,-17.578125,-494.62890625,-211.9140625,-818.359375,0.0
1734409625.6016896,8.7890625,-729.00390625,-401.3671875,-1000.0,0.0
1734409625.6055956,-34.1796875,3.41796875,9.27734375,-125.0,0.0
1734409625.6095018,-45.8984375,48.33984375,6.34765625,-889.6484375,0.0
1734409625.6140184,-20.5078125,-229.98046875,-187.98828125,670.41015625,0.0
1734409625.6179247,-0.9765625,-322.75390625,-162.109375,-649.4140625,0.0
1734409625.6218307,9.27734375,17.08984375,36.1328125,-1000.0,0.0
1734409625.625737,8.7890625,98.14453125,20.99609375,-163.57421875,0.0
1734409625.629643,-21.97265625,-200.68359375,-112.3046875,-955.56640625,0.0
1734409625.6335492,-38.57421875,-428.22265625,-275.87890625,894.53125,0.0
1734409625.6374552,-16.11328125,-306.640625,-185.546875,-322.75390625,0.0
1734409625.6413615,7.8125,-13.18359375,-13.671875,-1000.0,0.0
1734409625.6452675,-1.46484375,-568.84765625,-286.62109375,-178.22265625,0.0
1734409625.6491737,-53.22265625,-399.90234375,-145.01953125,-997.55859375,0.0
1734409625.65308,-70.80078125,222.16796875,89.84375,-979.00390625,0.0
1734409625.656986,-24.90234375,-2.44140625,-17.578125,-10.7421875,0.0
1734409625.6606426,-4.8828125,-53.7109375,-23.4375,-1000.0,0.0
1734409625.6645489,-40.52734375,320.3125,103.515625,-262.6953125,0.0
1734409625.668455,-64.94140625,52.734375,-40.52734375,964.84375,0.0
1734409625.6723611,-66.40625,-422.8515625,-259.27734375,-936.03515625,0.0
1734409625.6762671,-41.50390625,-337.40234375,-99.609375,300.29296875,0.0
1734409625.6801734,10.7421875,-215.8203125,-7.32421875,-1000.0,0.0
1734409625.6840794,1.46484375,-144.04296875,5.859375,-354.4921875,0.0
1734409625.6879857,-36.1328125,-548.33984375,-250.9765625,957.51953125,0.0
1734409625.6918917,-41.015625,-750.48828125,-378.41796875,-937.98828125,0.0
1734409625.695798,-9.27734375,57.6171875,89.84375,391.11328125,0.0
1734409625.6997042,21.484375,325.1953125,103.02734375,-1000.0,0.0
1734409625.7036102,1.953125,29.296875,-61.5234375,-470.703125,0.0
1734409625.7069056,-15.625,74.70703125,1.953125,897.94921875,0.0
1734409625.7108116,-20.99609375,254.39453125,64.94140625,-949.70703125,0.0
1734409625.7147179,-8.30078125,144.53125,22.4609375,563.4765625,0.0
1734409625.718624,23.92578125,4.8828125,12.20703125,-751.46484375,0.0
1734409625.7225301,41.9921875,155.2734375,61.03515625,-617.1875,0.0
1734409625.7264364,27.34375,-37.59765625,-47.36328125,786.62109375,0.0
1734409625.7303424,0.48828125,-390.13671875,-264.16015625,-941.89453125,0.0
1734409625.7342486,-2.9296875,-707.03125,-339.84375,693.359375,0.0
1734409625.7381546,20.99609375,-347.65625,-61.03515625,-536.1328125,0.0
1734409625.742061,44.921875,373.046875,145.5078125,-804.6875,0.0
1734409625.745967,12.20703125,93.26171875,1.953125,572.75390625,0.0
1734409625.7498732,-9.765625,-230.46875,-88.8671875,-887.6953125,0.0
1734409625.752861,5.37109375,57.6171875,50.29296875,668.45703125,0.0
1734409625.7567673,15.13671875,331.0546875,136.71875,-584.47265625,0.0
1734409625.7606733,28.80859375,-58.10546875,-47.36328125,-916.50390625,0.0
1734409625.7645795,-0.9765625,-308.59375,-76.171875,416.50390625,0.0
1734409625.7684858,-26.85546875,-1.953125,30.76171875,-895.5078125,0.0
1734409625.7723918,-6.8359375,-100.5859375,-13.18359375,769.53125,0.0
1734409625.776298,41.9921875,-601.07421875,-216.796875,-425.29296875,0.0
1734409625.780204,77.63671875,-693.359375,-318.84765625,-1000.0,0.0
1734409625.7841103,44.921875,56.15234375,45.41015625,62.01171875,0.0
1734409625.7880163,15.625,174.8046875,41.9921875,-918.45703125,0.0
1734409625.7919226,24.90234375,-287.59765625,-208.0078125,887.20703125,0.0
1734409625.7958286,43.9453125,-231.4453125,-141.6015625,-290.52734375,0.0
1734409625.7986972,65.91796875,291.50390625,105.46875,-1000.0,0.0
1734409625.8026035,44.921875,249.0234375,23.92578125,-62.5,0.0
1734409625.8065095,17.578125,-125.9765625,-149.4140625,-960.9375,0.0
1734409625.8104157,16.11328125,-39.0625,-98.6328125,987.79296875,0.0
1734409625.8143218,33.69140625,216.30859375,50.78125,-81.0546875,0.0
1734409625.818228,66.40625,-27.83203125,-114.74609375,-1000.0,0.0
1734409625.822134,62.01171875,-651.3671875,-362.79296875,-154.296875,0.0
1734409625.8260403,-6.34765625,-466.796875,-226.07421875,-980.95703125,0.0
1734409625.8299463,-22.4609375,145.01953125,-26.3671875,-973.6328125,0.0
1734409625.8338525,16.6015625,-1.953125,-62.01171875,20.01953125,0.0
1734409625.8377585,14.16015625,-122.0703125,-154.78515625,-1000.0,0.0
1734409625.8416648,-18.5546875,144.53125,-50.29296875,-347.16796875,0.0
1734409625.8484728,-34.66796875,191.89453125,28.3203125,928.22265625,0.0
1734409625.852379,-39.0625,-186.5234375,-196.2890625,-915.0390625,0.0
1734409625.856285,-29.78515625,-544.921875,-357.91015625,115.72265625,0.0
1734409625.8601913,1.953125,-301.26953125,-252.9296875,-1000.0,0.0
1734409625.8640976,-11.71875,96.19140625,-94.7265625,-565.91796875,0.0
1734409625.8680036,-45.41015625,-452.63671875,-337.40234375,752.9296875,0.0
1734409625.8719099,-45.41015625,-770.5078125,-517.08984375,-863.76953125,0.0
1734409625.8758159,-31.25,37.109375,-40.0390625,118.65234375,0.0
1734409625.879722,-5.859375,291.9921875,51.26953125,-1000.0,0.0
1734409625.8836281,11.23046875,-107.91015625,-203.61328125,-799.8046875,0.0
1734409625.8875344,-18.5546875,-166.015625,-202.1484375,469.7265625,0.0
1734409625.8914406,-32.2265625,101.5625,-150.87890625,-815.4296875,0.0
1734409625.897469,-6.34765625,99.609375,-126.953125,160.64453125,0.0
1734409625.9013753,23.4375,-19.53125,-117.67578125,-1000.0,0.0
1734409625.9052815,21.484375,93.26171875,-170.41015625,-966.30859375,0.0
1734409625.9091876,-19.53125,187.98828125,-78.61328125,198.2421875,0.0
1734409625.9130938,-19.53125,-78.61328125,-204.1015625,-797.8515625,0.0
1734409625.9169998,-21.97265625,-421.38671875,-343.26171875,244.62890625,0.0
1734409625.920906,-20.01953125,-485.3515625,-305.17578125,-991.69921875,0.0
1734409625.924812,-2.9296875,-244.140625,-259.27734375,-1000.0,0.0
1734409625.9287183,-23.4375,-169.43359375,-288.0859375,-95.21484375,0.0
1734409625.9326246,-55.17578125,-692.3828125,-463.8671875,-826.171875,0.0
1734409625.9365306,-55.17578125,-437.5,-329.58984375,291.50390625,0.0
1734409625.9404368,-43.45703125,205.56640625,-81.54296875,-978.515625,0.0
1734409625.9448085,-34.66796875,-37.109375,-205.56640625,-1000.0,0.0
1734409625.9487147,-45.41015625,-263.18359375,-399.90234375,-372.55859375,0.0
1734409625.9526207,-59.5703125,-314.453125,-338.37890625,-973.14453125,0.0
1734409625.956527,-66.89453125,-228.02734375,-275.390625,423.33984375,0.0
1734409625.960433,-45.41015625,-170.41015625,-250.48828125,-942.3828125,0.0
1734409625.9643393,7.32421875,-465.8203125,-332.03125,-1000.0,0.0
1734409625.9682455,-21.97265625,-247.0703125,-280.2734375,-505.859375,0.0
1734409625.9721515,-69.82421875,63.96484375,-197.265625,825.1953125,0.0
1734409625.9760578,-46.38671875,-541.015625,-460.9375,618.65234375,0.0
1734409625.9799638,-30.2734375,-723.6328125,-442.3828125,-801.26953125,0.0
1734409625.98387,-28.80859375,120.60546875,-1.953125,-1000.0,0.0
1734409625.987776,-38.0859375,162.59765625,-49.31640625,-740.72265625,0.0
1734409625.9920557,-65.91796875,-254.39453125,-250.9765625,499.0234375,0.0
1734409625.995962,-63.4765625,-172.8515625,-251.953125,628.90625,0.0
1734409625.999868,-45.8984375,157.71484375,-76.171875,-802.24609375,0.0
1734409626.0037742,-30.2734375,113.76953125,-41.50390625,-1000.0,0.0
1734409626.0076802,-25.390625,-129.39453125,-184.08203125,-882.32421875,0.0
1734409626.0115864,-72.265625,-353.515625,-285.15625,272.4609375,0.0
1734409626.0154924,-74.21875,-360.3515625,-292.96875,821.2890625,0.0
1734409626.0193987,-49.31640625,-138.18359375,-256.8359375,-605.95703125,0.0
1734409626.023305,-40.0390625,-548.828125,-384.765625,-1000.0,0.0
1734409626.027211,-48.33984375,-354.4921875,-287.109375,-973.14453125,0.0
1734409626.0311172,-98.14453125,151.85546875,-208.984375,62.98828125,0.0
1734409626.0350232,-107.421875,-354.00390625,-428.7109375,905.2734375,0.0
1734409626.0379333,-76.66015625,-387.20703125,-399.4140625,-470.21484375,0.0
1734409626.0418396,-56.640625,154.78515625,-67.3828125,-1000.0,0.0
1734409626.0457456,-40.52734375,-73.73046875,-161.1328125,-1000.0,0.0
1734409626.0496519,-67.3828125,-551.7578125,-321.2890625,-126.953125,0.0
1734409626.0535579,-84.47265625,-416.9921875,-218.26171875,958.984375,0.0
1734409626.0574641,-61.5234375,-328.61328125,-217.7734375,-307.12890625,0.0
1734409626.0613701,-48.828125,-287.59765625,-87.890625,-1000.0,0.0
1734409626.0652764,-31.73828125,-559.08203125,-292.96875,-1000.0,0.0
1734409626.0691826,-46.875,-816.40625,-445.3125,-445.80078125,0.0
1734409626.0730886,-89.84375,-140.13671875,-35.15625,926.26953125,0.0
1734409626.076995,-77.63671875,110.83984375,31.73828125,-50.78125,0.0
1734409626.080901,-39.55078125,-69.3359375,-58.10546875,-1000.0,0.0
1734409626.0841115,0.0,60.546875,-40.52734375,-1000.0,0.0
1734409626.0880175,0.0,201.66015625,25.390625,-743.1640625,0.0
1734409626.0919237,0.0,-163.0859375,-180.17578125,747.0703125,0.0
1734409626.0958297,0.0,-303.7109375,-284.1796875,149.90234375,0.0
1734409626.099736,0.0,87.40234375,-44.921875,-1000.0,0.0
1734409626.1036422,0.0,15.13671875,-135.25390625,-998.046875,0.0
1734409626.1075482,0.0,-313.4765625,-325.1953125,-855.95703125,0.0
1734409626.1114545,0.0,-698.73046875,-399.4140625,583.49609375,0.0
1734409626.1153605,0.0,-376.953125,-209.9609375,236.328125,0.0
1734409626.1192667,0.0,349.12109375,90.8203125,-1000.0,0.0
1734409626.1231728,0.0,130.859375,-73.73046875,-972.65625,0.0
1734409626.127079,0.0,-213.37890625,-185.05859375,-941.40625,0.0
1734409626.130028,-88.37890625,84.9609375,18.5546875,378.41796875,0.0
1734409626.1339343,-65.4296875,250.48828125,22.94921875,341.796875,0.0
1734409626.1378403,-39.0625,-182.6171875,-126.953125,-1000.0,0.0
1734409626.1417465,-1.953125,-126.953125,-62.98828125,-986.81640625,0.0
1734409626.1456525,-14.16015625,166.50390625,38.57421875,-926.26953125,0.0
1734409626.1495588,-27.83203125,-188.4765625,-148.92578125,292.48046875,0.0
1734409626.1534648,7.32421875,-729.98046875,-450.1953125,532.2265625,0.0
1734409626.157371,3.41796875,-712.40234375,-318.84765625,-920.41015625,0.0
1734409626.161277,-16.11328125,79.58984375,120.60546875,-1000.0,0.0
1734409626.1651833,-30.76171875,175.29296875,81.0546875,-885.7421875,0.0
1734409626.1690896,-71.77734375,-220.703125,-80.078125,271.97265625,0.0
1734409626.1729956,-73.2421875,-121.09375,-44.43359375,653.3203125,0.0
1734409626.1750085,-34.66796875,221.19140625,124.0234375,-771.484375,0.0
1734409626.1789145,-44.43359375,203.61328125,64.94140625,-1000.0,0.0
1734409626.1828208,-70.3125,-111.328125,12.6953125,-858.3984375,0.0
1734409626.1867268,-116.2109375,-98.14453125,68.359375,278.3203125,0.0
1734409626.190633,-163.57421875,117.1875,60.546875,873.046875,0.0
1734409626.194539,-148.92578125,-97.65625,48.828125,-494.62890625,0.0
1734409626.1984453,-105.95703125,-679.6875,-187.5,-1000.0,0.0
1734409626.2023513,-107.91015625,-395.01953125,-93.75,-832.51953125,0.0
1734409626.2062576,-149.4140625,6.34765625,85.44921875,289.55078125,0.0
1734409626.2101636,-163.0859375,-369.140625,-250.48828125,-920.41015625,0.0
1734409626.2140698,-94.7265625,-237.79296875,-180.6640625,-129.39453125,0.0
1734409626.217976,-85.9375,203.125,87.890625,-1000.0,0.0
1734409626.2198207,-142.08984375,341.30859375,87.890625,-910.64453125,0.0
1734409626.2237267,-168.45703125,-20.5078125,-30.76171875,211.42578125,0.0
1734409626.227633,-197.265625,-496.58203125,-280.76171875,-838.8671875,0.0
1734409626.2315392,-181.640625,-134.27734375,-81.54296875,49.31640625,0.0
1734409626.2354453,-125.0,327.1484375,166.9921875,-1000.0,0.0
1734409626.2393515,-125.48828125,-376.46484375,-215.33203125,-927.734375,0.0
1734409626.2432575,-169.43359375,-766.11328125,-342.7734375,219.23828125,0.0
1734409626.2471638,-182.12890625,-37.59765625,42.48046875,-808.10546875,0.0
1734409626.2510698,-155.2734375,193.359375,95.21484375,172.36328125,0.0
1734409626.254976,-121.58203125,-119.140625,-47.8515625,-1000.0,0.0
1734409626.258882,-93.75,-54.19921875,-27.83203125,-1000.0,0.0
1734409626.2627883,-96.19140625,75.68359375,32.2265625,54.19921875,0.0
1734409626.2691083,0.0,-234.86328125,-208.0078125,-812.01171875,0.0
1734409626.2730145,0.0,-211.42578125,-253.41796875,308.10546875,0.0
1734409626.2769206,0.0,99.609375,-42.96875,-973.6328125,0.0
1734409626.2808268,0.0,346.6796875,64.94140625,-1000.0,0.0
1734409626.2847328,0.0,152.83203125,-34.1796875,-74.21875,0.0
1734409626.288639,0.0,-455.56640625,-272.94921875,-845.21484375,0.0
1734409626.292545,0.0,-383.7890625,-205.56640625,475.5859375,0.0
1734409626.2964513,0.0,223.6328125,104.98046875,-849.609375,0.0
1734409626.3003576,0.0,129.39453125,10.7421875,-1000.0,0.0
1734409626.3042636,0.0,-540.52734375,-257.8125,-132.32421875,0.0
1734409626.3081698,0.0,-346.19140625,-120.60546875,-903.80859375,0.0
1734409626.3120759,0.0,153.3203125,60.546875,678.22265625,0.0
1734409626.3173313,-11.71875,-27.83203125,-24.4140625,-635.25390625,0.0
1734409626.3212376,16.11328125,-134.765625,-102.05078125,-1000.0,0.0
1734409626.3251438,-1.953125,-131.34765625,-70.3125,-177.24609375,0.0
1734409626.3290498,-44.43359375,-358.3984375,-206.0546875,-977.05078125,0.0
1734409626.332956,-44.921875,-510.25390625,-292.96875,918.9453125,0.0
1734409626.336862,0.48828125,-508.30078125,-196.77734375,-269.53125,0.0
1734409626.3407683,21.484375,-339.84375,-92.28515625,-1000.0,0.0
1734409626.3446743,-6.8359375,-7.32421875,61.5234375,-266.6015625,0.0
1734409626.3485806,-66.40625,-461.42578125,-241.69921875,983.3984375,0.0
1734409626.3524866,-93.75,-781.73828125,-398.92578125,994.62890625,0.0
1734409626.3563929,-54.19921875,31.73828125,89.84375,-120.60546875,0.0
1734409626.360299,-18.06640625,213.8671875,107.91015625,-1000.0,0.0
1734409626.364447,-9.27734375,-135.25390625,-54.19921875,-374.0234375,0.0
1734409626.3683534,-39.55078125,-90.8203125,-5.859375,900.390625,0.0
1734409626.3722596,-51.26953125,118.1640625,54.19921875,-921.38671875,0.0
1734409626.3761656,-16.6015625,65.4296875,23.4375,48.828125,0.0
1734409626.3800719,20.01953125,-177.24609375,-15.13671875,-1000.0,0.0
1734409626.383978,23.92578125,-376.46484375,-97.65625,-458.49609375,0.0
1734409626.3878841,18.5546875,-411.1328125,-71.77734375,833.49609375,0.0
1734409626.3917902,0.0,-465.33203125,-163.0859375,-885.25390625,0.0
1734409626.3956964,-5.37109375,-710.44921875,-297.36328125,131.8359375,0.0
1734409626.3996024,50.29296875,-360.3515625,-17.08984375,-1000.0,0.0
1734409626.4035087,61.5234375,202.1484375,155.2734375,-767.08984375,0.0
1734409626.407415,38.0859375,-138.18359375,-37.109375,518.5546875,0.0
1734409626.4112163,28.80859375,-358.88671875,-131.34765625,-822.265625,0.0
1734409626.4151225,34.66796875,49.8046875,86.9140625,143.06640625,0.0
1734409626.4190285,52.24609375,-118.65234375,45.8984375,-1000.0,0.0
1734409626.4229348,63.4765625,-541.015625,-190.4296875,-921.875,0.0
1734409626.4268408,59.08203125,-411.1328125,-127.44140625,259.27734375,0.0
1734409626.430747,12.20703125,-414.0625,-178.7109375,-804.19921875,0.0
1734409626.4346533,28.80859375,-492.1875,-213.8671875,242.67578125,0.0
1734409626.4385593,88.37890625,-654.296875,-275.390625,-1000.0,0.0
1734409626.4424655,84.9609375,-782.2265625,-360.83984375,-1000.0,0.0
1734409626.4463716,34.66796875,-376.46484375,-66.40625,8.30078125,0.0
1734409626.4502778,17.08984375,-167.48046875,-21.97265625,-811.03515625,0.0
1734409626.4541838,46.875,-258.7890625,-86.9140625,331.54296875,0.0
1734409626.4576228,0.0,-129.39453125,-4.39453125,-954.1015625,0.0
1734409626.461529,0.0,170.8984375,108.88671875,-1000.0,0.0
1734409626.465435,0.0,30.2734375,1.46484375,-137.6953125,0.0
1734409626.4693413,0.0,-263.671875,-168.9453125,-854.98046875,0.0
1734409626.4732473,0.0,-210.9375,-132.8125,483.3984375,0.0
1734409626.4771535,0.0,-272.4609375,-66.40625,-838.37890625,0.0
1734409626.4810598,0.0,-445.3125,-189.453125,-1000.0,0.0
1734409626.4849658,0.0,-738.28125,-364.74609375,-199.21875,0.0
1734409626.488872,0.0,-512.6953125,-218.75,-918.9453125,0.0
1734409626.492778,0.0,74.21875,24.90234375,677.734375,0.0
1734409626.4966843,0.0,-69.3359375,-37.109375,-637.6953125,0.0
1734409626.5005903,0.0,-251.953125,-132.8125,-1000.0,0.0
1734409626.5038111,48.828125,-201.171875,-104.00390625,-287.109375,0.0
1734409626.5077174,25.390625,-178.22265625,-151.3671875,978.515625,0.0
1734409626.5116234,-0.48828125,-421.875,-299.8046875,871.58203125,0.0
1734409626.5155296,31.25,-322.75390625,-173.828125,-371.09375,0.0
1734409626.519436,99.12109375,71.77734375,23.92578125,-1000.0,0.0
1734409626.523342,74.70703125,-173.33984375,-158.203125,-370.1171875,0.0
1734409626.5272481,32.71484375,-695.80078125,-430.6640625,907.2265625,0.0
1734409626.5311542,24.90234375,-759.765625,-441.89453125,998.046875,0.0
1734409626.5350604,54.19921875,-18.5546875,-17.08984375,-164.0625,0.0
1734409626.5389664,89.35546875,200.1953125,65.4296875,-1000.0,0.0
1734409626.5428727,77.63671875,-132.8125,-128.90625,-464.35546875,0.0
1734409626.5467787,40.0390625,-239.2578125,-206.0546875,818.84765625,0.0
1734409626.5492074,20.5078125,41.50390625,-60.546875,-908.69140625,0.0
1734409626.5531135,59.5703125,109.375,11.23046875,22.4609375,0.0
1734409626.5570197,101.07421875,-104.98046875,-69.3359375,-1000.0,0.0
1734409626.5609257,74.70703125,-247.0703125,-183.59375,-646.484375,0.0
1734409626.564832,26.85546875,-202.1484375,-193.359375,639.6484375,0.0
1734409626.568738,32.2265625,-311.5234375,-270.01953125,-844.7265625,0.0
1734409626.5726442,58.59375,-732.421875,-373.53515625,146.97265625,0.0
1734409626.5765502,67.87109375,-419.43359375,-118.1640625,-1000.0,0.0
1734409626.5804565,69.82421875,238.76953125,87.890625,-785.64453125,0.0
1734409626.5843627,52.24609375,9.27734375,-112.79296875,495.60546875,0.0
1734409626.5882688,44.921875,-285.64453125,-325.68359375,-820.80078125,0.0
1734409626.592175,78.61328125,49.31640625,-113.76953125,208.0078125,0.0
1734409626.5946665,83.0078125,310.546875,102.5390625,-1000.0,0.0
1734409626.5985727,82.51953125,-17.578125,-160.64453125,-913.0859375,0.0
1734409626.6024787,80.078125,-539.55078125,-411.62109375,321.2890625,0.0
1734409626.606385,28.3203125,-279.78515625,-281.73828125,-807.12890625,0.0
1734409626.610291,53.22265625,165.52734375,-152.83203125,315.91796875,0.0
1734409626.6141973,104.98046875,-378.41796875,-353.515625,-975.5859375,0.0
1734409626.6181033,87.890625,-874.0234375,-528.80859375,-1000.0,0.0
1734409626.6220095,52.24609375,-312.98828125,-226.07421875,140.13671875,0.0
1734409626.6259155,27.83203125,55.6640625,-164.0625,-827.63671875,0.0
1734409626.6298218,28.80859375,-241.69921875,-287.109375,477.05078125,0.0
1734409626.6337278,58.10546875,-216.796875,-124.51171875,-834.9609375,0.0
1734409626.637634,76.171875,174.31640625,44.921875,-1000.0,0.0
1734409626.6442065,0.0,132.32421875,-26.3671875,0.0,0.0
1734409626.6481128,0.0,-168.9453125,-206.0546875,0.0,0.0
1734409626.6520188,0.0,-110.3515625,-187.01171875,0.0,0.0
1734409626.655925,0.0,157.71484375,34.1796875,0.0,0.0
1734409626.6598313,0.0,116.69921875,-10.7421875,0.0,0.0
1734409626.6637373,0.0,-419.921875,-269.53125,0.0,0.0
1734409626.6676435,0.0,-494.140625,-317.87109375,0.0,0.0
1734409626.6715496,0.0,25.87890625,-130.37109375,0.0,0.0
1734409626.6754558,0.0,11.23046875,-67.3828125,0.0,0.0
1734409626.6793618,0.0,-667.96875,-336.9140625,0.0,0.0
1734409626.683268,0.0,-510.7421875,-285.64453125,0.0,0.0
1734409626.687174,0.0,125.9765625,3.90625,0.0,0.0
1734409626.68067,41.9921875,-108.88671875,0.0,987.79296875,0.0
1734409626.684576,3.90625,-211.9140625,0.0,-133.30078125,0.0
1734409626.6884823,13.671875,-144.53125,0.0,-1000.0,0.0
1734409626.6923883,51.7578125,-97.16796875,0.0,-280.76171875,0.0
1734409626.6962945,74.21875,-182.12890625,0.0,966.30859375,0.0
1734409626.7002006,58.59375,-597.16796875,0.0,-948.73046875,0.0
1734409626.7041068,6.34765625,-326.66015625,0.0,20.01953125,0.0
1734409626.7080128,-23.4375,229.98046875,0.0,-1000.0,0.0
1734409626.7119188,17.578125,-322.75390625,0.0,-413.0859375,0.0
1734409626.715825,35.64453125,-750.0,0.0,879.39453125,0.0
1734409626.719731,8.7890625,14.16015625,0.0,-901.85546875,0.0
1734409626.7236373,-10.7421875,214.84375,0.0,88.8671875,0.0
1734409626.7312882,-45.8984375,-178.7109375,-133.30078125,-1000.0,0.0
1734409626.7351944,-48.33984375,-202.63671875,-183.59375,-700.68359375,0.0
1734409626.7391005,-86.42578125,138.671875,2.44140625,589.35546875,0.0
1734409626.7430067,-83.984375,50.29296875,-56.640625,-837.40234375,0.0
1734409626.7469127,-45.8984375,-185.546875,-148.92578125,115.234375,0.0
1734409626.750819,-36.62109375,-276.3671875,-95.21484375,-1000.0,0.0
1734409626.754725,-40.52734375,-245.1171875,-71.2890625,-916.9921875,0.0
1734409626.7586312,-57.12890625,-283.203125,-135.7421875,284.66796875,0.0
1734409626.7625372,-48.828125,-663.0859375,-321.2890625,-801.7578125,0.0
1734409626.7664435,-62.01171875,-398.4375,-113.76953125,151.3671875,0.0
1734409626.7703495,-86.42578125,230.46875,136.71875,-1000.0,0.0
1734409626.7742558,-79.58984375,29.78515625,-38.0859375,-1000.0,0.0
1734409626.7802963,0.0,-147.94921875,-81.54296875,11.23046875,0.0
1734409626.7842023,0.0,122.55859375,30.2734375,-815.91796875,0.0
1734409626.7881086,0.0,-83.984375,-92.28515625,253.41796875,0.0
1734409626.7920146,0.0,-470.703125,-227.5390625,-993.65234375,0.0
1734409626.7959208,0.0,-342.7734375,-171.875,-1000.0,0.0
1734409626.7998269,0.0,-243.65234375,-120.60546875,-217.28515625,0.0
1734409626.803733,0.0,-298.33984375,-179.19921875,-871.58203125,0.0
1734409626.8076391,0.0,-604.4921875,-401.3671875,382.32421875,0.0
1734409626.8115454,0.0,-723.6328125,-327.1484375,-936.5234375,0.0
1734409626.8154516,0.0,71.77734375,97.16796875,-1000.0,0.0
1734409626.8193576,0.0,256.8359375,67.3828125,-349.609375,0.0
1734409626.823264,0.0,-98.6328125,-66.89453125,-982.421875,0.0
1734409626.8281684,-122.55859375,-42.48046875,5.859375,538.0859375,0.0
1734409626.8320746,-112.79296875,217.7734375,151.3671875,-833.0078125,0.0
1734409626.8359807,-92.7734375,125.48828125,60.546875,-1000.0,0.0
1734409626.839887,-71.2890625,-120.60546875,21.484375,-466.796875,0.0
1734409626.843793,-113.28125,-141.11328125,44.921875,836.42578125,0.0
1734409626.8476992,-144.04296875,-360.83984375,-48.828125,774.90234375,0.0
1734409626.8516052,-124.0234375,-525.390625,3.41796875,-597.16796875,0.0
1734409626.8555114,-95.703125,-712.890625,-130.37109375,-1000.0,0.0
1734409626.8594174,-105.95703125,-517.08984375,-48.33984375,-523.92578125,0.0
1734409626.8633237,-118.1640625,-29.78515625,190.4296875,732.421875,0.0
1734409626.86723,-79.58984375,-280.2734375,59.5703125,891.6015625,0.0
1734409626.871136,-59.08203125,-493.1640625,59.5703125,-426.7578125,0.0
1734409626.8753676,-42.48046875,-163.0859375,173.33984375,-1000.0,0.0
1734409626.879274,-28.80859375,-59.5703125,177.24609375,-651.85546875,0.0
1734409626.88318,-65.4296875,-625.48828125,6.34765625,552.24609375,0.0
1734409626.8870862,-80.078125,-815.4296875,-25.390625,-994.62890625,0.0
1734409626.8909922,-36.62109375,-397.94921875,173.33984375,-234.86328125,0.0
1734409626.8948984,9.765625,-644.04296875,183.10546875,-1000.0,0.0
1734409626.8988047,20.99609375,-973.14453125,-108.88671875,-747.0703125,0.0
1734409626.9027107,-13.671875,-949.70703125,-169.43359375,461.42578125,0.0
1734409626.906617,-13.671875,-727.05078125,197.265625,-900.87890625,0.0
1734409626.910523,29.296875,-674.31640625,250.9765625,-89.84375,0.0
1734409626.9144292,53.7109375,-874.51171875,217.28515625,-1000.0,0.0
1734409626.9183352,59.5703125,-879.8828125,219.23828125,-946.77734375,0.0
1734409626.921958,41.50390625,-844.23828125,257.8125,154.296875,0.0
1734409626.925864,49.8046875,-965.8203125,176.26953125,-830.078125,0.0
1734409626.9297702,117.67578125,-983.88671875,192.87109375,47.8515625,0.0
1734409626.9336762,154.296875,-945.80078125,273.4375,-1000.0,0.0
1734409626.9375825,136.23046875,-982.91015625,246.58203125,-1000.0,0.0
1734409626.9414885,94.23828125,-1000.0,191.40625,-26.85546875,0.0
1734409626.9453948,59.08203125,-998.53515625,-61.03515625,-820.3125,0.0
1734409626.9493008,106.4453125,-1000.0,87.890625,128.90625,0.0
1734409626.953207,152.83203125,-1000.0,355.95703125,-1000.0,0.0
1734409626.957113,230.46875,-1000.0,262.6953125,-1000.0,0.0
1734409626.9610193,280.2734375,-1000.0,230.95703125,-242.1875,0.0
1734409626.9649253,143.06640625,-1000.0,263.18359375,-881.34765625,0.0
1734409626.9721148,60.546875,-1000.0,314.94140625,272.94921875,0.0
1734409626.9760208,180.6640625,-1000.0,232.421875,-1000.0,0.0
1734409626.979927,222.65625,-1000.0,159.66796875,-1000.0,0.0
1734409626.983833,115.72265625,-1000.0,264.6484375,-258.30078125,0.0
1734409626.9877393,87.40234375,-1000.0,349.609375,-974.12109375,0.0
1734409626.9916453,152.34375,-1000.0,105.95703125,578.125,0.0
1734409626.9955516,187.98828125,-1000.0,129.8828125,-722.16796875,0.0
1734409626.9994576,156.25,-1000.0,429.19921875,-1000.0,0.0
1734409627.0033638,155.2734375,-1000.0,387.20703125,-190.91796875,0.0
1734409627.00727,164.55078125,-1000.0,320.80078125,-946.2890625,0.0
1734409627.011176,198.2421875,-1000.0,347.16796875,795.41015625,0.0
1734409627.0150824,230.46875,-1000.0,425.29296875,-495.60546875,0.0
1734409627.0209968,0.0,-1000.0,385.7421875,-1000.0,0.0
1734409627.024903,0.0,-1000.0,343.75,-136.23046875,0.0
1734409627.028809,0.0,-1000.0,352.5390625,-984.375,0.0
1734409627.0327153,0.0,-1000.0,369.140625,983.3984375,0.0
1734409627.0366213,0.0,-1000.0,354.4921875,-76.171875,0.0
1734409627.0405276,0.0,-1000.0,270.5078125,-1000.0,0.0
1734409627.0444338,0.0,-1000.0,307.12890625,-170.8984375,0.0
1734409627.0483398,0.0,-1000.0,375.9765625,993.65234375,0.0
1734409627.052246,0.0,-1000.0,306.15234375,-951.171875,0.0
1734409627.056152,0.0,-1000.0,216.30859375,310.546875,0.0
1734409627.0600584,0.0,-1000.0,324.70703125,-1000.0,0.0
1734409627.0639644,0.0,-1000.0,407.2265625,-325.1953125,0.0
1734409627.056611,192.87109375,-1000.0,269.04296875,976.07421875,0.0
1734409627.060517,125.0,-1000.0,242.1875,-954.58984375,0.0
1734409627.0644233,77.1484375,-1000.0,293.9453125,494.140625,0.0
1734409627.0683293,75.1953125,-1000.0,306.640625,-938.96484375,0.0
1734409627.0722356,185.05859375,-1000.0,230.95703125,-460.44921875,0.0
1734409627.0761416,252.9296875,-1000.0,147.4609375,921.38671875,0.0
1734409627.0800478,152.83203125,-1000.0,236.328125,-948.2421875,0.0
1734409627.0839539,60.05859375,-1000.0,342.7734375,493.65234375,0.0
1734409627.08786,51.7578125,-1000.0,70.3125,-845.21484375,0.0
1734409627.091766,91.30859375,-1000.0,-14.16015625,-627.44140625,0.0
1734409627.0956724,100.09765625,-1000.0,312.01171875,769.53125,0.0
1734409627.0995784,88.37890625,-1000.0,243.65234375,-923.33984375,0.0
1734409627.1073182,-160.15625,-1000.0,0.0,564.453125,0.0
1734409627.1112242,-122.0703125,-1000.0,0.0,-699.70703125,0.0
1734409627.1151304,-100.5859375,-1000.0,0.0,-746.58203125,0.0
1734409627.1190364,-68.84765625,-1000.0,0.0,657.2265625,0.0
1734409627.1229427,-8.7890625,-1000.0,0.0,-961.9140625,0.0
1734409627.1268487,18.5546875,-1000.0,0.0,687.01171875,0.0
1734409627.130755,8.7890625,-1000.0,0.0,-412.59765625,0.0
1734409627.134661,38.57421875,-1000.0,0.0,-884.765625,0.0
1734409627.1385672,29.296875,-1000.0,0.0,463.8671875,0.0
1734409627.1424732,-3.90625,-1000.0,0.0,-902.83203125,0.0
1734409627.1463795,-6.34765625,-1000.0,0.0,624.0234375,0.0
1734409627.1502855,36.1328125,-1000.0,0.0,-489.74609375,0.0
1734409627.1560247,85.9375,-1000.0,144.53125,-1000.0,0.0
1734409627.1599307,41.015625,-1000.0,211.9140625,72.75390625,0.0
1734409627.163837,-21.97265625,-1000.0,105.95703125,-885.7421875,0.0
1734409627.167743,1.953125,-1000.0,-3.41796875,743.1640625,0.0
1734409627.1716492,0.48828125,-1000.0,100.09765625,-480.46875,0.0
1734409627.1755552,7.32421875,-1000.0,114.2578125,-1000.0,0.0
1734409627.1794615,1.953125,-999.0234375,122.55859375,-101.5625,0.0
1734409627.1833675,-18.5546875,-1000.0,-139.6484375,-940.91796875,0.0
1734409627.1872737,-23.4375,-1000.0,-330.56640625,869.62890625,0.0
1734409627.1911798,-11.23046875,-922.8515625,125.9765625,-328.125,0.0
1734409627.195086,41.015625,-867.1875,181.640625,-1000.0,0.0
1734409627.198992,25.87890625,-950.1953125,90.33203125,-185.546875,0.0
1734409627.2036676,10.7421875,-915.52734375,115.234375,992.67578125,0.0
1734409627.2075737,-4.39453125,-894.04296875,50.78125,959.9609375,0.0
1734409627.21148,-15.13671875,-1000.0,13.671875,-103.515625,0.0
1734409627.215386,5.37109375,-879.8828125,90.33203125,-1000.0,0.0
1734409627.2192922,-33.203125,-655.76171875,86.9140625,-311.5234375,0.0
1734409627.2231982,-47.36328125,-859.375,-18.06640625,931.640625,0.0
1734409627.2271044,-56.15234375,-983.3984375,-40.0390625,-940.91796875,0.0
1734409627.2310104,-36.1328125,-937.5,-145.01953125,175.78125,0.0
1734409627.2349167,-9.27734375,-670.8984375,-45.8984375,-1000.0,0.0
1734409627.238823,-37.109375,-224.609375,165.0390625,-414.0625,0.0
1734409627.242729,-86.42578125,-455.078125,28.3203125,892.578125,0.0
1734409627.2466352,-97.65625,-708.49609375,-28.3203125,-919.43359375,0.0
1734409627.250433,-39.55078125,-305.6640625,146.97265625,307.12890625,0.0
1734409627.254339,-13.18359375,-23.92578125,189.94140625,-1000.0,0.0
1734409627.2582452,-25.390625,-449.21875,25.390625,-500.48828125,0.0
1734409627.2621512,-60.05859375,-665.0390625,-6.8359375,846.19140625,0.0
1734409627.2660575,-97.16796875,-345.703125,70.80078125,-934.5703125,0.0
1734409627.2699635,-56.640625,-430.17578125,82.03125,476.07421875,0.0
1734409627.2738698,-9.765625,-747.0703125,-75.1953125,-826.171875,0.0
1734409627.2777758,-11.23046875,-574.70703125,-75.1953125,-721.19140625,0.0
1734409627.281682,-13.671875,-24.4140625,133.30078125,660.64453125,0.0
1734409627.285588,-66.89453125,116.2109375,135.25390625,-912.59765625,0.0
1734409627.2894943,-108.3984375,-470.21484375,-140.13671875,593.26171875,0.0
1734409627.2934003,-91.796875,-545.41015625,-175.29296875,-632.32421875,0.0
1734409627.2966886,-91.30859375,304.19921875,148.4375,-822.265625,0.0
1734409627.3005946,-111.81640625,333.49609375,63.96484375,538.57421875,0.0
1734409627.3045008,-121.58203125,0.48828125,-125.9765625,-909.1796875,0.0
1734409627.3084068,-105.95703125,195.80078125,-33.69140625,705.078125,0.0
1734409627.312313,-72.265625,511.23046875,79.1015625,-471.6796875,0.0
1734409627.316219,-63.4765625,145.01953125,-165.52734375,-890.13671875,0.0
1734409627.3201253,-100.09765625,-154.78515625,-301.26953125,457.51953125,0.0
1734409627.3240314,-130.859375,101.07421875,-260.7421875,-908.69140625,0.0
1734409627.3279376,-99.609375,226.5625,-239.74609375,800.78125,0.0
1734409627.3318439,-94.23828125,252.44140625,-266.6015625,-315.91796875,0.0
1734409627.3357499,-80.56640625,-72.265625,-363.28125,-1000.0,0.0
1734409627.339656,-105.95703125,163.0859375,-274.4140625,241.69921875,0.0
1734409627.3426132,-159.66796875,588.8671875,-260.25390625,-941.40625,0.0
1734409627.3465192,-131.8359375,347.65625,-385.7421875,934.08203125,0.0
1734409627.3504255,-80.078125,22.4609375,-486.328125,-34.66796875,0.0
1734409627.3543315,-76.171875,260.25390625,-354.00390625,-1000.0,0.0
1734409627.3582377,-73.2421875,664.55078125,-312.5,83.984375,0.0
1734409627.3621438,-73.73046875,-40.0390625,-577.1484375,-951.66015625,0.0
1734409627.36605,-127.44140625,-434.08203125,-624.51171875,-996.58203125,0.0
1734409627.369956,-108.88671875,382.8125,-352.5390625,211.9140625,0.0
1734409627.3738623,-55.6640625,728.02734375,-345.703125,-1000.0,0.0
1734409627.3777683,-46.38671875,168.45703125,-485.3515625,-21.97265625,0.0
1734409627.3816745,-80.56640625,-102.5390625,-496.58203125,-948.2421875,0.0
1734409627.3855805,-87.40234375,150.390625,-482.421875,980.46875,0.0
1734409627.3926806,-12.6953125,291.015625,-435.05859375,741.69921875,0.0
1734409627.3965867,56.640625,466.30859375,-396.484375,-638.671875,0.0
1734409627.400493,48.828125,576.171875,-388.671875,-106.93359375,0.0
1734409627.404399,-5.37109375,707.51953125,-362.3046875,-904.296875,0.0
1734409627.4083052,-27.83203125,539.55078125,-437.5,918.45703125,0.0
1734409627.4122112,5.37109375,149.4140625,-473.14453125,-953.61328125,0.0
1734409627.4161174,32.71484375,303.22265625,-391.11328125,-49.8046875,0.0
1734409627.4200237,29.78515625,798.33984375,-333.984375,-2.9296875,0.0
1734409627.4239297,71.77734375,581.54296875,-418.9453125,-911.62109375,0.0
1734409627.427836,37.109375,-154.296875,-549.31640625,914.55078125,0.0
1734409627.431742,-11.23046875,150.390625,-385.7421875,-927.734375,0.0
1734409627.4356482,18.5546875,759.27734375,-281.25,264.6484375,0.0
1734409627.441144,53.22265625,410.64453125,-432.12890625,153.80859375,0.0
1734409627.4450502,20.5078125,91.796875,-489.2578125,-942.87109375,0.0
1734409627.4489563,-0.48828125,161.1328125,-416.50390625,928.22265625,0.0
1734409627.4528625,65.4296875,92.7734375,-429.19921875,-938.4765625,0.0
1734409627.4567685,99.609375,2.44140625,-414.0625,479.4921875,0.0
1734409627.4606748,51.7578125,-21.97265625,-462.890625,316.89453125,0.0
1734409627.4645808,24.90234375,39.0625,-437.98828125,-970.703125,0.0
1734409627.468487,41.9921875,460.44921875,-338.8671875,940.91796875,0.0
1734409627.472393,69.82421875,68.84765625,-529.78515625,-960.44921875,0.0
1734409627.4762993,92.7734375,-383.30078125,-549.8046875,628.90625,0.0
1734409627.4802055,120.60546875,571.77734375,-250.48828125,456.0546875,0.0
1734409627.4841115,117.1875,708.49609375,-321.2890625,-991.69921875,0.0
1734409627.488856,81.54296875,287.59765625,-432.6171875,919.43359375,0.0
1734409627.492762,56.15234375,426.7578125,-331.54296875,-910.15625,0.0
1734409627.4966683,109.86328125,735.3515625,-248.046875,474.609375,0.0
1734409627.5005746,74.70703125,673.828125,-288.0859375,-95.703125,0.0
1734409627.5044806,-45.41015625,240.72265625,-383.30078125,844.23828125,0.0
1734409627.5083869,-61.5234375,-17.08984375,-464.35546875,-967.28515625,0.0
1734409627.5122929,-18.5546875,-19.53125,-421.38671875,875.48828125,0.0
1734409627.516199,26.3671875,62.98828125,-400.390625,-118.65234375,0.0
1734409627.5201051,42.48046875,-350.5859375,-493.65234375,-1000.0,0.0
1734409627.5240114,7.32421875,-215.33203125,-395.99609375,-238.76953125,0.0
1734409627.5279174,-16.11328125,439.453125,-336.9140625,-935.05859375,0.0
1734409627.5318236,-20.01953125,232.421875,-474.12109375,503.90625,0.0
1734409627.5354779,49.8046875,164.0625,-458.984375,-886.23046875,0.0
1734409627.5393841,92.28515625,592.28515625,-312.01171875,-981.4453125,0.0
1734409627.5432901,13.671875,310.05859375,-422.8515625,-1000.0,0.0
1734409627.5471964,-2.9296875,-208.49609375,-499.51171875,-63.96484375,0.0
1734409627.5511024,4.8828125,-11.71875,-437.5,298.828125,0.0
1734409627.5550086,-10.7421875,23.92578125,-397.4609375,-1000.0,0.0
1734409627.5589147,3.41796875,166.015625,-281.25,-1000.0,0.0
1734409627.562821,9.27734375,-184.5703125,-474.12109375,-1000.0,0.0
1734409627.5667272,4.8828125,-861.81640625,-651.85546875,-839.35546875,0.0
1734409627.5706332,-64.94140625,-223.6328125,-366.69921875,-700.68359375,0.0
1734409627.5745394,-76.66015625,324.21875,-247.55859375,-1000.0,0.0
1734409627.5784454,-11.23046875,197.75390625,-287.109375,-1000.0,0.0
1734409627.5818703,-22.94921875,186.03515625,-286.62109375,-989.74609375,0.0
1734409627.5857763,-35.15625,345.703125,-269.53125,-1000.0,0.0
1734409627.5896826,-54.6875,229.00390625,-356.93359375,-1000.0,0.0
1734409627.5935886,-88.37890625,104.00390625,-329.1015625,-1000.0,0.0
1734409627.5974948,-23.92578125,314.453125,-283.69140625,-1000.0,0.0
1734409627.6014009,-57.12890625,93.75,-403.80859375,-1000.0,0.0
1734409627.605307,-163.0859375,-240.234375,-458.0078125,-1000.0,0.0
1734409627.609213,-188.96484375,-611.328125,-525.390625,-1000.0,0.0
1734409627.6131194,-169.43359375,-291.9921875,-375.9765625,-1000.0,0.0
1734409627.6170256,-113.76953125,512.20703125,-244.140625,-1000.0,0.0
1734409627.6209316,-111.81640625,316.89453125,-378.41796875,-1000.0,0.0
1734409627.6248379,-117.1875,-112.3046875,-487.79296875,-1000.0,0.0
1734409627.6276522,-139.6484375,-0.9765625,-441.40625,-1000.0,0.0
1734409627.6315582,-129.39453125,437.5,-306.640625,-1000.0,0.0
1734409627.6354644,-64.94140625,224.12109375,-389.16015625,-1000.0,0.0
1734409627.6393707,-57.6171875,83.49609375,-441.89453125,-1000.0,0.0
1734409627.6432767,-98.6328125,359.86328125,-359.375,-1000.0,0.0
1734409627.647183,-104.00390625,173.33984375,-435.546875,-1000.0,0.0
1734409627.651089,-54.19921875,-287.109375,-537.109375,-1000.0,0.0
1734409627.6549952,-46.38671875,-426.7578125,-517.08984375,-1000.0,0.0
1734409627.6589012,-67.3828125,420.41015625,-262.6953125,-1000.0,0.0
1734409627.6628075,-79.58984375,628.41796875,-286.1328125,-1000.0,0.0
1734409627.6667135,-47.36328125,251.953125,-391.6015625,-1000.0,0.0
1734409627.6706197,17.578125,354.98046875,-323.73046875,-1000.0,0.0
1734409627.6733205,-45.8984375,715.8203125,-145.01953125,-1000.0,0.0
1734409627.6772265,-25.390625,754.39453125,-59.08203125,-1000.0,0.0
1734409627.6811328,47.36328125,327.1484375,-277.83203125,-1000.0,0.0
1734409627.6850388,-50.29296875,140.13671875,-356.93359375,-1000.0,0.0
1734409627.688945,-62.5,463.37890625,-234.86328125,-1000.0,0.0
1734409627.692851,-29.296875,437.5,-243.65234375,-1000.0,0.0
1734409627.6967573,-42.96875,-304.6875,-364.74609375,-1000.0,0.0
1734409627.7006633,-47.36328125,-197.265625,-250.48828125,-1000.0,0.0
1734409627.7045696,-57.12890625,651.3671875,-65.4296875,-1000.0,0.0
1734409627.7084756,-59.08203125,509.765625,-216.796875,-1000.0,0.0
1734409627.7123818,-25.87890625,447.265625,-174.31640625,-1000.0,0.0
1734409627.7162879,25.87890625,854.4921875,18.06640625,-1000.0,0.0
1734409627.7190137,29.78515625,966.30859375,19.04296875,-1000.0,0.0
1734409627.72292,-22.94921875,650.390625,-172.8515625,-1000.0,0.0
1734409627.726826,-36.62109375,224.12109375,-411.62109375,-1000.0,0.0
1734409627.7307322,0.0,519.53125,-106.93359375,-1000.0,0.0
1734409627.7346382,12.6953125,-964.35546875,146.484375,-989.74609375,0.0
1734409627.7385445,-20.99609375,453.125,-172.36328125,-1000.0,0.0
1734409627.7424505,-67.3828125,-223.14453125,-432.6171875,-922.36328125,0.0
1734409627.7463567,-66.89453125,477.05078125,-107.91015625,-843.26171875,0.0
1734409627.7502627,-33.69140625,998.046875,151.3671875,-1000.0,0.0
1734409627.754169,-15.625,770.5078125,54.6875,-991.69921875,0.0
1734409627.758075,7.32421875,797.36328125,42.96875,-1000.0,0.0
1734409627.7619812,42.48046875,988.28125,123.53515625,-929.6875,0.0
1734409627.7687905,-29.78515625,913.0859375,46.38671875,-771.484375,0.0
1734409627.7726965,-64.453125,791.015625,116.2109375,-980.46875,0.0
1734409627.7766027,-47.36328125,875.0,193.84765625,-999.0234375,0.0
1734409627.7805088,-64.453125,979.00390625,176.7578125,-1000.0,0.0
1734409627.784415,-40.0390625,871.58203125,98.14453125,-978.02734375,0.0
1734409627.7883213,-20.5078125,354.98046875,-49.8046875,-527.83203125,0.0
1734409627.7922273,-11.71875,400.87890625,86.9140625,-754.39453125,0.0
1734409627.7961335,-36.1328125,961.42578125,238.28125,-1000.0,0.0
1734409627.8000395,-77.63671875,822.265625,138.18359375,-977.5390625,0.0
1734409627.8039458,-87.40234375,69.82421875,-78.125,-983.3984375,0.0
1734409627.8078518,-89.84375,201.66015625,-20.01953125,-555.17578125,0.0
1734409627.811758,-95.703125,741.69921875,193.359375,-657.71484375,0.0
1734409627.8173563,-44.43359375,670.8984375,160.15625,-1000.0,0.0
1734409627.8212624,12.6953125,623.046875,132.32421875,-974.609375,0.0
1734409627.8251686,-18.06640625,479.98046875,104.00390625,-1000.0,0.0
1734409627.8290746,-126.46484375,354.4921875,60.546875,-525.87890625,0.0
1734409627.8329809,-127.9296875,368.1640625,57.12890625,-540.52734375,0.0
1734409627.8368871,-41.9921875,108.88671875,51.26953125,-1000.0,0.0
1734409627.8407931,-48.828125,255.37109375,109.86328125,-958.984375,0.0
1734409627.8446994,-65.91796875,654.78515625,221.6796875,-1000.0,0.0
1734409627.8486054,-71.2890625,31.73828125,-93.75,-612.79296875,0.0
1734409627.8525116,-102.5390625,-482.91015625,-230.95703125,-532.71484375,0.0
1734409627.8564177,-94.7265625,499.0234375,210.9375,-1000.0,0.0
1734409627.860324,-24.4140625,801.26953125,204.1015625,-977.05078125,0.0
1734409627.8646696,-47.8515625,359.375,126.953125,-1000.0,0.0
1734409627.8685758,-82.03125,373.046875,134.27734375,-756.8359375,0.0
1734409627.872482,-83.984375,683.59375,185.546875,-693.84765625,0.0
1734409627.876388,-74.21875,682.6171875,196.77734375,-1000.0,0.0
1734409627.8802943,19.53125,461.42578125,149.4140625,-982.421875,0.0
1734409627.8842003,4.8828125,191.89453125,101.5625,-1000.0,0.0
1734409627.8881066,-90.8203125,165.52734375,121.09375,-808.10546875,0.0
1734409627.8920126,-73.73046875,261.23046875,116.2109375,-726.5625,0.0
1734409627.8959188,-74.70703125,153.3203125,114.74609375,-1000.0,0.0
1734409627.8998249,-61.5234375,375.48828125,192.87109375,-979.4921875,0.0
1734409627.903731,-33.203125,632.8125,212.40234375,-1000.0,0.0
1734409627.9076374,-37.59765625,291.015625,62.98828125,-814.94140625,0.0
1734409627.9113233,0.48828125,-347.65625,-141.6015625,-642.08984375,0.0
1734409627.9152296,10.25390625,151.3671875,126.46484375,-1000.0,0.0
1734409627.9191356,15.13671875,346.19140625,183.10546875,-981.93359375,0.0
1734409627.9230418,-54.6875,-261.71875,-35.15625,-1000.0,0.0
1734409627.9269478,-165.0390625,-253.41796875,-14.6484375,-793.9453125,0.0
1734409627.930854,-112.79296875,-217.28515625,-3.90625,-336.9140625,0.0
1734409627.93476,-47.36328125,2.9296875,153.3203125,-724.609375,0.0
1734409627.9386663,-37.109375,-255.37109375,-68.359375,-1000.0,0.0
1734409627.9425726,-11.71875,-674.31640625,-253.41796875,-810.546875,0.0
1734409627.9464786,-74.21875,46.875,129.39453125,-381.8359375,0.0
1734409627.9503849,-77.63671875,220.21484375,57.6171875,306.15234375,0.0
1734409627.9542909,-15.625,36.62109375,72.265625,147.4609375,0.0
1734409627.9572153,-0.9765625,184.5703125,138.671875,-703.125,0.0
1734409627.9611213,-14.16015625,438.4765625,131.8359375,-620.1171875,0.0
1734409627.9650276,-18.06640625,306.640625,46.875,257.32421875,0.0
1734409627.9689336,-37.59765625,4.8828125,-39.0625,778.3203125,0.0
1734409627.9728398,-28.80859375,183.59375,74.70703125,737.79296875,0.0
1734409627.976746,-27.83203125,129.8828125,60.05859375,-158.69140625,0.0
1734409627.980652,20.5078125,-43.45703125,-5.37109375,-198.73046875,0.0
1734409627.9845583,52.24609375,-487.79296875,-198.2421875,789.55078125,0.0
1734409627.9884644,-7.32421875,-354.00390625,-157.71484375,930.17578125,0.0
1734409627.9923706,-49.8046875,462.890625,111.328125,825.68359375,0.0
1734409627.9962766,23.4375,351.07421875,31.25,234.86328125,0.0
1734409628.0001829,65.4296875,180.6640625,-46.875,-21.97265625,0.0
1734409628.0033484,-55.6640625,397.4609375,45.41015625,661.62109375,0.0
1734409628.0072546,-86.42578125,440.4296875,34.66796875,910.64453125,0.0
1734409628.0111606,-45.41015625,17.578125,-190.91796875,879.39453125,0.0
1734409628.0150669,-51.26953125,-144.53125,-188.4765625,355.46875,0.0
1734409628.0189729,-50.78125,217.7734375,4.39453125,-24.90234375,0.0
1734409628.0228791,-67.3828125,70.3125,-126.46484375,634.765625,0.0
1734409628.0267851,-76.66015625,-575.1953125,-425.78125,952.63671875,0.0
1734409628.0306914,-74.21875,-721.6796875,-462.40234375,927.734375,0.0
1734409628.0345976,-52.734375,170.41015625,-8.7890625,599.12109375,0.0
1734409628.0385036,-25.390625,301.26953125,-10.25390625,251.953125,0.0
1734409628.04241,-33.69140625,-94.23828125,-241.2109375,677.734375,0.0
1734409628.046316,-20.99609375,49.31640625,-254.39453125,920.41015625,0.0
1734409628.0493908,-9.765625,335.9375,-206.0546875,938.96484375,0.0
1734409628.053297,10.25390625,335.9375,-109.86328125,701.66015625,0.0
1734409628.057203,42.48046875,122.0703125,-188.4765625,47.36328125,0.0
1734409628.0611093,-1.46484375,192.87109375,-172.8515625,333.49609375,0.0
1734409628.0650156,-10.25390625,279.296875,-215.33203125,876.46484375,0.0
1734409628.0689216,-52.734375,-15.13671875,-367.1875,958.0078125,0.0
1734409628.0728278,-75.68359375,-636.71875,-414.55078125,911.1328125,0.0
1734409628.0767338,-55.6640625,-376.953125,-335.44921875,36.1328125,0.0
1734409628.08064,-71.77734375,382.8125,-215.8203125,192.87109375,0.0
1734409628.084546,-70.3125,85.44921875,-342.7734375,928.7109375,0.0
1734409628.0884523,-62.98828125,-183.59375,-416.50390625,943.359375,0.0
1734409628.0923584,-63.4765625,158.69140625,-259.765625,952.1484375,0.0
1734409628.0949533,0.0,174.8046875,-269.53125,125.48828125,0.0
1734409628.0988595,0.0,-248.046875,-450.68359375,246.58203125,0.0
1734409628.1027656,0.0,-549.31640625,-518.5546875,978.515625,0.0
1734409628.1066718,0.0,-306.640625,-416.015625,927.734375,0.0
1734409628.110578,0.0,198.73046875,-303.7109375,-981.4453125,0.0
1734409628.114484,0.0,-345.21484375,-507.32421875,392.578125,0.0
1734409628.1183903,0.0,-696.2890625,-580.56640625,388.671875,0.0
1734409628.1222963,0.0,46.875,-317.3828125,-995.60546875,0.0
1734409628.1262026,0.0,215.8203125,-377.44140625,917.96875,0.0
1734409628.1301086,0.0,-162.109375,-415.0390625,-937.5,0.0
1734409628.1340148,0.0,-145.5078125,-315.91796875,466.30859375,0.0
1734409628.1379209,0.0,275.390625,-317.87109375,302.24609375,0.0
1734409628.1443324,-103.02734375,196.2890625,-373.53515625,-984.86328125,0.0
1734409628.1482384,-95.21484375,-135.25390625,-437.98828125,946.2890625,0.0
1734409628.1521447,-98.14453125,54.6875,-314.94140625,-973.14453125,0.0
1734409628.156051,-104.00390625,314.453125,-263.18359375,671.875,0.0
1734409628.159957,-73.2421875,48.33984375,-377.44140625,528.3203125,0.0
1734409628.1638632,-41.50390625,-432.6171875,-441.89453125,-999.0234375,0.0
1734409628.1677692,-42.96875,-355.95703125,-417.96875,956.0546875,0.0
1734409628.1716754,-75.68359375,235.3515625,-291.015625,-992.67578125,0.0
1734409628.1755815,-90.33203125,233.3984375,-322.265625,791.50390625,0.0
1734409628.1794877,-111.328125,-358.3984375,-457.51953125,665.52734375,0.0
1734409628.1833937,-95.21484375,-243.1640625,-389.16015625,976.07421875,0.0
1734409628.1873,-98.14453125,113.76953125,-368.65234375,946.2890625,0.0
1734409628.192889,-106.93359375,-178.7109375,-456.0546875,-980.46875,0.0
1734409628.196795,-72.265625,-250.9765625,-452.63671875,790.0390625,0.0
1734409628.2007012,-47.36328125,-201.66015625,-436.5234375,537.59765625,0.0
1734409628.2046075,-76.171875,-180.17578125,-436.5234375,900.87890625,0.0
1734409628.2085135,-116.69921875,-259.27734375,-473.14453125,951.171875,0.0
1734409628.2124197,-97.16796875,-587.40234375,-539.0625,996.09375,0.0
1734409628.2163258,-114.2578125,-253.41796875,-420.8984375,770.99609375,0.0
1734409628.220232,-126.953125,8.7890625,-425.78125,359.375,0.0
1734409628.224138,-114.74609375,-337.890625,-501.46484375,728.515625,0.0
1734409628.2280443,-150.87890625,-248.53515625,-468.75,936.5234375,0.0
1734409628.2319505,-166.50390625,193.84765625,-429.6875,978.02734375,0.0
1734409628.2358565,-159.66796875,239.74609375,-431.15234375,863.28125,0.0
1734409628.2403347,-161.62109375,-332.03125,-569.82421875,345.21484375,0.0
1734409628.244241,-170.41015625,-472.16796875,-596.19140625,596.6796875,0.0
1734409628.248147,-188.96484375,223.14453125,-443.359375,942.87109375,0.0
1734409628.2520533,-186.03515625,200.68359375,-482.421875,957.03125,0.0
1734409628.2559595,-175.78125,72.75390625,-481.93359375,949.70703125,0.0
1734409628.2598655,-193.84765625,9.765625,-508.7890625,334.9609375,0.0
1734409628.2637718,-213.8671875,19.53125,-530.76171875,460.9375,0.0
1734409628.2676778,-238.28125,76.171875,-560.546875,947.265625,0.0
1734409628.271584,-285.15625,-511.23046875,-669.43359375,932.6171875,0.0
1734409628.27549,-275.87890625,-315.4296875,-514.6484375,-985.83984375,0.0
1734409628.2793963,-279.296875,194.82421875,-443.84765625,454.58984375,0.0
1734409628.2833025,-273.92578125,-30.2734375,-558.59375,469.23828125,0.0
1734409628.2866058,-266.6015625,59.08203125,-544.921875,985.83984375,0.0
1734409628.2905118,-279.296875,457.03125,-434.08203125,929.19921875,0.0
1734409628.294418,-228.515625,327.1484375,-449.70703125,-966.30859375,0.0
1734409628.2983243,-219.23828125,9.27734375,-488.28125,643.06640625,0.0
1734409628.3022304,-209.47265625,276.3671875,-473.6328125,558.59375,0.0
1734409628.3061366,-191.40625,169.43359375,-505.859375,982.421875,0.0
1734409628.3100426,-183.10546875,224.609375,-459.9609375,933.10546875,0.0
1734409628.3139489,-140.13671875,-7.8125,-557.12890625,-957.03125,0.0
1734409628.317855,-98.14453125,-415.0390625,-584.9609375,595.21484375,0.0
1734409628.3217611,-97.65625,496.09375,-301.7578125,453.125,0.0
1734409628.3256674,-87.40234375,721.6796875,-341.796875,-987.79296875,0.0
1734409628.3295734,-73.73046875,322.265625,-446.77734375,925.29296875,0.0
1734409628.333307,-133.30078125,437.5,-314.453125,0.0,0.0
1734409628.3372133,-117.67578125,496.09375,-258.7890625,0.0,0.0
1734409628.3411195,-41.50390625,415.0390625,-327.1484375,0.0,0.0
1734409628.3450255,-47.36328125,363.76953125,-335.44921875,0.0,0.0
1734409628.3489318,-40.52734375,368.1640625,-344.23828125,0.0,0.0
1734409628.3528378,7.8125,227.05078125,-371.58203125,0.0,0.0
1734409628.356744,-13.18359375,120.60546875,-344.7265625,0.0,0.0
1734409628.36065,-0.48828125,-300.29296875,-403.80859375,0.0,0.0
1734409628.3645563,42.48046875,-227.5390625,-338.8671875,0.0,0.0
1734409628.3684626,15.625,542.96875,-250.9765625,0.0,0.0
1734409628.3723686,-10.7421875,350.09765625,-344.7265625,0.0,0.0
1734409628.3762748,29.78515625,242.1875,-290.0390625,0.0,0.0
1734409628.3791845,60.546875,639.16015625,-102.05078125,-929.6875,0.0
1734409628.3830905,52.24609375,727.05078125,-169.43359375,-1000.0,0.0
1734409628.3869967,47.8515625,200.1953125,-415.52734375,34.66796875,0.0
1734409628.3909028,21.484375,10.7421875,-409.66796875,422.8515625,0.0
1734409628.394809,-3.90625,348.6328125,-232.421875,-975.09765625,0.0
1734409628.398715,50.78125,323.73046875,-277.34375,-973.14453125,0.0
1734409628.4026213,73.2421875,-197.265625,-470.21484375,-1000.0,0.0
1734409628.4065273,3.90625,-512.20703125,-533.203125,-291.015625,0.0
1734409628.4104335,2.44140625,279.296875,-281.25,115.72265625,0.0
1734409628.4143398,94.7265625,685.05859375,-152.83203125,-1000.0,0.0
1734409628.4182458,99.609375,539.0625,-218.75,-980.46875,0.0
1734409628.422152,18.5546875,571.77734375,-300.78125,-1000.0,0.0
1734409628.4251995,11.23046875,742.1875,-268.5546875,-474.609375,0.0
1734409628.4291058,-10.25390625,594.23828125,-336.9140625,104.98046875,0.0
1734409628.4330118,-7.8125,406.73828125,-331.0546875,-868.1640625,0.0
1734409628.436918,55.6640625,642.578125,-116.69921875,-997.0703125,0.0
1734409628.440824,36.1328125,775.87890625,-30.2734375,-1000.0,0.0
1734409628.4447303,14.6484375,387.6953125,-239.74609375,-492.67578125,0.0
1734409628.4486363,26.3671875,-447.75390625,-475.09765625,638.671875,0.0
1734409628.4525425,38.57421875,-396.484375,-282.71484375,-184.5703125,0.0
1734409628.4564488,29.296875,383.7890625,7.8125,-1000.0,0.0
1734409628.4603548,44.43359375,404.78515625,-33.69140625,-803.7109375,0.0
1734409628.464261,42.48046875,151.3671875,-112.3046875,-65.91796875,0.0
1734409628.468167,18.5546875,282.71484375,-17.08984375,814.94140625,0.0
1734409628.4700532,22.4609375,519.04296875,108.88671875,630.859375,0.0
1734409628.4739592,1.953125,362.3046875,18.5546875,-508.30078125,0.0
1734409628.4778655,9.27734375,-84.47265625,-229.4921875,-633.30078125,0.0
1734409628.4817715,28.3203125,136.71875,-63.4765625,554.19921875,0.0
1734409628.4856777,0.0,418.9453125,19.53125,904.296875,0.0
1734409628.4895837,8.30078125,-222.16796875,-339.35546875,-973.14453125,0.0
1734409628.49349,35.64453125,-482.421875,-319.3359375,178.22265625,0.0
1734409628.497396,18.5546875,389.16015625,75.1953125,-413.57421875,0.0
1734409628.5013022,24.4140625,599.12109375,72.265625,762.6953125,0.0
1734409628.5052085,54.6875,98.14453125,-120.1171875,951.171875,0.0
1734409628.5091145,15.13671875,-52.24609375,-90.8203125,928.7109375,0.0
1734409628.5130208,11.71875,270.99609375,65.91796875,313.96484375,0.0
1734409628.5194087,40.0390625,463.37890625,54.19921875,-296.38671875,0.0
1734409628.523315,24.90234375,205.078125,-51.7578125,647.94921875,0.0
1734409628.527221,-7.8125,169.43359375,-28.3203125,979.4921875,0.0
1734409628.5311272,-20.5078125,409.1796875,95.21484375,903.3203125,0.0
1734409628.5350332,-4.39453125,448.73046875,97.16796875,236.328125,0.0
1734409628.5389395,-14.6484375,-4.39453125,-104.4921875,-491.2109375,0.0
1734409628.5428455,-37.59765625,-125.0,-80.078125,314.453125,0.0
1734409628.5467517,-24.4140625,285.15625,73.73046875,979.98046875,0.0
1734409628.5506577,13.671875,187.98828125,-12.6953125,755.37109375,0.0
1734409628.554564,2.44140625,-337.890625,-166.015625,-224.12109375,0.0
1734409628.5584702,-6.34765625,-20.01953125,-34.1796875,-1000.0,0.0
1734409628.5623763,4.39453125,475.09765625,107.421875,-407.2265625,0.0
1734409628.567427,-8.30078125,138.18359375,-56.640625,760.25390625,0.0
1734409628.571333,-35.64453125,-116.69921875,-133.30078125,819.82421875,0.0
1734409628.5752392,-63.4765625,-52.24609375,-32.2265625,-354.00390625,0.0
1734409628.5791454,-37.109375,-35.64453125,-36.1328125,-1000.0,0.0
1734409628.5830514,-21.484375,-156.25,-144.53125,-685.05859375,0.0
1734409628.5869577,-24.90234375,-351.5625,-310.546875,459.47265625,0.0
1734409628.5908637,-33.69140625,-151.3671875,-222.65625,855.95703125,0.0
1734409628.59477,-23.4375,424.8046875,67.87109375,-444.82421875,0.0
1734409628.598676,-25.87890625,-47.36328125,-210.44921875,-1000.0,0.0
1734409628.6025822,-86.9140625,-668.45703125,-464.84375,-856.93359375,0.0
1734409628.6064882,-116.2109375,100.5859375,-42.96875,128.90625,0.0
1734409628.6103945,-112.79296875,368.1640625,2.9296875,909.1796875,0.0
1734409628.6145074,-88.8671875,-203.125,-189.94140625,-337.890625,0.0
1734409628.6184134,-80.56640625,-163.0859375,-117.67578125,-1000.0,0.0
1734409628.6223197,-102.5390625,386.23046875,11.23046875,-933.59375,0.0
1734409628.626226,-114.74609375,258.30078125,-62.5,-27.34375,0.0
1734409628.630132,-126.46484375,-60.05859375,-230.46875,913.0859375,0.0
1734409628.6340382,-100.09765625,-169.921875,-265.13671875,-238.28125,0.0
1734409628.6379442,-76.171875,-116.69921875,-230.95703125,-1000.0,0.0
1734409628.6418505,-97.16796875,-3.90625,-268.06640625,-984.375,0.0
1734409628.6457565,-132.32421875,-472.65625,-352.5390625,-207.03125,0.0
1734409628.6496627,-65.4296875,-326.171875,-296.38671875,965.33203125,0.0
1734409628.6535687,-55.6640625,399.4140625,-92.28515625,-68.359375,0.0
1734409628.657475,-137.20703125,159.1796875,-207.03125,-1000.0,0.0
1734409628.6613271,0.0,76.171875,0.0,-1000.0,0.0
1734409628.6652331,0.0,379.39453125,0.0,-539.0625,0.0
1734409628.6691394,0.0,98.14453125,0.0,846.6796875,0.0
1734409628.6730454,0.0,-212.40234375,0.0,154.78515625,0.0
1734409628.6769516,0.0,61.03515625,0.0,-1000.0,0.0
1734409628.680858,0.0,34.66796875,0.0,-990.72265625,0.0
1734409628.684764,0.0,79.58984375,0.0,-583.49609375,0.0
1734409628.6886702,0.0,-282.71484375,0.0,772.4609375,0.0
1734409628.6925762,0.0,-727.05078125,0.0,346.19140625,0.0
1734409628.6964824,0.0,163.57421875,0.0,-968.75,0.0
1734409628.7003884,0.0,504.39453125,0.0,-1000.0,0.0
1734409628.7042947,0.0,115.234375,0.0,-876.46484375,0.0
1734409628.6954563,-134.27734375,53.7109375,-277.83203125,515.625,0.0
1734409628.6993623,-107.421875,353.515625,-186.03515625,350.5859375,0.0
1734409628.7032683,-94.23828125,385.25390625,-69.82421875,-1000.0,0.0
1734409628.7071745,-113.76953125,167.48046875,-155.2734375,-957.03125,0.0
1734409628.7110806,-133.7890625,190.91796875,-165.0390625,-1000.0,0.0
1734409628.7149868,-111.81640625,-21.484375,-248.53515625,179.19921875,0.0
1734409628.7188928,-107.91015625,-181.15234375,-344.23828125,450.1953125,0.0
1734409628.722799,-111.81640625,-512.6953125,-351.5625,-1000.0,0.0
1734409628.726705,-99.609375,-305.6640625,-311.03515625,-955.56640625,0.0
1734409628.7306113,-111.328125,462.890625,-198.2421875,-1000.0,0.0
1734409628.7345173,-93.26171875,166.50390625,-345.21484375,-18.5546875,0.0
1734409628.7384236,-81.0546875,-300.29296875,-451.66015625,437.98828125,0.0
1734409628.7455044,-159.1796875,150.87890625,-179.6875,-1000.0,0.0
1734409628.7494106,-122.0703125,594.7265625,-131.34765625,-963.37890625,0.0
1734409628.7533166,-142.08984375,41.9921875,-434.5703125,-1000.0,0.0
1734409628.757223,-136.71875,-133.7890625,-432.12890625,-175.78125,0.0
1734409628.761129,-117.1875,265.625,-307.12890625,484.375,0.0
1734409628.7650352,-129.39453125,210.44921875,-311.03515625,-915.0390625,0.0
1734409628.7689412,-121.58203125,-267.08984375,-440.91796875,-998.046875,0.0
1734409628.7728474,-108.3984375,-545.41015625,-520.5078125,-1000.0,0.0
1734409628.7767534,-135.25390625,117.1875,-272.94921875,-407.71484375,0.0
1734409628.7806597,-146.484375,375.9765625,-294.43359375,290.52734375,0.0
1734409628.7845657,-77.1484375,195.3125,-308.10546875,-881.34765625,0.0
1734409628.788472,-59.5703125,336.9140625,-163.57421875,-1000.0,0.0
1734409628.7937348,-146.484375,554.6875,-166.50390625,-1000.0,0.0
1734409628.7976408,-177.24609375,379.8828125,-297.8515625,-681.15234375,0.0
1734409628.801547,-185.546875,-92.7734375,-396.97265625,109.375,0.0
1734409628.805453,-173.828125,65.4296875,-244.140625,-721.19140625,0.0
1734409628.8093593,-153.3203125,407.2265625,-157.2265625,-1000.0,0.0
1734409628.8132653,-130.859375,146.484375,-292.48046875,-1000.0,0.0
1734409628.8171716,-126.46484375,-566.89453125,-474.12109375,-769.04296875,0.0
1734409628.8210776,-161.62109375,-500.48828125,-445.80078125,198.2421875,0.0
1734409628.8249838,-173.33984375,363.76953125,-195.3125,-521.97265625,0.0
1734409628.8288898,-125.48828125,327.63671875,-221.6796875,-1000.0,0.0
1734409628.832796,-106.4453125,75.68359375,-343.26171875,-989.2578125,0.0
1734409628.836702,-132.32421875,192.3828125,-270.99609375,-944.3359375,0.0
1734409628.8410268,-130.37109375,284.1796875,-269.53125,249.0234375,0.0
1734409628.8449328,-133.7890625,125.48828125,-347.16796875,-152.34375,0.0
1734409628.848839,-125.0,-254.8828125,-388.18359375,-1000.0,0.0
1734409628.852745,-130.859375,40.0390625,-266.6015625,-955.078125,0.0
1734409628.8566513,-132.32421875,325.68359375,-242.1875,-1000.0,0.0
1734409628.8605573,-112.79296875,-354.4921875,-491.69921875,270.5078125,0.0
1734409628.8644636,-122.0703125,-734.86328125,-517.08984375,180.6640625,0.0
1734409628.8683696,-140.625,-224.12109375,-260.7421875,-1000.0,0.0
1734409628.8722758,-155.76171875,316.89453125,-134.27734375,-950.1953125,0.0
1734409628.8761818,-160.15625,-143.06640625,-294.43359375,-1000.0,0.0
1734409628.880088,-169.921875,-416.015625,-403.80859375,175.78125,0.0
1734409628.883994,-178.7109375,331.54296875,-192.87109375,291.015625,0.0
1734409628.8920097,-151.3671875,427.734375,-111.328125,-1000.0,0.0
1734409628.8959157,-131.34765625,189.453125,-241.2109375,-944.82421875,0.0
1734409628.899822,-114.2578125,140.625,-297.8515625,-1000.0,0.0
1734409628.9037282,-119.140625,228.515625,-280.2734375,52.734375,0.0
1734409628.9076343,-131.8359375,224.12109375,-338.8671875,399.90234375,0.0
1734409628.9115405,-158.203125,-181.15234375,-374.0234375,-1000.0,0.0
1734409628.9154465,-178.22265625,-155.76171875,-329.58984375,-944.82421875,0.0
1734409628.9193528,-167.96875,254.8828125,-293.9453125,-1000.0,0.0
1734409628.9232588,-172.8515625,-9.27734375,-410.64453125,-104.98046875,0.0
1734409628.927165,-173.828125,-609.375,-507.8125,510.25390625,0.0
1734409628.931071,-166.9921875,-225.5859375,-344.7265625,-932.12890625,0.0
1734409628.9349773,-176.7578125,364.74609375,-280.76171875,-985.83984375,0.0
1734409628.941796,-167.96875,-7.32421875,-447.75390625,-1000.0,0.0
1734409628.945702,-116.69921875,-294.921875,-513.671875,-226.5625,0.0
1734409628.9496083,-127.9296875,-302.24609375,-448.73046875,679.6875,0.0
1734409628.9535143,-120.60546875,-103.02734375,-352.5390625,-699.70703125,0.0
1734409628.9574206,-108.3984375,4.39453125,-334.47265625,-1000.0,0.0
1734409628.9613268,-121.58203125,-416.50390625,-445.80078125,-1000.0,0.0
1734409628.9652328,-110.3515625,-314.453125,-357.421875,-249.0234375,0.0
1734409628.969139,-138.18359375,173.828125,-255.37109375,877.44140625,0.0
1734409628.973045,-120.60546875,-315.4296875,-418.9453125,-289.55078125,0.0
1734409628.9769514,-66.40625,-748.53515625,-493.65234375,-1000.0,0.0
1734409628.9808574,-39.55078125,28.80859375,-191.40625,-898.92578125,0.0
1734409628.9847636,-58.59375,87.890625,-130.859375,-23.4375,0.0
1734409628.9894416,0.0,-306.15234375,-277.34375,-979.98046875,0.0
1734409628.9933476,0.0,-123.53515625,-104.00390625,366.2109375,0.0
1734409628.997254,0.0,212.890625,86.42578125,-843.26171875,0.0
1734409629.0011601,0.0,80.56640625,-4.39453125,-850.09765625,0.0
1734409629.0050662,0.0,-365.72265625,-181.15234375,266.6015625,0.0
1734409629.0089724,0.0,-633.7890625,-316.40625,-981.93359375,0.0
1734409629.0128784,0.0,-350.5859375,-77.1484375,668.45703125,0.0
1734409629.0167847,0.0,11.71875,83.984375,-501.46484375,0.0
1734409629.0206907,0.0,-560.05859375,-199.21875,-840.8203125,0.0
1734409629.024597,0.0,-595.703125,-99.609375,358.3984375,0.0
1734409629.028503,0.0,53.7109375,76.171875,-987.79296875,0.0
1734409629.0324092,0.0,-88.8671875,-1.953125,750.9765625,0.0
1734409629.0372033,47.8515625,-206.0546875,18.5546875,-288.57421875,0.0
1734409629.0411093,69.3359375,163.0859375,92.28515625,-961.9140625,0.0
1734409629.0450156,62.5,-133.7890625,-84.47265625,140.13671875,0.0
1734409629.0489216,41.015625,-636.71875,-335.9375,-983.88671875,0.0
1734409629.0528278,50.78125,-373.046875,-174.8046875,780.2734375,0.0
1734409629.0567338,60.546875,-165.0390625,-2.44140625,-226.5625,0.0
1734409629.06064,116.2109375,-215.33203125,8.7890625,-990.72265625,0.0
1734409629.0645463,129.39453125,-568.84765625,-235.83984375,-5.37109375,0.0
1734409629.0684524,25.87890625,-780.76171875,-436.03515625,969.7265625,0.0
1734409629.0723586,-44.43359375,-30.2734375,-3.90625,877.44140625,0.0
1734409629.0762646,-39.0625,280.2734375,113.28125,-72.265625,0.0
1734409629.0801709,-2.44140625,-8.30078125,-65.4296875,-1000.0,0.0
1734409629.0834873,-4.8828125,-46.875,-49.31640625,-48.828125,0.0
1734409629.0873935,-27.83203125,212.40234375,56.640625,937.01171875,0.0
