timestamps,TP9,AF7,AF8,TP10,Right AUX
1734414426.4465883,316.40625,170.41015625,7.8125,28.3203125,0.0
1734414426.4504945,-12.20703125,514.16015625,115.234375,-23.92578125,0.0
1734414426.4544008,-345.21484375,17.578125,-103.02734375,-97.65625,0.0
1734414426.4583068,-296.38671875,-264.6484375,-337.40234375,-85.9375,0.0
1734414426.462213,97.16796875,-145.01953125,-146.97265625,-4.39453125,0.0
1734414426.4661193,330.56640625,38.0859375,34.66796875,69.82421875,0.0
1734414426.4700255,55.17578125,-296.38671875,-191.40625,45.8984375,0.0
1734414426.4739316,-335.44921875,-734.375,-437.01171875,-77.63671875,0.0
1734414426.4778378,-350.09765625,-442.87109375,-348.6328125,-121.58203125,0.0
1734414426.481744,34.66796875,-74.21875,-102.05078125,-46.38671875,0.0
1734414426.48565,319.82421875,212.890625,99.609375,21.484375,0.0
1734414426.4889932,94.23828125,315.91796875,86.9140625,-12.20703125,0.0
1734414426.4928994,-299.31640625,410.15625,72.75390625,-84.9609375,0.0
1734414426.4968057,-340.8203125,153.3203125,-75.68359375,-93.75,0.0
1734414426.500712,21.484375,-189.94140625,-156.25,-40.52734375,0.0
1734414426.504618,338.8671875,141.6015625,-7.8125,38.57421875,0.0
1734414426.5085242,163.57421875,201.171875,23.92578125,20.99609375,0.0
1734414426.5124304,-254.8828125,-125.0,-63.96484375,-48.33984375,0.0
1734414426.5163364,-336.42578125,-593.75,-320.3125,-61.03515625,0.0
1734414426.5202427,-37.109375,-416.50390625,-161.62109375,-48.33984375,0.0
1734414426.524149,275.87890625,516.6015625,186.5234375,-17.08984375,0.0
1734414426.5280552,146.97265625,387.20703125,23.4375,7.32421875,0.0
1734414426.5319612,-261.23046875,-16.11328125,-84.9609375,-82.03125,0.0
1734414426.5350544,-386.71875,142.08984375,-19.53125,-133.7890625,0.0
1734414426.5389607,-93.26171875,228.02734375,27.34375,-50.78125,0.0
1734414426.542867,293.9453125,161.62109375,23.4375,29.78515625,0.0
1734414426.546773,221.19140625,210.44921875,18.5546875,34.66796875,0.0
1734414426.5506792,-199.70703125,325.1953125,48.828125,-53.22265625,0.0
1734414426.5545855,-351.5625,-56.15234375,-182.6171875,-92.7734375,0.0
1734414426.5584915,-104.98046875,-725.09765625,-453.61328125,-30.2734375,0.0
1734414426.5623977,282.2265625,-575.68359375,-223.14453125,57.12890625,0.0
1734414426.566304,279.78515625,333.0078125,121.09375,43.45703125,0.0
1734414426.5702102,-135.7421875,95.21484375,-16.11328125,-45.8984375,0.0
1734414426.5741162,-364.74609375,-349.609375,-192.3828125,-91.30859375,0.0
1734414426.5780225,-163.0859375,-135.25390625,-139.6484375,-72.75390625,0.0
1734414426.5809367,249.51171875,405.76171875,145.99609375,-0.9765625,0.0
1734414426.584843,283.69140625,548.33984375,82.51953125,28.3203125,0.0
1734414426.5887492,-112.3046875,119.140625,4.39453125,-34.1796875,0.0
1734414426.5926552,-361.81640625,17.578125,-28.80859375,-104.00390625,0.0
1734414426.5965614,-224.12109375,32.2265625,-166.015625,-82.03125,0.0
1734414426.6004677,190.4296875,-34.1796875,-30.76171875,16.6015625,0.0
1734414426.6043737,313.4765625,-500.9765625,-200.1953125,85.9375,0.0
1734414426.60828,-66.89453125,-405.76171875,-178.22265625,-4.8828125,0.0
1734414426.6121862,-334.47265625,249.0234375,106.4453125,-108.88671875,0.0
1734414426.6160924,-217.7734375,-77.63671875,-164.55078125,-76.66015625,0.0
1734414426.6199985,184.08203125,-166.50390625,-121.58203125,16.6015625,0.0
1734414426.6239047,349.609375,394.53125,122.0703125,56.15234375,0.0
1734414426.6267538,-16.11328125,530.76171875,133.30078125,0.48828125,0.0
1734414426.63066,-343.26171875,26.3671875,-86.9140625,-73.2421875,0.0
1734414426.6345663,-293.9453125,-254.8828125,-299.8046875,-70.80078125,0.0
1734414426.6384723,101.5625,197.75390625,25.87890625,8.30078125,0.0
1734414426.6423786,353.02734375,593.75,185.05859375,43.45703125,0.0
1734414426.6462848,45.8984375,-109.375,-169.921875,-14.6484375,0.0
1734414426.6501908,-331.0546875,-745.1171875,-400.87890625,-90.8203125,0.0
1734414426.654097,-323.73046875,-111.81640625,-183.10546875,-111.328125,0.0
1734414426.6580033,49.8046875,292.96875,55.6640625,-22.4609375,0.0
1734414426.6619093,340.33203125,13.671875,-55.17578125,55.17578125,0.0
1734414426.6658156,109.86328125,-90.33203125,-106.93359375,4.39453125,0.0
1734414426.6697218,-260.7421875,270.01953125,94.7265625,-83.49609375,0.0
1734414426.6751316,-306.640625,35.15625,-142.578125,-101.5625,0.0
1734414426.6790378,9.27734375,-194.82421875,-213.8671875,-38.57421875,0.0
1734414426.6829438,324.70703125,249.0234375,47.8515625,40.0390625,0.0
1734414426.68685,124.0234375,568.84765625,140.13671875,20.99609375,0.0
1734414426.6907563,-282.2265625,263.18359375,-12.6953125,-69.3359375,0.0
1734414426.6946623,-362.3046875,-424.31640625,-300.29296875,-90.33203125,0.0
1734414426.6985686,-65.91796875,-425.78125,-225.5859375,-29.78515625,0.0
1734414426.7024748,301.26953125,346.6796875,99.609375,26.3671875,0.0
1734414426.7063808,199.70703125,404.296875,50.29296875,4.8828125,0.0
1734414426.710287,-227.05078125,-440.91796875,-237.79296875,-74.21875,0.0
1734414426.7141933,-357.421875,-392.578125,-279.296875,-122.0703125,0.0
1734414426.7180996,-73.73046875,188.4765625,-105.95703125,-73.2421875,0.0
1734414426.7228532,312.98828125,141.6015625,-8.7890625,11.23046875,0.0
1734414426.7267594,279.296875,72.75390625,-56.15234375,12.20703125,0.0
1734414426.7306654,-147.94921875,275.87890625,50.29296875,-66.40625,0.0
1734414426.7345717,-362.3046875,151.85546875,-61.5234375,-110.3515625,0.0
1734414426.738478,-145.99609375,-353.515625,-321.2890625,-62.5,0.0
1734414426.742384,244.62890625,-431.640625,-173.828125,20.01953125,0.0
1734414426.7462902,280.76171875,-105.46875,-71.77734375,40.0390625,0.0
1734414426.7501965,-144.04296875,202.1484375,30.2734375,-41.9921875,0.0
1734414426.7541027,-397.94921875,-333.49609375,-269.04296875,-103.02734375,0.0
1734414426.7580087,-222.65625,-945.3125,-577.1484375,-65.4296875,0.0
1734414426.761915,185.546875,-17.08984375,19.53125,15.625,0.0
1734414426.7658212,288.0859375,498.046875,102.5390625,54.19921875,0.0
1734414426.7704704,-103.02734375,52.24609375,-99.12109375,-23.4375,0.0
1734414426.7743766,-361.328125,-81.54296875,-91.796875,-103.02734375,0.0
1734414426.7782826,-249.0234375,76.171875,-117.67578125,-69.82421875,0.0
1734414426.782189,152.34375,163.57421875,0.9765625,32.2265625,0.0
1734414426.7860951,333.49609375,45.41015625,-42.96875,63.96484375,0.0
1734414426.7900014,-29.78515625,-205.078125,-189.453125,-13.671875,0.0
1734414426.7939074,-339.35546875,-275.390625,-245.1171875,-82.51953125,0.0
1734414426.7978137,-281.73828125,-305.6640625,-355.46875,-99.609375,0.0
1734414426.80172,85.44921875,-633.30078125,-317.3828125,-40.0390625,0.0
1734414426.8056262,292.48046875,-156.73828125,-32.71484375,22.94921875,0.0
1734414426.8095322,-25.87890625,502.9296875,160.15625,-31.73828125,0.0
1734414426.8134384,-344.7265625,44.43359375,-108.3984375,-99.12109375,0.0
1734414426.8173356,-303.7109375,-268.06640625,-378.90625,-93.75,0.0
1734414426.8212416,61.03515625,175.29296875,-31.25,-20.5078125,0.0
1734414426.8251479,313.96484375,537.59765625,140.13671875,36.1328125,0.0
1734414426.829054,44.43359375,237.3046875,-41.015625,-20.99609375,0.0
1734414426.8329604,-310.05859375,-191.40625,-118.1640625,-104.00390625,0.0
1734414426.8368664,-331.0546875,-307.12890625,-279.78515625,-116.69921875,0.0
1734414426.8407726,7.8125,-204.58984375,-178.22265625,-42.48046875,0.0
1734414426.8446789,318.359375,-334.47265625,-216.30859375,42.96875,0.0
1734414426.848585,109.86328125,-525.390625,-323.2421875,3.90625,0.0
1734414426.8524911,-299.31640625,-203.125,-107.91015625,-97.65625,0.0
1734414426.8563974,-363.76953125,-336.42578125,-318.84765625,-114.74609375,0.0
1734414426.8603036,-30.76171875,-323.73046875,-264.6484375,-47.36328125,0.0
1734414426.8639617,0.0,219.7265625,27.83203125,33.69140625,0.0
1734414426.867868,0.0,607.421875,121.58203125,38.0859375,0.0
1734414426.8717742,0.0,305.6640625,18.06640625,-57.6171875,0.0
1734414426.8756804,0.0,-105.95703125,-232.421875,-126.953125,0.0
1734414426.8795865,0.0,15.13671875,-159.1796875,-77.63671875,0.0
1734414426.8834927,0.0,168.9453125,58.59375,4.39453125,0.0
1734414426.887399,0.0,118.1640625,-1.46484375,8.7890625,0.0
1734414426.891305,0.0,-491.69921875,-226.5625,-61.03515625,0.0
1734414426.8952112,0.0,-455.078125,-300.29296875,-113.28125,0.0
1734414426.8991175,0.0,264.6484375,-59.08203125,-69.82421875,0.0
1734414426.9030237,0.0,267.578125,86.9140625,30.2734375,0.0
1734414426.9069297,0.0,267.08984375,44.43359375,34.1796875,0.0
1734414426.9099717,-156.25,431.15234375,104.00390625,-55.6640625,0.0
1734414426.913878,-380.859375,82.51953125,-85.44921875,-97.16796875,0.0
1734414426.9177842,-185.546875,-395.5078125,-381.34765625,-67.3828125,0.0
1734414426.9216902,224.12109375,2.44140625,-93.75,2.9296875,0.0
1734414426.9255965,267.08984375,523.92578125,110.83984375,27.83203125,0.0
1734414426.9295027,-133.30078125,140.13671875,-5.37109375,-45.41015625,0.0
1734414426.933409,-357.91015625,-591.796875,-319.82421875,-88.8671875,0.0
1734414426.937315,-214.84375,-743.1640625,-475.09765625,-67.3828125,0.0
1734414426.9412212,178.22265625,178.7109375,74.21875,-5.37109375,0.0
1734414426.9451275,300.29296875,369.140625,101.07421875,52.24609375,0.0
1734414426.9490335,-68.359375,-166.9921875,-134.27734375,-4.39453125,0.0
1734414426.9529397,-362.79296875,-154.78515625,-99.12109375,-83.0078125,0.0
1734414426.9559429,-262.20703125,209.47265625,-9.765625,-82.03125,0.0
1734414426.9598489,137.20703125,356.4453125,82.03125,-6.8359375,0.0
1734414426.9637551,309.5703125,297.8515625,80.078125,63.96484375,0.0
1734414426.9676614,-42.96875,322.75390625,118.1640625,-5.37109375,0.0
1734414426.9715676,-359.86328125,126.46484375,-18.06640625,-101.07421875,0.0
1734414426.9754736,-291.9921875,-237.3046875,-310.546875,-97.65625,0.0
1734414426.97938,116.69921875,-652.34375,-333.984375,-2.44140625,0.0
1734414426.9832861,353.02734375,-241.2109375,-68.359375,64.453125,0.0
1734414426.9871922,26.85546875,500.0,168.9453125,-12.20703125,0.0
1734414426.9910984,-328.61328125,104.4921875,-26.85546875,-96.6796875,0.0
1734414426.9950047,-306.640625,-203.61328125,-255.37109375,-96.19140625,0.0
1734414426.9989107,65.4296875,163.57421875,18.5546875,-27.83203125,0.0
1734414427.0039797,357.421875,589.84375,176.26953125,41.015625,0.0
1734414427.007886,104.4921875,280.2734375,7.8125,10.25390625,0.0
1734414427.0117922,-296.875,-132.32421875,-68.359375,-83.49609375,0.0
1734414427.0156984,-323.2421875,95.21484375,-86.9140625,-114.74609375,0.0
1734414427.0196044,32.2265625,270.99609375,62.01171875,-47.8515625,0.0
1734414427.0235107,338.8671875,-203.61328125,-156.73828125,42.96875,0.0
1734414427.027417,131.34765625,-512.6953125,-284.66796875,31.73828125,0.0
1734414427.031323,-277.83203125,-127.44140625,15.625,-64.453125,0.0
1734414427.0352292,-337.890625,-75.68359375,-195.3125,-88.8671875,0.0
1734414427.0391355,-17.08984375,-366.69921875,-284.66796875,-20.5078125,0.0
1734414427.0430417,315.91796875,-159.66796875,-30.2734375,61.03515625,0.0
1734414427.0469477,174.8046875,502.44140625,161.1328125,40.0390625,0.0
1734414427.0522218,-229.00390625,294.43359375,54.6875,0.0,0.0
1734414427.0561278,-349.609375,-104.98046875,-187.5,0.0,0.0
1734414427.060034,-88.37890625,-89.35546875,-144.04296875,0.0,0.0
1734414427.0639403,286.62109375,393.06640625,147.4609375,0.0,0.0
1734414427.0678465,201.171875,403.3203125,53.7109375,0.0,0.0
1734414427.0717525,-226.07421875,-309.5703125,-217.28515625,0.0,0.0
1734414427.0756588,-361.328125,-388.671875,-286.1328125,0.0,0.0
1734414427.079565,-116.2109375,81.0546875,-90.33203125,0.0,0.0
1734414427.0834713,290.52734375,231.4453125,83.0078125,0.0,0.0
1734414427.0873773,240.72265625,-200.68359375,-110.83984375,0.0,0.0
1734414427.0912836,-194.82421875,-305.17578125,-143.06640625,0.0,0.0
1734414427.0951898,-354.00390625,-72.75390625,-147.94921875,0.0,0.0
1734414427.0995808,-165.0390625,-191.40625,-309.08203125,-74.21875,0.0
1734414427.103487,256.34765625,-70.80078125,-125.48828125,28.3203125,0.0
1734414427.1073933,335.44921875,382.32421875,90.33203125,59.5703125,0.0
1734414427.1112993,-80.078125,386.71875,98.6328125,-30.2734375,0.0
1734414427.1152055,-352.05078125,-78.125,-115.234375,-94.7265625,0.0
1734414427.1191118,-217.7734375,-601.07421875,-409.66796875,-64.94140625,0.0
1734414427.1230178,197.265625,-227.05078125,-102.05078125,10.7421875,0.0
1734414427.126924,326.66015625,474.12109375,182.12890625,34.1796875,0.0
1734414427.1308303,-48.828125,-152.83203125,-163.0859375,-18.5546875,0.0
1734414427.1347365,-351.07421875,-933.59375,-486.81640625,-74.21875,0.0
1734414427.1386425,-276.85546875,-217.28515625,-171.38671875,-74.70703125,0.0
1734414427.1425488,136.23046875,299.8046875,96.6796875,-1.953125,0.0
1734414427.1464412,346.6796875,242.1875,85.44921875,35.15625,0.0
1734414427.1503475,12.6953125,133.7890625,43.45703125,-28.3203125,0.0
1734414427.1542537,-327.1484375,-32.2265625,-68.84765625,-93.75,0.0
1734414427.15816,-283.203125,-73.2421875,-246.58203125,-103.02734375,0.0
1734414427.162066,103.02734375,-76.171875,-125.9765625,-30.2734375,0.0
1734414427.1659722,331.0546875,-76.171875,-13.18359375,33.69140625,0.0
1734414427.1698785,20.5078125,-125.9765625,-90.33203125,-15.13671875,0.0
1734414427.1737847,-341.796875,-81.0546875,-72.75390625,-96.19140625,0.0
1734414427.1776907,-340.33203125,-565.91796875,-327.1484375,-101.07421875,0.0
1734414427.181597,26.85546875,-417.96875,-164.55078125,-32.71484375,0.0
1734414427.1855032,339.84375,448.73046875,152.83203125,45.41015625,0.0
1734414427.1894093,113.28125,239.74609375,29.78515625,16.6015625,0.0
1734414427.1932316,-294.43359375,-94.7265625,-33.203125,-76.66015625,0.0
1734414427.1971378,-344.23828125,121.58203125,-19.04296875,-104.4921875,0.0
1734414427.2010438,-18.5546875,232.91015625,62.01171875,-51.26953125,0.0
1734414427.20495,288.57421875,158.69140625,20.5078125,24.4140625,0.0
1734414427.2088563,154.78515625,129.39453125,12.20703125,0.0,0.0
1734414427.2127626,-248.53515625,-26.85546875,19.53125,-76.171875,0.0
1734414427.2166686,-379.8828125,-265.13671875,-187.98828125,-97.65625,0.0
1734414427.2205749,-70.3125,-632.8125,-395.5078125,-38.0859375,0.0
1734414427.224481,283.69140625,-592.28515625,-249.51171875,42.48046875,0.0
1734414427.228387,193.84765625,56.15234375,91.30859375,39.55078125,0.0
1734414427.2322934,-224.12109375,134.27734375,72.75390625,-55.6640625,0.0
1734414427.2361996,-381.8359375,-16.6015625,-111.81640625,-130.37109375,0.0
1734414427.2397938,0.0,9.27734375,-64.453125,-94.23828125,0.0
1734414427.2437,0.0,457.51953125,173.33984375,-14.16015625,0.0
1734414427.2476063,0.0,481.4453125,86.9140625,18.06640625,0.0
1734414427.2515125,0.0,153.80859375,63.96484375,-31.25,0.0
1734414427.2554185,0.0,119.62890625,26.85546875,-101.07421875,0.0
1734414427.2593248,0.0,-176.26953125,-244.140625,-78.61328125,0.0
1734414427.263231,0.0,-147.94921875,-93.26171875,18.06640625,0.0
1734414427.2671373,0.0,-412.109375,-161.1328125,49.31640625,0.0
1734414427.2710433,0.0,-597.65625,-195.80078125,-16.6015625,0.0
1734414427.2749496,0.0,105.95703125,80.56640625,-90.33203125,0.0
1734414427.2788558,0.0,-4.8828125,-99.609375,-72.75390625,0.0
1734414427.2827618,0.0,-85.44921875,-65.4296875,2.9296875,0.0
1734414427.2787251,-113.76953125,357.91015625,93.26171875,0.0,0.0
1734414427.2826314,255.859375,449.21875,131.34765625,0.0,0.0
1734414427.2865376,247.0703125,19.53125,-128.90625,0.0,0.0
1734414427.2904437,-152.34375,-240.234375,-308.10546875,0.0,0.0
1734414427.29435,-367.1875,143.5546875,29.296875,0.0,0.0
1734414427.298256,-150.390625,142.578125,53.22265625,0.0,0.0
1734414427.3021622,250.48828125,-437.01171875,-226.5625,0.0,0.0
1734414427.3060684,278.3203125,-697.75390625,-401.3671875,0.0,0.0
1734414427.3099744,-133.7890625,-77.63671875,-174.8046875,0.0,0.0
1734414427.3138807,-368.1640625,-30.2734375,-57.12890625,0.0,0.0
1734414427.317787,-206.0546875,-134.27734375,-75.1953125,0.0,0.0
1734414427.321693,195.80078125,-49.8046875,-8.7890625,0.0,0.0
1734414427.3261154,-335.9375,89.35546875,49.8046875,-111.328125,0.0
1734414427.3300216,-313.4765625,114.2578125,-74.21875,-108.88671875,0.0
1734414427.3339279,53.7109375,-77.63671875,-110.83984375,-29.78515625,0.0
1734414427.337834,346.6796875,208.49609375,44.921875,34.1796875,0.0
1734414427.3417401,104.4921875,425.78125,135.7421875,11.23046875,0.0
1734414427.3456464,-312.01171875,-27.34375,-73.73046875,-72.75390625,0.0
1734414427.3495524,-351.07421875,-748.53515625,-454.58984375,-92.7734375,0.0
1734414427.3534586,5.859375,-478.02734375,-193.84765625,-37.59765625,0.0
1734414427.357365,306.640625,368.65234375,151.85546875,5.37109375,0.0
1734414427.361271,115.72265625,299.8046875,68.359375,-24.4140625,0.0
1734414427.3651772,-287.59765625,-116.2109375,-51.7578125,-93.75,0.0
1734414427.3690834,-360.83984375,-144.04296875,-197.75390625,-115.72265625,0.0
1734414427.3728962,-39.0625,136.23046875,-9.27734375,-61.5234375,0.0
1734414427.3768024,287.59765625,90.33203125,5.37109375,22.94921875,0.0
1734414427.3807085,148.92578125,-221.6796875,-220.703125,6.34765625,0.0
1734414427.3846147,-272.4609375,-38.0859375,-41.50390625,-75.1953125,0.0
1734414427.388521,-382.32421875,220.703125,32.2265625,-91.796875,0.0
1734414427.392427,-92.7734375,-426.7578125,-331.54296875,-51.26953125,0.0
1734414427.3963332,266.11328125,-643.5546875,-263.18359375,20.01953125,0.0
1734414427.4002395,216.796875,208.984375,128.90625,26.3671875,0.0
1734414427.4041455,-209.47265625,360.3515625,92.7734375,-63.96484375,0.0
1734414427.4080517,-368.1640625,-407.2265625,-252.44140625,-78.61328125,0.0
1734414427.411958,-102.05078125,-552.24609375,-319.3359375,-12.6953125,0.0
1734414427.415864,248.046875,236.328125,92.7734375,21.97265625,0.0
1734414427.4219358,224.12109375,350.5859375,67.3828125,-5.37109375,0.0
1734414427.425842,-220.21484375,19.04296875,22.4609375,-90.8203125,0.0
1734414427.429748,-466.796875,-55.6640625,-37.109375,-150.390625,0.0
1734414427.4336543,-258.30078125,57.6171875,-117.67578125,-144.04296875,0.0
1734414427.4375606,125.0,113.28125,31.73828125,-72.75390625,0.0
1734414427.4414666,183.59375,-187.01171875,-145.99609375,-36.62109375,0.0
1734414427.4453728,-182.12890625,-445.80078125,-182.12890625,-108.3984375,0.0
1734414427.449279,-442.3828125,-214.84375,-82.03125,-187.01171875,0.0
1734414427.453185,-326.171875,-120.60546875,-252.44140625,-171.38671875,0.0
1734414427.4570913,63.4765625,-551.26953125,-260.25390625,-85.9375,0.0
1734414427.4609976,196.2890625,-206.54296875,-20.99609375,-68.359375,0.0
1734414427.4649036,-169.921875,351.5625,147.4609375,-144.04296875,0.0
1734414427.4702246,-468.75,-33.203125,-58.59375,-192.3828125,0.0
1734414427.4741309,-342.28515625,-342.7734375,-247.55859375,-165.52734375,0.0
1734414427.478037,74.70703125,12.6953125,61.03515625,-68.359375,0.0
1734414427.4819431,252.9296875,312.01171875,112.79296875,3.90625,0.0
1734414427.4858494,-59.08203125,55.17578125,-22.4609375,-43.9453125,0.0
1734414427.4897556,-394.53125,-520.5078125,-202.63671875,-121.09375,0.0
1734414427.4936619,-368.1640625,-490.234375,-280.2734375,-138.18359375,0.0
1734414427.497568,29.78515625,67.87109375,94.23828125,-79.58984375,0.0
1734414427.5014741,284.1796875,-286.1328125,-121.58203125,-3.90625,0.0
1734414427.5053804,1.953125,-857.91015625,-409.1796875,-30.2734375,0.0
1734414427.5092864,-349.609375,-353.02734375,-11.23046875,-122.0703125,0.0
1734414427.5131927,-341.30859375,-74.70703125,-22.94921875,-128.41796875,0.0
1734414427.517952,0.0,-277.83203125,-125.9765625,-39.55078125,0.0
1734414427.521858,0.0,-32.2265625,15.625,33.203125,0.0
1734414427.5257642,0.0,341.30859375,140.625,-10.7421875,0.0
1734414427.5296705,0.0,112.79296875,38.57421875,-79.1015625,0.0
1734414427.5335765,0.0,-276.85546875,-236.81640625,-101.5625,0.0
1734414427.5374827,0.0,-515.625,-292.48046875,-51.7578125,0.0
1734414427.541389,0.0,-166.50390625,-8.30078125,9.765625,0.0
1734414427.545295,0.0,248.046875,131.34765625,-14.16015625,0.0
1734414427.5492013,0.0,-491.2109375,-171.875,-69.82421875,0.0
1734414427.5531075,0.0,-510.25390625,-216.30859375,-127.44140625,0.0
1734414427.5570138,0.0,161.1328125,75.68359375,-98.6328125,0.0
1734414427.5609198,0.0,24.4140625,43.9453125,0.0,0.0
1734414427.565268,148.92578125,-120.1171875,-45.41015625,-5.859375,0.0
1734414427.5691743,-265.13671875,119.140625,77.1484375,-92.7734375,0.0
1734414427.5730803,-375.9765625,202.1484375,43.45703125,-132.8125,0.0
1734414427.5769866,-104.4921875,-178.7109375,-106.93359375,-88.8671875,0.0
1734414427.5808928,257.8125,-191.40625,-40.0390625,8.30078125,0.0
1734414427.5847988,215.8203125,27.34375,54.19921875,20.01953125,0.0
1734414427.588705,-192.87109375,-165.0390625,33.203125,-76.66015625,0.0
1734414427.5926113,-388.671875,-590.33203125,-281.73828125,-128.41796875,0.0
1734414427.5965176,-128.41796875,-788.57421875,-445.80078125,-78.61328125,0.0
1734414427.6004236,287.59765625,-279.296875,9.27734375,3.41796875,0.0
1734414427.6043298,263.671875,115.234375,89.84375,-3.41796875,0.0
1734414427.608236,-136.71875,84.47265625,79.1015625,-80.078125,0.0
1734414427.6124258,-379.8828125,20.99609375,58.10546875,-122.0703125,0.0
1734414427.6163318,-165.52734375,191.89453125,14.6484375,-85.44921875,0.0
1734414427.620238,264.16015625,182.6171875,83.49609375,7.32421875,0.0
1734414427.6241443,298.828125,86.42578125,56.640625,33.69140625,0.0
1734414427.6280503,-98.6328125,107.91015625,69.3359375,-34.1796875,0.0
1734414427.6319566,-369.140625,-182.6171875,-106.4453125,-89.84375,0.0
1734414427.6358628,-228.515625,-369.62890625,-270.99609375,-82.51953125,0.0
1734414427.6397688,174.8046875,-610.3515625,-255.859375,6.34765625,0.0
1734414427.643675,323.2421875,-256.34765625,-55.6640625,55.6640625,0.0
1734414427.6475813,-33.69140625,495.1171875,189.94140625,-6.8359375,0.0
1734414427.6514876,-352.05078125,149.90234375,-1.953125,-58.59375,0.0
1734414427.6553936,-265.13671875,-210.44921875,-179.19921875,-69.82421875,0.0
1734414427.6591232,148.92578125,106.4453125,78.125,-10.7421875,0.0
1734414427.6630292,342.7734375,511.23046875,168.45703125,51.26953125,0.0
1734414427.6669354,5.37109375,269.04296875,38.0859375,-10.25390625,0.0
1734414427.6708417,-336.9140625,-43.9453125,10.25390625,-91.30859375,0.0
1734414427.674748,-285.64453125,114.2578125,3.90625,-100.09765625,0.0
1734414427.678654,111.328125,-20.5078125,32.71484375,-21.484375,0.0
1734414427.6825602,342.28515625,-458.49609375,-189.453125,52.24609375,0.0
1734414427.6864665,60.05859375,-564.94140625,-237.3046875,15.13671875,0.0
1734414427.6903725,-314.453125,46.38671875,89.84375,-85.9375,0.0
1734414427.6942787,-332.03125,-138.18359375,-197.75390625,-110.83984375,0.0
1734414427.698185,33.203125,-411.62109375,-247.55859375,-33.69140625,0.0
1734414427.702091,321.2890625,140.625,50.29296875,42.48046875,0.0
1734414427.7056742,112.3046875,580.078125,190.91796875,21.97265625,0.0
1734414427.7095804,-275.87890625,358.3984375,82.51953125,-59.5703125,0.0
1734414427.7134864,-337.40234375,-31.25,-148.4375,-76.171875,0.0
1734414427.7173927,9.765625,5.37109375,-26.85546875,-11.71875,0.0
1734414427.721299,337.890625,314.453125,101.5625,50.78125,0.0
1734414427.7252052,195.3125,214.84375,64.453125,38.0859375,0.0
1734414427.7291112,-217.28515625,-562.01171875,-205.56640625,-36.1328125,0.0
1734414427.7330174,-337.40234375,-483.88671875,-291.015625,-74.70703125,0.0
1734414427.7369237,-41.9921875,190.91796875,57.12890625,-46.875,0.0
1734414427.7408297,316.89453125,72.75390625,78.125,27.83203125,0.0
1734414427.744736,231.93359375,113.28125,62.5,38.57421875,0.0
1734414427.7486422,-199.70703125,356.4453125,128.41796875,-47.8515625,0.0
1734414427.751514,-343.26171875,409.1796875,96.19140625,-87.890625,0.0
1734414427.7554202,-81.54296875,-15.13671875,-88.37890625,-40.0390625,0.0
1734414427.7593262,296.875,-66.89453125,-47.8515625,47.36328125,0.0
1734414427.7632325,285.15625,464.35546875,145.01953125,56.15234375,0.0
1734414427.7671387,-151.85546875,487.3046875,139.6484375,-37.59765625,0.0
1734414427.7710447,-369.62890625,-316.89453125,-266.11328125,-87.40234375,0.0
1734414427.774951,-154.296875,-804.19921875,-433.59375,-53.22265625,0.0
1734414427.7788572,238.28125,102.05078125,112.79296875,13.18359375,0.0
1734414427.7827632,285.64453125,602.5390625,177.24609375,37.59765625,0.0
1734414427.7866695,-115.234375,3.41796875,-20.99609375,-42.96875,0.0
1734414427.7905757,-354.00390625,-363.28125,-158.203125,-85.44921875,0.0
1734414427.7944818,-185.05859375,-75.1953125,-89.84375,-55.6640625,0.0
1734414427.799884,209.47265625,18.5546875,78.125,1.953125,0.0
1734414427.8037903,307.6171875,51.7578125,95.703125,29.78515625,0.0
1734414427.8076966,-62.98828125,239.2578125,122.55859375,-31.25,0.0
1734414427.8116026,-361.81640625,330.078125,98.6328125,-92.7734375,0.0
1734414427.8155088,-232.421875,92.28515625,-50.78125,-74.70703125,0.0
1734414427.819415,190.4296875,-339.84375,-151.85546875,14.16015625,0.0
1734414427.8233213,326.66015625,-126.46484375,-0.9765625,43.9453125,0.0
1734414427.8272274,-38.57421875,420.8984375,188.96484375,-29.296875,0.0
1734414427.8311336,-349.609375,240.234375,55.17578125,-100.5859375,0.0
1734414427.8350399,-272.94921875,-580.56640625,-264.16015625,-97.16796875,0.0
1734414427.8389459,115.234375,-302.24609375,5.859375,-3.90625,0.0
1734414427.842852,337.40234375,524.4140625,206.0546875,52.734375,0.0
1734414427.8477,18.5546875,273.92578125,59.08203125,-23.92578125,0.0
1734414427.8516064,-344.7265625,-91.30859375,5.859375,-92.7734375,0.0
1734414427.8555126,-302.24609375,102.05078125,33.203125,-83.0078125,0.0
1734414427.8594186,77.1484375,43.45703125,95.21484375,-4.39453125,0.0
1734414427.8633249,329.58984375,-155.76171875,-21.484375,59.08203125,0.0
1734414427.8672311,76.66015625,-221.6796875,-47.8515625,17.08984375,0.0
1734414427.8711374,-315.4296875,-130.37109375,45.8984375,-66.89453125,0.0
1734414427.8750434,-331.0546875,253.90625,110.83984375,-87.40234375,0.0
1734414427.8789496,34.1796875,-228.515625,-97.65625,-25.390625,0.0
1734414427.882856,314.94140625,-847.16796875,-332.51953125,56.640625,0.0
1734414427.886762,125.0,54.19921875,98.14453125,20.5078125,0.0
1734414427.8906682,-265.13671875,504.39453125,193.359375,-79.58984375,0.0
1734414427.8950152,-353.02734375,24.4140625,-66.89453125,-107.421875,0.0
1734414427.8989215,-25.87890625,45.41015625,36.1328125,-37.59765625,0.0
1734414427.9028277,314.94140625,519.04296875,199.21875,55.17578125,0.0
1734414427.906734,184.5703125,566.89453125,139.6484375,41.9921875,0.0
1734414427.91064,-246.58203125,148.92578125,83.0078125,-57.6171875,0.0
1734414427.9145463,-340.8203125,-195.80078125,-90.8203125,-84.9609375,0.0
1734414427.9184525,-40.0390625,-349.609375,-177.734375,-13.18359375,0.0
1734414427.9223585,279.78515625,-88.37890625,36.62109375,49.8046875,0.0
1734414427.9262648,222.16796875,-371.09375,-77.63671875,68.84765625,0.0
1734414427.930171,-198.73046875,-287.59765625,-27.83203125,-2.44140625,0.0
1734414427.9340773,-381.8359375,316.40625,125.48828125,-83.49609375,0.0
1734414427.9379833,-134.765625,-15.13671875,-27.34375,-53.22265625,0.0
1734414427.9418197,246.58203125,-2.44140625,30.2734375,15.625,0.0
1734414427.9457257,244.140625,479.4921875,152.34375,28.80859375,0.0
1734414427.949632,-162.59765625,520.5078125,169.43359375,-52.734375,0.0
1734414427.9535382,-382.8125,37.59765625,-65.4296875,-102.5390625,0.0
1734414427.9574442,-168.9453125,-258.7890625,-183.10546875,-62.5,0.0
1734414427.9613504,221.6796875,-119.62890625,32.71484375,12.6953125,0.0
1734414427.9652567,269.53125,239.74609375,160.64453125,45.41015625,0.0
1734414427.969163,-107.91015625,-61.5234375,-81.54296875,-17.08984375,0.0
1734414427.973069,-362.79296875,-667.96875,-363.28125,-83.984375,0.0
1734414427.9769752,-227.05078125,-284.66796875,-125.9765625,-62.01171875,0.0
1734414427.9808815,179.19921875,-133.30078125,27.34375,41.015625,0.0
1734414427.9847875,333.984375,-14.6484375,90.33203125,79.58984375,0.0
1734414427.9883323,-34.1796875,270.99609375,145.5078125,1.953125,0.0
1734414427.9922383,-348.14453125,368.65234375,112.79296875,-80.078125,0.0
1734414427.9961445,-243.65234375,82.03125,-17.578125,-78.61328125,0.0
1734414428.0000508,146.484375,-35.15625,83.0078125,-8.30078125,0.0
1734414428.003957,325.68359375,294.43359375,133.30078125,33.69140625,0.0
1734414428.007863,-7.8125,208.0078125,93.26171875,-11.23046875,0.0
1734414428.0117693,-349.609375,-196.77734375,-3.90625,-83.984375,0.0
1734414428.0156755,-295.41015625,-719.7265625,-351.5625,-80.56640625,0.0
1734414428.0195816,92.28515625,-394.53125,-100.5859375,-5.37109375,0.0
1734414428.0234878,317.87109375,536.1328125,211.42578125,39.0625,0.0
1734414428.027394,25.87890625,343.75,98.6328125,-7.32421875,0.0
1734414428.0313003,-331.0546875,7.8125,87.890625,-79.1015625,0.0
1734414428.0346136,-316.89453125,82.03125,21.484375,-82.03125,0.0
1734414428.0385199,70.80078125,43.9453125,81.0546875,-6.34765625,0.0
1734414428.0424259,345.703125,75.68359375,69.82421875,54.19921875,0.0
1734414428.0463321,74.21875,179.19921875,73.2421875,20.99609375,0.0
1734414428.0502384,-294.43359375,230.46875,95.703125,-55.17578125,0.0
1734414428.0541444,-308.59375,-113.28125,-153.3203125,-60.05859375,0.0
1734414428.0580506,11.71875,-608.3984375,-321.2890625,8.7890625,0.0
1734414428.061957,314.94140625,-618.1640625,-215.33203125,33.69140625,0.0
1734414428.065863,132.32421875,271.484375,194.3359375,-14.6484375,0.0
1734414428.0697691,-279.78515625,149.4140625,83.49609375,-91.796875,0.0
1734414428.0736754,-366.69921875,-374.51171875,-203.125,-110.3515625,0.0
1734414428.0775816,-42.48046875,-50.29296875,-14.6484375,-56.640625,0.0
1734414428.080703,308.10546875,466.30859375,197.75390625,18.06640625,0.0
1734414428.0846093,183.10546875,513.18359375,133.30078125,16.11328125,0.0
1734414428.0885155,-244.140625,138.671875,102.5390625,-71.2890625,0.0
1734414428.0924215,-374.51171875,17.578125,62.98828125,-98.6328125,0.0
1734414428.0963278,-92.7734375,-108.88671875,25.87890625,-46.38671875,0.0
1734414428.100234,260.25390625,-63.96484375,100.09765625,22.4609375,0.0
1734414428.10414,207.03125,-440.91796875,-154.296875,32.2265625,0.0
1734414428.1080463,-207.51953125,-391.11328125,-82.51953125,-69.82421875,0.0
1734414428.1119525,-386.71875,285.15625,166.9921875,-114.2578125,0.0
1734414428.1158588,-132.32421875,38.0859375,10.25390625,-68.359375,0.0
1734414428.1197648,250.9765625,-1.46484375,44.921875,7.8125,0.0
1734414428.123671,255.37109375,425.29296875,147.4609375,20.01953125,0.0
1734414428.1265833,-154.296875,536.62109375,190.4296875,-37.109375,0.0
1734414428.1304896,-354.98046875,47.36328125,-21.484375,-62.5,0.0
1734414428.1343956,-172.36328125,-301.26953125,-146.484375,-62.98828125,0.0
1734414428.1383018,178.22265625,206.54296875,146.484375,-10.25390625,0.0
1734414428.142208,255.859375,530.76171875,187.98828125,1.46484375,0.0
1734414428.146114,-119.62890625,-193.359375,-123.53515625,-49.31640625,0.0
1734414428.1500204,-375.9765625,-712.890625,-292.48046875,-104.98046875,0.0
1734414428.1539266,-221.6796875,-312.01171875,-52.734375,-94.23828125,0.0
1734414428.1578329,170.8984375,164.55078125,143.06640625,5.37109375,0.0
1734414428.1617389,303.7109375,13.18359375,10.25390625,52.734375,0.0
1734414428.1656451,-54.6875,-101.07421875,27.34375,-22.94921875,0.0
1734414428.1695514,-363.28125,306.15234375,173.33984375,-111.328125,0.0
1734414428.1749575,-261.71875,155.2734375,7.32421875,-104.98046875,0.0
1734414428.1788638,136.71875,-16.6015625,95.21484375,-19.04296875,0.0
1734414428.18277,339.35546875,231.4453125,150.390625,31.25,0.0
1734414428.186676,12.6953125,488.76953125,170.8984375,-12.20703125,0.0
1734414428.1905823,-329.58984375,199.70703125,78.61328125,-84.47265625,0.0
1734414428.1944885,-287.59765625,-451.171875,-264.6484375,-91.796875,0.0
1734414428.1983948,87.40234375,-368.1640625,-82.03125,2.44140625,0.0
1734414428.2023008,332.51953125,367.67578125,195.80078125,51.7578125,0.0
1734414428.206207,56.640625,415.0390625,146.97265625,-21.484375,0.0
1734414428.2101133,-317.87109375,-375.0,-82.03125,-65.91796875,0.0
1734414428.2140193,-317.87109375,-594.7265625,-243.65234375,-67.87109375,0.0
1734414428.2179255,42.48046875,-58.10546875,25.390625,-34.66796875,0.0
1734414428.222649,324.21875,168.9453125,114.74609375,17.08984375,0.0
1734414428.2265553,121.58203125,145.01953125,79.1015625,-7.32421875,0.0
1734414428.2304616,-284.1796875,251.46484375,139.16015625,-78.61328125,0.0
1734414428.2343678,-357.91015625,190.91796875,64.453125,-113.76953125,0.0
1734414428.2382739,-28.80859375,-153.3203125,-45.8984375,-53.7109375,0.0
1734414428.24218,306.640625,-401.85546875,-78.61328125,38.57421875,0.0
1734414428.2460864,151.85546875,-41.015625,72.75390625,12.6953125,0.0
1734414428.2499924,-263.671875,268.5546875,182.12890625,-46.875,0.0
1734414428.2538986,-361.81640625,-365.72265625,-202.63671875,-74.21875,0.0
1734414428.2578049,-68.359375,-955.078125,-447.265625,-68.84765625,0.0
1734414428.2617111,289.0625,-76.171875,62.5,-3.90625,0.0
1734414428.2656171,213.8671875,472.65625,183.10546875,22.4609375,0.0
1734414428.2699783,0.0,68.359375,126.953125,-50.78125,0.0
1734414428.2738845,0.0,-261.23046875,-24.4140625,-117.67578125,0.0
1734414428.2777908,0.0,-147.4609375,-52.24609375,-68.84765625,0.0
1734414428.2816968,0.0,209.47265625,128.41796875,21.484375,0.0
1734414428.285603,0.0,182.6171875,99.12109375,25.390625,0.0
1734414428.2895093,0.0,-196.77734375,23.92578125,-38.57421875,0.0
1734414428.2934153,0.0,-231.4453125,-8.30078125,-107.91015625,0.0
1734414428.2973216,0.0,-15.13671875,28.3203125,-90.8203125,0.0
1734414428.3012278,0.0,-541.9921875,-138.18359375,21.484375,0.0
1734414428.305134,0.0,-274.4140625,-21.484375,41.9921875,0.0
1734414428.30904,0.0,458.49609375,232.91015625,-42.96875,0.0
1734414428.3129463,0.0,77.63671875,26.85546875,-77.63671875,0.0
1734414428.3096747,-212.890625,-222.65625,0.0,-65.4296875,0.0
1734414428.313581,-376.46484375,172.36328125,0.0,0.48828125,0.0
1734414428.3174872,-113.28125,517.08984375,0.0,45.8984375,0.0
1734414428.3213933,259.765625,189.453125,0.0,-21.484375,0.0
1734414428.3252995,247.0703125,-263.671875,0.0,-92.28515625,0.0
1734414428.3292058,-157.2265625,-354.98046875,0.0,-80.56640625,0.0
1734414428.3331118,-375.0,-204.1015625,0.0,14.16015625,0.0
1734414428.337018,-174.31640625,-322.75390625,0.0,58.59375,0.0
1734414428.3409243,223.14453125,-594.7265625,0.0,-17.578125,0.0
1734414428.3448303,277.83203125,-276.3671875,0.0,-84.9609375,0.0
1734414428.3487365,-126.46484375,-122.55859375,0.0,-90.8203125,0.0
1734414428.3526428,-372.0703125,-72.265625,0.0,-30.2734375,0.0
1734414428.3576066,337.40234375,258.7890625,130.37109375,42.96875,0.0
1734414428.361513,21.484375,547.8515625,193.84765625,-11.71875,0.0
1734414428.3654191,-339.35546875,266.11328125,106.4453125,-111.81640625,0.0
1734414428.3693252,-306.640625,-87.40234375,-86.42578125,-108.3984375,0.0
1734414428.3732314,88.8671875,9.27734375,44.43359375,-45.8984375,0.0
1734414428.3771377,342.7734375,86.9140625,100.09765625,8.30078125,0.0
1734414428.3810437,70.80078125,20.01953125,98.14453125,-22.94921875,0.0
1734414428.38495,-302.734375,-558.10546875,-177.734375,-80.56640625,0.0
1734414428.3888562,-319.3359375,-551.7578125,-207.03125,-98.6328125,0.0
1734414428.3927622,32.71484375,283.203125,158.69140625,-50.29296875,0.0
1734414428.3966684,344.23828125,306.640625,98.6328125,24.4140625,0.0
1734414428.4005747,146.97265625,158.69140625,117.1875,4.8828125,0.0
1734414428.4050732,-262.20703125,250.0,138.18359375,-73.73046875,0.0
1734414428.4089794,-331.0546875,314.453125,80.078125,-83.984375,0.0
1734414428.4128854,-25.390625,7.8125,25.390625,-10.25390625,0.0
1734414428.4167917,294.43359375,6.8359375,46.38671875,50.78125,0.0
1734414428.420698,164.0625,430.17578125,157.71484375,27.34375,0.0
1734414428.424604,-247.55859375,100.5859375,81.0546875,-54.6875,0.0
1734414428.4285102,-370.1171875,-580.078125,-227.5390625,-100.5859375,0.0
1734414428.4324164,-81.0546875,-504.39453125,-188.96484375,-64.453125,0.0
1734414428.4363225,280.76171875,230.46875,128.90625,31.73828125,0.0
1734414428.4402287,205.078125,250.9765625,142.08984375,44.921875,0.0
1734414428.444135,-208.49609375,-513.671875,-163.0859375,-51.26953125,0.0
1734414428.448041,-354.98046875,-712.40234375,-346.6796875,-109.86328125,0.0
1734414428.4518583,-106.4453125,90.33203125,63.96484375,-79.58984375,0.0
1734414428.4557645,250.0,470.21484375,194.82421875,-1.953125,0.0
1734414428.4596708,247.0703125,334.47265625,142.578125,10.7421875,0.0
1734414428.4635768,-156.73828125,288.57421875,160.64453125,-51.7578125,0.0
1734414428.467483,-373.046875,283.69140625,69.3359375,-84.9609375,0.0
1734414428.4713893,-170.41015625,-47.8515625,-17.08984375,-57.6171875,0.0
1734414428.4752953,205.078125,-622.0703125,-184.5703125,7.8125,0.0
1734414428.4792016,273.4375,-316.89453125,-84.9609375,31.25,0.0
1734414428.4831078,-106.4453125,514.6484375,244.140625,-43.9453125,0.0
1734414428.4870138,-371.09375,270.5078125,72.75390625,-112.3046875,0.0
1734414428.49092,-216.796875,-98.6328125,-85.9375,-96.19140625,0.0
1734414428.4948263,187.01171875,223.14453125,134.765625,-8.7890625,0.0
1734414428.4985888,327.1484375,606.93359375,193.359375,31.73828125,0.0
1734414428.502495,-47.8515625,243.1640625,64.94140625,-27.83203125,0.0
1734414428.5064013,-366.2109375,-193.84765625,7.8125,-95.21484375,0.0
1734414428.5103073,-250.48828125,39.0625,26.3671875,-77.1484375,0.0
1734414428.5142136,168.9453125,377.9296875,175.29296875,6.8359375,0.0
1734414428.5181198,349.609375,-45.8984375,-88.8671875,44.43359375,0.0
1734414428.5220258,-13.18359375,-466.30859375,-196.77734375,-2.44140625,0.0
1734414428.525932,-329.1015625,114.2578125,123.046875,-75.68359375,0.0
1734414428.5298383,-254.39453125,286.1328125,45.41015625,-76.66015625,0.0
1734414428.5337443,109.86328125,-377.44140625,-153.3203125,12.6953125,0.0
1734414428.5376506,339.35546875,-312.01171875,-112.79296875,53.22265625,0.0
1734414428.5415568,70.80078125,429.19921875,185.546875,-20.01953125,0.0
1734414428.5476124,-307.6171875,311.03515625,104.00390625,-102.5390625,0.0
1734414428.5515187,-310.546875,-52.24609375,-100.09765625,-102.5390625,0.0
1734414428.5554247,41.9921875,8.7890625,19.53125,-41.9921875,0.0
1734414428.559331,316.40625,429.6875,166.015625,14.16015625,0.0
1734414428.5632372,92.7734375,444.3359375,158.69140625,-19.04296875,0.0
1734414428.5671432,-297.8515625,-182.12890625,-58.10546875,-89.84375,0.0
1734414428.5710495,-332.51953125,-565.4296875,-314.94140625,-78.61328125,0.0
1734414428.5749557,7.8125,-171.875,-70.80078125,-34.66796875,0.0
1734414428.5788617,329.58984375,286.1328125,133.7890625,18.06640625,0.0
1734414428.582768,169.43359375,-219.23828125,-80.078125,30.2734375,0.0
1734414428.5866742,-247.55859375,-200.68359375,7.8125,-57.6171875,0.0
1734414428.5905805,-350.09765625,328.61328125,123.53515625,-112.79296875,0.0
1734414428.596509,-30.76171875,21.484375,7.8125,-65.4296875,0.0
1734414428.6004152,304.19921875,-2.9296875,51.26953125,34.66796875,0.0
1734414428.6043212,193.84765625,405.76171875,159.66796875,44.921875,0.0
1734414428.6082275,-220.21484375,432.12890625,184.5703125,-40.0390625,0.0
1734414428.6121337,-361.328125,0.0,-81.0546875,-83.49609375,0.0
1734414428.6160398,-74.70703125,-559.5703125,-321.2890625,-49.31640625,0.0
1734414428.619946,287.59765625,-173.828125,-18.5546875,16.11328125,0.0
1734414428.6238523,238.76953125,454.58984375,222.65625,20.5078125,0.0
1734414428.6277583,-171.38671875,-254.8828125,-143.06640625,-38.0859375,0.0
1734414428.6316645,-350.09765625,-877.9296875,-465.8203125,-93.26171875,0.0
1734414428.6355708,-125.0,-321.2890625,-131.34765625,-83.984375,0.0
1734414428.639477,255.37109375,51.7578125,88.8671875,-4.39453125,0.0
1734414428.6439605,277.83203125,58.10546875,0.0,28.80859375,0.0
1734414428.6478667,-120.60546875,91.796875,0.0,-25.390625,0.0
1734414428.651773,-358.3984375,220.703125,0.0,-107.91015625,0.0
1734414428.655679,-169.43359375,26.85546875,0.0,-84.9609375,0.0
1734414428.6595852,227.5390625,-124.0234375,0.0,15.625,0.0
1734414428.6634915,278.80859375,-218.75,0.0,40.0390625,0.0
1734414428.6673977,-95.703125,-88.37890625,0.0,-21.484375,0.0
1734414428.6713037,-357.421875,92.28515625,0.0,-87.890625,0.0
1734414428.67521,-240.72265625,-608.88671875,0.0,-81.0546875,0.0
1734414428.6791162,150.87890625,-414.55078125,0.0,-15.625,0.0
1734414428.6830223,317.87109375,455.56640625,0.0,22.94921875,0.0
1734414428.6869285,-39.55078125,109.375,0.0,-17.08984375,0.0
1734414428.691112,-371.58203125,-171.38671875,-20.01953125,-84.47265625,0.0
1734414428.6950183,-281.25,109.375,12.20703125,-89.84375,0.0
1734414428.6989243,114.74609375,364.2578125,156.73828125,-23.92578125,0.0
1734414428.7028306,299.31640625,216.30859375,37.109375,12.20703125,0.0
1734414428.7067368,-21.97265625,60.546875,22.94921875,-23.92578125,0.0
1734414428.7106428,-358.3984375,-59.08203125,47.8515625,-79.58984375,0.0
1734414428.714549,-310.05859375,-125.0,-89.35546875,-86.42578125,0.0
1734414428.7184553,72.75390625,-309.08203125,-171.38671875,-7.32421875,0.0
1734414428.7223616,310.05859375,-655.76171875,-248.53515625,62.5,0.0
1734414428.7262676,37.109375,-157.2265625,80.56640625,2.9296875,0.0
1734414428.7301738,-314.94140625,85.9375,118.65234375,-63.96484375,0.0
1734414428.73408,-319.82421875,-71.2890625,-99.12109375,-67.3828125,0.0
1734414428.7378657,41.9921875,35.64453125,-1.46484375,-50.29296875,0.0
1734414428.741772,330.078125,492.1875,168.45703125,-2.44140625,0.0
1734414428.745678,99.12109375,333.984375,113.76953125,4.8828125,0.0
1734414428.7495842,-300.78125,-39.55078125,65.4296875,-64.453125,0.0
1734414428.7534904,-347.16796875,19.04296875,0.0,-104.98046875,0.0
1734414428.7573965,-15.625,-145.99609375,-48.33984375,-37.109375,0.0
1734414428.7613027,304.6875,-117.1875,0.0,53.7109375,0.0
1734414428.765209,154.78515625,-441.89453125,-155.76171875,38.0859375,0.0
1734414428.769115,-251.46484375,-393.5546875,-73.73046875,-54.19921875,0.0
1734414428.7730212,-333.49609375,311.5234375,116.69921875,-94.23828125,0.0
1734414428.7769275,-49.31640625,67.3828125,-6.8359375,-48.33984375,0.0
1734414428.7808337,268.06640625,-14.6484375,21.484375,16.6015625,0.0
1734414428.7841415,197.75390625,403.3203125,142.578125,26.85546875,0.0
1734414428.7880478,-195.80078125,504.39453125,168.9453125,-38.57421875,0.0
1734414428.791954,-350.5859375,52.24609375,-85.44921875,-86.9140625,0.0
1734414428.7958603,-72.75390625,-168.9453125,-131.8359375,-48.828125,0.0
1734414428.7997663,259.765625,223.14453125,103.02734375,33.203125,0.0
1734414428.8036726,205.56640625,151.3671875,67.3828125,43.45703125,0.0
1734414428.8075788,-156.25,-449.70703125,-196.77734375,-22.4609375,0.0
1734414428.8114848,-361.81640625,-737.3046875,-448.73046875,-67.87109375,0.0
1734414428.815391,-152.34375,-56.640625,-84.47265625,-73.73046875,0.0
1734414428.8192973,235.3515625,65.4296875,75.68359375,6.34765625,0.0
1734414428.8232033,280.2734375,-126.953125,-49.8046875,46.38671875,0.0
1734414428.8271096,-126.46484375,157.71484375,50.29296875,-42.48046875,0.0
1734414428.8303103,-371.09375,335.9375,110.83984375,-111.81640625,0.0
1734414428.8342166,-201.66015625,143.06640625,-40.52734375,-87.40234375,0.0
1734414428.8381226,197.265625,-21.484375,48.828125,-5.37109375,0.0
1734414428.8420289,293.9453125,264.6484375,135.25390625,35.15625,0.0
1734414428.845935,-92.28515625,423.33984375,121.58203125,-20.5078125,0.0
1734414428.849841,-353.515625,5.859375,-46.38671875,-76.171875,0.0
1734414428.8537474,-226.07421875,-723.6328125,-440.4296875,-70.80078125,0.0
1734414428.8576536,154.78515625,-395.01953125,-173.33984375,-12.20703125,0.0
1734414428.8615599,298.33984375,357.91015625,95.21484375,30.76171875,0.0
1734414428.8654659,-38.57421875,55.17578125,10.7421875,-36.1328125,0.0
1734414428.8693721,-350.5859375,-70.3125,54.19921875,-115.234375,0.0
1734414428.8732784,-281.25,132.8125,8.7890625,-107.421875,0.0
1734414428.876102,111.328125,338.37890625,130.859375,-15.13671875,0.0
1734414428.8800082,329.1015625,257.32421875,61.03515625,47.8515625,0.0
1734414428.8839145,27.34375,141.6015625,11.71875,-2.44140625,0.0
1734414428.8878205,-305.17578125,316.89453125,104.00390625,-71.2890625,0.0
1734414428.8917267,-291.50390625,326.171875,58.59375,-87.40234375,0.0
1734414428.895633,55.6640625,-307.12890625,-175.78125,-24.4140625,0.0
1734414428.899539,316.89453125,-561.03515625,-236.81640625,30.76171875,0.0
1734414428.9034452,52.734375,262.6953125,163.57421875,-11.23046875,0.0
1734414428.9073515,-307.12890625,447.75390625,141.11328125,-76.171875,0.0
1734414428.9112575,-321.2890625,-252.44140625,-209.47265625,-77.63671875,0.0
1734414428.9151638,13.671875,-368.1640625,-96.6796875,-20.01953125,0.0
1734414428.91907,310.05859375,293.45703125,151.85546875,32.2265625,0.0
1734414428.9244525,102.5390625,143.5546875,59.08203125,21.484375,0.0
1734414428.9283586,-288.57421875,-115.234375,48.33984375,-48.828125,0.0
1734414428.9322648,-342.7734375,40.52734375,12.20703125,-99.12109375,0.0
1734414428.936171,-28.3203125,219.7265625,83.0078125,-55.6640625,0.0
1734414428.9400773,305.17578125,312.01171875,125.48828125,19.04296875,0.0
1734414428.9439833,169.921875,-65.91796875,-69.3359375,24.4140625,0.0
1734414428.9478896,-248.53515625,-177.734375,-25.87890625,-54.6875,0.0
1734414428.9517958,-365.234375,241.2109375,87.40234375,-104.00390625,0.0
1734414428.9557018,-72.75390625,128.90625,10.25390625,-57.12890625,0.0
1734414428.959608,266.6015625,-406.73828125,-127.9296875,10.7421875,0.0
1734414428.9635143,193.359375,-70.3125,-8.30078125,10.25390625,0.0
1734414428.9674203,-203.61328125,486.81640625,197.75390625,-77.1484375,0.0
1734414428.972222,-377.9296875,93.75,-44.43359375,-122.0703125,0.0
1734414428.9761283,-133.30078125,-186.03515625,-149.4140625,-61.5234375,0.0
1734414428.9800346,272.94921875,249.0234375,123.046875,22.4609375,0.0
1734414428.9839408,255.37109375,247.0703125,103.02734375,34.1796875,0.0
1734414428.9878469,-172.36328125,-132.32421875,-21.97265625,-39.0625,0.0
1734414428.991753,-383.30078125,-418.9453125,-247.55859375,-94.23828125,0.0
1734414428.9956594,-183.10546875,-329.1015625,-207.51953125,-57.6171875,0.0
1734414428.9995654,218.75,303.22265625,198.2421875,29.296875,0.0
1734414429.0034716,272.94921875,14.16015625,-93.26171875,45.41015625,0.0
1734414429.0073779,-133.30078125,-744.140625,-325.68359375,-32.71484375,0.0
1734414429.0112839,-377.44140625,-124.0234375,60.05859375,-90.33203125,0.0
1734414429.0151901,-213.8671875,234.375,33.69140625,-73.2421875,0.0
1734414429.0196638,184.5703125,8.7890625,30.76171875,-2.44140625,0.0
1734414429.02357,297.36328125,266.11328125,104.00390625,40.52734375,0.0
1734414429.0274763,-61.03515625,545.41015625,173.828125,-32.71484375,0.0
1734414429.0313826,-331.0546875,316.89453125,90.33203125,-95.703125,0.0
1734414429.0352886,-229.4921875,-77.1484375,-154.78515625,-72.265625,0.0
1734414429.0391948,157.71484375,-187.98828125,-50.78125,11.71875,0.0
1734414429.043101,319.3359375,-41.9921875,49.31640625,71.2890625,0.0
1734414429.047007,0.48828125,48.828125,63.96484375,4.8828125,0.0
1734414429.0509133,-316.89453125,-501.953125,-161.1328125,-80.56640625,0.0
1734414429.0548196,-282.71484375,-395.01953125,-173.828125,-86.42578125,0.0
1734414429.0587256,96.6796875,264.16015625,146.484375,-28.3203125,0.0
1734414429.0626318,325.68359375,73.73046875,34.66796875,33.69140625,0.0
1734414429.0666807,20.99609375,110.83984375,37.109375,-14.6484375,0.0
1734414429.070587,-317.87109375,317.3828125,96.6796875,-112.79296875,0.0
1734414429.0744932,-297.8515625,323.2421875,49.31640625,-114.2578125,0.0
1734414429.0783992,62.98828125,7.32421875,6.34765625,-30.2734375,0.0
1734414429.0823054,335.9375,21.484375,5.37109375,26.85546875,0.0
1734414429.0862117,105.95703125,131.34765625,75.1953125,0.48828125,0.0
1734414429.090118,-276.85546875,83.49609375,107.421875,-69.3359375,0.0
1734414429.094024,-317.87109375,-282.2265625,-217.7734375,-98.14453125,0.0
1734414429.0979302,28.80859375,-723.6328125,-283.69140625,-24.4140625,0.0
1734414429.1018364,330.56640625,-49.31640625,96.19140625,39.55078125,0.0
1734414429.1057425,145.5078125,105.46875,67.3828125,-6.8359375,0.0
1734414429.1096487,-255.37109375,-149.90234375,16.6015625,-92.28515625,0.0
1734414429.1132765,-343.75,34.66796875,-0.48828125,-110.3515625,0.0
1734414429.1171827,-33.203125,272.94921875,92.28515625,-58.59375,0.0
1734414429.121089,300.29296875,406.73828125,138.671875,18.06640625,0.0
1734414429.1249952,175.78125,350.5859375,121.09375,17.08984375,0.0
1734414429.1289012,-236.328125,230.95703125,109.375,-64.94140625,0.0
1734414429.1328075,-364.2578125,-33.203125,-117.1875,-109.375,0.0
1734414429.1367137,-83.984375,-259.765625,-219.7265625,-70.80078125,0.0
1734414429.1406198,269.53125,-616.2109375,-232.91015625,20.5078125,0.0
1734414429.144526,209.9609375,-291.015625,-66.89453125,13.18359375,0.0
1734414429.1484323,-196.77734375,505.37109375,187.5,-75.68359375,0.0
1734414429.1523385,-368.65234375,193.84765625,8.30078125,-110.83984375,0.0
1734414429.1562445,-135.7421875,-125.0,-89.35546875,-61.5234375,0.0
1734414429.159491,261.71875,83.49609375,103.02734375,27.34375,0.0
1734414429.1633973,286.1328125,358.3984375,141.6015625,29.296875,0.0
1734414429.1673036,-145.01953125,200.68359375,30.2734375,-52.734375,0.0
1734414429.1712096,-368.65234375,-26.3671875,-11.71875,-92.7734375,0.0
1734414429.1751158,-151.85546875,77.63671875,-13.671875,-63.4765625,0.0
1734414429.179022,222.16796875,68.359375,100.5859375,-2.9296875,0.0
1734414429.182928,269.53125,-223.6328125,-107.421875,23.4375,0.0
1734414429.1868343,-94.7265625,-576.66015625,-238.76953125,-31.73828125,0.0
1734414429.1907406,-348.6328125,64.453125,101.07421875,-91.796875,0.0
1734414429.1946468,-236.81640625,-28.3203125,-76.66015625,-82.51953125,0.0
1734414429.1985528,159.66796875,-287.109375,-28.80859375,-3.90625,0.0
1734414429.202459,307.12890625,296.38671875,146.97265625,46.38671875,0.0
1734414429.205672,-38.57421875,591.796875,179.6875,-24.90234375,0.0
1734414429.2095783,-340.33203125,388.18359375,103.515625,-111.81640625,0.0
1734414429.2134845,-245.60546875,-2.44140625,-75.1953125,-98.6328125,0.0
1734414429.2173905,150.87890625,-48.33984375,32.2265625,-5.37109375,0.0
1734414429.2212968,326.171875,187.98828125,83.0078125,40.52734375,0.0
1734414429.225203,5.859375,145.99609375,99.609375,-9.27734375,0.0
1734414429.229109,-337.40234375,-539.0625,-216.30859375,-67.3828125,0.0
1734414429.2330153,-303.7109375,-535.15625,-279.296875,-75.68359375,0.0
1734414429.2369215,81.0546875,247.0703125,162.109375,-22.4609375,0.0
1734414429.2408276,323.73046875,353.515625,93.26171875,21.97265625,0.0
1734414429.2447338,48.828125,171.38671875,47.8515625,-14.6484375,0.0
1734414429.24864,-320.3125,238.76953125,114.74609375,-85.9375,0.0
1734414429.2515957,-319.82421875,281.73828125,57.6171875,-91.796875,0.0
1734414429.255502,55.17578125,17.578125,38.57421875,-6.34765625,0.0
1734414429.2594082,336.9140625,75.68359375,75.1953125,56.15234375,0.0
1734414429.2633145,83.984375,490.234375,161.1328125,4.8828125,0.0
1734414429.2672205,-306.15234375,473.6328125,167.96875,-74.70703125,0.0
1734414429.2711267,-323.2421875,-273.92578125,-248.046875,-89.35546875,0.0
1734414429.275033,20.99609375,-773.4375,-369.140625,-34.1796875,0.0
1734414429.278939,331.0546875,-26.85546875,120.60546875,26.85546875,0.0
1734414429.2828453,157.71484375,537.109375,208.49609375,9.765625,0.0
1734414429.2867515,-258.30078125,-2.44140625,-35.15625,-65.4296875,0.0
1734414429.2906575,-354.98046875,-224.609375,-81.0546875,-102.05078125,0.0
1734414429.2945638,-55.6640625,275.390625,139.16015625,-45.8984375,0.0
1734414429.2998645,303.22265625,508.30078125,175.78125,39.55078125,0.0
1734414429.3037708,204.1015625,362.79296875,112.79296875,39.55078125,0.0
1734414429.307677,-227.05078125,215.8203125,98.14453125,-29.78515625,0.0
1734414429.311583,-377.44140625,288.0859375,62.98828125,-87.890625,0.0
1734414429.3154893,-114.2578125,140.13671875,28.3203125,-58.10546875,0.0
1734414429.3193955,259.765625,-146.484375,42.48046875,29.78515625,0.0
1734414429.3233018,247.55859375,-8.7890625,80.56640625,38.0859375,0.0
1734414429.3272078,-158.203125,322.75390625,130.37109375,-43.9453125,0.0
1734414429.331114,-381.34765625,128.41796875,-40.52734375,-99.12109375,0.0
1734414429.3350203,-168.45703125,-656.25,-340.8203125,-63.4765625,0.0
1734414429.3389263,250.9765625,-426.7578125,-53.7109375,36.1328125,0.0
1734414429.3428326,290.52734375,505.37109375,220.703125,54.19921875,0.0
1734414429.34756,-129.39453125,257.32421875,49.31640625,-36.1328125,0.0
1734414429.3514662,-343.75,-131.8359375,-69.3359375,-84.47265625,0.0
1734414429.3553722,-176.26953125,17.578125,-2.9296875,-59.5703125,0.0
1734414429.3592784,182.12890625,357.91015625,173.33984375,-4.39453125,0.0
1734414429.3631847,292.96875,313.4765625,40.52734375,25.390625,0.0
1734414429.367091,-88.37890625,-224.12109375,-114.2578125,-31.25,0.0
1734414429.370997,-389.16015625,-165.0390625,23.92578125,-100.09765625,0.0
1734414429.3749032,-261.71875,179.6875,58.59375,-87.40234375,0.0
1734414429.3788095,152.34375,-87.890625,-27.34375,0.9765625,0.0
1734414429.3827155,316.40625,-334.9609375,-92.28515625,53.22265625,0.0
1734414429.3866217,-36.62109375,130.859375,107.421875,-12.20703125,0.0
1734414429.390528,-357.421875,406.73828125,163.57421875,-93.75,0.0
1734414429.3949068,-284.66796875,-406.25,-263.671875,-70.3125,0.0
1734414429.398813,107.91015625,-667.96875,-197.265625,3.41796875,0.0
1734414429.4027193,336.42578125,425.29296875,224.609375,32.71484375,0.0
1734414429.4066253,35.15625,596.6796875,147.94921875,9.27734375,0.0
1734414429.4105315,-331.54296875,76.171875,26.3671875,-62.98828125,0.0
1734414429.4144378,-304.6875,-347.65625,-222.65625,-84.47265625,0.0
1734414429.418344,85.9375,-113.28125,-14.6484375,-19.04296875,0.0
1734414429.42225,363.76953125,492.67578125,201.66015625,57.6171875,0.0
1734414429.4261563,111.81640625,-181.15234375,-95.21484375,35.15625,0.0
1734414429.4300625,-272.4609375,-396.484375,-61.03515625,-61.5234375,0.0
1734414429.4339685,-307.6171875,273.4375,77.63671875,-98.6328125,0.0
1734414429.4378748,38.57421875,122.0703125,69.3359375,-34.66796875,0.0
1734414429.441798,346.6796875,229.98046875,139.6484375,33.203125,0.0
1734414429.4457042,130.859375,584.9609375,196.2890625,-6.8359375,0.0
1734414429.4496105,-272.94921875,516.11328125,183.59375,-93.26171875,0.0
1734414429.4535167,-352.5390625,-7.8125,-119.140625,-113.76953125,0.0
1734414429.4574227,-35.64453125,-322.75390625,-184.5703125,-44.43359375,0.0
1734414429.461329,322.265625,-7.32421875,79.58984375,33.69140625,0.0
1734414429.4652352,168.9453125,271.484375,176.26953125,8.30078125,0.0
1734414429.4691412,-246.58203125,-138.671875,-115.234375,-62.98828125,0.0
1734414429.4730475,-345.703125,-666.9921875,-415.0390625,-82.51953125,0.0
1734414429.4769537,-60.05859375,-291.015625,-44.921875,-35.15625,0.0
1734414429.48086,305.6640625,123.046875,132.32421875,41.50390625,0.0
1734414429.484766,219.7265625,210.9375,77.63671875,27.34375,0.0
1734414429.4883602,-196.2890625,205.56640625,91.30859375,-66.89453125,0.0
1734414429.4922664,-358.3984375,325.68359375,88.8671875,-106.4453125,0.0
1734414429.4961727,-111.81640625,177.24609375,46.38671875,-60.546875,0.0
1734414429.5000787,296.38671875,195.80078125,150.87890625,41.50390625,0.0
1734414429.503985,269.04296875,408.203125,151.3671875,43.45703125,0.0
1734414429.5078912,-163.57421875,112.3046875,61.03515625,-53.7109375,0.0
1734414429.5117974,-366.69921875,-229.00390625,-89.35546875,-87.890625,0.0
1734414429.5157034,-164.55078125,-697.75390625,-379.39453125,-48.33984375,0.0
1734414429.5196097,232.91015625,-335.44921875,-77.1484375,19.04296875,0.0
1734414429.523516,288.57421875,638.671875,238.76953125,26.85546875,0.0
1734414429.527422,-104.98046875,407.71484375,86.9140625,-37.59765625,0.0
1734414429.5313282,-385.25390625,-89.84375,-16.6015625,-104.4921875,0.0
1734414429.5347595,-232.421875,25.87890625,26.3671875,-86.42578125,0.0
1734414429.5386658,201.66015625,461.42578125,188.4765625,9.765625,0.0
1734414429.542572,328.125,361.328125,75.68359375,53.7109375,0.0
1734414429.546478,-65.4296875,125.48828125,52.24609375,-27.83203125,0.0
1734414429.5503843,-380.37109375,174.31640625,90.8203125,-108.3984375,0.0
1734414429.5542905,-262.20703125,-108.3984375,-147.4609375,-84.9609375,0.0
1734414429.5581965,151.85546875,-485.3515625,-227.5390625,5.859375,0.0
1734414429.5621028,335.9375,-566.89453125,-160.15625,43.9453125,0.0
1734414429.566009,-13.18359375,134.765625,149.90234375,-27.34375,0.0
1734414429.5699153,-344.23828125,-24.90234375,2.44140625,-98.14453125,0.0
1734414429.5738213,-297.36328125,-546.38671875,-292.96875,-93.26171875,0.0
1734414429.5777276,104.00390625,-81.0546875,30.76171875,-16.6015625,0.0
1734414429.5807438,353.515625,549.8046875,211.9140625,35.64453125,0.0
1734414429.58465,39.0625,529.296875,143.5546875,-3.90625,0.0
1734414429.5885563,-307.12890625,-3.41796875,0.9765625,-74.21875,0.0
1734414429.5924623,-301.7578125,-82.03125,-55.6640625,-90.33203125,0.0
1734414429.5963686,61.5234375,204.1015625,108.3984375,-9.27734375,0.0
1734414429.6002748,353.02734375,189.94140625,107.421875,67.3828125,0.0
1734414429.6041808,110.83984375,-444.3359375,-167.48046875,32.2265625,0.0
1734414429.608087,-284.66796875,-541.50390625,-122.55859375,-62.01171875,0.0
1734414429.6119933,-339.84375,147.94921875,84.47265625,-107.91015625,0.0
1734414429.6158993,-6.8359375,83.49609375,41.50390625,-50.78125,0.0
1734414429.6198056,332.51953125,81.54296875,96.19140625,35.64453125,0.0
1734414429.6237118,177.24609375,453.125,167.96875,10.7421875,0.0
1734414429.6292946,-257.8125,437.98828125,161.62109375,-86.42578125,0.0
1734414429.633201,-360.3515625,-63.4765625,-92.7734375,-110.3515625,0.0
1734414429.6371071,-46.38671875,-276.85546875,-138.18359375,-45.41015625,0.0
1734414429.6410131,297.8515625,310.05859375,146.97265625,29.296875,0.0
1734414429.6449194,204.58984375,655.2734375,238.76953125,21.484375,0.0
1734414429.6488256,-232.91015625,-171.38671875,-127.9296875,-51.7578125,0.0
1734414429.6527317,-385.7421875,-666.9921875,-386.71875,-103.02734375,0.0
1734414429.656638,-113.28125,-18.5546875,-5.37109375,-63.96484375,0.0
1734414429.6605442,261.23046875,462.40234375,209.47265625,22.94921875,0.0
1734414429.6644504,233.3984375,-144.04296875,-133.30078125,31.73828125,0.0
1734414429.6683564,-199.21875,-641.6015625,-252.9296875,-55.17578125,0.0
1734414429.6722627,-397.94921875,35.64453125,56.15234375,-121.09375,0.0
1734414429.6772277,-160.15625,131.34765625,13.18359375,-77.1484375,0.0
1734414429.681134,244.140625,79.58984375,131.8359375,3.41796875,0.0
1734414429.6850402,276.85546875,334.9609375,146.484375,10.7421875,0.0
1734414429.6889462,-144.04296875,451.66015625,135.25390625,-58.10546875,0.0
1734414429.6928525,-392.578125,98.6328125,17.08984375,-105.95703125,0.0
1734414429.6967587,-216.30859375,-395.99609375,-239.2578125,-70.3125,0.0
1734414429.7006648,195.80078125,-369.62890625,-65.4296875,15.13671875,0.0
1734414429.704571,286.62109375,165.52734375,127.9296875,30.2734375,0.0
1734414429.7084773,-101.5625,304.6875,86.42578125,-35.64453125,0.0
1734414429.7123835,-371.58203125,-498.53515625,-208.984375,-84.47265625,0.0
1734414429.7162895,-250.0,-449.21875,-184.5703125,-90.33203125,0.0
1734414429.7201958,154.296875,359.86328125,173.33984375,-19.53125,0.0
1734414429.7246194,314.453125,343.75,68.84765625,28.80859375,0.0
1734414429.7285256,-57.12890625,90.8203125,-6.34765625,-43.45703125,0.0
1734414429.7324317,-368.1640625,159.1796875,83.0078125,-117.1875,0.0
1734414429.736338,-283.203125,209.9609375,19.53125,-113.28125,0.0
1734414429.7402442,98.14453125,57.6171875,21.97265625,-41.50390625,0.0
1734414429.7441502,292.96875,-180.17578125,-54.6875,30.76171875,0.0
1734414429.7480564,-30.2734375,37.109375,57.12890625,-34.1796875,0.0
1734414429.7519627,-383.7890625,264.6484375,108.88671875,-134.27734375,0.0
1734414429.755869,-349.609375,-411.1328125,-331.54296875,-127.9296875,0.0
1734414429.759775,33.203125,-815.4296875,-355.95703125,-60.05859375,0.0
1734414429.7636812,267.08984375,43.45703125,49.8046875,-28.80859375,0.0
1734414429.7675874,-14.6484375,565.4296875,147.94921875,-91.30859375,0.0
1734414429.771493,-387.6953125,-201.171875,-103.02734375,-157.71484375,0.0
1734414429.7753992,-389.6484375,-383.30078125,-199.21875,-171.38671875,0.0
1734414429.7793055,-49.31640625,329.58984375,94.7265625,-124.51171875,0.0
1734414429.7832117,224.12109375,513.18359375,111.81640625,-71.2890625,0.0
1734414429.7871177,-25.87890625,291.9921875,41.015625,-113.76953125,0.0
1734414429.791024,-440.91796875,-166.015625,-55.17578125,-192.3828125,0.0
1734414429.7949302,-452.1484375,-131.8359375,-183.10546875,-195.3125,0.0
1734414429.7988362,-145.5078125,236.328125,-15.13671875,-161.62109375,0.0
1734414429.8027425,149.4140625,-319.82421875,-154.296875,-112.79296875,0.0
1734414429.8066487,18.06640625,-211.9140625,-91.796875,-136.23046875,0.0
1734414429.810555,-382.8125,480.46875,151.85546875,-228.515625,0.0
1734414429.814461,-504.8828125,37.109375,-175.29296875,-256.34765625,0.0
1734414429.8179913,-196.2890625,-36.1328125,-166.9921875,-198.73046875,0.0
1734414429.8218973,140.625,526.3671875,139.16015625,-134.765625,0.0
1734414429.8258035,32.2265625,776.3671875,140.13671875,-151.85546875,0.0
1734414429.8297098,-356.93359375,297.36328125,-16.6015625,-226.07421875,0.0
1734414429.8336158,-511.71875,13.18359375,-198.73046875,-270.01953125,0.0
1734414429.837522,-270.01953125,-44.43359375,-253.90625,-234.86328125,0.0
1734414429.8414283,109.86328125,253.90625,30.76171875,-143.5546875,0.0
1734414429.8453345,96.6796875,206.0546875,-112.3046875,-109.375,0.0
1734414429.8492405,-327.63671875,-488.28125,-282.2265625,-185.546875,0.0
1734414429.8531468,-521.97265625,-205.56640625,-113.28125,-245.60546875,0.0
1734414429.857053,-280.2734375,92.7734375,-140.625,-187.01171875,0.0
1734414429.8609593,120.60546875,244.62890625,129.39453125,-80.078125,0.0
1734414429.8641346,184.08203125,449.70703125,87.890625,-62.5,0.0
1734414429.8680408,-188.96484375,504.8828125,80.56640625,-159.1796875,0.0
1734414429.871947,-444.82421875,36.62109375,-86.9140625,-203.61328125,0.0
1734414429.8758533,-299.8046875,-179.6875,-266.6015625,-147.4609375,0.0
1734414429.8797593,111.81640625,240.72265625,56.640625,-65.91796875,0.0
1734414429.8836656,225.5859375,245.60546875,45.8984375,-32.71484375,0.0
1734414429.8875718,-132.8125,-116.2109375,-120.60546875,-96.6796875,0.0
1734414429.8914778,-375.0,-604.4921875,-311.03515625,-117.1875,0.0
1734414429.895384,-240.234375,-465.33203125,-265.625,-74.21875,0.0
1734414429.8992903,141.11328125,401.85546875,170.8984375,-19.04296875,0.0
1734414429.9031966,287.109375,423.33984375,59.5703125,35.15625,0.0
1734414429.9071026,-32.71484375,32.2265625,-47.36328125,-8.30078125,0.0
1734414429.9101677,-298.33984375,87.890625,45.8984375,-89.35546875,0.0
1734414429.9140737,-205.56640625,296.38671875,31.73828125,-75.1953125,0.0
1734414429.91798,175.29296875,122.55859375,47.8515625,38.0859375,0.0
1734414429.9218862,353.02734375,99.609375,37.109375,94.7265625,0.0
1734414429.9257922,46.875,291.9921875,85.9375,19.04296875,0.0
1734414429.9296985,-269.04296875,-68.84765625,-50.78125,-43.9453125,0.0
1734414429.9336047,-227.05078125,-632.32421875,-442.3828125,-25.390625,0.0
1734414429.9375107,121.09375,-705.078125,-356.4453125,48.828125,0.0
1734414429.941417,356.4453125,233.3984375,113.28125,115.234375,0.0
1734414429.9453232,118.65234375,191.40625,33.69140625,68.84765625,0.0
1734414429.9492295,-225.5859375,-392.08984375,-155.76171875,-30.76171875,0.0
1734414429.9531355,-230.46875,-125.9765625,-156.25,-53.22265625,0.0
1734414429.9561665,94.7265625,293.45703125,71.2890625,28.3203125,0.0
1734414429.9600725,355.95703125,455.078125,126.46484375,111.81640625,0.0
1734414429.9639788,151.85546875,149.90234375,-25.390625,73.2421875,0.0
1734414429.967885,-203.61328125,14.6484375,-21.484375,-32.2265625,0.0
1734414429.971791,-260.7421875,137.20703125,-82.51953125,-44.43359375,0.0
1734414429.9756973,51.26953125,-50.78125,-136.23046875,53.7109375,0.0
1734414429.9796035,364.2578125,-630.859375,-293.45703125,145.5078125,0.0
1734414429.9835095,208.49609375,-437.5,-179.6875,108.3984375,0.0
1734414429.9874158,-140.13671875,-15.13671875,35.64453125,4.8828125,0.0
1734414429.991322,-224.12109375,-307.12890625,-250.48828125,-21.484375,0.0
1734414429.9952283,13.671875,-160.15625,-137.20703125,40.0390625,0.0
1734414429.9991343,338.8671875,361.81640625,140.625,116.2109375,0.0
1734414430.0019965,259.27734375,602.5390625,142.08984375,103.515625,0.0
1734414430.0059028,-132.8125,119.62890625,-23.4375,16.11328125,0.0
1734414430.009809,-258.7890625,-143.06640625,-231.4453125,-20.01953125,0.0
1734414430.013715,-30.76171875,176.26953125,-63.96484375,11.71875,0.0
1734414430.0176213,291.50390625,476.5625,183.59375,87.40234375,0.0
1734414430.0215275,279.78515625,-110.83984375,-192.3828125,103.515625,0.0
1734414430.0254335,-80.078125,-646.97265625,-355.46875,11.71875,0.0
1734414430.0293398,-252.9296875,27.83203125,18.06640625,-49.31640625,0.0
1734414430.033246,-81.0546875,282.71484375,26.3671875,-15.625,0.0
1734414430.0371523,273.4375,-125.48828125,-80.56640625,76.171875,0.0
1734414430.0410583,326.171875,-77.1484375,-63.4765625,100.5859375,0.0
1734414430.0449646,-46.38671875,120.60546875,43.9453125,11.71875,0.0
1734414430.0503101,-270.5078125,-75.68359375,-178.22265625,-41.50390625,0.0
1734414430.0542164,-117.67578125,-129.8828125,-306.15234375,7.32421875,0.0
1734414430.0581226,257.32421875,136.23046875,-2.44140625,101.5625,0.0
1734414430.062029,333.984375,480.95703125,102.5390625,109.375,0.0
1734414430.065935,-12.20703125,315.4296875,14.16015625,32.2265625,0.0
1734414430.0698411,-265.13671875,-248.53515625,-191.89453125,-27.34375,0.0
1734414430.0737474,-171.875,-328.125,-250.0,-21.97265625,0.0
1734414430.0776534,179.19921875,355.95703125,107.421875,32.2265625,0.0
1734414430.0815597,338.8671875,477.5390625,70.3125,75.1953125,0.0
1734414430.085466,33.203125,-167.96875,-187.98828125,30.2734375,0.0
1734414430.0893722,-265.625,-135.25390625,-91.796875,-51.7578125,0.0
1734414430.0932782,-202.1484375,305.17578125,19.53125,-41.015625,0.0
1734414430.0980508,137.20703125,128.90625,-2.44140625,38.0859375,0.0
1734414430.101957,332.51953125,64.453125,-36.62109375,87.40234375,0.0
1734414430.105863,75.68359375,92.28515625,-31.25,36.1328125,0.0
1734414430.1097693,-249.0234375,-54.19921875,-119.62890625,-51.7578125,0.0
1734414430.1136756,-229.98046875,-128.90625,-304.19921875,-61.03515625,0.0
1734414430.1175816,105.46875,-381.8359375,-323.73046875,14.6484375,0.0
1734414430.1214879,349.609375,-157.2265625,-84.9609375,79.1015625,0.0
1734414430.125394,119.140625,317.87109375,115.72265625,27.83203125,0.0
1734414430.1293004,-245.60546875,-158.69140625,-201.66015625,-51.7578125,0.0
1734414430.1332064,-276.3671875,-898.92578125,-572.75390625,-40.0390625,0.0
1734414430.1371126,27.83203125,-104.98046875,-66.89453125,1.46484375,0.0
1734414430.1410189,312.01171875,577.63671875,163.57421875,40.52734375,0.0
1734414430.1453397,141.6015625,261.23046875,-55.17578125,14.6484375,0.0
1734414430.1492457,-215.33203125,149.90234375,-49.31640625,-53.22265625,0.0
1734414430.153152,-273.92578125,312.01171875,0.0,-67.87109375,0.0
1734414430.1570582,2.9296875,309.08203125,26.3671875,-5.37109375,0.0
1734414430.1609645,269.04296875,196.77734375,43.45703125,51.26953125,0.0
1734414430.1648705,125.48828125,-28.3203125,-107.91015625,13.18359375,0.0
1734414430.1687768,-219.23828125,-192.87109375,-207.03125,-64.94140625,0.0
1734414430.172683,-337.40234375,-237.3046875,-278.80859375,-93.26171875,0.0
1734414430.176589,-86.9140625,-624.51171875,-359.375,-30.76171875,0.0
1734414430.1804953,269.04296875,-241.69921875,-68.359375,39.55078125,0.0
1734414430.1844015,227.5390625,587.40234375,159.1796875,7.8125,0.0
1734414430.1883078,-157.71484375,279.296875,-8.30078125,-76.171875,0.0
1734414430.1922286,-317.3828125,-42.48046875,-202.63671875,-102.05078125,0.0
1734414430.1961346,-102.05078125,207.03125,-61.03515625,-54.19921875,0.0
1734414430.2000408,250.9765625,527.83203125,175.78125,15.625,0.0
1734414430.203947,254.39453125,304.19921875,-7.32421875,21.484375,0.0
1734414430.2078533,-128.90625,-37.59765625,-150.390625,-48.828125,0.0
1734414430.2117593,-309.08203125,-217.7734375,-242.67578125,-93.75,0.0
1734414430.2156656,-119.62890625,-91.796875,-157.71484375,-49.8046875,0.0
1734414430.2195718,208.984375,-71.2890625,-93.26171875,53.22265625,0.0
1734414430.223478,269.04296875,-557.6171875,-382.8125,75.1953125,0.0
1734414430.227384,-88.37890625,-264.6484375,-214.84375,-24.4140625,0.0
1734414430.2312903,-328.125,-189.94140625,-224.609375,-83.0078125,0.0
1734414430.2351966,-185.546875,-288.0859375,-312.5,-58.59375,0.0
1734414430.2387178,165.0390625,171.875,17.578125,23.4375,0.0
1734414430.242624,266.11328125,565.4296875,132.8125,76.171875,0.0
1734414430.2465303,-60.05859375,398.92578125,62.5,6.8359375,0.0
1734414430.2504363,-316.40625,31.73828125,-95.21484375,-87.40234375,0.0
1734414430.2543426,-244.140625,21.97265625,-173.33984375,-78.125,0.0
1734414430.2582488,117.1875,76.66015625,30.76171875,13.671875,0.0
1734414430.2621548,312.01171875,114.74609375,70.3125,65.4296875,0.0
1734414430.266061,18.06640625,-428.7109375,-238.76953125,6.8359375,0.0
1734414430.2699673,-303.7109375,-502.9296875,-260.25390625,-73.73046875,0.0
1734414430.2738736,-268.06640625,255.37109375,23.92578125,-70.80078125,0.0
1734414430.2777796,94.7265625,269.04296875,82.03125,17.578125,0.0
1734414430.2816858,317.87109375,186.5234375,67.3828125,73.73046875,0.0
1734414430.2849474,49.8046875,136.23046875,12.20703125,5.37109375,0.0
1734414430.2888536,-294.921875,212.40234375,52.734375,-90.33203125,0.0
1734414430.2927597,-287.59765625,52.734375,-118.65234375,-90.8203125,0.0
1734414430.296666,47.8515625,-33.203125,-91.796875,-15.625,0.0
1734414430.3005722,299.8046875,417.48046875,123.046875,43.9453125,0.0
1734414430.3044782,90.33203125,277.34375,80.56640625,4.39453125,0.0
1734414430.3083844,-266.11328125,-432.12890625,-231.93359375,-78.61328125,0.0
1734414430.3122907,-288.0859375,-720.21484375,-477.5390625,-96.19140625,0.0
1734414430.316197,4.39453125,21.484375,-2.9296875,-47.8515625,0.0
1734414430.320103,268.5546875,221.19140625,108.3984375,26.85546875,0.0
1734414430.3240092,133.7890625,-133.30078125,-114.2578125,21.484375,0.0
1734414430.3279154,-244.62890625,-110.83984375,-104.00390625,-66.89453125,0.0
1734414430.33091,-337.890625,187.5,5.859375,-101.07421875,0.0
1734414430.3348162,-50.78125,282.71484375,44.43359375,-45.8984375,0.0
1734414430.3387225,277.83203125,144.53125,79.1015625,42.96875,0.0
1734414430.3426285,189.94140625,70.3125,61.5234375,51.7578125,0.0
1734414430.3465347,-208.0078125,143.06640625,29.296875,-48.33984375,0.0
1734414430.350441,-345.21484375,-87.40234375,-181.640625,-100.09765625,0.0
1734414430.354347,-83.0078125,-709.9609375,-404.78515625,-41.015625,0.0
1734414430.3582532,284.1796875,-373.046875,-122.55859375,42.96875,0.0
1734414430.3621595,243.65234375,562.5,181.640625,43.9453125,0.0
1734414430.3660657,-160.64453125,313.96484375,20.01953125,-49.8046875,0.0
1734414430.3699718,-347.16796875,-105.95703125,-159.66796875,-105.95703125,0.0
1734414430.373878,-150.390625,109.375,-31.73828125,-64.94140625,0.0
1734414430.3766687,219.23828125,481.93359375,199.70703125,31.73828125,0.0
1734414430.380575,257.8125,347.16796875,56.15234375,50.29296875,0.0
1734414430.384481,-104.00390625,20.5078125,-62.01171875,-33.69140625,0.0
1734414430.3883872,-318.84765625,108.3984375,0.0,-97.65625,0.0
1734414430.3922935,-167.48046875,181.640625,15.13671875,-66.40625,0.0
1734414430.3961997,200.1953125,-217.28515625,-101.07421875,35.15625,0.0
1734414430.4001057,281.25,-717.28515625,-361.81640625,73.73046875,0.0
1734414430.404012,-87.890625,-253.90625,-89.84375,-21.484375,0.0
1734414430.4079182,-359.86328125,108.3984375,24.90234375,-89.35546875,0.0
1734414430.4118242,-242.1875,-400.390625,-246.58203125,-61.03515625,0.0
1734414430.4157305,151.85546875,-248.046875,-8.30078125,11.23046875,0.0
1734414430.4196367,292.96875,482.421875,174.8046875,47.36328125,0.0
1734414430.424994,-41.9921875,444.3359375,98.14453125,-28.3203125,0.0
1734414430.4289,-333.984375,-44.43359375,-88.8671875,-108.3984375,0.0
1734414430.4328063,-265.625,-112.3046875,-168.9453125,-92.7734375,0.0
1734414430.4367125,97.65625,241.69921875,124.51171875,1.46484375,0.0
1734414430.4406188,297.36328125,421.38671875,140.13671875,55.17578125,0.0
1734414430.4445248,17.08984375,-63.4765625,-95.21484375,-13.18359375,0.0
1734414430.448431,-331.54296875,-378.90625,-198.2421875,-109.375,0.0
1734414430.4523373,-294.921875,41.015625,-144.04296875,-114.2578125,0.0
1734414430.4562433,75.68359375,187.98828125,21.97265625,-20.01953125,0.0
1734414430.4601495,300.29296875,-359.375,-115.234375,44.921875,0.0
1734414430.4640558,39.0625,-207.51953125,-45.41015625,-18.06640625,0.0
1734414430.4679618,-306.15234375,296.875,118.65234375,-95.21484375,0.0
1734414430.4730928,-304.19921875,-53.7109375,0.0,-89.35546875,0.0
1734414430.476999,17.08984375,-172.8515625,0.0,-11.23046875,0.0
1734414430.4809053,290.0390625,335.44921875,0.0,58.10546875,0.0
1734414430.4848113,120.1171875,561.5234375,0.0,25.87890625,0.0
1734414430.4887176,-252.9296875,43.45703125,0.0,-64.453125,0.0
1734414430.4926238,-332.03125,-535.64453125,0.0,-86.42578125,0.0
1734414430.49653,-15.625,-327.63671875,0.0,-29.78515625,0.0
1734414430.500436,291.9921875,408.69140625,0.0,41.50390625,0.0
1734414430.5043423,180.6640625,82.03125,0.0,50.29296875,0.0
1734414430.5082486,-193.84765625,-819.82421875,0.0,-25.87890625,0.0
1734414430.5121546,-326.171875,-224.609375,0.0,-78.61328125,0.0
1734414430.5160608,-56.15234375,258.30078125,0.0,-16.11328125,0.0
1734414430.5208306,0.0,9.765625,80.078125,61.5234375,0.0
1734414430.5247366,0.0,155.2734375,67.3828125,48.828125,0.0
1734414430.528643,0.0,377.44140625,92.7734375,-35.64453125,0.0
1734414430.5325491,0.0,172.36328125,-20.5078125,-81.54296875,0.0
1734414430.5364552,0.0,-132.32421875,-159.66796875,-31.25,0.0
1734414430.5403614,0.0,-144.04296875,-36.1328125,45.41015625,0.0
1734414430.5442677,0.0,13.671875,35.15625,42.48046875,0.0
1734414430.548174,0.0,84.9609375,-9.765625,-57.6171875,0.0
1734414430.55208,0.0,-481.93359375,-299.8046875,-93.75,0.0
1734414430.5559862,0.0,-493.1640625,-230.46875,-51.7578125,0.0
1734414430.5598924,0.0,436.5234375,198.73046875,20.99609375,0.0
1734414430.5637984,0.0,446.2890625,47.8515625,46.38671875,0.0
1734414430.5682292,-114.2578125,76.66015625,0.0,-44.921875,0.0
1734414430.5721352,-371.58203125,109.375,0.0,-118.65234375,0.0
1734414430.5760415,-214.84375,218.26171875,0.0,-100.5859375,0.0
1734414430.5799477,177.24609375,75.1953125,0.0,-6.8359375,0.0
1734414430.583854,302.734375,61.03515625,0.0,44.921875,0.0
1734414430.58776,-40.52734375,22.4609375,0.0,-19.53125,0.0
1734414430.5916662,-347.65625,-80.078125,0.0,-110.83984375,0.0
1734414430.5955725,-246.58203125,-361.328125,0.0,-104.00390625,0.0
1734414430.5994785,150.390625,-659.1796875,0.0,1.46484375,0.0
1734414430.6033847,310.546875,-73.2421875,0.0,43.9453125,0.0
1734414430.607291,0.9765625,241.2109375,0.0,-27.83203125,0.0
1734414430.6111972,-315.4296875,-26.3671875,0.0,-93.75,0.0
1734414430.615155,-272.94921875,-89.84375,-255.37109375,-99.609375,0.0
1734414430.6190612,97.65625,341.796875,50.29296875,-19.53125,0.0
1734414430.6229672,305.17578125,513.18359375,101.07421875,54.19921875,0.0
1734414430.6268735,27.34375,273.92578125,-25.390625,-5.859375,0.0
1734414430.6307797,-286.1328125,78.125,-68.359375,-97.16796875,0.0
1734414430.634686,-276.85546875,-197.265625,-308.59375,-105.46875,0.0
1734414430.638592,43.9453125,-194.82421875,-219.7265625,-41.50390625,0.0
1734414430.6424983,289.55078125,-560.546875,-336.42578125,27.83203125,0.0
1734414430.6464045,90.33203125,-602.5390625,-325.1953125,-2.44140625,0.0
1734414430.6503108,-259.765625,284.1796875,75.68359375,-97.65625,0.0
1734414430.6542168,-313.96484375,142.578125,-209.47265625,-106.4453125,0.0
1734414430.658123,6.8359375,-90.33203125,-177.24609375,-33.69140625,0.0
1734414430.6623769,296.38671875,391.11328125,0.0,38.57421875,0.0
1734414430.6662831,143.06640625,679.19921875,0.0,12.20703125,0.0
1734414430.6701894,-243.1640625,180.6640625,0.0,-72.75390625,0.0
1734414430.6740956,-326.171875,-186.5234375,0.0,-97.65625,0.0
1734414430.6780016,-22.4609375,35.15625,0.0,-48.828125,0.0
1734414430.681908,290.0390625,83.49609375,0.0,30.2734375,0.0
1734414430.6858141,174.8046875,-271.484375,0.0,39.0625,0.0
1734414430.6897202,-222.65625,-687.98828125,0.0,-38.57421875,0.0
1734414430.6936264,-355.46875,-117.1875,0.0,-85.44921875,0.0
1734414430.6975327,-89.35546875,-41.50390625,0.0,-59.08203125,0.0
1734414430.701439,268.06640625,-298.33984375,0.0,0.48828125,0.0
1734414430.705345,223.6328125,120.60546875,0.0,11.23046875,0.0
1734414430.7081792,-189.94140625,416.50390625,75.1953125,-59.5703125,0.0
1734414430.7120855,-369.62890625,243.65234375,-128.41796875,-104.98046875,0.0
1734414430.7159915,-128.90625,-187.01171875,-341.796875,-75.1953125,0.0
1734414430.7198977,237.79296875,105.46875,-24.90234375,1.953125,0.0
1734414430.723804,262.20703125,502.44140625,53.22265625,40.52734375,0.0
1734414430.72771,-132.32421875,111.328125,-101.07421875,-40.0390625,0.0
1734414430.7316163,-375.0,-601.07421875,-383.30078125,-113.76953125,0.0
1734414430.7355225,-203.125,-613.28125,-444.3359375,-98.14453125,0.0
1734414430.7394288,203.61328125,293.9453125,37.59765625,-25.390625,0.0
1734414430.7433348,312.01171875,470.703125,21.97265625,28.80859375,0.0
1734414430.747241,-58.59375,42.48046875,-129.8828125,-21.97265625,0.0
1734414430.7511473,-339.84375,25.390625,-147.4609375,-95.21484375,0.0
1734414430.7539823,-215.33203125,162.59765625,-229.98046875,-83.0078125,0.0
1734414430.7578886,178.22265625,-62.5,-222.16796875,15.625,0.0
1734414430.7617948,322.75390625,32.2265625,-149.4140625,48.828125,0.0
1734414430.765701,-32.2265625,375.48828125,65.4296875,-26.85546875,0.0
1734414430.769607,-343.26171875,353.515625,42.48046875,-94.23828125,0.0
1734414430.7735133,-255.37109375,-383.30078125,-434.08203125,-75.68359375,0.0
1734414430.7774196,132.32421875,-621.58203125,-390.625,13.18359375,0.0
1734414430.7813256,326.66015625,291.9921875,41.9921875,46.38671875,0.0
1734414430.7852318,15.13671875,585.9375,69.82421875,-15.625,0.0
1734414430.789138,-328.125,-159.1796875,-171.38671875,-66.89453125,0.0
1734414430.7930443,-297.36328125,-499.0234375,-387.20703125,-62.98828125,0.0
1734414430.7969503,76.66015625,164.55078125,-81.0546875,-12.6953125,0.0
1734414430.8020775,0.0,492.67578125,56.15234375,43.9453125,0.0
1734414430.8059835,0.0,238.76953125,-92.28515625,13.671875,0.0
1734414430.8098898,0.0,83.49609375,-63.4765625,-46.875,0.0
1734414430.813796,0.0,168.45703125,-149.4140625,-69.82421875,0.0
1734414430.8177023,0.0,-4.8828125,-216.30859375,-0.9765625,0.0
1734414430.8216083,0.0,-261.71875,-257.32421875,69.82421875,0.0
1734414430.8255146,0.0,-100.09765625,-193.359375,14.16015625,0.0
1734414430.8294208,0.0,227.05078125,-17.578125,-73.2421875,0.0
1734414430.8333268,0.0,67.3828125,-242.1875,-101.07421875,0.0
1734414430.837233,0.0,-503.41796875,-338.8671875,-20.99609375,0.0
1734414430.8411393,0.0,-96.19140625,-25.390625,56.15234375,0.0
1734414430.8450456,0.0,606.4453125,126.953125,19.53125,0.0
1734414430.8498123,-234.86328125,155.76171875,-85.44921875,-61.03515625,0.0
1734414430.8537185,-341.30859375,-276.3671875,-355.95703125,-83.49609375,0.0
1734414430.8576248,-44.43359375,44.921875,-132.32421875,-24.90234375,0.0
1734414430.861531,304.6875,514.6484375,150.390625,29.296875,0.0
1734414430.865437,216.796875,280.2734375,-100.09765625,27.34375,0.0
1734414430.8693433,-199.70703125,-450.1953125,-400.87890625,-31.25,0.0
1734414430.8732495,-336.42578125,-386.71875,-326.171875,-60.546875,0.0
1734414430.8771555,-61.03515625,-62.01171875,-179.6875,-21.484375,0.0
1734414430.8810618,296.38671875,-290.0390625,-242.67578125,38.0859375,0.0
1734414430.884968,258.7890625,-694.82421875,-430.17578125,50.29296875,0.0
1734414430.8888743,-156.73828125,-155.76171875,-88.37890625,-46.38671875,0.0
1734414430.8927803,-345.21484375,185.05859375,-80.078125,-103.515625,0.0
1734414430.8969178,0.0,-149.4140625,-285.64453125,-62.01171875,0.0
1734414430.9008238,0.0,167.48046875,21.484375,26.3671875,0.0
1734414430.90473,0.0,595.21484375,127.44140625,61.03515625,0.0
1734414430.9086363,0.0,398.4375,10.25390625,-22.94921875,0.0
1734414430.9125426,0.0,-112.3046875,-217.7734375,-91.30859375,0.0
1734414430.9164486,0.0,-433.10546875,-380.37109375,-72.265625,0.0
1734414430.9203548,0.0,-120.60546875,-73.2421875,7.8125,0.0
1734414430.924261,0.0,331.0546875,47.8515625,30.2734375,0.0
1734414430.9281673,0.0,-387.6953125,-311.03515625,-35.15625,0.0
1734414430.9320734,0.0,-563.96484375,-343.26171875,-116.2109375,0.0
1734414430.9359796,0.0,-45.8984375,-253.90625,-93.75,0.0
1734414430.9398859,0.0,-119.140625,-113.76953125,8.30078125,0.0
1734414430.9438062,310.546875,100.09765625,0.0,35.64453125,0.0
1734414430.9477122,-7.8125,323.73046875,0.0,-31.73828125,0.0
1734414430.9516184,-325.1953125,214.35546875,0.0,-95.703125,0.0
1734414430.9555247,-255.37109375,-154.78515625,0.0,-70.3125,0.0
1734414430.959431,123.53515625,-141.6015625,0.0,4.39453125,0.0
1734414430.963337,314.94140625,50.78125,0.0,50.29296875,0.0
1734414430.9672432,18.06640625,-81.54296875,0.0,-13.671875,0.0
1734414430.9711494,-315.4296875,-530.2734375,0.0,-101.5625,0.0
1734414430.9750555,-285.64453125,-755.859375,0.0,-85.9375,0.0
1734414430.9789617,67.3828125,-269.53125,0.0,3.90625,0.0
1734414430.982868,319.82421875,200.68359375,0.0,56.640625,0.0
1734414430.9867742,74.70703125,163.57421875,0.0,9.765625,0.0
1734414430.9905176,0.0,13.671875,-61.03515625,-66.40625,0.0
1734414430.9944239,0.0,21.97265625,-120.1171875,-84.47265625,0.0
1734414430.9983299,0.0,-168.45703125,-210.44921875,-32.2265625,0.0
1734414431.0022361,0.0,38.0859375,20.5078125,28.80859375,0.0
1734414431.0061424,0.0,328.125,116.69921875,-10.25390625,0.0
1734414431.0100486,0.0,-33.203125,-126.953125,-96.6796875,0.0
1734414431.0139546,0.0,-315.91796875,-324.21875,-99.12109375,0.0
1734414431.017861,0.0,-613.28125,-363.76953125,-14.6484375,0.0
1734414431.0217671,0.0,-342.7734375,-180.6640625,48.33984375,0.0
1734414431.0256734,0.0,540.0390625,141.6015625,6.8359375,0.0
1734414431.0295794,0.0,246.58203125,-18.5546875,-76.66015625,0.0
1734414431.0334857,0.0,-158.203125,-250.48828125,-110.83984375,0.0
1734414431.0367723,-43.9453125,185.546875,0.0,-51.26953125,0.0
1734414431.0406785,252.44140625,620.1171875,0.0,46.875,0.0
1734414431.0445848,197.75390625,418.9453125,0.0,49.8046875,0.0
1734414431.048491,-185.05859375,34.1796875,0.0,-66.40625,0.0
1734414431.052397,-343.75,95.21484375,0.0,-128.90625,0.0
1734414431.0563033,-93.26171875,-40.52734375,0.0,-65.4296875,0.0
1734414431.0602095,253.41796875,-378.41796875,0.0,19.04296875,0.0
1734414431.0641155,234.86328125,-571.77734375,0.0,43.45703125,0.0
1734414431.0680218,-137.6953125,17.08984375,0.0,-49.8046875,0.0
1734414431.071928,-332.51953125,-55.17578125,0.0,-117.1875,0.0
1734414431.0758343,-147.4609375,-401.85546875,0.0,-55.17578125,0.0
1734414431.0797403,206.0546875,118.65234375,0.0,26.85546875,0.0
1734414431.0829127,244.140625,583.49609375,122.55859375,25.390625,0.0
1734414431.0868187,-127.44140625,432.12890625,43.45703125,-48.828125,0.0
1734414431.090725,-348.14453125,-61.5234375,-137.6953125,-103.02734375,0.0
1734414431.0946312,-194.82421875,-28.3203125,-148.4375,-81.0546875,0.0
1734414431.0985374,177.734375,367.67578125,97.16796875,8.7890625,0.0
1734414431.1024435,276.3671875,234.375,0.48828125,55.17578125,0.0
1734414431.1063497,-84.47265625,-527.34375,-336.9140625,-18.5546875,0.0
1734414431.110256,-346.19140625,-682.6171875,-382.32421875,-92.7734375,0.0
1734414431.114162,-225.5859375,-111.81640625,-213.8671875,-91.796875,0.0
1734414431.1180682,125.9765625,125.9765625,-18.5546875,-7.8125,0.0
1734414431.1219745,274.90234375,211.42578125,47.36328125,46.38671875,0.0
1734414431.1258807,-40.52734375,323.2421875,54.6875,-28.80859375,0.0
1734414431.1315427,0.0,349.12109375,0.0,-110.83984375,0.0
1734414431.135449,0.0,47.36328125,0.0,-95.703125,0.0
1734414431.139355,0.0,-51.7578125,0.0,-3.90625,0.0
1734414431.1432612,0.0,390.625,0.0,55.17578125,0.0
1734414431.1471674,0.0,490.72265625,0.0,-7.8125,0.0
1734414431.1510737,0.0,-302.734375,0.0,-91.30859375,0.0
1734414431.1549797,0.0,-706.0546875,0.0,-83.0078125,0.0
1734414431.158886,0.0,74.21875,0.0,-17.578125,0.0
1734414431.1627922,0.0,464.84375,0.0,20.5078125,0.0
1734414431.1666985,0.0,-96.19140625,0.0,-12.6953125,0.0
1734414431.1706045,0.0,-321.2890625,0.0,-80.078125,0.0
1734414431.1745107,0.0,-180.6640625,0.0,-94.7265625,0.0
1734414431.1720288,19.53125,-141.11328125,99.609375,0.0,0.0
1734414431.1759348,295.41015625,66.89453125,-131.8359375,0.0,0.0
1734414431.179841,125.9765625,195.3125,-114.74609375,0.0,0.0
1734414431.1837473,-225.09765625,266.6015625,83.49609375,0.0,0.0
1734414431.1876533,-284.66796875,148.4375,89.35546875,0.0,0.0
1734414431.1915596,-33.203125,-265.13671875,-241.2109375,0.0,0.0
1734414431.1954658,250.0,-164.0625,-486.328125,0.0,0.0
1734414431.1993718,145.99609375,398.92578125,19.04296875,0.0,0.0
1734414431.203278,-224.609375,272.4609375,113.28125,0.0,0.0
1734414431.2071843,-335.9375,-523.92578125,-128.41796875,0.0,0.0
1734414431.2110903,-86.9140625,-454.58984375,-91.796875,0.0,0.0
1734414431.2149966,241.2109375,418.45703125,-218.26171875,0.0,0.0
1734414431.220274,221.19140625,319.82421875,9.765625,41.015625,0.0
1734414431.2241802,-140.625,-69.3359375,-114.2578125,-47.8515625,0.0
1734414431.2280865,-317.87109375,-171.875,-187.01171875,-113.76953125,0.0
1734414431.2319925,-131.34765625,45.8984375,-102.5390625,-73.2421875,0.0
1734414431.2358987,217.7734375,173.828125,31.73828125,23.4375,0.0
1734414431.239805,242.67578125,-192.87109375,-250.48828125,45.8984375,0.0
1734414431.243711,-133.7890625,-167.48046875,-148.4375,-45.41015625,0.0
1734414431.2476172,-335.9375,240.234375,78.61328125,-107.91015625,0.0
1734414431.2515235,-161.62109375,-207.03125,-262.6953125,-66.40625,0.0
1734414431.2554295,203.61328125,-770.01953125,-412.109375,35.15625,0.0
1734414431.2593358,274.90234375,27.34375,-12.20703125,59.08203125,0.0
1734414431.263242,-76.66015625,331.54296875,92.28515625,-27.83203125,0.0
1734414431.2680018,-316.40625,-103.02734375,-132.32421875,-104.98046875,0.0
1734414431.271908,-184.08203125,-77.1484375,-174.31640625,-75.68359375,0.0
1734414431.275814,174.8046875,330.56640625,93.26171875,10.25390625,0.0
1734414431.2797203,286.62109375,437.5,60.546875,30.76171875,0.0
1734414431.2836266,-35.15625,19.04296875,-112.79296875,-49.31640625,0.0
1734414431.2875326,-291.50390625,-334.9609375,-248.046875,-84.47265625,0.0
1734414431.2914388,-206.0546875,-400.390625,-352.5390625,-63.4765625,0.0
1734414431.295345,130.37109375,-169.43359375,-107.421875,-5.37109375,0.0
1734414431.2992513,289.0625,-457.03125,-228.02734375,53.22265625,0.0
1734414431.3031573,-3.90625,-455.078125,-215.33203125,-4.39453125,0.0
1734414431.3070636,-295.8984375,240.234375,91.30859375,-94.23828125,0.0
1734414431.3109698,-247.0703125,76.66015625,-176.7578125,-99.609375,0.0
1734414431.3152688,87.890625,-54.19921875,-117.67578125,-22.4609375,0.0
1734414431.319175,274.90234375,377.44140625,98.6328125,26.85546875,0.0
1734414431.3230813,6.34765625,473.6328125,96.19140625,-36.1328125,0.0
1734414431.3269873,-304.6875,31.25,-40.52734375,-110.83984375,0.0
1734414431.3308935,-284.1796875,-149.90234375,-262.20703125,-100.09765625,0.0
1734414431.3347998,40.0390625,-98.14453125,-190.91796875,-27.34375,0.0
1734414431.3387058,277.34375,-36.62109375,-26.3671875,31.25,0.0
1734414431.342612,74.70703125,-281.73828125,-229.4921875,1.953125,0.0
1734414431.3465183,-281.73828125,-833.0078125,-464.35546875,-63.96484375,0.0
1734414431.3504245,-311.03515625,-486.328125,-305.6640625,-96.6796875,0.0
1734414431.3543305,6.8359375,0.9765625,-103.02734375,-40.52734375,0.0
1734414431.3582368,289.0625,138.671875,46.38671875,44.921875,0.0
1734414431.3623302,131.34765625,224.12109375,41.015625,28.3203125,0.0
1734414431.3662362,-234.375,334.47265625,76.66015625,-76.66015625,0.0
1734414431.3701425,-313.4765625,224.609375,-52.24609375,-120.60546875,0.0
1734414431.3740487,-36.1328125,-16.6015625,-164.0625,-43.45703125,0.0
1734414431.3779547,269.04296875,188.96484375,-6.34765625,37.59765625,0.0
1734414431.381861,173.33984375,112.79296875,-92.28515625,9.765625,0.0
1734414431.3857672,-200.1953125,-200.68359375,-186.5234375,-75.68359375,0.0
1734414431.3896732,-326.171875,-599.12109375,-365.234375,-85.9375,0.0
1734414431.3935795,-79.1015625,-504.8828125,-288.0859375,-40.0390625,0.0
1734414431.3974857,236.328125,403.80859375,149.90234375,23.92578125,0.0
1734414431.401392,204.58984375,427.24609375,33.203125,42.48046875,0.0
1734414431.405298,-169.921875,-157.71484375,-152.34375,-50.78125,0.0
1734414431.4091113,-331.54296875,-120.60546875,-164.55078125,-107.91015625,0.0
1734414431.4130175,-123.046875,292.48046875,-9.27734375,-54.19921875,0.0
1734414431.4169238,214.35546875,186.03515625,28.80859375,26.3671875,0.0
1734414431.4208298,237.3046875,105.46875,-44.921875,38.0859375,0.0
1734414431.424736,-136.23046875,280.2734375,62.01171875,-47.36328125,0.0
1734414431.4286423,-342.28515625,39.0625,-83.49609375,-106.4453125,0.0
1734414431.4325485,-175.78125,-520.01953125,-423.828125,-68.359375,0.0
1734414431.4364545,170.8984375,-619.140625,-341.796875,9.765625,0.0
1734414431.4403608,222.16796875,103.515625,7.32421875,20.01953125,0.0
1734414431.444267,-125.48828125,43.9453125,-19.53125,-35.64453125,0.0
1734414431.448173,-336.9140625,-317.87109375,-161.62109375,-88.37890625,0.0
1734414431.4520793,-229.98046875,-43.45703125,-133.7890625,-90.33203125,0.0
1734414431.4555776,125.0,388.18359375,105.95703125,-4.8828125,0.0
1734414431.4594836,282.71484375,478.515625,79.58984375,31.25,0.0
1734414431.4633899,-28.3203125,-29.78515625,-139.16015625,-33.69140625,0.0
1734414431.4672961,-328.61328125,-203.125,-210.44921875,-94.7265625,0.0
1734414431.4712021,-248.53515625,103.02734375,-131.34765625,-95.703125,0.0
1734414431.4751084,122.0703125,13.671875,-76.171875,-15.13671875,0.0
1734414431.4790146,288.0859375,-519.53125,-273.92578125,46.38671875,0.0
1734414431.482921,-17.578125,-382.8125,-168.45703125,-30.76171875,0.0
1734414431.486827,-304.6875,334.47265625,97.65625,-118.1640625,0.0
1734414431.4907331,-259.27734375,190.4296875,-62.01171875,-102.5390625,0.0
1734414431.4946394,56.640625,-243.1640625,-154.296875,-11.23046875,0.0
1734414431.4985454,277.83203125,85.9375,-6.34765625,44.43359375,0.0
1734414431.501816,44.43359375,508.30078125,140.13671875,-4.39453125,0.0
1734414431.505722,-282.2265625,134.765625,-23.4375,-81.0546875,0.0
1734414431.5096283,-290.52734375,-122.55859375,-220.21484375,-90.8203125,0.0
1734414431.5135345,30.76171875,209.9609375,3.41796875,-21.97265625,0.0
1734414431.5174406,267.578125,462.40234375,118.1640625,34.66796875,0.0
1734414431.5213468,54.6875,-79.58984375,-217.28515625,16.6015625,0.0
1734414431.525253,-272.4609375,-761.23046875,-426.26953125,-69.82421875,0.0
1734414431.5291593,-324.70703125,-304.6875,-209.47265625,-124.51171875,0.0
1734414431.5330653,-21.484375,311.5234375,54.6875,-53.22265625,0.0
1734414431.5369716,268.06640625,-13.671875,-58.59375,40.52734375,0.0
1734414431.5408778,143.06640625,-194.82421875,-138.671875,22.4609375,0.0
1734414431.5447838,-230.95703125,290.52734375,71.77734375,-67.87109375,0.0
1734414431.550723,-347.16796875,324.70703125,0.0,0.0,0.0
1734414431.5546293,-90.8203125,-24.90234375,0.0,0.0,0.0
1734414431.5585353,220.703125,108.88671875,0.0,0.0,0.0
1734414431.5624416,158.203125,421.38671875,0.0,0.0,0.0
1734414431.5663478,-208.984375,309.5703125,0.0,0.0,0.0
1734414431.570254,-348.14453125,-254.39453125,0.0,0.0,0.0
1734414431.57416,-104.98046875,-411.1328125,0.0,0.0,0.0
1734414431.5780663,234.86328125,261.71875,0.0,0.0,0.0
1734414431.5819726,239.74609375,347.65625,0.0,0.0,0.0
1734414431.5858786,-113.28125,-408.69140625,0.0,0.0,0.0
1734414431.5897849,-306.640625,-411.62109375,0.0,0.0,0.0
1734414431.593691,-142.578125,63.4765625,0.0,0.0,0.0
1734414431.5914404,0.0,87.40234375,23.92578125,24.90234375,0.0
1734414431.5953465,0.0,19.04296875,-114.74609375,44.43359375,0.0
1734414431.5992527,0.0,223.6328125,-11.23046875,-51.7578125,0.0
1734414431.603159,0.0,334.47265625,113.76953125,-119.140625,0.0
1734414431.607065,0.0,-30.2734375,32.2265625,-74.21875,0.0
1734414431.6109712,0.0,-391.11328125,-242.67578125,21.484375,0.0
1734414431.6148775,0.0,-112.3046875,-258.30078125,51.7578125,0.0
1734414431.6187835,0.0,349.609375,85.44921875,-27.83203125,0.0
1734414431.6226897,0.0,-130.37109375,27.34375,-91.796875,0.0
1734414431.626596,0.0,-920.8984375,-233.3984375,-62.98828125,0.0
1734414431.630502,0.0,-229.00390625,-200.68359375,0.0,0.0
1734414431.6344082,0.0,400.390625,-83.984375,34.1796875,0.0
1734414431.6402197,-23.4375,27.83203125,-96.19140625,0.0,0.0
1734414431.6441257,-310.05859375,-14.6484375,-69.82421875,0.0,0.0
1734414431.648032,-251.46484375,215.8203125,-31.73828125,0.0,0.0
1734414431.6519382,109.86328125,214.84375,55.17578125,0.0,0.0
1734414431.6558442,304.6875,95.703125,-22.94921875,0.0,0.0
1734414431.6597505,32.2265625,-129.39453125,-148.4375,0.0,0.0
1734414431.6636567,-279.78515625,-204.58984375,-122.0703125,0.0,0.0
1734414431.6675627,-262.20703125,33.69140625,-195.80078125,0.0,0.0
1734414431.671469,62.5,-473.14453125,-356.93359375,0.0,0.0
1734414431.6753752,280.2734375,-415.0390625,-177.24609375,0.0,0.0
1734414431.6792812,69.3359375,433.59375,148.92578125,0.0,0.0
1734414431.6831875,-261.71875,189.94140625,-1.953125,0.0,0.0
1734414431.6808395,-299.8046875,-143.5546875,-228.02734375,-23.4375,0.0
1734414431.6847458,14.16015625,112.3046875,-37.59765625,-103.02734375,0.0
1734414431.6886518,292.48046875,390.13671875,121.58203125,-93.26171875,0.0
1734414431.692558,120.1171875,90.8203125,-94.23828125,-7.32421875,0.0
1734414431.696464,-234.375,-209.9609375,-189.94140625,48.828125,0.0
1734414431.7003703,-299.8046875,-302.24609375,-263.671875,-13.18359375,0.0
1734414431.7042766,-28.3203125,-161.1328125,-125.0,-89.35546875,0.0
1734414431.7081826,262.20703125,-194.82421875,-142.578125,-89.35546875,0.0
1734414431.7120888,149.90234375,-600.5859375,-412.59765625,-11.71875,0.0
1734414431.715995,-217.28515625,-285.64453125,-111.328125,40.0390625,0.0
1734414431.719901,-326.171875,-104.4921875,-182.12890625,-8.7890625,0.0
1734414431.7238073,-90.33203125,-139.6484375,-255.37109375,-79.1015625,0.0
1734414431.7296255,237.79296875,43.9453125,4.39453125,12.6953125,0.0
1734414431.7335317,201.171875,430.17578125,107.421875,19.04296875,0.0
1734414431.737438,-170.41015625,328.125,34.66796875,-60.546875,0.0
1734414431.741344,-337.890625,-58.10546875,-172.36328125,-100.09765625,0.0
1734414431.7452502,-124.0234375,-59.5703125,-191.40625,-34.1796875,0.0
1734414431.7491562,232.421875,-61.03515625,-34.1796875,39.0625,0.0
1734414431.7530625,232.91015625,-141.6015625,-100.5859375,42.96875,0.0
1734414431.7569687,-145.5078125,-607.91015625,-361.81640625,-48.33984375,0.0
1734414431.7608747,-352.05078125,-572.75390625,-360.83984375,-125.48828125,0.0
1734414431.764781,-176.26953125,204.58984375,-48.828125,-93.26171875,0.0
1734414431.7686872,170.8984375,162.109375,27.83203125,3.41796875,0.0
1734414431.7725933,231.4453125,19.04296875,-40.0390625,25.87890625,0.0
1734414431.7777786,0.0,232.91015625,50.78125,-53.7109375,0.0
1734414431.7816849,0.0,311.5234375,56.15234375,-96.19140625,0.0
1734414431.7855911,0.0,-25.87890625,-163.0859375,-41.015625,0.0
1734414431.7894971,0.0,-125.48828125,-97.65625,39.0625,0.0
1734414431.7934034,0.0,212.40234375,31.73828125,50.29296875,0.0
1734414431.7973096,0.0,36.62109375,-83.49609375,-27.83203125,0.0
1734414431.8012156,0.0,-539.0625,-331.54296875,-99.12109375,0.0
1734414431.805122,0.0,-780.2734375,-534.66796875,-81.0546875,0.0
1734414431.8090281,0.0,-73.2421875,-43.9453125,-8.7890625,0.0
1734414431.8129342,0.0,121.09375,34.66796875,38.57421875,0.0
1734414431.8168404,0.0,-271.97265625,-182.6171875,-11.23046875,0.0
1734414431.8207467,0.0,-162.109375,-72.265625,-96.6796875,0.0
1734414431.8253534,-272.4609375,171.38671875,-13.671875,-96.6796875,0.0
1734414431.8292594,80.56640625,216.796875,50.29296875,-14.16015625,0.0
1734414431.8331656,307.12890625,80.078125,-26.3671875,44.43359375,0.0
1734414431.837072,40.0390625,212.40234375,23.92578125,-5.37109375,0.0
1734414431.840978,-291.9921875,248.53515625,29.296875,-86.42578125,0.0
1734414431.8448842,-288.0859375,-91.30859375,-228.515625,-91.796875,0.0
1734414431.8487904,22.94921875,-689.94140625,-417.48046875,-15.625,0.0
1734414431.8526964,267.08984375,-496.09375,-245.60546875,37.109375,0.0
1734414431.8566027,77.1484375,370.60546875,132.32421875,-21.97265625,0.0
1734414431.860509,-259.27734375,198.2421875,-4.39453125,-79.1015625,0.0
1734414431.864415,-301.26953125,-142.08984375,-193.84765625,-90.33203125,0.0
1734414431.8683212,-15.13671875,96.19140625,-7.32421875,-50.78125,0.0
1734414431.8727443,277.83203125,195.80078125,43.9453125,45.41015625,0.0
1734414431.8766506,165.52734375,-86.42578125,-145.01953125,44.43359375,0.0
1734414431.8805568,-209.47265625,-151.85546875,-119.140625,-59.5703125,0.0
1734414431.8844628,-308.59375,131.34765625,0.0,-104.00390625,0.0
1734414431.888369,-40.52734375,233.3984375,34.1796875,-47.36328125,0.0
1734414431.8922753,266.6015625,-249.0234375,-172.8515625,35.15625,0.0
1734414431.8961813,186.03515625,-532.71484375,-313.96484375,21.484375,0.0
1734414431.9000876,-197.75390625,51.26953125,6.34765625,-74.70703125,0.0
1734414431.9039938,-335.9375,311.5234375,24.90234375,-112.3046875,0.0
1734414431.9078999,-70.80078125,-291.015625,-237.79296875,-66.89453125,0.0
1734414431.911806,262.20703125,-271.97265625,-113.28125,16.6015625,0.0
1734414431.9157124,231.93359375,437.01171875,104.00390625,25.87890625,0.0
1734414431.9223542,0.0,348.6328125,0.0,0.0,0.0
1734414431.9262605,0.0,-84.9609375,0.0,0.0,0.0
1734414431.9301667,0.0,-62.5,0.0,0.0,0.0
1734414431.9340727,0.0,187.5,0.0,0.0,0.0
1734414431.937979,0.0,105.46875,0.0,0.0,0.0
1734414431.9418852,0.0,-441.89453125,0.0,0.0,0.0
1734414431.9457912,0.0,-508.30078125,0.0,0.0,0.0
1734414431.9496975,0.0,114.2578125,0.0,0.0,0.0
1734414431.9536037,0.0,201.66015625,0.0,0.0,0.0
1734414431.9575098,0.0,-107.91015625,0.0,0.0,0.0
1734414431.961416,0.0,16.11328125,0.0,0.0,0.0
1734414431.9653223,0.0,312.98828125,0.0,0.0,0.0
1734414431.9709845,-229.4921875,-4.8828125,-155.76171875,-82.03125,0.0
1734414431.9748905,133.30078125,-151.85546875,-95.703125,0.9765625,0.0
1734414431.9787967,275.87890625,300.29296875,73.2421875,37.109375,0.0
1734414431.982703,-20.99609375,466.796875,97.65625,-11.23046875,0.0
1734414431.986609,-294.43359375,3.41796875,-128.41796875,-76.66015625,0.0
1734414431.9905152,-250.9765625,-520.5078125,-445.3125,-84.47265625,0.0
1734414431.9944215,91.30859375,-298.828125,-146.484375,-14.6484375,0.0
1734414431.9983277,294.921875,89.84375,81.0546875,40.52734375,0.0
1734414432.0022337,11.23046875,-265.625,-191.40625,-11.71875,0.0
1734414432.00614,-315.91796875,-806.640625,-430.6640625,-84.47265625,0.0
1734414432.0100462,-291.015625,-279.78515625,-209.47265625,-88.8671875,0.0
1734414432.0139523,64.453125,95.21484375,-18.06640625,-11.23046875,0.0
1734414432.0185032,301.26953125,52.24609375,-7.8125,32.2265625,0.0
1734414432.0224094,64.94140625,212.40234375,33.69140625,-11.23046875,0.0
1734414432.0263157,-279.78515625,344.23828125,71.77734375,-79.1015625,0.0
1734414432.0302217,-300.78125,217.28515625,-54.19921875,-96.6796875,0.0
1734414432.034128,26.85546875,-54.19921875,-133.7890625,-35.15625,0.0
1734414432.0380342,295.41015625,-160.64453125,-98.14453125,21.484375,0.0
1734414432.0419402,86.42578125,14.6484375,24.90234375,-6.34765625,0.0
1734414432.0458465,-273.92578125,185.546875,20.5078125,-72.265625,0.0
1734414432.0497527,-314.94140625,-459.47265625,-355.46875,-91.30859375,0.0
1734414432.053659,-26.3671875,-562.01171875,-272.94921875,-46.38671875,0.0
1734414432.057565,251.46484375,110.83984375,73.2421875,9.765625,0.0
1734414432.0614712,142.578125,172.36328125,19.04296875,2.9296875,0.0
1734414432.0656478,-222.16796875,25.390625,-10.7421875,-79.58984375,0.0
1734414432.0695539,-341.796875,162.109375,4.39453125,-110.83984375,0.0
1734414432.07346,-79.58984375,296.875,72.265625,-50.78125,0.0
1734414432.0773664,236.328125,160.15625,24.90234375,17.08984375,0.0
1734414432.0812726,178.7109375,104.98046875,-72.265625,10.25390625,0.0
1734414432.0851786,-192.87109375,-17.08984375,-41.50390625,-68.84765625,0.0
1734414432.0890849,-341.796875,-210.9375,-169.921875,-120.60546875,0.0
1734414432.092991,-109.86328125,-550.78125,-421.875,-61.03515625,0.0
1734414432.0968971,219.23828125,-626.953125,-286.1328125,30.2734375,0.0
1734414432.1008034,208.984375,-109.86328125,5.859375,14.6484375,0.0
1734414432.1047096,-154.296875,154.78515625,17.08984375,-63.96484375,0.0
1734414432.1086156,-336.42578125,-61.03515625,-105.46875,-102.5390625,0.0
1734414432.1123757,-144.04296875,-159.66796875,-142.08984375,-63.4765625,0.0
1734414432.1162817,203.61328125,132.32421875,78.61328125,16.6015625,0.0
1734414432.120188,263.671875,250.9765625,36.62109375,53.7109375,0.0
1734414432.1240942,-86.42578125,191.40625,58.10546875,-28.3203125,0.0
1734414432.1280003,-286.62109375,102.05078125,19.53125,-94.23828125,0.0
1734414432.1319065,-140.13671875,-171.38671875,-264.16015625,-50.29296875,0.0
1734414432.1358128,185.546875,-120.1171875,-65.91796875,26.3671875,0.0
1734414432.1397188,287.109375,-405.2734375,-187.01171875,62.5,0.0
1734414432.143625,-45.41015625,-491.2109375,-245.60546875,-21.484375,0.0
1734414432.1475313,-312.01171875,271.97265625,102.05078125,-119.62890625,0.0
1734414432.1514375,-219.7265625,44.43359375,-82.51953125,-82.51953125,0.0
1734414432.1553435,152.83203125,-110.3515625,-47.8515625,13.671875,0.0
1734414432.158809,309.08203125,354.4921875,83.0078125,45.8984375,0.0
1734414432.162715,-11.23046875,479.98046875,98.6328125,-12.20703125,0.0
1734414432.1666212,-314.453125,59.5703125,-40.0390625,-89.35546875,0.0
1734414432.1705275,-243.1640625,-184.5703125,-211.9140625,-94.23828125,0.0
1734414432.1744337,91.796875,-79.58984375,-20.01953125,-13.671875,0.0
1734414432.1783397,274.4140625,-43.45703125,27.83203125,36.1328125,0.0
1734414432.182246,29.78515625,-328.61328125,-225.5859375,-1.953125,0.0
1734414432.1861522,-279.78515625,-711.9140625,-389.16015625,-76.171875,0.0
1734414432.1900582,-287.59765625,-202.1484375,-160.15625,-87.40234375,0.0
1734414432.1939645,32.2265625,-98.6328125,-102.05078125,-11.71875,0.0
1734414432.1978707,284.66796875,-230.95703125,-100.5859375,42.48046875,0.0
1734414432.2017767,69.82421875,87.890625,23.92578125,-4.8828125,0.0
1734414432.2050982,-280.2734375,297.8515625,72.265625,-75.1953125,0.0
1734414432.2090044,-307.12890625,198.2421875,0.9765625,-80.56640625,0.0
1734414432.2129104,8.7890625,-72.265625,-47.36328125,-26.3671875,0.0
1734414432.2168167,274.90234375,193.84765625,52.734375,43.45703125,0.0
1734414432.220723,126.46484375,426.26953125,95.21484375,33.69140625,0.0
1734414432.224629,-227.5390625,0.9765625,-13.671875,-57.12890625,0.0
1734414432.2285352,-316.89453125,-625.48828125,-362.79296875,-82.51953125,0.0
1734414432.2324414,-31.25,-767.08984375,-428.7109375,-6.34765625,0.0
1734414432.2363474,290.0390625,32.2265625,4.8828125,52.24609375,0.0
1734414432.2402537,187.5,324.70703125,86.9140625,20.5078125,0.0
1734414432.24416,-207.51953125,27.83203125,1.46484375,-71.2890625,0.0
1734414432.2480662,-333.0078125,124.0234375,24.4140625,-113.76953125,0.0
1734414432.2510796,-74.70703125,249.51171875,64.94140625,-52.24609375,0.0
1734414432.2549858,256.34765625,160.15625,36.1328125,23.92578125,0.0
1734414432.258892,204.58984375,60.546875,-47.8515625,24.90234375,0.0
1734414432.2627983,-166.50390625,236.81640625,60.546875,-50.78125,0.0
1734414432.2667043,-316.40625,262.20703125,58.10546875,-103.515625,0.0
1734414432.2706106,-103.515625,-369.140625,-318.84765625,-52.734375,0.0
1734414432.2745168,214.84375,-593.26171875,-289.55078125,23.4375,0.0
1734414432.2784228,230.95703125,229.4921875,120.60546875,29.78515625,0.0
1734414432.282329,-124.0234375,428.22265625,98.14453125,-39.0625,0.0
1734414432.2862353,-329.1015625,-210.9375,-125.0,-87.40234375,0.0
1734414432.2901413,-170.8984375,-474.609375,-203.61328125,-68.84765625,0.0
1734414432.2940476,172.8515625,78.125,83.49609375,-2.44140625,0.0
1734414432.2995346,254.8828125,471.6796875,115.234375,24.4140625,0.0
1734414432.3034406,-69.3359375,164.0625,17.578125,-41.9921875,0.0
1734414432.3073468,-320.3125,3.41796875,18.06640625,-99.609375,0.0
1734414432.311253,-216.796875,143.5546875,-8.30078125,-67.3828125,0.0
1734414432.315159,144.04296875,288.0859375,103.02734375,28.80859375,0.0
1734414432.3190653,272.94921875,-34.66796875,-75.68359375,80.56640625,0.0
1734414432.3229716,-53.22265625,-159.1796875,-86.9140625,-4.39453125,0.0
1734414432.3268776,-325.1953125,239.74609375,121.09375,-108.3984375,0.0
1734414432.3307838,-239.2578125,162.59765625,-30.2734375,-102.5390625,0.0
1734414432.33469,118.65234375,-413.0859375,-167.48046875,-2.9296875,0.0
1734414432.3385963,283.69140625,-164.55078125,-28.80859375,40.52734375,0.0
1734414432.3425024,-8.7890625,444.82421875,144.53125,-12.6953125,0.0
1734414432.347407,-278.80859375,142.578125,11.23046875,-76.171875,0.0
1734414432.3513134,-250.48828125,-317.3828125,-221.19140625,-95.21484375,0.0
1734414432.3552196,60.546875,-179.6875,-32.2265625,-37.109375,0.0
1734414432.3591256,293.9453125,362.79296875,152.83203125,21.484375,0.0
1734414432.3630319,37.59765625,223.6328125,27.83203125,-28.3203125,0.0
1734414432.366938,-307.6171875,-419.921875,-217.7734375,-99.609375,0.0
1734414432.3708441,-302.24609375,-367.67578125,-255.859375,-93.75,0.0
1734414432.3747504,20.01953125,212.890625,98.6328125,-26.3671875,0.0
1734414432.3786566,266.11328125,0.48828125,-83.984375,41.50390625,0.0
1734414432.3825629,64.453125,-774.4140625,-448.2421875,9.27734375,0.0
1734414432.386469,-264.16015625,-291.9921875,-39.55078125,-84.47265625,0.0
1734414432.3903751,-294.43359375,161.62109375,61.03515625,-104.98046875,0.0
1734414432.3946354,-1.46484375,-139.16015625,-108.3984375,-41.9921875,0.0
1734414432.3985417,257.32421875,85.44921875,7.32421875,23.92578125,0.0
1734414432.402448,122.0703125,442.87109375,119.140625,3.41796875,0.0
1734414432.406354,-217.7734375,265.13671875,61.03515625,-71.77734375,0.0
1734414432.4102602,-311.5234375,-154.296875,-174.8046875,-92.28515625,0.0
1734414432.4141665,-56.15234375,-398.4375,-269.04296875,-40.0390625,0.0
1734414432.4180727,238.76953125,-214.35546875,-52.24609375,35.64453125,0.0
1734414432.4219787,145.5078125,8.7890625,60.546875,35.15625,0.0
1734414432.425885,-222.16796875,-543.45703125,-230.95703125,-47.36328125,0.0
1734414432.4297912,-349.12109375,-567.87109375,-298.33984375,-109.375,0.0
1734414432.4336972,-108.88671875,126.46484375,7.8125,-57.6171875,0.0
1734414432.4376035,219.7265625,26.85546875,34.1796875,23.4375,0.0
1734414432.441645,200.68359375,-49.31640625,0.9765625,20.5078125,0.0
1734414432.4455512,-155.2734375,169.43359375,83.49609375,-45.8984375,0.0
1734414432.4494572,-310.546875,274.90234375,69.82421875,-87.40234375,0.0
1734414432.4533634,-104.4921875,6.8359375,-62.5,-48.828125,0.0
1734414432.4572697,218.26171875,-39.55078125,-5.37109375,21.97265625,0.0
1734414432.4611757,233.3984375,-20.99609375,-23.4375,39.55078125,0.0
1734414432.465082,-126.953125,33.203125,55.6640625,-48.33984375,0.0
1734414432.4689882,-339.84375,-249.0234375,-176.26953125,-117.67578125,0.0
1734414432.4728944,-180.6640625,-742.67578125,-462.890625,-69.3359375,0.0
1734414432.4768004,171.38671875,-225.09765625,-17.578125,19.53125,0.0
1734414432.4807067,270.99609375,205.078125,105.95703125,35.15625,0.0
1734414432.484613,-76.66015625,23.92578125,11.71875,-35.64453125,0.0
1734414432.4881513,-326.66015625,-142.08984375,-18.06640625,-93.26171875,0.0
1734414432.4920576,-211.9140625,213.37890625,43.9453125,-78.61328125,0.0
1734414432.4959636,136.23046875,351.07421875,125.48828125,0.9765625,0.0
1734414432.4998698,278.80859375,229.00390625,54.6875,32.71484375,0.0
1734414432.503776,-27.83203125,230.95703125,65.4296875,-40.52734375,0.0
1734414432.507682,-301.26953125,-34.1796875,-45.41015625,-115.72265625,0.0
1734414432.5115883,-233.88671875,-220.21484375,-230.95703125,-105.46875,0.0
1734414432.5154946,94.7265625,-575.68359375,-321.77734375,-16.6015625,0.0
1734414432.5194008,282.71484375,-409.66796875,-178.7109375,35.64453125,0.0
1734414432.5233068,17.08984375,447.75390625,166.50390625,-29.296875,0.0
1734414432.527213,-295.8984375,206.54296875,12.6953125,-101.5625,0.0
1734414432.5311193,-264.6484375,-245.1171875,-210.44921875,-86.42578125,0.0
1734414432.5346057,65.4296875,64.453125,30.76171875,-16.6015625,0.0
1734414432.5385118,290.52734375,539.55078125,182.12890625,21.97265625,0.0
1734414432.542418,69.3359375,288.57421875,43.45703125,-23.4375,0.0
1734414432.5463243,-272.94921875,-74.21875,1.46484375,-92.7734375,0.0
1734414432.5502303,-302.24609375,75.1953125,-19.53125,-112.79296875,0.0
1734414432.5541365,28.80859375,-15.625,21.484375,-48.33984375,0.0
1734414432.5580428,276.85546875,-267.578125,-83.984375,20.01953125,0.0
1734414432.561949,84.9609375,-506.34765625,-269.04296875,-8.7890625,0.0
1734414432.565855,-252.9296875,-41.9921875,35.64453125,-90.8203125,0.0
1734414432.5697613,-312.98828125,31.25,-62.98828125,-117.1875,0.0
1734414432.5736675,-30.2734375,-339.84375,-219.23828125,-46.875,0.0
1734414432.5775735,288.57421875,132.8125,61.03515625,36.62109375,0.0
1734414432.5806332,181.15234375,583.984375,154.78515625,27.83203125,0.0
1734414432.5845394,-210.9375,362.3046875,84.47265625,-57.6171875,0.0
1734414432.5884457,-316.89453125,-112.3046875,-118.1640625,-101.5625,0.0
1734414432.5923517,-54.19921875,-16.6015625,-37.109375,-44.921875,0.0
1734414432.596258,251.953125,426.26953125,141.6015625,40.0390625,0.0
1734414432.6001642,182.6171875,260.7421875,59.5703125,32.71484375,0.0
1734414432.6040704,-191.89453125,-570.3125,-256.34765625,-62.5,0.0
1734414432.6079764,-339.35546875,-608.3984375,-340.8203125,-111.328125,0.0
1734414432.6118827,-87.890625,200.1953125,47.36328125,-69.3359375,0.0
1734414432.615789,249.0234375,289.0625,111.328125,10.25390625,0.0
1734414432.619695,227.5390625,139.16015625,25.390625,26.3671875,0.0
1734414432.6236012,-126.46484375,166.50390625,64.453125,-54.19921875,0.0
1734414432.6264591,-329.1015625,256.34765625,67.87109375,-117.67578125,0.0
1734414432.6303654,-158.203125,3.41796875,-54.6875,-69.3359375,0.0
1734414432.6342716,192.3828125,-110.3515625,-19.53125,27.83203125,0.0
1734414432.6381776,239.2578125,325.1953125,102.5390625,41.50390625,0.0
1734414432.642084,-91.30859375,283.203125,87.890625,-32.71484375,0.0
1734414432.6459901,-314.94140625,-394.53125,-265.625,-101.5625,0.0
1734414432.6498961,-202.63671875,-874.51171875,-526.85546875,-86.9140625,0.0
1734414432.6538024,152.83203125,-380.859375,-59.08203125,-4.39453125,0.0
1734414432.6577086,278.80859375,280.76171875,153.3203125,28.3203125,0.0
1734414432.6616147,-50.78125,-173.33984375,-118.65234375,-40.0390625,0.0
1734414432.665521,-325.1953125,-416.9921875,-158.203125,-95.21484375,0.0
1734414432.6694272,-219.7265625,162.109375,58.10546875,-82.03125,0.0
1734414432.6748633,125.0,343.26171875,149.4140625,-18.06640625,0.0
1734414432.6787696,274.4140625,214.84375,72.265625,37.59765625,0.0
1734414432.6826756,-21.97265625,125.48828125,60.05859375,-22.4609375,0.0
1734414432.6865819,-334.47265625,200.68359375,84.9609375,-111.328125,0.0
1734414432.690488,-277.34375,157.71484375,-3.90625,-93.75,0.0
1734414432.6943944,79.1015625,-236.328125,-71.77734375,-2.44140625,0.0
1734414432.6983004,286.1328125,-86.42578125,13.18359375,39.0625,0.0
1734414432.7022066,43.45703125,453.125,185.05859375,-18.06640625,0.0
1734414432.7061129,-295.8984375,151.85546875,39.0625,-99.12109375,0.0
1734414432.7100189,-292.96875,-533.69140625,-255.859375,-87.40234375,0.0
1734414432.7139251,43.9453125,-250.48828125,-30.2734375,-9.27734375,0.0
1734414432.7178314,281.25,512.20703125,191.40625,33.203125,0.0
1734414432.7228708,69.3359375,294.921875,43.45703125,-8.7890625,0.0
1734414432.7267768,-286.62109375,-144.53125,-62.5,-97.16796875,0.0
1734414432.730683,-313.4765625,91.30859375,16.6015625,-105.46875,0.0
1734414432.7345893,2.9296875,355.95703125,154.296875,-25.390625,0.0
1734414432.7384956,267.08984375,264.16015625,76.66015625,42.96875,0.0
1734414432.7424016,105.46875,-188.96484375,-131.34765625,16.6015625,0.0
1734414432.7463078,-233.88671875,-237.3046875,-58.10546875,-69.82421875,0.0
1734414432.750214,-299.8046875,239.2578125,104.98046875,-111.81640625,0.0
1734414432.75412,-45.41015625,-118.1640625,-110.83984375,-42.96875,0.0
1734414432.7580264,259.27734375,-726.5625,-322.265625,52.24609375,0.0
1734414432.7619326,195.80078125,41.50390625,65.91796875,44.921875,0.0
1734414432.7658389,-192.3828125,223.14453125,88.37890625,-49.8046875,0.0
1734414432.770246,-337.890625,-298.33984375,-188.4765625,-112.3046875,0.0
1734414432.7741523,-85.44921875,-51.26953125,-28.3203125,-61.03515625,0.0
1734414432.7780585,237.79296875,485.83984375,208.984375,7.32421875,0.0
1734414432.7819645,191.89453125,510.25390625,110.3515625,9.27734375,0.0
1734414432.7858708,-184.08203125,20.01953125,21.484375,-74.70703125,0.0
1734414432.789777,-338.8671875,-354.00390625,-148.4375,-124.0234375,0.0
1734414432.793683,-136.71875,-202.63671875,-132.32421875,-72.265625,0.0
1734414432.7975893,211.42578125,347.16796875,171.38671875,15.625,0.0
1734414432.8014956,235.3515625,-258.7890625,-191.89453125,45.8984375,0.0
1734414432.8054018,-147.4609375,-562.01171875,-214.35546875,-41.50390625,0.0
1734414432.8093078,-341.30859375,203.125,109.86328125,-103.515625,0.0
1734414432.813214,-148.4375,74.70703125,-2.9296875,-57.12890625,0.0
1734414432.8173163,0.0,-20.01953125,55.17578125,31.73828125,0.0
1734414432.8212225,0.0,327.63671875,108.88671875,33.203125,0.0
1734414432.8251288,0.0,178.7109375,72.265625,-69.82421875,0.0
1734414432.8290348,0.0,-347.16796875,-178.22265625,-112.79296875,0.0
1734414432.832941,0.0,-387.6953125,-265.625,-77.1484375,0.0
1734414432.8368473,0.0,-236.328125,1.46484375,0.0,0.0
1734414432.8407533,0.0,76.171875,124.0234375,41.015625,0.0
1734414432.8446596,0.0,-114.2578125,-80.56640625,-27.83203125,0.0
1734414432.8485658,0.0,-770.01953125,-399.4140625,-98.14453125,0.0
1734414432.852472,0.0,-507.8125,-298.33984375,-67.3828125,0.0
1734414432.856378,0.0,-72.75390625,-23.92578125,21.97265625,0.0
1734414432.8602843,0.0,32.2265625,83.984375,54.6875,0.0
1734414432.863923,2.44140625,69.82421875,70.3125,0.0,0.0
1734414432.8678293,-303.7109375,229.00390625,75.68359375,0.0,0.0
1734414432.8717356,-279.78515625,159.66796875,-9.765625,0.0,0.0
1734414432.8756416,62.01171875,43.9453125,94.23828125,0.0,0.0
1734414432.8795478,239.2578125,193.359375,120.1171875,0.0,0.0
1734414432.883454,-13.671875,9.27734375,40.0390625,0.0,0.0
1734414432.88736,-291.9921875,-251.46484375,-14.6484375,0.0,0.0
1734414432.8912663,-296.38671875,-709.47265625,-394.04296875,0.0,0.0
1734414432.8951726,28.80859375,-543.45703125,-196.77734375,0.0,0.0
1734414432.8990788,284.1796875,452.63671875,215.33203125,0.0,0.0
1734414432.9029849,109.375,337.40234375,67.3828125,0.0,0.0
1734414432.906891,-253.90625,-98.14453125,9.27734375,0.0,0.0
1734414432.91327,-314.94140625,107.91015625,25.87890625,-107.421875,0.0
1734414432.9171762,-33.69140625,341.30859375,108.3984375,-37.109375,0.0
1734414432.9210825,270.99609375,257.8125,95.703125,45.8984375,0.0
1734414432.9249887,174.8046875,123.046875,48.33984375,38.57421875,0.0
1734414432.9288948,-241.69921875,201.66015625,80.56640625,-77.1484375,0.0
1734414432.932801,-355.95703125,-40.0390625,-115.234375,-128.90625,0.0
1734414432.9367073,-69.82421875,-503.41796875,-314.94140625,-48.828125,0.0
1734414432.9406135,252.44140625,-597.65625,-226.07421875,40.0390625,0.0
1734414432.9445195,189.453125,78.125,98.6328125,16.11328125,0.0
1734414432.9484258,-214.84375,17.08984375,23.92578125,-66.89453125,0.0
1734414432.952332,-355.46875,-484.375,-222.65625,-97.16796875,0.0
1734414432.9562383,-83.984375,-176.26953125,-40.52734375,-50.29296875,0.0
1734414432.9588664,0.0,441.89453125,188.4765625,31.73828125,0.0
1734414432.9627726,0.0,515.625,110.3515625,47.36328125,0.0
1734414432.9666789,0.0,41.015625,7.8125,-38.57421875,0.0
1734414432.9705849,0.0,8.30078125,0.0,-110.3515625,0.0
1734414432.9744911,0.0,202.63671875,18.06640625,-54.6875,0.0
1734414432.9783974,0.0,3.41796875,41.50390625,44.43359375,0.0
1734414432.9823036,0.0,-71.2890625,-3.41796875,49.31640625,0.0
1734414432.9862096,0.0,138.671875,39.0625,-31.73828125,0.0
1734414432.990116,0.0,260.7421875,73.2421875,-92.7734375,0.0
1734414432.9940221,0.0,170.41015625,-18.5546875,-72.265625,0.0
1734414432.9979281,0.0,-468.75,-184.08203125,4.39453125,0.0
1734414433.0018344,0.0,-258.7890625,-55.17578125,36.62109375,0.0
1734414433.0041163,-58.10546875,243.65234375,121.58203125,-44.43359375,0.0
1734414433.0080223,-334.9609375,-164.55078125,-68.359375,-99.609375,0.0
1734414433.0119286,-202.63671875,-176.7578125,-124.0234375,-65.91796875,0.0
1734414433.0158348,153.80859375,245.1171875,95.21484375,-1.46484375,0.0
1734414433.0197408,296.38671875,503.90625,135.7421875,31.73828125,0.0
1734414433.023647,-4.39453125,-26.3671875,-61.03515625,-11.71875,0.0
1734414433.0275533,-324.70703125,-531.73828125,-223.14453125,-90.8203125,0.0
1734414433.0314596,-278.3203125,-44.43359375,-60.05859375,-103.515625,0.0
1734414433.0353656,104.98046875,361.328125,145.01953125,-19.53125,0.0
1734414433.0392718,315.91796875,-228.515625,-152.83203125,47.36328125,0.0
1734414433.043178,16.11328125,-427.24609375,-230.46875,-6.8359375,0.0
1734414433.047084,-317.3828125,266.11328125,121.09375,-90.33203125,0.0
1734414433.0522554,-286.62109375,333.0078125,47.8515625,-93.75,0.0
1734414433.0561614,75.68359375,-136.23046875,-62.01171875,-18.5546875,0.0
1734414433.0600677,323.2421875,-51.7578125,0.48828125,45.41015625,0.0
1734414433.063974,80.56640625,187.98828125,85.9375,-6.34765625,0.0
1734414433.0678802,-290.52734375,35.15625,26.3671875,-98.6328125,0.0
1734414433.0717862,-317.87109375,-267.578125,-199.70703125,-113.76953125,0.0
1734414433.0756924,22.94921875,-480.46875,-241.2109375,-37.59765625,0.0
1734414433.0795987,299.31640625,109.375,48.828125,30.76171875,0.0
1734414433.083505,110.83984375,390.625,127.44140625,-4.39453125,0.0
1734414433.087411,-257.8125,-331.54296875,-169.43359375,-75.68359375,0.0
1734414433.0913172,-312.5,-312.98828125,-139.16015625,-100.09765625,0.0
1734414433.0952234,-9.27734375,335.9375,134.27734375,-52.24609375,0.0
1734414433.1000273,305.17578125,246.58203125,0.0,26.85546875,0.0
1734414433.1039333,179.19921875,130.37109375,0.0,18.5546875,0.0
1734414433.1078396,-229.4921875,322.75390625,0.0,-59.5703125,0.0
1734414433.1117458,-355.95703125,361.81640625,0.0,-88.37890625,0.0
1734414433.115652,-72.75390625,-9.27734375,0.0,-31.73828125,0.0
1734414433.119558,275.87890625,-349.609375,0.0,48.828125,0.0
1734414433.1234643,223.14453125,-244.62890625,0.0,54.19921875,0.0
1734414433.1273706,-185.546875,92.28515625,0.0,-39.55078125,0.0
1734414433.1312768,-370.60546875,-142.08984375,0.0,-90.8203125,0.0
1734414433.1351829,-113.28125,-879.8828125,0.0,-44.921875,0.0
1734414433.139089,249.0234375,-172.8515625,0.0,20.5078125,0.0
1734414433.1429954,238.28125,499.0234375,0.0,17.578125,0.0
1734414433.1398878,0.0,153.80859375,49.8046875,-48.828125,0.0
1734414433.143794,0.0,42.96875,5.859375,-90.8203125,0.0
1734414433.1477003,0.0,209.47265625,117.1875,-78.125,0.0
1734414433.1516063,0.0,259.765625,63.96484375,-23.4375,0.0
1734414433.1555126,0.0,86.9140625,-83.49609375,0.48828125,0.0
1734414433.1594188,0.0,-168.45703125,-159.1796875,-41.50390625,0.0
1734414433.1633248,0.0,-88.37890625,-90.8203125,-101.07421875,0.0
1734414433.167231,0.0,127.9296875,92.28515625,-85.9375,0.0
1734414433.1711373,0.0,-525.390625,-174.31640625,1.953125,0.0
1734414433.1750433,0.0,-789.55078125,-506.8359375,24.4140625,0.0
1734414433.1789496,0.0,38.57421875,17.08984375,-30.2734375,0.0
1734414433.1828558,0.0,122.55859375,148.4375,-82.03125,0.0
1734414433.180728,-151.3671875,-185.05859375,-181.15234375,0.0,0.0
1734414433.1846342,-366.69921875,99.12109375,41.015625,0.0,0.0
1734414433.1885402,-182.6171875,428.7109375,107.421875,0.0,0.0
1734414433.1924465,185.546875,254.8828125,47.36328125,0.0,0.0
1734414433.1963527,241.69921875,-47.8515625,-14.6484375,0.0,0.0
1734414433.2002587,-112.3046875,-282.71484375,-282.2265625,0.0,0.0
1734414433.204165,-355.46875,-179.6875,-128.90625,0.0,0.0
