timestamps,TP9,AF7,AF8,TP10,Right AUX
1734414808.486584,-548.828125,-612.79296875,-628.90625,-760.25390625,0.0
1734414808.490488,-1000.0,-1000.0,-1000.0,-1000.0,0.0
1734414808.4943924,-176.26953125,-515.13671875,-247.0703125,-20.5078125,0.0
1734414808.4982967,-947.265625,883.30078125,728.515625,-943.84765625,0.0
1734414808.502201,833.49609375,909.1796875,508.30078125,688.96484375,0.0
1734414808.5061052,-551.7578125,-552.734375,-639.16015625,-686.03515625,0.0
1734414808.5100095,-1000.0,-1000.0,-1000.0,-1000.0,0.0
1734414808.5139139,-520.5078125,-649.4140625,-250.0,-233.88671875,0.0
1734414808.5178182,910.64453125,735.83984375,661.1328125,954.58984375,0.0
1734414808.5217226,919.921875,-959.47265625,529.78515625,843.26171875,0.0
1734414808.5256267,-527.83203125,-347.16796875,-416.9921875,-572.75390625,0.0
1734414808.529545,-1000.0,-1000.0,-944.82421875,-1000.0,0.0
1734414808.5334494,-701.171875,-830.078125,-469.7265625,-423.828125,0.0
1734414808.5373535,740.72265625,574.21875,526.85546875,841.30859375,0.0
1734414808.5412579,-952.1484375,-887.20703125,682.12890625,946.77734375,0.0
1734414808.5451622,-388.18359375,-192.3828125,-235.3515625,-455.078125,0.0
1734414808.5490665,-1000.0,-1000.0,-958.984375,-1000.0,0.0
1734414808.552971,-836.42578125,-861.328125,-798.33984375,-564.453125,0.0
1734414808.556875,587.890625,556.15234375,444.3359375,756.34765625,0.0
1734414808.5607793,-905.76171875,-867.67578125,787.59765625,995.60546875,0.0
1734414808.5646837,-357.91015625,-133.30078125,-227.05078125,-356.93359375,0.0
1734414808.568588,-1000.0,-1000.0,-923.33984375,-1000.0,0.0
1734414808.5724921,-841.30859375,-889.6484375,-626.953125,-705.56640625,0.0
1734414808.5764253,529.296875,474.12109375,458.984375,662.59765625,0.0
1734414808.5803297,-834.47265625,-830.078125,750.0,-934.5703125,0.0
1734414808.584234,-134.765625,113.76953125,-63.96484375,-185.05859375,0.0
1734414808.5881383,-1000.0,-997.0703125,-864.74609375,-1000.0,0.0
1734414808.5920427,-834.9609375,-1000.0,-715.33203125,-830.078125,0.0
1734414808.5959468,510.25390625,218.26171875,240.234375,549.31640625,0.0
1734414808.5998511,-806.640625,-835.9375,675.78125,-892.578125,0.0
1734414808.6037555,265.13671875,408.69140625,118.1640625,35.15625,0.0
1734414808.6076598,-1000.0,-868.1640625,-779.78515625,-1000.0,0.0
1734414808.6115642,-968.26171875,-1000.0,-969.23828125,-930.17578125,0.0
1734414808.6154683,384.27734375,100.5859375,107.91015625,424.31640625,0.0
1734414808.6193726,-805.17578125,-854.98046875,812.98828125,-870.60546875,0.0
1734414808.6233037,581.0546875,678.7109375,245.1171875,264.6484375,0.0
1734414808.6272078,-826.171875,-703.61328125,-739.74609375,-900.87890625,0.0
1734414808.631112,-1000.0,-1000.0,-891.11328125,-1000.0,0.0
1734414808.6350164,232.91015625,-175.29296875,6.8359375,241.69921875,0.0
1734414808.6389208,-841.30859375,-939.94140625,741.2109375,-877.9296875,0.0
1734414808.642825,743.1640625,763.18359375,298.828125,477.5390625,0.0
1734414808.6467292,-622.0703125,-645.01953125,-693.359375,-790.52734375,0.0
1734414808.6506336,-1000.0,-1000.0,-894.53125,-1000.0,0.0
1734414808.654538,-105.46875,-542.48046875,-202.1484375,11.23046875,0.0
1734414808.6584423,-927.24609375,867.67578125,576.171875,-929.6875,0.0
1734414808.6623464,825.1953125,895.5078125,497.0703125,654.78515625,0.0
1734414808.6662507,-548.33984375,-587.40234375,-541.50390625,-711.42578125,0.0
1734414808.6701796,-1000.0,-1000.0,-1000.0,-1000.0,0.0
1734414808.6740837,-480.46875,-632.32421875,-248.046875,-180.6640625,0.0
1734414808.677988,941.40625,788.0859375,688.96484375,987.3046875,0.0
1734414808.6818924,878.41796875,955.078125,526.3671875,794.921875,0.0
1734414808.6857967,-576.66015625,-521.484375,-544.43359375,-621.58203125,0.0
1734414808.689701,-1000.0,-1000.0,-1000.0,-1000.0,0.0
1734414808.6936052,-693.359375,-801.7578125,-433.10546875,-400.390625,0.0
1734414808.6975095,778.80859375,664.55078125,597.16796875,863.28125,0.0
1734414808.7014139,983.88671875,974.609375,521.97265625,912.109375,0.0
1734414808.7053182,-504.39453125,-542.96875,-511.23046875,-513.671875,0.0
1734414808.7092226,-1000.0,-1000.0,-953.61328125,-1000.0,0.0
1734414808.7131267,-826.171875,-845.703125,-553.22265625,-539.0625,0.0
1734414808.7170541,604.4921875,522.94921875,409.66796875,776.85546875,0.0
1734414808.7209585,-924.8046875,-862.3046875,651.85546875,979.00390625,0.0
1734414808.7248626,-397.4609375,-117.67578125,-213.8671875,-398.4375,0.0
1734414808.728767,-1000.0,-1000.0,-950.1953125,-1000.0,0.0
1734414808.7326713,-847.16796875,-918.45703125,-661.1328125,-658.69140625,0.0
1734414808.7365756,542.48046875,437.98828125,444.3359375,687.5,0.0
1734414808.74048,-863.76953125,-835.9375,742.67578125,-947.265625,0.0
1734414808.744384,-233.88671875,50.29296875,-114.74609375,-184.5703125,0.0
1734414808.7482884,-1000.0,-1000.0,-949.21875,-1000.0,0.0
1734414808.7521927,-835.9375,-956.0546875,-731.93359375,-785.15625,0.0
1734414808.756097,516.11328125,363.76953125,407.2265625,595.21484375,0.0
1734414808.7600014,-814.453125,-818.359375,743.1640625,-903.80859375,0.0
1734414808.7639256,111.81640625,364.2578125,35.15625,24.4140625,0.0
1734414808.7678297,-1000.0,-861.81640625,-777.34375,-1000.0,0.0
1734414808.771734,-943.359375,-1000.0,-861.328125,-896.97265625,0.0
1734414808.7756383,386.23046875,-42.96875,47.8515625,492.67578125,0.0
1734414808.7795427,-792.48046875,-882.32421875,702.1484375,-873.046875,0.0
1734414808.783447,441.40625,499.51171875,116.69921875,220.703125,0.0
1734414808.7873511,-908.203125,-825.68359375,-786.62109375,-936.03515625,0.0
1734414808.7912555,-1000.0,-1000.0,-1000.0,-979.4921875,0.0
1734414808.7951598,230.95703125,-135.7421875,-107.421875,350.5859375,0.0
1734414808.7990642,-820.3125,-923.828125,776.85546875,-869.140625,0.0
1734414808.8029685,670.8984375,775.390625,305.6640625,400.390625,0.0
1734414808.8068726,-714.35546875,-638.18359375,-696.2890625,-827.1484375,0.0
1734414808.8107953,-1000.0,-1000.0,-945.3125,-1000.0,0.0
1734414808.8146994,-21.97265625,-322.265625,-100.09765625,104.4921875,0.0
1734414808.8186038,-902.34375,985.83984375,713.8671875,-901.3671875,0.0
1734414808.822508,806.640625,852.05078125,394.53125,587.890625,0.0
1734414808.8264124,-559.08203125,-573.73046875,-593.26171875,-743.65234375,0.0
1734414808.8303168,-1000.0,-1000.0,-987.3046875,-1000.0,0.0
1734414808.834221,-405.2734375,-665.52734375,-402.83203125,-88.8671875,0.0
1734414808.8381252,971.6796875,767.08984375,508.7890625,-963.37890625,0.0
1734414808.8420296,866.2109375,968.75,529.78515625,715.33203125,0.0
1734414808.845934,-569.3359375,-510.25390625,-516.6015625,-666.9921875,0.0
1734414808.8498383,-1000.0,-1000.0,-1000.0,-1000.0,0.0
1734414808.8537424,-665.52734375,-732.421875,-417.48046875,-367.1875,0.0
1734414808.8576796,830.078125,692.87109375,603.02734375,907.2265625,0.0
1734414808.8615837,915.0390625,-970.703125,603.02734375,814.453125,0.0
1734414808.865488,-598.6328125,-424.31640625,-508.7890625,-611.328125,0.0
1734414808.8693924,-1000.0,-1000.0,-1000.0,-1000.0,0.0
1734414808.8732967,-810.546875,-834.47265625,-537.109375,-582.03125,0.0
1734414808.877201,652.34375,613.28125,489.74609375,783.203125,0.0
1734414808.8811052,-985.3515625,-978.02734375,507.32421875,934.5703125,0.0
1734414808.8850095,-504.8828125,-428.22265625,-512.6953125,-505.859375,0.0
1734414808.8889139,-1000.0,-1000.0,-962.890625,-1000.0,0.0
1734414808.8928182,-850.09765625,-848.14453125,-643.5546875,-697.75390625,0.0
1734414808.8967226,548.33984375,486.81640625,356.4453125,687.5,0.0
1734414808.9006267,-881.8359375,-833.984375,724.609375,-979.00390625,0.0
1734414808.9045455,-305.6640625,205.56640625,-130.859375,-336.42578125,0.0
1734414808.90845,-1000.0,-1000.0,-920.41015625,-1000.0,0.0
1734414808.912354,-834.9609375,-937.98828125,-731.4453125,-803.22265625,0.0
1734414808.9162583,519.04296875,476.07421875,389.16015625,585.44921875,0.0
1734414808.9201627,-823.2421875,-834.47265625,747.0703125,-912.59765625,0.0
1734414808.924067,26.85546875,274.90234375,-157.71484375,-110.83984375,0.0
1734414808.9279714,-1000.0,-950.68359375,-891.6015625,-1000.0,0.0
1734414808.9318755,-890.625,-1000.0,-797.36328125,-888.671875,0.0
1734414808.9357798,456.54296875,355.95703125,225.09765625,485.83984375,0.0
1734414808.9396842,-799.8046875,-851.5625,700.68359375,-876.953125,0.0
1734414808.9435885,397.4609375,185.05859375,-268.06640625,119.140625,0.0
1734414808.9474928,-936.5234375,-894.04296875,-898.4375,-979.98046875,0.0
1734414808.951425,-1000.0,-1000.0,-852.05078125,-968.75,0.0
1734414808.9553294,292.96875,-98.14453125,-101.5625,358.3984375,0.0
1734414808.9592338,-812.5,-900.87890625,668.9453125,-867.1875,0.0
1734414808.9631379,632.8125,747.55859375,192.3828125,350.09765625,0.0
1734414808.9670422,-763.18359375,-665.52734375,-743.1640625,-861.81640625,0.0
1734414808.9709466,-1000.0,-1000.0,-1000.0,-1000.0,0.0
1734414808.974851,98.14453125,-195.80078125,-188.96484375,201.171875,0.0
1734414808.9787552,-866.69921875,-959.9609375,752.44140625,-882.32421875,0.0
1734414808.9826593,770.01953125,822.265625,375.0,510.25390625,0.0
1734414808.9865637,-594.23828125,-596.19140625,-730.46875,-773.4375,0.0
1734414808.990468,-1000.0,-1000.0,-1000.0,-1000.0,0.0
1734414808.9943724,-255.859375,-394.53125,-187.98828125,-70.3125,0.0
1734414808.998303,-973.14453125,934.08203125,663.57421875,-954.1015625,0.0
1734414809.0022073,842.7734375,904.78515625,382.32421875,660.15625,0.0
1734414809.0061116,-556.640625,-516.11328125,-569.82421875,-710.44921875,0.0
1734414809.0100157,-1000.0,-1000.0,-980.95703125,-1000.0,0.0
1734414809.01392,-603.515625,-736.81640625,-460.44921875,-272.4609375,0.0
1734414809.0178244,876.46484375,681.640625,513.671875,949.70703125,0.0
1734414809.0217288,901.3671875,-957.03125,526.85546875,803.22265625,0.0
1734414809.025633,-589.35546875,-385.7421875,-479.00390625,-615.72265625,0.0
1734414809.0295372,-1000.0,-1000.0,-1000.0,-1000.0,0.0
1734414809.0334415,-748.046875,-784.66796875,-530.76171875,-472.16796875,0.0
1734414809.037346,716.30859375,625.48828125,546.38671875,827.1484375,0.0
1734414809.0412502,-987.79296875,-910.15625,648.92578125,929.6875,0.0
1734414809.0451813,-482.421875,-272.94921875,-453.125,-496.09375,0.0
1734414809.0490856,-1000.0,-1000.0,-1000.0,-1000.0,0.0
1734414809.05299,-843.75,-855.46875,-607.91015625,-615.72265625,0.0
1734414809.056894,560.05859375,530.2734375,408.203125,731.93359375,0.0
1734414809.0607984,-887.6953125,-858.3984375,670.41015625,-986.81640625,0.0
1734414809.0647027,-317.87109375,-51.7578125,-290.0390625,-358.88671875,0.0
1734414809.068607,-1000.0,-1000.0,-968.26171875,-1000.0,0.0
1734414809.0725114,-831.54296875,-898.4375,-721.6796875,-726.07421875,0.0
1734414809.0764155,514.16015625,437.5,260.7421875,639.6484375,0.0
1734414809.08032,-819.3359375,-823.73046875,708.0078125,-924.8046875,0.0
1734414809.0842242,75.68359375,457.03125,25.390625,-122.0703125,0.0
1734414809.0881286,-1000.0,-903.3203125,-869.62890625,-1000.0,0.0
1734414809.092055,-854.4921875,-985.83984375,-787.59765625,-863.28125,0.0
1734414809.0959594,514.16015625,429.19921875,282.2265625,517.08984375,0.0
1734414809.0998638,-801.7578125,-829.58984375,787.59765625,-871.58203125,0.0
1734414809.103768,488.28125,663.0859375,165.52734375,92.7734375,0.0
1734414809.1076725,-912.59765625,-723.14453125,-772.4609375,-990.72265625,0.0
1734414809.1115766,-819.3359375,-999.0234375,-876.953125,-789.55078125,0.0
1734414809.115481,466.30859375,201.66015625,57.12890625,431.640625,0.0
1734414809.1193852,-864.2578125,-899.4140625,701.66015625,-894.53125,0.0
1734414809.1232896,703.61328125,631.8359375,-75.1953125,337.40234375,0.0
1734414809.127194,-732.421875,-689.94140625,-833.0078125,-876.46484375,0.0
1734414809.1310983,-1000.0,-1000.0,-889.16015625,-1000.0,0.0
1734414809.1350024,227.5390625,-135.7421875,-144.53125,163.0859375,0.0
1734414809.1389272,-854.4921875,-946.2890625,723.6328125,-886.71875,0.0
1734414809.1428316,788.0859375,842.7734375,444.3359375,511.71875,0.0
1734414809.146736,-563.4765625,-556.640625,-627.9296875,-774.90234375,0.0
1734414809.1506402,-1000.0,-1000.0,-1000.0,-1000.0,0.0
1734414809.1545444,-132.32421875,-318.84765625,-187.5,-57.6171875,0.0
1734414809.1584487,-934.08203125,984.375,702.1484375,-944.82421875,0.0
1734414809.162353,827.1484375,859.86328125,414.55078125,614.2578125,0.0
1734414809.1662574,-548.33984375,-565.91796875,-688.96484375,-735.83984375,0.0
1734414809.1701617,-1000.0,-1000.0,-1000.0,-1000.0,0.0
1734414809.174066,-523.92578125,-583.49609375,-257.32421875,-242.1875,0.0
1734414809.1779702,922.36328125,804.6875,661.1328125,974.609375,0.0
1734414809.1818745,885.7421875,983.88671875,479.98046875,788.57421875,0.0
1734414809.1857972,-581.0546875,-449.70703125,-483.3984375,-634.27734375,0.0
1734414809.1897016,-1000.0,-1000.0,-972.65625,-1000.0,0.0
1734414809.193606,-709.47265625,-817.87109375,-518.06640625,-385.7421875,0.0
1734414809.1975102,758.30078125,604.98046875,541.50390625,863.76953125,0.0
1734414809.2014146,999.0234375,-921.875,674.31640625,935.546875,0.0
1734414809.205319,-485.83984375,-343.75,-434.5703125,-470.21484375,0.0
1734414809.209223,-1000.0,-1000.0,-1000.0,-1000.0,0.0
1734414809.2131274,-833.984375,-841.30859375,-775.390625,-526.3671875,0.0
1734414809.2170317,587.40234375,547.36328125,426.7578125,770.5078125,0.0
1734414809.220936,-911.1328125,-863.76953125,779.78515625,-994.62890625,0.0
1734414809.2248404,-372.0703125,-109.86328125,-266.11328125,-328.125,0.0
1734414809.2287445,-1000.0,-1000.0,-951.171875,-1000.0,0.0
1734414809.232665,-842.7734375,-887.20703125,-651.3671875,-670.8984375,0.0
1734414809.2365694,533.69140625,500.48828125,452.63671875,681.15234375,0.0
1734414809.2404735,-847.16796875,-843.26171875,717.7734375,-935.546875,0.0
1734414809.2443779,-151.85546875,39.0625,-171.875,-138.671875,0.0
1734414809.2482822,-1000.0,-1000.0,-895.01953125,-1000.0,0.0
1734414809.2521865,-835.44921875,-987.79296875,-791.50390625,-788.57421875,0.0
1734414809.2560909,509.27734375,246.58203125,172.8515625,593.75,0.0
1734414809.2599952,-806.15234375,-826.171875,720.21484375,-893.5546875,0.0
1734414809.2638993,282.71484375,525.390625,172.36328125,74.21875,0.0
1734414809.2678037,-1000.0,-827.63671875,-789.0625,-1000.0,0.0
1734414809.271708,-972.65625,-1000.0,-878.41796875,-915.0390625,0.0
1734414809.2756124,384.765625,160.64453125,157.71484375,470.703125,0.0
1734414809.2795308,-800.78125,-848.14453125,781.73828125,-868.1640625,0.0
1734414809.283435,535.64453125,666.015625,214.35546875,258.30078125,0.0
1734414809.2873394,-854.4921875,-710.9375,-756.8359375,-913.0859375,0.0
1734414809.2912438,-1000.0,-1000.0,-929.19921875,-1000.0,0.0
1734414809.2951481,226.07421875,-123.53515625,5.859375,290.0390625,0.0
1734414809.2990522,-832.51953125,-924.8046875,697.75390625,-864.74609375,0.0
1734414809.3029566,712.40234375,479.4921875,-2.9296875,499.51171875,0.0
1734414809.306861,-657.71484375,-784.1796875,-787.109375,-785.64453125,0.0
1734414809.3107653,-1000.0,-1000.0,-944.3359375,-1000.0,0.0
1734414809.3146696,-118.65234375,-501.953125,-223.6328125,58.10546875,0.0
1734414809.318574,-930.6640625,900.390625,720.21484375,-913.57421875,0.0
1734414809.322478,825.68359375,898.92578125,518.06640625,646.97265625,0.0
1734414809.326396,-548.33984375,-559.08203125,-557.6171875,-711.9140625,0.0
1734414809.3303,-1000.0,-1000.0,-1000.0,-1000.0,0.0
1734414809.3342044,-501.953125,-682.12890625,-313.4765625,-152.83203125,0.0
1734414809.3381088,932.12890625,746.58203125,634.27734375,-994.62890625,0.0
1734414809.3420131,882.32421875,975.5859375,575.1953125,778.80859375,0.0
1734414809.3459175,-578.125,-508.7890625,-580.56640625,-622.55859375,0.0
1734414809.3498216,-1000.0,-1000.0,-1000.0,-1000.0,0.0
1734414809.353726,-693.84765625,-767.08984375,-386.23046875,-375.0,0.0
1734414809.3576303,775.87890625,651.85546875,596.19140625,884.765625,0.0
1734414809.3615346,988.28125,-954.58984375,530.2734375,915.0390625,0.0
1734414809.365439,-496.09375,-349.609375,-396.97265625,-508.30078125,0.0
1734414809.3693433,-1000.0,-1000.0,-939.453125,-1000.0,0.0
1734414809.3732746,0.0,-843.75,-568.359375,-520.5078125,0.0
1734414809.3771787,0.0,539.0625,460.9375,784.66796875,0.0
1734414809.381083,0.0,-854.98046875,731.93359375,989.74609375,0.0
1734414809.3849874,0.0,-50.29296875,-175.29296875,-375.48828125,0.0
1734414809.3888917,0.0,-1000.0,-946.77734375,-1000.0,0.0
1734414809.392796,0.0,-899.4140625,-702.63671875,-653.3203125,0.0
1734414809.3967004,0.0,473.6328125,425.78125,692.87109375,0.0
1734414809.4006045,0.0,-831.0546875,770.01953125,-940.91796875,0.0
1734414809.4045088,0.0,156.25,-79.58984375,-165.0390625,0.0
1734414809.4084132,0.0,-1000.0,-902.34375,-1000.0,0.0
1734414809.4123175,0.0,-940.4296875,-702.1484375,-771.484375,0.0
1734414809.4162219,0.0,412.109375,412.109375,609.375,0.0
1734414809.420151,-807.6171875,-820.80078125,749.0234375,-896.484375,0.0
1734414809.4240553,274.4140625,521.484375,91.796875,54.19921875,0.0
1734414809.4279597,-1000.0,-812.98828125,-785.64453125,-1000.0,0.0
1734414809.431864,-953.61328125,-1000.0,-892.08984375,-897.4609375,0.0
1734414809.4357681,413.57421875,119.62890625,110.3515625,493.65234375,0.0
1734414809.4396725,-808.10546875,-864.2578125,733.3984375,-866.69921875,0.0
1734414809.4435768,578.125,717.7734375,183.10546875,271.484375,0.0
1734414809.4474812,-834.47265625,-677.24609375,-743.1640625,-920.41015625,0.0
1734414809.4513855,-1000.0,-1000.0,-1000.0,-983.88671875,0.0
1734414809.4552898,261.71875,-53.7109375,-80.078125,354.4921875,0.0
1734414809.459194,-831.54296875,-908.69140625,798.828125,-862.3046875,0.0
1734414809.4630983,708.0078125,776.3671875,349.12109375,451.171875,0.0
1734414809.4670255,-679.19921875,-627.44140625,-705.078125,-812.5,0.0
1734414809.4709299,-1000.0,-1000.0,-938.96484375,-1000.0,0.0
1734414809.4748342,13.18359375,-268.5546875,-80.56640625,128.90625,0.0
1734414809.4787383,-897.4609375,-988.76953125,732.91015625,-894.04296875,0.0
1734414809.4826427,813.96484375,829.58984375,418.45703125,593.26171875,0.0
1734414809.486547,-544.921875,-593.75,-657.71484375,-735.83984375,0.0
1734414809.4904513,-1000.0,-1000.0,-1000.0,-1000.0,0.0
1734414809.4943557,-372.0703125,-612.79296875,-323.73046875,-120.1171875,0.0
1734414809.49826,985.3515625,797.8515625,573.73046875,-974.12109375,0.0
1734414809.5021641,860.83984375,969.23828125,564.94140625,740.72265625,0.0
1734414809.5060685,-565.91796875,-488.76953125,-485.3515625,-660.64453125,0.0
1734414809.5099728,-1000.0,-1000.0,-1000.0,-1000.0,0.0
1734414809.5138977,-639.6484375,-718.26171875,-373.53515625,-318.84765625,0.0
1734414809.517802,839.84375,710.44921875,651.85546875,917.96875,0.0
1734414809.521706,944.82421875,-978.02734375,618.65234375,888.18359375,0.0
1734414809.5256104,-554.6875,-450.1953125,-523.92578125,-551.7578125,0.0
1734414809.5295148,-1000.0,-1000.0,-1000.0,-1000.0,0.0
1734414809.5334191,-678.7109375,-750.0,-491.69921875,-372.55859375,0.0
1734414809.5373235,694.82421875,614.2578125,514.6484375,850.09765625,0.0
1734414809.5412278,-951.171875,-962.890625,585.44921875,954.1015625,0.0
1734414809.5451322,-388.18359375,-348.14453125,-438.96484375,-408.69140625,0.0
1734414809.5490363,-1000.0,-1000.0,-957.51953125,-1000.0,0.0
1734414809.5529406,-856.93359375,-854.98046875,-606.93359375,-639.16015625,0.0
1734414809.556845,561.5234375,513.671875,419.43359375,721.19140625,0.0
1734414809.560768,-902.34375,-849.609375,741.69921875,-978.515625,0.0
1734414809.5646722,-361.328125,48.828125,-141.11328125,-315.91796875,0.0
1734414809.5685766,-1000.0,-1000.0,-921.875,-1000.0,0.0
1734414809.572481,-840.8203125,-916.015625,-704.1015625,-732.421875,0.0
1734414809.576385,530.2734375,488.28125,426.7578125,644.04296875,0.0
1734414809.5802894,-840.8203125,-846.19140625,738.28125,-924.31640625,0.0
1734414809.5841937,-115.234375,147.4609375,-156.73828125,-117.1875,0.0
1734414809.588098,-1000.0,-1000.0,-947.265625,-1000.0,0.0
1734414809.5920024,-847.16796875,-958.0078125,-763.18359375,-853.515625,0.0
1734414809.5959067,473.14453125,369.62890625,336.42578125,527.34375,0.0
1734414809.5998108,-804.6875,-829.1015625,773.4375,-875.0,0.0
1734414809.6037152,509.765625,676.7578125,155.2734375,158.69140625,0.0
1734414809.6076362,-896.97265625,-711.42578125,-756.34765625,-980.46875,0.0
1734414809.6115406,-1000.0,-1000.0,-851.5625,-948.2421875,0.0
1734414809.6154447,356.4453125,84.9609375,20.99609375,414.55078125,0.0
1734414809.619349,-833.49609375,-890.625,727.5390625,-857.421875,0.0
1734414809.6232533,708.984375,788.57421875,351.5625,409.66796875,0.0
1734414809.6271577,-696.2890625,-604.4921875,-703.61328125,-836.9140625,0.0
1734414809.631062,-1000.0,-1000.0,-1000.0,-1000.0,0.0
1734414809.6349664,166.9921875,-137.20703125,-161.1328125,213.37890625,0.0
1734414809.6388705,-859.86328125,-942.87109375,786.1328125,-878.90625,0.0
1734414809.6427748,778.80859375,814.453125,424.31640625,523.4375,0.0
1734414809.6466792,-580.078125,-593.26171875,-660.64453125,-771.97265625,0.0
1734414809.6505835,-1000.0,-1000.0,-984.375,-1000.0,0.0
1734414809.6545014,-185.546875,-372.55859375,-164.55078125,-5.859375,0.0
1734414809.6584058,-950.68359375,950.1953125,699.21875,-931.640625,0.0
1734414809.6623101,833.49609375,892.08984375,417.48046875,686.5234375,0.0
1734414809.6662145,-551.7578125,-531.25,-589.84375,-688.96484375,0.0
1734414809.6701186,-1000.0,-1000.0,-979.98046875,-1000.0,0.0
1734414809.674023,-562.5,-739.2578125,-465.8203125,-235.83984375,0.0
1734414809.6779273,900.390625,680.17578125,475.09765625,974.609375,0.0
1734414809.6818316,893.5546875,-954.58984375,596.19140625,786.1328125,0.0
1734414809.685736,-584.47265625,-385.25390625,-463.37890625,-626.953125,0.0
1734414809.6896403,-1000.0,-1000.0,-1000.0,-1000.0,0.0
1734414809.6935444,-722.65625,-772.94921875,-464.84375,-468.26171875,0.0
1734414809.6974487,743.65234375,637.20703125,585.44921875,842.28515625,0.0
1734414809.7013652,-996.09375,-914.55078125,650.390625,922.8515625,0.0
1734414809.7052696,-483.3984375,-274.4140625,-404.296875,-511.23046875,0.0
1734414809.709174,-1000.0,-1000.0,-1000.0,-1000.0,0.0
1734414809.7130783,-822.75390625,-840.33203125,-628.90625,-582.03125,0.0
1734414809.7169824,568.84765625,547.8515625,479.98046875,740.234375,0.0
1734414809.7208867,-978.02734375,-912.59765625,575.68359375,948.2421875,0.0
1734414809.724791,-319.82421875,-63.96484375,-345.703125,-332.51953125,0.0
1734414809.7286954,-1000.0,-1000.0,-937.98828125,-1000.0,0.0
1734414809.7325997,-841.30859375,-900.87890625,-661.62109375,-732.91015625,0.0
1734414809.736504,519.04296875,454.58984375,354.00390625,655.76171875,0.0
1734414809.7404082,-819.82421875,-825.68359375,733.88671875,-926.26953125,0.0
1734414809.7443125,72.265625,382.32421875,20.5078125,-143.06640625,0.0
1734414809.7482433,-1000.0,-925.78125,-869.140625,-1000.0,0.0
1734414809.7521477,-855.95703125,-992.67578125,-750.9765625,-838.37890625,0.0
1734414809.756052,516.11328125,387.20703125,357.91015625,546.875,0.0
1734414809.7599564,-810.05859375,-822.265625,785.64453125,-880.37109375,0.0
1734414809.7638607,450.1953125,585.9375,138.671875,102.05078125,0.0
1734414809.767765,-936.5234375,-791.9921875,-798.828125,-1000.0,0.0
1734414809.7716691,-1000.0,-1000.0,-902.34375,-936.5234375,0.0
1734414809.7755735,395.5078125,188.96484375,146.97265625,435.546875,0.0
1734414809.7794778,-816.89453125,-866.69921875,715.8203125,-859.375,0.0
1734414809.7833822,623.046875,306.640625,-165.0390625,305.6640625,0.0
1734414809.7872865,-787.59765625,-836.9140625,-864.2578125,-895.01953125,0.0
1734414809.7911909,-1000.0,-1000.0,-882.8125,-1000.0,0.0
1734414809.7951195,221.6796875,-279.296875,-160.64453125,267.08984375,0.0
1734414809.7990239,-835.44921875,-965.8203125,722.16796875,-867.1875,0.0
1734414809.8029282,719.7265625,798.33984375,370.60546875,474.12109375,0.0
1734414809.8068326,-651.3671875,-632.32421875,-721.19140625,-795.8984375,0.0
1734414809.810737,-1000.0,-1000.0,-1000.0,-1000.0,0.0
1734414809.8146412,-110.3515625,-458.0078125,-241.69921875,44.43359375,0.0
1734414809.8185453,-928.7109375,912.109375,706.54296875,-913.0859375,0.0
1734414809.8224497,825.68359375,893.5546875,500.0,634.27734375,0.0
1734414809.826354,-548.828125,-565.91796875,-671.38671875,-718.26171875,0.0
1734414809.8302584,-1000.0,-1000.0,-1000.0,-1000.0,0.0
1734414809.8341627,-470.703125,-546.875,-222.16796875,-190.4296875,0.0
1734414809.838067,945.80078125,825.1953125,680.6640625,999.0234375,0.0
1734414809.8419938,876.953125,982.91015625,0.0,782.71484375,0.0
1734414809.8458982,-575.1953125,-435.05859375,0.0,-633.7890625,0.0
1734414809.8498025,-1000.0,-1000.0,0.0,-1000.0,0.0
1734414809.8537068,-673.33984375,-763.671875,0.0,-391.6015625,0.0
1734414809.8576112,777.83203125,635.25390625,0.0,876.953125,0.0
1734414809.8615155,808.59375,913.57421875,0.0,714.35546875,0.0
1734414809.8654196,-537.59765625,-366.2109375,0.0,-597.16796875,0.0
1734414809.869324,-1000.0,-1000.0,0.0,-1000.0,0.0
1734414809.8732283,-825.1953125,-850.5859375,0.0,-565.91796875,0.0
1734414809.8771327,613.76953125,550.29296875,0.0,773.92578125,0.0
1734414809.881037,-899.90234375,-855.46875,0.0,995.60546875,0.0
1734414809.8849413,-328.61328125,-30.2734375,0.0,-373.53515625,0.0
1734414809.88882,-1000.0,-1000.0,475.09765625,-1000.0,0.0
1734414809.8927243,-834.9609375,-872.55859375,-511.23046875,-693.84765625,0.0
1734414809.8966286,520.01953125,519.04296875,-977.05078125,670.8984375,0.0
1734414809.900533,-826.171875,-840.8203125,-418.45703125,-930.6640625,0.0
1734414809.9044373,6.34765625,247.0703125,556.640625,-154.78515625,0.0
1734414809.9083414,-1000.0,-966.30859375,453.61328125,-1000.0,0.0
1734414809.9122458,-849.609375,-979.00390625,-483.88671875,-799.8046875,0.0
1734414809.91615,514.16015625,363.76953125,-992.67578125,591.796875,0.0
1734414809.9200544,-809.08203125,-828.125,-770.99609375,-895.01953125,0.0
1734414809.9239588,396.97265625,644.53125,451.171875,36.1328125,0.0
1734414809.9278631,-964.84375,-765.13671875,782.71484375,-1000.0,0.0
1734414809.9317672,-977.5390625,-1000.0,-247.55859375,-917.96875,0.0
1734414809.9356902,417.48046875,241.2109375,184.5703125,459.9609375,0.0
1734414809.9395945,-815.4296875,-846.6796875,789.55078125,-858.3984375,0.0
1734414809.9434988,607.421875,693.359375,234.86328125,283.203125,0.0
1734414809.9474032,-805.17578125,-671.38671875,-754.39453125,-912.109375,0.0
1734414809.9513075,-1000.0,-1000.0,-933.59375,-1000.0,0.0
1734414809.9552119,245.1171875,-182.6171875,-49.8046875,317.87109375,0.0
1734414809.959116,-835.9375,-946.2890625,663.57421875,-859.86328125,0.0
1734414809.9630203,723.14453125,552.24609375,3.41796875,445.80078125,0.0
1734414809.9669247,-656.73828125,-754.39453125,-806.640625,-812.5,0.0
1734414809.970829,-1000.0,-1000.0,-891.11328125,-1000.0,0.0
1734414809.9747334,-36.1328125,-466.30859375,-179.6875,90.33203125,0.0
1734414809.9786377,-909.66796875,924.8046875,717.7734375,-899.90234375,0.0
1734414809.982559,820.3125,879.39453125,496.09375,602.05078125,0.0
1734414809.9864633,-547.8515625,-576.66015625,-583.984375,-733.88671875,0.0
1734414809.9903677,-1000.0,-1000.0,-1000.0,-1000.0,0.0
1734414809.994272,-384.765625,-622.55859375,-296.875,-138.671875,0.0
1734414809.9981763,980.46875,812.01171875,708.984375,-978.02734375,0.0
1734414810.0020807,862.79296875,935.05859375,533.203125,749.51171875,0.0
1734414810.005985,-566.89453125,-548.33984375,-597.16796875,-653.3203125,0.0
1734414810.0098891,-1000.0,-1000.0,-1000.0,-1000.0,0.0
1734414810.0137935,-642.578125,-752.44140625,-353.02734375,-364.2578125,0.0
1734414810.0176978,827.63671875,653.3203125,597.16796875,905.76171875,0.0
1734414810.0216022,961.9140625,-927.734375,553.22265625,875.0,0.0
1734414810.0255065,-514.16015625,-318.84765625,-391.11328125,-558.10546875,0.0
1734414810.0294251,-1000.0,-1000.0,-938.96484375,-1000.0,0.0
1734414810.0333295,-780.2734375,-842.7734375,-529.296875,-551.26953125,0.0
1734414810.0372338,647.94921875,540.52734375,474.609375,783.69140625,0.0
1734414810.041138,-915.0390625,-858.88671875,731.4453125,978.515625,0.0
1734414810.0450423,-350.5859375,-64.94140625,-155.2734375,-423.828125,0.0
1734414810.0489466,-1000.0,-1000.0,-944.3359375,-1000.0,0.0
1734414810.052851,-839.35546875,-875.0,-828.61328125,-660.64453125,0.0
1734414810.0567553,527.83203125,518.06640625,398.92578125,698.73046875,0.0
1734414810.0606596,-835.9375,-836.9140625,808.59375,-956.0546875,0.0
1734414810.064564,-89.35546875,135.25390625,-67.87109375,-255.37109375,0.0
1734414810.068468,-1000.0,-1000.0,-883.30078125,-1000.0,0.0
1734414810.0723724,-841.796875,-938.96484375,-664.0625,-790.52734375,0.0
1734414810.076304,512.6953125,418.9453125,438.4765625,599.609375,0.0
1734414810.0802083,-809.08203125,-816.40625,750.9765625,-903.3203125,0.0
1734414810.0841126,295.41015625,414.0625,81.54296875,-56.15234375,0.0
1734414810.088017,-1000.0,-867.1875,-809.08203125,-1000.0,0.0
1734414810.0919213,-924.8046875,-1000.0,-814.94140625,-888.18359375,0.0
1734414810.0958257,470.21484375,81.0546875,103.02734375,500.0,0.0
1734414810.0997298,-815.91796875,-872.55859375,695.3125,-870.1171875,0.0
1734414810.103634,585.9375,733.3984375,264.6484375,158.69140625,0.0
1734414810.1075385,-837.40234375,-677.24609375,-738.76953125,-965.33203125,0.0
1734414810.1114428,-1000.0,-1000.0,-1000.0,-983.88671875,0.0
1734414810.1153471,309.08203125,-26.3671875,0.9765625,340.8203125,0.0
1734414810.1192515,-832.51953125,-903.80859375,790.0390625,-856.93359375,0.0
1734414810.123183,707.51953125,769.04296875,306.15234375,373.046875,0.0
1734414810.1270874,-684.08203125,-631.34765625,-712.890625,-848.6328125,0.0
1734414810.1309917,-1000.0,-1000.0,-928.7109375,-1000.0,0.0
1734414810.1348958,69.3359375,-266.11328125,-79.58984375,125.0,0.0
1734414810.1388001,-882.8125,-988.28125,705.56640625,-886.71875,0.0
1734414810.1427045,803.22265625,827.63671875,369.140625,554.19921875,0.0
1734414810.1466088,-547.8515625,-593.75,-667.48046875,-756.34765625,0.0
1734414810.1505132,-1000.0,-1000.0,-972.65625,-1000.0,0.0
1734414810.1544175,-348.6328125,-638.671875,-336.9140625,-94.7265625,0.0
1734414810.1583219,994.62890625,788.0859375,549.8046875,-950.68359375,0.0
1734414810.1622262,856.93359375,961.42578125,546.875,686.5234375,0.0
1734414810.1661303,-563.96484375,-512.20703125,-532.2265625,-693.84765625,0.0
1734414810.1700597,0.0,-1000.0,-1000.0,-1000.0,0.0
1734414810.173964,0.0,-718.75,-362.79296875,-329.58984375,0.0
1734414810.1778684,0.0,708.49609375,612.79296875,939.453125,0.0
1734414810.1817727,0.0,-979.4921875,547.8515625,835.9375,0.0
1734414810.185677,0.0,-435.546875,-514.6484375,-598.6328125,0.0
1734414810.1895814,0.0,-1000.0,-1000.0,-1000.0,0.0
1734414810.1934855,0.0,-830.078125,-529.78515625,-513.18359375,0.0
1734414810.1973898,0.0,601.07421875,515.13671875,816.89453125,0.0
1734414810.2012942,0.0,-949.21875,570.80078125,950.1953125,0.0
1734414810.2051985,0.0,-348.6328125,-456.54296875,-480.95703125,0.0
1734414810.2091029,0.0,-1000.0,-947.75390625,-1000.0,0.0
1734414810.2130072,0.0,-844.23828125,-583.984375,-642.08984375,0.0
1734414810.216934,537.59765625,505.37109375,427.24609375,715.8203125,0.0
1734414810.2208383,-855.95703125,-833.49609375,741.69921875,-968.75,0.0
1734414810.2247427,-206.0546875,191.89453125,-105.46875,-311.5234375,0.0
1734414810.2286468,-1000.0,-1000.0,-914.55078125,-1000.0,0.0
1734414810.232551,-832.03125,-945.80078125,-680.17578125,-752.44140625,0.0
1734414810.2364554,509.765625,434.08203125,371.09375,627.9296875,0.0
1734414810.2403598,-811.03515625,-827.63671875,694.3359375,-909.66796875,0.0
1734414810.2442641,232.421875,404.296875,6.34765625,-85.44921875,0.0
1734414810.2481685,-1000.0,-907.2265625,-895.01953125,-1000.0,0.0
1734414810.2520728,-886.71875,-1000.0,-764.16015625,-860.83984375,0.0
1734414810.2559772,508.30078125,339.84375,299.31640625,531.73828125,0.0
1734414810.2598813,-818.359375,-842.28515625,729.4921875,-872.55859375,0.0
1734414810.2638059,571.2890625,707.51953125,192.3828125,130.37109375,0.0
1734414810.2677102,-865.234375,-674.31640625,-735.3515625,-999.0234375,0.0
1734414810.2716146,-1000.0,-1000.0,-920.8984375,-944.3359375,0.0
1734414810.275519,377.9296875,15.625,7.8125,426.26953125,0.0
1734414810.2794232,-833.0078125,-890.625,740.234375,-851.07421875,0.0
1734414810.2833276,695.3125,752.9296875,255.37109375,357.91015625,0.0
1734414810.287232,-720.21484375,-655.76171875,-736.81640625,-872.0703125,0.0
1734414810.291136,-1000.0,-1000.0,-1000.0,-1000.0,0.0
1734414810.2950404,226.07421875,-129.8828125,-150.87890625,241.2109375,0.0
1734414810.2989447,-853.02734375,-937.98828125,789.0625,-867.67578125,0.0
1734414810.302849,783.203125,803.7109375,404.296875,490.72265625,0.0
1734414810.3067534,-571.2890625,-594.7265625,-660.64453125,-785.15625,0.0
1734414810.3106754,-1000.0,-1000.0,-957.03125,-1000.0,0.0
1734414810.3145797,-126.953125,-487.79296875,-185.546875,-11.71875,0.0
1734414810.318484,-932.6171875,887.6953125,664.55078125,-922.8515625,0.0
1734414810.3223884,827.1484375,919.921875,438.4765625,646.484375,0.0
1734414810.3262928,-548.828125,-523.92578125,-543.45703125,-717.28515625,0.0
1734414810.330197,-1000.0,-1000.0,-984.86328125,-1000.0,0.0
1734414810.3341012,-510.7421875,-703.125,-430.6640625,-216.796875,0.0
1734414810.3380055,927.734375,708.984375,520.99609375,993.1640625,0.0
1734414810.34191,883.7890625,-959.47265625,602.5390625,781.25,0.0
1734414810.3458142,-579.1015625,-377.44140625,-447.75390625,-637.20703125,0.0
1734414810.3497186,-1000.0,-1000.0,-1000.0,-1000.0,0.0
1734414810.353623,-694.3359375,-737.79296875,-452.1484375,-467.28515625,0.0
1734414810.357544,767.08984375,664.55078125,600.09765625,858.88671875,0.0
1734414810.3614483,-993.1640625,-921.875,666.50390625,896.484375,0.0
1734414810.3653526,-464.35546875,-269.04296875,-416.50390625,-550.29296875,0.0
1734414810.369257,-1000.0,-1000.0,-991.69921875,-1000.0,0.0
1734414810.3731613,-814.453125,-848.14453125,-588.8671875,-639.16015625,0.0
1734414810.3770657,591.796875,562.98828125,466.30859375,738.28125,0.0
1734414810.38097,-884.27734375,-905.76171875,604.00390625,991.2109375,0.0
1734414810.384874,-291.015625,-97.65625,-369.62890625,-431.15234375,0.0
1734414810.3887784,-1000.0,-1000.0,-924.8046875,-1000.0,0.0
1734414810.3926828,-833.984375,-875.9765625,-630.859375,-750.0,0.0
1734414810.3965871,517.08984375,490.72265625,401.3671875,648.4375,0.0
1734414810.4004915,-820.80078125,-831.54296875,758.30078125,-943.84765625,0.0
1734414810.4044104,58.10546875,428.22265625,8.30078125,-267.578125,0.0
1734414810.4083147,-1000.0,-917.48046875,-847.16796875,-1000.0,0.0
1734414810.4122188,-852.05078125,-966.30859375,-714.35546875,-817.3828125,0.0
1734414810.4161232,513.18359375,464.35546875,399.4140625,557.12890625,0.0
1734414810.4200275,-812.5,-832.51953125,788.57421875,-879.39453125,0.0
1734414810.4239318,500.9765625,582.51953125,83.984375,76.171875,0.0
1734414810.4278362,-926.26953125,-785.64453125,-842.7734375,-1000.0,0.0
1734414810.4317405,-978.02734375,-1000.0,-849.12109375,-928.22265625,0.0
1734414810.4356449,458.984375,199.21875,144.53125,456.0546875,0.0
1734414810.4395492,-839.35546875,-866.69921875,757.8125,-856.4453125,0.0
1734414810.4434533,694.3359375,767.08984375,305.6640625,301.26953125,0.0
1734414810.4473577,-733.88671875,-613.76953125,-688.4765625,-904.78515625,0.0
1734414810.4512749,-1000.0,-1000.0,-877.44140625,-1000.0,0.0
1734414810.4551792,298.33984375,-95.21484375,-19.04296875,314.94140625,0.0
1734414810.4590833,-856.93359375,-929.19921875,638.18359375,-869.62890625,0.0
1734414810.4629877,797.36328125,795.8984375,307.6171875,492.1875,0.0
1734414810.466892,-575.1953125,-604.98046875,-638.671875,-788.57421875,0.0
1734414810.4707963,-1000.0,-1000.0,-1000.0,-1000.0,0.0
1734414810.4747007,61.5234375,-354.98046875,-192.3828125,101.5625,0.0
1734414810.478605,-885.25390625,967.7734375,761.71875,-895.01953125,0.0
1734414810.4825094,811.5234375,882.32421875,491.2109375,637.6953125,0.0
1734414810.4864137,-546.38671875,-541.50390625,-653.80859375,-711.42578125,0.0
1734414810.490318,-1000.0,-1000.0,-1000.0,-1000.0,0.0
1734414810.4942222,-295.41015625,-541.9921875,-212.40234375,-129.39453125,0.0
1734414810.4981549,-986.328125,832.03125,679.19921875,-985.3515625,0.0
1734414810.5020592,848.6328125,997.0703125,491.69921875,771.97265625,0.0
1734414810.5059633,-559.5703125,-396.97265625,-471.19140625,-642.578125,0.0
1734414810.5098677,-1000.0,-1000.0,-938.4765625,-1000.0,0.0
1734414810.513772,-611.328125,-739.2578125,-415.52734375,-355.95703125,0.0
1734414810.5176764,821.77734375,635.7421875,520.01953125,902.83203125,0.0
1734414810.5215807,-981.4453125,-890.625,627.9296875,910.15625,0.0
1734414810.525485,-393.06640625,-134.27734375,-266.6015625,-515.625,0.0
1734414810.5293894,-1000.0,-1000.0,-964.84375,-1000.0,0.0
1734414810.5332937,-744.140625,-820.80078125,-618.1640625,-521.484375,0.0
1734414810.537198,653.3203125,582.03125,535.15625,784.1796875,0.0
1734414810.5411022,-870.60546875,-860.83984375,744.140625,-997.55859375,0.0
1734414810.5450327,-164.55078125,31.73828125,0.0,-370.60546875,0.0
1734414810.548937,-1000.0,-1000.0,0.0,-1000.0,0.0
1734414810.5528414,-836.9140625,-891.11328125,0.0,-556.640625,0.0
1734414810.5567458,521.97265625,504.39453125,0.0,720.703125,0.0
1734414810.56065,-816.40625,-835.44921875,0.0,-999.51171875,0.0
1734414810.5645545,154.78515625,261.71875,0.0,-141.11328125,0.0
1734414810.5684588,-1000.0,-978.515625,0.0,-1000.0,0.0
1734414810.5723631,-866.2109375,-957.03125,0.0,-798.828125,0.0
1734414810.5762675,520.01953125,411.62109375,0.0,602.5390625,0.0
1734414810.5801716,-815.91796875,-837.40234375,0.0,-888.18359375,0.0
1734414810.584076,511.23046875,684.5703125,0.0,73.2421875,0.0
1734414810.5879803,-937.5,-750.9765625,0.0,-1000.0,0.0
1734414810.591907,-938.4765625,-1000.0,-781.73828125,-893.06640625,0.0
1734414810.5958114,523.92578125,350.5859375,293.9453125,507.32421875,0.0
1734414810.5997157,-843.26171875,-847.16796875,795.41015625,-862.3046875,0.0
1734414810.60362,676.26953125,714.84375,254.39453125,276.85546875,0.0
1734414810.6075244,-774.90234375,-653.3203125,-715.8203125,-932.12890625,0.0
1734414810.6114285,-1000.0,-1000.0,-915.52734375,-976.5625,0.0
1734414810.6153328,390.13671875,-53.7109375,15.625,388.671875,0.0
1734414810.6192372,-862.79296875,-916.50390625,696.77734375,-851.5625,0.0
1734414810.6231415,805.17578125,668.9453125,68.359375,479.98046875,0.0
1734414810.6270459,-582.03125,-670.41015625,-722.65625,-804.19921875,0.0
1734414810.6309502,-1000.0,-1000.0,-851.5625,-1000.0,0.0
1734414810.6348546,190.91796875,-293.9453125,-113.28125,167.48046875,0.0
1734414810.6387796,-863.28125,986.81640625,721.6796875,-881.8359375,0.0
1734414810.642684,802.24609375,888.671875,504.8828125,627.9296875,0.0
1734414810.6465883,-544.921875,-521.97265625,-535.15625,-719.23828125,0.0
1734414810.6504924,-1000.0,-1000.0,-980.46875,-1000.0,0.0
1734414810.6543968,-196.2890625,-448.73046875,-207.51953125,-64.94140625,0.0
1734414810.658301,-954.1015625,901.85546875,688.96484375,-950.68359375,0.0
1734414810.6622055,834.47265625,920.41015625,484.86328125,741.69921875,0.0
1734414810.6661098,-552.24609375,-512.20703125,-610.3515625,-655.2734375,0.0
1734414810.6700141,-1000.0,-1000.0,-1000.0,-1000.0,0.0
1734414810.6739185,-599.609375,-686.03515625,-291.9921875,-299.31640625,0.0
1734414810.6778228,861.328125,704.1015625,632.8125,940.91796875,0.0
1734414810.6817272,943.84765625,-945.3125,525.87890625,868.1640625,0.0
1734414810.6856496,-524.90234375,-325.68359375,-400.87890625,-560.05859375,0.0
1734414810.689554,-1000.0,-1000.0,-936.03515625,-1000.0,0.0
1734414810.6934583,-768.5546875,-859.375,-524.90234375,-509.765625,0.0
1734414810.6973627,670.8984375,568.359375,479.4921875,812.5,0.0
1734414810.7012668,-934.08203125,-905.76171875,655.76171875,959.47265625,0.0
1734414810.705171,-389.16015625,-335.44921875,-377.44140625,-468.26171875,0.0
1734414810.7090755,-1000.0,-1000.0,-1000.0,-1000.0,0.0
1734414810.7129798,-847.16796875,-855.95703125,-818.359375,-631.34765625,0.0
1734414810.7168841,541.015625,520.01953125,390.625,715.8203125,0.0
1734414810.7207885,-858.3984375,-851.5625,792.48046875,-962.890625,0.0
1734414810.7246928,-235.3515625,-101.5625,-228.515625,-304.19921875,0.0
1734414810.7285972,-1000.0,-1000.0,-949.21875,-1000.0,0.0
1734414810.7325172,-831.54296875,-922.36328125,-677.24609375,-774.90234375,0.0
1734414810.7364216,511.71875,408.69140625,408.69140625,607.421875,0.0
1734414810.740326,-812.5,-825.1953125,703.61328125,-901.85546875,0.0
1734414810.7442303,165.0390625,159.66796875,-87.890625,-61.03515625,0.0
1734414810.7481346,-1000.0,-953.61328125,-849.609375,-1000.0,0.0
1734414810.752039,-908.69140625,-1000.0,-848.14453125,-866.69921875,0.0
1734414810.755943,459.47265625,10.25390625,56.640625,526.3671875,0.0
1734414810.7598474,-802.734375,-867.67578125,678.7109375,-867.67578125,0.0
1734414810.7637517,484.86328125,586.9140625,191.40625,161.62109375,0.0
1734414810.767656,-897.94921875,-780.2734375,-759.27734375,-983.88671875,0.0
1734414810.7715604,-1000.0,-1000.0,-938.4765625,-958.49609375,0.0
1734414810.7754648,294.921875,-97.65625,13.671875,403.3203125,0.0
1734414810.7793827,0.0,-904.78515625,758.7890625,-852.5390625,0.0
1734414810.783287,0.0,717.28515625,260.25390625,374.51171875,0.0
1734414810.7871914,0.0,-686.5234375,-754.39453125,-860.3515625,0.0
1734414810.7910957,0.0,-1000.0,-978.02734375,-1000.0,0.0
1734414810.795,0.0,-318.359375,-80.56640625,216.796875,0.0
1734414810.7989044,0.0,-991.2109375,658.203125,-870.60546875,0.0
1734414810.8028088,0.0,467.7734375,1.46484375,566.89453125,0.0
1734414810.806713,0.0,-824.21875,-763.18359375,-751.46484375,0.0
1734414810.8106174,0.0,-1000.0,-935.05859375,-1000.0,0.0
1734414810.8145218,0.0,-721.19140625,-296.875,-16.6015625,0.0
1734414810.818426,0.0,764.6484375,681.15234375,-931.15234375,0.0
1734414810.8223302,0.0,931.15234375,525.87890625,706.54296875,0.0
1734414810.8262465,-562.01171875,-584.47265625,-544.921875,-676.7578125,0.0
1734414810.8301508,-1000.0,-1000.0,-1000.0,-1000.0,0.0
1734414810.8340552,-634.765625,-805.6640625,-396.97265625,-259.27734375,0.0
1734414810.8379595,855.95703125,659.66796875,569.3359375,966.30859375,0.0
1734414810.8418639,908.203125,979.4921875,573.2421875,836.9140625,0.0
1734414810.8457682,-593.26171875,-552.734375,-541.9921875,-591.796875,0.0
1734414810.8496726,-1000.0,-1000.0,-1000.0,-1000.0,0.0
1734414810.8535767,-772.94921875,-849.12109375,-496.58203125,-440.4296875,0.0
1734414810.857481,685.05859375,590.8203125,527.83203125,846.6796875,0.0
1734414810.8613853,-971.19140625,-972.16796875,558.59375,949.70703125,0.0
1734414810.8652897,-465.33203125,-441.40625,-378.90625,-464.35546875,0.0
1734414810.869194,-1000.0,-1000.0,-928.22265625,-1000.0,0.0
1734414810.8731246,-850.09765625,-872.55859375,-628.41796875,-592.28515625,0.0
1734414810.877029,548.33984375,472.65625,403.80859375,739.74609375,0.0
1734414810.8809333,-879.8828125,-849.12109375,729.4921875,-971.19140625,0.0
1734414810.8848376,-300.78125,-26.3671875,-148.4375,-297.36328125,0.0
1734414810.888742,-1000.0,-1000.0,-927.734375,-1000.0,0.0
1734414810.8926463,-832.03125,-950.68359375,-747.55859375,-715.8203125,0.0
1734414810.8965507,514.6484375,373.046875,366.2109375,650.390625,0.0
1734414810.900455,-817.87109375,-822.75390625,771.484375,-912.59765625,0.0
1734414810.904359,82.03125,210.44921875,-24.90234375,-62.98828125,0.0
1734414810.9082634,-1000.0,-983.88671875,-885.25390625,-1000.0,0.0
1734414810.9121678,-876.46484375,-1000.0,-767.578125,-832.03125,0.0
1734414810.9160721,485.3515625,282.71484375,302.734375,562.01171875,0.0
1734414810.9200003,-805.17578125,-828.125,727.05078125,-872.55859375,0.0
1734414810.9239047,466.30859375,539.55078125,119.62890625,177.24609375,0.0
1734414810.927809,-916.9921875,-770.01953125,-767.578125,-988.76953125,0.0
1734414810.9317133,-1000.0,-1000.0,-930.6640625,-936.03515625,0.0
1734414810.9356177,338.8671875,-110.83984375,4.39453125,454.58984375,0.0
1734414810.939522,-819.82421875,-925.78125,685.05859375,-852.05078125,0.0
1734414810.9434264,651.85546875,754.8828125,197.265625,375.0,0.0
1734414810.9473307,-757.8125,-659.1796875,-724.12109375,-872.0703125,0.0
1734414810.951235,-1000.0,-1000.0,-1000.0,-1000.0,0.0
1734414810.9551394,179.6875,-220.703125,-122.55859375,292.96875,0.0
1734414810.9590437,-853.02734375,-965.33203125,760.7421875,-859.375,0.0
1734414810.9629478,762.6953125,801.7578125,353.02734375,531.25,0.0
1734414810.9668758,-599.12109375,-622.0703125,-748.046875,-772.94921875,0.0
1734414810.9707801,-1000.0,-1000.0,-995.60546875,-1000.0,0.0
1734414810.9746842,-171.38671875,-461.9140625,-147.4609375,63.4765625,0.0
1734414810.9785886,-946.2890625,916.015625,686.03515625,-907.71484375,0.0
1734414810.982493,832.03125,872.55859375,395.01953125,660.15625,0.0
1734414810.9863973,-550.78125,-590.8203125,-635.25390625,-701.171875,0.0
1734414810.9903016,-1000.0,-1000.0,-1000.0,-1000.0,0.0
1734414810.994206,-550.78125,-755.859375,-449.70703125,-193.84765625,0.0
1734414810.9981103,907.2265625,686.03515625,458.984375,998.53515625,0.0
1734414811.0020146,891.11328125,-991.69921875,559.5703125,797.8515625,0.0
1734414811.005919,-583.49609375,-477.5390625,-478.515625,-622.0703125,0.0
1734414811.0098233,-1000.0,-1000.0,-1000.0,-1000.0,0.0
1734414811.013748,0.0,-808.59375,-475.09765625,-393.06640625,0.0
1734414811.0176523,0.0,622.0703125,573.73046875,881.8359375,0.0
1734414811.0215566,0.0,-941.40625,614.74609375,917.48046875,0.0
1734414811.025461,0.0,-389.16015625,-486.328125,-506.8359375,0.0
1734414811.0293653,0.0,-1000.0,-1000.0,-1000.0,0.0
1734414811.0332696,0.0,-859.375,-647.94921875,-560.546875,0.0
1734414811.0371737,0.0,554.19921875,432.6171875,760.7421875,0.0
1734414811.041078,0.0,-925.29296875,599.609375,-989.74609375,0.0
1734414811.0449824,0.0,-247.0703125,-382.32421875,-347.65625,0.0
1734414811.0488868,0.0,-1000.0,-937.01171875,-1000.0,0.0
1734414811.052791,0.0,-893.06640625,-651.85546875,-690.4296875,0.0
1734414811.0566955,0.0,416.50390625,352.05078125,671.875,0.0
1734414811.06062,-818.84765625,-822.265625,742.1875,-926.26953125,0.0
1734414811.0645242,81.0546875,383.7890625,21.97265625,-127.9296875,0.0
1734414811.0684285,-1000.0,-923.828125,-868.1640625,-1000.0,0.0
1734414811.0723329,-858.88671875,-1000.0,-752.9296875,-812.98828125,0.0
1734414811.0762372,518.5546875,386.71875,353.02734375,580.078125,0.0
1734414811.0801415,-810.05859375,-828.61328125,719.7265625,-884.765625,0.0
1734414811.084046,413.0859375,438.96484375,17.08984375,82.51953125,0.0
1734414811.0879502,-953.125,-856.4453125,-861.81640625,-1000.0,0.0
1734414811.0918546,-991.69921875,-1000.0,-868.65234375,-929.19921875,0.0
1734414811.095759,397.94921875,171.38671875,144.04296875,459.47265625,0.0
1734414811.0996633,-817.3828125,-861.328125,732.91015625,-860.3515625,0.0
1734414811.1035676,627.9296875,738.76953125,216.30859375,236.328125,0.0
1734414811.1074886,-785.64453125,-635.7421875,-733.3984375,-924.31640625,0.0
1734414811.111393,-1000.0,-1000.0,-909.1796875,-1000.0,0.0
1734414811.1152973,236.81640625,-178.7109375,-101.07421875,268.5546875,0.0
1734414811.1192017,-846.19140625,-959.9609375,656.73828125,-863.76953125,0.0
1734414811.123106,760.25390625,823.73046875,338.37890625,401.3671875,0.0
1734414811.1270103,-607.91015625,-598.6328125,-701.66015625,-826.171875,0.0
1734414811.1309147,-1000.0,-1000.0,-1000.0,-1000.0,0.0
1734414811.1348188,-64.94140625,-319.82421875,-242.1875,0.48828125,0.0
1734414811.1387231,-916.9921875,983.88671875,666.50390625,-940.91796875,0.0
1734414811.1426275,822.75390625,859.375,359.86328125,578.61328125,0.0
1734414811.1465318,-549.31640625,-568.84765625,-657.2265625,-740.234375,0.0
1734414811.1504362,-1000.0,-1000.0,-1000.0,-1000.0,0.0
1734414811.154373,-409.66796875,-531.25,-238.76953125,-194.82421875,0.0
1734414811.1582773,969.7265625,833.984375,625.48828125,-988.28125,0.0
1734414811.1621816,866.69921875,983.88671875,409.66796875,726.5625,0.0
1734414811.1660857,-569.82421875,-427.24609375,-515.625,-674.8046875,0.0
1734414811.16999,-1000.0,-1000.0,-983.3984375,-1000.0,0.0
1734414811.1738944,-664.0625,-805.6640625,-546.875,-403.3203125,0.0
1734414811.1777987,801.7578125,598.14453125,380.37109375,891.6015625,0.0
1734414811.181703,982.421875,-897.4609375,597.65625,887.6953125,0.0
1734414811.1856074,-490.72265625,-244.62890625,-367.1875,-548.33984375,0.0
1734414811.1895118,-1000.0,-1000.0,-1000.0,-1000.0,0.0
1734414811.193416,-796.875,-844.23828125,-570.3125,-559.08203125,0.0
1734414811.1973205,625.0,562.01171875,491.2109375,775.390625,0.0
1734414811.2012396,-906.25,-871.58203125,657.2265625,992.1875,0.0
1734414811.205144,-337.890625,-117.1875,-300.29296875,-392.08984375,0.0
1734414811.2090483,-1000.0,-1000.0,-983.88671875,-1000.0,0.0
1734414811.2129526,-833.984375,-866.69921875,-688.4765625,-656.25,0.0
1734414811.216857,519.53125,518.06640625,426.26953125,690.91796875,0.0
1734414811.2207613,-826.171875,-838.8671875,669.43359375,-936.5234375,0.0
1734414811.2246656,9.27734375,143.06640625,-168.9453125,-163.57421875,0.0
1734414811.22857,-1000.0,-1000.0,-892.08984375,-1000.0,0.0
1734414811.2324743,-849.609375,-968.75,-689.453125,-777.83203125,0.0
1734414811.2363787,513.671875,329.1015625,262.20703125,611.328125,0.0
1734414811.2402828,-810.546875,-829.1015625,699.21875,-895.01953125,0.0
1734414811.244187,410.64453125,601.07421875,172.36328125,49.31640625,0.0
1734414811.248119,-972.65625,-799.8046875,-793.9453125,-1000.0,0.0
1734414811.2520235,-946.2890625,-1000.0,-837.40234375,-881.34765625,0.0
1734414811.2559278,476.07421875,266.11328125,212.890625,518.06640625,0.0
1734414811.2598321,-822.265625,-844.23828125,742.1875,-866.2109375,0.0
1734414811.2637365,609.86328125,667.96875,129.39453125,252.44140625,0.0
1734414811.2676408,-814.94140625,-703.125,-786.1328125,-935.546875,0.0
1734414811.2715452,-1000.0,-1000.0,-898.4375,-982.91015625,0.0
1734414811.2754495,303.22265625,-19.04296875,59.5703125,368.65234375,0.0
1734414811.2793539,-835.9375,-920.8984375,692.87109375,-855.46875,0.0
1734414811.2832582,722.16796875,681.15234375,82.03125,430.6640625,0.0
1734414811.2871625,-667.48046875,-634.765625,-731.93359375,-826.66015625,0.0
1734414811.2910666,-1000.0,-1000.0,-915.0390625,-1000.0,0.0
1734414811.294996,0.0,-390.13671875,-167.96875,162.59765625,0.0
1734414811.2989004,0.0,959.47265625,702.1484375,-882.8125,0.0
1734414811.3028047,0.0,834.9609375,414.55078125,594.23828125,0.0
1734414811.306709,0.0,-618.1640625,-667.96875,-736.81640625,0.0
1734414811.3106134,0.0,-1000.0,-1000.0,-1000.0,0.0
1734414811.3145177,0.0,-652.83203125,-340.8203125,-62.5,0.0
1734414811.318422,0.0,783.203125,613.28125,-949.70703125,0.0
1734414811.3223264,0.0,944.82421875,452.1484375,725.5859375,0.0
1734414811.3262308,0.0,-544.921875,-657.71484375,-665.52734375,0.0
1734414811.330135,0.0,-1000.0,-1000.0,-1000.0,0.0
1734414811.3340394,0.0,-714.84375,-371.58203125,-301.26953125,0.0
1734414811.3379438,0.0,688.4765625,578.125,938.96484375,0.0
1734414811.3418705,942.87109375,-943.84765625,534.66796875,861.81640625,0.0
1734414811.3457747,-535.15625,-344.7265625,-453.125,-566.40625,0.0
1734414811.349679,-1000.0,-1000.0,-982.421875,-1000.0,0.0
1734414811.3535833,-766.11328125,-852.05078125,-542.48046875,-494.140625,0.0
1734414811.3574877,672.36328125,555.6640625,457.51953125,819.3359375,0.0
1734414811.361392,-933.10546875,-893.5546875,604.00390625,959.9609375,0.0
1734414811.3652964,-385.25390625,-227.05078125,-332.51953125,-448.2421875,0.0
1734414811.3692007,-1000.0,-1000.0,-992.67578125,-1000.0,0.0
1734414811.373105,-841.30859375,-857.91015625,-837.40234375,-626.46484375,0.0
1734414811.3770094,531.25,521.484375,362.3046875,718.75,0.0
1734414811.3809137,-843.75,-846.19140625,716.30859375,-963.37890625,0.0
1734414811.384818,-142.578125,60.05859375,-201.171875,-272.94921875,0.0
1734414811.3887424,-1000.0,-1000.0,-923.33984375,-1000.0,0.0
1734414811.3926466,-837.890625,-919.43359375,-687.01171875,-751.953125,0.0
1734414811.396551,512.20703125,432.12890625,383.30078125,629.8828125,0.0
1734414811.4004552,-810.05859375,-821.2890625,692.87109375,-910.15625,0.0
1734414811.4043596,251.46484375,447.265625,49.31640625,-63.4765625,0.0
1734414811.408264,-1000.0,-851.07421875,-810.546875,-1000.0,0.0
1734414811.4121683,-908.203125,-1000.0,-871.09375,-869.140625,0.0
1734414811.4160726,483.88671875,124.0234375,64.453125,521.97265625,0.0
1734414811.419977,-812.01171875,-864.74609375,700.1953125,-871.09375,0.0
1734414811.4238813,536.1328125,702.63671875,223.14453125,152.34375,0.0
1734414811.4277856,-874.51171875,-706.0546875,-765.13671875,-982.91015625,0.0
1734414811.43169,-1000.0,-1000.0,-913.0859375,-960.44921875,0.0
1734414811.4356122,327.63671875,-0.9765625,44.921875,403.3203125,0.0
1734414811.4395165,-819.82421875,-889.6484375,746.09375,-854.4921875,0.0
1734414811.443421,650.87890625,727.05078125,249.51171875,345.21484375,0.0
1734414811.4473252,-746.58203125,-657.71484375,-732.421875,-868.65234375,0.0
1734414811.4512296,-1000.0,-1000.0,-975.09765625,-1000.0,0.0
1734414811.455134,108.3984375,-380.859375,-138.18359375,198.73046875,0.0
1734414811.4590383,-863.28125,970.21484375,667.96875,-873.046875,0.0
1734414811.4629426,764.16015625,557.12890625,46.38671875,514.16015625,0.0
1734414811.466847,-600.5859375,-778.3203125,-769.53125,-776.85546875,0.0
1734414811.470751,-1000.0,-1000.0,-930.6640625,-1000.0,0.0
1734414811.4746554,-248.53515625,-637.6953125,-282.71484375,-34.66796875,0.0
1734414811.4785597,-971.19140625,816.40625,693.359375,-932.12890625,0.0
1734414811.48248,842.7734375,913.0859375,496.58203125,619.140625,0.0
1734414811.4863844,-556.15234375,-579.58984375,-568.84765625,-730.46875,0.0
1734414811.4902887,-1000.0,-1000.0,-1000.0,-1000.0,0.0
1734414811.494193,-574.21875,-778.3203125,-447.75390625,-255.859375,0.0
1734414811.4980974,894.04296875,681.640625,573.73046875,972.16796875,0.0
1734414811.5020018,895.5078125,995.60546875,551.7578125,812.01171875,0.0
1734414811.505906,-585.9375,-510.25390625,-558.10546875,-611.81640625,0.0
1734414811.5098102,-1000.0,-1000.0,-1000.0,-1000.0,0.0
1734414811.5137146,-722.65625,-804.6875,-417.48046875,-448.73046875,0.0
1734414811.517619,733.3984375,583.0078125,563.4765625,850.09765625,0.0
1734414811.5215232,-975.09765625,-881.8359375,626.46484375,932.12890625,0.0
1734414811.5254276,-447.75390625,-181.640625,-285.64453125,-493.65234375,0.0
1734414811.5293453,-1000.0,-1000.0,-917.48046875,-1000.0,0.0
1734414811.5332496,-832.03125,-867.1875,-602.05078125,-602.05078125,0.0
1734414811.537154,555.6640625,501.46484375,419.43359375,738.76953125,0.0
1734414811.5410583,-862.79296875,-838.37890625,743.1640625,-978.02734375,0.0
1734414811.5449626,-229.00390625,107.421875,-98.6328125,-336.42578125,0.0
1734414811.548867,-1000.0,-1000.0,-922.8515625,-1000.0,0.0
1734414811.5527713,-839.35546875,-936.5234375,-827.63671875,-642.08984375,0.0
1734414811.5566757,520.5078125,444.3359375,309.08203125,678.7109375,0.0
1734414811.56058,-821.2890625,-827.1484375,758.7890625,-939.94140625,0.0
1734414811.5644844,59.08203125,221.19140625,-35.64453125,-149.90234375,0.0
1734414811.5683887,-1000.0,-986.81640625,-877.9296875,-1000.0,0.0
1734414811.572293,-854.00390625,-987.79296875,-749.51171875,-846.6796875,0.0
1734414811.5762084,515.13671875,326.171875,354.4921875,537.109375,0.0
1734414811.5801127,-809.08203125,-814.94140625,763.671875,-878.41796875,0.0
1734414811.5840168,452.1484375,527.34375,133.30078125,94.23828125,0.0
1734414811.5879211,-932.6171875,-798.33984375,-785.15625,-1000.0,0.0
1734414811.5918255,-1000.0,-1000.0,-879.39453125,-934.5703125,0.0
1734414811.5957298,382.8125,-75.1953125,26.3671875,435.546875,0.0
1734414811.5996342,-820.3125,-913.0859375,706.54296875,-854.00390625,0.0
1734414811.6035385,644.53125,759.27734375,301.26953125,342.28515625,0.0
1734414811.6074429,-769.53125,-651.3671875,-717.28515625,-877.44140625,0.0
1734414811.6113472,-1000.0,-1000.0,-1000.0,-1000.0,0.0
1734414811.6152515,223.6328125,-265.625,-146.97265625,247.0703125,0.0
1734414811.619156,-845.21484375,-983.88671875,720.21484375,-869.62890625,0.0
1734414811.6230857,755.37109375,809.5703125,369.62890625,478.02734375,0.0
1734414811.62699,-606.4453125,-628.41796875,-672.8515625,-789.0625,0.0
1734414811.6308944,-1000.0,-1000.0,-989.2578125,-1000.0,0.0
1734414811.6347988,-119.62890625,-414.0625,-148.4375,-11.23046875,0.0
1734414811.638703,-930.6640625,947.265625,698.2421875,-925.78125,0.0
1734414811.6426075,825.68359375,844.23828125,329.1015625,645.01953125,0.0
1734414811.6465116,-547.8515625,-609.375,-641.6015625,-716.30859375,0.0
1734414811.650416,-1000.0,-1000.0,-964.84375,-1000.0,0.0
1734414811.6543202,-516.6015625,-751.46484375,-423.33984375,-214.35546875,0.0
1734414811.6582246,925.78125,697.265625,485.3515625,992.67578125,0.0
1734414811.662129,884.765625,998.53515625,581.54296875,762.6953125,0.0
1734414811.6660333,-580.078125,-496.09375,-483.88671875,-647.94921875,0.0
1734414811.6699624,-1000.0,-1000.0,-1000.0,-1000.0,0.0
1734414811.6738667,-711.9140625,-845.703125,-523.92578125,-433.59375,0.0
1734414811.677771,770.99609375,589.35546875,511.71875,871.09375,0.0
1734414811.6816754,968.75,-940.4296875,576.66015625,900.390625,0.0
1734414811.6855798,-539.55078125,-413.57421875,-495.60546875,-540.52734375,0.0
1734414811.6894841,-1000.0,-1000.0,-1000.0,-1000.0,0.0
1734414811.6933885,-834.47265625,-858.88671875,-609.375,-594.7265625,0.0
1734414811.6972928,594.23828125,587.40234375,503.90625,757.8125,0.0
1734414811.7011971,-927.24609375,-962.890625,597.16796875,985.83984375,0.0
1734414811.7051015,-406.73828125,-424.31640625,-432.12890625,-419.921875,0.0
1734414811.7090058,-1000.0,-1000.0,-959.9609375,-1000.0,0.0
1734414811.7129102,-841.796875,-886.71875,-682.12890625,-739.74609375,0.0
1734414811.716836,533.203125,410.64453125,337.890625,652.83203125,0.0
1734414811.7207403,-848.6328125,-826.171875,728.515625,-941.89453125,0.0
1734414811.7246447,-161.62109375,166.9921875,-63.4765625,-249.51171875,0.0
1734414811.728549,-1000.0,-990.72265625,-885.7421875,-1000.0,0.0
1734414811.7324533,-833.49609375,-1000.0,-818.359375,-823.2421875,0.0
1734414811.7363577,507.32421875,271.97265625,213.8671875,555.6640625,0.0
1734414811.740262,-806.15234375,-826.66015625,715.8203125,-885.7421875,0.0
1734414811.7441664,296.875,395.5078125,7.8125,37.59765625,0.0
1734414811.7480705,-1000.0,-889.6484375,-878.41796875,-1000.0,0.0
1734414811.7519748,-963.8671875,-1000.0,-854.00390625,-919.43359375,0.0
1734414811.7558792,403.80859375,170.8984375,145.5078125,460.9375,0.0
1734414811.7597835,-809.08203125,-854.00390625,736.328125,-859.86328125,0.0
1734414811.7637088,589.35546875,708.49609375,207.51953125,239.74609375,0.0
1734414811.7676132,-822.75390625,-663.0859375,-745.60546875,-925.29296875,0.0
1734414811.7715175,-1000.0,-1000.0,-944.3359375,-1000.0,0.0
1734414811.7754219,250.0,-209.9609375,-100.09765625,270.5078125,0.0
1734414811.7793262,-833.984375,-960.9375,697.265625,-863.28125,0.0
1734414811.7832305,717.7734375,775.87890625,254.8828125,459.9609375,0.0
1734414811.787135,-665.0390625,-651.3671875,-738.28125,-809.08203125,0.0
1734414811.791039,-1000.0,-1000.0,-1000.0,-1000.0,0.0
1734414811.7949433,-20.01953125,-381.34765625,-257.32421875,78.61328125,0.0
1734414811.7988477,-902.83203125,970.21484375,754.8828125,-904.296875,0.0
1734414811.802752,808.59375,843.75,429.19921875,575.68359375,0.0
1734414811.8066564,-561.03515625,-608.3984375,-654.296875,-749.51171875,0.0
1734414811.8105803,0.0,-1000.0,0.0,-1000.0,0.0
1734414811.8144846,0.0,-564.453125,0.0,-134.27734375,0.0
1734414811.818389,0.0,830.56640625,0.0,-977.05078125,0.0
1734414811.8222933,0.0,955.078125,0.0,766.11328125,0.0
1734414811.8261976,0.0,-495.1171875,0.0,-640.625,0.0
1734414811.830102,0.0,-1000.0,0.0,-1000.0,0.0
1734414811.8340063,0.0,-814.453125,0.0,-308.10546875,0.0
1734414811.8379107,0.0,595.21484375,0.0,909.66796875,0.0
1734414811.841815,0.0,-908.203125,0.0,903.3203125,0.0
1734414811.8457193,0.0,-295.41015625,0.0,-517.578125,0.0
1734414811.8496237,0.0,-1000.0,0.0,-1000.0,0.0
1734414811.853528,0.0,-844.23828125,0.0,-492.1875,0.0
1734414811.8574488,645.01953125,559.5703125,511.71875,795.41015625,0.0
1734414811.8613532,-912.59765625,-873.046875,687.98828125,995.60546875,0.0
1734414811.8652575,-345.703125,-155.76171875,-321.77734375,-353.515625,0.0
1734414811.8691618,-1000.0,-1000.0,-978.02734375,-1000.0,0.0
1734414811.8730662,-837.890625,-901.3671875,-625.9765625,-624.51171875,0.0
1734414811.8769705,524.90234375,499.0234375,418.45703125,709.9609375,0.0
1734414811.8808749,-833.0078125,-897.4609375,604.00390625,-942.3828125,0.0
1734414811.8847792,-57.6171875,-63.4765625,-260.25390625,-160.15625,0.0
1734414811.8886836,-1000.0,-1000.0,-898.92578125,-1000.0,0.0
1734414811.892588,-847.16796875,-956.54296875,-720.703125,-761.71875,0.0
1734414811.8964922,516.11328125,319.82421875,286.62109375,622.55859375,0.0
1734414811.9003966,-810.05859375,-825.68359375,750.48828125,-898.92578125,0.0
1734414811.9043152,280.2734375,486.328125,111.81640625,41.9921875,0.0
1734414811.9082196,-1000.0,-859.375,-812.5,-1000.0,0.0
1734414811.912124,-921.875,-1000.0,-874.51171875,-869.140625,0.0
1734414811.9160283,475.5859375,272.4609375,197.75390625,532.71484375,0.0
1734414811.9199326,-806.640625,-832.03125,754.8828125,-872.55859375,0.0
1734414811.9238367,480.46875,468.75,54.19921875,200.1953125,0.0
1734414811.927741,-906.73828125,-829.1015625,-854.98046875,-961.42578125,0.0
1734414811.9316454,-1000.0,-1000.0,-904.78515625,-970.21484375,0.0
1734414811.9355497,321.77734375,19.04296875,47.8515625,395.01953125,0.0
1734414811.939454,-815.91796875,-885.7421875,734.375,-861.328125,0.0
1734414811.9433584,637.6953125,745.60546875,243.1640625,352.5390625,0.0
1734414811.9472628,-767.578125,-640.13671875,-712.890625,-862.3046875,0.0
1734414811.9511957,-1000.0,-1000.0,-928.22265625,-1000.0,0.0
1734414811.9551,159.66796875,-292.48046875,-106.4453125,210.44921875,0.0
1734414811.9590044,-861.328125,-997.0703125,679.19921875,-875.0,0.0
1734414811.9629087,782.71484375,827.63671875,328.61328125,552.24609375,0.0
1734414811.966813,-579.1015625,-604.00390625,-627.9296875,-761.71875,0.0
1734414811.9707174,-1000.0,-1000.0,-1000.0,-1000.0,0.0
1734414811.9746218,-161.62109375,-534.1796875,-300.78125,5.859375,0.0
1734414811.978526,-943.359375,861.81640625,688.4765625,-932.6171875,0.0
1734414811.9824305,831.54296875,922.36328125,513.18359375,710.9375,0.0
1734414811.9863348,-550.78125,-544.921875,-658.203125,-676.26953125,0.0
1734414811.9902391,-1000.0,-1000.0,-1000.0,-1000.0,0.0
1734414811.9941435,-514.6484375,-614.74609375,-272.94921875,-204.1015625,0.0
1734414811.9980748,912.59765625,752.9296875,636.23046875,964.84375,0.0
1734414812.001979,920.41015625,-957.03125,517.578125,869.140625,0.0
1734414812.0058835,-524.90234375,-315.91796875,-405.2734375,-543.45703125,0.0
1734414812.0097878,-1000.0,-1000.0,-945.3125,-1000.0,0.0
1734414812.0136921,-701.171875,-822.75390625,-489.74609375,-404.296875,0.0
1734414812.0175965,734.86328125,574.21875,488.28125,847.65625,0.0
1734414812.0215008,-941.40625,-865.72265625,636.71875,961.9140625,0.0
1734414812.0254052,-365.234375,-167.48046875,-290.52734375,-431.640625,0.0
1734414812.0293095,-1000.0,-1000.0,-984.86328125,-1000.0,0.0
1734414812.0332139,-826.171875,-848.14453125,-624.51171875,-566.89453125,0.0
1734414812.0371182,562.98828125,542.96875,487.79296875,743.65234375,0.0
1734414812.0410225,-856.93359375,-848.14453125,722.65625,-972.16796875,0.0
1734414812.0449512,-191.89453125,19.04296875,-199.70703125,-264.16015625,0.0
1734414812.0488555,-1000.0,-1000.0,-943.84765625,-1000.0,0.0
1734414812.05276,-847.16796875,-935.05859375,-714.84375,-735.83984375,0.0
1734414812.0566642,531.25,434.5703125,379.39453125,652.34375,0.0
1734414812.0605686,-850.09765625,-867.67578125,643.06640625,-985.3515625,0.0
1734414812.064473,-34.66796875,97.16796875,-192.87109375,-174.31640625,0.0
1734414812.0683773,-1000.0,-997.0703125,-878.41796875,-1000.0,0.0
1734414812.0722816,-847.16796875,-1000.0,-772.4609375,-854.98046875,0.0
1734414812.076186,500.48828125,217.7734375,150.390625,532.2265625,0.0
1734414812.0800903,-808.10546875,-836.9140625,717.7734375,-876.46484375,0.0
1734414812.0839946,494.62890625,659.66796875,204.58984375,119.62890625,0.0
1734414812.087899,-911.1328125,-746.09375,-796.875,-993.1640625,0.0
1734414812.091829,-1000.0,-1000.0,-894.04296875,-951.66015625,0.0
1734414812.0957334,380.37109375,120.60546875,106.93359375,399.4140625,0.0
1734414812.0996377,-831.0546875,-867.1875,772.4609375,-858.3984375,0.0
1734414812.103542,691.89453125,720.703125,269.53125,359.375,0.0
1734414812.1074464,-715.33203125,-645.99609375,-736.81640625,-863.28125,0.0
1734414812.1113508,-1000.0,-1000.0,-1000.0,-1000.0,0.0
1734414812.115255,187.5,-311.5234375,-105.95703125,214.84375,0.0
1734414812.1191595,-862.3046875,-994.62890625,706.54296875,-873.53515625,0.0
1734414812.1230638,797.8515625,619.140625,62.98828125,548.828125,0.0
1734414812.1269681,-551.26953125,-730.95703125,-746.09375,-759.27734375,0.0
1734414812.1308725,-1000.0,-1000.0,-933.10546875,-1000.0,0.0
1734414812.1347768,-188.4765625,-585.44921875,-258.7890625,-23.92578125,0.0
1734414812.138703,-951.66015625,839.84375,698.2421875,-934.08203125,0.0
1734414812.1426075,834.47265625,921.875,525.390625,687.01171875,0.0
1734414812.1465118,-552.24609375,-552.24609375,-577.1484375,-702.1484375,0.0
1734414812.1504161,-1000.0,-1000.0,-1000.0,-1000.0,0.0
1734414812.1543205,-552.24609375,-702.1484375,-355.46875,-152.83203125,0.0
1734414812.1582248,906.73828125,739.2578125,618.65234375,-1000.0,0.0
1734414812.162129,891.6015625,974.609375,539.0625,793.9453125,0.0
1734414812.1660333,-583.984375,-514.6484375,-567.87109375,-603.515625,0.0
1734414812.1699376,-1000.0,-1000.0,-1000.0,-1000.0,0.0
1734414812.173842,-723.14453125,-805.17578125,-397.4609375,-468.26171875,0.0
1734414812.1777463,737.3046875,597.65625,572.75390625,839.84375,0.0
1734414812.1816506,-983.88671875,-902.83203125,597.65625,948.2421875,0.0
1734414812.1855762,-463.8671875,-263.18359375,-322.265625,-473.14453125,0.0
1734414812.1894805,-1000.0,-1000.0,-926.7578125,-1000.0,0.0
1734414812.193385,-836.42578125,-871.09375,-597.16796875,-576.66015625,0.0
1734414812.1972892,566.89453125,523.4375,440.4296875,754.8828125,0.0
1734414812.2011936,-883.7890625,-870.60546875,725.09765625,-989.2578125,0.0
1734414812.205098,-302.734375,-135.7421875,-234.375,-332.03125,0.0
1734414812.2090023,-1000.0,-1000.0,-980.46875,-1000.0,0.0
1734414812.2129066,-833.0078125,-886.71875,-842.7734375,-705.078125,0.0
1734414812.216811,516.6015625,467.7734375,354.98046875,657.2265625,0.0
1734414812.2207153,-820.80078125,-828.125,800.29296875,-920.8984375,0.0
1734414812.2246196,59.08203125,206.54296875,-36.1328125,-95.21484375,0.0
1734414812.228524,-1000.0,-988.28125,-874.51171875,-1000.0,0.0
1734414812.232445,0.0,-989.2578125,0.0,-808.10546875,0.0
1734414812.2363493,0.0,348.14453125,0.0,591.30859375,0.0
1734414812.2402537,0.0,-830.56640625,0.0,-890.13671875,0.0
1734414812.244158,0.0,419.921875,0.0,83.0078125,0.0
1734414812.2480624,0.0,-816.40625,0.0,-1000.0,0.0
1734414812.2519667,0.0,-1000.0,0.0,-913.57421875,0.0
1734414812.2558708,0.0,-102.05078125,0.0,463.8671875,0.0
1734414812.2597752,0.0,-919.921875,0.0,-856.93359375,0.0
1734414812.2636795,0.0,761.23046875,0.0,330.56640625,0.0
1734414812.2675838,0.0,-666.50390625,0.0,-888.18359375,0.0
1734414812.2714882,0.0,-1000.0,0.0,-1000.0,0.0
1734414812.2753925,0.0,-145.5078125,0.0,275.87890625,0.0
1734414812.2793128,-842.7734375,-937.98828125,750.0,-866.2109375,0.0
1734414812.2832172,747.0703125,788.57421875,341.30859375,518.5546875,0.0
1734414812.2871215,-620.1171875,-622.55859375,-712.40234375,-777.34375,0.0
1734414812.2910259,-1000.0,-1000.0,-1000.0,-1000.0,0.0
1734414812.2949302,-93.26171875,-385.25390625,-152.83203125,68.359375,0.0
1734414812.2988346,-923.828125,976.5625,633.7890625,-905.76171875,0.0
1734414812.302739,823.73046875,712.40234375,24.4140625,647.94921875,0.0
1734414812.3066432,-547.36328125,-695.3125,-744.140625,-710.44921875,0.0
1734414812.3105476,-1000.0,-1000.0,-958.984375,-1000.0,0.0
1734414812.314452,-479.00390625,-719.23828125,-416.015625,-158.69140625,0.0
1734414812.3183563,941.89453125,738.76953125,635.7421875,-990.234375,0.0
1734414812.3222606,878.41796875,971.19140625,558.59375,788.0859375,0.0
1734414812.3261774,-576.171875,-529.296875,-576.171875,-627.44140625,0.0
1734414812.3300817,-1000.0,-1000.0,-1000.0,-1000.0,0.0
1734414812.333986,-689.94140625,-826.66015625,-532.71484375,-373.046875,0.0
1734414812.3378904,778.80859375,596.6796875,508.30078125,886.71875,0.0
1734414812.3417947,990.234375,-926.7578125,634.27734375,908.203125,0.0
1734414812.345699,-489.2578125,-365.72265625,-499.0234375,-523.92578125,0.0
1734414812.3496034,-1000.0,-1000.0,-1000.0,-1000.0,0.0
1734414812.3535078,-801.7578125,-826.171875,-531.25,-511.23046875,0.0
1734414812.357412,613.28125,538.57421875,490.234375,783.69140625,0.0
1734414812.3613164,-896.484375,-849.609375,594.23828125,999.51171875,0.0
1734414812.3652208,-315.91796875,40.52734375,-258.30078125,-347.16796875,0.0
1734414812.3691251,-1000.0,-1000.0,-908.69140625,-1000.0,0.0
1734414812.3730545,-837.890625,-912.109375,-700.68359375,-666.50390625,0.0
1734414812.3769588,523.92578125,479.00390625,365.234375,687.01171875,0.0
1734414812.3808632,-829.58984375,-837.40234375,736.328125,-936.03515625,0.0
1734414812.3847675,-28.3203125,162.109375,-135.7421875,-155.76171875,0.0
1734414812.3886719,-1000.0,-1000.0,-913.57421875,-1000.0,0.0
1734414812.3925762,-849.609375,-969.23828125,-810.05859375,-786.62109375,0.0
1734414812.3964806,516.6015625,360.83984375,258.7890625,600.5859375,0.0
1734414812.400385,-809.5703125,-819.3359375,782.71484375,-894.53125,0.0
1734414812.4042892,304.19921875,500.48828125,58.10546875,51.26953125,0.0
1734414812.4081936,-1000.0,-854.98046875,-832.03125,-1000.0,0.0
1734414812.412098,-937.01171875,-1000.0,-848.6328125,-892.08984375,0.0
1734414812.4160023,460.44921875,293.9453125,187.01171875,511.23046875,0.0
1734414812.4199312,-803.22265625,-855.95703125,689.453125,-870.1171875,0.0
1734414812.4238355,465.33203125,461.9140625,-71.2890625,185.546875,0.0
1734414812.4277399,-906.25,-771.484375,-823.2421875,-961.9140625,0.0
1734414812.4316442,-1000.0,-1000.0,-949.21875,-976.07421875,0.0
1734414812.4355485,281.25,-109.375,-103.02734375,364.74609375,0.0
1734414812.439453,-811.03515625,-908.203125,685.05859375,-859.86328125,0.0
1734414812.4433572,621.09375,733.88671875,170.8984375,367.1875,0.0
1734414812.4472616,-769.53125,-682.12890625,-771.484375,-854.98046875,0.0
1734414812.451166,-1000.0,-1000.0,-1000.0,-1000.0,0.0
1734414812.4550703,68.359375,-230.95703125,-231.4453125,162.59765625,0.0
1734414812.4589746,-870.1171875,-970.21484375,756.8359375,-884.27734375,0.0
1734414812.462879,763.671875,813.96484375,345.703125,583.984375,0.0
1734414812.466806,-601.5625,-610.3515625,-685.05859375,-743.65234375,0.0
1734414812.4707103,-1000.0,-1000.0,-988.28125,-1000.0,0.0
1734414812.4746146,-298.828125,-448.73046875,-234.86328125,-61.5234375,0.0
1734414812.478519,-987.3046875,905.76171875,665.0390625,-953.61328125,0.0
1734414812.4824233,849.12109375,916.015625,426.7578125,734.86328125,0.0
1734414812.4863276,-559.5703125,-518.5546875,-606.4453125,-661.1328125,0.0
1734414812.490232,-1000.0,-1000.0,-993.65234375,-1000.0,0.0
1734414812.4941363,-615.234375,-731.93359375,-494.140625,-266.6015625,0.0
1734414812.4980407,847.16796875,666.50390625,430.17578125,939.453125,0.0
1734414812.501945,958.984375,-925.29296875,606.4453125,886.71875,0.0
1734414812.5058494,-503.90625,-275.390625,-403.80859375,-528.80859375,0.0
1734414812.5097537,-1000.0,-1000.0,-1000.0,-1000.0,0.0
1734414812.5136788,-752.9296875,-788.0859375,-512.6953125,-466.30859375,0.0
1734414812.5175831,685.546875,615.234375,554.6875,814.453125,0.0
1734414812.5214875,-933.59375,-886.23046875,661.62109375,976.07421875,0.0
1734414812.5253918,-378.41796875,-146.484375,-381.8359375,-402.34375,0.0
1734414812.5292962,-1000.0,-1000.0,-998.53515625,-1000.0,0.0
1734414812.5332005,-844.7265625,-871.58203125,-695.80078125,-625.0,0.0
1734414812.5371048,537.59765625,540.52734375,410.15625,717.28515625,0.0
1734414812.5410092,-853.02734375,-887.6953125,649.90234375,-958.0078125,0.0
1734414812.5449135,-191.40625,-19.53125,-334.47265625,-246.58203125,0.0
1734414812.5488179,-1000.0,-1000.0,-925.78125,-1000.0,0.0
1734414812.5527222,-836.9140625,-925.29296875,-680.17578125,-739.74609375,0.0
1734414812.5566266,514.6484375,411.1328125,327.1484375,636.71875,0.0
1734414812.5605485,-813.96484375,-824.70703125,745.60546875,-909.66796875,0.0
1734414812.564453,172.8515625,468.75,20.99609375,-35.64453125,0.0
1734414812.5683572,-1000.0,-880.37109375,-840.33203125,-1000.0,0.0
1734414812.5722616,-881.8359375,-1000.0,-779.78515625,-850.5859375,0.0
1734414812.576166,497.0703125,353.515625,245.1171875,539.0625,0.0
1734414812.5800703,-815.4296875,-833.0078125,743.65234375,-874.0234375,0.0
1734414812.5839746,566.40625,638.18359375,114.74609375,195.3125,0.0
1734414812.587879,-866.2109375,-748.046875,-836.9140625,-963.8671875,0.0
1734414812.5917833,-1000.0,-1000.0,-880.37109375,-962.890625,0.0
1734414812.5956876,368.65234375,151.85546875,81.54296875,397.94921875,0.0
1734414812.599592,-839.35546875,-876.953125,736.328125,-857.421875,0.0
1734414812.6034963,724.609375,774.90234375,315.91796875,400.87890625,0.0
1734414812.607417,0.0,-593.75,-689.94140625,-838.8671875,0.0
1734414812.6113214,0.0,-1000.0,-926.7578125,-1000.0,0.0
1734414812.6152258,0.0,-255.859375,-134.27734375,186.03515625,0.0
1734414812.6191301,0.0,-989.2578125,632.32421875,-881.8359375,0.0
1734414812.6230345,0.0,831.0546875,337.890625,573.2421875,0.0
1734414812.6269388,0.0,-599.12109375,-676.26953125,-746.58203125,0.0
1734414812.6308432,0.0,-1000.0,-1000.0,-1000.0,0.0
1734414812.6347475,0.0,-437.98828125,-301.26953125,-37.59765625,0.0
1734414812.6386518,0.0,917.96875,722.65625,-943.359375,0.0
1734414812.6425562,0.0,900.87890625,514.16015625,698.2421875,0.0
1734414812.6464605,0.0,-541.015625,-621.58203125,-684.5703125,0.0
1734414812.6503649,0.0,-1000.0,-1000.0,-1000.0,0.0
1734414812.6542828,-509.27734375,-647.4609375,-315.4296875,-252.9296875,0.0
1734414812.6581872,920.41015625,747.0703125,627.44140625,956.54296875,0.0
1734414812.6620915,906.25,-970.703125,508.30078125,852.5390625,0.0
1734414812.6659958,-545.41015625,-383.7890625,-479.4921875,-575.1953125,0.0
1734414812.6699002,-1000.0,-1000.0,-981.4453125,-1000.0,0.0
1734414812.6738045,-701.66015625,-845.21484375,-575.1953125,-395.99609375,0.0
1734414812.6777089,749.51171875,550.78125,331.54296875,852.5390625,0.0
1734414812.6816132,-968.26171875,-880.859375,600.5859375,957.51953125,0.0
1734414812.6855175,-422.36328125,-205.078125,-251.46484375,-428.22265625,0.0
1734414812.689422,-1000.0,-1000.0,-971.19140625,-1000.0,0.0
1734414812.6933262,-833.0078125,-860.3515625,-591.30859375,-549.31640625,0.0
1734414812.6972306,566.89453125,542.96875,514.16015625,753.41796875,0.0
1734414812.7011464,-874.0234375,-860.83984375,738.28125,-969.7265625,0.0
1734414812.7050507,-275.87890625,-83.49609375,-189.94140625,-249.51171875,0.0
1734414812.708955,-1000.0,-1000.0,-951.171875,-1000.0,0.0
1734414812.7128594,-833.49609375,-906.73828125,-711.42578125,-674.31640625,0.0
1734414812.7167637,516.11328125,448.2421875,422.36328125,670.8984375,0.0
1734414812.720668,-818.359375,-834.9609375,695.80078125,-915.52734375,0.0
1734414812.7245724,80.078125,207.03125,-83.984375,-7.32421875,0.0
1734414812.7284768,-1000.0,-944.82421875,-829.58984375,-1000.0,0.0
1734414812.732381,-866.69921875,-1000.0,-763.18359375,-804.19921875,0.0
1734414812.7362854,499.51171875,138.18359375,151.3671875,583.0078125,0.0
1734414812.7401898,-808.59375,-854.98046875,713.8671875,-880.37109375,0.0
1734414812.7440941,475.5859375,667.96875,221.6796875,217.7734375,0.0
1734414812.7480242,-925.29296875,-753.41796875,-770.5078125,-974.12109375,0.0
1734414812.7519286,-1000.0,-1000.0,-866.69921875,-922.8515625,0.0
1734414812.755833,396.97265625,130.859375,128.41796875,471.19140625,0.0
1734414812.7597373,-825.68359375,-868.65234375,790.0390625,-857.91015625,0.0
1734414812.7636416,663.57421875,735.83984375,307.12890625,443.84765625,0.0
1734414812.767546,-756.34765625,-655.2734375,-746.58203125,-843.75,0.0
1734414812.7714503,-1000.0,-1000.0,-916.015625,-1000.0,0.0
1734414812.7753546,249.0234375,-107.421875,35.15625,333.984375,0.0
1734414812.779259,-853.02734375,-937.5,704.1015625,-863.76953125,0.0
1734414812.7831633,784.66796875,813.4765625,187.01171875,586.42578125,0.0
1734414812.787068,-581.0546875,-576.171875,-661.1328125,-751.953125,0.0
1734414812.7909722,-1000.0,-1000.0,-910.15625,-1000.0,0.0
1734414812.7949007,-37.59765625,-446.77734375,-208.0078125,131.8359375,0.0
1734414812.798805,-909.66796875,918.9453125,697.265625,-905.2734375,0.0
1734414812.8027093,821.2890625,884.765625,501.46484375,702.1484375,0.0
1734414812.8066137,-548.828125,-567.3828125,-598.14453125,-674.8046875,0.0
1734414812.810518,-1000.0,-1000.0,-1000.0,-1000.0,0.0
1734414812.8144224,-374.0234375,-677.734375,-403.80859375,-122.55859375,0.0
1734414812.8183267,984.86328125,744.140625,610.83984375,-994.62890625,0.0
1734414812.822231,861.328125,999.51171875,616.2109375,819.3359375,0.0
1734414812.8261354,-565.91796875,-463.8671875,-564.453125,-588.37890625,0.0
1734414812.8300397,-1000.0,-1000.0,-1000.0,-1000.0,0.0
1734414812.833944,-638.18359375,-724.12109375,-359.86328125,-371.58203125,0.0
1734414812.8378484,838.8671875,676.26953125,600.09765625,891.11328125,0.0
1734414812.8417778,944.3359375,-934.08203125,568.359375,882.32421875,0.0
1734414812.8456821,-540.52734375,-309.5703125,-409.1796875,-551.7578125,0.0
1734414812.8495865,-1000.0,-1000.0,-948.2421875,-1000.0,0.0
1734414812.8534908,-775.390625,-852.5390625,-548.828125,-508.30078125,0.0
1734414812.8573952,660.64453125,556.640625,458.0078125,788.57421875,0.0
1734414812.8612995,-929.19921875,-887.20703125,648.4375,987.79296875,0.0
1734414812.8652039,-381.34765625,-192.87109375,-319.82421875,-380.859375,0.0
1734414812.8691082,-1000.0,-1000.0,-971.19140625,-1000.0,0.0
1734414812.8730125,-837.890625,-858.3984375,-847.65625,-614.74609375,0.0
1734414812.876917,526.3671875,519.53125,381.34765625,708.0078125,0.0
1734414812.8808212,-835.9375,-843.75,804.19921875,-944.82421875,0.0
1734414812.8847256,-91.30859375,126.46484375,-156.73828125,-154.78515625,0.0
1734414812.8886497,-1000.0,-1000.0,-903.80859375,-1000.0,0.0
1734414812.892554,-840.8203125,-918.9453125,-681.15234375,-743.65234375,0.0
1734414812.8964584,511.71875,450.68359375,400.87890625,627.9296875,0.0
1734414812.9003627,-809.5703125,-826.171875,728.515625,-902.34375,0.0
1734414812.904267,311.5234375,519.04296875,64.453125,62.01171875,0.0
1734414812.9081714,-1000.0,-824.70703125,-798.828125,-1000.0,0.0
1734414812.9120758,-908.69140625,-1000.0,-880.859375,-868.65234375,0.0
1734414812.91598,500.0,212.890625,86.9140625,529.296875,0.0
1734414812.9198844,-819.82421875,-852.05078125,730.95703125,-874.51171875,0.0
1734414812.9237888,583.0078125,712.40234375,230.46875,234.86328125,0.0
1734414812.9276931,-852.5390625,-696.2890625,-750.0,-937.01171875,0.0
1734414812.9315975,-1000.0,-1000.0,-1000.0,-975.09765625,0.0
1734414812.9355202,365.234375,81.54296875,-17.578125,358.88671875,0.0
1734414812.9394245,-842.28515625,-881.8359375,809.5703125,-861.81640625,0.0
1734414812.9433289,735.83984375,755.37109375,349.609375,460.9375,0.0
1734414812.9472332,-669.921875,-622.55859375,-697.75390625,-807.12890625,0.0
1734414812.9511375,-1000.0,-1000.0,-953.61328125,-1000.0,0.0
1734414812.955042,190.91796875,-279.296875,-97.16796875,133.7890625,0.0
1734414812.9589462,-863.76953125,-987.3046875,694.3359375,-894.04296875,0.0
1734414812.9628506,801.7578125,795.41015625,203.61328125,644.04296875,0.0
1734414812.966755,-543.9453125,-625.48828125,-663.57421875,-712.40234375,0.0
1734414812.9706593,-1000.0,-1000.0,-954.58984375,-1000.0,0.0
1734414812.9745636,-205.56640625,-593.75,-281.25,-108.88671875,0.0
1734414812.978468,-956.54296875,816.40625,704.1015625,-976.07421875,0.0
1734414812.982389,0.0,957.03125,585.9375,751.953125,0.0
1734414812.9862933,0.0,-501.953125,-488.28125,-654.296875,0.0
1734414812.9901977,0.0,-1000.0,-1000.0,-1000.0,0.0
1734414812.994102,0.0,-791.9921875,-444.3359375,-289.55078125,0.0
1734414812.9980063,0.0,656.25,611.328125,929.19921875,0.0
1734414813.0019107,0.0,-979.98046875,612.3046875,864.2578125,0.0
1734414813.005815,0.0,-475.09765625,-519.04296875,-556.640625,0.0
1734414813.0097194,0.0,-1000.0,-1000.0,-1000.0,0.0
1734414813.0136237,0.0,-820.80078125,-453.125,-500.0,0.0
1734414813.017528,0.0,562.98828125,557.12890625,801.7578125,0.0
1734414813.0214324,0.0,-873.53515625,672.36328125,974.609375,0.0
1734414813.0253367,0.0,-160.64453125,-225.5859375,-413.0859375,0.0
1734414813.0292103,835.9375,-1000.0,-924.8046875,-1000.0,0.0
1734414813.0331147,-553.22265625,-886.23046875,-688.96484375,-610.83984375,0.0
1734414813.037019,-1000.0,464.35546875,386.71875,716.796875,0.0
1734414813.0409234,-583.984375,-833.0078125,759.27734375,-955.56640625,0.0
1734414813.0448277,875.9765625,155.2734375,-36.62109375,-204.1015625,0.0
1734414813.048732,928.7109375,-1000.0,-906.25,-1000.0,0.0
1734414813.0526364,-541.50390625,-953.61328125,-908.203125,-784.66796875,0.0
1734414813.0565407,-1000.0,412.59765625,321.77734375,598.6328125,0.0
1734414813.060445,-749.0234375,-821.2890625,803.7109375,-896.97265625,0.0
1734414813.0643494,689.94140625,336.42578125,-3.41796875,4.8828125,0.0
1734414813.0682538,-938.4765625,-922.36328125,-846.6796875,-1000.0,0.0
1734414813.072158,-386.71875,-1000.0,-839.35546875,-912.109375,0.0
1734414813.076075,467.28515625,232.91015625,174.31640625,476.07421875,0.0
1734414813.0799794,-807.6171875,-827.1484375,729.98046875,-868.65234375,0.0
1734414813.0838838,524.4140625,611.81640625,125.48828125,156.73828125,0.0
1734414813.087788,-874.51171875,-742.1875,-797.8515625,-961.9140625,0.0
1734414813.0916924,-1000.0,-1000.0,-964.35546875,-992.1875,0.0
1734414813.0955968,294.43359375,-177.734375,-111.81640625,315.4296875,0.0
1734414813.0995011,-825.68359375,-950.68359375,648.92578125,-864.74609375,0.0
1734414813.1034055,685.546875,783.69140625,206.54296875,355.95703125,0.0
1734414813.1073098,-708.49609375,-643.5546875,-735.83984375,-851.5625,0.0
1734414813.1112142,-1000.0,-1000.0,-1000.0,-1000.0,0.0
1734414813.1151185,74.21875,-267.08984375,-231.93359375,104.98046875,0.0
1734414813.1190228,-881.34765625,-985.83984375,755.859375,-895.01953125,0.0
1734414813.1229553,0.0,823.2421875,400.87890625,538.0859375,0.0
1734414813.1268597,0.0,-603.515625,-668.45703125,-763.18359375,0.0
1734414813.130764,0.0,-1000.0,-1000.0,-1000.0,0.0
1734414813.1346684,0.0,-540.0390625,-230.95703125,-134.27734375,0.0
1734414813.1385727,0.0,871.09375,658.203125,-969.23828125,0.0
1734414813.142477,0.0,893.5546875,345.21484375,681.640625,0.0
1734414813.1463814,0.0,-581.54296875,-604.4921875,-699.70703125,0.0
1734414813.1502857,0.0,-1000.0,-982.91015625,-1000.0,0.0
1734414813.15419,0.0,-805.6640625,-527.34375,-328.61328125,0.0
1734414813.1580944,0.0,636.23046875,438.4765625,934.5703125,0.0
1734414813.1619987,0.0,-963.37890625,594.7265625,827.63671875,0.0
1734414813.165903,0.0,-446.2890625,-474.12109375,-601.07421875,0.0
1734414813.1698327,-1000.0,-1000.0,-1000.0,-1000.0,0.0
1734414813.173737,-831.0546875,-853.515625,-570.80078125,-499.51171875,0.0
1734414813.1776414,635.25390625,580.56640625,469.7265625,820.80078125,0.0
1734414813.1815457,-996.58203125,-936.03515625,574.70703125,948.73046875,0.0
1734414813.18545,-533.203125,-404.296875,-448.2421875,-468.75,0.0
1734414813.1893544,-1000.0,-1000.0,-1000.0,-1000.0,0.0
1734414813.1932588,-852.5390625,-889.16015625,-717.7734375,-645.01953125,0.0
1734414813.197163,553.22265625,531.73828125,414.0625,708.49609375,0.0
1734414813.2010674,-895.01953125,-952.63671875,605.46875,-959.47265625,0.0
1734414813.2049718,-340.33203125,-383.30078125,-368.65234375,-273.92578125,0.0
1734414813.2088761,-1000.0,-1000.0,-914.55078125,-1000.0,0.0
1734414813.2127805,-835.9375,-967.7734375,-807.12890625,-743.1640625,0.0
1734414813.2167091,0.0,157.2265625,145.99609375,634.27734375,0.0
1734414813.2206135,0.0,-837.890625,711.42578125,-906.25,0.0
1734414813.2245178,0.0,315.4296875,-5.37109375,-73.2421875,0.0
1734414813.2284222,0.0,-895.99609375,-842.28515625,-1000.0,0.0
1734414813.2323265,0.0,-1000.0,-827.1484375,-786.62109375,0.0
1734414813.2362309,0.0,-52.24609375,-13.18359375,550.78125,0.0
1734414813.2401352,0.0,-887.20703125,621.09375,-894.04296875,0.0
1734414813.2440395,0.0,489.74609375,54.6875,75.1953125,0.0
1734414813.2479439,0.0,-841.30859375,-872.55859375,-1000.0,0.0
1734414813.2518482,0.0,-1000.0,-935.546875,-961.42578125,0.0
1734414813.2557526,0.0,-141.11328125,-33.69140625,385.7421875,0.0
1734414813.259657,0.0,-924.8046875,682.6171875,-860.3515625,0.0
1734414813.2635813,586.9140625,756.34765625,180.6640625,253.41796875,0.0
1734414813.2674856,-777.34375,-646.97265625,-755.859375,-903.3203125,0.0
1734414813.27139,-1000.0,-1000.0,-1000.0,-1000.0,0.0
1734414813.2752943,-139.16015625,-525.87890625,-276.85546875,174.31640625,0.0
1734414813.2791986,-908.203125,873.53515625,606.4453125,-876.46484375,0.0
1734414813.283103,739.2578125,832.51953125,226.5625,449.21875,0.0
1734414813.2870073,-659.66796875,-658.203125,-766.11328125,-804.19921875,0.0
1734414813.2909117,-1000.0,-1000.0,-1000.0,-1000.0,0.0
1734414813.294816,-452.63671875,-564.453125,-368.65234375,-59.5703125,0.0
1734414813.2987204,952.63671875,854.00390625,645.99609375,-933.59375,0.0
1734414813.3026247,873.53515625,898.92578125,396.97265625,620.60546875,0.0
1734414813.306529,-572.265625,-584.47265625,-680.17578125,-726.5625,0.0
1734414813.3104522,0.0,-1000.0,0.0,-1000.0,0.0
1734414813.3143568,0.0,-702.63671875,0.0,-297.36328125,0.0
1734414813.3182611,0.0,715.8203125,0.0,974.12109375,0.0
1734414813.3221655,0.0,-981.4453125,0.0,752.44140625,0.0
1734414813.3260698,0.0,-436.03515625,0.0,-666.50390625,0.0
1734414813.3299742,0.0,-1000.0,0.0,-1000.0,0.0
1734414813.3338785,0.0,-842.7734375,0.0,-490.234375,0.0
1734414813.3377829,0.0,540.52734375,0.0,856.93359375,0.0
1734414813.3416872,0.0,-872.55859375,0.0,881.34765625,0.0
1734414813.3455915,0.0,-166.50390625,0.0,-571.2890625,0.0
1734414813.349496,0.0,-1000.0,0.0,-1000.0,0.0
1734414813.3534002,0.0,-854.00390625,0.0,-655.76171875,0.0
1734414813.3573213,555.17578125,551.7578125,460.44921875,733.3984375,0.0
1734414813.3612256,-884.765625,-857.421875,675.78125,994.140625,0.0
1734414813.36513,-312.01171875,-34.1796875,-357.91015625,-428.22265625,0.0
1734414813.3690343,-1000.0,-1000.0,-1000.0,-1000.0,0.0
1734414813.3729386,-836.9140625,-918.45703125,-725.09765625,-764.6484375,0.0
1734414813.376843,522.94921875,467.7734375,336.9140625,637.6953125,0.0
1734414813.3807473,-828.125,-866.69921875,591.796875,-931.640625,0.0
1734414813.3846517,-13.671875,112.3046875,-324.21875,-242.1875,0.0
1734414813.388556,-1000.0,-984.86328125,-934.08203125,-1000.0,0.0
1734414813.3924603,-854.98046875,-979.98046875,-831.0546875,-838.8671875,0.0
1734414813.3963647,507.8125,310.05859375,119.140625,558.10546875,0.0
1734414813.400269,-807.12890625,-830.078125,744.62890625,-889.6484375,0.0
1734414813.4041884,340.33203125,642.08984375,72.265625,-41.015625,0.0
1734414813.4080927,-982.421875,-779.296875,-849.12109375,-1000.0,0.0
1734414813.411997,-981.4453125,-1000.0,-918.9453125,-925.78125,0.0
1734414813.4159014,388.18359375,276.85546875,75.68359375,445.80078125,0.0
1734414813.4198058,-811.5234375,-845.21484375,746.09375,-858.3984375,0.0
1734414813.42371,604.00390625,703.61328125,81.54296875,169.921875,0.0
1734414813.4276145,-810.546875,-696.77734375,-848.6328125,-951.171875,0.0
1734414813.4315188,-1000.0,-1000.0,-976.5625,-1000.0,0.0
1734414813.4354231,249.51171875,77.63671875,-68.84765625,262.6953125,0.0
1734414813.4393275,-837.890625,-892.08984375,741.69921875,-860.83984375,0.0
1734414813.4432318,733.3984375,790.0390625,285.15625,332.51953125,0.0
1734414813.4471362,-654.78515625,-586.42578125,-758.30078125,-862.79296875,0.0
1734414813.4510553,-1000.0,-1000.0,-1000.0,-1000.0,0.0
1734414813.4549596,31.25,-258.7890625,-208.984375,43.9453125,0.0
1734414813.458864,-893.06640625,997.55859375,689.453125,-897.4609375,0.0
1734414813.4627683,814.453125,884.27734375,373.046875,526.85546875,0.0
1734414813.4666727,-547.36328125,-514.16015625,-661.1328125,-765.625,0.0
1734414813.470577,-1000.0,-1000.0,-1000.0,-1000.0,0.0
1734414813.4744816,-312.98828125,-446.77734375,-362.79296875,-236.328125,0.0
1734414813.478386,-992.1875,900.390625,716.796875,-987.79296875,0.0
1734414813.4822903,851.5625,965.8203125,569.82421875,670.8984375,0.0
1734414813.4861946,-560.546875,-436.5234375,-650.87890625,-708.984375,0.0
1734414813.490099,-1000.0,-1000.0,-1000.0,-1000.0,0.0
1734414813.4940033,-610.83984375,-552.24609375,-420.41015625,-484.375,0.0
1734414813.4979331,842.28515625,776.3671875,585.9375,881.8359375,0.0
1734414813.5018375,976.07421875,-935.546875,566.40625,838.8671875,0.0
1734414813.5057418,-473.14453125,-190.4296875,-505.859375,-617.67578125,0.0
1734414813.5096462,-1000.0,-1000.0,-1000.0,-1000.0,0.0
1734414813.5135505,-755.859375,-775.390625,-585.44921875,-629.39453125,0.0
1734414813.5174549,671.38671875,594.23828125,423.33984375,765.13671875,0.0
1734414813.5213592,-913.0859375,-857.91015625,669.43359375,960.44921875,0.0
1734414813.5252635,-331.0546875,86.42578125,-277.83203125,-493.1640625,0.0
1734414813.529168,-1000.0,-1000.0,-1000.0,-1000.0,0.0
1734414813.5330722,-840.8203125,-869.140625,-785.64453125,-713.37890625,0.0
1734414813.5369768,529.296875,549.31640625,443.359375,673.33984375,0.0
1734414813.5408812,-837.40234375,-838.8671875,794.43359375,-951.66015625,0.0
1734414813.5448098,-98.14453125,238.28125,-178.7109375,-288.0859375,0.0
1734414813.5487142,-1000.0,-1000.0,-949.70703125,-1000.0,0.0
1734414813.5526185,-854.00390625,-952.1484375,-806.640625,-796.875,0.0
1734414813.5565228,525.87890625,464.84375,347.65625,606.93359375,0.0
1734414813.5604272,-805.6640625,-818.359375,758.7890625,-897.4609375,0.0
1734414813.5643315,11.71875,182.12890625,-249.0234375,-180.17578125,0.0
1734414813.5682359,-1000.0,-990.72265625,-957.51953125,-1000.0,0.0
1734414813.5721402,-875.0,-1000.0,-881.34765625,-866.2109375,0.0
1734414813.5760448,448.2421875,258.7890625,19.53125,488.76953125,0.0
1734414813.5799491,-804.19921875,-835.9375,735.3515625,-859.375,0.0
1734414813.5838535,558.59375,718.75,206.0546875,188.4765625,0.0
1734414813.5877578,-857.421875,-682.6171875,-809.5703125,-963.8671875,0.0
1734414813.5916843,-1000.0,-1000.0,-989.2578125,-980.95703125,0.0
1734414813.5955887,303.7109375,95.21484375,-14.16015625,365.234375,0.0
1734414813.5994933,-823.73046875,-874.0234375,782.71484375,-850.09765625,0.0
1734414813.6033976,673.33984375,744.140625,277.34375,398.92578125,0.0
1734414813.607302,-720.21484375,-633.30078125,-776.3671875,-837.890625,0.0
1734414813.6112063,-1000.0,-1000.0,-1000.0,-1000.0,0.0
1734414813.6151106,74.70703125,-245.60546875,-160.15625,132.8125,0.0
1734414813.619015,-881.8359375,-962.890625,722.16796875,-883.30078125,0.0
1734414813.6229193,805.17578125,746.58203125,20.01953125,561.03515625,0.0
1734414813.6268237,-551.7578125,-657.71484375,-862.79296875,-750.9765625,0.0
1734414813.630728,-1000.0,-1000.0,-997.55859375,-1000.0,0.0
1734414813.6346323,-284.1796875,-553.22265625,-341.796875,-121.58203125,0.0
1734414813.6385577,-982.421875,855.46875,697.75390625,-958.0078125,0.0
1734414813.642462,847.16796875,937.5,526.85546875,685.546875,0.0
1734414813.6463664,-558.59375,-520.01953125,-623.046875,-694.3359375,0.0
1734414813.6502707,-1000.0,-1000.0,-1000.0,-1000.0,0.0
1734414813.654175,-608.3984375,-679.6875,-458.49609375,-361.328125,0.0
1734414813.6580794,868.1640625,735.3515625,583.0078125,927.24609375,0.0
1734414813.6619837,919.921875,-981.4453125,564.453125,842.28515625,0.0
1734414813.665888,-562.98828125,-424.8046875,-572.75390625,-593.75,0.0
1734414813.6697924,-1000.0,-1000.0,-1000.0,-1000.0,0.0
1734414813.6736968,-744.140625,-790.52734375,-519.04296875,-553.7109375,0.0
1734414813.677601,690.4296875,595.21484375,544.43359375,791.50390625,0.0
1734414813.6815057,-932.12890625,-882.32421875,653.3203125,967.7734375,0.0
1734414813.685428,-368.65234375,-153.80859375,-408.69140625,-453.61328125,0.0
1734414813.6893322,-1000.0,-1000.0,-1000.0,-1000.0,0.0
1734414813.6932366,-825.68359375,-849.12109375,-643.5546875,-645.01953125,0.0
1734414813.697141,545.41015625,526.3671875,417.96875,710.44921875,0.0
1734414813.7010453,-840.8203125,-834.47265625,755.859375,-961.9140625,0.0
1734414813.7049496,-103.515625,176.7578125,-166.9921875,-275.87890625,0.0
1734414813.708854,-1000.0,-1000.0,-964.84375,-1000.0,0.0
1734414813.7127583,-837.890625,-898.4375,-893.5546875,-764.16015625,0.0
1734414813.7166626,509.27734375,495.60546875,332.03125,613.76953125,0.0
1734414813.720567,-809.5703125,-826.171875,834.9609375,-901.85546875,0.0
1734414813.7244713,344.23828125,528.80859375,60.05859375,-28.3203125,0.0
1734414813.728376,-1000.0,-870.1171875,-853.02734375,-1000.0,0.0
1734414813.7322958,-893.06640625,-1000.0,-822.75390625,-873.53515625,0.0
1734414813.7362,534.66796875,413.0859375,310.546875,517.08984375,0.0
1734414813.7401044,-829.1015625,-838.37890625,674.8046875,-977.05078125,0.0
1734414813.744009,606.4453125,688.96484375,83.49609375,142.578125,0.0
1734414813.7479134,-847.65625,-697.265625,-771.97265625,-945.80078125,0.0
1734414813.7518177,-1000.0,-1000.0,-958.984375,-982.421875,0.0
1734414813.755722,424.8046875,96.6796875,-61.5234375,384.27734375,0.0
1734414813.7596264,-847.65625,-883.7890625,720.21484375,-851.5625,0.0
1734414813.7635307,740.234375,796.875,402.34375,403.80859375,0.0
1734414813.767435,-682.6171875,-605.46875,-708.0078125,-840.8203125,0.0
1734414813.7713394,-1000.0,-1000.0,-1000.0,-1000.0,0.0
1734414813.7752438,284.1796875,-30.2734375,-79.58984375,179.6875,0.0
1734414813.7791617,-859.86328125,-917.96875,814.453125,-876.953125,0.0
1734414813.783066,809.08203125,818.359375,480.95703125,577.63671875,0.0
1734414813.7869704,-560.05859375,-568.359375,-652.34375,-744.140625,0.0
1734414813.7908747,-1000.0,-1000.0,-1000.0,-1000.0,0.0
1734414813.794779,48.33984375,-294.43359375,-152.34375,-56.15234375,0.0
1734414813.7986834,-887.6953125,990.72265625,725.5859375,-944.3359375,0.0
1734414813.8025877,809.5703125,867.1875,294.43359375,724.609375,0.0
1734414813.806492,-542.96875,-535.64453125,-644.04296875,-666.9921875,0.0
1734414813.8103964,-1000.0,-1000.0,-1000.0,-1000.0,0.0
1734414813.8143008,-368.1640625,-623.046875,-401.85546875,-288.0859375,0.0
1734414813.8182054,971.6796875,764.6484375,671.875,952.1484375,0.0
1734414813.8221097,900.87890625,-962.890625,659.66796875,845.21484375,0.0
1734414813.826026,0.0,-346.19140625,-499.51171875,-583.0078125,0.0
1734414813.8299303,0.0,-1000.0,-1000.0,-1000.0,0.0
1734414813.8338346,0.0,-827.1484375,-571.77734375,-490.72265625,0.0
1734414813.837739,0.0,590.8203125,557.12890625,831.54296875,0.0
1734414813.8416433,0.0,-899.4140625,734.375,939.94140625,0.0
1734414813.8455477,0.0,-273.4375,-472.65625,-481.4453125,0.0
1734414813.849452,0.0,-1000.0,-1000.0,-1000.0,0.0
1734414813.8533564,0.0,-833.0078125,-629.8828125,-650.390625,0.0
1734414813.8572607,0.0,533.203125,505.37109375,711.42578125,0.0
1734414813.861165,0.0,-837.890625,767.08984375,-969.23828125,0.0
1734414813.8650694,0.0,101.07421875,-204.58984375,-308.10546875,0.0
1734414813.8689737,0.0,-1000.0,-965.33203125,-1000.0,0.0
1734414813.872858,-503.90625,-923.828125,0.0,-772.4609375,0.0
1734414813.8767624,-1000.0,439.453125,0.0,616.2109375,0.0
1734414813.8806667,-654.78515625,-818.84765625,0.0,-907.2265625,0.0
1734414813.884571,781.25,381.8359375,0.0,-89.35546875,0.0
1734414813.8884754,-960.44921875,-913.0859375,0.0,-1000.0,0.0
1734414813.8923798,-377.44140625,-1000.0,0.0,-868.65234375,0.0
1734414813.896284,-1000.0,273.92578125,0.0,529.78515625,0.0
1734414813.9001884,-805.6640625,-815.91796875,0.0,-876.46484375,0.0
1734414813.9040928,589.84375,529.296875,0.0,81.0546875,0.0
1734414813.9079971,-862.3046875,-821.2890625,0.0,-1000.0,0.0
1734414813.9119015,-200.68359375,-1000.0,0.0,-969.7265625,0.0
1734414813.9158058,-1000.0,68.359375,0.0,363.28125,0.0
1734414813.9197378,-810.05859375,-865.72265625,780.2734375,-858.88671875,0.0
1734414813.9236422,605.46875,721.6796875,226.5625,301.26953125,0.0
1734414813.9275465,-794.43359375,-667.48046875,-805.6640625,-890.13671875,0.0
1734414813.9314508,-1000.0,-1000.0,-1000.0,-1000.0,0.0
1734414813.9353552,168.9453125,-196.2890625,-117.67578125,221.19140625,0.0
1734414813.9392595,-835.44921875,-951.171875,689.94140625,-877.44140625,0.0
1734414813.9431639,712.890625,769.53125,253.90625,482.421875,0.0
1734414813.9470685,-649.90234375,-641.6015625,-762.6953125,-775.87890625,0.0
1734414813.9509728,-1000.0,-1000.0,-1000.0,-1000.0,0.0
1734414813.9548771,-231.4453125,-517.08984375,-322.265625,-63.4765625,0.0
1734414813.9587815,-965.33203125,902.34375,757.32421875,-938.4765625,0.0
1734414813.9626858,839.35546875,870.1171875,494.140625,657.71484375,0.0
1734414813.9666126,-554.19921875,-607.91015625,0.0,-708.49609375,0.0
1734414813.970517,-1000.0,-1000.0,0.0,-1000.0,0.0
1734414813.9744213,-588.37890625,-733.3984375,0.0,-284.1796875,0.0
1734414813.9783256,887.6953125,732.421875,0.0,960.9375,0.0
1734414813.98223,898.4375,958.984375,0.0,824.21875,0.0
1734414813.9861343,-587.890625,-556.640625,0.0,-600.09765625,0.0
1734414813.9900386,-1000.0,-1000.0,0.0,-1000.0,0.0
1734414813.993943,-743.65234375,-840.33203125,0.0,-464.84375,0.0
1734414813.9978473,731.4453125,569.82421875,0.0,846.19140625,0.0
1734414814.0017517,991.69921875,-905.2734375,0.0,935.546875,0.0
1734414814.005656,-516.11328125,-325.1953125,0.0,-490.234375,0.0
1734414814.0095606,-1000.0,-1000.0,0.0,-1000.0,0.0
1734414814.0134883,-841.30859375,-848.14453125,-672.36328125,-584.9609375,0.0
1734414814.0173926,571.77734375,553.22265625,516.11328125,745.60546875,0.0
1734414814.021297,-903.3203125,-874.0234375,760.7421875,-979.4921875,0.0
1734414814.0252013,-356.93359375,-188.4765625,-337.890625,-310.546875,0.0
1734414814.0291057,-1000.0,-1000.0,-1000.0,-1000.0,0.0
1734414814.03301,-835.44921875,-895.99609375,-791.50390625,-710.9375,0.0
1734414814.0369143,521.97265625,455.56640625,382.8125,656.73828125,0.0
1734414814.0408187,-829.58984375,-849.12109375,740.234375,-916.50390625,0.0
1734414814.044723,-31.73828125,104.4921875,-175.29296875,-81.0546875,0.0
1734414814.0486274,-1000.0,-999.0234375,-906.73828125,-1000.0,0.0
1734414814.0525317,-846.19140625,-989.74609375,-866.69921875,-827.63671875,0.0
1734414814.056436,513.18359375,273.4375,184.5703125,565.91796875,0.0
1734414814.0603607,-807.6171875,-820.3125,818.84765625,-877.44140625,0.0
1734414814.0642653,354.00390625,598.6328125,194.82421875,150.390625,0.0
1734414814.0681696,-979.98046875,-794.921875,-816.89453125,-1000.0,0.0
1734414814.072074,-977.5390625,-1000.0,-969.7265625,-923.828125,0.0
1734414814.0759783,400.87890625,144.53125,104.00390625,468.26171875,0.0
1734414814.0798826,-812.98828125,-853.515625,806.15234375,-854.98046875,0.0
1734414814.083787,606.4453125,705.078125,198.73046875,383.30078125,0.0
1734414814.0876913,-809.08203125,-690.4296875,-818.359375,-869.62890625,0.0
1734414814.0915956,-1000.0,-1000.0,-1000.0,-1000.0,0.0
1734414814.0955,255.37109375,-51.26953125,-24.4140625,316.40625,0.0
1734414814.0994043,-842.7734375,-914.55078125,808.10546875,-860.3515625,0.0
1734414814.1033087,749.51171875,797.36328125,427.734375,551.26953125,0.0
1734414814.1072307,0.0,-585.9375,-698.2421875,-765.625,0.0
1734414814.111135,0.0,-1000.0,-1000.0,-1000.0,0.0
1734414814.1150393,0.0,-437.01171875,-216.796875,110.3515625,0.0
1734414814.1189437,0.0,931.15234375,737.3046875,-903.80859375,0.0
1734414814.122848,0.0,874.51171875,525.390625,691.40625,0.0
1734414814.1267526,0.0,-580.56640625,-647.4609375,-684.08203125,0.0
1734414814.130657,0.0,-1000.0,-1000.0,-1000.0,0.0
1734414814.1345613,0.0,-598.14453125,-343.26171875,-91.30859375,0.0
1734414814.1384656,0.0,819.3359375,747.55859375,-985.3515625,0.0
1734414814.14237,0.0,974.12109375,629.39453125,829.58984375,0.0
1734414814.1462743,0.0,-476.07421875,-584.9609375,-585.9375,0.0
1734414814.1501787,0.0,-1000.0,-1000.0,-1000.0,0.0
1734414814.1540534,-628.41796875,-737.79296875,-406.25,-228.02734375,0.0
1734414814.1579578,-1000.0,662.59765625,607.421875,929.19921875,0.0
1734414814.1618624,-7.8125,-908.69140625,630.37109375,921.875,0.0
1734414814.1657667,-902.34375,-279.78515625,-423.33984375,-478.02734375,0.0
1734414814.169671,817.3828125,-1000.0,-1000.0,-1000.0,0.0
1734414814.1735754,-547.8515625,-737.3046875,-513.18359375,-288.57421875,0.0
1734414814.1774797,-1000.0,572.75390625,427.734375,860.83984375,0.0
1734414814.181384,-351.07421875,-862.3046875,714.84375,979.00390625,0.0
1734414814.1852884,994.62890625,28.80859375,-170.41015625,-279.296875,0.0
1734414814.1891928,856.93359375,-1000.0,-993.65234375,-1000.0,0.0
1734414814.193097,-563.96484375,-866.69921875,-655.76171875,-596.6796875,0.0
1734414814.1970015,-1000.0,535.64453125,508.7890625,717.28515625,0.0
1734414814.2009196,-819.82421875,-829.58984375,800.29296875,-934.5703125,0.0
1734414814.204824,7.32421875,231.4453125,-52.734375,-101.07421875,0.0
1734414814.2087283,-1000.0,-1000.0,-917.96875,-1000.0,0.0
1734414814.2126327,-749.51171875,-833.984375,-730.46875,-628.90625,0.0
1734414814.216537,546.875,486.328125,397.94921875,670.8984375,0.0
1734414814.2204416,-827.1484375,-846.6796875,756.8359375,-918.45703125,0.0
1734414814.224346,442.3828125,594.7265625,79.58984375,137.6953125,0.0
1734414814.2282503,-976.07421875,-802.734375,-808.59375,-1000.0,0.0
1734414814.2321546,-923.828125,-1000.0,-847.65625,-858.88671875,0.0
1734414814.236059,518.06640625,280.2734375,141.6015625,540.52734375,0.0
1734414814.2399633,-832.51953125,-850.09765625,776.3671875,-876.46484375,0.0
1734414814.2438676,631.8359375,739.2578125,308.59375,320.3125,0.0
1734414814.2477996,0.0,-663.0859375,0.0,-901.3671875,0.0
1734414814.251704,0.0,-1000.0,0.0,-975.09765625,0.0
1734414814.2556083,0.0,111.81640625,0.0,386.23046875,0.0
1734414814.2595127,0.0,-876.46484375,0.0,-869.140625,0.0
1734414814.2634172,0.0,767.578125,0.0,465.8203125,0.0
1734414814.2673216,0.0,-610.3515625,0.0,-815.4296875,0.0
1734414814.271226,0.0,-1000.0,0.0,-1000.0,0.0
1734414814.2751303,0.0,-208.49609375,0.0,237.79296875,0.0
1734414814.2790346,0.0,-976.5625,0.0,-886.23046875,0.0
1734414814.282939,0.0,843.75,0.0,586.42578125,0.0
1734414814.2868433,0.0,-554.6875,0.0,-750.0,0.0
1734414814.2907476,0.0,-1000.0,0.0,-1000.0,0.0
1734414814.2946327,-812.98828125,-509.765625,-251.953125,53.22265625,0.0
1734414814.298537,-1000.0,886.71875,739.2578125,-937.98828125,0.0
1734414814.3024414,375.48828125,913.0859375,555.17578125,690.4296875,0.0
1734414814.3063457,-845.21484375,-544.921875,-602.05078125,-684.08203125,0.0
1734414814.31025,745.60546875,-1000.0,-1000.0,-1000.0,0.0
1734414814.3141544,-664.55078125,-704.58984375,-384.765625,-146.484375,0.0
1734414814.3180587,-1000.0,718.26171875,631.34765625,976.07421875,0.0
1734414814.321963,226.5625,-987.3046875,626.953125,796.38671875,0.0
1734414814.3258674,-857.91015625,-452.1484375,-565.4296875,-605.46875,0.0
1734414814.329772,800.29296875,-1000.0,-1000.0,-1000.0,0.0
1734414814.3336763,-545.41015625,-827.1484375,-458.984375,-310.05859375,0.0
1734414814.3375807,-1000.0,558.10546875,512.20703125,876.46484375,0.0
1734414814.3415089,-954.1015625,-872.55859375,627.44140625,905.2734375,0.0
1734414814.3454132,-402.34375,-160.64453125,-307.6171875,-482.91015625,0.0
1734414814.3493176,-1000.0,-1000.0,-939.94140625,-1000.0,0.0
1734414814.353222,-824.70703125,-856.4453125,-583.984375,-419.43359375,0.0
1734414814.3571262,558.10546875,542.48046875,429.19921875,798.828125,0.0
1734414814.3610306,-854.00390625,-853.02734375,670.41015625,986.81640625,0.0
1734414814.364935,-178.7109375,2.44140625,-218.26171875,-277.83203125,0.0
1734414814.3688393,-1000.0,-1000.0,-955.078125,-1000.0,0.0
1734414814.3727438,-841.796875,-887.20703125,-860.3515625,-559.5703125,0.0
1734414814.3766482,520.01953125,496.58203125,348.14453125,724.609375,0.0
1734414814.3805525,-817.87109375,-826.66015625,802.734375,-956.0546875,0.0
1734414814.3844569,109.375,271.97265625,-76.171875,-105.95703125,0.0
1734414814.3883834,0.0,-953.61328125,-862.79296875,-1000.0,0.0
1734414814.3922877,0.0,-1000.0,-775.87890625,-613.28125,0.0
1734414814.396192,0.0,277.34375,198.2421875,665.0390625,0.0
1734414814.4000967,0.0,-825.1953125,703.61328125,-938.4765625,0.0
1734414814.404001,0.0,607.421875,96.6796875,79.1015625,0.0
1734414814.4079053,0.0,-768.5546875,-812.01171875,-1000.0,0.0
1734414814.4118097,0.0,-1000.0,-870.1171875,-856.93359375,0.0
1734414814.415714,0.0,54.19921875,-1.46484375,482.91015625,0.0
1734414814.4196184,0.0,-882.32421875,654.296875,-901.3671875,0.0
1734414814.4235227,0.0,753.41796875,280.76171875,234.375,0.0
1734414814.427427,0.0,-642.578125,-729.00390625,-904.78515625,0.0
1734414814.4313314,0.0,-1000.0,-997.55859375,-989.74609375,0.0
1734414814.43521,-1000.0,-160.64453125,-79.58984375,242.67578125,0.0
1734414814.4391143,-860.83984375,-939.94140625,752.44140625,-906.25,0.0
1734414814.4430187,518.06640625,782.2265625,313.96484375,391.11328125,0.0
1734414814.446923,-811.03515625,-620.1171875,-705.56640625,-829.1015625,0.0
1734414814.4508274,466.796875,-1000.0,-982.421875,-998.046875,0.0
1734414814.4547317,-927.734375,-582.03125,-249.0234375,47.8515625,0.0
1734414814.458636,-1000.0,874.51171875,585.9375,-958.0078125,0.0
1734414814.4625406,390.13671875,783.203125,87.890625,544.921875,0.0
1734414814.466445,-821.77734375,-701.66015625,-741.69921875,-770.5078125,0.0
1734414814.4703493,649.4140625,-1000.0,-958.984375,-1000.0,0.0
1734414814.4742537,-757.8125,-766.6015625,-414.55078125,-179.6875,0.0
1734414814.478158,-1000.0,689.94140625,597.65625,966.796875,0.0
1734414814.4820817,897.4609375,999.51171875,551.7578125,687.01171875,0.0
1734414814.485986,-587.40234375,-497.0703125,-516.6015625,-688.96484375,0.0
1734414814.4898903,-1000.0,-1000.0,-1000.0,-1000.0,0.0
1734414814.4937947,-741.2109375,-834.9609375,-574.21875,-315.4296875,0.0
1734414814.497699,730.46875,604.00390625,500.9765625,883.30078125,0.0
1734414814.5016034,997.55859375,-951.171875,572.265625,843.75,0.0
1734414814.5055077,-504.39453125,-424.31640625,-515.625,-554.19921875,0.0
1734414814.5094123,-1000.0,-1000.0,-1000.0,-1000.0,0.0
1734414814.5133166,-837.40234375,-830.078125,-617.1875,-438.4765625,0.0
1734414814.517221,565.91796875,529.296875,437.5,802.24609375,0.0
1734414814.5211253,-887.20703125,-846.19140625,671.875,958.984375,0.0
1734414814.5250297,-313.4765625,24.90234375,-208.0078125,-354.98046875,0.0
1734414814.528948,-1000.0,-1000.0,-912.109375,-1000.0,0.0
1734414814.5328524,-833.0078125,-925.29296875,-687.98828125,-563.96484375,0.0
1734414814.5367568,517.08984375,422.36328125,325.1953125,722.65625,0.0
1734414814.5406613,-821.2890625,-825.68359375,708.0078125,-976.5625,0.0
1734414814.5445657,48.828125,303.22265625,-48.33984375,-166.015625,0.0
1734414814.54847,-1000.0,-958.984375,-897.94921875,-1000.0,0.0
1734414814.5523744,-855.46875,-993.1640625,-938.4765625,-684.5703125,0.0
1734414814.5562787,517.08984375,367.67578125,207.03125,632.32421875,0.0
1734414814.560183,-809.5703125,-818.84765625,771.97265625,-931.640625,0.0
1734414814.5640874,394.04296875,474.12109375,20.01953125,36.1328125,0.0
1734414814.5679917,-960.9375,-844.7265625,-801.7578125,-1000.0,0.0
1734414814.571896,-988.76953125,-1000.0,-875.48828125,-827.1484375,0.0
1734414814.575814,395.5078125,132.8125,55.17578125,493.1640625,0.0
1734414814.5797184,-813.4765625,-852.05078125,717.28515625,-906.73828125,0.0
1734414814.5836227,609.86328125,671.38671875,148.4375,233.3984375,0.0
1734414814.587527,-800.29296875,-694.82421875,-791.9921875,-909.66796875,0.0
1734414814.5914314,-1000.0,-1000.0,-912.59765625,-961.9140625,0.0
1734414814.5953357,228.515625,-259.765625,-146.484375,296.875,0.0
1734414814.59924,-839.84375,-993.65234375,611.81640625,-910.15625,0.0
1734414814.6031446,736.81640625,824.70703125,332.03125,387.6953125,0.0
1734414814.607049,-631.34765625,-612.3046875,-670.41015625,-836.42578125,0.0
1734414814.6109533,-1000.0,-1000.0,-1000.0,-1000.0,0.0
1734414814.6148577,-105.46875,-376.953125,-198.73046875,114.2578125,0.0
1734414814.618762,-927.24609375,966.796875,723.6328125,-937.98828125,0.0
1734414814.622694,0.0,846.19140625,0.0,542.48046875,0.0
1734414814.6265986,0.0,-599.609375,0.0,-757.8125,0.0
1734414814.630503,0.0,-1000.0,0.0,-1000.0,0.0
1734414814.6344073,0.0,-666.015625,0.0,-115.234375,0.0
1734414814.6383116,0.0,777.83203125,0.0,984.86328125,0.0
1734414814.642216,0.0,938.4765625,0.0,716.796875,0.0
1734414814.6461203,0.0,-556.15234375,0.0,-665.52734375,0.0
1734414814.6500247,0.0,-1000.0,0.0,-1000.0,0.0
1734414814.653929,0.0,-822.75390625,0.0,-265.625,0.0
1734414814.6578333,0.0,586.42578125,0.0,894.04296875,0.0
1734414814.6617377,0.0,-907.2265625,0.0,859.375,0.0
1734414814.665642,0.0,-306.640625,0.0,-507.8125,0.0
1734414814.6695704,-1000.0,-1000.0,-994.140625,-1000.0,0.0
1734414814.673475,-814.453125,-851.5625,-544.921875,-411.62109375,0.0
1734414814.6773794,608.88671875,561.03515625,462.40234375,810.546875,0.0
1734414814.6812837,-911.1328125,-876.953125,595.21484375,975.09765625,0.0
1734414814.685188,-361.328125,-250.0,-372.55859375,-372.0703125,0.0
1734414814.6890924,-1000.0,-1000.0,-1000.0,-1000.0,0.0
1734414814.6929967,-839.35546875,-883.7890625,-691.40625,-526.85546875,0.0
1734414814.696901,527.83203125,481.93359375,381.8359375,720.703125,0.0
1734414814.7008054,-837.40234375,-876.46484375,635.25390625,-960.9375,0.0
1734414814.7047098,-99.609375,-6.8359375,-249.0234375,-125.0,0.0
1734414814.708614,-1000.0,-1000.0,-879.39453125,-1000.0,0.0
1734414814.7125185,-841.30859375,-963.37890625,-698.2421875,-666.015625,0.0
1734414814.7164454,512.6953125,313.4765625,266.11328125,656.73828125,0.0
1734414814.7203498,-808.59375,-821.2890625,745.1171875,-932.6171875,0.0
1734414814.7242541,282.2265625,491.69921875,117.1875,36.1328125,0.0
1734414814.7281587,-1000.0,-836.42578125,-781.25,-1000.0,0.0
1734414814.732063,-936.03515625,-1000.0,-819.82421875,-771.484375,0.0
1734414814.7359674,447.265625,111.81640625,86.9140625,550.29296875,0.0
1734414814.7398717,-812.01171875,-851.07421875,718.75,-912.109375,0.0
1734414814.743776,578.125,659.66796875,202.1484375,234.86328125,0.0
1734414814.7476804,-841.796875,-738.76953125,-828.61328125,-920.41015625,0.0
1734414814.7515848,-1000.0,-1000.0,-874.51171875,-925.29296875,0.0
1734414814.755489,296.875,-17.578125,52.24609375,379.8828125,0.0
1734414814.7593935,-820.80078125,-897.4609375,709.47265625,-909.1796875,0.0
1734414814.7633185,660.15625,753.90625,283.203125,312.98828125,0.0
1734414814.767223,-732.91015625,-630.37109375,-671.875,-872.55859375,0.0
1734414814.7711272,-1000.0,-1000.0,-937.98828125,-994.140625,0.0
1734414814.7750316,64.94140625,-426.7578125,-193.84765625,183.59375,0.0
1734414814.778936,-883.7890625,937.5,667.96875,-925.78125,0.0
1734414814.7828403,805.6640625,835.44921875,347.16796875,541.9921875,0.0
1734414814.7867446,-550.78125,-631.34765625,-645.01953125,-770.01953125,0.0
1734414814.790649,-1000.0,-1000.0,-1000.0,-1000.0,0.0
1734414814.7945533,-301.26953125,-532.2265625,-314.94140625,35.15625,0.0
1734414814.7984576,-988.28125,865.72265625,717.28515625,-975.5859375,0.0
1734414814.802362,849.609375,928.22265625,554.6875,698.73046875,0.0
1734414814.8062665,-560.05859375,-529.78515625,-590.8203125,-656.25,0.0
1734414814.8101892,-1000.0,-1000.0,-1000.0,-1000.0,0.0
1734414814.8140936,-612.3046875,-699.70703125,-327.63671875,-203.61328125,0.0
1734414814.817998,846.6796875,693.359375,568.84765625,922.36328125,0.0
1734414814.8219023,964.35546875,-937.5,519.53125,846.6796875,0.0
1734414814.8258066,-494.62890625,-314.94140625,-387.20703125,-523.92578125,0.0
1734414814.829711,-1000.0,-1000.0,-944.82421875,-1000.0,0.0
1734414814.8336155,-758.30078125,-838.8671875,-576.171875,-308.10546875,0.0
1734414814.83752,676.7578125,547.36328125,319.3359375,837.890625,0.0
1734414814.8414242,-926.26953125,-860.3515625,632.32421875,958.0078125,0.0
1734414814.8453286,-365.234375,-76.171875,-173.828125,-343.26171875,0.0
1734414814.849233,-1000.0,-1000.0,-944.3359375,-1000.0,0.0
1734414814.8531373,-837.890625,-866.2109375,-619.62890625,-447.265625,0.0
1734414814.8570573,535.64453125,545.8984375,483.88671875,777.83203125,0.0
1734414814.8609617,-837.40234375,-846.19140625,737.79296875,-982.421875,0.0
1734414814.864866,-137.6953125,22.94921875,-194.3359375,-169.921875,0.0
1734414814.8687704,-1000.0,-1000.0,-934.08203125,-1000.0,0.0
1734414814.8726747,-738.28125,-845.703125,-670.41015625,-537.59765625,0.0
1734414814.876579,544.921875,448.2421875,351.5625,702.63671875,0.0
1734414814.8804836,-826.171875,-868.1640625,645.99609375,-947.265625,0.0
1734414814.884388,287.59765625,262.6953125,-130.37109375,61.03515625,0.0
1734414814.8882923,-1000.0,-916.50390625,-825.68359375,-1000.0,0.0
1734414814.8921967,-894.04296875,-1000.0,-763.671875,-755.37109375,0.0
1734414814.896101,511.71875,216.796875,157.71484375,582.03125,0.0
1734414814.9000053,-822.265625,-849.609375,751.953125,-909.1796875,0.0
1734414814.9039247,588.37890625,726.5625,236.328125,231.93359375,0.0
1734414814.907829,-855.46875,-689.94140625,-729.00390625,-930.17578125,0.0
1734414814.9117334,-1000.0,-1000.0,-869.62890625,-896.97265625,0.0
1734414814.9156377,394.53125,133.7890625,74.70703125,411.1328125,0.0
1734414814.919542,-840.8203125,-873.046875,751.46484375,-903.3203125,0.0
1734414814.9234464,723.6328125,753.41796875,215.33203125,377.9296875,0.0
1734414814.9273508,-687.98828125,-628.90625,-808.59375,-841.30859375,0.0
1734414814.931255,-1000.0,-1000.0,-928.22265625,-1000.0,0.0
1734414814.9351594,224.609375,-167.96875,-57.6171875,174.8046875,0.0
1734414814.9390638,-857.91015625,-955.078125,713.8671875,-923.828125,0.0
1734414814.9429684,797.8515625,824.70703125,402.83203125,507.8125,0.0
1734414814.9468727,-541.9921875,-574.21875,-608.3984375,-778.80859375,0.0
1734414814.9507885,-1000.0,-1000.0,-978.515625,-1000.0,0.0
1734414814.9546928,-196.77734375,-560.05859375,-252.44140625,-42.96875,0.0
1734414814.9585972,-953.61328125,842.7734375,653.3203125,-984.86328125,0.0
1734414814.9625018,834.47265625,925.29296875,427.734375,652.83203125,0.0
1734414814.966406,-552.24609375,-539.0625,-546.875,-700.1953125,0.0
1734414814.9703104,-1000.0,-1000.0,-1000.0,-1000.0,0.0
1734414814.9742148,-583.984375,-708.49609375,-439.94140625,-229.00390625,0.0
1734414814.9781191,888.671875,729.98046875,613.28125,924.8046875,0.0
1734414814.9820235,897.4609375,994.62890625,574.21875,792.48046875,0.0
1734414814.9859278,-588.37890625,-487.3046875,-573.73046875,-599.609375,0.0
1734414814.9898322,-1000.0,-1000.0,-1000.0,-1000.0,0.0
1734414814.9937365,-752.44140625,-820.3125,-484.375,-384.27734375,0.0
1734414814.9976678,705.56640625,576.171875,483.3984375,837.890625,0.0
1734414815.0015721,-968.26171875,-887.20703125,545.41015625,904.296875,0.0
1734414815.0054765,-466.30859375,-236.328125,-369.140625,-471.6796875,0.0
1734414815.0093808,-1000.0,-1000.0,-945.3125,-1000.0,0.0
1734414815.0132852,-749.0234375,-892.08984375,-603.02734375,-457.51953125,0.0
1734414815.0171895,579.58984375,447.265625,280.76171875,773.92578125,0.0
1734414815.021094,-889.6484375,-837.890625,593.75,980.95703125,0.0
1734414815.0249984,-276.85546875,54.6875,-163.57421875,-280.2734375,0.0
1734414815.0289028,-1000.0,-1000.0,-958.49609375,-1000.0,0.0
1734414815.032807,-836.42578125,-931.15234375,-855.46875,-666.015625,0.0
1734414815.0367115,520.99609375,453.61328125,319.82421875,646.97265625,0.0
1734414815.0406158,-823.2421875,-832.03125,736.328125,-947.75390625,0.0
1734414815.044547,19.53125,131.8359375,-183.10546875,-86.9140625,0.0
1734414815.0484514,-1000.0,-981.4453125,-900.87890625,-1000.0,0.0
1734414815.0523558,-888.18359375,-1000.0,-827.63671875,-816.89453125,0.0
1734414815.0562603,467.7734375,153.80859375,45.41015625,518.5546875,0.0
1734414815.0601647,-801.7578125,-867.1875,469.23828125,944.82421875,0.0
1734414815.064069,332.03125,317.3828125,-137.20703125,-20.5078125,0.0
1734414815.0679734,-959.47265625,-868.1640625,-827.1484375,-962.40234375,0.0
1734414815.0718777,-1000.0,-1000.0,-891.11328125,-936.5234375,0.0
1734414815.075782,294.921875,-188.4765625,-135.7421875,332.03125,0.0
1734414815.0796864,-812.5,-946.2890625,583.0078125,-915.0390625,0.0
1734414815.0835907,645.5078125,783.203125,229.98046875,258.30078125,0.0
1734414815.087495,-754.39453125,-651.85546875,-743.1640625,-886.71875,0.0
1734414815.0914228,-1000.0,-1000.0,-1000.0,-1000.0,0.0
1734414815.0953271,112.3046875,-233.3984375,-141.11328125,144.53125,0.0
1734414815.0992315,-863.76953125,-966.796875,701.66015625,-936.5234375,0.0
1734414815.1031358,768.06640625,791.50390625,256.34765625,428.7109375,0.0
1734414815.1070402,-596.19140625,-628.90625,-715.33203125,-813.96484375,0.0
1734414815.1109445,-1000.0,-1000.0,-1000.0,-1000.0,0.0
1734414815.1148489,-235.3515625,-520.01953125,-249.51171875,-39.0625,0.0
1734414815.1187532,-966.30859375,901.85546875,618.1640625,-979.98046875,0.0
1734414815.1226575,840.8203125,830.56640625,94.7265625,608.88671875,0.0
1734414815.126562,-555.17578125,-636.71875,-699.21875,-726.5625,0.0
1734414815.1304665,-1000.0,-1000.0,-944.3359375,-1000.0,0.0
1734414815.1343708,-573.73046875,-762.6953125,-473.6328125,-240.234375,0.0
1734414815.138297,895.01953125,676.26953125,555.17578125,0.0,0.0
1734414815.1422014,895.5078125,-972.65625,574.70703125,0.0,0.0
1734414815.1461058,-585.44921875,-441.89453125,-503.90625,0.0,0.0
1734414815.15001,-1000.0,-1000.0,-1000.0,0.0,0.0
1734414815.1539145,-719.23828125,-822.265625,-490.234375,0.0,0.0
1734414815.1578188,745.60546875,605.95703125,464.35546875,0.0,0.0
1734414815.1617231,-992.1875,-930.17578125,545.41015625,0.0,0.0
1734414815.1656275,-477.05078125,-363.76953125,-475.5859375,0.0,0.0
1734414815.1695318,-1000.0,-1000.0,-1000.0,0.0,0.0
1734414815.1734364,-831.54296875,-832.51953125,-556.15234375,0.0,0.0
1734414815.1773407,571.77734375,529.78515625,442.87109375,0.0,0.0
1734414815.181245,-884.27734375,-843.26171875,644.53125,0.0,0.0
1734414815.1851716,0.0,43.9453125,-182.6171875,-305.17578125,0.0
1734414815.189076,0.0,-1000.0,-900.87890625,-1000.0,0.0
1734414815.1929805,0.0,-933.59375,-698.73046875,-619.62890625,0.0
1734414815.1968849,0.0,427.24609375,309.08203125,684.5703125,0.0
1734414815.2007892,0.0,-831.54296875,702.63671875,-954.58984375,0.0
1734414815.2046936,0.0,204.58984375,-123.53515625,-92.7734375,0.0
1734414815.208598,0.0,-996.58203125,-912.59765625,-1000.0,0.0
1734414815.2125022,0.0,-974.12109375,-927.734375,-746.58203125,0.0
1734414815.2164066,0.0,362.79296875,180.6640625,580.56640625,0.0
1734414815.220311,0.0,-824.70703125,760.7421875,-917.96875,0.0
1734414815.2242155,0.0,559.08203125,52.24609375,126.46484375,0.0
1734414815.2281199,0.0,-801.26953125,-794.43359375,-970.21484375,0.0
1734414815.2320416,-996.58203125,-1000.0,-842.7734375,-907.71484375,0.0
1734414815.235946,415.52734375,191.89453125,115.72265625,416.9921875,0.0
1734414815.2398503,-825.68359375,-856.4453125,696.2890625,-905.76171875,0.0
1734414815.2437546,655.76171875,717.7734375,163.0859375,259.765625,0.0
1734414815.247659,-763.18359375,-647.94921875,-727.05078125,-888.671875,0.0
1734414815.2515635,-1000.0,-1000.0,-940.91796875,-999.0234375,0.0
1734414815.255468,250.48828125,-226.07421875,-201.171875,216.30859375,0.0
1734414815.2593722,-851.07421875,-982.91015625,572.265625,-916.9921875,0.0
1734414815.2632766,778.80859375,833.984375,382.32421875,416.015625,0.0
1734414815.267181,-585.44921875,-595.21484375,-639.6484375,-815.91796875,0.0
1734414815.2710853,-1000.0,-1000.0,-1000.0,-1000.0,0.0
1734414815.2749896,-54.6875,-354.00390625,-202.1484375,2.9296875,0.0
1734414815.2789102,-914.0625,972.16796875,688.96484375,-962.40234375,0.0
1734414815.2828145,820.80078125,863.76953125,378.41796875,577.63671875,0.0
1734414815.2867188,-547.36328125,-571.77734375,-613.76953125,-743.65234375,0.0
1734414815.2906234,-1000.0,-1000.0,-1000.0,-1000.0,0.0
1734414815.2945278,-423.33984375,-593.75,-268.5546875,-187.5,0.0
1734414815.298432,964.84375,817.87109375,598.6328125,956.0546875,0.0
1734414815.3023365,868.65234375,936.5234375,258.30078125,750.9765625,0.0
1734414815.3062408,-571.2890625,-518.06640625,-581.54296875,-637.20703125,0.0
1734414815.3101451,-1000.0,-1000.0,-941.89453125,-1000.0,0.0
1734414815.3140495,-671.38671875,-804.19921875,-498.046875,-335.44921875,0.0
1734414815.3179538,791.50390625,600.09765625,532.71484375,869.62890625,0.0
