timestamps,TP9,AF7,AF8,TP10,Right AUX
1734500756.9667711,-46.875,-56.640625,-39.0625,885.25390625,0.0
1734500756.970676,-44.43359375,-62.98828125,-31.73828125,-236.81640625,0.0
1734500756.9745805,-57.6171875,-61.5234375,-35.64453125,-1000.0,0.0
1734500756.9784853,-62.5,-55.6640625,-41.9921875,-195.80078125,0.0
1734500756.98239,-52.734375,-58.59375,-37.109375,892.578125,0.0
1734500756.9862947,-53.22265625,-60.546875,-35.64453125,961.42578125,0.0
1734500756.9901993,-57.6171875,-51.26953125,-38.57421875,-93.26171875,0.0
1734500756.9941041,-50.29296875,-55.17578125,-38.0859375,-1000.0,0.0
1734500756.9980087,-48.828125,-63.4765625,-33.203125,-402.34375,0.0
1734500757.0019135,-47.8515625,-62.98828125,-36.1328125,789.0625,0.0
1734500757.0058184,-40.0390625,-63.4765625,-44.921875,-958.984375,0.0
1734500757.009743,-26.85546875,-70.80078125,-36.1328125,140.13671875,0.0
1734500757.0136478,-26.85546875,-65.4296875,-29.78515625,-971.19140625,0.0
1734500757.0175526,-20.01953125,-52.734375,-39.55078125,-415.52734375,0.0
1734500757.0214572,-12.6953125,-51.7578125,-38.57421875,775.87890625,0.0
1734500757.025362,-14.16015625,-52.24609375,-38.0859375,-980.95703125,0.0
1734500757.0292666,-19.53125,-52.734375,-35.64453125,317.87109375,0.0
1734500757.0331714,-15.625,-52.734375,-23.4375,-901.3671875,0.0
1734500757.037076,-11.71875,-41.9921875,-36.1328125,-650.87890625,0.0
1734500757.0409808,-20.99609375,-39.55078125,-46.875,652.34375,0.0
1734500757.0448854,-16.6015625,-48.33984375,-41.9921875,-946.77734375,0.0
1734500757.0487902,-12.20703125,-45.8984375,-41.9921875,332.51953125,0.0
1734500757.052695,-21.97265625,-41.015625,-43.45703125,-885.7421875,0.0
1734500757.0566344,-33.203125,-48.828125,-43.9453125,-835.44921875,0.0
1734500757.0605392,-21.97265625,-55.6640625,-42.48046875,441.40625,0.0
1734500757.0644438,-6.8359375,-52.734375,-41.015625,-972.65625,0.0
1734500757.0683486,-12.6953125,-52.24609375,-39.0625,441.40625,0.0
1734500757.0722532,-12.20703125,-60.05859375,-37.59765625,-801.7578125,0.0
1734500757.076158,-12.6953125,-61.03515625,-41.015625,-950.1953125,0.0
1734500757.0800629,-30.76171875,-50.29296875,-49.8046875,298.33984375,0.0
1734500757.0839674,-45.8984375,-54.19921875,-54.6875,-987.3046875,0.0
1734500757.0878723,-39.0625,-65.4296875,-49.8046875,496.58203125,0.0
1734500757.0917768,-24.4140625,-68.359375,-39.55078125,-743.1640625,0.0
1734500757.0956817,-23.92578125,-59.08203125,-41.50390625,-1000.0,0.0
1734500757.0995862,-37.109375,-55.6640625,-51.26953125,172.36328125,0.0
1734500757.1035233,-42.96875,-56.640625,-52.24609375,-987.79296875,0.0
1734500757.107428,-38.57421875,-49.8046875,-49.31640625,716.30859375,0.0
1734500757.1113327,-37.109375,-52.24609375,-43.9453125,-570.3125,0.0
1734500757.1152375,-20.01953125,-57.6171875,-36.1328125,-1000.0,0.0
1734500757.119142,-30.76171875,-52.24609375,-41.50390625,59.08203125,0.0
1734500757.1230469,-37.109375,-52.734375,-47.36328125,975.5859375,0.0
1734500757.1269515,-22.94921875,-53.7109375,-45.41015625,757.8125,0.0
1734500757.1308563,-28.80859375,-55.17578125,-42.96875,-477.05078125,0.0
1734500757.134761,-21.484375,-61.03515625,-46.38671875,-1000.0,0.0
1734500757.1386657,-18.06640625,-57.12890625,-49.31640625,-1.46484375,0.0
1734500757.1425705,-29.296875,-50.78125,-51.26953125,949.70703125,0.0
1734500757.146475,-40.52734375,-50.29296875,-47.36328125,928.7109375,0.0
1734500757.15041,-35.15625,-50.78125,-42.96875,-166.50390625,0.0
1734500757.1543148,-45.41015625,-44.921875,-49.8046875,-1000.0,0.0
1734500757.1582193,-48.828125,-50.29296875,-55.17578125,-213.37890625,0.0
1734500757.1621242,-35.64453125,-62.5,-50.78125,879.8828125,0.0
1734500757.166029,-39.0625,-62.98828125,-48.828125,770.01953125,0.0
1734500757.1699336,-43.45703125,-57.6171875,-48.828125,-261.23046875,0.0
1734500757.1738384,-43.45703125,-52.24609375,-48.828125,-1000.0,0.0
1734500757.177743,-50.29296875,-52.734375,-46.875,-552.24609375,0.0
1734500757.1816478,-47.8515625,-61.03515625,-41.9921875,540.0390625,0.0
1734500757.1855524,-46.38671875,-54.19921875,-42.96875,669.43359375,0.0
1734500757.1894572,-48.828125,-48.33984375,-40.0390625,-260.25390625,0.0
1734500757.1933618,-49.8046875,-51.26953125,-39.55078125,-1000.0,0.0
1734500757.1972954,-54.6875,-51.26953125,-43.45703125,-797.36328125,0.0
1734500757.2012,-49.8046875,-51.26953125,-47.8515625,164.55078125,0.0
1734500757.2051048,-40.0390625,-51.26953125,-40.52734375,396.97265625,0.0
1734500757.2090094,-36.1328125,-46.875,-40.52734375,-393.06640625,0.0
1734500757.2129142,-40.52734375,-43.9453125,-45.8984375,-1000.0,0.0
1734500757.2168188,-37.109375,-50.78125,-44.43359375,-793.9453125,0.0
1734500757.2207236,-19.53125,-55.17578125,-41.50390625,49.31640625,0.0
1734500757.2246284,-12.6953125,-57.12890625,-36.1328125,478.515625,0.0
1734500757.228533,-32.2265625,-47.8515625,-48.828125,-38.0859375,0.0
1734500757.2324378,-30.76171875,-40.52734375,-54.6875,-939.453125,0.0
1734500757.2363424,-18.5546875,-44.43359375,-46.38671875,-886.71875,0.0
1734500757.2402472,-24.4140625,-46.38671875,-50.78125,286.1328125,0.0
1734500757.2441785,-33.203125,-40.52734375,-52.734375,908.69140625,0.0
1734500757.2480834,-31.25,-39.55078125,-48.33984375,423.33984375,0.0
1734500757.251988,-34.1796875,-37.109375,-45.41015625,-800.29296875,0.0
1734500757.2558928,-46.875,-41.015625,-47.36328125,-919.43359375,0.0
1734500757.2597976,-35.64453125,-43.45703125,-47.8515625,408.69140625,0.0
1734500757.2637022,-17.578125,-39.55078125,-46.875,-945.3125,0.0
1734500757.267607,-15.13671875,-41.50390625,-45.41015625,752.44140625,0.0
1734500757.2715116,-9.765625,-41.50390625,-44.43359375,-554.19921875,0.0
1734500757.2754164,-12.20703125,-36.62109375,-47.8515625,-1000.0,0.0
1734500757.279321,-13.18359375,-40.52734375,-53.7109375,291.015625,0.0
1734500757.2832258,-13.671875,-46.875,-51.26953125,-958.984375,0.0
1734500757.2871304,-15.13671875,-42.48046875,-47.8515625,828.125,0.0
1734500757.29106,-20.5078125,-39.0625,-54.19921875,-417.96875,0.0
1734500757.2949648,-23.92578125,-41.50390625,-52.24609375,-1000.0,0.0
1734500757.2988694,-13.18359375,-43.9453125,-47.8515625,72.265625,0.0
1734500757.3027742,-10.25390625,-44.43359375,-49.8046875,980.95703125,0.0
1734500757.306679,-16.6015625,-40.52734375,-48.33984375,854.00390625,0.0
1734500757.3105836,-17.578125,-34.66796875,-40.52734375,-306.640625,0.0
1734500757.3144884,-12.20703125,-41.50390625,-40.0390625,-1000.0,0.0
1734500757.318393,-3.90625,-44.43359375,-47.36328125,-119.62890625,0.0
1734500757.3222978,-7.8125,-32.71484375,-47.8515625,909.66796875,0.0
1734500757.3262024,-12.20703125,-34.66796875,-44.921875,912.109375,0.0
1734500757.3301072,-12.6953125,-41.9921875,-43.9453125,-151.3671875,0.0
1734500757.334012,-16.11328125,-38.57421875,-48.828125,-1000.0,0.0
1734500757.337939,-21.484375,-41.015625,-51.26953125,-278.3203125,0.0
1734500757.3418436,-24.4140625,-43.45703125,-48.828125,839.35546875,0.0
1734500757.3457484,-26.85546875,-42.96875,-46.875,997.55859375,0.0
1734500757.349653,-29.78515625,-41.9921875,-41.015625,77.63671875,0.0
1734500757.3535578,-23.4375,-40.0390625,-42.96875,-991.2109375,0.0
1734500757.3574624,-16.11328125,-36.62109375,-48.33984375,-440.91796875,0.0
1734500757.3613672,-6.8359375,-37.109375,-47.8515625,779.78515625,0.0
1734500757.365272,-2.9296875,-34.1796875,-50.78125,-981.4453125,0.0
1734500757.3691766,-3.90625,-29.78515625,-50.29296875,204.58984375,0.0
1734500757.3730814,-18.5546875,-35.64453125,-45.8984375,-943.359375,0.0
1734500757.376986,-22.4609375,-40.0390625,-50.78125,-588.37890625,0.0
1734500757.3808908,-11.23046875,-31.73828125,-49.31640625,675.78125,0.0
1734500757.3848157,-4.39453125,-28.3203125,-46.875,-954.58984375,0.0
1734500757.3887203,2.9296875,-29.78515625,-45.41015625,409.66796875,0.0
1734500757.392625,7.32421875,-25.390625,-40.0390625,-872.0703125,0.0
1734500757.39653,-3.41796875,-21.484375,-40.52734375,-703.125,0.0
1734500757.4004345,-10.25390625,-21.484375,-44.43359375,645.5078125,0.0
1734500757.4043393,-10.7421875,-26.3671875,-47.8515625,-929.6875,0.0
1734500757.408244,-23.4375,-29.296875,-45.8984375,618.65234375,0.0
1734500757.4121487,-23.92578125,-21.484375,-42.96875,-754.39453125,0.0
1734500757.4160533,-15.13671875,-19.53125,-45.41015625,-805.17578125,0.0
1734500757.419958,-3.90625,-24.4140625,-40.52734375,604.00390625,0.0
1734500757.423863,5.859375,-24.4140625,-41.015625,-932.12890625,0.0
1734500757.4277675,2.9296875,-20.99609375,-36.62109375,791.015625,0.0
1734500757.4317074,-5.37109375,-21.484375,-31.25,-573.73046875,0.0
1734500757.4356122,-12.20703125,-27.83203125,-39.55078125,-940.4296875,0.0
1734500757.4395168,-14.16015625,-30.76171875,-45.8984375,483.88671875,0.0
1734500757.4434216,-7.8125,-29.78515625,-43.45703125,-932.6171875,0.0
1734500757.4473262,-6.34765625,-24.90234375,-39.0625,784.66796875,0.0
1734500757.451231,-23.4375,-28.3203125,-36.62109375,-486.328125,0.0
1734500757.4551356,-38.57421875,-35.64453125,-39.0625,-1000.0,0.0
1734500757.4590404,-46.875,-41.9921875,-42.48046875,250.0,0.0
1734500757.4629452,-54.19921875,-39.0625,-40.52734375,-970.21484375,0.0
1734500757.4668498,-53.7109375,-29.78515625,-42.96875,890.13671875,0.0
1734500757.4707546,-52.734375,-24.4140625,-39.0625,-313.4765625,0.0
1734500757.4746592,-51.26953125,-22.4609375,-37.59765625,-1000.0,0.0
1734500757.4785967,-46.875,-21.97265625,-44.43359375,-8.30078125,0.0
1734500757.4825013,-35.15625,-22.4609375,-38.0859375,963.37890625,0.0
1734500757.486406,-19.04296875,-22.4609375,-36.1328125,860.3515625,0.0
1734500757.490311,-16.11328125,-22.4609375,-40.52734375,-284.1796875,0.0
1734500757.4942155,-21.97265625,-24.4140625,-36.62109375,-1000.0,0.0
1734500757.4981203,-18.06640625,-24.90234375,-38.57421875,-238.76953125,0.0
1734500757.502025,-20.99609375,-27.34375,-43.45703125,846.6796875,0.0
1734500757.5059297,-32.2265625,-26.85546875,-38.57421875,945.3125,0.0
1734500757.5098343,-30.76171875,-25.87890625,-34.1796875,-36.1328125,0.0
1734500757.513739,-39.55078125,-28.80859375,-46.38671875,-1000.0,0.0
1734500757.517644,-63.4765625,-32.2265625,-48.828125,-321.2890625,0.0
1734500757.5215485,-57.6171875,-24.4140625,-37.59765625,830.56640625,0.0
1734500757.5254846,-59.5703125,-18.5546875,-37.59765625,-988.76953125,0.0
1734500757.5293894,-68.84765625,-15.625,-42.48046875,163.0859375,0.0
1734500757.533294,-61.03515625,-16.11328125,-42.48046875,-962.40234375,0.0
1734500757.5371988,-62.01171875,-28.80859375,-39.55078125,-433.59375,0.0
1734500757.5411034,-49.8046875,-31.25,-29.296875,796.875,0.0
1734500757.5450082,-41.015625,-30.2734375,-33.69140625,-948.73046875,0.0
1734500757.548913,-53.7109375,-27.83203125,-49.8046875,256.8359375,0.0
1734500757.5528176,-54.6875,-27.83203125,-45.8984375,-937.01171875,0.0
1734500757.5567224,-38.57421875,-41.9921875,-31.25,-542.48046875,0.0
1734500757.560627,-36.62109375,-41.9921875,-35.64453125,727.5390625,0.0
1734500757.5645318,-44.921875,-33.69140625,-44.921875,-944.3359375,0.0
1734500757.5684366,-45.41015625,-35.15625,-42.96875,482.91015625,0.0
1734500757.572372,0.0,-39.55078125,-40.52734375,-822.75390625,0.0
1734500757.5762768,0.0,-33.69140625,-44.921875,-806.15234375,0.0
1734500757.5801816,0.0,-28.80859375,-46.38671875,537.59765625,0.0
1734500757.5840862,0.0,-31.25,-38.57421875,-937.98828125,0.0
1734500757.587991,0.0,-31.73828125,-30.2734375,629.8828125,0.0
1734500757.5918956,0.0,-26.3671875,-32.71484375,-696.77734375,0.0
1734500757.5958004,0.0,-23.92578125,-41.015625,-962.890625,0.0
1734500757.599705,0.0,-35.64453125,-42.96875,353.02734375,0.0
1734500757.6036098,0.0,-41.015625,-46.38671875,-955.078125,0.0
1734500757.6075146,0.0,-30.76171875,-44.43359375,692.87109375,0.0
1734500757.6114192,0.0,-33.69140625,-37.109375,-602.05078125,0.0
1734500757.615324,0.0,-44.43359375,-39.55078125,-1000.0,0.0
1734500757.6192553,-38.57421875,-37.59765625,-39.55078125,216.796875,0.0
1734500757.6231601,-46.38671875,-35.15625,-31.73828125,-984.375,0.0
1734500757.6270647,-44.921875,-43.9453125,-30.76171875,846.19140625,0.0
1734500757.6309695,-43.45703125,-43.9453125,-33.203125,-378.90625,0.0
1734500757.6348743,-48.828125,-38.0859375,-38.0859375,-1000.0,0.0
1734500757.638779,-41.9921875,-41.50390625,-42.48046875,84.47265625,0.0
1734500757.6426837,-45.41015625,-45.8984375,-39.0625,981.93359375,0.0
1734500757.6465883,-37.109375,-50.78125,-28.3203125,941.89453125,0.0
1734500757.6504931,-26.3671875,-45.41015625,-34.1796875,-179.19921875,0.0
1734500757.654398,-40.52734375,-37.109375,-39.55078125,-1000.0,0.0
1734500757.6583025,-33.69140625,-39.55078125,-30.2734375,-117.1875,0.0
1734500757.6622074,-23.4375,-43.45703125,-30.76171875,921.875,0.0
1734500757.666137,-31.73828125,-49.8046875,-37.59765625,944.82421875,0.0
1734500757.6700418,-30.76171875,-57.12890625,-37.59765625,-96.19140625,0.0
1734500757.6739464,-35.15625,-54.6875,-37.59765625,-1000.0,0.0
1734500757.6778512,-47.36328125,-54.6875,-40.0390625,-361.81640625,0.0
1734500757.6817558,-36.1328125,-62.98828125,-39.55078125,806.640625,0.0
1734500757.6856606,-32.2265625,-69.82421875,-36.62109375,979.4921875,0.0
1734500757.6895652,-32.2265625,-72.265625,-33.203125,27.34375,0.0
1734500757.69347,-33.203125,-78.125,-33.69140625,-997.55859375,0.0
1734500757.6973748,-46.38671875,-78.125,-32.71484375,-563.4765625,0.0
1734500757.7012794,-39.55078125,-82.51953125,-29.296875,674.8046875,0.0
1734500757.7051842,-29.296875,-87.40234375,-28.80859375,990.234375,0.0
1734500757.7090888,-26.85546875,-86.42578125,-23.92578125,150.390625,0.0
1734500757.713016,-30.2734375,-84.9609375,-20.01953125,-947.265625,0.0
1734500757.7169206,-31.73828125,-91.30859375,-21.97265625,-696.77734375,0.0
1734500757.7208254,-30.76171875,-96.6796875,-21.97265625,572.265625,0.0
1734500757.72473,-30.2734375,-99.609375,-12.20703125,-971.6796875,0.0
1734500757.7286348,-25.390625,-97.65625,-12.20703125,306.640625,0.0
1734500757.7325394,-21.97265625,-102.05078125,-15.625,-892.578125,0.0
1734500757.7364442,-27.34375,-112.3046875,-17.08984375,-788.0859375,0.0
1734500757.740349,-35.15625,-108.88671875,-16.11328125,496.58203125,0.0
1734500757.7442536,-44.921875,-106.4453125,-17.08984375,-959.47265625,0.0
1734500757.7481585,-51.7578125,-110.83984375,-12.6953125,485.3515625,0.0
1734500757.752063,-38.0859375,-109.86328125,-11.23046875,-786.62109375,0.0
1734500757.7559679,-46.38671875,-107.91015625,-29.296875,-924.8046875,0.0
1734500757.7598927,-50.29296875,-107.91015625,-29.296875,365.234375,0.0
1734500757.7637975,-41.015625,-116.2109375,-18.5546875,-957.03125,0.0
1734500757.7677023,-46.38671875,-117.1875,-15.625,600.5859375,0.0
1734500757.771607,-39.55078125,-106.93359375,-14.6484375,-693.359375,0.0
1734500757.7755117,-31.25,-105.46875,-21.97265625,-1000.0,0.0
1734500757.7794163,-26.85546875,-113.76953125,-17.08984375,207.51953125,0.0
1734500757.7833211,-25.87890625,-111.328125,-12.20703125,-985.83984375,0.0
1734500757.787226,-11.71875,-105.95703125,-19.04296875,550.78125,0.0
1734500757.7911305,-11.71875,-109.375,-19.04296875,-657.2265625,0.0
1734500757.7950354,-28.80859375,-116.2109375,-20.01953125,-1000.0,0.0
1734500757.79894,-29.296875,-117.67578125,-26.3671875,4.39453125,0.0
1734500757.8028448,-29.78515625,-115.234375,-22.94921875,925.29296875,0.0
1734500757.8067853,-23.4375,-114.74609375,-24.4140625,663.0859375,0.0
1734500757.8106902,-17.578125,-110.3515625,-26.85546875,-524.90234375,0.0
1734500757.8145947,-24.4140625,-112.3046875,-23.4375,-1000.0,0.0
1734500757.8184996,-33.69140625,-110.83984375,-29.296875,-179.6875,0.0
1734500757.8224044,-25.390625,-107.91015625,-29.78515625,792.48046875,0.0
1734500757.826309,-20.01953125,-109.86328125,-25.390625,694.3359375,0.0
1734500757.8302138,-25.390625,-101.07421875,-27.83203125,-413.0859375,0.0
1734500757.8341184,-31.73828125,-96.19140625,-36.1328125,-1000.0,0.0
1734500757.8380232,-8.30078125,-95.21484375,-30.2734375,-306.15234375,0.0
1734500757.841928,18.06640625,-90.33203125,-25.87890625,770.01953125,0.0
1734500757.8458326,14.6484375,-78.125,-31.25,795.8984375,0.0
1734500757.8497374,11.71875,-74.70703125,-23.92578125,-179.19921875,0.0
1734500757.853675,12.20703125,-77.1484375,-26.3671875,-1000.0,0.0
1734500757.8575795,25.390625,-76.171875,-33.203125,-445.80078125,0.0
1734500757.8614843,35.15625,-71.77734375,-28.3203125,708.0078125,0.0
1734500757.8653889,30.76171875,-64.94140625,-29.78515625,909.1796875,0.0
1734500757.8692937,37.59765625,-63.96484375,-22.4609375,52.24609375,0.0
1734500757.8731985,68.359375,-66.40625,-18.06640625,-973.14453125,0.0
1734500757.877103,65.4296875,-68.84765625,-30.76171875,-586.9140625,0.0
1734500757.881008,35.15625,-68.84765625,-44.43359375,626.46484375,0.0
1734500757.8849125,56.640625,-68.359375,-40.52734375,947.265625,0.0
1734500757.8888173,82.51953125,-62.01171875,-33.203125,197.265625,0.0
1734500757.8927221,78.125,-59.08203125,-31.73828125,-929.19921875,0.0
1734500757.8966267,79.58984375,-68.84765625,-28.3203125,-753.90625,0.0
1734500757.9005623,71.2890625,-73.73046875,-37.59765625,493.1640625,0.0
1734500757.9044669,65.91796875,-71.2890625,-40.0390625,897.4609375,0.0
1734500757.9083717,69.3359375,-67.3828125,-29.78515625,179.6875,0.0
1734500757.9122763,72.75390625,-62.98828125,-33.69140625,-896.484375,0.0
1734500757.916181,70.3125,-64.94140625,-44.921875,-879.8828125,0.0
1734500757.920086,68.84765625,-69.82421875,-37.59765625,338.8671875,0.0
1734500757.9239905,62.01171875,-68.84765625,-35.64453125,942.3828125,0.0
1734500757.9278953,55.17578125,-61.03515625,-36.1328125,413.57421875,0.0
1734500757.9318,54.6875,-61.5234375,-33.69140625,-794.43359375,0.0
1734500757.9357047,47.8515625,-55.6640625,-41.50390625,-939.453125,0.0
1734500757.9396095,58.10546875,-44.43359375,-37.109375,358.88671875,0.0
1734500757.943514,80.56640625,-43.9453125,-34.1796875,-945.80078125,0.0
1734500757.9474475,70.80078125,-41.015625,-41.9921875,706.0546875,0.0
1734500757.9513521,62.98828125,-36.62109375,-44.921875,-604.00390625,0.0
1734500757.955257,62.98828125,-38.57421875,-42.48046875,-1000.0,0.0
1734500757.9591615,54.6875,-40.52734375,-38.0859375,197.75390625,0.0
1734500757.9630663,72.265625,-28.80859375,-36.1328125,-990.234375,0.0
1734500757.9669712,81.54296875,-24.4140625,-35.15625,781.25,0.0
1734500757.9708757,74.21875,-26.3671875,-36.1328125,-475.09765625,0.0
1734500757.9747806,58.59375,-25.87890625,-39.55078125,-1000.0,0.0
1734500757.9786851,50.78125,-21.484375,-35.15625,18.5546875,0.0
1734500757.98259,49.8046875,-20.99609375,-40.52734375,955.56640625,0.0
1734500757.9864948,32.71484375,-22.94921875,-47.8515625,865.234375,0.0
1734500757.9903994,38.57421875,-25.87890625,-47.8515625,-261.23046875,0.0
1734500757.9943306,38.57421875,-27.34375,-54.6875,-1000.0,0.0
1734500757.9982355,33.203125,-24.90234375,-57.6171875,-189.94140625,0.0
1734500758.00214,26.3671875,-26.85546875,-53.7109375,883.7890625,0.0
1734500758.0060449,11.23046875,-33.69140625,-53.22265625,838.8671875,0.0
1734500758.0099494,14.16015625,-33.203125,-48.33984375,-271.484375,0.0
1734500758.0138543,30.2734375,-21.97265625,-42.96875,-1000.0,0.0
1734500758.017759,27.34375,-17.08984375,-49.8046875,-476.07421875,0.0
1734500758.0216637,20.5078125,-21.484375,-48.33984375,520.99609375,0.0
1734500758.0255685,31.25,-19.53125,-47.8515625,540.52734375,0.0
1734500758.029473,22.94921875,-15.13671875,-52.24609375,-415.0390625,0.0
1734500758.033378,-6.34765625,-22.94921875,-52.24609375,-1000.0,0.0
1734500758.0372827,15.625,-20.5078125,-45.8984375,-781.73828125,0.0
1734500758.0412123,39.0625,-13.18359375,-44.921875,65.4296875,0.0
1734500758.0451171,22.94921875,-14.16015625,-43.45703125,257.8125,0.0
1734500758.0490217,18.5546875,-22.4609375,-36.1328125,-456.0546875,0.0
1734500758.0529265,14.16015625,-26.3671875,-43.9453125,-1000.0,0.0
1734500758.0568314,3.41796875,-17.08984375,-47.8515625,-851.5625,0.0
1734500758.060736,3.90625,-19.04296875,-40.0390625,114.74609375,0.0
1734500758.0646408,7.8125,-28.80859375,-36.1328125,554.19921875,0.0
1734500758.0685453,-2.9296875,-28.3203125,-38.0859375,-43.9453125,0.0
1734500758.0724502,-24.90234375,-25.87890625,-45.41015625,-955.078125,0.0
1734500758.076355,-24.4140625,-21.484375,-47.8515625,-803.7109375,0.0
1734500758.0802596,-12.20703125,-22.94921875,-41.50390625,400.87890625,0.0
1734500758.0841644,-16.11328125,-25.87890625,-44.921875,-975.5859375,0.0
1734500758.0880919,-6.8359375,-19.53125,-44.921875,588.8671875,0.0
1734500758.0919967,-4.8828125,-23.92578125,-40.0390625,-773.92578125,0.0
1734500758.0959015,-9.27734375,-36.62109375,-45.41015625,-766.6015625,0.0
1734500758.099806,-2.44140625,-37.109375,-45.8984375,661.1328125,0.0
1734500758.103711,-3.41796875,-27.83203125,-44.921875,-950.1953125,0.0
1734500758.1076155,-3.41796875,-25.87890625,-42.96875,900.390625,0.0
1734500758.1115203,6.8359375,-30.2734375,-35.15625,-380.859375,0.0
1734500758.115425,5.37109375,-24.90234375,-39.0625,-826.66015625,0.0
1734500758.1193297,0.48828125,-23.4375,-45.41015625,616.2109375,0.0
1734500758.1232345,5.37109375,-30.76171875,-42.48046875,-952.63671875,0.0
1734500758.127139,0.48828125,-32.2265625,-40.0390625,946.2890625,0.0
1734500758.131044,5.37109375,-24.4140625,-36.62109375,-184.08203125,0.0
1734500758.1349688,6.34765625,-28.3203125,-34.66796875,-920.41015625,0.0
1734500758.1388736,7.32421875,-37.109375,-36.1328125,430.17578125,0.0
1734500758.1427782,13.671875,-34.1796875,-33.69140625,-943.359375,0.0
1734500758.146683,5.859375,-30.2734375,-35.64453125,941.40625,0.0
1734500758.1505878,-8.30078125,-27.83203125,-42.96875,-106.93359375,0.0
1734500758.1544924,-4.39453125,-26.3671875,-39.55078125,-925.29296875,0.0
1734500758.1583972,3.41796875,-24.90234375,-37.109375,206.54296875,0.0
1734500758.162302,4.39453125,-24.90234375,-42.96875,990.234375,0.0
1734500758.1662066,-0.48828125,-32.2265625,-45.41015625,986.81640625,0.0
1734500758.1701114,-15.13671875,-38.0859375,-41.9921875,49.8046875,0.0
1734500758.174016,-23.92578125,-33.69140625,-38.0859375,-979.00390625,0.0
1734500758.1779208,-32.71484375,-27.83203125,-33.203125,2.44140625,0.0
1734500758.181861,-35.15625,-29.296875,-31.73828125,955.078125,0.0
1734500758.1857657,-40.0390625,-37.109375,-36.1328125,-992.1875,0.0
1734500758.1896703,-52.734375,-38.57421875,-38.0859375,206.54296875,0.0
1734500758.1935751,-54.6875,-36.1328125,-38.57421875,-952.63671875,0.0
1734500758.1974797,-55.6640625,-40.0390625,-41.50390625,-198.2421875,0.0
1734500758.2013845,-53.22265625,-37.59765625,-40.0390625,883.7890625,0.0
1734500758.2052894,-57.12890625,-36.1328125,-41.50390625,-959.47265625,0.0
1734500758.209194,-58.59375,-36.62109375,-41.015625,387.20703125,0.0
1734500758.2130988,-41.9921875,-37.59765625,-37.109375,-891.6015625,0.0
1734500758.2170036,-30.76171875,-39.0625,-36.62109375,-320.80078125,0.0
1734500758.2209082,-40.0390625,-38.0859375,-34.1796875,849.12109375,0.0
1734500758.224813,-38.57421875,-34.66796875,-38.0859375,-953.61328125,0.0
1734500758.228751,-33.203125,-36.1328125,-36.62109375,577.1484375,0.0
1734500758.2326558,-32.71484375,-35.15625,-32.71484375,-820.80078125,0.0
1734500758.2365603,-28.3203125,-32.71484375,-35.15625,-511.23046875,0.0
1734500758.2404652,-34.66796875,-33.203125,-34.66796875,807.6171875,0.0
1734500758.24437,-35.64453125,-26.3671875,-35.64453125,-951.171875,0.0
1734500758.2482746,-22.94921875,-25.87890625,-30.76171875,758.30078125,0.0
1734500758.2521794,-32.2265625,-27.34375,-30.2734375,-664.55078125,0.0
1734500758.256084,-32.71484375,-22.94921875,-39.55078125,-663.57421875,0.0
1734500758.2599888,-13.18359375,-31.73828125,-37.109375,746.58203125,0.0
1734500758.2638936,-4.39453125,-33.203125,-34.66796875,-948.2421875,0.0
1734500758.2677982,-11.23046875,-30.2734375,-42.96875,849.609375,0.0
1734500758.271703,-9.27734375,-31.25,-42.48046875,-539.55078125,0.0
1734500758.2756393,-13.18359375,-28.3203125,-37.59765625,-803.7109375,0.0
1734500758.279544,-15.13671875,-26.3671875,-37.109375,653.3203125,0.0
1734500758.283449,-12.20703125,-31.73828125,-41.015625,-938.96484375,0.0
1734500758.2873535,-5.37109375,-31.25,-42.48046875,866.2109375,0.0
1734500758.2912583,4.8828125,-24.90234375,-38.57421875,-448.2421875,0.0
1734500758.2951632,-0.9765625,-31.25,-34.66796875,-953.125,0.0
1734500758.2990677,-18.5546875,-41.015625,-39.55078125,476.07421875,0.0
1734500758.3029726,-31.73828125,-51.26953125,-42.48046875,-938.4765625,0.0
1734500758.3068771,-29.296875,-44.921875,-35.64453125,901.85546875,0.0
1734500758.310782,-38.57421875,-31.73828125,-35.64453125,-290.0390625,0.0
1734500758.3146868,-41.50390625,-31.73828125,-39.0625,-1000.0,0.0
1734500758.3185914,-24.4140625,-35.15625,-37.59765625,117.67578125,0.0
1734500758.3225253,-22.4609375,-35.15625,-40.52734375,-995.60546875,0.0
1734500758.32643,-46.38671875,-39.0625,-46.875,848.6328125,0.0
1734500758.3303347,-26.3671875,-41.50390625,-34.66796875,-305.17578125,0.0
1734500758.3342395,15.13671875,-32.71484375,-17.578125,-1000.0,0.0
1734500758.3381443,16.11328125,-19.04296875,-27.83203125,-148.4375,0.0
1734500758.342049,2.44140625,-7.8125,-50.78125,898.92578125,0.0
1734500758.3459537,9.27734375,0.48828125,-45.41015625,937.01171875,0.0
1734500758.3498585,15.13671875,-2.9296875,-39.0625,-136.23046875,0.0
1734500758.353763,-1.46484375,5.859375,-53.22265625,-1000.0,0.0
1734500758.357668,-9.27734375,24.90234375,-52.24609375,-265.625,0.0
1734500758.3615725,-7.8125,23.4375,-42.48046875,818.84765625,0.0
1734500758.3654773,-19.04296875,32.2265625,-43.45703125,885.25390625,0.0
1734500758.3694265,-18.5546875,46.38671875,-46.875,-8.30078125,0.0
1734500758.3733313,-16.6015625,49.31640625,-51.7578125,-996.09375,0.0
1734500758.3772361,0.0,53.22265625,-45.41015625,-437.98828125,0.0
1734500758.3811407,10.25390625,56.15234375,-49.31640625,768.5546875,0.0
1734500758.3850455,10.25390625,54.19921875,-61.03515625,-950.1953125,0.0
1734500758.3889503,16.11328125,56.15234375,-61.03515625,292.96875,0.0
1734500758.392855,4.8828125,62.01171875,-62.5,-920.41015625,0.0
1734500758.3967597,10.25390625,61.5234375,-59.08203125,-603.02734375,0.0
1734500758.4006643,21.484375,67.87109375,-55.6640625,662.109375,0.0
1734500758.4045691,24.4140625,84.47265625,-59.5703125,961.9140625,0.0
1734500758.408474,17.08984375,85.9375,-62.98828125,245.1171875,0.0
1734500758.4123785,2.44140625,75.68359375,-63.4765625,-896.484375,0.0
1734500758.4163084,7.32421875,67.87109375,-68.359375,-796.38671875,0.0
1734500758.420213,8.30078125,59.5703125,-63.4765625,465.33203125,0.0
1734500758.4241178,-6.8359375,51.26953125,-59.5703125,976.07421875,0.0
1734500758.4280226,-1.953125,46.38671875,-61.5234375,396.484375,0.0
1734500758.4319272,4.39453125,50.78125,-51.7578125,-817.3828125,0.0
1734500758.435832,2.44140625,42.96875,-50.78125,-937.5,0.0
1734500758.4397366,1.46484375,39.0625,-54.19921875,307.12890625,0.0
1734500758.4436414,-1.953125,47.8515625,-46.38671875,969.7265625,0.0
1734500758.4475462,-0.48828125,43.45703125,-41.9921875,477.05078125,0.0
1734500758.4514508,15.625,37.109375,-44.921875,-747.0703125,0.0
1734500758.4553556,23.4375,30.2734375,-48.828125,-1000.0,0.0
1734500758.4592605,6.8359375,20.99609375,-54.19921875,193.359375,0.0
1734500758.4631875,-8.7890625,26.85546875,-54.19921875,995.60546875,0.0
1734500758.467092,-9.765625,32.71484375,-55.17578125,612.3046875,0.0
1734500758.4709969,-6.8359375,28.80859375,-49.31640625,-624.51171875,0.0
1734500758.4749017,-3.90625,20.5078125,-45.41015625,-1000.0,0.0
1734500758.4788063,-1.46484375,23.4375,-44.43359375,37.59765625,0.0
1734500758.482711,0.0,13.671875,-42.96875,960.44921875,0.0
1734500758.4866157,12.6953125,2.9296875,-37.109375,717.7734375,0.0
1734500758.4905205,9.27734375,10.25390625,-38.0859375,-496.09375,0.0
1734500758.4944253,-1.46484375,9.27734375,-41.50390625,-1000.0,0.0
1734500758.4983299,-3.41796875,-2.9296875,-39.0625,-85.44921875,0.0
1734500758.5022347,-11.23046875,-12.20703125,-44.921875,907.71484375,0.0
1734500758.5061395,-10.7421875,0.48828125,-42.96875,923.33984375,0.0
1734500758.510065,4.39453125,12.20703125,-33.69140625,-181.15234375,0.0
1734500758.5139697,16.6015625,5.37109375,-36.62109375,-1000.0,0.0
1734500758.5178745,6.34765625,-7.8125,-38.57421875,-207.51953125,0.0
1734500758.521779,5.37109375,-6.8359375,-39.0625,876.953125,0.0
1734500758.5256839,14.16015625,-2.44140625,-45.8984375,972.16796875,0.0
1734500758.5295887,9.27734375,-15.13671875,-41.9921875,-5.859375,0.0
1734500758.5334933,-3.41796875,-24.4140625,-41.50390625,-1000.0,0.0
1734500758.537398,-4.8828125,-16.11328125,-43.45703125,-351.5625,0.0
1734500758.541303,0.0,-14.6484375,-41.9921875,808.59375,0.0
1734500758.5452075,3.41796875,-29.296875,-35.64453125,-964.84375,0.0
1734500758.5491123,-1.46484375,-28.3203125,-38.57421875,222.16796875,0.0
1734500758.553017,-15.13671875,-24.90234375,-57.12890625,-950.1953125,0.0
1734500758.5569582,-9.27734375,-27.83203125,-46.875,-422.8515625,0.0
1734500758.5608628,3.41796875,-25.87890625,-35.15625,796.875,0.0
1734500758.5647676,5.37109375,-17.08984375,-40.0390625,-972.65625,0.0
1734500758.5686722,-5.37109375,-14.6484375,-38.57421875,412.109375,0.0
1734500758.572577,-3.90625,-14.16015625,-37.59765625,-868.65234375,0.0
1734500758.5764818,4.39453125,-22.4609375,-38.0859375,-669.921875,0.0
1734500758.5803864,6.34765625,-27.83203125,-37.59765625,648.4375,0.0
1734500758.5842912,2.9296875,-23.92578125,-42.96875,-955.56640625,0.0
1734500758.588196,-4.39453125,-24.90234375,-44.43359375,431.15234375,0.0
1734500758.5921006,-17.08984375,-33.203125,-43.9453125,-843.75,0.0
1734500758.5960054,-23.4375,-29.78515625,-46.875,-800.78125,0.0
1734500758.5999103,-11.71875,-23.92578125,-41.50390625,539.0625,0.0
1734500758.603848,-2.9296875,-30.76171875,-39.55078125,-935.05859375,0.0
1734500758.6077528,-7.8125,-30.2734375,-40.52734375,645.99609375,0.0
1734500758.6116576,-26.3671875,-22.94921875,-38.57421875,-701.171875,0.0
1734500758.6155622,-27.34375,-21.97265625,-34.66796875,-951.171875,0.0
1734500758.619467,-34.1796875,-27.34375,-36.1328125,381.8359375,0.0
1734500758.6233718,-30.2734375,-26.3671875,-38.57421875,-955.56640625,0.0
1734500758.6272764,-20.99609375,-24.90234375,-37.109375,764.6484375,0.0
1734500758.6311812,-42.96875,-25.87890625,-41.015625,-567.3828125,0.0
1734500758.635086,-42.48046875,-24.90234375,-35.15625,-1000.0,0.0
1734500758.6389906,-31.73828125,-21.97265625,-35.64453125,329.1015625,0.0
1734500758.6428955,-40.0390625,-17.578125,-43.45703125,-959.9609375,0.0
1734500758.6468,-43.45703125,-21.97265625,-46.875,808.59375,0.0
1734500758.650736,-42.96875,-20.99609375,-44.43359375,-414.55078125,0.0
1734500758.6546407,-43.9453125,-24.90234375,-38.0859375,-1000.0,0.0
1734500758.6585455,-36.1328125,-37.109375,-39.55078125,97.16796875,0.0
1734500758.6624503,-37.109375,-37.59765625,-42.96875,992.67578125,0.0
1734500758.666355,-42.48046875,-33.69140625,-43.45703125,856.93359375,0.0
1734500758.6702597,-42.96875,-36.1328125,-38.57421875,-286.1328125,0.0
1734500758.6741645,-45.8984375,-35.15625,-32.71484375,-1000.0,0.0
1734500758.678069,-41.50390625,-37.109375,-34.66796875,-126.953125,0.0
1734500758.681974,-31.25,-39.0625,-41.9921875,901.85546875,0.0
1734500758.6858788,-36.62109375,-38.57421875,-46.875,866.69921875,0.0
1734500758.6897833,-42.96875,-35.64453125,-44.921875,-209.9609375,0.0
1734500758.6936882,-42.96875,-25.87890625,-41.015625,-1000.0,0.0
1734500758.6976223,-34.66796875,-28.80859375,-37.59765625,-416.9921875,0.0
1734500758.701527,-23.4375,-30.76171875,-37.109375,723.6328125,0.0
1734500758.7054317,-19.04296875,-27.83203125,-37.109375,923.828125,0.0
1734500758.7093365,-34.1796875,-31.25,-39.55078125,-67.87109375,0.0
1734500758.7132413,-40.0390625,-38.0859375,-41.50390625,-1000.0,0.0
1734500758.717146,-32.71484375,-36.1328125,-43.45703125,-443.84765625,0.0
1734500758.7210507,-23.4375,-31.73828125,-45.8984375,706.54296875,0.0
1734500758.7249556,-6.8359375,-25.87890625,-36.62109375,950.1953125,0.0
1734500758.7288601,-15.13671875,-27.83203125,-38.57421875,146.484375,0.0
1734500758.732765,-28.80859375,-29.78515625,-47.36328125,-950.68359375,0.0
1734500758.7366698,-4.8828125,-22.4609375,-41.9921875,-706.54296875,0.0
1734500758.7405744,1.46484375,-21.484375,-37.59765625,531.73828125,0.0
1734500758.7445061,-16.6015625,-28.80859375,-39.55078125,889.16015625,0.0
1734500758.748411,-13.671875,-32.2265625,-44.921875,199.21875,0.0
1734500758.7523158,-21.484375,-32.2265625,-50.29296875,-900.390625,0.0
1734500758.7562203,-29.296875,-33.203125,-44.43359375,-822.265625,0.0
1734500758.7601252,-27.83203125,-36.1328125,-41.9921875,418.45703125,0.0
1734500758.7640297,-30.2734375,-37.109375,-42.96875,909.66796875,0.0
1734500758.7679346,-33.203125,-39.0625,-36.62109375,345.21484375,0.0
1734500758.7718394,-41.9921875,-40.52734375,-31.25,-826.171875,0.0
1734500758.775744,-48.828125,-31.73828125,-37.59765625,-925.29296875,0.0
1734500758.7796488,-42.48046875,-27.34375,-37.109375,348.14453125,0.0
1734500758.7835536,-40.52734375,-33.203125,-32.71484375,-970.703125,0.0
1734500758.7874582,-37.109375,-35.64453125,-31.25,607.421875,0.0
1734500758.791388,-38.57421875,-40.0390625,-34.66796875,-695.80078125,0.0
1734500758.7952929,-38.57421875,-35.64453125,-37.109375,-975.5859375,0.0
1734500758.7991977,-29.78515625,-30.2734375,-37.59765625,331.0546875,0.0
1734500758.8031023,-28.80859375,-33.69140625,-39.55078125,-958.49609375,0.0
1734500758.807007,-14.6484375,-33.203125,-41.50390625,788.57421875,0.0
1734500758.810912,-29.296875,-38.0859375,-43.45703125,-500.48828125,0.0
1734500758.8148165,-35.64453125,-42.96875,-43.9453125,-1000.0,0.0
1734500758.8187213,-18.06640625,-30.2734375,-40.52734375,278.3203125,0.0
1734500758.8226259,-15.625,-28.80859375,-41.9921875,-964.35546875,0.0
1734500758.8265307,-36.62109375,-38.57421875,-42.96875,797.8515625,0.0
1734500758.8304355,-51.7578125,-40.0390625,-32.71484375,-349.12109375,0.0
1734500758.83434,-50.29296875,-42.48046875,-28.3203125,-1000.0,0.0
1734500758.8382678,-49.8046875,-44.921875,-32.2265625,-95.703125,0.0
1734500758.8421726,-52.734375,-49.31640625,-38.57421875,907.2265625,0.0
1734500758.8460772,-53.7109375,-49.31640625,-39.55078125,813.96484375,0.0
1734500758.849982,-43.9453125,-41.9921875,-34.1796875,-262.6953125,0.0
1734500758.8538868,-51.7578125,-43.45703125,-38.57421875,-998.53515625,0.0
1734500758.8577914,-58.59375,-46.38671875,-37.109375,-116.2109375,0.0
1734500758.8616962,-42.48046875,-49.31640625,-32.2265625,890.625,0.0
1734500758.8656008,-31.73828125,-47.36328125,-38.0859375,-986.81640625,0.0
1734500758.8695056,-31.25,-38.0859375,-39.0625,131.8359375,0.0
1734500758.8734105,-21.484375,-32.2265625,-40.0390625,-979.00390625,0.0
1734500758.877315,-30.2734375,-31.73828125,-39.55078125,-379.39453125,0.0
1734500758.8812199,-43.9453125,-33.203125,-38.0859375,804.19921875,0.0
1734500758.8851454,-33.69140625,-31.73828125,-40.0390625,875.0,0.0
1734500758.88905,-32.2265625,-31.25,-40.0390625,-59.5703125,0.0
1734500758.8929548,-51.26953125,-35.64453125,-41.9921875,-1000.0,0.0
1734500758.8968594,-59.08203125,-36.1328125,-46.875,-699.70703125,0.0
1734500758.9007642,-48.828125,-37.59765625,-43.45703125,375.48828125,0.0
1734500758.904669,-42.96875,-45.8984375,-35.64453125,597.16796875,0.0
1734500758.9085736,-53.22265625,-42.48046875,-39.55078125,-189.94140625,0.0
1734500758.9124784,-54.6875,-40.0390625,-46.875,-988.28125,0.0
1734500758.9163833,-45.8984375,-41.015625,-49.31640625,-927.734375,0.0
1734500758.9202878,-31.25,-33.69140625,-46.875,9.765625,0.0
1734500758.9241927,-28.3203125,-30.76171875,-44.43359375,422.36328125,0.0
1734500758.9280975,-23.92578125,-31.73828125,-41.9921875,-228.515625,0.0
1734500758.9320388,-27.34375,-34.66796875,-40.52734375,-974.609375,0.0
1734500758.9359434,-39.0625,-41.015625,-41.50390625,-928.22265625,0.0
1734500758.9398482,-44.921875,-45.41015625,-42.96875,126.953125,0.0
1734500758.943753,-35.15625,-40.52734375,-39.0625,766.6015625,0.0
1734500758.9476576,-30.76171875,-34.1796875,-37.59765625,268.5546875,0.0
1734500758.9515624,-32.71484375,-33.69140625,-38.57421875,-831.54296875,0.0
1734500758.9554672,-39.0625,-37.59765625,-43.45703125,-928.22265625,0.0
1734500758.9593718,-45.8984375,-37.59765625,-42.96875,366.2109375,0.0
1734500758.9632766,-25.87890625,-36.62109375,-36.62109375,-947.265625,0.0
1734500758.9671812,-15.13671875,-38.0859375,-39.55078125,836.42578125,0.0
1734500758.971086,-20.01953125,-38.0859375,-46.875,-483.88671875,0.0
1734500758.9749908,-6.34765625,-29.78515625,-45.8984375,-973.14453125,0.0
1734500758.97893,4.8828125,-31.25,-42.48046875,429.6875,0.0
1734500758.9828346,2.44140625,-45.41015625,-46.38671875,-959.9609375,0.0
1734500758.9867394,6.34765625,-34.66796875,-41.50390625,950.1953125,0.0
1734500758.9906442,7.32421875,-18.06640625,-40.52734375,-149.90234375,0.0
1734500758.9945488,-3.41796875,-19.04296875,-53.22265625,-985.83984375,0.0
1734500758.9984536,-19.04296875,-23.4375,-49.31640625,231.93359375,0.0
1734500759.0023584,-10.25390625,-22.4609375,-45.8984375,-977.5390625,0.0
1734500759.006263,-14.16015625,-19.04296875,-52.734375,948.73046875,0.0
1734500759.0101678,-24.90234375,-17.08984375,-55.6640625,-83.984375,0.0
1734500759.0140727,-23.4375,-12.20703125,-58.10546875,-1000.0,0.0
1734500759.0179772,-21.484375,-6.8359375,-60.546875,34.1796875,0.0
1734500759.021882,-20.5078125,-11.71875,-53.22265625,956.0546875,0.0
1734500759.0258186,-23.92578125,-10.25390625,-46.38671875,-996.09375,0.0
1734500759.0297232,-31.73828125,-6.34765625,-41.9921875,146.97265625,0.0
1734500759.033628,-42.96875,-13.671875,-44.43359375,-958.0078125,0.0
1734500759.0375328,-21.484375,-18.5546875,-44.43359375,-120.1171875,0.0
1734500759.0414374,-13.18359375,-12.6953125,-46.38671875,910.15625,0.0
1734500759.0453422,-31.73828125,-16.6015625,-48.828125,-973.14453125,0.0
1734500759.049247,-34.66796875,-19.04296875,-47.8515625,309.5703125,0.0
1734500759.0531516,-33.69140625,-20.01953125,-48.33984375,-920.8984375,0.0
1734500759.0570564,-44.43359375,-25.390625,-45.41015625,-307.12890625,0.0
1734500759.0609612,-49.8046875,-23.4375,-46.38671875,852.5390625,0.0
1734500759.0648658,-48.828125,-21.97265625,-43.45703125,-959.9609375,0.0
1734500759.0687706,-43.9453125,-16.6015625,-37.109375,421.875,0.0
1734500759.072705,-38.57421875,-12.6953125,-40.0390625,-885.25390625,0.0
1734500759.0766096,-46.38671875,-11.23046875,-43.9453125,-527.83203125,0.0
1734500759.0805144,-31.25,-8.30078125,-42.96875,773.4375,0.0
1734500759.0844193,-26.85546875,-15.625,-40.0390625,-944.3359375,0.0
1734500759.0883238,-30.76171875,-24.4140625,-39.0625,447.265625,0.0
1734500759.0922287,-20.01953125,-25.87890625,-37.59765625,-849.12109375,0.0
1734500759.0961335,-24.90234375,-25.87890625,-43.9453125,-642.578125,0.0
1734500759.100038,-32.71484375,-25.390625,-47.8515625,699.21875,0.0
1734500759.1039429,-32.71484375,-30.76171875,-48.33984375,-935.05859375,0.0
1734500759.1078477,-21.97265625,-31.73828125,-53.22265625,710.9375,0.0
1734500759.1117523,-26.85546875,-33.69140625,-59.5703125,-683.59375,0.0
1734500759.115657,-38.0859375,-33.69140625,-56.15234375,-802.734375,0.0
1734500759.1195893,-20.99609375,-22.94921875,-38.0859375,635.25390625,0.0
1734500759.1234941,-19.04296875,-21.97265625,-40.52734375,-945.3125,0.0
1734500759.1273987,-22.4609375,-25.390625,-47.8515625,872.55859375,0.0
1734500759.1313035,-15.13671875,-28.3203125,-44.921875,-439.453125,0.0
1734500759.1352084,-24.90234375,-31.73828125,-49.31640625,-869.62890625,0.0
1734500759.139113,-11.71875,-36.1328125,-49.8046875,596.19140625,0.0
1734500759.1430178,8.7890625,-40.0390625,-47.8515625,-954.1015625,0.0
1734500759.1469226,3.41796875,-41.015625,-47.36328125,951.66015625,0.0
1734500759.1508272,-12.6953125,-37.59765625,-48.33984375,-141.11328125,0.0
1734500759.154732,-13.671875,-33.69140625,-55.17578125,-952.1484375,0.0
1734500759.1586368,-18.5546875,-30.2734375,-53.22265625,333.984375,0.0
1734500759.1625414,-21.97265625,-34.66796875,-41.50390625,-966.796875,0.0
1734500759.1664722,-16.6015625,-37.59765625,-39.55078125,966.30859375,0.0
1734500759.1703768,-24.4140625,-23.92578125,-50.78125,-29.78515625,0.0
1734500759.1742816,-34.1796875,-12.6953125,-53.22265625,-961.9140625,0.0
1734500759.1781864,-48.33984375,-15.625,-50.29296875,155.2734375,0.0
1734500759.182091,-53.22265625,-24.4140625,-41.9921875,-991.2109375,0.0
1734500759.1859958,-47.36328125,-25.390625,-40.52734375,955.078125,0.0
1734500759.1899006,-69.3359375,-17.578125,-47.36328125,-11.71875,0.0
1734500759.1938052,-85.44921875,-18.06640625,-49.31640625,-1000.0,0.0
1734500759.19771,-91.30859375,-24.4140625,-43.45703125,-233.88671875,0.0
1734500759.2016149,-96.6796875,-21.484375,-41.50390625,834.9609375,0.0
1734500759.2055194,-92.28515625,-18.06640625,-44.43359375,803.22265625,0.0
1734500759.2094243,-91.30859375,-15.625,-44.921875,-173.33984375,0.0
1734500759.2133524,-98.6328125,-6.8359375,-47.36328125,-1000.0,0.0
1734500759.217257,-111.328125,-7.32421875,-46.38671875,-428.7109375,0.0
1734500759.2211618,-118.65234375,-15.625,-42.48046875,739.2578125,0.0
1734500759.2250667,-120.1171875,-20.99609375,-42.96875,951.171875,0.0
1734500759.2289712,-141.6015625,-15.625,-48.828125,62.01171875,0.0
1734500759.232876,-153.3203125,-9.27734375,-46.875,-977.05078125,0.0
1734500759.236781,-152.34375,-16.6015625,-41.9921875,-562.5,0.0
1734500759.2406855,-173.828125,-17.578125,-44.43359375,647.94921875,0.0
1734500759.2445903,-182.6171875,-11.71875,-44.43359375,979.00390625,0.0
1734500759.248495,-182.12890625,-9.27734375,-38.57421875,265.625,0.0
1734500759.2523997,-196.2890625,-9.765625,-40.0390625,-905.76171875,0.0
1734500759.2563045,-208.49609375,-9.27734375,-46.875,-733.88671875,0.0
1734500759.2602298,-197.265625,-11.23046875,-41.9921875,545.41015625,0.0
1734500759.2641346,-185.05859375,-17.578125,-40.0390625,980.95703125,0.0
1734500759.2680395,-178.22265625,-17.08984375,-48.33984375,308.59375,0.0
1734500759.271944,-173.828125,-12.6953125,-53.7109375,-863.76953125,0.0
1734500759.2758489,-165.52734375,-14.16015625,-48.828125,-915.0390625,0.0
1734500759.2797537,-164.55078125,-16.6015625,-44.921875,277.34375,0.0
1734500759.2836583,-163.0859375,-17.08984375,-49.31640625,834.9609375,0.0
1734500759.287563,-160.64453125,-16.6015625,-50.78125,254.39453125,0.0
1734500759.291468,-171.38671875,-20.99609375,-45.8984375,-834.9609375,0.0
1734500759.2953725,-172.8515625,-17.578125,-51.26953125,-979.00390625,0.0
1734500759.2992773,-169.43359375,-8.30078125,-52.734375,146.484375,0.0
1734500759.3031821,-165.52734375,-10.25390625,-43.45703125,854.4921875,0.0
1734500759.3071232,-157.71484375,-16.6015625,-39.55078125,428.7109375,0.0
1734500759.311028,-144.04296875,-15.625,-42.48046875,-724.609375,0.0
1734500759.3149326,-141.6015625,-12.6953125,-43.45703125,-982.421875,0.0
1734500759.3188374,-142.578125,-20.99609375,-42.48046875,112.79296875,0.0
1734500759.3227422,-143.5546875,-23.4375,-46.875,941.89453125,0.0
1734500759.3266468,-147.94921875,-15.625,-45.8984375,687.5,0.0
1734500759.3305516,-141.6015625,-7.8125,-43.9453125,-528.80859375,0.0
1734500759.3344564,-128.41796875,-2.44140625,-45.8984375,-1000.0,0.0
1734500759.338361,-130.859375,-5.37109375,-40.52734375,-4.8828125,0.0
1734500759.3422658,-115.234375,-12.6953125,-37.109375,951.66015625,0.0
1734500759.3461707,-96.6796875,-6.8359375,-41.50390625,817.3828125,0.0
1734500759.3500755,-119.140625,-2.9296875,-42.96875,-342.28515625,0.0
1734500759.3540177,-121.09375,-11.23046875,-47.8515625,-1000.0,0.0
1734500759.3579226,-107.421875,-12.20703125,-54.19921875,-163.57421875,0.0
1734500759.3618271,-114.74609375,-13.671875,-52.734375,888.671875,0.0
1734500759.365732,-117.1875,-14.16015625,-46.875,937.01171875,0.0
1734500759.3696368,-116.69921875,-16.11328125,-48.828125,-116.2109375,0.0
1734500759.3735414,-113.76953125,-26.3671875,-55.17578125,-1000.0,0.0
1734500759.3774462,-104.00390625,-28.80859375,-59.08203125,-311.03515625,0.0
1734500759.381351,-108.3984375,-22.4609375,-58.10546875,815.91796875,0.0
1734500759.3852556,-105.46875,-20.01953125,-56.640625,965.33203125,0.0
1734500759.3891604,-105.46875,-23.4375,-54.6875,45.41015625,0.0
1734500759.3930652,-101.07421875,-25.87890625,-50.29296875,-992.1875,0.0
1734500759.3969698,-82.03125,-31.73828125,-47.36328125,-484.86328125,0.0
1734500759.4009068,-76.66015625,-39.0625,-48.33984375,717.7734375,0.0
1734500759.4048116,-72.75390625,-31.25,-47.36328125,-977.5390625,0.0
1734500759.4087164,-62.5,-19.04296875,-42.48046875,265.13671875,0.0
1734500759.4126213,-63.96484375,-22.4609375,-43.45703125,-927.24609375,0.0
1734500759.4165258,-58.59375,-26.3671875,-46.875,-562.98828125,0.0
1734500759.4204307,-55.17578125,-32.71484375,-46.875,725.09765625,0.0
1734500759.4243355,-61.5234375,-33.203125,-49.8046875,-939.94140625,0.0
1734500759.42824,-45.41015625,-21.97265625,-49.8046875,494.62890625,0.0
1734500759.4321449,-38.0859375,-22.4609375,-42.96875,-829.1015625,0.0
1734500759.4360497,-49.31640625,-21.97265625,-51.26953125,-727.5390625,0.0
1734500759.4399543,-55.17578125,-20.99609375,-62.5,630.859375,0.0
1734500759.443859,-46.875,-25.390625,-55.17578125,-935.546875,0.0
1734500759.4477937,-33.69140625,-24.90234375,-47.36328125,603.02734375,0.0
1734500759.4516983,-35.64453125,-26.85546875,-50.29296875,-738.28125,0.0
1734500759.4556031,-30.76171875,-30.76171875,-52.24609375,-902.34375,0.0
1734500759.459508,-19.53125,-28.3203125,-49.31640625,450.68359375,0.0
1734500759.4634125,-18.5546875,-31.73828125,-50.29296875,-951.171875,0.0
1734500759.4673173,-14.16015625,-29.296875,-51.26953125,637.6953125,0.0
1734500759.4712222,-13.18359375,-26.3671875,-46.38671875,-666.015625,0.0
1734500759.4751267,-17.08984375,-25.390625,-40.0390625,-996.09375,0.0
1734500759.4790316,-23.4375,-22.94921875,-44.43359375,293.45703125,0.0
1734500759.4829364,-28.3203125,-21.97265625,-50.78125,-975.5859375,0.0
1734500759.486841,-34.66796875,-23.92578125,-50.29296875,692.87109375,0.0
1734500759.4907458,-33.69140625,-29.78515625,-49.31640625,-553.22265625,0.0
1734500759.494678,-31.25,-33.203125,-53.22265625,-1000.0,0.0
1734500759.4985826,-46.875,-31.73828125,-49.8046875,39.55078125,0.0
1734500759.5024874,-52.24609375,-29.296875,-50.78125,952.1484375,0.0
1734500759.5063922,-38.0859375,-34.1796875,-49.8046875,728.02734375,0.0
1734500759.510297,-44.43359375,-40.52734375,-50.78125,-459.47265625,0.0
1734500759.5142016,-60.05859375,-41.015625,-57.6171875,-1000.0,0.0
1734500759.5181065,-53.7109375,-43.45703125,-52.734375,-144.53125,0.0
1734500759.5220113,-41.50390625,-45.8984375,-48.33984375,872.55859375,0.0
1734500759.5259159,-49.8046875,-39.0625,-51.26953125,757.32421875,0.0
1734500759.5298207,-46.38671875,-35.15625,-46.875,-327.63671875,0.0
1734500759.5337255,-49.31640625,-37.109375,-45.8984375,-1000.0,0.0
1734500759.53763,-65.4296875,-39.0625,-56.15234375,-268.06640625,0.0
1734500759.5415606,-54.19921875,-37.59765625,-59.08203125,804.6875,0.0
1734500759.5454655,-55.17578125,-34.66796875,-59.5703125,858.88671875,0.0
1734500759.54937,-56.15234375,-31.25,-56.15234375,-106.4453125,0.0
1734500759.5532749,-39.55078125,-28.80859375,-48.828125,-1000.0,0.0
1734500759.5571797,-31.73828125,-27.34375,-43.9453125,-409.1796875,0.0
1734500759.5610843,-43.45703125,-34.66796875,-43.45703125,756.8359375,0.0
1734500759.564989,-43.45703125,-42.48046875,-43.45703125,907.71484375,0.0
1734500759.568894,-36.1328125,-40.52734375,-40.52734375,48.33984375,0.0
1734500759.5727985,-48.828125,-41.9921875,-42.96875,-977.05078125,0.0
1734500759.5767033,-44.43359375,-44.921875,-42.48046875,-666.9921875,0.0
1734500759.5806081,-20.99609375,-45.8984375,-40.52734375,511.23046875,0.0
1734500759.5845127,-32.71484375,-44.921875,-49.31640625,800.78125,0.0
1734500759.5884404,-53.22265625,-41.50390625,-48.33984375,62.01171875,0.0
1734500759.5923452,-43.45703125,-43.9453125,-44.921875,-946.2890625,0.0
1734500759.59625,-27.34375,-43.45703125,-48.828125,-770.01953125,0.0
1734500759.6001546,-24.4140625,-41.9921875,-45.8984375,416.015625,0.0
1734500759.6040595,-28.80859375,-39.55078125,-41.50390625,825.68359375,0.0
1734500759.6079643,-26.85546875,-39.55078125,-40.0390625,246.58203125,0.0
1734500759.6118689,-21.97265625,-49.8046875,-41.50390625,-856.4453125,0.0
1734500759.6157737,-28.3203125,-51.26953125,-43.45703125,-914.0625,0.0
1734500759.6196785,-30.76171875,-42.96875,-42.96875,289.0625,0.0
1734500759.623583,-31.73828125,-41.50390625,-49.31640625,842.7734375,0.0
1734500759.627488,-53.7109375,-48.33984375,-51.26953125,269.53125,0.0
1734500759.6313927,-51.7578125,-45.41015625,-47.36328125,-823.2421875,0.0
1734500759.6353369,-37.59765625,-40.0390625,-46.875,-996.58203125,0.0
1734500759.6392417,-25.390625,-43.9453125,-47.8515625,112.79296875,0.0
1734500759.6431463,-14.16015625,-45.8984375,-50.78125,818.84765625,0.0
1734500759.647051,-16.11328125,-43.9453125,-48.828125,413.0859375,0.0
1734500759.650956,-11.23046875,-43.45703125,-42.48046875,-728.02734375,0.0
1734500759.6548605,-16.6015625,-48.828125,-39.0625,-1000.0,0.0
1734500759.6587653,-4.8828125,-55.17578125,-37.59765625,60.546875,0.0
1734500759.6626701,-2.44140625,-46.875,-48.33984375,885.7421875,0.0
1734500759.6665747,-13.18359375,-43.45703125,-52.24609375,618.1640625,0.0
1734500759.6704795,-7.8125,-49.31640625,-44.43359375,-556.15234375,0.0
1734500759.6743844,-5.37109375,-43.9453125,-43.9453125,-1000.0,0.0
1734500759.678289,-4.39453125,-43.45703125,-46.38671875,12.20703125,0.0
1734500759.682231,-3.90625,-49.8046875,-41.9921875,948.2421875,0.0
1734500759.6861358,-3.90625,-45.8984375,-38.0859375,946.2890625,0.0
1734500759.6900406,0.48828125,-46.875,-40.52734375,-181.15234375,0.0
1734500759.6939452,6.8359375,-51.7578125,-39.0625,-1000.0,0.0
1734500759.69785,1.46484375,-49.8046875,-37.109375,-48.828125,0.0
1734500759.7017548,-7.32421875,-46.875,-38.0859375,932.6171875,0.0
1734500759.7056594,6.34765625,-39.0625,-42.96875,973.6328125,0.0
1734500759.7095642,1.953125,-37.109375,-48.828125,-7.32421875,0.0
1734500759.713469,-17.578125,-44.43359375,-46.875,-1000.0,0.0
1734500759.7173736,-10.25390625,-50.78125,-41.9921875,-207.03125,0.0
1734500759.7212784,-29.296875,-43.45703125,-43.9453125,872.55859375,0.0
1734500759.7251832,-31.73828125,-41.50390625,-42.48046875,-987.3046875,0.0
1734500759.7291222,-22.94921875,-47.8515625,-38.0859375,176.26953125,0.0
1734500759.7330267,-37.109375,-47.36328125,-38.57421875,-966.796875,0.0
1734500759.7369316,-32.71484375,-49.31640625,-41.015625,-420.41015625,0.0
1734500759.7408364,-37.109375,-53.7109375,-36.62109375,802.734375,0.0
1734500759.744741,-45.8984375,-55.17578125,-26.3671875,-986.328125,0.0
1734500759.7486458,-40.0390625,-53.22265625,-22.94921875,265.13671875,0.0
1734500759.7525506,-34.1796875,-46.38671875,-33.203125,-914.55078125,0.0
1734500759.7564554,-37.109375,-42.96875,-31.73828125,-697.265625,0.0
1734500759.76036,-53.22265625,-51.7578125,-21.484375,551.26953125,0.0
1734500759.7642648,-77.1484375,-62.5,-25.87890625,915.0390625,0.0
1734500759.7681696,-83.49609375,-60.05859375,-31.73828125,205.078125,0.0
1734500759.7720742,-78.61328125,-61.5234375,-38.57421875,-908.69140625,0.0
1734500759.776011,-69.3359375,-58.59375,-50.78125,-841.30859375,0.0
1734500759.7799156,-67.87109375,-48.828125,-49.31640625,297.8515625,0.0
1734500759.7838204,-68.84765625,-50.29296875,-36.1328125,699.70703125,0.0
1734500759.7877252,-49.31640625,-52.734375,-36.1328125,111.328125,0.0
1734500759.79163,-46.875,-55.17578125,-37.59765625,-867.67578125,0.0
1734500759.7955346,-42.48046875,-48.33984375,-41.015625,-989.74609375,0.0
1734500759.7994394,-49.31640625,-43.45703125,-39.55078125,-18.06640625,0.0
1734500759.8033442,-37.109375,-48.33984375,-33.69140625,538.0859375,0.0
1734500759.8072488,-17.578125,-52.24609375,-35.15625,74.70703125,0.0
1734500759.8111537,-60.05859375,-55.17578125,-44.43359375,-842.28515625,0.0
1734500759.8150585,-82.03125,-57.6171875,-44.43359375,-1000.0,0.0
1734500759.818963,-73.2421875,-61.03515625,-39.55078125,-36.62109375,0.0
1734500759.8228981,-70.3125,-68.359375,-38.57421875,741.69921875,0.0
1734500759.826803,-57.12890625,-62.5,-37.59765625,452.63671875,0.0
1734500759.8307078,-66.40625,-59.08203125,-35.64453125,-659.66796875,0.0
1734500759.8346124,-75.1953125,-74.21875,-25.87890625,-1000.0,0.0
1734500759.8385172,-45.8984375,-79.58984375,-22.4609375,2.9296875,0.0
1734500759.842422,-41.50390625,-71.2890625,-23.92578125,929.19921875,0.0
1734500759.8463266,-42.48046875,-66.40625,-25.390625,677.734375,0.0
1734500759.8502314,-33.203125,-70.3125,-25.87890625,-488.28125,0.0
1734500759.8541362,-36.62109375,-76.66015625,-28.3203125,-1000.0,0.0
1734500759.8580408,-36.62109375,-79.1015625,-36.1328125,-159.66796875,0.0
1734500759.8619456,-37.59765625,-80.56640625,-34.1796875,804.19921875,0.0
1734500759.8658504,-46.38671875,-84.47265625,-28.80859375,701.171875,0.0
1734500759.8697832,-40.0390625,-90.33203125,-24.4140625,-359.86328125,0.0
1734500759.873688,-36.62109375,-91.796875,-24.4140625,-1000.0,0.0
1734500759.8775928,-42.48046875,-94.7265625,-25.87890625,-429.19921875,0.0
1734500759.8814974,-47.36328125,-100.09765625,-24.4140625,518.06640625,0.0
1734500759.8854022,-35.15625,-98.14453125,-25.390625,497.0703125,0.0
1734500759.889307,-21.97265625,-94.7265625,-24.4140625,-452.1484375,0.0
1734500759.8932116,-27.83203125,-97.16796875,-22.94921875,-1000.0,0.0
1734500759.8971164,-25.390625,-109.375,-24.4140625,-683.10546875,0.0
1734500759.9010212,-21.484375,-111.81640625,-26.85546875,188.4765625,0.0
1734500759.904926,-13.18359375,-103.02734375,-30.76171875,261.71875,0.0
1734500759.9088306,-7.8125,-99.12109375,-30.2734375,-519.04296875,0.0
1734500759.9127355,-7.8125,-102.05078125,-29.296875,-1000.0,0.0
1734500759.9166656,-2.9296875,-108.88671875,-34.66796875,-881.34765625,0.0
1734500759.9205701,-17.08984375,-114.2578125,-32.2265625,-46.38671875,0.0
1734500759.924475,-18.06640625,-113.76953125,-28.3203125,252.9296875,0.0
1734500759.9283798,2.9296875,-111.81640625,-23.92578125,-422.36328125,0.0
1734500759.9322844,-8.30078125,-109.86328125,-28.3203125,-1000.0,0.0
1734500759.9361892,1.46484375,-108.88671875,-41.015625,-926.7578125,0.0
1734500759.940094,6.8359375,-114.2578125,-39.55078125,-64.453125,0.0
1734500759.9439986,-9.27734375,-123.53515625,-36.62109375,294.921875,0.0
1734500759.9479034,-7.8125,-120.60546875,-38.57421875,-343.26171875,0.0
1734500759.9518082,7.32421875,-112.3046875,-33.69140625,-973.14453125,0.0
1734500759.955713,12.6953125,-108.3984375,-31.73828125,-977.5390625,0.0
1734500759.9596176,6.34765625,-107.421875,-37.59765625,-161.1328125,0.0
1734500759.9635453,0.0,-110.3515625,-37.109375,363.76953125,0.0
1734500759.9674501,-3.41796875,-111.81640625,-27.34375,-164.55078125,0.0
1734500759.971355,1.953125,-114.2578125,-34.66796875,-914.55078125,0.0
1734500759.9752598,16.6015625,-108.88671875,-46.875,-1000.0,0.0
1734500759.9791644,25.87890625,-107.421875,-35.64453125,-291.50390625,0.0
1734500759.9830692,21.97265625,-109.375,-27.83203125,254.39453125,0.0
1734500759.986974,18.06640625,-107.91015625,-33.69140625,-182.12890625,0.0
1734500759.9908786,-5.859375,-106.93359375,-40.0390625,-883.30078125,0.0
1734500759.9947834,-8.30078125,-103.515625,-39.55078125,-1000.0,0.0
1734500759.9986882,28.80859375,-100.5859375,-40.0390625,-420.41015625,0.0
1734500760.0025928,31.73828125,-104.00390625,-39.0625,324.21875,0.0
1734500760.0064976,29.296875,-103.515625,-39.0625,111.328125,0.0
1734500760.0104237,36.62109375,-101.5625,-33.69140625,-775.390625,0.0
1734500760.0143285,35.64453125,-103.02734375,-37.59765625,-1000.0,0.0
1734500760.0182333,38.0859375,-107.91015625,-45.41015625,-204.58984375,0.0
1734500760.022138,40.52734375,-110.3515625,-39.55078125,758.30078125,0.0
1734500760.0260427,41.015625,-106.4453125,-38.57421875,575.68359375,0.0
1734500760.0299475,46.38671875,-96.19140625,-35.64453125,-504.39453125,0.0
1734500760.0338523,71.77734375,-83.984375,-29.78515625,-1000.0,0.0
1734500760.037757,59.08203125,-89.35546875,-33.203125,-262.20703125,0.0
1734500760.0416617,31.25,-95.21484375,-32.71484375,735.3515625,0.0
1734500760.0455666,40.52734375,-87.40234375,-34.1796875,707.03125,0.0
1734500760.0494714,56.640625,-87.890625,-26.3671875,-306.15234375,0.0
1734500760.053376,52.24609375,-87.890625,-27.34375,-1000.0,0.0
1734500760.057318,68.359375,-84.47265625,-38.57421875,-428.7109375,0.0
1734500760.0612228,83.984375,-88.37890625,-34.66796875,618.1640625,0.0
1734500760.0651276,64.453125,-90.33203125,-37.109375,630.37109375,0.0
1734500760.0690322,54.6875,-86.9140625,-38.0859375,-263.18359375,0.0
1734500760.072937,59.5703125,-91.796875,-37.109375,-1000.0,0.0
1734500760.0768418,81.0546875,-92.28515625,-34.66796875,-746.58203125,0.0
1734500760.0807467,91.30859375,-82.03125,-33.69140625,176.7578125,0.0
1734500760.0846512,77.1484375,-75.1953125,-30.76171875,359.375,0.0
1734500760.088556,84.9609375,-78.125,-29.296875,-347.65625,0.0
1734500760.0924609,82.03125,-81.54296875,-32.2265625,-1000.0,0.0
1734500760.0963655,76.171875,-68.84765625,-35.15625,-829.1015625,0.0
1734500760.1002703,82.03125,-62.5,-33.69140625,244.62890625,0.0
1734500760.1042094,77.1484375,-60.546875,-37.59765625,755.859375,0.0
1734500760.1081142,54.6875,-62.01171875,-43.9453125,134.27734375,0.0
1734500760.1120188,46.875,-71.2890625,-41.50390625,-912.59765625,0.0
1734500760.1159236,43.9453125,-67.3828125,-42.48046875,-830.078125,0.0
1734500760.1198285,36.62109375,-60.05859375,-41.015625,403.3203125,0.0
1734500760.1237333,40.0390625,-65.91796875,-40.52734375,-981.93359375,0.0
1734500760.1276379,46.875,-64.453125,-35.15625,463.8671875,0.0
1734500760.1315427,44.43359375,-56.15234375,-37.109375,-801.7578125,0.0
1734500760.1354475,36.62109375,-56.640625,-40.0390625,-957.51953125,0.0
1734500760.139352,40.52734375,-51.26953125,-33.203125,250.48828125,0.0
1734500760.143257,35.15625,-47.8515625,-43.45703125,831.54296875,0.0
1734500760.1471617,42.48046875,-44.921875,-51.7578125,280.2734375,0.0
1734500760.151099,40.52734375,-49.8046875,-44.921875,-784.66796875,0.0
1734500760.1550038,14.16015625,-55.6640625,-50.78125,-1000.0,0.0
1734500760.1589084,20.5078125,-42.96875,-50.29296875,-204.1015625,0.0
1734500760.1628132,30.2734375,-35.64453125,-44.43359375,370.1171875,0.0
1734500760.166718,26.3671875,-44.43359375,-45.8984375,-64.94140625,0.0
1734500760.1706226,30.2734375,-45.41015625,-45.41015625,-838.8671875,0.0
1734500760.1745274,34.66796875,-34.1796875,-51.26953125,-1000.0,0.0
1734500760.1784322,20.99609375,-25.87890625,-54.6875,-442.3828125,0.0
1734500760.182337,18.06640625,-29.296875,-49.31640625,343.26171875,0.0
1734500760.1862416,21.484375,-26.3671875,-53.7109375,130.37109375,0.0
1734500760.1901464,-0.48828125,-28.80859375,-51.26953125,-757.8125,0.0
1734500760.1940513,-2.9296875,-35.15625,-45.41015625,-1000.0,0.0
1734500760.197986,2.44140625,-30.2734375,-53.22265625,-488.28125,0.0
1734500760.2018907,5.859375,-27.83203125,-52.734375,399.90234375,0.0
1734500760.2057955,-2.9296875,-38.57421875,-49.31640625,460.44921875,0.0
1734500760.2097,-9.27734375,-34.1796875,-46.38671875,-493.65234375,0.0
1734500760.213605,-17.578125,-23.4375,-42.48046875,-1000.0,0.0
1734500760.2175097,-13.18359375,-29.296875,-44.921875,-301.26953125,0.0
1734500760.2214146,-3.41796875,-34.66796875,-53.22265625,792.48046875,0.0
1734500760.2253191,14.16015625,-37.59765625,-50.29296875,-969.23828125,0.0
1734500760.229224,-2.44140625,-37.109375,-48.828125,129.8828125,0.0
1734500760.2331288,-17.08984375,-31.25,-51.26953125,-965.33203125,0.0
1734500760.2370334,-4.39453125,-40.52734375,-50.29296875,-379.8828125,0.0
1734500760.2409382,8.30078125,-43.45703125,-48.33984375,813.4765625,0.0
1734500760.2448714,9.27734375,-32.71484375,-55.17578125,977.5390625,0.0
1734500760.2487762,1.46484375,-34.1796875,-53.7109375,44.921875,0.0
1734500760.2526808,2.9296875,-35.15625,-50.29296875,-996.09375,0.0
1734500760.2565856,-11.23046875,-36.62109375,-56.640625,-680.17578125,0.0
1734500760.2604904,-28.80859375,-38.0859375,-57.12890625,420.8984375,0.0
1734500760.264395,-5.37109375,-36.1328125,-55.6640625,703.61328125,0.0
1734500760.2682998,14.6484375,-37.59765625,-54.19921875,81.0546875,0.0
1734500760.2722046,13.18359375,-39.0625,-50.29296875,-919.921875,0.0
1734500760.2761095,10.7421875,-38.0859375,-44.43359375,-773.92578125,0.0
1734500760.280014,8.7890625,-36.62109375,-50.29296875,401.85546875,0.0
1734500760.2839189,14.16015625,-34.1796875,-51.26953125,818.359375,0.0
1734500760.2878237,-11.71875,-33.203125,-46.38671875,231.4453125,0.0
1734500760.2917538,-6.8359375,-23.92578125,-47.36328125,-862.3046875,0.0
1734500760.2956586,18.06640625,-21.484375,-53.22265625,-957.51953125,0.0
1734500760.2995634,8.30078125,-28.3203125,-55.17578125,163.57421875,0.0
1734500760.303468,-19.04296875,-28.80859375,-57.12890625,692.3828125,0.0
1734500760.3073728,-32.2265625,-28.3203125,-60.05859375,158.203125,0.0
1734500760.3112776,-10.7421875,-32.2265625,-56.15234375,-838.8671875,0.0
1734500760.3151822,9.765625,-26.85546875,-53.7109375,-984.375,0.0
1734500760.319087,-2.9296875,-29.296875,-50.29296875,138.671875,0.0
1734500760.3229918,-30.76171875,-37.109375,-53.7109375,907.71484375,0.0
1734500760.3268967,-40.52734375,-45.8984375,-50.29296875,546.38671875,0.0
1734500760.3308012,-31.25,-40.52734375,-49.31640625,-656.73828125,0.0
1734500760.334706,-28.3203125,-30.2734375,-58.59375,-1000.0,0.0
1734500760.3386347,-18.5546875,-37.109375,-54.19921875,33.69140625,0.0
1734500760.3425393,-9.27734375,-35.64453125,-47.36328125,848.6328125,0.0
1734500760.3464441,-19.53125,-36.62109375,-53.22265625,640.625,0.0
1734500760.350349,-34.1796875,-40.52734375,-54.6875,-487.3046875,0.0
1734500760.3542538,-40.52734375,-34.1796875,-54.19921875,-1000.0,0.0
1734500760.3581583,-18.06640625,-24.4140625,-41.015625,-276.3671875,0.0
1734500760.3620632,-28.3203125,-32.71484375,-40.0390625,806.15234375,0.0
1734500760.365968,-49.31640625,-38.0859375,-57.6171875,720.21484375,0.0
1734500760.3698726,-25.390625,-23.4375,-48.33984375,-382.8125,0.0
1734500760.3737774,-41.015625,-28.80859375,-46.38671875,-1000.0,0.0
1734500760.3776822,-68.359375,-33.203125,-46.38671875,-435.05859375,0.0
1734500760.381587,-33.69140625,-28.3203125,-42.96875,791.50390625,0.0
1734500760.3855326,-28.80859375,-28.3203125,-40.52734375,957.03125,0.0
1734500760.3894374,-47.36328125,-31.73828125,-39.55078125,-137.20703125,0.0
1734500760.3933423,-50.78125,-30.2734375,-48.33984375,-1000.0,0.0
1734500760.3972468,-61.03515625,-35.15625,-50.29296875,-698.2421875,0.0
1734500760.4011517,-53.22265625,-40.0390625,-54.19921875,418.45703125,0.0
1734500760.4050565,-69.3359375,-32.71484375,-51.7578125,437.98828125,0.0
1734500760.4089613,-69.3359375,-37.109375,-43.45703125,-526.85546875,0.0
1734500760.4128659,-50.29296875,-32.2265625,-48.828125,-1000.0,0.0
1734500760.4167707,-57.12890625,-27.83203125,-51.26953125,-881.34765625,0.0
1734500760.4206755,-58.59375,-27.83203125,-41.015625,183.59375,0.0
1734500760.42458,-60.546875,-14.6484375,-35.64453125,588.8671875,0.0
1734500760.428485,-55.6640625,-19.04296875,-35.15625,-121.58203125,0.0
1734500760.432429,0.0,-31.73828125,0.0,-957.51953125,0.0
1734500760.436334,0.0,-31.25,0.0,-918.9453125,0.0
1734500760.4402387,0.0,-20.99609375,0.0,273.4375,0.0
1734500760.4441433,0.0,-22.94921875,0.0,-983.88671875,0.0
1734500760.448048,0.0,-19.53125,0.0,459.47265625,0.0
1734500760.451953,0.0,-18.5546875,0.0,-847.16796875,0.0
1734500760.4558578,0.0,-28.80859375,0.0,-608.88671875,0.0
1734500760.4597623,0.0,-29.78515625,0.0,757.8125,0.0
1734500760.4636672,0.0,-24.4140625,0.0,-969.23828125,0.0
1734500760.467572,0.0,-34.1796875,0.0,924.8046875,0.0
1734500760.4714768,0.0,-26.3671875,0.0,-146.97265625,0.0
1734500760.4753814,0.0,-9.27734375,0.0,-374.51171875,0.0
1734500760.4793224,-4.8828125,-5.37109375,-44.921875,760.7421875,0.0
1734500760.4832273,5.859375,1.953125,-36.1328125,-956.0546875,0.0
1734500760.4871318,11.71875,1.953125,-36.62109375,860.3515625,0.0
1734500760.4910367,7.32421875,9.27734375,-47.36328125,-450.1953125,0.0
1734500760.4949415,18.06640625,18.5546875,-47.36328125,-1000.0,0.0
1734500760.498846,7.32421875,13.671875,-43.9453125,233.3984375,0.0
1734500760.5027509,-4.39453125,18.06640625,-57.12890625,-962.40234375,0.0
1734500760.5066557,8.7890625,24.90234375,-60.05859375,756.34765625,0.0
1734500760.5105605,14.6484375,24.90234375,-58.59375,-478.02734375,0.0
1734500760.514465,-2.9296875,28.80859375,-66.40625,-1000.0,0.0
1734500760.51837,-9.27734375,38.0859375,-66.40625,-99.12109375,0.0
1734500760.5222747,0.0,22.94921875,-58.10546875,938.96484375,0.0
1734500760.5262125,17.578125,20.5078125,-52.734375,927.734375,0.0
1734500760.5301173,4.8828125,12.6953125,-63.4765625,-315.91796875,0.0
1734500760.5340219,11.23046875,17.08984375,-59.5703125,-1000.0,0.0
1734500760.5379267,-0.48828125,14.6484375,-56.640625,-203.61328125,0.0
1734500760.5418315,-25.390625,1.46484375,-58.59375,830.078125,0.0
1734500760.5457363,-4.39453125,10.25390625,-50.78125,627.44140625,0.0
1734500760.549641,-6.34765625,14.6484375,-46.875,-450.68359375,0.0
1734500760.5535457,-36.62109375,5.37109375,-52.734375,-1000.0,0.0
1734500760.5574505,-43.9453125,5.37109375,-57.6171875,-693.84765625,0.0
1734500760.561355,-34.66796875,7.8125,-56.640625,332.51953125,0.0
1734500760.56526,-20.01953125,-1.46484375,-47.36328125,439.94140625,0.0
1734500760.5691648,-13.18359375,-3.90625,-45.8984375,-524.90234375,0.0
1734500760.5730994,-9.765625,0.0,-59.08203125,-1000.0,0.0
1734500760.5770042,-9.27734375,2.44140625,-50.29296875,-868.1640625,0.0
1734500760.580909,-1.953125,10.25390625,-36.62109375,10.25390625,0.0
1734500760.5848136,0.9765625,-5.859375,-48.33984375,115.234375,0.0
1734500760.5887184,8.30078125,-12.20703125,-56.640625,-713.8671875,0.0
1734500760.5926232,-5.859375,-10.25390625,-58.59375,-1000.0,0.0
1734500760.596528,-15.13671875,-27.34375,-59.08203125,-976.5625,0.0
1734500760.6004326,19.04296875,-23.4375,-44.921875,-282.71484375,0.0
1734500760.6043375,25.87890625,-13.18359375,-41.015625,145.5078125,0.0
1734500760.6082423,4.39453125,-12.6953125,-52.24609375,-505.859375,0.0
1734500760.612147,-3.41796875,-13.671875,-51.7578125,-1000.0,0.0
1734500760.6160517,-3.90625,-16.6015625,-46.38671875,-928.7109375,0.0
1734500760.6200035,0.9765625,-20.5078125,-45.41015625,72.265625,0.0
1734500760.623908,-8.7890625,-19.53125,-43.45703125,767.08984375,0.0
1734500760.6278129,-16.6015625,-21.484375,-39.0625,381.8359375,0.0
1734500760.6317177,-18.06640625,-24.90234375,-39.0625,-814.453125,0.0
1734500760.6356225,-22.4609375,-19.04296875,-41.50390625,-811.03515625,0.0
1734500760.639527,-13.671875,-17.08984375,-40.0390625,594.23828125,0.0
1734500760.643432,-16.11328125,-19.53125,-39.55078125,-957.51953125,0.0
1734500760.6473367,-1.953125,-18.06640625,-41.9921875,948.2421875,0.0
1734500760.6512415,-5.859375,-11.23046875,-44.921875,-151.85546875,0.0
1734500760.6551461,-0.9765625,-3.41796875,-47.8515625,-475.5859375,0.0
1734500760.659051,-17.08984375,-12.20703125,-62.5,785.64453125,0.0
1734500760.6629558,-27.34375,-18.5546875,-63.96484375,-982.91015625,0.0
1734500760.6668866,-2.44140625,-9.765625,-54.6875,973.14453125,0.0
1734500760.6707911,-13.18359375,-6.8359375,-53.22265625,37.109375,0.0
1734500760.674696,-32.2265625,-12.20703125,-54.6875,-466.30859375,0.0
1734500760.6786008,-39.55078125,-24.90234375,-57.12890625,718.26171875,0.0
1734500760.6825056,-37.109375,-19.53125,-56.640625,-980.46875,0.0
1734500760.6864102,-20.5078125,-12.6953125,-53.7109375,989.74609375,0.0
1734500760.690315,-20.5078125,-24.4140625,-46.875,290.0390625,0.0
1734500760.6942198,-33.203125,-20.5078125,-42.96875,-416.50390625,0.0
1734500760.6981246,-21.484375,-17.578125,-43.45703125,619.140625,0.0
1734500760.7020292,-10.25390625,-14.16015625,-39.55078125,-977.05078125,0.0
1734500760.705934,-29.296875,-17.08984375,-42.96875,-995.1171875,0.0
1734500760.7098389,-30.2734375,-18.06640625,-48.33984375,337.890625,0.0
1734500760.7137668,-17.08984375,-16.6015625,-53.7109375,-683.10546875,0.0
1734500760.7176716,-28.3203125,-21.484375,-56.640625,355.95703125,0.0
1734500760.7215762,-20.99609375,-19.04296875,-41.015625,-979.98046875,0.0
1734500760.725481,-15.13671875,-16.6015625,-32.2265625,-988.76953125,0.0
1734500760.7293859,-17.578125,-14.6484375,-36.1328125,584.9609375,0.0
1734500760.7332907,-8.7890625,-20.01953125,-42.48046875,-562.01171875,0.0
1734500760.7371953,-2.44140625,-26.85546875,-38.57421875,271.97265625,0.0
1734500760.7411,-4.39453125,-20.99609375,-40.0390625,-968.75,0.0
1734500760.745005,-21.484375,-30.76171875,-45.8984375,-998.53515625,0.0
1734500760.7489097,-40.52734375,-38.0859375,-39.0625,685.546875,0.0
1734500760.7528143,-41.50390625,-32.2265625,-39.0625,-391.11328125,0.0
1734500760.756719,-36.62109375,-33.203125,-49.31640625,288.0859375,0.0
1734500760.7606456,-55.17578125,-35.64453125,-53.7109375,-977.5390625,0.0
1734500760.7645502,-45.41015625,-32.2265625,-45.8984375,982.421875,0.0
1734500760.768455,-31.25,-35.64453125,-43.9453125,877.9296875,0.0
1734500760.7723598,-43.9453125,-38.57421875,-49.31640625,-189.94140625,0.0
1734500760.7762647,-41.50390625,-22.94921875,-39.55078125,218.26171875,0.0
1734500760.7801692,-37.109375,-31.25,-34.1796875,-974.609375,0.0
1734500760.784074,-25.390625,-40.0390625,-44.43359375,964.84375,0.0
1734500760.787979,-23.4375,-31.25,-44.43359375,941.40625,0.0
1734500760.7918837,-38.0859375,-28.80859375,-31.73828125,105.95703125,0.0
1734500760.7957883,-30.2734375,-27.34375,-40.0390625,305.17578125,0.0
1734500760.799693,-23.92578125,-28.80859375,-49.31640625,-999.51171875,0.0
1734500760.803598,-25.390625,-32.2265625,-40.52734375,960.9375,0.0
1734500760.8075404,-22.94921875,-31.73828125,-41.50390625,977.05078125,0.0
1734500760.8114452,-7.32421875,-30.76171875,-43.9453125,72.75390625,0.0
1734500760.81535,-10.25390625,-31.73828125,-45.41015625,14.6484375,0.0
1734500760.8192549,-40.52734375,-36.62109375,-44.43359375,924.8046875,0.0
1734500760.8231595,-40.0390625,-40.0390625,-39.0625,978.515625,0.0
1734500760.8270643,-26.85546875,-32.2265625,-35.64453125,987.79296875,0.0
1734500760.830969,-26.3671875,-24.4140625,-41.9921875,288.57421875,0.0
1734500760.834874,-27.34375,-26.3671875,-43.9453125,95.703125,0.0
1734500760.8387785,-30.2734375,-29.296875,-40.52734375,909.66796875,0.0
1734500760.8426833,-14.6484375,-31.73828125,-31.25,970.21484375,0.0
1734500760.8465881,-14.6484375,-27.34375,-32.2265625,-984.86328125,0.0
1734500760.850493,-25.87890625,-27.83203125,-43.45703125,345.703125,0.0
1734500760.8544338,-25.390625,-31.25,-51.26953125,-173.33984375,0.0
1734500760.8583384,-1.953125,-32.2265625,-49.8046875,771.484375,0.0
1734500760.8622432,3.90625,-37.109375,-40.52734375,-986.81640625,0.0
1734500760.866148,-8.7890625,-37.109375,-37.59765625,-999.0234375,0.0
1734500760.8700528,-11.23046875,-41.50390625,-33.203125,430.6640625,0.0
1734500760.8739574,-26.85546875,-43.9453125,-38.0859375,-172.36328125,0.0
1734500760.8778622,-31.73828125,-34.66796875,-46.38671875,731.4453125,0.0
1734500760.881767,-31.73828125,-36.62109375,-41.9921875,-987.79296875,0.0
1734500760.8856719,-31.25,-45.41015625,-39.55078125,-996.58203125,0.0
1734500760.8895764,-32.2265625,-45.41015625,-50.29296875,684.5703125,0.0
1734500760.8934813,-42.48046875,-27.83203125,-49.31640625,-64.453125,0.0
1734500760.897386,-33.203125,-18.06640625,-38.0859375,670.41015625,0.0
1734500760.9013262,-9.27734375,-35.64453125,-38.57421875,-977.5390625,0.0
1734500760.905231,-7.32421875,-40.0390625,-34.66796875,992.67578125,0.0
1734500760.9091358,-43.9453125,-32.2265625,-38.0859375,732.91015625,0.0
1734500760.9130406,-45.8984375,-29.296875,-41.9921875,-360.83984375,0.0
1734500760.9169452,-6.34765625,-31.73828125,-27.83203125,174.31640625,0.0
1734500760.92085,-10.25390625,-32.2265625,-26.85546875,959.9609375,0.0
1734500760.9247549,-19.53125,-21.97265625,-32.71484375,-984.375,0.0
1734500760.9286597,-32.71484375,-25.87890625,-28.3203125,719.7265625,0.0
1734500760.9325643,-43.45703125,-38.0859375,-29.296875,-635.7421875,0.0
1734500760.936469,-33.69140625,-34.66796875,-30.2734375,-322.265625,0.0
1734500760.940374,-34.1796875,-27.34375,-26.3671875,854.4921875,0.0
1734500760.9442787,-34.1796875,-28.80859375,-29.296875,-962.890625,0.0
1734500760.9482167,-37.109375,-24.90234375,-32.2265625,821.2890625,0.0
1734500760.9521215,-37.59765625,-20.5078125,-31.25,-540.52734375,0.0
1734500760.9560263,-12.20703125,-27.34375,-28.80859375,-429.19921875,0.0
1734500760.9599311,-27.83203125,-38.0859375,-30.2734375,828.125,0.0
1734500760.9638357,-47.8515625,-36.1328125,-34.1796875,-968.75,0.0
1734500760.9677405,-15.13671875,-26.85546875,-25.87890625,862.79296875,0.0
1734500760.9716454,2.9296875,-25.87890625,-22.94921875,-535.15625,0.0
1734500760.9755502,1.46484375,-37.109375,-30.2734375,-792.96875,0.0
1734500760.979455,-2.9296875,-39.55078125,-35.15625,631.8359375,0.0
1734500760.9833596,-19.53125,-39.55078125,-41.50390625,-923.33984375,0.0
1734500760.9872644,-20.5078125,-38.0859375,-38.0859375,715.33203125,0.0
1734500760.9911692,-21.484375,-30.76171875,-31.25,-596.6796875,0.0
1734500760.9951034,0.0,-36.62109375,-31.73828125,-1000.0,0.0
1734500760.9990082,0.0,-40.0390625,-28.3203125,191.40625,0.0
1734500761.002913,0.0,-33.203125,-26.3671875,-965.8203125,0.0
1734500761.0068178,0.0,-28.80859375,-28.80859375,784.1796875,0.0
1734500761.0107224,0.0,-21.97265625,-23.4375,-551.26953125,0.0
1734500761.0146272,0.0,-25.87890625,-22.94921875,-1000.0,0.0
1734500761.018532,0.0,-33.203125,-22.94921875,85.9375,0.0
1734500761.0224369,0.0,-32.2265625,-22.4609375,977.5390625,0.0
1734500761.0263417,0.0,-28.3203125,-31.73828125,908.203125,0.0
1734500761.0302463,0.0,-18.5546875,-33.203125,-280.2734375,0.0
1734500761.034151,0.0,-18.06640625,-30.2734375,-1000.0,0.0
1734500761.038056,0.0,-20.01953125,-33.203125,-8.7890625,0.0
1734500761.0419886,-20.5078125,-15.625,-31.25,948.73046875,0.0
1734500761.0458932,0.9765625,-20.01953125,-25.390625,976.07421875,0.0
1734500761.049798,-5.37109375,-33.203125,-26.85546875,-62.01171875,0.0
1734500761.0537028,-17.578125,-27.34375,-26.3671875,-1000.0,0.0
1734500761.0576077,0.9765625,-24.90234375,-18.5546875,-165.0390625,0.0
1734500761.0615125,-7.8125,-30.76171875,-24.4140625,880.37109375,0.0
1734500761.065417,-8.30078125,-30.2734375,-23.92578125,-969.23828125,0.0
1734500761.0693219,1.953125,-34.66796875,-23.92578125,193.359375,0.0
1734500761.0732267,-9.27734375,-32.71484375,-30.76171875,-973.6328125,0.0
1734500761.0771315,-21.484375,-24.4140625,-33.203125,-386.71875,0.0
1734500761.081036,-12.6953125,-24.4140625,-30.76171875,807.12890625,0.0
1734500761.084941,-31.25,-33.203125,-29.296875,-944.82421875,0.0
1734500761.088871,-41.015625,-35.15625,-28.3203125,326.66015625,0.0
1734500761.0927758,-24.90234375,-27.83203125,-27.83203125,-916.015625,0.0
1734500761.0966806,-20.01953125,-26.3671875,-32.2265625,-487.79296875,0.0
1734500761.1005852,-5.37109375,-28.80859375,-34.66796875,772.94921875,0.0
1734500761.10449,-8.7890625,-29.296875,-32.2265625,-956.0546875,0.0
1734500761.1083949,-18.06640625,-27.34375,-31.25,441.89453125,0.0
1734500761.1122997,-2.9296875,-26.85546875,-28.3203125,-867.67578125,0.0
1734500761.1162043,-18.5546875,-24.4140625,-30.76171875,-692.87109375,0.0
1734500761.120109,-29.78515625,-22.94921875,-31.73828125,664.55078125,0.0
1734500761.124014,-23.92578125,-18.06640625,-25.87890625,-911.62109375,0.0
1734500761.1279187,-33.203125,-17.578125,-29.296875,625.0,0.0
1734500761.1318235,-40.52734375,-22.4609375,-34.66796875,-756.8359375,0.0
1734500761.1357505,0.0,-22.4609375,-37.59765625,-835.44921875,0.0
1734500761.1396554,0.0,-23.4375,-38.57421875,548.828125,0.0
1734500761.14356,0.0,-32.2265625,-40.52734375,-910.64453125,0.0
1734500761.1474648,0.0,-35.15625,-40.52734375,666.015625,0.0
1734500761.1513696,0.0,-31.73828125,-38.0859375,-699.70703125,0.0
1734500761.1552744,0.0,-30.76171875,-39.0625,-750.0,0.0
1734500761.1591792,0.0,-33.69140625,-39.55078125,533.203125,0.0
1734500761.1630838,0.0,-35.64453125,-36.62109375,-961.42578125,0.0
1734500761.1669886,0.0,-25.390625,-33.203125,813.96484375,0.0
1734500761.1708934,0.0,-15.13671875,-40.0390625,-513.18359375,0.0
1734500761.1747983,0.0,-15.625,-45.8984375,-1000.0,0.0
1734500761.1787028,0.0,-29.78515625,-49.8046875,242.67578125,0.0
1734500761.1826468,-72.75390625,-56.640625,-47.8515625,-956.54296875,0.0
1734500761.1865516,-77.1484375,-52.24609375,-36.62109375,835.9375,0.0
1734500761.1904564,-109.86328125,-40.0390625,-34.66796875,-412.59765625,0.0
1734500761.1943612,-124.0234375,-47.8515625,-41.50390625,-1000.0,0.0
1734500761.1982658,-145.01953125,-54.6875,-34.1796875,-144.04296875,0.0
1734500761.2021706,-171.875,-60.546875,-27.83203125,908.69140625,0.0
1734500761.2060754,-172.36328125,-49.8046875,-25.87890625,682.6171875,0.0
1734500761.2099802,-177.734375,-35.64453125,-34.66796875,-535.64453125,0.0
1734500761.2138848,-169.43359375,-65.4296875,-42.96875,-1000.0,0.0
1734500761.2177896,-168.45703125,-120.1171875,-40.52734375,-452.1484375,0.0
1734500761.2216945,-182.6171875,-126.953125,-39.0625,558.10546875,0.0
1734500761.2255993,-199.21875,-87.40234375,-23.92578125,389.16015625,0.0
1734500761.229541,0.0,-29.296875,-30.2734375,-646.97265625,0.0
1734500761.233446,0.0,5.859375,-52.24609375,-1000.0,0.0
1734500761.2373507,0.0,-41.9921875,-92.7734375,-752.44140625,0.0
1734500761.2412553,0.0,-113.28125,-102.05078125,301.7578125,0.0
1734500761.24516,0.0,-106.4453125,-59.5703125,416.9921875,0.0
1734500761.249065,0.0,-36.62109375,-35.15625,-554.19921875,0.0
1734500761.2529697,0.0,17.578125,-37.109375,-1000.0,0.0
1734500761.2568746,0.0,37.109375,-35.15625,-585.9375,0.0
1734500761.2607791,0.0,21.484375,-28.80859375,642.08984375,0.0
1734500761.264684,0.0,4.39453125,-30.2734375,-887.6953125,0.0
1734500761.2685888,0.0,-5.37109375,-39.55078125,499.0234375,0.0
1734500761.2724936,0.0,-21.97265625,-47.36328125,-752.44140625,0.0
1734500761.2763813,-233.3984375,-40.0390625,-61.5234375,-206.54296875,0.0
1734500761.280286,-233.3984375,-62.01171875,-77.1484375,897.94921875,0.0
1734500761.284191,-193.84765625,-84.9609375,-77.1484375,-991.69921875,0.0
1734500761.2880955,-186.5234375,-82.03125,-71.2890625,871.58203125,0.0
1734500761.2920003,-214.84375,-59.5703125,-78.61328125,-417.96875,0.0
1734500761.295905,-225.09765625,-65.4296875,-90.8203125,-452.63671875,0.0
1734500761.29981,-216.30859375,-70.3125,-89.84375,777.34375,0.0
1734500761.3037148,-225.09765625,-60.05859375,-83.0078125,-932.6171875,0.0
1734500761.3076193,-201.66015625,-64.94140625,-80.56640625,615.72265625,0.0
1734500761.3115242,-151.85546875,-71.2890625,-83.0078125,-726.5625,0.0
1734500761.315429,-127.9296875,-68.84765625,-93.75,-1000.0,0.0
1734500761.3193338,-130.37109375,-71.77734375,-101.5625,43.45703125,0.0
1734500761.3232183,-110.3515625,-82.03125,-98.14453125,592.7734375,0.0
1734500761.3271232,-78.61328125,-86.9140625,-98.14453125,-151.85546875,0.0
1734500761.3310277,-56.15234375,-90.33203125,-107.421875,-904.296875,0.0
1734500761.3349326,-40.52734375,-97.16796875,-105.46875,-1000.0,0.0
1734500761.3388374,-45.8984375,-112.3046875,-110.83984375,-569.3359375,0.0
1734500761.3427422,-31.25,-106.93359375,-113.28125,-3.90625,0.0
1734500761.346647,-4.39453125,-91.796875,-99.12109375,-441.89453125,0.0
1734500761.3505516,0.0,-95.703125,-102.05078125,-948.2421875,0.0
1734500761.3544564,-8.7890625,-100.09765625,-115.234375,-1000.0,0.0
1734500761.3583612,-2.9296875,-89.35546875,-110.3515625,-771.484375,0.0
1734500761.362266,10.7421875,-87.40234375,-102.05078125,-64.94140625,0.0
1734500761.3661706,26.3671875,-105.46875,-95.21484375,-169.43359375,0.0
1734500761.3700523,31.25,-125.0,0.0,-844.7265625,0.0
1734500761.373957,27.83203125,-128.90625,0.0,-1000.0,0.0
1734500761.3778617,14.16015625,-125.0,0.0,-538.0859375,0.0
1734500761.3817666,32.71484375,-126.46484375,0.0,518.5546875,0.0
1734500761.3856714,60.546875,-126.953125,0.0,590.8203125,0.0
1734500761.3895762,73.73046875,-138.671875,0.0,-417.96875,0.0
1734500761.3934808,41.50390625,-154.296875,0.0,-1000.0,0.0
1734500761.3973856,29.78515625,-150.390625,0.0,-310.546875,0.0
1734500761.4012904,37.59765625,-144.04296875,0.0,831.0546875,0.0
1734500761.4051952,33.69140625,-147.4609375,0.0,-983.3984375,0.0
1734500761.4090998,33.203125,-143.5546875,0.0,18.06640625,0.0
1734500761.4130046,28.80859375,-146.484375,0.0,-1000.0,0.0
1734500761.4169369,-19.53125,-151.3671875,-78.125,-443.359375,0.0
1734500761.4208417,-15.13671875,-155.2734375,-78.61328125,789.55078125,0.0
1734500761.4247465,10.25390625,-172.8515625,-88.37890625,-986.328125,0.0
1734500761.428651,4.39453125,-169.43359375,-84.9609375,24.4140625,0.0
1734500761.432556,-31.73828125,-161.62109375,-78.125,-1000.0,0.0
1734500761.4364607,-23.4375,-167.96875,-78.125,-717.7734375,0.0
1734500761.4403656,-4.8828125,-165.0390625,-79.58984375,426.7578125,0.0
1734500761.4442701,8.7890625,-160.15625,-80.078125,657.2265625,0.0
1734500761.448175,10.25390625,-152.83203125,-74.70703125,-316.40625,0.0
1734500761.4520798,3.90625,-152.34375,-77.63671875,-1000.0,0.0
1734500761.4559846,17.08984375,-155.2734375,-82.51953125,-935.546875,0.0
1734500761.4598894,2.44140625,-155.2734375,-80.078125,-49.31640625,0.0
1734500761.46382,11.23046875,-149.90234375,-80.56640625,337.40234375,0.0
1734500761.4677248,15.13671875,-161.62109375,-88.37890625,-370.1171875,0.0
1734500761.4716294,20.5078125,-172.36328125,-82.03125,-966.30859375,0.0
1734500761.4755342,32.2265625,-155.2734375,-68.359375,-1000.0,0.0
1734500761.479439,21.97265625,-141.11328125,-79.58984375,-571.77734375,0.0
1734500761.4833438,24.90234375,-133.7890625,-89.84375,-250.9765625,0.0
1734500761.4872487,41.9921875,-137.6953125,-74.70703125,-705.078125,0.0
1734500761.4911532,41.9921875,-121.58203125,-70.3125,-1000.0,0.0
1734500761.495058,28.3203125,-113.76953125,-85.9375,-1000.0,0.0
1734500761.4989629,39.55078125,-126.46484375,-79.1015625,-773.92578125,0.0
1734500761.5028677,53.22265625,-114.74609375,-55.6640625,-496.09375,0.0
1734500761.5067723,47.36328125,-104.00390625,-53.22265625,-885.7421875,0.0
1734500761.5106997,36.1328125,-98.6328125,-53.7109375,-1000.0,0.0
1734500761.5146046,38.57421875,-98.6328125,-52.24609375,-1000.0,0.0
1734500761.5185094,41.015625,-97.16796875,-49.31640625,-945.80078125,0.0
1734500761.522414,35.64453125,-93.26171875,-47.36328125,-764.6484375,0.0
1734500761.5263188,39.55078125,-99.609375,-49.8046875,-936.5234375,0.0
1734500761.5302236,38.57421875,-101.07421875,-51.26953125,-1000.0,0.0
1734500761.5341284,37.109375,-93.26171875,-50.78125,-1000.0,0.0
1734500761.5380332,40.0390625,-78.61328125,-49.8046875,-935.05859375,0.0
1734500761.5419378,42.48046875,-69.3359375,-42.96875,-615.234375,0.0
1734500761.5458426,33.203125,-79.58984375,-37.59765625,-828.61328125,0.0
1734500761.5497475,31.73828125,-84.47265625,-43.9453125,-1000.0,0.0
1734500761.5536523,10.25390625,-76.66015625,-46.38671875,-1000.0,0.0
1734500761.5575967,0.0,-76.171875,-42.48046875,-963.37890625,0.0
1734500761.5615015,0.0,-84.9609375,-48.33984375,-289.55078125,0.0
1734500761.565406,0.0,-84.9609375,-46.38671875,-150.390625,0.0
1734500761.569311,0.0,-70.80078125,-37.59765625,-809.08203125,0.0
1734500761.5732157,0.0,-83.0078125,-51.7578125,-1000.0,0.0
1734500761.5771205,0.0,-92.28515625,-58.10546875,-886.71875,0.0
1734500761.5810254,0.0,-75.1953125,-56.15234375,62.98828125,0.0
1734500761.58493,0.0,-63.96484375,-52.734375,315.91796875,0.0
1734500761.5888348,0.0,-66.40625,-48.33984375,-582.51953125,0.0
1734500761.5927396,0.0,-67.87109375,-47.36328125,-1000.0,0.0
1734500761.5966444,0.0,-66.89453125,-54.6875,-927.734375,0.0
1734500761.6005492,0.0,-77.1484375,-61.5234375,-83.0078125,0.0
1734500761.6044912,-11.23046875,-80.078125,-59.5703125,-105.46875,0.0
1734500761.608396,-8.7890625,-72.75390625,-52.734375,-912.59765625,0.0
1734500761.6123006,-14.16015625,-67.3828125,-45.41015625,-1000.0,0.0
1734500761.6162055,-26.85546875,-72.265625,-48.33984375,-979.4921875,0.0
1734500761.6201103,-22.94921875,-116.2109375,-61.03515625,-604.98046875,0.0
1734500761.624015,11.23046875,-104.00390625,-50.29296875,-557.6171875,0.0
1734500761.62792,-7.32421875,-62.5,-44.43359375,-967.28515625,0.0
1734500761.6318245,-35.64453125,-66.40625,-54.19921875,-1000.0,0.0
1734500761.6357293,-23.4375,-74.21875,-46.38671875,-1000.0,0.0
1734500761.6396341,-30.2734375,-71.2890625,-42.48046875,-838.37890625,0.0
1734500761.643539,-41.015625,-61.03515625,-53.22265625,-740.234375,0.0
1734500761.6474435,-29.78515625,-49.31640625,-57.12890625,-965.33203125,0.0
1734500761.6513846,-34.66796875,-59.08203125,-52.24609375,-1000.0,0.0
1734500761.6552894,-51.26953125,-72.75390625,-53.22265625,-990.72265625,0.0
1734500761.6591942,-40.52734375,-71.77734375,-57.6171875,-1000.0,0.0
1734500761.6630988,-39.0625,-98.14453125,-56.15234375,-1000.0,0.0
1734500761.6670036,-44.921875,-113.76953125,-49.8046875,-1000.0,0.0
1734500761.6709085,-50.29296875,-83.984375,-52.734375,-1000.0,0.0
1734500761.6748133,-57.6171875,-67.3828125,-53.7109375,-1000.0,0.0
1734500761.678718,-55.17578125,-71.2890625,-49.8046875,-1000.0,0.0
1734500761.6826227,-58.10546875,-87.40234375,-46.38671875,-1000.0,0.0
1734500761.6865275,-43.9453125,-112.79296875,-35.15625,-1000.0,0.0
1734500761.6904323,-16.11328125,-112.79296875,-31.25,-1000.0,0.0
1734500761.6943371,-15.13671875,-90.8203125,-53.22265625,-1000.0,0.0
1734500761.6982749,0.0,-90.8203125,-64.94140625,-1000.0,0.0
1734500761.7021797,0.0,-95.21484375,-59.08203125,-1000.0,0.0
1734500761.7060843,0.0,-89.84375,-56.640625,-1000.0,0.0
1734500761.709989,0.0,-83.0078125,-57.12890625,-1000.0,0.0
1734500761.713894,0.0,-84.47265625,-61.03515625,-1000.0,0.0
1734500761.7177987,0.0,-85.44921875,-64.453125,-1000.0,0.0
1734500761.7217033,0.0,-83.49609375,-56.640625,-1000.0,0.0
1734500761.725608,0.0,-85.9375,-49.8046875,-1000.0,0.0
1734500761.729513,0.0,-88.8671875,-53.22265625,-1000.0,0.0
1734500761.7334177,0.0,-88.37890625,-55.17578125,-1000.0,0.0
1734500761.7373226,0.0,-87.40234375,-52.24609375,-1000.0,0.0
1734500761.7412271,0.0,-91.30859375,-54.6875,-1000.0,0.0
1734500761.7451632,12.6953125,-94.7265625,-59.08203125,-1000.0,0.0
1734500761.749068,22.4609375,-90.33203125,-53.7109375,-1000.0,0.0
1734500761.7529728,17.578125,-92.7734375,-45.8984375,-1000.0,0.0
1734500761.7568774,20.01953125,-109.86328125,-51.26953125,-1000.0,0.0
1734500761.7607822,43.9453125,-108.3984375,-57.6171875,-1000.0,0.0
1734500761.764687,31.25,-102.5390625,-52.24609375,-1000.0,0.0
1734500761.768592,-6.34765625,-123.046875,-52.734375,-976.5625,0.0
1734500761.7724967,-2.9296875,-110.83984375,-45.41015625,-1000.0,0.0
1734500761.7764013,6.34765625,-79.58984375,-53.7109375,-937.01171875,0.0
1734500761.780306,7.8125,-98.14453125,-81.0546875,-251.46484375,0.0
1734500761.784211,21.97265625,-117.1875,-74.70703125,533.69140625,0.0
1734500761.7881157,14.16015625,-108.3984375,-53.7109375,589.35546875,0.0
1734500761.792049,0.0,-115.72265625,0.0,-411.62109375,0.0
1734500761.7959538,0.0,-131.34765625,0.0,375.48828125,0.0
1734500761.7998583,0.0,-138.18359375,0.0,-859.86328125,0.0
1734500761.8037632,0.0,-145.5078125,0.0,894.53125,0.0
1734500761.807668,0.0,-160.15625,0.0,978.02734375,0.0
1734500761.8115728,0.0,-166.50390625,0.0,968.75,0.0
1734500761.8154776,0.0,-165.52734375,0.0,968.26171875,0.0
1734500761.8193822,0.0,-174.8046875,0.0,968.26171875,0.0
1734500761.823287,0.0,-187.5,0.0,968.75,0.0
1734500761.8271918,0.0,-194.3359375,0.0,968.26171875,0.0
1734500761.8310966,0.0,-202.1484375,0.0,968.75,0.0
1734500761.8350015,0.0,-206.0546875,0.0,968.75,0.0
1734500761.8389328,84.47265625,-199.70703125,-53.22265625,968.26171875,0.0
1734500761.8428376,81.54296875,-200.68359375,-54.19921875,968.75,0.0
1734500761.8467424,92.28515625,-202.1484375,-38.57421875,968.26171875,0.0
1734500761.8506472,76.66015625,-205.56640625,-32.71484375,968.26171875,0.0
1734500761.854552,90.8203125,-211.42578125,-41.50390625,968.75,0.0
1734500761.8584566,114.74609375,-221.6796875,-44.921875,968.75,0.0
1734500761.8623614,103.02734375,-230.46875,-48.33984375,968.26171875,0.0
1734500761.8662663,85.9375,-224.12109375,-55.6640625,968.75,0.0
1734500761.870171,71.77734375,-221.6796875,-53.22265625,968.26171875,0.0
1734500761.8740757,80.078125,-223.14453125,-51.26953125,967.7734375,0.0
1734500761.8779805,78.61328125,-227.05078125,-54.6875,972.65625,0.0
1734500761.8818853,67.3828125,-225.09765625,-50.29296875,941.89453125,0.0
1734500761.885813,56.15234375,-222.16796875,-47.8515625,-979.00390625,0.0
1734500761.8897178,49.31640625,-231.93359375,-47.36328125,818.359375,0.0
1734500761.8936224,56.15234375,-229.98046875,-44.43359375,457.51953125,0.0
1734500761.8975272,52.734375,-211.42578125,-45.41015625,861.81640625,0.0
1734500761.901432,64.94140625,-199.70703125,-49.31640625,979.00390625,0.0
1734500761.9053369,56.640625,-208.984375,-49.31640625,-982.91015625,0.0
1734500761.9092417,48.828125,-220.21484375,-48.33984375,705.078125,0.0
1734500761.9131463,62.01171875,-215.33203125,-42.48046875,31.25,0.0
1734500761.917051,54.19921875,-200.1953125,-42.96875,691.40625,0.0
1734500761.920956,33.203125,-182.6171875,-47.8515625,-972.16796875,0.0
1734500761.9248607,18.06640625,-177.734375,-50.29296875,979.4921875,0.0
1734500761.9287655,15.13671875,-180.6640625,-55.6640625,862.3046875,0.0
1734500761.9327104,0.0,-188.4765625,-48.828125,270.01953125,0.0
1734500761.9366152,0.0,-194.82421875,-45.8984375,730.46875,0.0
1734500761.94052,0.0,-194.3359375,-57.6171875,-945.80078125,0.0
1734500761.9444249,0.0,-203.125,-53.22265625,928.22265625,0.0
1734500761.9483294,0.0,-199.21875,-44.921875,975.09765625,0.0
1734500761.9522343,0.0,-189.94140625,-49.31640625,968.26171875,0.0
1734500761.956139,0.0,-185.546875,-49.31640625,968.75,0.0
1734500761.960044,0.0,-191.89453125,-48.33984375,968.75,0.0
1734500761.9639487,0.0,-212.890625,-54.6875,968.75,0.0
1734500761.9678533,0.0,-219.7265625,-51.26953125,968.75,0.0
1734500761.9717581,0.0,-204.1015625,-40.52734375,968.75,0.0
1734500761.975663,0.0,-188.4765625,-42.48046875,968.26171875,0.0
1734500761.9796045,-93.26171875,-181.15234375,-43.45703125,968.26171875,0.0
1734500761.983509,-82.03125,-204.58984375,-42.48046875,968.26171875,0.0
1734500761.987414,-66.89453125,-225.09765625,-48.33984375,968.75,0.0
1734500761.9913187,-81.0546875,-200.68359375,-52.24609375,968.75,0.0
1734500761.9952235,-90.8203125,-181.640625,-51.7578125,968.26171875,0.0
1734500761.9991283,-86.9140625,-172.36328125,-51.7578125,968.75,0.0
1734500762.003033,-95.21484375,-166.50390625,-53.7109375,968.26171875,0.0
1734500762.0069377,-93.75,-175.29296875,-49.8046875,968.26171875,0.0
1734500762.0108426,-107.91015625,-194.82421875,-43.45703125,968.75,0.0
1734500762.0147474,-115.234375,-203.125,-42.48046875,968.26171875,0.0
1734500762.0186522,-97.65625,-204.1015625,-48.828125,968.75,0.0
1734500762.0225568,-98.6328125,-210.9375,-52.734375,968.75,0.0
1734500762.0264952,-72.75390625,-220.21484375,-47.8515625,968.26171875,0.0
1734500762.0304,-51.7578125,-226.07421875,-47.8515625,968.26171875,0.0
1734500762.0343049,-63.96484375,-229.98046875,-47.8515625,968.75,0.0
1734500762.0382097,-37.109375,-245.60546875,-43.45703125,972.16796875,0.0
1734500762.0421143,-11.71875,-246.58203125,-40.0390625,948.2421875,0.0
1734500762.046019,-16.11328125,-231.93359375,-47.8515625,-990.234375,0.0
1734500762.049924,-16.11328125,-233.88671875,-52.734375,865.72265625,0.0
1734500762.0538287,-6.34765625,-239.2578125,-44.43359375,622.0703125,0.0
1734500762.0577335,-4.39453125,-250.9765625,-47.36328125,915.52734375,0.0
1734500762.061638,-14.6484375,-249.0234375,-53.7109375,968.26171875,0.0
1734500762.065543,-21.484375,-248.53515625,-45.8984375,-991.69921875,0.0
1734500762.0694478,-23.4375,-265.625,-42.48046875,823.2421875,0.0
1734500762.0733838,-30.2734375,-257.32421875,-41.50390625,358.88671875,0.0
1734500762.0772886,-24.4140625,-247.55859375,-48.33984375,817.87109375,0.0
1734500762.0811934,-26.3671875,-250.9765625,-57.6171875,978.02734375,0.0
1734500762.085098,-13.18359375,-242.1875,-45.8984375,-980.95703125,0.0
1734500762.0890028,2.9296875,-247.55859375,-38.57421875,613.28125,0.0
1734500762.0929077,-10.25390625,-253.90625,-39.55078125,-663.0859375,0.0
1734500762.0968125,-23.4375,-234.86328125,-43.45703125,-134.765625,0.0
1734500762.1007173,-29.296875,-219.23828125,-43.45703125,948.73046875,0.0
1734500762.104622,-19.04296875,-216.796875,-41.9921875,964.84375,0.0
1734500762.1085267,-26.85546875,-216.30859375,-45.8984375,7.8125,0.0
1734500762.1124315,-42.96875,-220.21484375,-46.38671875,-981.93359375,0.0
1734500762.1163363,-57.6171875,-226.07421875,-50.29296875,-976.5625,0.0
1734500762.1202698,-54.19921875,-229.00390625,-54.19921875,-898.92578125,0.0
1734500762.1241746,-34.66796875,-224.12109375,-54.6875,-996.09375,0.0
1734500762.1280794,-43.45703125,-215.8203125,-52.734375,-1000.0,0.0
1734500762.1319842,-70.3125,-211.9140625,-51.26953125,-996.09375,0.0
1734500762.135889,-78.125,-232.421875,-50.29296875,-1000.0,0.0
1734500762.1397936,-61.5234375,-239.74609375,-53.7109375,-1000.0,0.0
1734500762.1436985,-12.6953125,-215.33203125,-47.36328125,-1000.0,0.0
1734500762.1476033,-13.671875,-215.33203125,-43.45703125,-1000.0,0.0
1734500762.151508,-54.19921875,-205.078125,-52.24609375,-1000.0,0.0
1734500762.155413,-51.7578125,-188.4765625,-50.78125,-1000.0,0.0
1734500762.1593177,-41.015625,-185.546875,-46.38671875,-1000.0,0.0
1734500762.1632223,-29.296875,-187.5,-46.38671875,-1000.0,0.0
1734500762.1671538,-21.97265625,-185.05859375,-43.9453125,-1000.0,0.0
1734500762.1710587,-14.16015625,-181.15234375,-37.109375,-1000.0,0.0
1734500762.1749635,-4.39453125,-186.5234375,-44.43359375,-1000.0,0.0
1734500762.1788683,-8.30078125,-185.546875,-46.875,-1000.0,0.0
1734500762.182773,-4.8828125,-180.17578125,-48.33984375,-1000.0,0.0
1734500762.1866777,16.6015625,-178.22265625,-42.96875,-1000.0,0.0
1734500762.1905825,23.4375,-175.29296875,-41.015625,-1000.0,0.0
1734500762.1944873,19.04296875,-180.6640625,-50.29296875,-996.09375,0.0
1734500762.1983922,28.80859375,-185.546875,-48.33984375,-1000.0,0.0
1734500762.202297,37.59765625,-187.98828125,-46.38671875,-987.79296875,0.0
1734500762.2062016,33.69140625,-182.12890625,-43.9453125,-934.5703125,0.0
1734500762.2101064,29.78515625,-180.17578125,-40.0390625,-987.79296875,0.0
1734500762.214035,30.76171875,-174.31640625,-50.29296875,-1000.0,0.0
1734500762.2179399,46.38671875,-160.64453125,-53.7109375,-996.09375,0.0
1734500762.2218447,48.33984375,-161.62109375,-44.921875,-1000.0,0.0
1734500762.2257495,51.26953125,-156.25,-39.55078125,-1000.0,0.0
1734500762.229654,45.8984375,-143.5546875,-46.38671875,-981.93359375,0.0
1734500762.233559,48.33984375,-161.1328125,-45.8984375,-998.046875,0.0
1734500762.2374637,43.9453125,-172.8515625,-41.015625,-1000.0,0.0
1734500762.2413685,22.4609375,-159.66796875,-45.8984375,-313.4765625,0.0
1734500762.2452734,23.4375,-157.71484375,-52.24609375,282.71484375,0.0
1734500762.2491782,12.20703125,-167.48046875,-53.7109375,-417.48046875,0.0
1734500762.2530828,10.7421875,-169.921875,-46.875,-1000.0,0.0
1734500762.2569876,13.671875,-170.8984375,-39.55078125,-253.90625,0.0
1734500762.2609138,13.18359375,-177.24609375,-39.55078125,848.6328125,0.0
1734500762.2648187,18.06640625,-188.96484375,-41.9921875,-979.00390625,0.0
1734500762.2687232,12.6953125,-191.40625,-42.48046875,100.09765625,0.0
1734500762.272628,-11.23046875,-191.40625,-42.48046875,-1000.0,0.0
1734500762.276533,-20.99609375,-191.89453125,-46.875,-204.58984375,0.0
1734500762.2804377,-19.04296875,-195.80078125,-41.50390625,867.67578125,0.0
1734500762.2843425,-28.80859375,-196.77734375,-40.52734375,-951.171875,0.0
1734500762.288247,-41.015625,-190.91796875,-44.43359375,775.87890625,0.0
1734500762.292152,-39.55078125,-188.4765625,-41.015625,-604.98046875,0.0
1734500762.2960567,-49.8046875,-199.21875,-42.96875,-164.0625,0.0
1734500762.2999616,-64.453125,-208.49609375,-40.52734375,962.40234375,0.0
1734500762.3038664,-74.70703125,-205.56640625,-33.203125,998.046875,0.0
1734500762.3078103,-94.7265625,-190.91796875,-38.57421875,399.4140625,0.0
1734500762.3117151,-122.55859375,-191.40625,-43.45703125,-872.55859375,0.0
1734500762.3156197,-147.4609375,-198.2421875,-39.0625,-789.55078125,0.0
1734500762.3195245,-156.25,-190.91796875,-34.1796875,383.30078125,0.0
1734500762.3234293,-165.0390625,-182.6171875,-32.71484375,981.93359375,0.0
1734500762.3273342,-185.546875,-190.4296875,-29.78515625,378.41796875,0.0
1734500762.331239,-219.23828125,-191.89453125,-36.62109375,-900.87890625,0.0
1734500762.3351436,-235.3515625,-188.4765625,-47.36328125,-690.91796875,0.0
1734500762.3390484,-226.5625,-188.96484375,-44.921875,652.34375,0.0
1734500762.3429532,-231.4453125,-194.3359375,-41.015625,-946.2890625,0.0
1734500762.346858,-256.8359375,-204.1015625,-37.59765625,880.859375,0.0
1734500762.3507628,-278.3203125,-201.171875,-38.57421875,-494.62890625,0.0
1734500762.3547065,-267.578125,-204.58984375,-40.0390625,-919.43359375,0.0
1734500762.3586113,-271.484375,-214.35546875,-39.0625,610.3515625,0.0
1734500762.3625162,-268.5546875,-224.12109375,-40.0390625,-945.80078125,0.0
1734500762.3664207,-249.0234375,-233.88671875,-28.3203125,945.80078125,0.0
1734500762.3703256,-280.76171875,-238.76953125,-29.78515625,385.7421875,0.0
1734500762.3742304,-296.38671875,-219.7265625,-38.57421875,234.375,0.0
1734500762.3781352,-289.0625,-208.0078125,-40.0390625,942.87109375,0.0
1734500762.38204,-288.0859375,-216.30859375,-41.015625,982.421875,0.0
1734500762.3859448,-275.390625,-226.07421875,-41.015625,960.9375,0.0
1734500762.3898494,-280.76171875,-234.86328125,-39.55078125,930.17578125,0.0
1734500762.3937542,-298.828125,-235.83984375,-36.1328125,861.81640625,0.0
1734500762.397659,-292.96875,-244.140625,-32.71484375,969.23828125,0.0
1734500762.4015996,-266.11328125,-249.51171875,-32.2265625,960.9375,0.0
1734500762.4055045,-262.20703125,-257.8125,-34.1796875,988.76953125,0.0
1734500762.4094093,-268.5546875,-266.11328125,-36.62109375,913.57421875,0.0
1734500762.413314,-254.39453125,-267.08984375,-41.015625,745.60546875,0.0
1734500762.4172187,-223.6328125,-262.6953125,-47.8515625,923.33984375,0.0
1734500762.4211235,-181.640625,-268.06640625,-41.015625,991.2109375,0.0
1734500762.4250283,-147.94921875,-275.390625,-36.1328125,955.56640625,0.0
1734500762.4289331,-159.1796875,-264.16015625,-38.57421875,970.703125,0.0
1734500762.432838,-136.71875,-266.6015625,-29.78515625,968.26171875,0.0
1734500762.4367428,-87.890625,-265.13671875,-36.62109375,968.75,0.0
1734500762.4406474,-63.96484375,-257.8125,-49.31640625,968.75,0.0
1734500762.4445522,-29.78515625,-260.25390625,-44.921875,968.75,0.0
1734500762.4484901,11.71875,-262.6953125,-41.015625,968.75,0.0
1734500762.452395,34.1796875,-256.8359375,-43.9453125,968.26171875,0.0
1734500762.4562998,52.24609375,-251.953125,-43.45703125,973.14453125,0.0
1734500762.4602044,77.63671875,-251.953125,-41.9921875,949.70703125,0.0
1734500762.4641092,68.359375,-248.046875,-44.921875,984.375,0.0
1734500762.468014,70.80078125,-248.53515625,-44.43359375,965.8203125,0.0
1734500762.4719188,80.56640625,-246.09375,-36.62109375,427.24609375,0.0
1734500762.4758236,59.5703125,-241.69921875,-36.62109375,576.171875,0.0
1734500762.4797285,37.59765625,-235.3515625,-43.45703125,958.49609375,0.0
1734500762.483633,1.953125,-231.4453125,-44.921875,-995.1171875,0.0
1734500762.4875379,-8.7890625,-238.28125,-42.96875,824.70703125,0.0
1734500762.4914427,-27.83203125,-234.86328125,-43.45703125,-656.25,0.0
1734500762.4953794,0.0,-229.00390625,-53.22265625,-987.3046875,0.0
1734500762.499284,0.0,-234.86328125,-54.6875,430.6640625,0.0
1734500762.5031888,0.0,-235.3515625,-51.7578125,876.46484375,0.0
1734500762.5070937,0.0,-223.14453125,-46.875,-148.4375,0.0
1734500762.5109985,0.0,-214.35546875,-39.55078125,-943.84765625,0.0
1734500762.5149033,0.0,-210.44921875,-41.50390625,-1000.0,0.0
1734500762.5188081,0.0,-202.63671875,-42.96875,-595.21484375,0.0
1734500762.5227127,0.0,-201.66015625,-33.69140625,255.37109375,0.0
1734500762.5266175,0.0,-193.84765625,-32.71484375,89.35546875,0.0
1734500762.5305223,0.0,-183.10546875,-39.0625,-835.44921875,0.0
1734500762.5344272,0.0,-179.6875,-47.8515625,-1000.0,0.0
1734500762.538332,0.0,-178.22265625,-56.15234375,-967.28515625,0.0
1734500762.5422645,-81.0546875,-173.828125,-43.45703125,-201.66015625,0.0
1734500762.5461693,-86.9140625,-173.33984375,-38.0859375,149.90234375,0.0
1734500762.550074,-88.8671875,-172.36328125,-40.0390625,-757.8125,0.0
1734500762.553979,-80.078125,-162.109375,-34.1796875,-1000.0,0.0
1734500762.5578837,-59.08203125,-157.2265625,-34.66796875,-653.80859375,0.0
1734500762.5617886,-49.31640625,-150.87890625,-42.96875,516.11328125,0.0
1734500762.5656931,-38.0859375,-145.01953125,-45.41015625,598.6328125,0.0
1734500762.569598,-23.4375,-139.16015625,-41.015625,-575.1953125,0.0
1734500762.5735028,-18.5546875,-129.39453125,-40.52734375,-1000.0,0.0
1734500762.5774076,-11.71875,-123.046875,-37.59765625,-275.390625,0.0
1734500762.5813124,-20.5078125,-123.53515625,-34.66796875,867.1875,0.0
1734500762.5852172,-15.13671875,-126.953125,-28.80859375,-992.67578125,0.0
1734500762.5891488,19.53125,-111.81640625,-22.4609375,-166.50390625,0.0
1734500762.5930536,20.5078125,-101.5625,-24.4140625,-1000.0,0.0
1734500762.5969582,10.25390625,-106.93359375,-20.01953125,-50.78125,0.0
1734500762.600863,15.625,-106.4453125,-20.01953125,902.34375,0.0
1734500762.6047678,11.71875,-115.72265625,-25.390625,-971.19140625,0.0
1734500762.6086726,0.9765625,-116.2109375,-22.94921875,791.015625,0.0
1734500762.6125774,2.44140625,-100.09765625,-19.04296875,167.48046875,0.0
1734500762.6164823,-14.6484375,-87.890625,-29.296875,693.359375,0.0
1734500762.6203868,-47.36328125,-86.9140625,-40.0390625,-937.98828125,0.0
1734500762.6242917,-31.25,-94.23828125,-35.15625,924.31640625,0.0
1734500762.6281965,-12.20703125,-96.6796875,-35.15625,975.09765625,0.0
1734500762.6321013,-6.8359375,-103.02734375,-38.57421875,968.26171875,0.0
1734500762.6360292,-1.46484375,-109.86328125,-32.2265625,968.26171875,0.0
1734500762.639934,3.90625,-111.81640625,-26.3671875,968.26171875,0.0
1734500762.643839,25.87890625,-116.2109375,-27.34375,968.26171875,0.0
1734500762.6477437,70.80078125,-111.328125,-29.78515625,968.75,0.0
1734500762.6516485,86.42578125,-111.81640625,-25.87890625,968.75,0.0
1734500762.6555533,89.84375,-121.58203125,-25.390625,968.75,0.0
1734500762.659458,83.49609375,-113.28125,-31.73828125,968.75,0.0
1734500762.6633627,79.58984375,-104.4921875,-34.1796875,968.75,0.0
1734500762.6672676,105.95703125,-104.98046875,-32.2265625,968.75,0.0
1734500762.6711724,125.9765625,-107.91015625,-31.73828125,968.26171875,0.0
1734500762.6750772,130.859375,-113.76953125,-34.1796875,968.26171875,0.0
1734500762.678982,112.79296875,-118.65234375,-35.15625,968.75,0.0
1734500762.6829276,0.0,-127.9296875,-39.55078125,968.75,0.0
1734500762.6868324,0.0,-143.5546875,-34.1796875,968.26171875,0.0
1734500762.690737,0.0,-151.3671875,-24.90234375,968.75,0.0
1734500762.6946418,0.0,-150.390625,-29.78515625,968.75,0.0
1734500762.6985466,0.0,-150.87890625,-36.1328125,968.75,0.0
1734500762.7024515,0.0,-153.3203125,-33.69140625,968.26171875,0.0
1734500762.7063563,0.0,-157.71484375,-34.1796875,968.75,0.0
1734500762.710261,0.0,-160.15625,-39.0625,968.75,0.0
1734500762.714166,0.0,-166.9921875,-39.0625,968.75,0.0
1734500762.7180705,0.0,-173.33984375,-33.69140625,975.09765625,0.0
1734500762.7219753,0.0,-167.96875,-36.62109375,935.05859375,0.0
1734500762.7258801,0.0,-178.22265625,-36.1328125,-978.02734375,0.0
1734500762.7298229,-4.39453125,-190.4296875,0.0,863.76953125,0.0
1734500762.7337277,-21.484375,-194.82421875,0.0,287.109375,0.0
1734500762.7376325,-38.57421875,-202.63671875,0.0,681.15234375,0.0
1734500762.7415373,-32.2265625,-201.171875,0.0,-925.78125,0.0
1734500762.7454422,-18.06640625,-189.94140625,0.0,845.703125,0.0
1734500762.7493467,-34.1796875,-187.98828125,0.0,-344.7265625,0.0
1734500762.7532516,-56.640625,-193.359375,0.0,-1000.0,0.0
1734500762.7571564,-67.3828125,-200.68359375,0.0,-909.1796875,0.0
1734500762.7610612,-71.2890625,-211.42578125,0.0,-471.19140625,0.0
1734500762.764966,-65.4296875,-215.33203125,0.0,-207.03125,0.0
1734500762.7688708,-49.8046875,-209.9609375,0.0,-619.140625,0.0
1734500762.7727754,-60.05859375,-210.44921875,0.0,-1000.0,0.0
1734500762.7767172,-60.05859375,-225.09765625,-37.59765625,-148.4375,0.0
1734500762.780622,-47.36328125,-226.5625,-37.59765625,854.4921875,0.0
1734500762.7845268,-41.50390625,-212.40234375,-45.8984375,-951.171875,0.0
1734500762.7884316,-40.52734375,-210.44921875,-40.52734375,571.2890625,0.0
1734500762.7923365,-44.43359375,-214.84375,-38.0859375,-824.21875,0.0
1734500762.796241,-44.43359375,-211.42578125,-38.57421875,-505.37109375,0.0
1734500762.8001459,-44.43359375,-208.0078125,-28.80859375,785.15625,0.0
1734500762.8040507,-21.97265625,-210.9375,-28.3203125,-936.03515625,0.0
1734500762.8079555,-9.27734375,-209.47265625,-30.2734375,828.61328125,0.0
1734500762.8118603,-8.7890625,-203.61328125,-39.55078125,-412.59765625,0.0
1734500762.8157651,0.0,-205.078125,-43.45703125,-55.17578125,0.0
1734500762.8196697,2.44140625,-208.49609375,-40.0390625,993.1640625,0.0
1734500762.8236077,12.20703125,-209.9609375,-39.55078125,979.98046875,0.0
1734500762.8275125,25.390625,-205.56640625,-37.109375,925.78125,0.0
1734500762.8314173,27.83203125,-205.078125,-31.25,273.92578125,0.0
1734500762.8353221,22.4609375,-203.125,-29.78515625,536.1328125,0.0
1734500762.839227,40.0390625,-192.3828125,-32.71484375,-964.84375,0.0
1734500762.8431315,62.5,-183.10546875,-27.83203125,957.03125,0.0
1734500762.8470364,50.29296875,-172.8515625,-28.80859375,950.68359375,0.0
1734500762.8509412,47.8515625,-171.38671875,-26.85546875,694.82421875,0.0
1734500762.854846,49.8046875,-188.4765625,-18.06640625,854.98046875,0.0
1734500762.8587508,56.15234375,-187.01171875,-21.484375,-990.72265625,0.0
1734500762.8626556,75.1953125,-173.828125,-22.4609375,950.1953125,0.0
1734500762.8665605,80.56640625,-167.96875,-20.99609375,972.16796875,0.0
1734500762.8704963,0.0,-159.1796875,-29.296875,968.75,0.0
1734500762.874401,0.0,-152.83203125,-34.66796875,968.26171875,0.0
1734500762.878306,0.0,-154.78515625,-30.2734375,968.26171875,0.0
1734500762.8822105,0.0,-156.25,-29.296875,968.26171875,0.0
1734500762.8861153,0.0,-151.3671875,-30.2734375,968.75,0.0
1734500762.8900201,0.0,-149.90234375,-34.66796875,968.26171875,0.0
1734500762.893925,0.0,-156.73828125,-37.109375,968.75,0.0
1734500762.8978298,0.0,-165.0390625,-26.85546875,970.21484375,0.0
1734500762.9017346,0.0,-155.76171875,-22.94921875,961.42578125,0.0
1734500762.9056392,0.0,-141.6015625,-30.2734375,980.95703125,0.0
1734500762.909544,0.0,-137.6953125,-38.0859375,946.77734375,0.0
1734500762.9134488,0.0,-132.32421875,-37.59765625,858.3984375,0.0
1734500762.917327,78.125,-130.859375,0.0,947.75390625,0.0
1734500762.9212317,50.29296875,-136.23046875,0.0,929.6875,0.0
1734500762.9251363,48.828125,-146.97265625,0.0,-960.9375,0.0
1734500762.9290411,50.29296875,-146.97265625,0.0,462.890625,0.0
1734500762.932946,38.0859375,-131.8359375,0.0,-885.7421875,0.0
1734500762.9368508,23.4375,-130.859375,0.0,-527.34375,0.0
1734500762.9407556,14.6484375,-139.6484375,0.0,640.625,0.0
1734500762.9446604,18.5546875,-141.11328125,0.0,312.01171875,0.0
1734500762.948565,19.53125,-136.23046875,0.0,-777.83203125,0.0
1734500762.9524698,16.11328125,-131.34765625,0.0,-1000.0,0.0
1734500762.9563746,10.7421875,-139.16015625,0.0,-961.42578125,0.0
1734500762.9602795,17.578125,-147.94921875,0.0,-1000.0,0.0
1734500762.96421,56.640625,-143.5546875,-35.64453125,-1000.0,0.0
1734500762.9681149,39.55078125,-137.20703125,-36.1328125,-1000.0,0.0
1734500762.9720197,16.11328125,-136.23046875,-32.2265625,-1000.0,0.0
1734500762.9759245,-0.9765625,-134.27734375,-27.34375,-1000.0,0.0
1734500762.9798293,-6.34765625,-140.625,-29.78515625,-1000.0,0.0
1734500762.9837341,-26.3671875,-148.92578125,-35.15625,-1000.0,0.0
1734500762.987639,-42.48046875,-149.4140625,-37.59765625,-1000.0,0.0
1734500762.9915435,-45.41015625,-138.671875,-43.45703125,-1000.0,0.0
1734500762.9954484,-58.59375,-128.41796875,-41.50390625,-1000.0,0.0
1734500762.9993532,-61.03515625,-131.34765625,-36.1328125,-1000.0,0.0
1734500763.003258,-46.875,-143.06640625,-38.0859375,-1000.0,0.0
1734500763.0071628,-33.203125,-142.578125,-41.50390625,-1000.0,0.0
1734500763.0110903,-20.99609375,-130.859375,-37.59765625,-1000.0,0.0
1734500763.014995,-22.94921875,-134.27734375,-34.1796875,-1000.0,0.0
1734500763.0189,-26.3671875,-141.11328125,-37.109375,-1000.0,0.0
1734500763.0228047,-13.671875,-137.20703125,-37.59765625,-1000.0,0.0
1734500763.0267096,10.7421875,-135.25390625,-42.96875,-1000.0,0.0
1734500763.0306144,7.8125,-143.5546875,-48.33984375,-1000.0,0.0
1734500763.034519,-2.44140625,-145.5078125,-43.45703125,-1000.0,0.0
1734500763.0384238,6.34765625,-135.7421875,-44.921875,-1000.0,0.0
1734500763.0423286,18.5546875,-132.8125,-44.921875,-1000.0,0.0
1734500763.0462334,26.85546875,-143.5546875,-44.921875,-1000.0,0.0
1734500763.0501382,17.08984375,-144.04296875,-50.29296875,-1000.0,0.0
1734500763.054043,6.8359375,-145.99609375,-43.45703125,-1000.0,0.0
1734500763.0579886,0.0,-172.8515625,0.0,-1000.0,0.0
1734500763.0618935,0.0,-168.45703125,0.0,-1000.0,0.0
1734500763.065798,0.0,-136.23046875,0.0,-1000.0,0.0
1734500763.0697029,0.0,-138.671875,0.0,-1000.0,0.0
1734500763.0736077,0.0,-159.66796875,0.0,-1000.0,0.0
1734500763.0775125,0.0,-149.90234375,0.0,-1000.0,0.0
1734500763.0814173,0.0,-127.9296875,0.0,-1000.0,0.0
1734500763.0853221,0.0,-113.76953125,0.0,-1000.0,0.0
1734500763.089227,0.0,-113.28125,0.0,-1000.0,0.0
1734500763.0931315,0.0,-128.90625,0.0,-1000.0,0.0
1734500763.0970364,0.0,-129.39453125,0.0,-1000.0,0.0
1734500763.1009412,0.0,-129.8828125,0.0,-1000.0,0.0
1734500763.104885,-92.7734375,-135.25390625,-50.29296875,-1000.0,0.0
1734500763.10879,-88.37890625,-136.23046875,-43.45703125,-1000.0,0.0
1734500763.1126945,-99.12109375,-136.71875,-45.41015625,-1000.0,0.0
1734500763.1165993,-109.375,-135.25390625,-42.96875,-1000.0,0.0
1734500763.1205041,-106.4453125,-145.01953125,-39.0625,-1000.0,0.0
1734500763.124409,-88.8671875,-155.2734375,-44.921875,-1000.0,0.0
1734500763.1283138,-73.2421875,-178.22265625,-52.734375,-1000.0,0.0
1734500763.1322186,-85.44921875,-187.98828125,-44.43359375,-1000.0,0.0
1734500763.1361234,-90.8203125,-142.578125,-37.109375,-1000.0,0.0
1734500763.1400282,-68.359375,-97.65625,-36.62109375,-1000.0,0.0
1734500763.1439328,-63.4765625,-84.9609375,-36.62109375,-1000.0,0.0
1734500763.1478376,-65.91796875,-95.703125,-34.1796875,-999.0234375,0.0
1734500763.1517777,-69.82421875,-114.2578125,-29.78515625,-1000.0,0.0
1734500763.1556826,-69.82421875,-130.859375,-36.1328125,-1000.0,0.0
1734500763.1595874,-63.96484375,-131.34765625,-40.0390625,-960.44921875,0.0
1734500763.1634922,-79.1015625,-137.20703125,-41.50390625,-976.5625,0.0
1734500763.167397,-75.1953125,-151.3671875,-40.52734375,-1000.0,0.0
1734500763.1713018,-53.22265625,-153.3203125,-29.78515625,-998.53515625,0.0
1734500763.1752064,-53.7109375,-151.3671875,-24.90234375,-1000.0,0.0
1734500763.1791112,-54.6875,-147.94921875,-34.66796875,-1000.0,0.0
1734500763.183016,-60.546875,-152.83203125,-41.9921875,-1000.0,0.0
1734500763.186921,-80.56640625,-155.76171875,-44.921875,-1000.0,0.0
1734500763.1908257,-75.1953125,-159.66796875,-44.43359375,-1000.0,0.0
1734500763.1947305,-66.89453125,-161.62109375,-35.64453125,-1000.0,0.0
1734500763.1986694,-53.22265625,-161.1328125,-37.59765625,-1000.0,0.0
1734500763.202574,-41.9921875,-172.8515625,-47.8515625,-1000.0,0.0
1734500763.2064788,-51.26953125,-184.08203125,-37.109375,-1000.0,0.0
1734500763.2103837,-70.3125,-180.17578125,-29.78515625,-1000.0,0.0
1734500763.2142885,-90.8203125,-171.38671875,-29.296875,-1000.0,0.0
1734500763.2181933,-91.796875,-166.015625,-29.78515625,-1000.0,0.0
1734500763.222098,-93.75,-167.48046875,-32.2265625,-1000.0,0.0
1734500763.226003,-93.26171875,-186.5234375,-35.64453125,-1000.0,0.0
1734500763.2299078,-82.03125,-183.59375,-36.62109375,-994.140625,0.0
1734500763.2338123,-80.078125,-164.0625,-35.64453125,-1000.0,0.0
1734500763.2377172,-85.44921875,-168.45703125,-33.203125,-988.76953125,0.0
1734500763.241622,-79.58984375,-174.31640625,-34.1796875,-879.8828125,0.0
1734500763.2455595,-32.2265625,-167.96875,-36.62109375,-965.8203125,0.0
1734500763.249464,12.20703125,-170.8984375,-39.0625,-992.1875,0.0
1734500763.2533689,6.34765625,-180.6640625,-37.109375,-1000.0,0.0
1734500763.2572737,-3.41796875,-174.31640625,-30.76171875,-951.66015625,0.0
1734500763.2611785,10.25390625,-164.0625,-29.78515625,-370.1171875,0.0
1734500763.2650833,21.97265625,-164.55078125,-28.3203125,-368.1640625,0.0
1734500763.2689881,18.5546875,-159.1796875,-31.73828125,-857.421875,0.0
1734500763.272893,30.2734375,-170.8984375,-37.109375,-1000.0,0.0
1734500763.2767978,41.9921875,-182.12890625,-39.0625,-818.84765625,0.0
1734500763.2807024,29.78515625,-178.7109375,-42.96875,222.65625,0.0
1734500763.2846072,24.90234375,-166.9921875,-49.31640625,665.0390625,0.0
1734500763.288512,27.34375,-148.92578125,-51.26953125,-82.51953125,0.0
1734500763.2924461,20.5078125,-143.5546875,-56.640625,-958.984375,0.0
1734500763.296351,18.5546875,-147.4609375,-59.08203125,-176.26953125,0.0
1734500763.3002558,25.390625,-148.92578125,-51.7578125,888.18359375,0.0
1734500763.3041604,38.0859375,-150.87890625,-40.52734375,-979.98046875,0.0
1734500763.3080652,28.3203125,-156.73828125,-42.96875,864.2578125,0.0
1734500763.31197,13.18359375,-154.78515625,-48.828125,-17.08984375,0.0
1734500763.3158748,16.11328125,-148.4375,-45.8984375,350.5859375,0.0
1734500763.3197796,38.57421875,-142.578125,-49.8046875,-967.28515625,0.0
1734500763.3236845,49.31640625,-143.06640625,-55.6640625,962.40234375,0.0
1734500763.3275893,55.17578125,-149.90234375,-52.734375,939.453125,0.0
1734500763.331494,60.546875,-145.5078125,-48.828125,542.96875,0.0
1734500763.3353987,42.96875,-142.578125,-45.41015625,768.5546875,0.0
1734500763.3393295,0.0,-150.87890625,-51.7578125,-982.421875,0.0
1734500763.3432343,0.0,-156.73828125,-56.15234375,944.3359375,0.0
1734500763.3471391,0.0,-162.59765625,-47.8515625,994.62890625,0.0
1734500763.351044,0.0,-165.0390625,-54.19921875,487.79296875,0.0
1734500763.3549488,0.0,-159.1796875,-53.22265625,490.234375,0.0
1734500763.3588536,0.0,-153.80859375,-42.96875,957.51953125,0.0
1734500763.3627584,0.0,-146.484375,-51.26953125,959.9609375,0.0
1734500763.3666632,0.0,-137.20703125,-62.01171875,-998.53515625,0.0
1734500763.3705678,0.0,-128.41796875,-62.01171875,-56.15234375,0.0
1734500763.3744726,0.0,-130.37109375,-46.875,-663.57421875,0.0
1734500763.3783774,0.0,-151.85546875,-41.50390625,517.578125,0.0
1734500763.3822823,0.0,-154.296875,-53.22265625,-933.10546875,0.0
1734500763.3862102,-103.515625,-149.90234375,-52.734375,873.046875,0.0
1734500763.3901148,-92.7734375,-166.015625,-41.015625,-328.125,0.0
1734500763.3940196,-97.16796875,-171.875,-38.0859375,-1000.0,0.0
1734500763.3979244,-114.74609375,-158.203125,-51.7578125,-88.8671875,0.0
1734500763.4018292,-111.328125,-141.6015625,-54.19921875,942.87109375,0.0
1734500763.405734,-104.98046875,-126.46484375,-45.8984375,750.9765625,0.0
1734500763.409639,-104.4921875,-128.90625,-56.640625,-465.33203125,0.0
1734500763.4135437,-103.515625,-132.8125,-63.96484375,-1000.0,0.0
1734500763.4174485,-110.3515625,-133.30078125,-51.26953125,-392.08984375,0.0
1734500763.421353,-91.796875,-136.71875,-51.7578125,729.00390625,0.0
1734500763.425258,-76.66015625,-135.25390625,-59.5703125,641.6015625,0.0
1734500763.4291627,-88.37890625,-135.7421875,-61.03515625,-476.5625,0.0
1734500763.4331093,0.0,-142.578125,0.0,-1000.0,0.0
1734500763.4370139,0.0,-153.3203125,0.0,-626.953125,0.0
1734500763.4409187,0.0,-157.2265625,0.0,472.65625,0.0
1734500763.4448235,0.0,-157.71484375,0.0,624.0234375,0.0
1734500763.4487283,0.0,-159.66796875,0.0,-367.67578125,0.0
1734500763.4526331,0.0,-170.8984375,0.0,-1000.0,0.0
1734500763.456538,0.0,-173.33984375,0.0,-804.6875,0.0
1734500763.4604428,0.0,-162.59765625,0.0,248.53515625,0.0
1734500763.4643476,0.0,-164.55078125,0.0,441.40625,0.0
1734500763.4682524,0.0,-168.9453125,0.0,-471.19140625,0.0
1734500763.472157,0.0,-164.0625,0.0,-1000.0,0.0
1734500763.4760618,0.0,-160.64453125,0.0,-966.30859375,0.0
1734500763.4799497,-78.61328125,-158.69140625,-65.4296875,-228.02734375,0.0
1734500763.4838545,-69.82421875,-152.83203125,-67.3828125,37.59765625,0.0
1734500763.4877594,-56.640625,-151.3671875,-66.40625,-641.6015625,0.0
1734500763.4916642,-47.36328125,-157.2265625,-64.453125,-1000.0,0.0
1734500763.495569,-30.2734375,-157.2265625,-63.4765625,-989.74609375,0.0
1734500763.4994738,-2.9296875,-158.203125,-63.96484375,-344.7265625,0.0
1734500763.5033786,-0.48828125,-153.80859375,-67.87109375,125.0,0.0
1734500763.5072832,-18.5546875,-151.3671875,-70.3125,-392.578125,0.0
1734500763.511188,-23.4375,-155.2734375,-66.89453125,-968.75,0.0
1734500763.5150928,-14.6484375,-145.01953125,-63.4765625,-1000.0,0.0
1734500763.5189977,-30.76171875,-140.13671875,-63.96484375,-184.08203125,0.0
1734500763.5229025,-36.62109375,-149.90234375,-66.89453125,553.22265625,0.0
1734500763.5267885,-32.71484375,-137.6953125,-57.6171875,196.77734375,0.0
1734500763.5306933,-50.29296875,-125.0,-62.5,-824.21875,0.0
1734500763.5345979,-41.9921875,-123.046875,-68.359375,-1000.0,0.0
1734500763.5385027,-27.34375,-120.60546875,-69.3359375,202.63671875,0.0
1734500763.5424075,-33.203125,-125.48828125,-68.359375,-975.5859375,0.0
1734500763.5463123,-24.90234375,-125.0,-74.70703125,891.6015625,0.0
1734500763.5502172,-32.71484375,-116.2109375,-76.66015625,-384.765625,0.0
1734500763.554122,-23.4375,-124.0234375,-72.265625,-977.5390625,0.0
1734500763.5580268,-1.46484375,-125.9765625,-69.82421875,369.62890625,0.0
1734500763.5619316,-16.6015625,-104.4921875,-75.68359375,-974.12109375,0.0
1734500763.5658362,-22.4609375,-100.09765625,-77.63671875,987.3046875,0.0
1734500763.569741,-15.625,-108.88671875,-76.171875,-65.4296875,0.0
1734500763.5736802,-19.04296875,-111.328125,-81.54296875,-803.22265625,0.0
1734500763.577585,-24.90234375,-110.83984375,-87.40234375,531.73828125,0.0
1734500763.5814898,-29.78515625,-111.81640625,-90.8203125,-964.35546875,0.0
1734500763.5853946,-33.69140625,-114.74609375,-84.9609375,979.98046875,0.0
1734500763.5892994,-37.109375,-120.60546875,-81.54296875,262.20703125,0.0
1734500763.593204,-46.38671875,-122.55859375,-83.49609375,-686.5234375,0.0
1734500763.5971088,-41.015625,-108.3984375,-77.1484375,369.140625,0.0
1734500763.6010137,-32.2265625,-109.375,-80.078125,-975.5859375,0.0
1734500763.6049185,-28.3203125,-116.69921875,-84.47265625,-999.0234375,0.0
1734500763.6088233,-36.1328125,-106.4453125,-84.9609375,588.37890625,0.0
1734500763.612728,-37.59765625,-101.07421875,-81.0546875,-387.6953125,0.0
1734500763.616633,-8.7890625,-116.69921875,-72.265625,331.54296875,0.0
1734500763.62057,0.0,-140.13671875,-72.265625,989.74609375,0.0
1734500763.6244748,0.0,-122.0703125,-86.9140625,-993.1640625,0.0
1734500763.6283796,0.0,-87.40234375,-102.05078125,722.16796875,0.0
1734500763.6322844,0.0,-77.63671875,-96.19140625,-450.68359375,0.0
1734500763.636189,0.0,-66.40625,-85.9375,6.8359375,0.0
1734500763.6400938,0.0,-52.24609375,-80.56640625,920.8984375,0.0
1734500763.6439986,0.0,-51.26953125,-78.61328125,-979.00390625,0.0
1734500763.6479034,0.0,-64.453125,-77.63671875,780.2734375,0.0
1734500763.6518083,0.0,-65.4296875,-79.1015625,-651.3671875,0.0
1734500763.655713,0.0,-59.5703125,-85.9375,-519.04296875,0.0
1734500763.659618,0.0,-64.94140625,-91.30859375,784.1796875,0.0
1734500763.6635227,0.0,-68.84765625,-85.44921875,-943.359375,0.0
1734500763.6674576,27.83203125,-68.84765625,-84.9609375,785.15625,0.0
1734500763.6713624,22.94921875,-71.2890625,-83.0078125,-631.34765625,0.0
1734500763.6752672,29.78515625,-67.87109375,-79.58984375,-624.0234375,0.0
1734500763.679172,43.9453125,-59.08203125,-87.890625,755.37109375,0.0
1734500763.6830769,64.453125,-61.5234375,-94.7265625,-959.47265625,0.0
1734500763.6869817,53.22265625,-73.2421875,-98.6328125,897.94921875,0.0
1734500763.6908865,12.20703125,-79.1015625,-101.5625,-442.87109375,0.0
1734500763.694791,8.30078125,-75.1953125,-100.5859375,-764.6484375,0.0
1734500763.698696,11.71875,-65.4296875,-102.5390625,659.1796875,0.0
1734500763.7026007,22.4609375,-73.2421875,-109.375,-959.9609375,0.0
1734500763.7065055,27.83203125,-86.42578125,-111.81640625,944.3359375,0.0
1734500763.7104104,26.3671875,-75.1953125,-111.81640625,-174.8046875,0.0
1734500763.714341,21.97265625,-74.21875,-117.67578125,-743.1640625,0.0
1734500763.7182457,24.4140625,-74.21875,-122.0703125,525.87890625,0.0
1734500763.7221506,36.1328125,-64.94140625,-123.046875,-942.3828125,0.0
1734500763.7260554,26.3671875,-70.3125,-119.140625,907.71484375,0.0
1734500763.72996,11.71875,-70.3125,-115.234375,-286.1328125,0.0
1734500763.7338648,10.7421875,-55.17578125,-122.0703125,-1000.0,0.0
1734500763.7377696,-10.25390625,-57.6171875,-125.9765625,61.03515625,0.0
1734500763.7416744,-38.57421875,-77.1484375,-125.48828125,970.703125,0.0
