timestamps,TP9,AF7,AF8,TP10,Right AUX
1734503931.4601378,-34.66796875,-30.76171875,-36.1328125,-45.8984375,0.0
1734503931.464043,-40.0390625,-37.59765625,-41.015625,-25.87890625,0.0
1734503931.4679482,-38.0859375,-46.875,-24.4140625,-21.97265625,0.0
1734503931.4718533,-34.66796875,-44.43359375,-4.39453125,-42.96875,0.0
1734503931.4757583,-35.64453125,-17.08984375,-6.34765625,-51.26953125,0.0
1734503931.4796634,-35.64453125,-13.18359375,-30.2734375,-43.45703125,0.0
1734503931.4835684,-29.296875,-48.828125,-53.7109375,-35.64453125,0.0
1734503931.4874735,-38.57421875,-56.15234375,-46.875,-41.015625,0.0
1734503931.4913785,-42.96875,-35.15625,-43.45703125,-45.8984375,0.0
1734503931.4952838,-36.1328125,-20.5078125,-57.12890625,-43.9453125,0.0
1734503931.499189,-28.3203125,-3.41796875,-62.5,-40.0390625,0.0
1734503931.5030885,-21.484375,-9.765625,-48.828125,-42.48046875,0.0
1734503931.5069935,-9.27734375,-33.69140625,6.8359375,-36.1328125,0.0
1734503931.5108988,-8.30078125,-38.0859375,20.5078125,-33.69140625,0.0
1734503931.514804,-40.52734375,-38.0859375,-18.5546875,-44.921875,0.0
1734503931.518709,-40.52734375,-38.0859375,-24.90234375,-40.0390625,0.0
1734503931.522614,-19.53125,-36.62109375,-21.97265625,-26.85546875,0.0
1734503931.526519,-25.390625,-36.62109375,-46.875,-14.6484375,0.0
1734503931.530424,-17.578125,-25.390625,-54.6875,-4.8828125,0.0
1734503931.5343294,-13.18359375,-10.25390625,-41.015625,-14.16015625,0.0
1734503931.5382345,-35.15625,-34.1796875,-32.2265625,-42.48046875,0.0
1734503931.5421395,-41.50390625,-56.640625,-41.50390625,-44.921875,0.0
1734503931.5460446,-28.80859375,-45.41015625,-32.2265625,-27.83203125,0.0
1734503931.549895,-18.5546875,-14.6484375,-23.92578125,-26.3671875,0.0
1734503931.5538,-20.01953125,-14.16015625,-17.08984375,-26.3671875,0.0
1734503931.5577052,-30.76171875,-38.0859375,-7.32421875,-42.96875,0.0
1734503931.5616105,-42.96875,-41.9921875,-42.48046875,-59.08203125,0.0
1734503931.5655155,-45.41015625,-54.6875,-48.828125,-61.5234375,0.0
1734503931.5694206,-36.62109375,-56.640625,-7.32421875,-68.84765625,0.0
1734503931.5733256,-33.203125,-22.4609375,9.765625,-45.41015625,0.0
1734503931.5772307,-34.66796875,-1.46484375,-0.48828125,-41.9921875,0.0
1734503931.5811357,-44.43359375,-18.06640625,-19.53125,-68.84765625,0.0
1734503931.5850408,-32.71484375,-45.41015625,-31.73828125,-66.40625,0.0
1734503931.588946,-17.08984375,-41.9921875,-24.90234375,-50.29296875,0.0
1734503931.5928512,-20.5078125,-41.9921875,-62.01171875,-26.3671875,0.0
1734503931.5969281,-3.90625,-57.12890625,-83.49609375,-19.53125,0.0
1734503931.6008332,-11.23046875,-47.8515625,-14.16015625,-43.9453125,0.0
1734503931.6047385,-37.59765625,-44.43359375,-18.5546875,-62.98828125,0.0
1734503931.6086435,-33.203125,-10.25390625,-40.52734375,-62.01171875,0.0
1734503931.6125486,-38.57421875,20.99609375,-31.73828125,-49.8046875,0.0
1734503931.6164536,-48.828125,3.90625,-34.66796875,-53.22265625,0.0
1734503931.6203587,-53.22265625,-30.2734375,-43.9453125,-67.3828125,0.0
1734503931.6242638,-45.8984375,-40.52734375,-22.94921875,-68.359375,0.0
1734503931.628169,-41.9921875,-36.62109375,-13.18359375,-73.2421875,0.0
1734503931.632074,-40.52734375,-37.59765625,-34.66796875,-63.4765625,0.0
1734503931.6359792,-45.8984375,-37.59765625,-46.38671875,-60.546875,0.0
1734503931.6398842,-48.33984375,-48.828125,-55.17578125,-61.5234375,0.0
1734503931.6439264,-45.8984375,-42.48046875,-49.31640625,-50.78125,0.0
1734503931.6478314,-29.78515625,-24.4140625,-41.50390625,-36.62109375,0.0
1734503931.6517365,-20.99609375,-30.2734375,-22.94921875,-49.31640625,0.0
1734503931.6556418,-38.57421875,-41.015625,-22.4609375,-62.01171875,0.0
1734503931.6595469,-29.296875,-21.97265625,-42.96875,-56.640625,0.0
1734503931.663452,-21.97265625,-13.671875,-41.015625,-60.05859375,0.0
1734503931.667357,-46.875,-28.80859375,-44.921875,-68.84765625,0.0
1734503931.671262,-37.109375,-31.25,-68.84765625,-60.05859375,0.0
1734503931.675167,-12.20703125,-20.01953125,-48.33984375,-39.0625,0.0
1734503931.6790724,-28.80859375,-18.06640625,-21.97265625,-34.1796875,0.0
1734503931.6829774,-43.45703125,-32.71484375,-36.1328125,-50.29296875,0.0
1734503931.6868825,-44.921875,-69.82421875,-52.734375,-58.59375,0.0
1734503931.6908903,-33.69140625,-42.96875,-54.6875,-55.6640625,0.0
1734503931.6947954,-37.59765625,-29.78515625,-42.96875,-62.5,0.0
1734503931.6987004,-47.8515625,-54.19921875,-17.578125,-55.6640625,0.0
1734503931.7026055,-40.52734375,-41.015625,-20.99609375,-49.31640625,0.0
1734503931.7065105,-54.6875,-38.0859375,-25.390625,-60.05859375,0.0
1734503931.7104158,-39.0625,-41.015625,-24.4140625,-44.43359375,0.0
1734503931.714321,-28.3203125,-35.15625,-34.66796875,-45.41015625,0.0
1734503931.718226,-51.7578125,-36.62109375,-58.10546875,-53.7109375,0.0
1734503931.722131,-58.10546875,-47.8515625,-79.1015625,-39.0625,0.0
1734503931.726036,-56.640625,-53.22265625,-70.3125,-44.43359375,0.0
1734503931.7299411,-41.9921875,-61.5234375,-34.66796875,-35.64453125,0.0
1734503931.7338464,-34.66796875,-43.9453125,-28.80859375,-36.1328125,0.0
1734503931.7378204,-37.109375,-10.7421875,-39.55078125,-53.22265625,0.0
1734503931.7417254,-43.45703125,-16.6015625,-11.71875,-54.19921875,0.0
1734503931.7456305,-38.0859375,-38.57421875,6.34765625,-45.41015625,0.0
1734503931.7495356,-7.8125,-44.43359375,-11.71875,-20.5078125,0.0
1734503931.7534409,-17.578125,-48.828125,-45.41015625,-34.1796875,0.0
1734503931.757346,-38.57421875,-56.640625,-36.62109375,-55.6640625,0.0
1734503931.761251,-23.92578125,-46.38671875,-35.64453125,-42.96875,0.0
1734503931.765156,-27.34375,-13.671875,-102.5390625,-26.3671875,0.0
1734503931.769061,-35.64453125,4.8828125,-69.82421875,-27.83203125,0.0
1734503931.7729661,-45.41015625,-13.671875,-2.9296875,-48.33984375,0.0
1734503931.7768714,-46.875,-43.9453125,-37.59765625,-51.26953125,0.0
1734503931.7807765,-32.71484375,-52.24609375,-54.19921875,-44.43359375,0.0
1734503931.784716,-23.92578125,-42.48046875,-27.34375,-50.78125,0.0
1734503931.788621,-37.109375,-41.9921875,-22.94921875,-58.59375,0.0
1734503931.792526,-46.875,-61.5234375,-30.76171875,-54.6875,0.0
1734503931.796431,-51.7578125,-47.36328125,-40.52734375,-56.15234375,0.0
1734503931.8003361,-47.8515625,-35.15625,-43.45703125,-60.546875,0.0
1734503931.8042412,-38.0859375,-31.25,-48.33984375,-35.15625,0.0
1734503931.8081465,-41.9921875,-30.2734375,-41.9921875,-38.0859375,0.0
1734503931.8120515,-34.1796875,-47.8515625,-36.62109375,-34.1796875,0.0
1734503931.8159566,-35.15625,-55.6640625,-64.453125,-33.69140625,0.0
1734503931.8198617,-39.55078125,-43.9453125,-56.15234375,-53.22265625,0.0
1734503931.8237667,-30.76171875,-39.55078125,-40.0390625,-57.6171875,0.0
1734503931.8276718,-36.1328125,-46.875,-36.1328125,-55.6640625,0.0
1734503931.8315697,-41.015625,-46.875,-46.875,-61.5234375,0.0
1734503931.835475,-24.4140625,-25.87890625,-16.6015625,-46.38671875,0.0
1734503931.83938,-9.765625,-24.90234375,-7.8125,-19.04296875,0.0
1734503931.843285,-22.4609375,-55.17578125,-42.96875,-40.0390625,0.0
1734503931.8471901,-33.203125,-59.08203125,-16.11328125,-38.57421875,0.0
1734503931.8510952,-30.2734375,-35.64453125,-23.4375,-30.2734375,0.0
1734503931.8550003,-13.18359375,-44.43359375,-22.4609375,-32.2265625,0.0
1734503931.8589056,-16.11328125,-56.640625,-36.62109375,-10.25390625,0.0
1734503931.8628106,-34.1796875,-32.2265625,-60.546875,-37.109375,0.0
1734503931.8667157,-44.921875,-46.38671875,-13.671875,-71.77734375,0.0
1734503931.8706207,-54.19921875,-45.8984375,-29.78515625,-76.171875,0.0
1734503931.8745258,-56.640625,-21.484375,-56.15234375,-61.03515625,0.0
1734503931.8786473,-33.203125,-40.0390625,-17.08984375,-32.2265625,0.0
1734503931.8825524,-24.90234375,-63.96484375,-25.390625,-38.0859375,0.0
1734503931.8864574,-31.73828125,-16.11328125,-53.22265625,-42.96875,0.0
1734503931.8903625,-41.9921875,-7.8125,-59.5703125,-38.0859375,0.0
1734503931.8942676,-47.8515625,-48.828125,-54.19921875,-41.015625,0.0
1734503931.8981726,-48.828125,-43.9453125,-35.64453125,-46.875,0.0
1734503931.902078,-49.31640625,-59.08203125,-36.1328125,-45.41015625,0.0
1734503931.905983,-47.8515625,-53.22265625,-25.87890625,-44.43359375,0.0
1734503931.909888,-49.8046875,-28.3203125,-59.5703125,-38.57421875,0.0
1734503931.913793,-32.71484375,-45.8984375,-66.89453125,-32.2265625,0.0
1734503931.9176981,-16.6015625,-58.59375,-16.6015625,-41.50390625,0.0
1734503931.9216032,-29.78515625,-35.64453125,-9.27734375,-46.38671875,0.0
1734503931.9254575,-44.43359375,-20.99609375,-19.53125,-39.0625,0.0
1734503931.9293625,-52.734375,-27.34375,-49.8046875,-44.43359375,0.0
1734503931.9332676,-45.41015625,-38.0859375,-60.05859375,-47.36328125,0.0
1734503931.937173,-38.57421875,-87.40234375,-47.36328125,-40.0390625,0.0
1734503931.941078,-38.57421875,-86.9140625,-44.921875,-45.41015625,0.0
1734503931.944983,-48.828125,-38.0859375,-61.5234375,-65.4296875,0.0
1734503931.948888,-59.08203125,-25.390625,-61.5234375,-63.4765625,0.0
1734503931.9527931,-69.82421875,-22.4609375,-44.43359375,-70.80078125,0.0
1734503931.9566982,-68.359375,-19.53125,-48.828125,-62.5,0.0
1734503931.9606035,-39.55078125,-35.15625,-41.015625,-23.4375,0.0
1734503931.9645085,-29.78515625,-56.640625,-21.484375,-18.5546875,0.0
1734503931.9684136,-41.9921875,-56.15234375,-32.71484375,-40.52734375,0.0
1734503931.9724967,0.0,-38.57421875,-60.546875,-57.12890625,0.0
1734503931.976402,0.0,-51.7578125,-48.828125,-45.8984375,0.0
1734503931.980307,0.0,-43.45703125,-42.48046875,-34.66796875,0.0
1734503931.9842122,0.0,-13.18359375,-45.41015625,-43.45703125,0.0
1734503931.9881172,0.0,-52.734375,-22.94921875,-49.8046875,0.0
1734503931.9920223,0.0,-54.6875,-36.1328125,-48.828125,0.0
1734503931.9959276,0.0,-20.5078125,-64.453125,-49.31640625,0.0
1734503931.9998326,0.0,-27.34375,-57.6171875,-44.921875,0.0
1734503932.0037377,0.0,-48.33984375,-46.38671875,-10.25390625,0.0
1734503932.0076427,0.0,-59.5703125,-37.109375,-14.6484375,0.0
1734503932.0115478,0.0,-40.0390625,-38.57421875,-61.03515625,0.0
1734503932.0154529,0.0,-29.296875,-28.3203125,-64.453125,0.0
1734503932.0194972,-23.92578125,-25.390625,0.0,-41.50390625,0.0
1734503932.0234022,-10.25390625,-27.83203125,0.0,-34.1796875,0.0
1734503932.0273073,1.46484375,-22.4609375,0.0,-32.71484375,0.0
1734503932.0312123,-20.5078125,-39.0625,0.0,-24.4140625,0.0
1734503932.0351174,-27.34375,-81.0546875,0.0,-7.32421875,0.0
1734503932.0390224,-35.15625,-68.359375,0.0,-28.3203125,0.0
1734503932.0429277,-47.8515625,-41.9921875,0.0,-43.45703125,0.0
1734503932.0468328,-5.37109375,-28.3203125,0.0,-25.390625,0.0
1734503932.0507379,16.11328125,-27.34375,0.0,-22.94921875,0.0
1734503932.054643,-26.85546875,-25.87890625,0.0,-31.73828125,0.0
1734503932.058548,-59.08203125,-40.52734375,0.0,-51.26953125,0.0
1734503932.0624533,-53.22265625,-41.015625,0.0,-51.26953125,0.0
1734503932.066463,-39.0625,-29.296875,-46.875,-21.97265625,0.0
1734503932.070368,-32.71484375,-63.4765625,-31.73828125,-23.92578125,0.0
1734503932.074273,-21.484375,-56.15234375,-38.57421875,-47.36328125,0.0
1734503932.0781784,-33.203125,-11.71875,-47.36328125,-41.015625,0.0
1734503932.0820835,-24.4140625,-16.6015625,-40.52734375,-38.0859375,0.0
1734503932.0859885,-23.4375,-33.203125,-21.484375,-32.2265625,0.0
1734503932.0898936,-44.921875,-36.62109375,-42.96875,-40.52734375,0.0
1734503932.0937986,-32.71484375,-64.94140625,-39.55078125,-43.9453125,0.0
1734503932.097704,-21.97265625,-71.77734375,-25.390625,-5.859375,0.0
1734503932.101609,-15.625,-36.62109375,-49.31640625,-5.859375,0.0
1734503932.105514,13.671875,-39.0625,-22.4609375,-38.0859375,0.0
1734503932.109419,-19.04296875,-58.10546875,-4.39453125,-40.52734375,0.0
1734503932.113378,-66.40625,-53.22265625,-14.16015625,-37.109375,0.0
1734503932.117283,-51.7578125,-51.7578125,-15.625,-41.9921875,0.0
1734503932.1211882,-37.109375,-43.45703125,-29.78515625,-32.2265625,0.0
1734503932.1250932,-32.71484375,-27.34375,-32.71484375,-16.6015625,0.0
1734503932.1289985,-9.27734375,-29.78515625,-33.203125,-22.4609375,0.0
1734503932.1329036,-8.30078125,-51.7578125,-48.33984375,-38.57421875,0.0
1734503932.1368086,-48.33984375,-66.89453125,-75.68359375,-47.36328125,0.0
1734503932.1407137,-53.22265625,-53.22265625,-47.36328125,-30.2734375,0.0
1734503932.1446187,-0.9765625,-35.64453125,-14.16015625,-29.296875,0.0
1734503932.148524,-0.48828125,-34.1796875,-16.6015625,-52.734375,0.0
1734503932.152429,-18.06640625,-44.921875,-11.23046875,-18.5546875,0.0
1734503932.1563342,-23.4375,-57.12890625,2.9296875,-1.953125,0.0
1734503932.1602604,-56.640625,-61.03515625,-4.8828125,-35.64453125,0.0
1734503932.1641655,-72.75390625,-68.84765625,-28.80859375,-61.03515625,0.0
1734503932.1680706,-53.7109375,-80.56640625,-24.90234375,-51.26953125,0.0
1734503932.1719756,-37.109375,-87.40234375,-21.97265625,-36.62109375,0.0
1734503932.175881,-46.38671875,-101.07421875,-14.6484375,-39.0625,0.0
1734503932.179786,-46.875,-93.75,10.25390625,-7.32421875,0.0
1734503932.183691,-36.1328125,-83.49609375,-13.18359375,21.484375,0.0
1734503932.187596,-28.3203125,-97.16796875,-24.4140625,-0.48828125,0.0
1734503932.1915011,-26.85546875,-96.6796875,18.5546875,-5.859375,0.0
1734503932.1954062,-38.0859375,-89.35546875,24.90234375,-1.46484375,0.0
1734503932.1993115,-38.57421875,-94.23828125,5.37109375,-1.46484375,0.0
1734503932.2032166,-22.4609375,-93.75,-1.953125,10.7421875,0.0
1734503932.2071104,-19.53125,-88.8671875,-7.32421875,17.578125,0.0
1734503932.2110157,-24.4140625,-104.00390625,9.765625,27.83203125,0.0
1734503932.2149208,-11.23046875,-117.1875,20.01953125,39.0625,0.0
1734503932.2188258,-6.8359375,-111.328125,12.6953125,26.3671875,0.0
1734503932.2227309,-3.41796875,-114.2578125,25.87890625,27.83203125,0.0
1734503932.226636,3.90625,-120.1171875,41.015625,35.15625,0.0
1734503932.230541,2.44140625,-113.28125,25.87890625,44.43359375,0.0
1734503932.2344463,3.41796875,-89.84375,2.9296875,63.4765625,0.0
1734503932.2383513,6.8359375,-87.40234375,6.8359375,38.57421875,0.0
1734503932.2422564,-2.44140625,-123.046875,21.97265625,44.43359375,0.0
1734503932.2461615,-0.9765625,-144.53125,23.92578125,60.546875,0.0
1734503932.2500665,33.69140625,-114.74609375,31.25,41.50390625,0.0
1734503932.253929,8.30078125,-95.21484375,36.1328125,39.55078125,0.0
1734503932.257834,-20.01953125,-87.40234375,13.671875,33.203125,0.0
1734503932.261739,2.44140625,-84.9609375,-22.94921875,34.1796875,0.0
1734503932.2656443,-15.625,-91.796875,-5.859375,38.57421875,0.0
1734503932.2695494,-4.39453125,-85.44921875,57.12890625,36.62109375,0.0
1734503932.2734544,6.34765625,-80.078125,51.26953125,25.390625,0.0
1734503932.2773595,-1.953125,-79.58984375,23.4375,35.15625,0.0
1734503932.2812645,-11.71875,-80.078125,19.04296875,30.76171875,0.0
1734503932.2851698,27.83203125,-79.1015625,23.92578125,46.875,0.0
1734503932.289075,49.8046875,-91.796875,-17.578125,104.98046875,0.0
1734503932.29298,22.94921875,-105.95703125,-29.296875,96.19140625,0.0
1734503932.296885,42.96875,-75.68359375,60.546875,38.0859375,0.0
1734503932.3007169,28.80859375,-51.7578125,82.03125,20.01953125,0.0
1734503932.304622,26.3671875,-81.0546875,58.59375,32.2265625,0.0
1734503932.3085272,49.31640625,-79.1015625,43.9453125,42.48046875,0.0
1734503932.3124323,49.8046875,-58.10546875,34.66796875,51.7578125,0.0
1734503932.3163373,38.0859375,-67.87109375,48.33984375,83.49609375,0.0
1734503932.3202424,58.59375,-57.12890625,-4.39453125,98.6328125,0.0
1734503932.3241475,86.42578125,-71.2890625,-37.59765625,84.47265625,0.0
1734503932.3280525,50.78125,-79.58984375,26.85546875,60.05859375,0.0
1734503932.3319578,45.8984375,-45.41015625,40.52734375,46.38671875,0.0
1734503932.3358629,45.41015625,-40.0390625,5.37109375,54.19921875,0.0
1734503932.339768,19.04296875,-36.62109375,1.953125,56.640625,0.0
1734503932.343673,27.83203125,-45.41015625,10.7421875,62.5,0.0
1734503932.3477235,44.921875,-54.6875,6.34765625,76.171875,0.0
1734503932.3516285,78.125,-44.921875,17.08984375,79.1015625,0.0
1734503932.3555336,53.7109375,-59.08203125,30.2734375,50.29296875,0.0
1734503932.3594387,39.55078125,-92.7734375,0.9765625,62.01171875,0.0
1734503932.3633437,68.359375,-100.5859375,-33.203125,76.66015625,0.0
1734503932.367249,58.59375,-59.08203125,-17.578125,53.7109375,0.0
1734503932.371154,41.015625,-13.18359375,-0.48828125,58.10546875,0.0
1734503932.3750591,31.73828125,-31.73828125,18.5546875,53.7109375,0.0
1734503932.3789642,12.20703125,-52.734375,15.625,27.83203125,0.0
1734503932.3828692,9.27734375,-41.9921875,-5.37109375,38.0859375,0.0
1734503932.3867745,20.5078125,-18.06640625,-19.04296875,36.1328125,0.0
1734503932.3906796,49.8046875,-26.3671875,2.9296875,24.90234375,0.0
1734503932.3946955,33.203125,-73.2421875,0.48828125,31.25,0.0
1734503932.3986006,0.9765625,-44.921875,-75.68359375,40.0390625,0.0
1734503932.4025056,0.48828125,-38.57421875,-87.40234375,20.5078125,0.0
1734503932.406411,10.7421875,-55.17578125,-22.4609375,-15.13671875,0.0
1734503932.410316,16.6015625,-15.625,19.53125,-23.92578125,0.0
1734503932.414221,17.08984375,-5.37109375,1.953125,12.20703125,0.0
1734503932.418126,8.30078125,-29.296875,-58.10546875,8.30078125,0.0
1734503932.4220312,-3.90625,-38.0859375,-19.04296875,-15.625,0.0
1734503932.4259365,-13.671875,-32.71484375,0.48828125,-10.25390625,0.0
1734503932.4298415,-13.671875,-33.203125,-32.2265625,2.9296875,0.0
1734503932.4337466,-21.484375,-36.62109375,-30.2734375,-22.4609375,0.0
1734503932.4376516,-14.6484375,-25.87890625,-39.55078125,-32.2265625,0.0
1734503932.4416347,21.484375,-32.2265625,-19.04296875,2.9296875,0.0
1734503932.4455397,27.34375,-81.0546875,10.7421875,16.6015625,0.0
1734503932.4494448,-12.20703125,-83.0078125,-4.8828125,1.46484375,0.0
1734503932.45335,-20.5078125,-16.11328125,-26.85546875,-20.01953125,0.0
1734503932.4572551,-24.90234375,5.37109375,-19.53125,-22.4609375,0.0
1734503932.4611602,-11.23046875,-7.8125,-31.25,-11.71875,0.0
1734503932.4650652,-9.765625,-28.80859375,-66.40625,-21.97265625,0.0
1734503932.4689703,-16.6015625,-42.96875,-50.78125,-42.96875,0.0
1734503932.4728756,-29.296875,-36.1328125,-12.20703125,-23.92578125,0.0
1734503932.4767807,-41.50390625,-5.37109375,-4.8828125,-18.5546875,0.0
1734503932.4806857,-7.32421875,14.6484375,-3.41796875,-34.1796875,0.0
1734503932.4845908,1.953125,-16.11328125,-34.1796875,-25.87890625,0.0
1734503932.4885526,-35.64453125,-45.41015625,-48.828125,-4.8828125,0.0
1734503932.4924576,-62.01171875,-31.73828125,-18.06640625,-25.390625,0.0
1734503932.496363,-21.97265625,-28.80859375,-20.01953125,-44.43359375,0.0
1734503932.500268,25.87890625,-29.296875,-51.7578125,-14.16015625,0.0
1734503932.504173,-5.37109375,-20.99609375,-38.57421875,-10.25390625,0.0
1734503932.508078,-0.9765625,-34.1796875,5.859375,-5.859375,0.0
1734503932.5119832,-7.32421875,-78.125,-12.6953125,-2.9296875,0.0
1734503932.5158885,-12.6953125,-87.40234375,-56.15234375,-4.39453125,0.0
1734503932.5197935,-16.6015625,-6.8359375,-29.78515625,-21.97265625,0.0
1734503932.5236986,-46.38671875,12.6953125,4.8828125,-48.33984375,0.0
1734503932.5276036,-52.24609375,-13.671875,18.06640625,-50.78125,0.0
1734503932.5315087,-50.29296875,-27.34375,16.6015625,-45.41015625,0.0
1734503932.5354385,-55.17578125,-44.43359375,-0.48828125,-24.90234375,0.0
1734503932.5393436,-49.8046875,-47.36328125,-11.71875,-19.04296875,0.0
1734503932.5432487,-31.73828125,-45.41015625,-38.57421875,-29.78515625,0.0
1734503932.5471537,-29.78515625,-55.6640625,-37.109375,-18.5546875,0.0
1734503932.5510588,-44.43359375,-48.828125,-33.203125,-30.2734375,0.0
1734503932.554964,-42.96875,-45.8984375,-29.296875,-37.59765625,0.0
1734503932.5588691,-42.48046875,-67.3828125,-21.97265625,-27.34375,0.0
1734503932.5627742,-34.1796875,-72.75390625,-39.55078125,-6.34765625,0.0
1734503932.5666792,-33.203125,-52.24609375,-21.97265625,-8.7890625,0.0
1734503932.5705843,-45.8984375,-35.64453125,-13.671875,-41.015625,0.0
1734503932.5744896,-27.83203125,-42.48046875,-31.73828125,-17.578125,0.0
1734503932.5783947,-25.87890625,-55.6640625,-12.20703125,-8.30078125,0.0
1734503932.5822916,-39.55078125,-46.38671875,-11.71875,-22.4609375,0.0
1734503932.5861967,-45.8984375,-40.0390625,-41.50390625,-25.87890625,0.0
1734503932.5901017,-49.31640625,-27.34375,-24.4140625,-35.15625,0.0
1734503932.5940068,-42.48046875,-19.53125,-23.92578125,-44.921875,0.0
1734503932.597912,-50.78125,-25.87890625,-29.296875,-47.36328125,0.0
1734503932.6018171,-52.734375,-45.8984375,-29.296875,-25.390625,0.0
1734503932.6057222,-37.109375,-54.6875,-58.10546875,-2.44140625,0.0
1734503932.6096272,-52.734375,-51.26953125,-61.03515625,-12.6953125,0.0
1734503932.6135323,-62.98828125,-56.15234375,-42.96875,-35.15625,0.0
1734503932.6174376,-38.0859375,-63.4765625,-20.5078125,-33.69140625,0.0
1734503932.6213427,-21.97265625,-36.1328125,-14.16015625,-14.16015625,0.0
1734503932.6252477,-40.52734375,-10.7421875,-20.5078125,-27.83203125,0.0
1734503932.6291103,-53.7109375,-10.7421875,-43.9453125,-39.0625,0.0
1734503932.6330154,-50.78125,-27.34375,-77.1484375,-46.38671875,0.0
1734503932.6369205,-49.31640625,-30.76171875,-46.38671875,-60.05859375,0.0
1734503932.6408255,-59.08203125,-30.76171875,-43.9453125,-45.41015625,0.0
1734503932.6447306,-53.7109375,-32.71484375,-41.015625,-27.83203125,0.0
1734503932.6486359,-32.2265625,-33.203125,-0.9765625,-27.34375,0.0
1734503932.652541,-30.2734375,-60.05859375,2.9296875,-16.6015625,0.0
1734503932.656446,-43.45703125,-44.921875,-20.99609375,-20.5078125,0.0
1734503932.660351,-64.94140625,-35.64453125,-42.48046875,-41.015625,0.0
1734503932.664256,-59.08203125,-41.9921875,-46.38671875,-52.734375,0.0
1734503932.6681614,-76.66015625,-21.484375,-53.22265625,-57.12890625,0.0
1734503932.6720665,-83.984375,-8.7890625,-60.546875,-41.9921875,0.0
1734503932.675898,-38.0859375,-52.734375,-57.6171875,-45.8984375,0.0
1734503932.6798031,-37.109375,-71.2890625,-52.24609375,-58.59375,0.0
1734503932.6837082,-77.63671875,-18.5546875,-9.27734375,-77.63671875,0.0
1734503932.6876132,-87.40234375,-15.13671875,2.9296875,-67.3828125,0.0
1734503932.6915183,-71.77734375,-13.18359375,-30.2734375,-41.015625,0.0
1734503932.6954236,-56.15234375,-15.625,-56.15234375,-32.2265625,0.0
1734503932.6993287,-55.17578125,-63.4765625,-88.8671875,-48.828125,0.0
1734503932.7032337,-49.31640625,-53.22265625,-17.08984375,-52.24609375,0.0
1734503932.7071388,-45.41015625,-12.20703125,30.2734375,-39.55078125,0.0
1734503932.7110438,-79.58984375,-18.5546875,-0.9765625,-52.734375,0.0
1734503932.7149491,-93.75,-31.73828125,-18.06640625,-61.5234375,0.0
1734503932.7188542,-76.171875,-22.4609375,-34.66796875,-62.01171875,0.0
1734503932.722902,-75.1953125,-16.11328125,-18.06640625,-65.4296875,0.0
1734503932.726807,-77.63671875,-19.53125,-45.41015625,-53.22265625,0.0
1734503932.7307122,-59.08203125,-35.64453125,-49.8046875,-47.36328125,0.0
1734503932.7346175,-70.3125,-46.38671875,-10.25390625,-80.078125,0.0
1734503932.7385225,-98.6328125,-37.109375,10.25390625,-104.00390625,0.0
1734503932.7424276,-104.98046875,-23.92578125,13.18359375,-80.56640625,0.0
1734503932.7463326,-106.93359375,-32.71484375,1.953125,-84.9609375,0.0
1734503932.7502377,-130.859375,-58.10546875,-6.8359375,-113.76953125,0.0
1734503932.754143,-161.1328125,-53.7109375,-16.6015625,-131.8359375,0.0
1734503932.758048,-144.04296875,-55.17578125,-10.7421875,-112.79296875,0.0
1734503932.761953,-161.62109375,-62.98828125,20.5078125,-135.7421875,0.0
1734503932.7658582,-179.19921875,-50.29296875,33.69140625,-146.97265625,0.0
1734503932.7698846,-177.734375,-55.6640625,0.0,-123.046875,0.0
1734503932.7737896,-195.3125,-67.87109375,27.83203125,-166.015625,0.0
1734503932.777695,-200.1953125,-49.8046875,105.46875,-187.98828125,0.0
1734503932.7816,-217.28515625,-29.296875,109.375,-199.21875,0.0
1734503932.785505,-225.5859375,-21.484375,98.6328125,-206.0546875,0.0
1734503932.78941,-217.28515625,-30.76171875,83.0078125,-171.38671875,0.0
1734503932.7933152,-209.9609375,-41.50390625,82.03125,-175.29296875,0.0
1734503932.7972205,-163.0859375,-56.15234375,55.6640625,-164.55078125,0.0
1734503932.8011255,-190.4296875,-86.9140625,14.6484375,-183.10546875,0.0
1734503932.8050306,-242.1875,-81.0546875,45.41015625,-217.7734375,0.0
1734503932.8089356,-234.86328125,-58.59375,74.21875,-203.61328125,0.0
1734503932.8128407,-219.7265625,-42.48046875,62.98828125,-188.96484375,0.0
1734503932.8168585,0.0,-36.1328125,53.7109375,-181.15234375,0.0
1734503932.8207636,0.0,-35.64453125,61.5234375,-185.546875,0.0
1734503932.824669,0.0,-47.36328125,43.9453125,-193.359375,0.0
1734503932.828574,0.0,-46.875,-2.9296875,-167.96875,0.0
1734503932.832479,0.0,-31.25,-7.32421875,-161.1328125,0.0
1734503932.836384,0.0,-66.89453125,44.921875,-173.828125,0.0
1734503932.840289,0.0,-67.3828125,46.875,-169.43359375,0.0
1734503932.8441944,0.0,-40.52734375,-6.34765625,-152.83203125,0.0
1734503932.8480995,0.0,-72.265625,8.30078125,-117.67578125,0.0
1734503932.8520045,0.0,-110.83984375,50.29296875,-113.76953125,0.0
1734503932.8559096,0.0,-83.49609375,13.671875,-139.6484375,0.0
1734503932.8598146,0.0,-33.69140625,-11.71875,-110.83984375,0.0
1734503932.8637824,-77.1484375,-52.734375,-8.7890625,-77.1484375,0.0
1734503932.8676877,-80.56640625,-55.6640625,-41.9921875,-97.16796875,0.0
1734503932.8715928,-95.703125,-43.45703125,-63.96484375,-112.3046875,0.0
1734503932.8754978,-73.73046875,-68.359375,-90.8203125,-75.68359375,0.0
1734503932.8794029,-69.3359375,-86.42578125,-83.984375,-49.8046875,0.0
1734503932.883308,-72.265625,-74.21875,-32.71484375,-67.87109375,0.0
1734503932.8872132,-57.6171875,-54.6875,-54.19921875,-60.05859375,0.0
1734503932.8911183,-26.3671875,-63.4765625,-100.09765625,-31.73828125,0.0
1734503932.8950233,-2.9296875,-64.453125,-83.49609375,-20.01953125,0.0
1734503932.8989284,-13.671875,-54.6875,-58.10546875,-34.1796875,0.0
1734503932.9028335,-33.203125,-55.6640625,-76.171875,-32.2265625,0.0
1734503932.9067388,-8.30078125,-51.26953125,-125.48828125,-30.2734375,0.0
1734503932.9106903,0.0,-58.10546875,-113.28125,-61.5234375,0.0
1734503932.9145954,0.0,-50.29296875,-80.078125,-52.734375,0.0
1734503932.9185007,0.0,-47.36328125,-105.46875,-42.96875,0.0
1734503932.9224057,0.0,-56.640625,-129.39453125,-28.80859375,0.0
1734503932.9263108,0.0,-58.10546875,-147.94921875,15.13671875,0.0
1734503932.9302158,0.0,-71.77734375,-147.4609375,19.53125,0.0
1734503932.934121,0.0,-68.359375,-117.67578125,-20.5078125,0.0
1734503932.9380262,0.0,-59.5703125,-112.3046875,1.46484375,0.0
1734503932.9419312,0.0,-53.22265625,-104.98046875,3.41796875,0.0
1734503932.9458363,0.0,-56.15234375,-87.40234375,4.8828125,0.0
1734503932.9497414,0.0,-91.796875,-97.16796875,41.50390625,0.0
1734503932.9536464,0.0,-78.61328125,-125.0,11.23046875,0.0
1734503932.9575481,-13.18359375,-33.69140625,-124.0234375,-9.27734375,0.0
1734503932.9614532,4.39453125,-34.1796875,-130.859375,0.48828125,0.0
1734503932.9653583,9.765625,-48.33984375,-118.1640625,-7.8125,0.0
1734503932.9692633,16.11328125,-37.59765625,-96.19140625,-14.6484375,0.0
1734503932.9731686,7.32421875,-39.0625,-100.09765625,-18.5546875,0.0
1734503932.9770737,-16.11328125,-62.01171875,-96.19140625,-1.46484375,0.0
1734503932.9809787,9.27734375,-51.7578125,-80.078125,15.625,0.0
1734503932.9848838,18.5546875,-28.3203125,-112.3046875,24.90234375,0.0
1734503932.9887888,-10.25390625,-23.4375,-152.83203125,6.34765625,0.0
1734503932.9926941,-7.32421875,-30.2734375,-85.9375,-8.30078125,0.0
1734503932.9965992,-4.39453125,-41.50390625,-56.15234375,-16.11328125,0.0
1734503933.0005043,-4.39453125,-40.0390625,-74.70703125,-34.66796875,0.0
1734503933.0043783,-16.11328125,-28.80859375,-79.58984375,-27.83203125,0.0
1734503933.0082834,-17.578125,-24.90234375,-66.40625,-10.25390625,0.0
1734503933.0121884,-46.875,-31.25,-62.5,-29.78515625,0.0
1734503933.0160935,-71.77734375,-39.55078125,-82.51953125,-57.6171875,0.0
1734503933.0199986,-44.43359375,-20.5078125,-50.78125,-62.5,0.0
1734503933.0239038,-59.5703125,-18.06640625,-11.23046875,-81.0546875,0.0
1734503933.027809,-112.3046875,-44.43359375,8.30078125,-103.515625,0.0
1734503933.031714,-120.1171875,-40.52734375,1.46484375,-98.6328125,0.0
1734503933.035619,-108.88671875,-34.66796875,-46.875,-89.84375,0.0
1734503933.039524,-123.046875,-41.015625,5.37109375,-102.5390625,0.0
1734503933.0434294,-137.6953125,-42.48046875,71.77734375,-152.34375,0.0
1734503933.0473344,-156.25,-34.1796875,68.84765625,-181.15234375,0.0
1734503933.051171,-163.0859375,-23.4375,70.3125,-166.50390625,0.0
1734503933.0550761,-134.27734375,-38.0859375,42.96875,-144.53125,0.0
1734503933.0589812,-127.9296875,-39.0625,21.484375,-131.34765625,0.0
1734503933.0628862,-109.86328125,18.5546875,34.66796875,-110.3515625,0.0
1734503933.0667915,-119.140625,26.85546875,25.87890625,-130.859375,0.0
1734503933.0706966,-145.01953125,4.8828125,12.6953125,-150.87890625,0.0
1734503933.0746017,-138.671875,3.41796875,46.38671875,-137.6953125,0.0
1734503933.0785067,-109.375,-13.671875,75.1953125,-130.859375,0.0
1734503933.0824118,-103.515625,-22.94921875,50.29296875,-126.953125,0.0
1734503933.086317,-121.58203125,2.44140625,22.4609375,-128.90625,0.0
1734503933.0902221,-106.93359375,16.11328125,12.20703125,-119.62890625,0.0
1734503933.0941272,-81.54296875,24.90234375,0.0,-104.4921875,0.0
1734503933.0981932,-69.3359375,25.390625,-14.6484375,-98.14453125,0.0
1734503933.1020982,-69.82421875,13.18359375,-22.94921875,-98.14453125,0.0
1734503933.1060033,-70.80078125,19.04296875,-25.390625,-87.40234375,0.0
1734503933.1099086,-81.0546875,18.06640625,-34.66796875,-86.9140625,0.0
1734503933.1138136,-74.70703125,9.765625,-22.94921875,-85.44921875,0.0
1734503933.1177187,-66.40625,14.6484375,-8.7890625,-78.61328125,0.0
1734503933.1216238,-95.21484375,3.90625,-25.390625,-100.09765625,0.0
1734503933.1255288,-95.703125,-0.48828125,-17.578125,-102.5390625,0.0
1734503933.129434,-92.7734375,-6.34765625,-8.30078125,-99.12109375,0.0
1734503933.1333392,-125.0,-20.99609375,-18.06640625,-102.5390625,0.0
1734503933.1372442,-111.328125,-9.765625,-38.0859375,-108.3984375,0.0
1734503933.1411493,-93.75,4.39453125,-33.69140625,-92.7734375,0.0
1734503933.1451724,-121.58203125,2.9296875,-22.94921875,-86.42578125,0.0
1734503933.1490777,-118.65234375,-23.92578125,6.34765625,-109.86328125,0.0
1734503933.1529827,-92.28515625,-43.45703125,50.29296875,-120.1171875,0.0
1734503933.1568878,-82.03125,-44.43359375,16.6015625,-114.74609375,0.0
1734503933.1607928,-58.10546875,-2.44140625,6.34765625,-83.0078125,0.0
1734503933.1646981,-66.40625,24.4140625,46.38671875,-81.0546875,0.0
1734503933.1686032,-99.12109375,15.13671875,37.59765625,-89.84375,0.0
1734503933.1725082,-79.58984375,0.48828125,16.11328125,-75.1953125,0.0
1734503933.1764133,-52.24609375,-1.953125,-22.4609375,-62.01171875,0.0
1734503933.1803184,-42.48046875,23.4375,-39.55078125,-40.52734375,0.0
1734503933.1842237,-34.66796875,16.6015625,-60.05859375,-18.06640625,0.0
1734503933.1881287,-12.20703125,-5.37109375,-78.125,-3.90625,0.0
1734503933.1921241,31.25,0.0,-79.1015625,0.48828125,0.0
1734503933.1960292,33.203125,1.46484375,-104.00390625,6.8359375,0.0
1734503933.1999342,-1.46484375,-6.8359375,-123.046875,15.625,0.0
1734503933.2038395,15.13671875,-13.671875,-112.79296875,5.859375,0.0
1734503933.2077446,28.3203125,-14.6484375,-109.86328125,6.34765625,0.0
1734503933.2116497,34.1796875,-11.71875,-114.74609375,25.87890625,0.0
1734503933.2155547,53.22265625,-11.23046875,-125.0,26.85546875,0.0
1734503933.2194598,47.8515625,-17.08984375,-125.48828125,15.625,0.0
1734503933.223365,43.45703125,-23.92578125,-106.4453125,28.3203125,0.0
1734503933.2272701,50.29296875,-5.37109375,-91.796875,35.15625,0.0
1734503933.2311752,56.640625,2.9296875,-98.6328125,15.625,0.0
1734503933.2350802,40.52734375,-17.08984375,-106.4453125,1.46484375,0.0
1734503933.2390602,37.59765625,-21.484375,-90.33203125,5.859375,0.0
1734503933.2429652,42.48046875,-13.671875,-86.42578125,1.953125,0.0
1734503933.2468703,11.71875,-10.25390625,-89.84375,-15.625,0.0
1734503933.2507753,-6.34765625,-12.20703125,-69.82421875,-14.6484375,0.0
1734503933.2546806,-10.7421875,-4.8828125,-55.6640625,-24.90234375,0.0
1734503933.2585857,-35.64453125,4.8828125,-57.12890625,-40.52734375,0.0
1734503933.2624907,-51.7578125,1.953125,-41.50390625,-47.8515625,0.0
1734503933.2663958,-66.40625,0.48828125,-24.90234375,-62.98828125,0.0
1734503933.2703009,-77.63671875,11.23046875,-29.296875,-73.73046875,0.0
1734503933.2742062,-73.2421875,9.765625,-49.31640625,-76.66015625,0.0
1734503933.2781112,-59.5703125,-23.92578125,-60.05859375,-90.8203125,0.0
1734503933.2820163,-48.828125,-62.98828125,16.11328125,-91.796875,0.0
1734503933.2859478,-40.0390625,-40.0390625,0.0,-68.359375,0.0
1734503933.2898529,-38.57421875,18.06640625,0.0,-66.40625,0.0
1734503933.293758,-70.80078125,35.15625,0.0,-55.17578125,0.0
1734503933.2976632,-69.3359375,23.4375,0.0,-47.8515625,0.0
1734503933.3015683,-33.69140625,14.16015625,0.0,-62.01171875,0.0
1734503933.3054733,6.34765625,-9.27734375,0.0,-34.1796875,0.0
1734503933.3093784,11.71875,-25.390625,0.0,-17.08984375,0.0
1734503933.3132837,-4.39453125,-11.23046875,0.0,0.48828125,0.0
1734503933.3171887,2.44140625,0.48828125,0.0,1.953125,0.0
1734503933.3210938,8.30078125,-0.48828125,0.0,-31.73828125,0.0
1734503933.3249989,1.46484375,-2.9296875,0.0,-24.4140625,0.0
1734503933.328904,3.90625,-9.27734375,0.0,-3.41796875,0.0
1734503933.3328052,10.25390625,-9.765625,-49.8046875,7.8125,0.0
1734503933.3367102,20.99609375,-9.27734375,-42.48046875,19.04296875,0.0
1734503933.3406153,12.6953125,-21.484375,-46.38671875,-0.48828125,0.0
1734503933.3445203,6.8359375,-14.6484375,-46.875,-19.53125,0.0
1734503933.3484256,25.390625,-2.44140625,-50.78125,-12.6953125,0.0
1734503933.3523307,17.08984375,-5.37109375,-46.38671875,-20.5078125,0.0
1734503933.3562357,-15.13671875,-16.6015625,-33.203125,-39.0625,0.0
1734503933.3601408,-40.0390625,-18.5546875,-29.296875,-52.734375,0.0
1734503933.3640459,-61.03515625,-22.94921875,-20.01953125,-58.59375,0.0
1734503933.3679512,-69.3359375,-22.94921875,3.41796875,-59.08203125,0.0
1734503933.3718562,-93.75,-16.11328125,13.18359375,-101.5625,0.0
1734503933.3757613,-117.67578125,-12.6953125,28.3203125,-143.5546875,0.0
1734503933.3796418,-131.34765625,-6.8359375,29.78515625,-138.18359375,0.0
1734503933.3835468,-143.5546875,-2.44140625,-17.08984375,-138.18359375,0.0
1734503933.3874521,-162.59765625,0.9765625,-0.9765625,-152.83203125,0.0
1734503933.3913572,-154.296875,-24.4140625,64.94140625,-136.71875,0.0
1734503933.3952622,-146.97265625,-13.18359375,116.2109375,-129.8828125,0.0
1734503933.3991673,-139.16015625,8.30078125,117.1875,-140.625,0.0
1734503933.4030724,-124.0234375,-34.66796875,80.56640625,-138.18359375,0.0
1734503933.4069777,-111.81640625,-22.4609375,86.42578125,-105.95703125,0.0
1734503933.4108827,-113.76953125,29.78515625,116.69921875,-102.05078125,0.0
1734503933.4147878,-117.1875,26.3671875,69.3359375,-144.53125,0.0
1734503933.4186928,-74.21875,-11.23046875,55.6640625,-109.375,0.0
1734503933.4225981,-54.19921875,-45.8984375,78.125,-52.734375,0.0
1734503933.4264421,0.0,-1.46484375,49.31640625,-66.89453125,0.0
1734503933.4303472,0.0,48.33984375,32.71484375,-65.4296875,0.0
1734503933.4342523,0.0,42.48046875,-14.16015625,-59.5703125,0.0
1734503933.4381573,0.0,15.625,-38.57421875,-37.59765625,0.0
1734503933.4420626,0.0,1.953125,-12.6953125,-32.71484375,0.0
1734503933.4459677,0.0,-8.30078125,17.578125,-30.2734375,0.0
1734503933.4498727,0.0,-37.109375,20.99609375,11.71875,0.0
1734503933.4537778,0.0,-62.98828125,3.90625,7.32421875,0.0
1734503933.4576828,0.0,-75.1953125,-0.9765625,0.9765625,0.0
1734503933.4615881,0.0,-79.58984375,-1.46484375,11.23046875,0.0
1734503933.4654932,0.0,-78.61328125,-6.34765625,-10.7421875,0.0
1734503933.4693983,0.0,-74.70703125,-6.34765625,-13.18359375,0.0
1734503933.4734669,-27.83203125,-78.61328125,-10.25390625,-18.5546875,0.0
1734503933.477372,-37.59765625,-94.7265625,4.39453125,-35.64453125,0.0
1734503933.481277,-50.29296875,-89.35546875,35.64453125,-41.50390625,0.0
1734503933.485182,-82.51953125,-80.56640625,28.80859375,-66.40625,0.0
1734503933.4890873,-94.7265625,-83.984375,27.34375,-86.42578125,0.0
1734503933.4929924,-103.515625,-81.0546875,53.7109375,-82.03125,0.0
1734503933.4968975,-119.140625,-77.1484375,39.0625,-91.796875,0.0
1734503933.5008025,-135.25390625,-73.73046875,30.2734375,-99.12109375,0.0
1734503933.5047078,-144.53125,-73.2421875,76.66015625,-103.02734375,0.0
1734503933.5086129,-135.7421875,-64.94140625,43.45703125,-102.5390625,0.0
1734503933.512518,-123.53515625,-40.0390625,-5.37109375,-91.30859375,0.0
1734503933.516423,-125.0,-72.75390625,42.96875,-98.14453125,0.0
1734503933.5204554,-114.74609375,-114.74609375,100.09765625,-96.6796875,0.0
1734503933.5243604,-111.81640625,-110.3515625,93.26171875,-95.21484375,0.0
1734503933.5282655,-117.67578125,-95.703125,40.52734375,-117.67578125,0.0
1734503933.5321705,-115.72265625,-93.26171875,49.8046875,-113.76953125,0.0
1734503933.5360758,-78.61328125,-97.65625,52.734375,-103.515625,0.0
1734503933.539981,-55.17578125,-55.17578125,22.4609375,-104.00390625,0.0
1734503933.543886,-62.5,-41.9921875,50.29296875,-77.1484375,0.0
1734503933.547791,-55.6640625,-26.85546875,26.85546875,-47.36328125,0.0
1734503933.551696,-53.22265625,-3.41796875,-44.921875,-43.9453125,0.0
1734503933.5556014,-48.828125,-21.97265625,-22.4609375,-35.15625,0.0
1734503933.5595064,-28.3203125,-9.27734375,5.859375,-26.3671875,0.0
1734503933.5634115,-8.30078125,-13.671875,-10.7421875,-24.90234375,0.0
1734503933.5674086,-13.671875,-33.203125,0.0,-19.53125,0.0
1734503933.5713136,-9.27734375,-42.96875,0.0,-20.5078125,0.0
1734503933.5752187,-23.92578125,-58.10546875,0.0,-20.5078125,0.0
1734503933.579124,-26.3671875,-59.08203125,0.0,-20.99609375,0.0
1734503933.583029,-6.34765625,-48.33984375,0.0,-8.7890625,0.0
1734503933.586934,-9.765625,-47.8515625,0.0,0.9765625,0.0
1734503933.5908391,-15.625,-46.38671875,0.0,-7.8125,0.0
1734503933.5947444,-10.7421875,-46.875,0.0,-16.6015625,0.0
1734503933.5986495,-8.30078125,-47.36328125,0.0,-7.32421875,0.0
1734503933.6025546,-32.2265625,-40.52734375,0.0,-21.484375,0.0
1734503933.6064596,-38.57421875,-47.36328125,0.0,-41.9921875,0.0
1734503933.6103647,-26.3671875,-49.31640625,0.0,-35.64453125,0.0
1734503933.6143222,0.0,-48.33984375,-43.9453125,-43.9453125,0.0
1734503933.6182272,0.0,-50.29296875,-47.36328125,-59.08203125,0.0
1734503933.6221323,0.0,-47.8515625,-32.2265625,-71.2890625,0.0
1734503933.6260376,0.0,-38.57421875,-12.20703125,-84.47265625,0.0
1734503933.6299427,0.0,-37.59765625,-1.953125,-99.12109375,0.0
1734503933.6338477,0.0,-40.0390625,5.37109375,-117.67578125,0.0
1734503933.6377528,0.0,-39.0625,20.99609375,-140.13671875,0.0
1734503933.641658,0.0,-40.52734375,38.57421875,-153.80859375,0.0
1734503933.6455631,0.0,-31.25,35.64453125,-149.4140625,0.0
1734503933.6494682,0.0,-34.1796875,8.30078125,-145.01953125,0.0
1734503933.6533732,0.0,-81.0546875,-25.87890625,-126.953125,0.0
1734503933.6572783,0.0,-101.5625,17.578125,-102.5390625,0.0
1734503933.6612103,-94.23828125,-37.59765625,79.1015625,-113.28125,0.0
1734503933.6651154,-90.8203125,-17.578125,38.0859375,-118.65234375,0.0
1734503933.6690204,-76.66015625,-66.89453125,62.01171875,-106.4453125,0.0
1734503933.6729255,-93.26171875,-29.78515625,79.1015625,-97.65625,0.0
1734503933.6768308,-123.046875,-4.39453125,55.6640625,-113.28125,0.0
1734503933.6807358,-92.7734375,-65.91796875,38.57421875,-101.5625,0.0
1734503933.684641,-33.69140625,-67.87109375,3.90625,-74.70703125,0.0
1734503933.688546,-45.8984375,-26.85546875,-31.73828125,-77.63671875,0.0
1734503933.6924512,-52.24609375,-11.23046875,-56.15234375,-53.7109375,0.0
1734503933.6963563,-31.73828125,-18.5546875,-59.08203125,-31.73828125,0.0
1734503933.7002614,-12.6953125,-16.11328125,-32.71484375,-30.2734375,0.0
1734503933.7041664,-15.13671875,-23.4375,-14.6484375,-42.48046875,0.0
1734503933.7080724,0.0,-40.52734375,-34.1796875,-39.0625,0.0
1734503933.7119777,0.0,-38.57421875,-54.6875,-32.71484375,0.0
1734503933.7158828,0.0,-41.50390625,-63.4765625,-34.66796875,0.0
1734503933.7197878,0.0,-49.8046875,-71.2890625,-21.97265625,0.0
1734503933.723693,0.0,-50.29296875,-78.61328125,-22.4609375,0.0
1734503933.727598,0.0,-52.734375,-96.19140625,-21.97265625,0.0
1734503933.7315032,0.0,-56.15234375,-100.09765625,-7.32421875,0.0
1734503933.7354083,0.0,-58.10546875,-72.75390625,-9.765625,0.0
1734503933.7393134,0.0,-71.77734375,-101.07421875,-15.13671875,0.0
1734503933.7432184,0.0,-77.63671875,-121.58203125,-4.8828125,0.0
1734503933.7471237,0.0,-57.6171875,-84.9609375,-12.20703125,0.0
1734503933.7510288,0.0,-66.89453125,-94.7265625,-18.06640625,0.0
1734503933.7548897,-21.97265625,-95.21484375,-96.19140625,-38.57421875,0.0
1734503933.7587948,-20.01953125,-60.546875,-61.03515625,-29.296875,0.0
1734503933.7626998,9.27734375,-24.4140625,-46.38671875,3.41796875,0.0
1734503933.766605,7.8125,-35.64453125,-45.8984375,-15.625,0.0
1734503933.7705102,9.765625,-42.48046875,-38.0859375,-20.5078125,0.0
1734503933.7744153,-1.953125,-31.73828125,-34.1796875,-0.48828125,0.0
1734503933.7783203,-13.18359375,-38.0859375,-62.98828125,4.8828125,0.0
1734503933.7822254,0.48828125,-51.7578125,-157.2265625,2.9296875,0.0
1734503933.7861304,9.765625,-52.734375,-124.51171875,-9.27734375,0.0
1734503933.7900357,12.6953125,-45.41015625,-1.953125,-13.18359375,0.0
1734503933.7939408,-12.20703125,-42.48046875,8.7890625,-30.2734375,0.0
1734503933.7978458,-24.90234375,-49.8046875,-26.85546875,-58.59375,0.0
1734503933.8016741,-5.37109375,-19.53125,-40.52734375,-48.33984375,0.0
1734503933.8055792,-17.578125,-33.203125,-46.875,-36.1328125,0.0
1734503933.8094842,-20.99609375,-61.5234375,-64.94140625,-42.48046875,0.0
1734503933.8133893,0.0,-34.1796875,-70.80078125,-26.85546875,0.0
1734503933.8172946,-11.23046875,-22.94921875,-75.68359375,-37.59765625,0.0
1734503933.8211997,-12.6953125,-26.85546875,-72.265625,-37.109375,0.0
1734503933.8251047,10.7421875,-24.90234375,-67.3828125,13.671875,0.0
1734503933.8290098,-3.90625,-26.85546875,-88.37890625,-7.32421875,0.0
1734503933.8329148,-24.4140625,-24.4140625,-81.0546875,-46.875,0.0
1734503933.8368201,-13.18359375,-14.6484375,-60.546875,-41.015625,0.0
1734503933.8407252,11.23046875,-10.7421875,-41.9921875,-39.0625,0.0
1734503933.8446302,0.48828125,-12.6953125,-16.11328125,-44.43359375,0.0
1734503933.8486724,0.0,-16.11328125,-25.390625,-46.38671875,0.0
1734503933.8525774,0.0,-21.97265625,-44.43359375,-43.9453125,0.0
1734503933.8564827,0.0,-27.34375,-46.38671875,-44.921875,0.0
1734503933.8603878,0.0,-20.99609375,-51.26953125,-53.7109375,0.0
1734503933.8642929,0.0,-13.18359375,-57.12890625,-62.01171875,0.0
1734503933.868198,0.0,-13.18359375,-65.4296875,-44.921875,0.0
1734503933.8721032,0.0,-31.73828125,-50.29296875,-36.62109375,0.0
1734503933.8760083,0.0,-79.1015625,-40.52734375,-50.29296875,0.0
1734503933.8799133,0.0,-52.24609375,-48.33984375,-66.40625,0.0
1734503933.8838184,0.0,-3.90625,-39.0625,-50.29296875,0.0
1734503933.8877234,0.0,23.92578125,-51.7578125,-29.296875,0.0
1734503933.8916287,0.0,15.13671875,-66.89453125,-59.08203125,0.0
1734503933.8949301,-8.30078125,-6.34765625,-53.22265625,-73.73046875,0.0
1734503933.8988352,-14.6484375,2.9296875,-33.69140625,-63.4765625,0.0
1734503933.9027402,-20.01953125,-5.859375,-37.109375,-81.0546875,0.0
1734503933.9066455,-29.78515625,-20.5078125,-40.0390625,-86.42578125,0.0
1734503933.9105506,-27.34375,-46.875,-28.80859375,-80.078125,0.0
1734503933.9144557,-24.90234375,-52.24609375,-9.27734375,-68.84765625,0.0
1734503933.9183607,-21.97265625,-19.53125,-14.6484375,-71.77734375,0.0
1734503933.9222658,10.25390625,-17.578125,-40.52734375,-89.35546875,0.0
1734503933.926171,-0.48828125,-35.64453125,-29.296875,-89.84375,0.0
1734503933.9300761,-18.5546875,-18.06640625,-19.04296875,-79.1015625,0.0
1734503933.9339812,-20.01953125,1.953125,-23.92578125,-69.3359375,0.0
1734503933.9378862,-49.31640625,-22.4609375,-41.9921875,-57.6171875,0.0
1734503933.941882,-43.9453125,-59.08203125,0.0,-62.01171875,0.0
1734503933.9457872,-19.04296875,-40.52734375,0.0,-66.40625,0.0
1734503933.9496922,-11.71875,-32.71484375,0.0,-66.89453125,0.0
1734503933.9535973,-56.640625,-20.01953125,0.0,-72.265625,0.0
1734503933.9575024,-71.77734375,28.3203125,0.0,-82.51953125,0.0
1734503933.9614074,-59.5703125,2.44140625,0.0,-89.84375,0.0
1734503933.9653127,-48.828125,-48.33984375,0.0,-69.82421875,0.0
1734503933.9692178,-51.7578125,-21.97265625,0.0,-62.5,0.0
1734503933.9731228,-54.19921875,-4.8828125,0.0,-71.2890625,0.0
1734503933.977028,-58.10546875,-27.34375,0.0,-70.3125,0.0
1734503933.980933,-50.29296875,-21.97265625,0.0,-60.546875,0.0
1734503933.9848382,-45.41015625,-28.3203125,0.0,-68.359375,0.0
1734503933.988817,-64.94140625,-31.25,-54.6875,-76.66015625,0.0
1734503933.9927223,-62.01171875,-22.4609375,-81.0546875,-74.21875,0.0
1734503933.9966273,-44.921875,-11.71875,-66.89453125,-77.63671875,0.0
1734503934.0005324,-35.15625,-20.01953125,-61.03515625,-81.0546875,0.0
1734503934.0044374,-38.0859375,-41.9921875,-58.59375,-78.125,0.0
1734503934.0083425,-6.8359375,-22.94921875,-42.96875,-50.29296875,0.0
1734503934.0122478,-5.37109375,-24.90234375,-12.6953125,-42.48046875,0.0
1734503934.0161529,-35.15625,-46.875,0.48828125,-75.1953125,0.0
1734503934.020058,-17.578125,-19.04296875,0.48828125,-57.12890625,0.0
1734503934.023963,-35.15625,-14.6484375,-17.08984375,-63.4765625,0.0
1734503934.027868,-75.68359375,-11.23046875,-35.15625,-82.51953125,0.0
1734503934.0317733,-77.63671875,-14.6484375,-32.2265625,-71.2890625,0.0
1734503934.0357141,-63.96484375,-32.71484375,-25.390625,-67.87109375,0.0
1734503934.0396192,-48.33984375,-30.2734375,-29.78515625,-68.359375,0.0
1734503934.0435245,-44.921875,-25.87890625,-79.1015625,-74.21875,0.0
1734503934.0474296,-44.921875,-33.203125,-77.1484375,-66.40625,0.0
1734503934.0513346,-46.38671875,-31.73828125,-10.7421875,-61.5234375,0.0
1734503934.0552397,-30.2734375,-31.73828125,-5.859375,-60.546875,0.0
1734503934.059145,-25.390625,-0.48828125,-21.484375,-50.78125,0.0
1734503934.06305,-44.43359375,5.859375,-30.2734375,-47.8515625,0.0
1734503934.066955,-12.6953125,-13.671875,-72.265625,-26.3671875,0.0
1734503934.0708601,-5.37109375,-11.71875,-51.7578125,-26.3671875,0.0
1734503934.0747652,-44.43359375,-31.73828125,9.27734375,-40.0390625,0.0
1734503934.0786705,-34.66796875,-54.6875,5.37109375,-50.29296875,0.0
1734503934.0825763,0.0,-11.71875,0.0,-62.01171875,0.0
1734503934.0864813,0.0,7.8125,0.0,-70.80078125,0.0
1734503934.0903864,0.0,-1.46484375,0.0,-69.82421875,0.0
1734503934.0942917,0.0,13.671875,0.0,-54.6875,0.0
1734503934.0981967,0.0,-16.11328125,0.0,-46.875,0.0
1734503934.1021018,0.0,-38.0859375,0.0,-62.98828125,0.0
1734503934.1060069,0.0,-19.04296875,0.0,-62.01171875,0.0
1734503934.1099122,0.0,-33.203125,0.0,-47.8515625,0.0
1734503934.1138172,0.0,-54.19921875,0.0,-53.22265625,0.0
1734503934.1177223,0.0,-42.48046875,0.0,-55.17578125,0.0
1734503934.1216273,0.0,-23.92578125,0.0,-50.29296875,0.0
1734503934.1255324,0.0,-28.80859375,0.0,-36.1328125,0.0
1734503934.1294215,-28.80859375,-40.0390625,-35.64453125,-27.34375,0.0
1734503934.1333265,-40.0390625,-23.4375,-60.05859375,-32.2265625,0.0
1734503934.1372316,-44.921875,-17.578125,-43.45703125,-57.6171875,0.0
1734503934.1411366,-39.0625,-6.8359375,-34.66796875,-70.80078125,0.0
1734503934.145042,-14.6484375,-8.30078125,-35.15625,-49.8046875,0.0
1734503934.148947,-10.7421875,-41.50390625,-45.8984375,-49.8046875,0.0
1734503934.152852,-8.30078125,-44.43359375,-62.98828125,-55.17578125,0.0
1734503934.156757,-32.2265625,-39.55078125,-32.71484375,-70.3125,0.0
1734503934.1606622,-33.69140625,-56.640625,-28.3203125,-83.49609375,0.0
1734503934.1645675,-16.6015625,-45.8984375,-32.2265625,-73.73046875,0.0
1734503934.1684725,-30.76171875,-9.27734375,-19.53125,-81.0546875,0.0
1734503934.1723776,-44.43359375,-25.87890625,-40.0390625,-84.47265625,0.0
1734503934.176217,-24.90234375,-21.484375,-37.109375,-65.91796875,0.0
1734503934.1801224,-17.578125,-9.765625,-28.80859375,-69.82421875,0.0
1734503934.1840274,-41.50390625,-23.92578125,-49.31640625,-69.3359375,0.0
1734503934.1879325,-46.38671875,-29.296875,-61.03515625,-64.453125,0.0
1734503934.1918375,-32.71484375,-26.85546875,-38.57421875,-64.94140625,0.0
1734503934.1957426,-38.0859375,-19.53125,-21.484375,-59.5703125,0.0
1734503934.199648,-42.48046875,-28.3203125,-26.85546875,-50.78125,0.0
1734503934.203553,-47.36328125,-36.1328125,-48.33984375,-48.828125,0.0
1734503934.207458,-32.2265625,-44.43359375,-61.03515625,-39.55078125,0.0
1734503934.211363,-16.6015625,-62.01171875,-21.484375,-31.25,0.0
1734503934.2152681,-10.7421875,-62.01171875,-14.6484375,-37.59765625,0.0
1734503934.2191734,-21.484375,-23.92578125,-47.8515625,-31.25,0.0
1734503934.2232366,-47.8515625,12.20703125,-30.2734375,-34.66796875,0.0
1734503934.2271416,-49.31640625,-8.7890625,-28.3203125,-76.66015625,0.0
1734503934.231047,-62.98828125,-35.64453125,-36.1328125,-73.73046875,0.0
1734503934.234952,-44.43359375,-41.015625,-56.15234375,-42.48046875,0.0
1734503934.238857,-17.08984375,-89.84375,-56.15234375,-63.96484375,0.0
1734503934.242762,-27.83203125,-105.95703125,-24.4140625,-66.89453125,0.0
1734503934.2466674,-44.921875,-44.43359375,-12.6953125,-61.5234375,0.0
1734503934.2505724,-55.6640625,-4.39453125,-31.73828125,-79.1015625,0.0
1734503934.2544775,-64.453125,-37.59765625,-38.57421875,-118.65234375,0.0
1734503934.2583826,-78.125,-44.921875,-41.015625,-129.8828125,0.0
1734503934.2622876,-90.33203125,-26.3671875,-50.78125,-123.046875,0.0
1734503934.266193,-68.84765625,-23.4375,-62.5,-108.3984375,0.0
1734503934.270215,-53.22265625,-34.1796875,-81.0546875,-89.35546875,0.0
1734503934.27412,-57.12890625,-42.96875,-75.1953125,-69.3359375,0.0
1734503934.2780252,-54.19921875,-51.26953125,-48.33984375,-69.3359375,0.0
1734503934.2819302,-27.83203125,-84.9609375,-58.59375,-64.453125,0.0
1734503934.2858355,8.7890625,-84.47265625,-90.33203125,-72.75390625,0.0
1734503934.2897406,-5.859375,-46.38671875,-60.05859375,-74.21875,0.0
1734503934.2936456,-9.765625,-29.78515625,-15.625,-54.6875,0.0
1734503934.2975507,-45.41015625,-47.8515625,-22.94921875,-73.73046875,0.0
1734503934.3014557,-67.87109375,-51.26953125,-19.04296875,-66.40625,0.0
1734503934.305361,-48.828125,-27.83203125,-53.7109375,-28.3203125,0.0
1734503934.309266,-48.33984375,-51.7578125,-66.40625,-48.33984375,0.0
1734503934.3131711,-50.29296875,-65.91796875,-16.11328125,-65.91796875,0.0
1734503934.3171751,0.0,-32.2265625,-8.7890625,-69.82421875,0.0
1734503934.3210802,0.0,-41.50390625,-26.85546875,-44.43359375,0.0
1734503934.3249855,0.0,-68.84765625,-31.25,-33.69140625,0.0
1734503934.3288906,0.0,-38.57421875,-32.2265625,-52.24609375,0.0
1734503934.3327956,0.0,-31.73828125,-46.875,-71.77734375,0.0
1734503934.3367007,0.0,-45.8984375,-42.96875,-95.21484375,0.0
1734503934.3406057,0.0,-44.43359375,-36.62109375,-76.171875,0.0
1734503934.344511,0.0,-69.82421875,-39.0625,-28.80859375,0.0
1734503934.348416,0.0,-64.94140625,-17.08984375,15.13671875,0.0
1734503934.3523211,0.0,-26.85546875,1.46484375,1.953125,0.0
1734503934.3562262,0.0,-29.296875,-42.96875,-26.85546875,0.0
1734503934.3601315,0.0,-60.546875,-37.59765625,-32.2265625,0.0
1734503934.3633986,-56.640625,-49.8046875,-3.41796875,-58.10546875,0.0
1734503934.3673038,-10.25390625,-45.8984375,-15.625,-42.96875,0.0
1734503934.371209,-18.5546875,-75.68359375,-11.71875,-38.57421875,0.0
1734503934.375114,-66.40625,-125.48828125,10.25390625,-34.1796875,0.0
1734503934.379019,-39.0625,-120.1171875,7.8125,-23.92578125,0.0
1734503934.382924,-24.90234375,-104.00390625,-4.8828125,-20.5078125,0.0
1734503934.3868294,-46.875,-128.41796875,-21.97265625,-27.83203125,0.0
1734503934.3907344,-34.1796875,-144.53125,-58.10546875,-3.90625,0.0
1734503934.3946395,25.390625,-135.7421875,-81.0546875,19.04296875,0.0
1734503934.3985445,15.13671875,-118.1640625,-68.84765625,-16.6015625,0.0
1734503934.4024496,-30.76171875,-125.9765625,1.953125,-29.296875,0.0
1734503934.406355,-15.625,-113.28125,31.25,-24.4140625,0.0
1734503934.4102938,-20.01953125,-84.47265625,-0.9765625,-22.94921875,0.0
1734503934.4141989,-25.87890625,-98.14453125,-26.3671875,-10.25390625,0.0
1734503934.418104,-35.64453125,-82.03125,-49.31640625,-15.13671875,0.0
1734503934.422009,-35.15625,-47.8515625,-26.85546875,-35.15625,0.0
1734503934.4259143,-20.5078125,-59.08203125,-5.859375,-5.37109375,0.0
1734503934.4298193,-9.27734375,-91.796875,-35.15625,-10.25390625,0.0
1734503934.4337244,-33.203125,-82.51953125,-30.2734375,-52.24609375,0.0
1734503934.4376295,-39.55078125,-89.35546875,-20.01953125,-32.71484375,0.0
1734503934.4415348,-23.4375,-83.49609375,-35.15625,-49.8046875,0.0
1734503934.4454398,-23.4375,-58.10546875,-35.64453125,-48.33984375,0.0
1734503934.4493449,-43.9453125,-51.26953125,-77.1484375,-18.5546875,0.0
1734503934.45325,-50.78125,-60.546875,-65.4296875,-37.109375,0.0
1734503934.4571605,-46.38671875,-63.96484375,-6.8359375,-56.640625,0.0
1734503934.4610655,-41.015625,-76.66015625,-6.8359375,-35.64453125,0.0
1734503934.4649706,-34.1796875,-103.515625,-22.4609375,-12.20703125,0.0
1734503934.4688756,-26.3671875,-112.79296875,-52.24609375,-6.34765625,0.0
1734503934.4727807,-14.16015625,-81.0546875,-59.08203125,-4.8828125,0.0
1734503934.476686,-11.71875,-94.7265625,-38.57421875,-9.27734375,0.0
1734503934.480591,0.9765625,-138.18359375,-57.6171875,6.34765625,0.0
1734503934.484496,-16.6015625,-86.9140625,-62.98828125,8.7890625,0.0
1734503934.4884012,-19.53125,-20.99609375,-24.90234375,-26.85546875,0.0
1734503934.4923062,-44.921875,-33.69140625,-33.69140625,-55.6640625,0.0
1734503934.4962115,-62.5,-66.40625,-51.26953125,-44.43359375,0.0
1734503934.5001166,-38.57421875,-71.2890625,-32.2265625,-24.4140625,0.0
1734503934.5039973,-37.59765625,-66.40625,-14.6484375,-18.06640625,0.0
1734503934.5079024,-31.25,-103.515625,-52.24609375,-30.76171875,0.0
1734503934.5118074,-34.66796875,-82.03125,-77.1484375,-22.4609375,0.0
1734503934.5157127,-43.9453125,-33.203125,-41.015625,-23.4375,0.0
1734503934.5196178,-45.41015625,-42.48046875,-20.99609375,-45.8984375,0.0
1734503934.5235229,-52.734375,-72.75390625,-46.875,-31.73828125,0.0
1734503934.527428,-8.7890625,-85.44921875,-52.24609375,-23.92578125,0.0
1734503934.531333,26.3671875,-72.265625,-46.38671875,-37.59765625,0.0
1734503934.5352383,-8.7890625,-71.2890625,-39.55078125,-37.109375,0.0
1734503934.5391433,-53.22265625,-60.05859375,-36.62109375,-46.38671875,0.0
1734503934.5430484,-73.2421875,-74.70703125,-30.2734375,-59.08203125,0.0
1734503934.5469534,-53.7109375,-74.70703125,-24.90234375,-54.19921875,0.0
1734503934.5508041,-42.48046875,-43.9453125,-26.85546875,-49.8046875,0.0
1734503934.5547094,-20.01953125,-43.45703125,-37.59765625,-41.9921875,0.0
1734503934.5586145,-23.4375,-43.45703125,-54.19921875,-26.85546875,0.0
1734503934.5625196,-58.10546875,-42.96875,-61.5234375,-40.0390625,0.0
1734503934.5664246,-35.15625,-47.36328125,-59.08203125,-42.96875,0.0
1734503934.5703297,-12.6953125,-38.0859375,-42.96875,-45.8984375,0.0
1734503934.574235,-17.08984375,-44.921875,-40.52734375,-46.875,0.0
1734503934.57814,-22.4609375,-53.7109375,-58.59375,-27.83203125,0.0
1734503934.582045,-24.4140625,-48.828125,-79.58984375,-1.46484375,0.0
1734503934.5859501,-39.55078125,-28.3203125,-52.734375,-32.2265625,0.0
1734503934.5898552,-60.546875,-15.625,-37.59765625,-62.01171875,0.0
1734503934.5937605,-41.015625,-25.87890625,-34.1796875,-39.0625,0.0
1734503934.5978317,0.0,-34.66796875,-7.32421875,-24.4140625,0.0
1734503934.601737,0.0,-36.62109375,-5.859375,-24.90234375,0.0
1734503934.605642,0.0,-35.64453125,-29.296875,-42.96875,0.0
1734503934.6095471,0.0,-22.4609375,-11.71875,-48.828125,0.0
1734503934.6134522,0.0,-27.34375,-16.11328125,-39.0625,0.0
1734503934.6173575,0.0,-42.96875,-42.48046875,-10.25390625,0.0
1734503934.6212626,0.0,-50.78125,-32.71484375,-22.4609375,0.0
1734503934.6251676,0.0,-64.453125,-26.3671875,-44.921875,0.0
1734503934.6290727,0.0,-53.7109375,-31.25,-50.78125,0.0
1734503934.6329777,0.0,-28.80859375,-32.2265625,-43.9453125,0.0
1734503934.636883,0.0,-30.2734375,-52.24609375,-32.2265625,0.0
1734503934.640788,0.0,-12.20703125,-56.640625,-38.57421875,0.0
1734503934.6448288,-42.48046875,-32.2265625,-35.15625,-41.9921875,0.0
1734503934.6487339,-20.99609375,-87.40234375,-65.4296875,-29.296875,0.0
1734503934.652639,-12.6953125,-8.7890625,-90.33203125,-28.80859375,0.0
1734503934.656544,-7.8125,45.8984375,-53.7109375,-36.62109375,0.0
1734503934.6604493,-48.828125,23.4375,-32.2265625,-56.640625,0.0
1734503934.6643543,-63.4765625,24.4140625,-27.83203125,-43.45703125,0.0
1734503934.6682594,-20.5078125,36.62109375,-4.8828125,-19.53125,0.0
1734503934.6721644,-10.7421875,24.90234375,-27.34375,-33.69140625,0.0
1734503934.6760695,-34.66796875,-1.953125,-48.828125,-3.41796875,0.0
1734503934.6799748,-3.41796875,4.39453125,-21.484375,23.92578125,0.0
1734503934.6838799,-12.20703125,5.37109375,-28.80859375,-19.04296875,0.0
1734503934.687785,-25.390625,-25.390625,-55.17578125,-41.015625,0.0
1734503934.6917975,-18.06640625,-10.7421875,-38.0859375,-37.109375,0.0
1734503934.6957026,-36.62109375,5.859375,-16.6015625,-28.80859375,0.0
1734503934.6996076,-43.9453125,-4.8828125,-49.31640625,-27.83203125,0.0
1734503934.703513,-49.31640625,-10.25390625,-91.30859375,-39.0625,0.0
1734503934.707418,-35.15625,-56.640625,-71.77734375,-24.90234375,0.0
1734503934.711323,-20.01953125,-45.8984375,-31.73828125,-33.69140625,0.0
1734503934.715228,-32.71484375,18.06640625,-33.69140625,-38.0859375,0.0
1734503934.7191334,-40.0390625,33.203125,-61.5234375,-41.015625,0.0
1734503934.7230384,-34.66796875,4.8828125,-39.55078125,-43.45703125,0.0
1734503934.7269435,-44.921875,-15.625,-15.625,-30.2734375,0.0
1734503934.7308486,-41.015625,-30.76171875,-25.87890625,-45.41015625,0.0
1734503934.7347536,-37.109375,-34.66796875,-44.921875,-66.40625,0.0
1734503934.7387214,-38.57421875,-22.4609375,-71.77734375,-63.4765625,0.0
1734503934.7426264,-10.7421875,-6.8359375,-72.75390625,-61.03515625,0.0
1734503934.7465317,-11.23046875,-4.8828125,-58.59375,-61.5234375,0.0
1734503934.7504368,-24.90234375,-3.90625,-47.36328125,-59.08203125,0.0
1734503934.7543418,-48.828125,7.8125,-28.3203125,-59.5703125,0.0
1734503934.758247,-52.24609375,-2.9296875,-34.1796875,-59.08203125,0.0
1734503934.762152,-47.36328125,-39.0625,-69.82421875,-51.7578125,0.0
1734503934.7660573,-40.52734375,-47.36328125,-70.3125,-38.57421875,0.0
1734503934.7699623,-29.296875,-9.27734375,-14.16015625,-20.99609375,0.0
1734503934.7738674,-38.57421875,-19.53125,-15.13671875,-36.62109375,0.0
1734503934.7777724,-38.57421875,-37.109375,-77.63671875,-50.78125,0.0
1734503934.7816777,-49.8046875,-0.48828125,-68.359375,-61.03515625,0.0
1734503934.7856095,0.0,9.27734375,-46.875,-69.82421875,0.0
1734503934.7895145,0.0,-13.18359375,-43.45703125,-75.68359375,0.0
1734503934.7934198,0.0,-33.203125,-57.12890625,-69.82421875,0.0
1734503934.797325,0.0,-38.0859375,-78.61328125,-57.12890625,0.0
1734503934.80123,0.0,-39.55078125,-45.41015625,-44.43359375,0.0
1734503934.805135,0.0,-34.1796875,-25.87890625,-37.59765625,0.0
1734503934.8090403,0.0,-15.625,-53.7109375,-44.43359375,0.0
1734503934.8129454,0.0,-0.9765625,-62.5,-55.17578125,0.0
1734503934.8168504,0.0,1.953125,-66.40625,-57.12890625,0.0
1734503934.8207555,0.0,-11.23046875,-91.796875,-42.96875,0.0
1734503934.8246605,0.0,-38.0859375,-83.0078125,-28.80859375,0.0
1734503934.8285658,0.0,-41.015625,-50.78125,-23.92578125,0.0
1734503934.832492,-36.1328125,-0.9765625,-34.66796875,-39.0625,0.0
1734503934.8363972,-10.25390625,8.7890625,-57.12890625,-27.83203125,0.0
1734503934.8403022,-18.06640625,-39.0625,-63.96484375,-22.4609375,0.0
1734503934.8442075,-19.04296875,-41.9921875,-40.0390625,-34.1796875,0.0
1734503934.8481126,-7.8125,3.90625,-40.0390625,-36.62109375,0.0
1734503934.8520176,-28.3203125,3.41796875,-52.24609375,-49.8046875,0.0
1734503934.8559227,-49.8046875,-19.04296875,-59.5703125,-55.17578125,0.0
1734503934.859828,-53.22265625,-9.765625,-50.29296875,-46.38671875,0.0
1734503934.863733,-60.05859375,-5.859375,-31.25,-61.03515625,0.0
1734503934.867638,-68.359375,11.23046875,-32.2265625,-67.3828125,0.0
1734503934.8715432,-44.921875,-1.953125,-56.640625,-51.7578125,0.0
1734503934.8754482,-9.27734375,-1.953125,-57.12890625,-25.87890625,0.0
1734503934.8793354,-24.4140625,-20.99609375,-37.59765625,-33.69140625,0.0
1734503934.8832407,-45.41015625,-36.1328125,-68.84765625,-69.3359375,0.0
1734503934.8871458,-39.55078125,6.34765625,-75.1953125,-49.31640625,0.0
1734503934.8910508,-41.50390625,5.859375,-44.43359375,-32.71484375,0.0
1734503934.8949559,-28.80859375,2.9296875,-50.29296875,-28.80859375,0.0
1734503934.8988612,-7.8125,-2.9296875,-78.125,-27.34375,0.0
1734503934.9027662,-23.4375,-6.34765625,-77.63671875,-39.0625,0.0
1734503934.9066713,-47.8515625,-6.8359375,-36.62109375,-47.8515625,0.0
1734503934.9105763,-46.38671875,-42.96875,-22.94921875,-53.22265625,0.0
1734503934.9144814,-43.9453125,-47.8515625,-30.76171875,-46.875,0.0
1734503934.9183867,-43.45703125,-8.7890625,-33.69140625,-27.34375,0.0
1734503934.9222918,-38.57421875,-24.4140625,-46.875,-30.76171875,0.0
1734503934.9261253,-34.66796875,-37.59765625,-81.0546875,-30.2734375,0.0
1734503934.9300303,-37.109375,-18.5546875,-61.5234375,-38.0859375,0.0
1734503934.9339354,-44.921875,-11.23046875,-25.390625,-63.96484375,0.0
1734503934.9378405,-56.15234375,-11.71875,-41.9921875,-67.3828125,0.0
1734503934.9417455,-50.29296875,-20.99609375,-65.91796875,-61.03515625,0.0
1734503934.9456508,-22.94921875,-32.71484375,-54.19921875,-42.48046875,0.0
1734503934.9495559,-19.04296875,-57.6171875,-45.8984375,-19.04296875,0.0
1734503934.953461,-41.015625,-68.359375,-49.8046875,-39.0625,0.0
1734503934.957366,-40.0390625,-32.71484375,-47.8515625,-50.29296875,0.0
1734503934.961271,-47.36328125,-14.16015625,-56.640625,-47.8515625,0.0
1734503934.9651763,-51.26953125,-17.08984375,-59.5703125,-46.875,0.0
1734503934.9690814,-37.59765625,-10.25390625,-57.12890625,-35.64453125,0.0
1734503934.9731321,-44.43359375,-28.80859375,-60.546875,-35.15625,0.0
1734503934.9770374,-52.24609375,-24.4140625,-53.7109375,-35.64453125,0.0
1734503934.9809425,-42.48046875,-9.27734375,-41.9921875,-33.69140625,0.0
1734503934.9848475,-35.15625,-12.20703125,-68.359375,-42.96875,0.0
1734503934.9887526,-35.64453125,-34.1796875,-41.50390625,-45.41015625,0.0
1734503934.9926577,-30.76171875,-51.26953125,-8.30078125,-43.9453125,0.0
1734503934.996563,-25.87890625,-38.0859375,-35.64453125,-42.48046875,0.0
1734503935.000468,-24.4140625,-19.04296875,-45.8984375,-27.34375,0.0
1734503935.004373,-30.76171875,-39.55078125,-36.1328125,-44.43359375,0.0
1734503935.0082781,-41.50390625,-66.40625,-30.76171875,-20.5078125,0.0
1734503935.0121834,-34.66796875,-72.75390625,-37.109375,23.4375,0.0
1734503935.0160885,-24.4140625,-31.73828125,-50.29296875,-0.48828125,0.0
1734503935.0201004,-43.45703125,3.90625,-37.59765625,-36.62109375,0.0
1734503935.0240054,-47.36328125,-16.6015625,-49.31640625,-60.546875,0.0
1734503935.0279105,-56.15234375,-47.36328125,-77.1484375,-69.3359375,0.0
1734503935.0318155,-58.59375,-32.71484375,-17.08984375,-60.546875,0.0
1734503935.0357208,-45.8984375,-20.01953125,0.0,-56.15234375,0.0
1734503935.039626,-35.64453125,-31.25,-42.96875,-56.15234375,0.0
1734503935.043531,-41.9921875,-28.80859375,-45.41015625,-54.6875,0.0
1734503935.047436,-57.6171875,-32.2265625,-55.17578125,-52.734375,0.0
1734503935.0513413,-58.10546875,-28.80859375,-65.4296875,-44.921875,0.0
1734503935.0552464,-49.8046875,-31.73828125,-46.38671875,-48.828125,0.0
1734503935.0591514,-61.03515625,-49.8046875,-33.203125,-61.03515625,0.0
1734503935.0630565,-55.17578125,-74.21875,-20.01953125,-23.4375,0.0
1734503935.0670507,-58.59375,-71.2890625,-14.6484375,-32.71484375,0.0
1734503935.070956,-61.5234375,-29.296875,-41.9921875,-68.84765625,0.0
1734503935.074861,-27.83203125,-23.92578125,-104.00390625,-43.9453125,0.0
1734503935.078766,-20.99609375,-26.85546875,-85.44921875,-30.76171875,0.0
1734503935.0826712,-51.7578125,-12.6953125,-34.1796875,-54.6875,0.0
1734503935.0865765,-71.77734375,-15.625,-29.296875,-73.73046875,0.0
1734503935.0904815,-85.9375,-18.5546875,-24.4140625,-80.078125,0.0
1734503935.0943866,-94.23828125,-27.34375,-39.0625,-84.9609375,0.0
1734503935.0982916,-82.51953125,-35.64453125,-67.3828125,-67.87109375,0.0
1734503935.1021967,-68.84765625,-34.66796875,-40.0390625,-46.38671875,0.0
1734503935.106102,-48.828125,-40.0390625,-15.13671875,-45.8984375,0.0
1734503935.110007,-20.01953125,-55.17578125,-27.34375,-32.71484375,0.0
1734503935.1139526,-5.37109375,-63.4765625,-27.34375,-13.18359375,0.0
1734503935.1178577,-20.5078125,-30.76171875,-29.78515625,-14.16015625,0.0
1734503935.1217628,-40.52734375,-8.30078125,-60.05859375,-34.1796875,0.0
1734503935.1256678,-35.64453125,-15.13671875,-80.078125,-28.3203125,0.0
1734503935.129573,-27.34375,-12.6953125,-78.61328125,-19.53125,0.0
1734503935.1334782,-21.484375,-0.9765625,-76.171875,-35.15625,0.0
1734503935.1373832,-10.7421875,23.4375,-84.9609375,-52.734375,0.0
1734503935.1412883,-10.7421875,13.671875,-74.70703125,-39.0625,0.0
1734503935.1451933,15.13671875,6.8359375,-75.68359375,-8.7890625,0.0
1734503935.1490986,17.08984375,20.5078125,-98.14453125,-31.25,0.0
1734503935.1530037,6.8359375,24.4140625,-88.8671875,-40.0390625,0.0
1734503935.1569088,13.18359375,18.06640625,-75.1953125,-31.25,0.0
1734503935.1608279,5.859375,3.90625,-76.171875,-41.9921875,0.0
1734503935.164733,0.0,5.37109375,-78.125,-43.9453125,0.0
1734503935.168638,2.9296875,1.46484375,-71.77734375,-37.59765625,0.0
1734503935.1725433,0.0,-8.30078125,-68.359375,-34.1796875,0.0
1734503935.1764483,-1.953125,-7.8125,-105.95703125,-34.1796875,0.0
1734503935.1803534,-4.8828125,-23.92578125,-110.3515625,-37.59765625,0.0
1734503935.1842585,-7.8125,-19.53125,-85.9375,-39.55078125,0.0
1734503935.1881638,-2.9296875,-7.32421875,-65.4296875,-40.52734375,0.0
1734503935.1920688,5.859375,-12.6953125,-33.203125,-32.2265625,0.0
1734503935.1959739,6.8359375,0.9765625,-38.57421875,-35.64453125,0.0
1734503935.199879,-13.671875,3.41796875,-64.453125,-35.64453125,0.0
1734503935.203784,-8.30078125,-20.99609375,-51.7578125,-30.2734375,0.0
1734503935.2076688,3.41796875,-17.08984375,-43.9453125,-11.71875,0.0
1734503935.211574,-9.27734375,-4.8828125,-69.3359375,-17.08984375,0.0
1734503935.2154791,-18.06640625,-6.34765625,-77.63671875,-38.57421875,0.0
1734503935.2193842,-14.16015625,-0.48828125,-57.6171875,-24.90234375,0.0
1734503935.2232893,-21.484375,-14.6484375,-60.546875,-24.90234375,0.0
1734503935.2271943,-19.04296875,-43.45703125,-62.01171875,-24.90234375,0.0
1734503935.2310996,-8.7890625,-42.48046875,-49.8046875,-4.39453125,0.0
1734503935.2350047,-20.01953125,-28.3203125,-79.1015625,-0.9765625,0.0
1734503935.2389097,-34.1796875,-21.484375,-114.74609375,-19.53125,0.0
1734503935.2428148,-32.2265625,-20.01953125,-68.84765625,-25.390625,0.0
1734503935.24672,-27.83203125,-18.06640625,-33.69140625,-22.4609375,0.0
1734503935.2506251,-14.16015625,-18.5546875,-51.7578125,-17.08984375,0.0
1734503935.2545047,-27.83203125,-17.578125,-47.36328125,-13.18359375,0.0
1734503935.25841,-41.50390625,-24.4140625,-56.15234375,-14.16015625,0.0
1734503935.262315,-28.3203125,-37.109375,-81.0546875,-9.27734375,0.0
1734503935.26622,-32.71484375,-42.48046875,-55.17578125,-32.71484375,0.0
1734503935.2701252,-15.625,-46.38671875,-26.3671875,-27.83203125,0.0
1734503935.2740304,-11.23046875,-35.64453125,-36.62109375,-6.34765625,0.0
1734503935.2779355,-34.66796875,-0.48828125,-39.55078125,-10.7421875,0.0
1734503935.2818406,-46.875,-3.41796875,-54.19921875,-13.18359375,0.0
1734503935.2857456,-36.1328125,-62.01171875,-71.2890625,-28.3203125,0.0
1734503935.2896507,-30.76171875,-49.8046875,-69.82421875,-38.0859375,0.0
1734503935.293556,-35.15625,-23.92578125,-45.41015625,-45.8984375,0.0
1734503935.297461,-38.57421875,-27.34375,-36.1328125,-55.17578125,0.0
1734503935.301295,-32.71484375,-24.4140625,-49.8046875,-31.73828125,0.0
1734503935.3052003,-14.16015625,-32.2265625,-51.7578125,-11.71875,0.0
1734503935.3091054,-2.44140625,-24.90234375,-41.50390625,-26.85546875,0.0
1734503935.3130105,-2.44140625,-7.8125,-43.45703125,-24.4140625,0.0
1734503935.3169155,19.04296875,-10.25390625,-38.0859375,-0.9765625,0.0
1734503935.3208206,4.8828125,-31.73828125,-26.85546875,-5.859375,0.0
1734503935.3247259,-52.734375,-38.57421875,-30.2734375,-34.1796875,0.0
1734503935.328631,-58.10546875,-46.38671875,-47.36328125,-48.828125,0.0
1734503935.332536,-47.36328125,-60.546875,-49.8046875,-41.9921875,0.0
1734503935.336441,-46.875,-51.7578125,-43.9453125,-25.390625,0.0
1734503935.3403463,-42.48046875,-45.41015625,-58.59375,-2.9296875,0.0
1734503935.3442514,-29.78515625,-56.640625,-73.73046875,-5.859375,0.0
1734503935.348317,-15.13671875,-50.29296875,-55.17578125,-31.73828125,0.0
1734503935.352222,1.46484375,-24.4140625,-29.296875,-31.73828125,0.0
1734503935.356127,13.671875,-4.39453125,-30.2734375,-0.9765625,0.0
1734503935.360032,-6.8359375,2.44140625,-44.43359375,7.8125,0.0
1734503935.3639374,-36.62109375,-20.99609375,-53.7109375,-28.80859375,0.0
1734503935.3678424,-41.015625,-46.875,-49.8046875,-20.99609375,0.0
1734503935.3717475,-22.94921875,-31.73828125,-23.92578125,21.97265625,0.0
1734503935.3756526,3.90625,-10.7421875,-17.08984375,6.34765625,0.0
1734503935.3795578,-7.32421875,-24.4140625,-25.390625,-45.41015625,0.0
1734503935.383463,-17.578125,-45.8984375,-33.69140625,-17.578125,0.0
1734503935.387368,-20.99609375,-53.22265625,-41.9921875,-17.578125,0.0
1734503935.391273,-20.5078125,-29.296875,-47.8515625,-63.96484375,0.0
1734503935.3952975,-14.16015625,-1.953125,-51.7578125,-37.59765625,0.0
1734503935.3992028,-21.484375,-19.04296875,-38.0859375,-25.390625,0.0
1734503935.403108,-57.6171875,-29.296875,-42.96875,-35.64453125,0.0
1734503935.407013,-42.48046875,-31.73828125,-55.6640625,-23.4375,0.0
1734503935.410918,-53.7109375,-36.1328125,-73.2421875,-50.29296875,0.0
1734503935.4148233,-50.29296875,-22.4609375,-57.12890625,-40.52734375,0.0
1734503935.4187284,-0.48828125,-34.66796875,-6.8359375,17.08984375,0.0
1734503935.4226334,7.32421875,-117.67578125,-15.13671875,30.2734375,0.0
1734503935.4265385,-2.44140625,-86.42578125,-28.80859375,19.04296875,0.0
1734503935.4304438,8.7890625,5.859375,-28.80859375,27.83203125,0.0
1734503935.4343488,49.31640625,-12.6953125,-31.25,-7.32421875,0.0
1734503935.4382539,14.6484375,-74.21875,-5.859375,-36.62109375,0.0
1734503935.4422448,-83.984375,-29.78515625,-14.6484375,-62.01171875,0.0
1734503935.44615,-107.421875,25.390625,-25.87890625,-50.78125,0.0
1734503935.4500551,-48.33984375,5.37109375,-15.13671875,-29.296875,0.0
1734503935.4539602,7.32421875,-23.92578125,-30.2734375,-78.61328125,0.0
1734503935.4578652,-42.96875,-15.625,-16.11328125,-85.44921875,0.0
1734503935.4617705,-87.890625,2.9296875,4.8828125,-23.92578125,0.0
1734503935.4656756,-70.80078125,-8.30078125,9.27734375,-5.859375,0.0
1734503935.4695807,-29.78515625,-33.203125,-48.828125,-67.3828125,0.0
1734503935.4734857,13.18359375,-42.48046875,-68.359375,-50.78125,0.0
1734503935.477391,95.21484375,-25.87890625,-8.30078125,-0.9765625,0.0
1734503935.481296,52.24609375,-44.921875,-9.27734375,8.30078125,0.0
1734503935.4852011,-85.44921875,-58.10546875,-12.6953125,28.3203125,0.0
1734503935.4891627,-82.51953125,-29.296875,-16.11328125,-9.27734375,0.0
1734503935.4930677,-12.6953125,-53.22265625,-27.83203125,-47.36328125,0.0
1734503935.4969728,56.15234375,-36.1328125,-22.4609375,-15.625,0.0
1734503935.500878,-30.2734375,38.57421875,-27.34375,-15.13671875,0.0
1734503935.5047832,-117.1875,57.6171875,-47.8515625,-11.71875,0.0
1734503935.5086882,-106.93359375,26.3671875,-43.9453125,30.2734375,0.0
1734503935.5125933,-11.23046875,18.06640625,-26.85546875,73.73046875,0.0
1734503935.5164986,23.4375,32.71484375,-55.17578125,83.984375,0.0
1734503935.5204036,-82.03125,-1.953125,-48.828125,70.80078125,0.0
1734503935.5243087,-98.6328125,-25.390625,-26.85546875,102.05078125,0.0
1734503935.5282137,-31.73828125,-13.18359375,-29.296875,111.81640625,0.0
1734503935.532119,36.1328125,-144.53125,-6.34765625,130.859375,0.0
1734503935.53606,0.0,-385.7421875,-16.11328125,107.421875,0.0
1734503935.5399652,0.0,-464.35546875,-15.625,88.37890625,0.0
1734503935.5438704,0.0,-453.61328125,-1.953125,110.3515625,0.0
1734503935.5477755,0.0,-464.35546875,3.41796875,138.18359375,0.0
1734503935.5516806,0.0,-546.875,14.6484375,144.53125,0.0
1734503935.5555856,0.0,-593.26171875,13.18359375,145.01953125,0.0
1734503935.5594907,0.0,-588.8671875,9.765625,190.4296875,0.0
1734503935.563396,0.0,-585.44921875,18.5546875,206.0546875,0.0
1734503935.567301,0.0,-520.01953125,18.5546875,215.8203125,0.0
1734503935.571206,0.0,-543.45703125,10.7421875,271.484375,0.0
1734503935.5751112,0.0,-616.2109375,2.44140625,292.48046875,0.0
1734503935.5790164,0.0,-618.65234375,7.8125,251.46484375,0.0
1734503935.5829208,-5.859375,-625.9765625,25.87890625,227.5390625,0.0
1734503935.586826,-36.62109375,-616.2109375,55.6640625,239.2578125,0.0
1734503935.5907311,-43.9453125,-595.21484375,67.3828125,250.48828125,0.0
1734503935.5946362,-28.3203125,-551.7578125,75.1953125,237.3046875,0.0
1734503935.5985413,-30.2734375,-494.62890625,83.49609375,254.39453125,0.0
1734503935.6024466,13.671875,-529.78515625,60.546875,268.06640625,0.0
1734503935.6063516,15.13671875,-590.8203125,75.68359375,279.296875,0.0
1734503935.6102567,24.4140625,-547.8515625,119.62890625,325.68359375,0.0
1734503935.6141617,52.734375,-443.359375,125.9765625,288.57421875,0.0
1734503935.618067,22.94921875,-373.046875,106.93359375,255.859375,0.0
1734503935.621972,-8.7890625,-347.16796875,90.8203125,296.875,0.0
1734503935.6258771,-17.08984375,-335.44921875,88.37890625,287.59765625,0.0
1734503935.6297445,-6.8359375,-298.33984375,0.0,264.16015625,0.0
1734503935.6336496,17.08984375,-249.51171875,0.0,297.8515625,0.0
1734503935.637555,27.34375,-229.00390625,0.0,324.21875,0.0
1734503935.64146,52.734375,-274.90234375,0.0,313.96484375,0.0
1734503935.645365,85.9375,-383.30078125,0.0,309.08203125,0.0
1734503935.64927,33.69140625,-370.1171875,0.0,313.4765625,0.0
1734503935.6531754,-7.8125,-309.08203125,0.0,339.84375,0.0
1734503935.6570804,-3.90625,-286.1328125,0.0,367.1875,0.0
1734503935.6609855,6.8359375,-260.7421875,0.0,291.9921875,0.0
1734503935.6648905,10.25390625,-231.4453125,0.0,225.09765625,0.0
1734503935.6687958,8.7890625,-208.49609375,0.0,254.8828125,0.0
1734503935.672701,-3.90625,-164.0625,0.0,262.20703125,0.0
1734503935.6765482,-7.32421875,-105.95703125,139.6484375,254.39453125,0.0
1734503935.6804533,14.6484375,-62.01171875,135.25390625,301.7578125,0.0
1734503935.6843584,18.5546875,-31.73828125,140.13671875,296.875,0.0
1734503935.6882634,-5.859375,-3.41796875,135.7421875,251.46484375,0.0
1734503935.6921687,32.71484375,19.53125,120.1171875,253.90625,0.0
1734503935.6960738,52.24609375,87.890625,126.953125,268.06640625,0.0
1734503935.6999788,47.8515625,140.13671875,152.83203125,297.8515625,0.0
1734503935.703884,58.10546875,88.8671875,171.875,226.07421875,0.0
1734503935.7077892,-5.859375,65.91796875,180.6640625,196.77734375,0.0
1734503935.7116942,-24.4140625,89.35546875,159.1796875,258.7890625,0.0
1734503935.7155993,23.4375,106.93359375,187.01171875,282.2265625,0.0
1734503935.7195044,48.828125,104.00390625,196.77734375,206.54296875,0.0
1734503935.7235518,18.5546875,102.05078125,184.5703125,185.546875,0.0
1734503935.7274568,-28.3203125,140.13671875,141.11328125,213.37890625,0.0
1734503935.7313619,-60.546875,123.53515625,99.609375,193.359375,0.0
1734503935.735267,-53.7109375,130.859375,145.5078125,187.01171875,0.0
1734503935.7391722,-34.66796875,154.78515625,169.43359375,193.84765625,0.0
1734503935.7430773,-24.90234375,135.25390625,145.99609375,193.359375,0.0
1734503935.7469823,21.97265625,128.90625,134.27734375,182.12890625,0.0
1734503935.7508874,39.55078125,118.65234375,113.28125,190.91796875,0.0
1734503935.7547927,-34.66796875,85.44921875,116.69921875,203.61328125,0.0
1734503935.7586977,-49.31640625,117.67578125,111.328125,144.53125,0.0
1734503935.7626028,-11.23046875,152.34375,102.5390625,132.32421875,0.0
1734503935.7665079,-9.765625,165.0390625,116.69921875,133.30078125,0.0
1734503935.7705178,3.41796875,168.9453125,109.375,135.7421875,0.0
1734503935.774423,-13.18359375,163.57421875,100.09765625,171.875,0.0
1734503935.7783282,-42.96875,151.3671875,95.21484375,150.390625,0.0
1734503935.7822332,-37.109375,156.25,65.4296875,137.6953125,0.0
1734503935.7861383,-9.765625,149.4140625,58.59375,181.640625,0.0
1734503935.7900434,-10.7421875,155.2734375,72.75390625,157.71484375,0.0
1734503935.7939484,-38.57421875,172.36328125,87.890625,119.140625,0.0
1734503935.7978537,-55.6640625,144.04296875,82.51953125,129.8828125,0.0
1734503935.8017588,-47.36328125,176.26953125,58.10546875,128.41796875,0.0
1734503935.8056638,-25.390625,197.265625,67.3828125,128.41796875,0.0
1734503935.809569,-1.953125,176.7578125,79.58984375,149.4140625,0.0
1734503935.8134742,-28.80859375,166.50390625,95.703125,108.88671875,0.0
1734503935.8176987,-76.171875,168.9453125,77.63671875,82.51953125,0.0
1734503935.821604,-62.98828125,193.84765625,58.10546875,109.375,0.0
1734503935.825509,-35.64453125,215.8203125,83.984375,118.65234375,0.0
1734503935.8294141,-32.71484375,222.16796875,81.0546875,133.30078125,0.0
1734503935.8333192,76.66015625,209.47265625,49.31640625,190.4296875,0.0
1734503935.8372245,71.77734375,200.1953125,42.96875,124.51171875,0.0
1734503935.8411295,-62.01171875,209.9609375,81.54296875,78.125,0.0
1734503935.8450346,-66.40625,208.49609375,114.74609375,98.6328125,0.0
1734503935.8489397,-61.03515625,196.77734375,81.0546875,98.6328125,0.0
1734503935.852845,-85.44921875,184.5703125,32.71484375,95.21484375,0.0
1734503935.85675,-92.28515625,124.0234375,66.40625,60.546875,0.0
1734503935.860655,-55.17578125,88.8671875,94.7265625,92.28515625,0.0
1734503935.8645968,-19.04296875,118.1640625,-12.20703125,97.65625,0.0
1734503935.868502,-40.52734375,123.53515625,24.4140625,75.1953125,0.0
1734503935.872407,-50.29296875,144.04296875,126.953125,84.47265625,0.0
1734503935.876312,-18.5546875,191.89453125,83.49609375,84.9609375,0.0
1734503935.8802173,-10.7421875,213.8671875,54.6875,78.61328125,0.0
1734503935.8841224,-29.296875,170.8984375,61.03515625,90.8203125,0.0
1734503935.8880274,-45.8984375,128.90625,114.74609375,98.6328125,0.0
1734503935.8919325,-58.10546875,208.0078125,104.00390625,94.7265625,0.0
1734503935.8958378,-14.16015625,223.6328125,44.921875,115.234375,0.0
1734503935.8997428,-10.25390625,177.734375,2.9296875,80.56640625,0.0
1734503935.903648,-76.66015625,170.41015625,33.203125,105.46875,0.0
1734503935.907553,-45.41015625,143.5546875,77.1484375,169.921875,0.0
1734503935.9114678,-4.8828125,144.04296875,63.96484375,131.8359375,0.0
1734503935.9153728,-60.05859375,161.1328125,52.734375,125.48828125,0.0
1734503935.919278,-86.9140625,174.8046875,28.3203125,120.60546875,0.0
1734503935.923183,-75.68359375,181.640625,21.484375,119.62890625,0.0
1734503935.9270883,-44.921875,185.05859375,20.99609375,140.13671875,0.0
1734503935.9309933,-44.43359375,165.0390625,39.55078125,133.7890625,0.0
1734503935.9348984,-78.61328125,180.17578125,49.31640625,144.53125,0.0
1734503935.9388034,-73.2421875,222.65625,27.83203125,167.96875,0.0
1734503935.9427087,-93.26171875,215.8203125,-9.27734375,132.32421875,0.0
1734503935.9466138,-114.2578125,183.59375,18.06640625,125.9765625,0.0
1734503935.9505188,-99.609375,187.5,68.359375,167.48046875,0.0
1734503935.954424,-50.29296875,223.6328125,45.41015625,158.69140625,0.0
1734503935.9583132,-9.27734375,218.26171875,4.39453125,166.015625,0.0
1734503935.9622185,-89.84375,213.37890625,45.41015625,188.4765625,0.0
1734503935.9661236,-110.83984375,246.58203125,75.68359375,202.1484375,0.0
1734503935.9700286,-71.77734375,251.46484375,73.73046875,222.65625,0.0
1734503935.9739337,-36.62109375,267.08984375,84.9609375,250.48828125,0.0
1734503935.977839,-22.4609375,255.37109375,51.7578125,233.88671875,0.0
1734503935.981744,-36.62109375,227.05078125,10.7421875,202.63671875,0.0
1734503935.985649,-43.9453125,228.515625,40.52734375,197.265625,0.0
1734503935.9895544,-61.03515625,188.96484375,75.68359375,201.66015625,0.0
1734503935.9934595,-18.5546875,168.45703125,99.12109375,228.02734375,0.0
1734503935.9973645,-20.5078125,205.078125,92.28515625,249.0234375,0.0
1734503936.0012696,-46.38671875,256.34765625,68.84765625,256.8359375,0.0
1734503936.0051186,-31.73828125,238.28125,65.4296875,233.88671875,0.0
1734503936.0090237,0.9765625,272.4609375,72.75390625,199.21875,0.0
1734503936.0129287,28.80859375,326.171875,77.1484375,219.7265625,0.0
1734503936.0168338,-25.87890625,303.7109375,16.6015625,245.60546875,0.0
1734503936.020739,-38.0859375,306.15234375,10.25390625,237.3046875,0.0
1734503936.0246441,-5.859375,278.80859375,69.3359375,231.93359375,0.0
1734503936.0285492,-15.625,231.93359375,69.3359375,222.16796875,0.0
1734503936.0324543,-12.20703125,232.91015625,82.51953125,237.3046875,0.0
1734503936.0363595,-17.08984375,247.55859375,101.07421875,224.12109375,0.0
1734503936.0402646,12.6953125,264.6484375,116.69921875,205.078125,0.0
1734503936.0441697,20.5078125,239.2578125,104.98046875,210.9375,0.0
1734503936.0480747,-31.73828125,203.125,72.75390625,202.63671875,0.0
1734503936.0518842,-13.18359375,192.3828125,61.03515625,221.6796875,0.0
1734503936.0557895,36.1328125,172.8515625,52.24609375,254.8828125,0.0
1734503936.0596945,-16.6015625,163.57421875,31.25,193.84765625,0.0
1734503936.0635996,-19.53125,175.78125,3.41796875,181.640625,0.0
1734503936.0675046,28.3203125,146.484375,1.46484375,217.28515625,0.0
1734503936.07141,3.41796875,203.125,-16.11328125,196.2890625,0.0
1734503936.075315,-8.30078125,312.98828125,-12.6953125,180.17578125,0.0
1734503936.07922,18.5546875,363.76953125,23.92578125,198.2421875,0.0
1734503936.083125,24.4140625,358.88671875,13.18359375,195.80078125,0.0
1734503936.0870304,5.859375,321.2890625,16.11328125,174.8046875,0.0
1734503936.0909355,27.83203125,343.75,49.8046875,146.97265625,0.0
1734503936.0948405,0.9765625,390.13671875,28.3203125,104.00390625,0.0
1734503936.098908,0.0,374.0234375,37.109375,77.63671875,0.0
1734503936.102813,0.0,345.703125,50.78125,50.29296875,0.0
1734503936.106718,0.0,402.34375,2.9296875,60.546875,0.0
1734503936.1106231,0.0,435.05859375,-11.23046875,86.42578125,0.0
1734503936.1145284,0.0,381.34765625,25.390625,58.10546875,0.0
1734503936.1184335,0.0,386.71875,90.33203125,57.12890625,0.0
1734503936.1223385,0.0,406.73828125,90.33203125,52.734375,0.0
1734503936.1262436,0.0,401.3671875,45.41015625,76.171875,0.0
1734503936.130149,0.0,400.390625,43.9453125,90.8203125,0.0
1734503936.134054,0.0,387.6953125,49.31640625,62.5,0.0
1734503936.137959,0.0,388.18359375,21.484375,71.2890625,0.0
1734503936.141864,0.0,410.15625,19.53125,80.078125,0.0
1734503936.1452074,-61.03515625,414.55078125,12.6953125,105.46875,0.0
1734503936.1491125,-105.46875,386.23046875,12.6953125,162.109375,0.0
1734503936.1530175,-129.8828125,358.3984375,29.78515625,147.94921875,0.0
1734503936.1569228,-105.95703125,333.0078125,25.87890625,155.2734375,0.0
1734503936.1608279,-59.5703125,352.05078125,48.33984375,159.66796875,0.0
1734503936.164733,-68.84765625,381.8359375,66.40625,200.68359375,0.0
1734503936.168638,-128.90625,348.6328125,50.78125,162.59765625,0.0
1734503936.172543,-114.2578125,337.890625,34.1796875,119.140625,0.0
1734503936.1764483,-123.046875,350.5859375,29.78515625,152.34375,0.0
1734503936.1803534,-106.93359375,350.09765625,55.6640625,168.9453125,0.0
1734503936.1842585,-74.21875,311.5234375,69.82421875,149.90234375,0.0
1734503936.1881635,-117.67578125,308.59375,45.8984375,144.53125,0.0
1734503936.19216,-13.671875,314.453125,-1.46484375,153.3203125,0.0
1734503936.196065,13.671875,271.97265625,10.7421875,160.64453125,0.0
1734503936.19997,19.04296875,253.90625,35.15625,132.32421875,0.0
1734503936.203875,-38.57421875,264.16015625,53.22265625,96.6796875,0.0
1734503936.2077804,-59.5703125,222.16796875,78.125,140.13671875,0.0
1734503936.2116854,8.30078125,195.80078125,53.22265625,159.66796875,0.0
1734503936.2155905,7.32421875,221.6796875,12.20703125,125.9765625,0.0
1734503936.2194955,-40.0390625,269.53125,-3.41796875,145.99609375,0.0
1734503936.2234008,-28.3203125,283.69140625,5.37109375,146.484375,0.0
1734503936.227306,-18.06640625,252.44140625,67.87109375,113.28125,0.0
1734503936.231211,-62.01171875,204.58984375,88.37890625,127.44140625,0.0
1734503936.235116,-72.75390625,197.75390625,52.734375,164.0625,0.0
1734503936.239082,0.0,195.80078125,59.5703125,149.4140625,0.0
1734503936.2429872,0.0,186.5234375,83.984375,141.11328125,0.0
1734503936.2468925,0.0,189.453125,42.96875,141.6015625,0.0
1734503936.2507975,0.0,158.203125,26.3671875,136.23046875,0.0
1734503936.2547026,0.0,132.32421875,40.52734375,147.4609375,0.0
1734503936.2586076,0.0,132.32421875,25.390625,111.328125,0.0
1734503936.262513,0.0,143.5546875,23.4375,86.9140625,0.0
1734503936.266418,0.0,135.25390625,53.7109375,101.5625,0.0
1734503936.270323,0.0,129.39453125,66.89453125,118.65234375,0.0
1734503936.274228,0.0,121.09375,50.29296875,133.7890625,0.0
1734503936.2781334,0.0,117.1875,40.0390625,131.34765625,0.0
1734503936.2820385,0.0,83.49609375,36.1328125,100.09765625,0.0
1734503936.2859626,-21.484375,84.9609375,0.0,122.55859375,0.0
1734503936.2898676,-4.8828125,107.421875,0.0,126.953125,0.0
1734503936.293773,-27.83203125,94.7265625,0.0,88.37890625,0.0
1734503936.297678,-68.84765625,75.68359375,0.0,97.16796875,0.0
1734503936.301583,-43.45703125,79.1015625,0.0,104.4921875,0.0
1734503936.305488,6.8359375,82.03125,0.0,72.265625,0.0
1734503936.3093934,-50.78125,78.61328125,0.0,48.33984375,0.0
1734503936.3132985,-92.7734375,93.26171875,0.0,39.0625,0.0
1734503936.3172035,-66.89453125,86.42578125,0.0,64.453125,0.0
1734503936.3211086,-40.0390625,54.19921875,0.0,170.8984375,0.0
1734503936.3250139,-41.9921875,43.9453125,0.0,223.14453125,0.0
1734503936.328919,-28.3203125,64.453125,0.0,250.48828125,0.0
1734503936.332139,0.0,62.98828125,45.8984375,246.58203125,0.0
1734503936.336044,0.0,77.1484375,54.6875,208.49609375,0.0
1734503936.3399494,0.0,61.03515625,67.3828125,238.28125,0.0
1734503936.3438544,0.0,34.1796875,66.89453125,264.6484375,0.0
1734503936.3477595,0.0,50.29296875,51.26953125,199.21875,0.0
1734503936.3516645,0.0,60.546875,71.2890625,192.87109375,0.0
1734503936.3555696,0.0,52.734375,88.8671875,208.0078125,0.0
1734503936.359475,0.0,48.828125,74.70703125,188.96484375,0.0
1734503936.36338,0.0,20.5078125,52.734375,174.8046875,0.0
1734503936.367285,0.0,7.32421875,56.640625,179.6875,0.0
1734503936.37119,0.0,51.26953125,54.19921875,199.21875,0.0
1734503936.3750954,0.0,83.984375,33.203125,161.62109375,0.0
1734503936.3789833,5.859375,33.203125,65.91796875,150.390625,0.0
1734503936.3828883,8.30078125,20.01953125,54.19921875,144.04296875,0.0
1734503936.3867934,-66.89453125,90.8203125,12.20703125,130.859375,0.0
1734503936.3906987,-79.1015625,103.515625,18.5546875,126.953125,0.0
1734503936.3946037,-62.5,86.42578125,65.4296875,135.25390625,0.0
1734503936.3985088,-46.38671875,73.73046875,73.2421875,158.69140625,0.0
1734503936.4024138,-20.5078125,74.70703125,62.5,111.328125,0.0
1734503936.4063191,-11.71875,59.5703125,81.0546875,111.81640625,0.0
1734503936.4102242,-17.08984375,30.2734375,71.2890625,130.37109375,0.0
1734503936.4141293,-14.16015625,54.19921875,44.43359375,89.84375,0.0
1734503936.4180343,-31.25,74.21875,43.9453125,97.65625,0.0
1734503936.4219394,-67.3828125,74.70703125,41.015625,117.1875,0.0
1734503936.42579,-71.77734375,48.828125,24.90234375,72.75390625,0.0
1734503936.4296951,-39.0625,28.80859375,39.0625,67.87109375,0.0
1734503936.4336002,-24.90234375,78.125,40.0390625,105.46875,0.0
1734503936.4375055,-30.2734375,85.9375,42.96875,102.05078125,0.0
1734503936.4414105,-38.57421875,46.38671875,64.453125,56.640625,0.0
1734503936.4453156,-41.50390625,35.15625,63.4765625,81.54296875,0.0
1734503936.4492207,17.578125,50.78125,78.125,156.25,0.0
1734503936.4531257,29.78515625,60.05859375,42.96875,82.51953125,0.0
1734503936.457031,10.7421875,37.59765625,32.71484375,34.66796875,0.0
1734503936.460936,-62.98828125,42.96875,64.453125,56.15234375,0.0
1734503936.4648411,-97.65625,80.56640625,70.3125,48.828125,0.0
1734503936.4687462,-62.98828125,86.42578125,45.41015625,65.91796875,0.0
1734503936.4728065,-54.6875,71.77734375,0.0,61.5234375,0.0
1734503936.4767115,-37.59765625,53.22265625,0.0,57.12890625,0.0
1734503936.4806166,-28.80859375,51.26953125,0.0,43.9453125,0.0
1734503936.4845216,-27.34375,37.109375,0.0,28.3203125,0.0
1734503936.4884267,-31.25,43.45703125,0.0,59.08203125,0.0
1734503936.492332,-25.390625,70.3125,0.0,65.4296875,0.0
1734503936.496237,-8.7890625,62.5,0.0,73.2421875,0.0
1734503936.500142,-37.109375,49.8046875,0.0,73.2421875,0.0
1734503936.5040472,-50.78125,29.78515625,0.0,26.85546875,0.0
1734503936.5079525,-55.17578125,35.64453125,0.0,16.6015625,0.0
1734503936.5118575,-68.84765625,69.82421875,0.0,32.2265625,0.0
1734503936.5157626,-40.52734375,69.82421875,0.0,36.1328125,0.0
1734503936.5198002,-5.37109375,50.29296875,61.5234375,17.578125,0.0
1734503936.5237052,-1.46484375,21.484375,88.8671875,3.90625,0.0
1734503936.5276103,-27.83203125,22.4609375,78.125,-10.7421875,0.0
1734503936.5315154,-26.3671875,53.7109375,64.94140625,-28.80859375,0.0
1734503936.5354207,-11.23046875,65.4296875,60.546875,-21.97265625,0.0
1734503936.5393257,-51.26953125,59.08203125,49.31640625,-41.50390625,0.0
1734503936.5432308,-58.59375,70.3125,51.26953125,-56.15234375,0.0
1734503936.5471358,-32.2265625,69.82421875,50.78125,-41.015625,0.0
1734503936.551041,-29.296875,63.4765625,35.15625,-57.12890625,0.0
1734503936.5549462,-7.32421875,62.98828125,36.1328125,-32.71484375,0.0
1734503936.5588512,14.16015625,20.01953125,35.64453125,-41.015625,0.0
1734503936.5627563,-45.8984375,34.1796875,60.546875,-55.6640625,0.0
1734503936.5667598,0.0,62.98828125,52.734375,-56.15234375,0.0
1734503936.5706651,0.0,63.4765625,35.64453125,-81.54296875,0.0
1734503936.5745702,0.0,57.6171875,56.640625,-77.1484375,0.0
1734503936.5784752,0.0,47.8515625,59.5703125,-42.48046875,0.0
1734503936.5823803,0.0,42.96875,23.92578125,-44.921875,0.0
1734503936.5862856,0.0,43.9453125,11.71875,-93.75,0.0
1734503936.5901906,0.0,33.203125,46.875,-77.63671875,0.0
1734503936.5940957,0.0,13.671875,71.2890625,-39.0625,0.0
1734503936.5980008,0.0,7.32421875,55.17578125,-15.13671875,0.0
1734503936.601906,0.0,21.484375,47.8515625,-45.8984375,0.0
1734503936.605811,0.0,54.19921875,52.734375,-72.265625,0.0
1734503936.6097162,0.0,53.7109375,43.45703125,-67.3828125,0.0
1734503936.6136956,-29.296875,49.8046875,48.828125,-41.9921875,0.0
1734503936.6176007,-22.94921875,40.52734375,39.55078125,12.20703125,0.0
1734503936.621506,-7.32421875,12.20703125,-9.27734375,-16.6015625,0.0
1734503936.625411,-0.48828125,46.875,13.18359375,-63.96484375,0.0
1734503936.629316,-17.578125,61.5234375,50.29296875,-54.6875,0.0
1734503936.6332211,-14.16015625,60.546875,29.78515625,-30.2734375,0.0
1734503936.6371264,-37.109375,63.4765625,8.7890625,-38.0859375,0.0
1734503936.6410315,-52.734375,45.8984375,55.6640625,-2.9296875,0.0
1734503936.6449366,-34.66796875,42.48046875,89.84375,11.71875,0.0
1734503936.6488416,-8.30078125,23.92578125,58.59375,-28.3203125,0.0
1734503936.652747,40.0390625,-11.71875,38.0859375,21.97265625,0.0
1734503936.656652,10.7421875,10.7421875,45.41015625,-18.5546875,0.0
1734503936.6605926,0.0,62.5,63.96484375,-46.38671875,0.0
1734503936.6644976,0.0,81.0546875,48.33984375,-49.8046875,0.0
1734503936.6684027,0.0,60.05859375,34.66796875,-65.91796875,0.0
1734503936.6723077,0.0,35.64453125,32.2265625,-32.2265625,0.0
1734503936.676213,0.0,-3.90625,31.25,-27.34375,0.0
1734503936.680118,0.0,21.97265625,37.109375,-54.19921875,0.0
1734503936.6840231,0.0,55.17578125,16.11328125,-16.11328125,0.0
1734503936.6879282,0.0,50.78125,-2.44140625,27.34375,0.0
1734503936.6918335,0.0,27.83203125,18.06640625,-16.11328125,0.0
1734503936.6957386,0.0,7.8125,27.83203125,-19.53125,0.0
1734503936.6996436,0.0,-4.8828125,42.48046875,2.9296875,0.0
1734503936.7035487,0.0,-6.34765625,29.78515625,-24.4140625,0.0
1734503936.70747,-57.6171875,22.4609375,28.3203125,-48.828125,0.0
1734503936.711375,-60.546875,39.55078125,46.875,-26.3671875,0.0
1734503936.71528,-53.22265625,61.03515625,40.0390625,-19.04296875,0.0
1734503936.719185,-34.66796875,57.6171875,26.85546875,47.36328125,0.0
1734503936.7230904,-14.16015625,25.87890625,20.01953125,69.82421875,0.0
1734503936.7269955,9.27734375,14.6484375,9.27734375,-45.41015625,0.0
1734503936.7309005,-30.76171875,11.23046875,32.71484375,-40.0390625,0.0
1734503936.7348056,-52.734375,16.6015625,40.52734375,-2.9296875,0.0
1734503936.7387109,-33.69140625,26.85546875,49.31640625,-1.46484375,0.0
1734503936.742616,-27.34375,38.57421875,27.83203125,16.6015625,0.0
1734503936.746521,-29.78515625,10.7421875,4.8828125,7.8125,0.0
1734503936.750426,-9.765625,22.94921875,15.13671875,-32.71484375,0.0
1734503936.7542968,0.0,60.05859375,7.8125,-27.34375,0.0
1734503936.7582018,0.0,35.64453125,36.1328125,-16.6015625,0.0
1734503936.7621071,0.0,-2.9296875,45.41015625,20.01953125,0.0
1734503936.7660122,0.0,9.765625,3.41796875,17.578125,0.0
1734503936.7699172,0.0,16.6015625,-9.27734375,-24.90234375,0.0
1734503936.7738223,0.0,-11.71875,11.23046875,-36.1328125,0.0
1734503936.7777276,0.0,-18.5546875,14.16015625,-30.2734375,0.0
1734503936.7816327,0.0,-14.16015625,23.92578125,1.46484375,0.0
1734503936.7855377,0.0,-12.20703125,27.83203125,20.5078125,0.0
1734503936.7894428,0.0,4.39453125,0.9765625,14.16015625,0.0
1734503936.7933478,0.0,19.53125,0.9765625,7.32421875,0.0
1734503936.7972531,0.0,-0.48828125,21.484375,8.7890625,0.0
1734503936.8011067,-72.265625,-20.5078125,-9.27734375,-23.4375,0.0
1734503936.8050117,-68.359375,-22.4609375,-10.7421875,-22.4609375,0.0
1734503936.8089168,-53.22265625,0.0,33.69140625,5.37109375,0.0
1734503936.8128219,-48.33984375,17.578125,38.0859375,1.953125,0.0
1734503936.8167272,-52.734375,16.6015625,31.73828125,13.671875,0.0
1734503936.8206322,-16.11328125,4.39453125,30.2734375,24.90234375,0.0
1734503936.8245373,0.0,-8.30078125,28.80859375,2.44140625,0.0
1734503936.8284423,-9.27734375,17.578125,19.04296875,-3.90625,0.0
1734503936.8323474,-3.90625,42.96875,21.484375,14.16015625,0.0
1734503936.8362527,-16.6015625,36.62109375,-26.85546875,-3.90625,0.0
1734503936.8401577,-57.12890625,26.85546875,-6.34765625,-20.5078125,0.0
1734503936.8440628,-69.3359375,17.08984375,53.22265625,-3.90625,0.0
1734503936.848123,-47.8515625,27.34375,45.41015625,-9.765625,0.0
1734503936.8520281,-20.5078125,29.78515625,12.20703125,-15.625,0.0
1734503936.8559332,-34.1796875,18.06640625,5.37109375,44.43359375,0.0
1734503936.8598382,-12.20703125,6.34765625,26.85546875,28.3203125,0.0
1734503936.8637435,14.16015625,-9.27734375,9.765625,-19.04296875,0.0
1734503936.8676486,-51.26953125,-12.6953125,-10.25390625,18.06640625,0.0
1734503936.8715537,-11.23046875,27.34375,17.08984375,17.578125,0.0
1734503936.8754587,6.34765625,53.7109375,19.04296875,-1.953125,0.0
1734503936.879364,-38.0859375,60.546875,6.8359375,-12.6953125,0.0
1734503936.883269,-35.15625,57.6171875,2.44140625,-10.25390625,0.0
1734503936.8871741,-40.0390625,46.38671875,16.11328125,3.90625,0.0
1734503936.8910792,-38.0859375,36.62109375,1.46484375,2.9296875,0.0
1734503936.8951223,0.0,36.62109375,0.0,22.4609375,0.0
1734503936.8990273,0.0,35.15625,0.0,26.85546875,0.0
1734503936.9029326,0.0,34.1796875,0.0,-24.90234375,0.0
1734503936.9068377,0.0,16.6015625,0.0,-31.25,0.0
1734503936.9107428,0.0,-17.08984375,0.0,2.44140625,0.0
1734503936.9146478,0.0,-5.859375,0.0,6.34765625,0.0
1734503936.918553,0.0,42.48046875,0.0,-6.8359375,0.0
1734503936.9224582,0.0,57.6171875,0.0,-0.48828125,0.0
1734503936.9263632,0.0,37.109375,0.0,16.11328125,0.0
1734503936.9302683,0.0,24.90234375,0.0,11.23046875,0.0
1734503936.9341736,0.0,19.04296875,0.0,-25.87890625,0.0
1734503936.9380786,0.0,6.34765625,0.0,-6.8359375,0.0
1734503936.942068,-38.0859375,11.71875,18.5546875,7.32421875,0.0
1734503936.9459732,-20.5078125,4.8828125,-46.38671875,-24.4140625,0.0
1734503936.9498782,-4.39453125,-18.06640625,-34.1796875,-14.16015625,0.0
1734503936.9537833,-59.08203125,-8.30078125,30.76171875,-22.94921875,0.0
1734503936.9576886,-78.61328125,24.90234375,30.2734375,-31.25,0.0
1734503936.9615936,-55.6640625,34.66796875,-15.625,-23.4375,0.0
1734503936.9654987,-36.62109375,30.2734375,-36.62109375,-14.16015625,0.0
1734503936.9694037,-3.41796875,48.828125,-4.39453125,10.7421875,0.0
1734503936.973309,-11.23046875,31.73828125,25.390625,34.1796875,0.0
1734503936.977214,-41.015625,-0.48828125,43.45703125,6.8359375,0.0
1734503936.9811192,0.0,17.08984375,40.52734375,57.6171875,0.0
1734503936.9850242,33.69140625,47.8515625,-0.9765625,20.99609375,0.0
1734503936.988988,-41.015625,33.69140625,13.18359375,-76.66015625,0.0
1734503936.992893,-57.6171875,20.99609375,17.08984375,-33.69140625,0.0
1734503936.996798,-35.15625,21.97265625,-11.23046875,-1.953125,0.0
1734503937.000703,-53.22265625,26.85546875,-7.32421875,3.90625,0.0
1734503937.0046084,-31.25,33.69140625,-12.6953125,17.578125,0.0
1734503937.0085135,-12.6953125,12.20703125,7.8125,11.71875,0.0
1734503937.0124185,-16.6015625,12.6953125,34.1796875,4.8828125,0.0
1734503937.0163236,-10.25390625,40.52734375,17.578125,7.32421875,0.0
1734503937.0202289,-15.625,49.8046875,4.8828125,0.0,0.0
1734503937.024134,-24.4140625,46.38671875,-14.6484375,10.25390625,0.0
1734503937.028039,-23.4375,13.18359375,-30.76171875,-9.765625,0.0
1734503937.031944,-44.43359375,-7.8125,-1.46484375,-50.78125,0.0
1734503937.035877,-61.5234375,6.34765625,-32.71484375,-53.22265625,0.0
1734503937.0397823,-41.015625,16.6015625,-17.578125,-34.1796875,0.0
1734503937.0436873,-29.78515625,-1.953125,58.10546875,-14.16015625,0.0
1734503937.0475924,-30.76171875,-15.13671875,39.0625,-10.7421875,0.0
1734503937.0514975,-4.39453125,13.18359375,15.625,-6.8359375,0.0
1734503937.0554028,-33.203125,32.71484375,17.08984375,-48.33984375,0.0
1734503937.0593078,-73.73046875,19.04296875,7.32421875,-71.77734375,0.0
1734503937.0632129,-82.03125,13.18359375,3.90625,-40.0390625,0.0
1734503937.067118,-83.0078125,10.25390625,-3.90625,-42.48046875,0.0
1734503937.0710232,-84.47265625,5.859375,-1.953125,-54.6875,0.0
1734503937.0749283,-95.21484375,7.8125,19.04296875,-57.12890625,0.0
1734503937.0788333,-88.37890625,-0.48828125,14.6484375,-88.8671875,0.0
1734503937.0827432,-86.9140625,-7.32421875,0.0,-76.171875,0.0
1734503937.0866482,-127.9296875,-33.69140625,0.0,-89.35546875,0.0
1734503937.0905533,-145.99609375,-3.90625,0.0,-140.625,0.0
1734503937.0944583,-139.6484375,57.12890625,0.0,-136.71875,0.0
1734503937.0983636,-155.2734375,20.99609375,0.0,-133.7890625,0.0
1734503937.1022687,-174.8046875,-13.671875,0.0,-182.12890625,0.0
1734503937.1061738,-189.453125,3.41796875,0.0,-205.078125,0.0
1734503937.1100788,-189.94140625,12.20703125,0.0,-154.296875,0.0
1734503937.113984,-175.78125,9.27734375,0.0,-153.80859375,0.0
1734503937.1178892,-178.7109375,11.23046875,0.0,-158.69140625,0.0
1734503937.1217942,-184.08203125,20.01953125,0.0,-144.04296875,0.0
1734503937.1256993,-145.5078125,38.57421875,0.0,-110.83984375,0.0
1734503937.1295695,-98.14453125,22.94921875,56.15234375,-134.27734375,0.0
1734503937.1334746,-114.74609375,-5.859375,65.4296875,-175.29296875,0.0
1734503937.13738,-125.9765625,-7.32421875,41.015625,-127.9296875,0.0
1734503937.141285,-94.23828125,5.859375,22.94921875,-91.796875,0.0
1734503937.14519,-70.3125,-12.20703125,-5.37109375,-102.5390625,0.0
1734503937.149095,-84.47265625,-30.76171875,29.78515625,-104.00390625,0.0
1734503937.1530004,-104.00390625,0.9765625,63.96484375,-81.54296875,0.0
1734503937.1569054,-103.02734375,8.30078125,37.109375,-54.6875,0.0
1734503937.1608105,-63.4765625,-10.7421875,-5.859375,-19.53125,0.0
1734503937.1647155,37.59765625,-16.6015625,10.7421875,-4.39453125,0.0
1734503937.1686208,20.5078125,-29.296875,10.25390625,-36.62109375,0.0
1734503937.172526,-44.43359375,-11.71875,-34.66796875,-45.41015625,0.0
1734503937.176382,-47.36328125,20.5078125,-41.9921875,-16.11328125,0.0
1734503937.1802874,-38.0859375,7.8125,-33.69140625,8.7890625,0.0
1734503937.1841924,-5.37109375,-44.921875,-39.0625,29.296875,0.0
1734503937.1880975,3.90625,-11.71875,-20.99609375,34.1796875,0.0
1734503937.1920025,61.03515625,22.94921875,-11.23046875,6.8359375,0.0
1734503937.1959078,40.0390625,9.765625,-5.37109375,0.0,0.0
1734503937.199813,-31.25,-17.08984375,-1.46484375,8.30078125,0.0
1734503937.203718,-15.625,-5.859375,-68.84765625,-3.90625,0.0
1734503937.207623,12.6953125,-8.7890625,-82.51953125,12.6953125,0.0
1734503937.2115283,3.41796875,-17.578125,-45.8984375,22.94921875,0.0
1734503937.2154334,1.46484375,-18.5546875,-26.85546875,39.55078125,0.0
1734503937.2193384,57.12890625,4.8828125,-1.46484375,21.97265625,0.0
1734503937.2233882,48.33984375,32.2265625,6.8359375,3.41796875,0.0
1734503937.2272933,-16.6015625,25.390625,-9.765625,21.484375,0.0
1734503937.2311983,-6.8359375,20.5078125,-20.01953125,36.1328125,0.0
1734503937.2351036,10.25390625,15.13671875,-30.2734375,43.45703125,0.0
1734503937.2390087,66.40625,7.32421875,-29.78515625,43.45703125,0.0
1734503937.2429137,113.28125,12.6953125,-16.6015625,37.59765625,0.0
1734503937.2468188,41.015625,0.48828125,-30.76171875,29.296875,0.0
1734503937.250724,34.1796875,-28.80859375,-40.52734375,41.015625,0.0
1734503937.2546291,58.10546875,-5.37109375,-43.45703125,50.29296875,0.0
1734503937.2585342,36.1328125,15.625,-29.78515625,50.78125,0.0
1734503937.2624393,35.15625,22.94921875,-21.484375,59.5703125,0.0
1734503937.2663445,63.96484375,54.6875,-27.34375,73.2421875,0.0
1734503937.270383,50.29296875,59.5703125,-32.2265625,75.68359375,0.0
1734503937.274288,37.59765625,36.1328125,-66.89453125,27.83203125,0.0
1734503937.278193,53.7109375,-7.8125,-67.87109375,-7.32421875,0.0
1734503937.282098,62.98828125,4.8828125,-18.06640625,10.25390625,0.0
1734503937.2860034,83.984375,12.6953125,14.16015625,35.15625,0.0
1734503937.2899084,69.3359375,25.390625,19.53125,49.31640625,0.0
1734503937.2938135,21.97265625,52.734375,1.46484375,18.5546875,0.0
1734503937.2977185,5.859375,34.1796875,-8.30078125,6.8359375,0.0
1734503937.3016238,18.06640625,6.34765625,-7.8125,35.64453125,0.0
1734503937.3055289,31.25,-34.66796875,-16.6015625,38.0859375,0.0
1734503937.309434,19.53125,-23.92578125,-26.3671875,23.92578125,0.0
1734503937.313339,0.0,47.36328125,-31.25,31.25,0.0
1734503937.3173292,35.64453125,66.40625,0.0,36.1328125,0.0
1734503937.3212345,82.51953125,45.41015625,0.0,17.578125,0.0
1734503937.3251395,9.765625,20.01953125,0.0,13.671875,0.0
1734503937.3290446,0.0,0.9765625,0.0,24.90234375,0.0
1734503937.3329496,36.62109375,-20.5078125,0.0,17.08984375,0.0
1734503937.336855,46.875,8.7890625,0.0,0.48828125,0.0
1734503937.34076,24.4140625,72.265625,0.0,-18.5546875,0.0
1734503937.344665,-16.6015625,80.56640625,0.0,-41.50390625,0.0
1734503937.34857,-18.06640625,50.29296875,0.0,-18.5546875,0.0
1734503937.3524754,-22.94921875,35.64453125,0.0,-7.32421875,0.0
1734503937.3563805,-35.15625,22.94921875,0.0,-34.66796875,0.0
1734503937.3602855,0.48828125,12.6953125,0.0,-26.3671875,0.0
1734503937.3642397,63.4765625,29.78515625,-31.25,-18.5546875,0.0
1734503937.3681448,32.2265625,24.4140625,-27.34375,-20.99609375,0.0
1734503937.37205,-17.08984375,2.44140625,-26.3671875,-5.859375,0.0
1734503937.375955,-24.4140625,13.18359375,-5.37109375,4.39453125,0.0
1734503937.3798602,18.06640625,43.9453125,-4.8828125,5.859375,0.0
1734503937.3837652,37.59765625,33.69140625,-15.13671875,-11.71875,0.0
1734503937.3876705,-5.859375,43.9453125,-8.7890625,-23.4375,0.0
1734503937.3915756,-0.9765625,66.40625,10.25390625,-9.27734375,0.0
1734503937.3954806,22.4609375,66.40625,11.71875,-18.5546875,0.0
1734503937.3993857,6.8359375,29.78515625,-7.32421875,-29.78515625,0.0
1734503937.403291,-5.859375,10.25390625,-6.8359375,-32.71484375,0.0
1734503937.407196,-11.23046875,27.83203125,-14.16015625,-31.25,0.0
1734503937.41114,0.0,18.5546875,-19.04296875,-7.8125,0.0
1734503937.415045,0.0,27.83203125,-11.71875,-6.34765625,0.0
1734503937.4189503,0.0,41.50390625,8.7890625,-7.32421875,0.0
1734503937.4228554,0.0,43.45703125,18.5546875,-44.921875,0.0
1734503937.4267604,0.0,27.83203125,-5.37109375,-32.2265625,0.0
1734503937.4306655,0.0,-14.6484375,-23.4375,6.8359375,0.0
1734503937.4345708,0.0,22.94921875,-9.27734375,-66.40625,0.0
1734503937.4384758,0.0,41.50390625,22.4609375,-94.7265625,0.0
1734503937.442381,0.0,17.578125,14.6484375,-41.9921875,0.0
1734503937.4462862,0.0,42.96875,8.30078125,-30.2734375,0.0
1734503937.4501913,0.0,56.640625,5.859375,-45.8984375,0.0
1734503937.4540963,0.0,38.0859375,-16.11328125,-39.55078125,0.0
1734503937.4579904,-43.9453125,29.296875,-30.76171875,-57.12890625,0.0
1734503937.4618957,-3.41796875,28.80859375,-33.69140625,-64.94140625,0.0
1734503937.4658008,-1.46484375,10.25390625,-9.27734375,-46.38671875,0.0
1734503937.4697058,-19.04296875,-17.578125,9.765625,-41.015625,0.0
1734503937.4736109,-26.3671875,-2.44140625,1.953125,-28.3203125,0.0
1734503937.4775162,-12.20703125,38.0859375,-7.32421875,-65.91796875,0.0
1734503937.4814212,14.6484375,31.73828125,-12.6953125,-75.68359375,0.0
1734503937.4853263,-16.11328125,-22.94921875,-41.50390625,-30.76171875,0.0
1734503937.4892313,-30.76171875,-27.83203125,-14.6484375,-57.12890625,0.0
1734503937.4931366,-34.66796875,24.90234375,27.34375,-78.125,0.0
1734503937.4970417,-3.90625,55.17578125,14.6484375,-62.01171875,0.0
1734503937.5009468,17.578125,47.36328125,-5.859375,-44.43359375,0.0
1734503937.5048294,0.0,36.62109375,-18.5546875,-46.875,0.0
1734503937.5087345,0.0,6.8359375,-7.32421875,-57.6171875,0.0
1734503937.5126398,0.0,-38.0859375,-12.6953125,-67.3828125,0.0
1734503937.5165448,0.0,-4.39453125,-24.90234375,-80.56640625,0.0
1734503937.5204499,0.0,18.5546875,-7.8125,-78.125,0.0
1734503937.524355,0.0,-28.80859375,-8.30078125,-76.66015625,0.0
1734503937.5282602,0.0,-8.30078125,-3.90625,-69.3359375,0.0
1734503937.5321653,0.0,30.2734375,-0.9765625,-46.38671875,0.0
1734503937.5360703,0.0,17.08984375,-40.0390625,-59.5703125,0.0
1734503937.5399754,0.0,-8.30078125,-32.71484375,-72.265625,0.0
1734503937.5438807,0.0,-14.6484375,11.23046875,-64.453125,0.0
1734503937.5477858,0.0,-1.46484375,4.39453125,-69.3359375,0.0
1734503937.5516188,10.25390625,11.71875,-13.18359375,-62.5,0.0
1734503937.5555239,10.25390625,7.32421875,-7.8125,-56.15234375,0.0
1734503937.5594292,-34.66796875,-7.32421875,20.01953125,-75.1953125,0.0
1734503937.5633342,-16.11328125,-6.8359375,20.01953125,-68.84765625,0.0
1734503937.5672393,-13.18359375,5.859375,17.578125,-53.22265625,0.0
1734503937.5711443,-29.78515625,0.0,8.7890625,-62.5,0.0
1734503937.5750496,-19.53125,-0.48828125,-13.18359375,-59.08203125,0.0
1734503937.5789547,-5.859375,6.8359375,-11.71875,-78.125,0.0
1734503937.5828598,-31.25,-5.859375,-41.015625,-71.2890625,0.0
1734503937.5867648,-40.0390625,12.20703125,-56.15234375,-83.49609375,0.0
1734503937.59067,-25.390625,30.2734375,-13.18359375,-117.67578125,0.0
1734503937.5945752,-27.34375,-3.90625,0.9765625,-111.328125,0.0
1734503937.5986257,-24.4140625,-18.5546875,8.30078125,-57.12890625,0.0
1734503937.6025307,-5.859375,-7.8125,7.32421875,-28.3203125,0.0
1734503937.6064358,-26.85546875,38.57421875,-25.390625,-56.15234375,0.0
1734503937.6103408,-53.22265625,45.8984375,-11.71875,-91.30859375,0.0
1734503937.6142461,-45.41015625,8.30078125,-0.48828125,-114.2578125,0.0
1734503937.6181512,-38.57421875,-5.859375,-5.859375,-89.35546875,0.0
1734503937.6220562,-28.3203125,-0.48828125,-10.25390625,-84.9609375,0.0
1734503937.6259613,-23.4375,-1.953125,-13.671875,-94.23828125,0.0
1734503937.6298666,-44.43359375,-9.765625,-15.625,-64.94140625,0.0
1734503937.6337717,-11.23046875,10.7421875,-16.6015625,-37.59765625,0.0
1734503937.6376767,10.25390625,-17.08984375,-18.5546875,-66.89453125,0.0
1734503937.6415818,-23.92578125,-51.7578125,-12.6953125,-70.80078125,0.0
1734503937.6456075,0.0,0.0,-51.7578125,-58.59375,0.0
1734503937.6495125,0.0,19.53125,-70.3125,-108.88671875,0.0
1734503937.6534176,0.0,18.5546875,-21.484375,-110.3515625,0.0
1734503937.657323,0.0,16.11328125,12.6953125,-101.07421875,0.0
1734503937.661228,0.0,6.34765625,-8.30078125,-91.796875,0.0
1734503937.665133,0.0,-13.18359375,-59.08203125,-62.5,0.0
1734503937.669038,0.0,-24.4140625,-28.80859375,-73.73046875,0.0
1734503937.6729434,0.0,-30.2734375,25.87890625,-84.9609375,0.0
1734503937.6768484,0.0,-10.7421875,10.7421875,-83.49609375,0.0
1734503937.6807535,0.0,-3.90625,-6.8359375,-77.63671875,0.0
1734503937.6846585,0.0,11.23046875,-9.27734375,-99.12109375,0.0
1734503937.6885638,0.0,12.6953125,-7.32421875,-83.49609375,0.0
1734503937.6918957,-43.45703125,-8.30078125,0.0,-52.734375,0.0
1734503937.6958008,-14.6484375,21.97265625,0.0,-91.796875,0.0
1734503937.6997058,-12.20703125,23.4375,0.0,-100.5859375,0.0
1734503937.703611,-44.921875,-27.83203125,0.0,-107.421875,0.0
1734503937.7075162,-43.45703125,-20.5078125,0.0,-119.140625,0.0
1734503937.7114213,-27.34375,-6.34765625,0.0,-111.328125,0.0
1734503937.7153263,-23.4375,-18.06640625,0.0,-115.72265625,0.0
1734503937.7192314,-37.59765625,-2.9296875,0.0,-111.81640625,0.0
1734503937.7231367,-41.015625,7.32421875,0.0,-73.73046875,0.0
1734503937.7270417,-18.5546875,-10.25390625,0.0,-67.87109375,0.0
1734503937.7309468,0.9765625,-40.52734375,0.0,-101.5625,0.0
1734503937.7348518,-7.32421875,-49.8046875,0.0,-92.28515625,0.0
1734503937.7381628,-43.9453125,-59.5703125,15.625,-86.9140625,0.0
1734503937.7420678,-63.4765625,-76.66015625,-3.41796875,-101.07421875,0.0
1734503937.7459729,-59.5703125,-51.26953125,-25.390625,-83.984375,0.0
1734503937.7498782,-50.29296875,-31.25,-4.8828125,-43.45703125,0.0
1734503937.7537832,-43.9453125,-17.08984375,8.7890625,-76.171875,0.0
1734503937.7576883,-53.22265625,-2.44140625,-5.859375,-121.58203125,0.0
1734503937.7615933,-41.9921875,10.25390625,0.0,-105.46875,0.0
1734503937.7654986,0.48828125,2.9296875,-0.9765625,-78.61328125,0.0
1734503937.7694037,0.9765625,-20.99609375,-20.5078125,-62.98828125,0.0
1734503937.7733088,-37.59765625,-16.6015625,-29.296875,-81.54296875,0.0
1734503937.7772138,-50.78125,-11.23046875,1.46484375,-85.9375,0.0
1734503937.7811189,-37.59765625,-16.11328125,6.34765625,-79.1015625,0.0
1734503937.7844064,-28.3203125,-21.484375,-22.4609375,-71.2890625,0.0
1734503937.7883115,-41.9921875,-31.73828125,-12.6953125,-91.30859375,0.0
1734503937.7922165,-23.4375,-43.45703125,15.13671875,-93.26171875,0.0
1734503937.7961216,5.859375,-54.6875,18.5546875,-40.52734375,0.0
1734503937.8000267,-3.41796875,-60.05859375,22.4609375,-6.8359375,0.0
1734503937.803932,-34.66796875,-74.21875,33.69140625,-31.25,0.0
1734503937.807837,-24.4140625,-96.19140625,32.71484375,-26.3671875,0.0
1734503937.811742,-35.64453125,-88.8671875,22.4609375,4.8828125,0.0
1734503937.8156471,-44.43359375,-69.3359375,17.08984375,-25.87890625,0.0
1734503937.8195524,-10.7421875,-80.078125,18.06640625,-34.1796875,0.0
1734503937.8234575,-12.20703125,-92.7734375,19.04296875,3.90625,0.0
1734503937.8273625,-41.9921875,-89.35546875,31.73828125,4.39453125,0.0
1734503937.8306277,-26.85546875,-84.9609375,0.0,2.44140625,0.0
1734503937.8345327,-44.921875,-82.51953125,0.0,19.04296875,0.0
1734503937.838438,-49.31640625,-83.984375,0.0,12.6953125,0.0
1734503937.842343,-18.06640625,-93.75,0.0,20.01953125,0.0
1734503937.8462481,-2.9296875,-83.984375,0.0,-2.44140625,0.0
1734503937.8501532,-8.30078125,-88.37890625,0.0,-49.31640625,0.0
1734503937.8540583,14.6484375,-91.796875,0.0,-37.59765625,0.0
1734503937.8579636,47.36328125,-69.3359375,0.0,-34.66796875,0.0
1734503937.8618686,24.4140625,-64.453125,0.0,-57.12890625,0.0
1734503937.8657737,6.8359375,-61.03515625,0.0,-62.98828125,0.0
1734503937.8696787,-1.46484375,-79.58984375,0.0,-55.17578125,0.0
1734503937.8735838,12.20703125,-78.61328125,0.0,-56.640625,0.0
1734503937.877504,-20.99609375,-70.3125,10.25390625,-68.359375,0.0
1734503937.8814092,-16.6015625,-79.1015625,2.44140625,-60.546875,0.0
1734503937.8853145,24.90234375,-88.37890625,25.87890625,-18.06640625,0.0
1734503937.8892195,16.6015625,-112.79296875,27.83203125,-37.109375,0.0
1734503937.8931246,-10.25390625,-99.609375,4.8828125,-81.54296875,0.0
1734503937.8970296,9.765625,-65.91796875,3.90625,-56.640625,0.0
1734503937.9009347,55.6640625,-62.5,0.0,-51.7578125,0.0
1734503937.9048398,-18.06640625,-73.73046875,-25.87890625,-67.87109375,0.0
1734503937.908745,-54.6875,-98.14453125,-20.5078125,-70.3125,0.0
1734503937.91265,5.859375,-120.1171875,-7.32421875,-54.6875,0.0
1734503937.9165552,12.6953125,-121.58203125,4.39453125,-53.22265625,0.0
1734503937.9204602,28.3203125,-96.19140625,-1.46484375,-50.29296875,0.0
1734503937.9243364,41.50390625,-94.7265625,-2.44140625,-76.66015625,0.0
1734503937.9282415,-29.296875,-117.1875,9.27734375,-100.09765625,0.0
1734503937.9321465,-63.4765625,-109.86328125,3.90625,-97.16796875,0.0
1734503937.9360516,-50.78125,-106.93359375,-16.6015625,-105.46875,0.0
1734503937.9399567,-35.64453125,-122.55859375,-11.23046875,-91.30859375,0.0
1734503937.943862,11.71875,-105.46875,11.71875,-51.7578125,0.0
1734503937.947767,-8.30078125,-88.37890625,-4.8828125,-71.2890625,0.0
1734503937.951672,-48.828125,-102.5390625,-36.1328125,-128.90625,0.0
1734503937.9555771,-39.55078125,-113.76953125,-27.83203125,-122.0703125,0.0
1734503937.9594822,20.01953125,-129.39453125,-14.16015625,-104.4921875,0.0
1734503937.9633875,20.5078125,-148.92578125,-13.671875,-114.74609375,0.0
1734503937.9672925,-18.06640625,-130.37109375,-12.6953125,-104.98046875,0.0
1734503937.9713614,-36.62109375,-104.00390625,-8.30078125,-73.73046875,0.0
1734503937.9752665,-52.24609375,-107.91015625,-12.20703125,-89.84375,0.0
1734503937.9791718,-33.203125,-100.5859375,-38.0859375,-110.83984375,0.0
1734503937.9830768,2.44140625,-78.125,-25.390625,-97.16796875,0.0
1734503937.9869819,-6.34765625,-89.35546875,13.18359375,-87.40234375,0.0
1734503937.990887,-15.13671875,-98.6328125,-3.41796875,-66.89453125,0.0
1734503937.994792,3.41796875,-80.56640625,-6.34765625,-55.6640625,0.0
1734503937.9986973,-24.4140625,-91.796875,-2.9296875,-105.95703125,0.0
1734503938.0026023,-54.6875,-100.5859375,-25.87890625,-122.55859375,0.0
1734503938.0065074,-36.1328125,-89.35546875,-17.578125,-87.890625,0.0
1734503938.0104125,-3.41796875,-100.09765625,2.9296875,-100.5859375,0.0
1734503938.0143175,-0.9765625,-87.890625,4.39453125,-126.46484375,0.0
1734503938.0183635,-40.0390625,-68.359375,-11.71875,-104.4921875,0.0
1734503938.0222685,-31.73828125,-66.89453125,-24.4140625,-97.65625,0.0
1734503938.0261736,-5.859375,-77.1484375,-23.4375,-97.65625,0.0
1734503938.0300786,-3.41796875,-113.28125,-40.0390625,-54.19921875,0.0
1734503938.033984,20.5078125,-92.28515625,-17.08984375,-58.10546875,0.0
1734503938.037889,-17.08984375,-47.36328125,3.90625,-97.65625,0.0
1734503938.041794,-42.96875,-40.0390625,-34.1796875,-113.76953125,0.0
1734503938.0456991,-8.7890625,-34.66796875,-36.62109375,-97.16796875,0.0
1734503938.0496042,-21.484375,-52.734375,-23.4375,-98.6328125,0.0
1734503938.0535095,-44.921875,-80.56640625,-14.6484375,-81.0546875,0.0
1734503938.0574145,-75.68359375,-58.10546875,12.20703125,-98.14453125,0.0
1734503938.0613196,-81.54296875,-30.2734375,9.27734375,-130.37109375,0.0
1734503938.0653312,-55.6640625,-38.57421875,-23.4375,-100.09765625,0.0
1734503938.0692363,-61.5234375,-48.828125,-40.52734375,-78.125,0.0
1734503938.0731413,-57.12890625,-54.6875,-27.83203125,-93.75,0.0
1734503938.0770464,-41.015625,-57.6171875,-12.6953125,-107.421875,0.0
1734503938.0809515,-36.1328125,-44.921875,2.44140625,-88.8671875,0.0
1734503938.0848567,-29.296875,-29.296875,2.44140625,-85.44921875,0.0
1734503938.0887618,-41.015625,-41.9921875,-9.27734375,-90.33203125,0.0
1734503938.0926669,-35.15625,-49.31640625,-14.6484375,-73.2421875,0.0
1734503938.096572,-21.484375,-53.22265625,-27.34375,-63.96484375,0.0
1734503938.100477,-21.484375,-85.44921875,-20.5078125,-71.2890625,0.0
1734503938.1043823,-1.46484375,-53.22265625,-8.7890625,-86.9140625,0.0
1734503938.1082873,-21.484375,-19.53125,-62.5,-88.37890625,0.0
1734503938.1122603,-42.48046875,-36.62109375,-110.3515625,-79.1015625,0.0
1734503938.1161654,-42.48046875,-84.9609375,-21.97265625,-101.5625,0.0
1734503938.1200707,-57.6171875,-80.56640625,41.9921875,-111.328125,0.0
1734503938.1239758,-62.98828125,-39.55078125,12.20703125,-111.81640625,0.0
1734503938.1278808,-16.11328125,-22.94921875,-28.3203125,-120.1171875,0.0
1734503938.1317859,2.9296875,-31.73828125,-20.99609375,-120.60546875,0.0
1734503938.135691,-17.578125,-29.296875,-4.8828125,-103.02734375,0.0
1734503938.1395962,-41.50390625,-43.45703125,-17.578125,-94.7265625,0.0
1734503938.1435013,-19.53125,-62.98828125,-18.06640625,-59.08203125,0.0
1734503938.1474063,-16.6015625,-53.7109375,-12.20703125,-79.1015625,0.0
1734503938.1513114,-44.43359375,-38.57421875,-27.83203125,-118.1640625,0.0
1734503938.1552165,-54.19921875,-43.45703125,-49.31640625,-117.1875,0.0
1734503938.159165,-26.3671875,-46.38671875,-26.85546875,-87.890625,0.0
1734503938.16307,-29.78515625,-36.1328125,-18.5546875,-78.125,0.0
1734503938.166975,-48.828125,-40.0390625,-18.5546875,-111.81640625,0.0
1734503938.1708803,-26.3671875,-37.109375,-5.859375,-128.90625,0.0
1734503938.1747854,-26.3671875,-39.0625,-5.859375,-97.65625,0.0
1734503938.1786904,-35.64453125,-59.5703125,-5.37109375,-69.82421875,0.0
1734503938.1825955,-45.41015625,-53.7109375,-20.01953125,-98.14453125,0.0
1734503938.1865008,-38.57421875,-50.29296875,-31.73828125,-91.796875,0.0
1734503938.1904058,-14.6484375,-45.41015625,-47.36328125,-86.42578125,0.0
1734503938.194311,-1.953125,-36.62109375,-55.17578125,-100.09765625,0.0
1734503938.198216,-25.390625,-56.640625,-16.6015625,-95.21484375,0.0
1734503938.202121,-48.828125,-54.19921875,0.9765625,-62.98828125,0.0
1734503938.2060306,-62.01171875,-76.66015625,-18.06640625,-89.84375,0.0
1734503938.2099357,-52.24609375,-74.21875,-5.37109375,-107.421875,0.0
1734503938.2138407,-11.71875,-53.22265625,11.71875,-73.2421875,0.0
1734503938.2177458,-24.90234375,-70.80078125,-15.13671875,-73.73046875,0.0
1734503938.221651,-63.4765625,-95.21484375,-37.109375,-92.7734375,0.0
1734503938.2255561,-69.82421875,-108.88671875,-34.1796875,-114.2578125,0.0
1734503938.2294612,-66.89453125,-82.03125,-31.25,-128.41796875,0.0
1734503938.2333663,-71.2890625,-70.80078125,-30.76171875,-95.21484375,0.0
1734503938.2372715,-80.56640625,-88.37890625,-41.9921875,-79.58984375,0.0
1734503938.2411766,-69.82421875,-94.23828125,-53.22265625,-87.890625,0.0
1734503938.2450817,-26.85546875,-97.16796875,-29.296875,-80.078125,0.0
1734503938.2489867,-13.18359375,-94.7265625,-9.765625,-95.21484375,0.0
1734503938.2528636,-51.7578125,-80.078125,-16.11328125,-122.55859375,0.0
1734503938.2567687,-58.59375,-69.3359375,-27.34375,-128.41796875,0.0
1734503938.2606738,-60.546875,-64.94140625,-49.31640625,-99.12109375,0.0
1734503938.2645788,-73.73046875,-57.6171875,-40.0390625,-67.3828125,0.0
1734503938.268484,-26.3671875,-44.921875,-34.66796875,-90.33203125,0.0
1734503938.2723892,-15.625,-32.2265625,-35.64453125,-108.3984375,0.0
1734503938.2762942,-56.15234375,-31.25,-24.4140625,-90.8203125,0.0
1734503938.2801993,-65.4296875,-22.94921875,-31.73828125,-84.9609375,0.0
1734503938.2841043,-59.08203125,-22.4609375,-40.52734375,-110.83984375,0.0
1734503938.2880096,-52.734375,-25.87890625,-24.90234375,-121.58203125,0.0
1734503938.2919147,-40.0390625,-40.0390625,-15.13671875,-102.5390625,0.0
1734503938.2958198,-27.83203125,-81.54296875,-19.53125,-94.23828125,0.0
1734503938.299671,-30.76171875,-81.54296875,-26.85546875,-93.26171875,0.0
1734503938.303576,-31.25,-57.6171875,-35.15625,-84.47265625,0.0
1734503938.3074813,-21.484375,-31.73828125,-52.734375,-90.8203125,0.0
1734503938.3113863,-54.6875,-26.3671875,-33.203125,-111.81640625,0.0
1734503938.3152914,-76.171875,-12.20703125,-30.76171875,-101.07421875,0.0
1734503938.3191965,-51.26953125,21.484375,-52.24609375,-85.9375,0.0
1734503938.3231015,-37.59765625,23.4375,-23.92578125,-72.265625,0.0
1734503938.3270068,-46.38671875,23.4375,-23.4375,-94.7265625,0.0
1734503938.3309119,-74.70703125,20.5078125,-43.9453125,-109.86328125,0.0
1734503938.334817,-67.87109375,-1.953125,-41.50390625,-90.33203125,0.0
1734503938.338722,-56.15234375,-10.25390625,-34.66796875,-83.0078125,0.0
1734503938.342627,-62.5,0.9765625,-36.62109375,-78.125,0.0
1734503938.346703,-54.6875,1.46484375,-79.58984375,-69.82421875,0.0
1734503938.350608,-29.78515625,-10.7421875,-73.2421875,-94.23828125,0.0
1734503938.3545132,-35.15625,-22.94921875,-24.90234375,-95.21484375,0.0
1734503938.3584185,-64.453125,-43.45703125,-21.484375,-71.77734375,0.0
1734503938.3623235,-62.98828125,-52.734375,-27.34375,-57.12890625,0.0
