timestamps,TP9,AF7,AF8,TP10,Right AUX
1734504140.7608218,-44.43359375,-116.2109375,-10.25390625,-44.921875,0.0
1734504140.7647274,-58.59375,-125.48828125,-27.34375,-55.6640625,0.0
1734504140.7686327,-57.6171875,52.24609375,-30.76171875,-59.5703125,0.0
1734504140.7725382,-57.6171875,0.0,-36.62109375,-57.12890625,0.0
1734504140.7764435,-62.01171875,-142.08984375,-35.15625,-59.08203125,0.0
1734504140.780349,-63.96484375,-106.4453125,-31.73828125,-61.5234375,0.0
1734504140.7842543,-60.546875,50.29296875,-46.38671875,-64.453125,0.0
1734504140.7881598,-54.19921875,151.85546875,-52.734375,-68.359375,0.0
1734504140.7920651,-51.7578125,-86.42578125,-36.1328125,-63.4765625,0.0
1734504140.7959707,-55.17578125,-195.80078125,-36.62109375,-50.78125,0.0
1734504140.799876,-49.8046875,139.6484375,-26.3671875,-48.828125,0.0
1734504140.8040237,-50.29296875,116.2109375,-25.390625,-67.87109375,0.0
1734504140.8079293,-61.03515625,-112.79296875,-42.48046875,-85.44921875,0.0
1734504140.8118346,-62.5,-12.6953125,-29.78515625,-90.33203125,0.0
1734504140.81574,-67.3828125,93.26171875,-23.4375,-90.33203125,0.0
1734504140.8196454,-66.89453125,-84.47265625,-24.4140625,-81.0546875,0.0
1734504140.823551,-52.734375,-293.45703125,-27.34375,-73.2421875,0.0
1734504140.8274562,-41.015625,-162.109375,-38.57421875,-65.4296875,0.0
1734504140.8313618,-36.62109375,113.76953125,-31.73828125,-55.6640625,0.0
1734504140.835267,-38.57421875,65.91796875,-26.85546875,-56.640625,0.0
1734504140.8391726,-43.45703125,-292.96875,-25.390625,-44.921875,0.0
1734504140.843078,-47.8515625,-56.640625,-17.578125,-43.45703125,0.0
1734504140.8469834,-41.015625,205.56640625,-10.25390625,-46.38671875,0.0
1734504140.8510523,-39.0625,26.3671875,-12.6953125,-35.64453125,0.0
1734504140.8549578,-52.734375,-82.51953125,-33.203125,-37.59765625,0.0
1734504140.858863,-67.87109375,20.01953125,-45.8984375,-55.17578125,0.0
1734504140.8627687,-60.546875,62.01171875,-43.9453125,-45.8984375,0.0
1734504140.866674,-43.45703125,-109.86328125,-38.0859375,-37.109375,0.0
1734504140.8705795,-54.19921875,-168.9453125,-24.4140625,-47.36328125,0.0
1734504140.8744848,-54.6875,-48.828125,-13.18359375,-40.52734375,0.0
1734504140.8783903,-52.24609375,30.2734375,-28.3203125,-41.50390625,0.0
1734504140.8822956,-71.2890625,-83.984375,-25.87890625,-56.15234375,0.0
1734504140.8862011,-90.33203125,-231.93359375,-26.3671875,-62.5,0.0
1734504140.8901064,-86.9140625,185.05859375,-37.109375,-75.1953125,0.0
1734504140.894012,-79.1015625,230.95703125,-17.08984375,-72.75390625,0.0
1734504140.8980446,-65.91796875,-52.24609375,-15.13671875,-54.6875,0.0
1734504140.90195,-60.546875,9.27734375,-31.73828125,-59.5703125,0.0
1734504140.9058554,-86.42578125,85.44921875,-46.38671875,-82.51953125,0.0
1734504140.9097607,-87.40234375,25.390625,-44.43359375,-87.890625,0.0
1734504140.9136662,-69.82421875,-154.78515625,-30.2734375,-77.63671875,0.0
1734504140.9175715,-77.63671875,-171.875,-39.55078125,-78.125,0.0
1734504140.921477,-86.42578125,10.25390625,-39.55078125,-85.44921875,0.0
1734504140.9253824,-69.82421875,55.6640625,-34.1796875,-74.70703125,0.0
1734504140.929288,-43.9453125,-266.11328125,-27.83203125,-39.55078125,0.0
1734504140.9331932,-38.57421875,-22.94921875,4.8828125,-36.62109375,0.0
1734504140.9370987,-51.7578125,224.12109375,1.953125,-62.98828125,0.0
1734504140.941004,-79.58984375,-69.82421875,-28.3203125,-81.54296875,0.0
1734504140.94499,-87.890625,-57.12890625,-31.25,-85.9375,0.0
1734504140.9488952,-72.265625,91.796875,-28.80859375,-70.80078125,0.0
1734504140.9528008,-55.6640625,70.3125,-16.11328125,-55.6640625,0.0
1734504140.956706,-49.31640625,-36.62109375,-13.671875,-52.24609375,0.0
1734504140.9606116,-64.94140625,-130.859375,-42.48046875,-64.453125,0.0
1734504140.9645169,-74.21875,-132.32421875,-34.66796875,-78.125,0.0
1734504140.9684224,-71.77734375,-29.78515625,-11.71875,-79.1015625,0.0
1734504140.9723277,-67.3828125,-93.26171875,-19.04296875,-74.70703125,0.0
1734504140.9762332,-63.4765625,-280.2734375,-19.04296875,-60.05859375,0.0
1734504140.9801388,-58.59375,154.78515625,-13.18359375,-65.91796875,0.0
1734504140.984044,-54.19921875,203.61328125,-7.32421875,-69.3359375,0.0
1734504140.9879496,-55.17578125,-93.75,-16.11328125,-65.91796875,0.0
1734504140.9918885,-54.6875,8.30078125,-25.390625,-69.82421875,0.0
1734504140.995794,-63.96484375,53.22265625,-28.80859375,-78.61328125,0.0
1734504140.9996994,-67.87109375,-117.1875,-27.83203125,-92.28515625,0.0
1734504141.003605,-61.03515625,-142.578125,-28.3203125,-85.44921875,0.0
1734504141.0075102,-63.4765625,3.41796875,-37.59765625,-82.51953125,0.0
1734504141.0114157,-84.47265625,-49.8046875,-43.9453125,-104.00390625,0.0
1734504141.015321,-84.47265625,-71.2890625,-29.78515625,-99.12109375,0.0
1734504141.0192266,-69.82421875,-176.26953125,-14.16015625,-78.61328125,0.0
1734504141.023132,-63.96484375,-38.0859375,-16.6015625,-73.73046875,0.0
1734504141.0270374,-55.6640625,256.8359375,-16.6015625,-68.84765625,0.0
1734504141.030943,-43.45703125,92.28515625,-20.5078125,-59.08203125,0.0
1734504141.0348482,-36.62109375,-81.54296875,-22.94921875,-52.24609375,0.0
1734504141.0387425,-42.48046875,61.5234375,-36.62109375,-46.38671875,0.0
1734504141.0426478,-42.96875,94.7265625,-45.41015625,-40.0390625,0.0
1734504141.0465534,-36.1328125,-60.05859375,-12.6953125,-40.0390625,0.0
1734504141.050459,-35.64453125,-75.1953125,-2.44140625,-43.45703125,0.0
1734504141.0543642,-38.57421875,-50.78125,-21.484375,-38.57421875,0.0
1734504141.0582697,-43.9453125,-64.453125,-23.92578125,-49.8046875,0.0
1734504141.062175,-52.734375,-164.55078125,-17.08984375,-61.03515625,0.0
1734504141.0660806,-59.08203125,-367.67578125,-15.13671875,-53.22265625,0.0
1734504141.0699859,-70.3125,92.7734375,-25.390625,-83.0078125,0.0
1734504141.0738914,-66.89453125,262.20703125,-36.1328125,-75.1953125,0.0
1734504141.0777967,-61.03515625,-21.97265625,-43.45703125,-57.12890625,0.0
1734504141.0817022,-64.94140625,-26.3671875,-39.0625,-76.171875,0.0
1734504141.0855572,-67.3828125,69.3359375,-30.2734375,-76.66015625,0.0
1734504141.0894628,-65.91796875,8.7890625,-26.85546875,-71.2890625,0.0
1734504141.093368,-48.33984375,-136.23046875,-19.04296875,-51.7578125,0.0
1734504141.0972736,-37.59765625,20.99609375,-14.6484375,-35.64453125,0.0
1734504141.101179,-43.9453125,81.54296875,-1.953125,-44.43359375,0.0
1734504141.1050844,-41.015625,-140.13671875,-1.46484375,-47.8515625,0.0
1734504141.1089897,-35.15625,-277.83203125,-14.16015625,-45.41015625,0.0
1734504141.1128953,-59.5703125,-80.078125,-30.76171875,-56.640625,0.0
1734504141.1168005,-59.08203125,153.3203125,-41.015625,-53.22265625,0.0
1734504141.120706,-41.50390625,90.33203125,-36.1328125,-49.31640625,0.0
1734504141.1246114,-32.71484375,-64.453125,-26.85546875,-60.546875,0.0
1734504141.128517,-31.25,10.7421875,-36.1328125,-62.5,0.0
1734504141.1323147,-24.4140625,51.26953125,-47.8515625,-56.640625,0.0
1734504141.13622,-28.80859375,-64.453125,-41.9921875,-49.31640625,0.0
1734504141.1401255,-31.73828125,-97.65625,-19.04296875,-53.22265625,0.0
1734504141.1440308,-23.92578125,13.18359375,-11.71875,-57.12890625,0.0
1734504141.1479363,-23.92578125,-83.49609375,-14.16015625,-53.22265625,0.0
1734504141.1518416,-17.08984375,-248.53515625,-9.765625,-46.875,0.0
1734504141.1557472,-0.9765625,-146.97265625,-13.671875,-30.2734375,0.0
1734504141.1596525,-23.92578125,45.41015625,-31.25,-62.5,0.0
1734504141.163558,-41.015625,106.4453125,-42.48046875,-93.75,0.0
1734504141.1674635,-35.15625,-119.62890625,-36.62109375,-72.265625,0.0
1734504141.1713688,-36.62109375,-258.30078125,-27.34375,-62.5,0.0
1734504141.1752744,-33.69140625,-0.9765625,-26.85546875,-70.3125,0.0
1734504141.1793964,-24.90234375,76.171875,-24.90234375,-67.3828125,0.0
1734504141.183302,-24.4140625,-85.9375,-17.08984375,-62.98828125,0.0
1734504141.1872072,-25.390625,-44.921875,-10.7421875,-62.98828125,0.0
1734504141.1911128,-23.4375,59.5703125,-10.7421875,-63.4765625,0.0
1734504141.1950183,-25.87890625,25.87890625,-20.01953125,-57.12890625,0.0
1734504141.1989236,-30.76171875,-242.67578125,-21.97265625,-64.453125,0.0
1734504141.2028291,-27.83203125,-137.6953125,-17.578125,-65.91796875,0.0
1734504141.2067344,-21.484375,169.43359375,-22.94921875,-68.359375,0.0
1734504141.21064,-14.6484375,11.71875,-27.83203125,-57.6171875,0.0
1734504141.2145452,-15.625,-240.72265625,-20.01953125,-40.0390625,0.0
1734504141.2184508,-21.484375,0.48828125,-10.25390625,-52.24609375,0.0
1734504141.222356,-9.27734375,130.859375,-14.6484375,-53.22265625,0.0
1734504141.226438,-10.7421875,-56.15234375,-22.4609375,-50.78125,0.0
1734504141.2303436,-12.20703125,-109.86328125,-31.25,-42.48046875,0.0
1734504141.2342489,7.8125,-44.43359375,-54.19921875,-33.69140625,0.0
1734504141.2381544,-3.90625,91.30859375,-56.15234375,-60.05859375,0.0
1734504141.24206,-32.2265625,0.0,-35.15625,-89.84375,0.0
1734504141.2459652,-27.34375,-186.03515625,-6.8359375,-83.984375,0.0
1734504141.2498708,-16.11328125,-116.2109375,-9.27734375,-65.4296875,0.0
1734504141.253776,-22.94921875,92.28515625,-21.484375,-72.75390625,0.0
1734504141.2576816,-23.4375,0.0,-19.53125,-70.80078125,0.0
1734504141.261587,-17.578125,-317.3828125,-16.6015625,-44.43359375,0.0
1734504141.2654924,-16.6015625,103.02734375,-22.94921875,-45.41015625,0.0
1734504141.2693977,-21.484375,183.59375,-25.87890625,-65.91796875,0.0
1734504141.2734296,0.0,-60.05859375,-22.94921875,-70.3125,0.0
1734504141.277335,0.0,42.96875,-43.45703125,-70.3125,0.0
1734504141.2812405,0.0,108.3984375,-44.921875,-65.91796875,0.0
1734504141.2851458,0.0,-4.8828125,-31.25,-65.4296875,0.0
1734504141.2890513,0.0,-196.2890625,-20.99609375,-60.05859375,0.0
1734504141.2929568,0.0,-174.8046875,-27.83203125,-50.78125,0.0
1734504141.2968621,0.0,-34.1796875,-39.55078125,-51.7578125,0.0
1734504141.3007677,0.0,-42.48046875,-34.1796875,-56.15234375,0.0
1734504141.304673,0.0,-260.25390625,-21.97265625,-60.05859375,0.0
1734504141.3085785,0.0,-32.71484375,-15.625,-60.05859375,0.0
1734504141.3124838,0.0,278.80859375,-28.3203125,-66.89453125,0.0
1734504141.3163893,0.0,76.66015625,-33.69140625,-74.70703125,0.0
1734504141.3203807,-12.6953125,-68.359375,-16.6015625,-55.6640625,0.0
1734504141.3242862,-10.7421875,28.80859375,-25.87890625,-54.6875,0.0
1734504141.3281915,-29.78515625,8.30078125,-35.64453125,-69.3359375,0.0
1734504141.332097,-34.1796875,-76.66015625,-25.87890625,-66.89453125,0.0
1734504141.3360023,-33.203125,-103.515625,-34.1796875,-62.98828125,0.0
1734504141.339908,-34.1796875,-121.58203125,-31.25,-62.5,0.0
1734504141.3438132,-29.296875,-58.59375,-31.73828125,-65.4296875,0.0
1734504141.3477187,-28.3203125,-126.46484375,-52.734375,-64.453125,0.0
1734504141.351624,-31.73828125,-324.70703125,-36.62109375,-53.22265625,0.0
1734504141.3555295,-27.83203125,138.18359375,-13.18359375,-59.5703125,0.0
1734504141.3594348,-24.4140625,272.4609375,-22.94921875,-64.453125,0.0
1734504141.3633404,-21.97265625,-51.26953125,-20.99609375,-64.453125,0.0
1734504141.3672936,-33.203125,-32.2265625,-19.53125,-76.66015625,0.0
1734504141.3711991,-39.55078125,38.57421875,-25.390625,-86.42578125,0.0
1734504141.3751044,-31.73828125,5.37109375,-34.66796875,-83.0078125,0.0
1734504141.37901,-24.4140625,-81.0546875,-46.875,-71.77734375,0.0
1734504141.3829153,-16.6015625,-41.015625,-39.0625,-60.546875,0.0
1734504141.3868208,-22.94921875,-128.90625,-31.73828125,-60.546875,0.0
1734504141.390726,-24.90234375,-128.90625,-34.66796875,-62.98828125,0.0
1734504141.3946316,-20.99609375,-193.84765625,-32.71484375,-42.96875,0.0
1734504141.3985372,-37.109375,-29.78515625,-39.55078125,-43.9453125,0.0
1734504141.4024425,-48.33984375,227.5390625,-34.66796875,-58.59375,0.0
1734504141.406348,-37.109375,0.48828125,-26.3671875,-57.12890625,0.0
1734504141.4102533,-30.76171875,-198.73046875,-40.0390625,-50.78125,0.0
1734504141.414137,-34.1796875,-62.98828125,-37.59765625,-50.78125,0.0
1734504141.4180424,-47.36328125,89.35546875,-38.0859375,-67.87109375,0.0
1734504141.4219477,-49.31640625,-62.5,-40.0390625,-73.73046875,0.0
1734504141.4258533,-41.50390625,-145.99609375,-30.76171875,-74.70703125,0.0
1734504141.4297585,-46.875,-89.35546875,-30.2734375,-77.1484375,0.0
1734504141.433664,-42.96875,-50.78125,-20.99609375,-74.70703125,0.0
1734504141.4375694,-27.34375,-134.27734375,-21.484375,-66.40625,0.0
1734504141.441475,-30.2734375,-358.88671875,-39.55078125,-57.12890625,0.0
1734504141.4453802,-50.29296875,75.68359375,-42.48046875,-77.63671875,0.0
1734504141.4492857,-48.33984375,196.2890625,-32.2265625,-83.49609375,0.0
1734504141.4531913,-28.80859375,-52.24609375,-27.83203125,-66.89453125,0.0
1734504141.4570966,-24.4140625,4.8828125,-36.1328125,-63.4765625,0.0
1734504141.4609365,-24.4140625,61.03515625,-33.203125,-68.84765625,0.0
1734504141.4648418,-28.3203125,-26.3671875,-41.9921875,-65.91796875,0.0
1734504141.4687474,-32.71484375,-215.33203125,-63.4765625,-58.59375,0.0
1734504141.4726527,-30.76171875,-99.609375,-55.6640625,-59.5703125,0.0
1734504141.4765582,-35.15625,76.171875,-50.78125,-66.40625,0.0
1734504141.4804635,-23.4375,-91.796875,-37.109375,-61.5234375,0.0
1734504141.484369,-6.34765625,-315.4296875,-28.3203125,-46.875,0.0
1734504141.4882743,-24.90234375,-149.4140625,-33.203125,-41.9921875,0.0
1734504141.4921799,-35.64453125,193.84765625,-29.296875,-48.33984375,0.0
1734504141.4960852,-23.4375,56.640625,-20.99609375,-54.19921875,0.0
1734504141.4999907,-33.69140625,-175.29296875,-31.73828125,-70.80078125,0.0
1734504141.503896,-38.57421875,-90.8203125,-35.64453125,-75.68359375,0.0
1734504141.5076926,-39.0625,13.18359375,-40.52734375,-68.84765625,0.0
1734504141.511598,-40.0390625,-57.6171875,-52.734375,-76.66015625,0.0
1734504141.5155034,-30.76171875,-118.1640625,-40.0390625,-72.265625,0.0
1734504141.519409,-25.390625,1.953125,-36.1328125,-66.89453125,0.0
1734504141.5233142,-34.1796875,-112.79296875,-64.453125,-87.40234375,0.0
1734504141.5272198,-36.1328125,-270.99609375,-65.4296875,-91.30859375,0.0
1734504141.5311253,-16.6015625,-173.33984375,-24.4140625,-69.82421875,0.0
1734504141.5350306,-22.4609375,-40.0390625,-11.23046875,-71.77734375,0.0
1734504141.5389361,-46.38671875,151.85546875,-32.2265625,-90.33203125,0.0
1734504141.5428414,-35.15625,-51.7578125,-35.15625,-90.8203125,0.0
1734504141.546747,-20.99609375,-233.88671875,-44.43359375,-77.63671875,0.0
1734504141.5506523,-18.06640625,145.01953125,-62.98828125,-73.2421875,0.0
1734504141.5547662,-23.4375,138.671875,-63.4765625,-78.125,0.0
1734504141.5586717,-14.6484375,-91.30859375,-45.8984375,-71.77734375,0.0
1734504141.562577,-1.953125,-8.7890625,-26.85546875,-57.6171875,0.0
1734504141.5664825,-11.71875,69.3359375,-30.2734375,-56.15234375,0.0
1734504141.5703878,-20.5078125,-5.859375,-37.59765625,-47.36328125,0.0
1734504141.5742934,-24.4140625,-238.76953125,-32.71484375,-44.43359375,0.0
1734504141.5781987,-33.203125,-82.51953125,-39.0625,-61.03515625,0.0
1734504141.5821042,-31.73828125,184.08203125,-50.78125,-64.453125,0.0
1734504141.5860095,-32.71484375,-31.73828125,-46.875,-65.4296875,0.0
1734504141.589915,-40.52734375,-326.171875,-53.22265625,-65.4296875,0.0
1734504141.5938206,-48.828125,-41.015625,-66.40625,-64.94140625,0.0
1734504141.5977259,-48.828125,155.76171875,-47.8515625,-70.80078125,0.0
1734504141.602151,-46.38671875,-85.44921875,-17.08984375,-57.6171875,0.0
1734504141.6060565,-36.62109375,-198.2421875,-18.5546875,-57.12890625,0.0
1734504141.6099617,-12.20703125,2.9296875,-25.390625,-54.6875,0.0
1734504141.6138673,-16.11328125,125.48828125,-20.99609375,-64.94140625,0.0
1734504141.6177726,-46.38671875,0.0,-41.50390625,-92.7734375,0.0
1734504141.621678,-53.7109375,-133.7890625,-52.734375,-96.19140625,0.0
1734504141.6255834,-55.6640625,-118.65234375,-43.45703125,-95.703125,0.0
1734504141.629489,-50.29296875,6.34765625,-32.71484375,-94.23828125,0.0
1734504141.6333942,-36.1328125,-37.109375,-36.62109375,-71.2890625,0.0
1734504141.6372998,-30.76171875,-225.09765625,-54.19921875,-54.19921875,0.0
1734504141.6412053,-39.55078125,174.31640625,-47.8515625,-72.265625,0.0
1734504141.6451106,-41.50390625,170.8984375,-30.76171875,-83.49609375,0.0
1734504141.6494784,-33.69140625,-114.2578125,-27.83203125,-73.73046875,0.0
1734504141.653384,-22.94921875,38.0859375,-37.109375,-70.80078125,0.0
1734504141.6572893,-23.92578125,142.08984375,-37.109375,-69.3359375,0.0
1734504141.6611948,-28.80859375,18.5546875,-35.15625,-52.24609375,0.0
1734504141.6651,-21.484375,-165.0390625,-34.1796875,-45.41015625,0.0
1734504141.6690056,-11.23046875,-151.3671875,-32.71484375,-46.875,0.0
1734504141.6729112,-11.71875,-0.48828125,-33.69140625,-40.52734375,0.0
1734504141.6768165,-22.4609375,97.16796875,-33.69140625,-44.43359375,0.0
1734504141.680722,-22.94921875,-114.2578125,-32.2265625,-43.9453125,0.0
1734504141.6846273,-25.87890625,-46.38671875,-28.80859375,-41.015625,0.0
1734504141.6885328,-34.1796875,121.09375,-31.73828125,-39.0625,0.0
1734504141.6924381,-28.80859375,9.27734375,-33.69140625,-33.203125,0.0
1734504141.6963894,-16.11328125,-312.5,-41.9921875,-31.73828125,0.0
1734504141.700295,-27.34375,-22.4609375,-48.828125,-42.96875,0.0
1734504141.7042003,-38.57421875,171.38671875,-41.015625,-51.7578125,0.0
1734504141.7081058,-36.62109375,-129.8828125,-29.78515625,-54.6875,0.0
1734504141.712011,-42.48046875,-114.2578125,-21.97265625,-53.7109375,0.0
1734504141.7159166,-26.85546875,-18.5546875,-4.39453125,-36.62109375,0.0
1734504141.7198222,-18.06640625,-19.04296875,4.8828125,-33.69140625,0.0
1734504141.7237275,-31.73828125,-97.65625,-9.27734375,-46.875,0.0
1734504141.727633,-32.71484375,-12.20703125,-22.94921875,-48.828125,0.0
1734504141.7315383,-30.76171875,150.390625,-35.15625,-46.875,0.0
1734504141.7354438,-28.80859375,124.0234375,-31.25,-44.921875,0.0
1734504141.7393491,-29.78515625,-149.4140625,-22.94921875,-30.76171875,0.0
1734504141.7432668,-36.62109375,-319.82421875,-27.34375,-28.80859375,0.0
1734504141.7471724,-45.41015625,101.5625,-37.59765625,-51.7578125,0.0
1734504141.7510777,-37.59765625,126.953125,-44.921875,-46.875,0.0
1734504141.7549832,-21.97265625,-96.6796875,-32.71484375,-31.25,0.0
1734504141.7588885,-19.04296875,-37.59765625,-23.92578125,-32.71484375,0.0
1734504141.762794,-21.97265625,-93.26171875,-25.390625,-32.71484375,0.0
1734504141.7666993,-16.11328125,-112.79296875,-28.80859375,-34.1796875,0.0
1734504141.7706048,-3.90625,-184.5703125,-42.96875,-32.2265625,0.0
1734504141.7745104,-3.90625,3.41796875,-41.9921875,-19.53125,0.0
1734504141.7784157,-13.18359375,274.90234375,-20.5078125,-16.11328125,0.0
1734504141.7823212,-4.39453125,53.7109375,-12.6953125,-27.34375,0.0
1734504141.7862265,-3.41796875,-136.71875,-23.4375,-40.0390625,0.0
1734504141.7900746,-8.7890625,19.53125,-27.83203125,-39.55078125,0.0
1734504141.7939801,-5.37109375,72.75390625,-34.1796875,-40.0390625,0.0
1734504141.7978854,-23.92578125,-63.4765625,-45.8984375,-50.29296875,0.0
1734504141.801791,-48.33984375,-102.05078125,-43.45703125,-60.546875,0.0
1734504141.8056965,-42.96875,-83.0078125,-40.52734375,-57.12890625,0.0
1734504141.8096018,-21.97265625,-103.02734375,-30.76171875,-44.921875,0.0
1734504141.8135073,-13.18359375,-166.50390625,-18.5546875,-38.57421875,0.0
1734504141.8174126,-20.99609375,-344.7265625,-27.34375,-37.59765625,0.0
1734504141.8213181,-25.390625,51.7578125,-41.9921875,-44.43359375,0.0
1734504141.8252234,-19.53125,74.21875,-41.50390625,-44.43359375,0.0
1734504141.829129,-21.484375,-133.30078125,-32.71484375,-42.96875,0.0
1734504141.8330345,-23.92578125,33.203125,-31.25,-48.33984375,0.0
1734504141.8372014,-16.11328125,117.67578125,-34.1796875,-43.9453125,0.0
1734504141.841107,-17.578125,21.484375,-39.0625,-43.9453125,0.0
1734504141.8450122,-21.97265625,-166.015625,-36.1328125,-47.8515625,0.0
1734504141.8489177,-17.08984375,-45.8984375,-35.64453125,-43.45703125,0.0
1734504141.852823,-19.53125,44.43359375,-37.59765625,-31.73828125,0.0
1734504141.8567286,-16.6015625,-83.984375,-28.3203125,-31.25,0.0
1734504141.860634,-14.16015625,-264.6484375,-35.15625,-30.76171875,0.0
1734504141.8645394,-24.4140625,-92.7734375,-51.26953125,-27.34375,0.0
1734504141.868445,-27.34375,229.4921875,-51.7578125,-39.55078125,0.0
1734504141.8723502,-26.85546875,62.01171875,-36.1328125,-36.62109375,0.0
1734504141.8762558,-30.2734375,-100.09765625,-34.66796875,-24.90234375,0.0
1734504141.880161,-20.5078125,39.55078125,-40.52734375,-41.50390625,0.0
1734504141.8839152,-17.08984375,-4.39453125,-33.69140625,-49.31640625,0.0
1734504141.8878205,-20.5078125,-190.91796875,-39.0625,-38.0859375,0.0
1734504141.891726,-17.578125,-76.171875,-34.66796875,-39.0625,0.0
1734504141.8956313,-21.97265625,129.39453125,-20.99609375,-46.38671875,0.0
1734504141.8995368,-15.625,32.71484375,-33.203125,-47.36328125,0.0
1734504141.9034424,17.08984375,-145.5078125,-50.78125,-12.6953125,0.0
1734504141.9073477,15.625,-137.6953125,-30.2734375,2.44140625,0.0
1734504141.9112532,-30.76171875,1.953125,-7.8125,-40.52734375,0.0
1734504141.9151585,-39.0625,162.59765625,-23.92578125,-64.94140625,0.0
1734504141.919064,-45.8984375,-97.16796875,-20.5078125,-62.98828125,0.0
1734504141.9229693,-73.73046875,-378.41796875,-0.9765625,-59.5703125,0.0
1734504141.9268749,-75.68359375,77.63671875,4.39453125,-66.89453125,0.0
1734504141.9309506,-84.9609375,163.0859375,10.25390625,-79.1015625,0.0
1734504141.934856,-100.5859375,-99.609375,12.6953125,-84.9609375,0.0
1734504141.9387615,-98.6328125,-42.48046875,18.06640625,-78.125,0.0
1734504141.942667,-89.35546875,-55.6640625,29.78515625,-68.84765625,0.0
1734504141.9465723,-96.6796875,-180.17578125,36.62109375,-76.66015625,0.0
1734504141.9504778,-98.14453125,-273.4375,36.62109375,-67.87109375,0.0
1734504141.9543831,-86.42578125,-93.26171875,24.90234375,-55.6640625,0.0
1734504141.9582887,-82.51953125,135.25390625,17.578125,-64.453125,0.0
1734504141.962194,-96.19140625,-54.6875,27.34375,-71.2890625,0.0
1734504141.9660995,-100.09765625,-344.7265625,22.94921875,-53.7109375,0.0
1734504141.9700048,-88.8671875,-106.93359375,0.9765625,-46.38671875,0.0
1734504141.9739103,-77.1484375,104.4921875,10.25390625,-49.31640625,0.0
1734504141.9779375,-76.171875,-92.28515625,45.41015625,-52.734375,0.0
1734504141.9818428,-90.8203125,-226.07421875,52.734375,-65.91796875,0.0
1734504141.9857483,-103.515625,-78.125,49.8046875,-71.2890625,0.0
1734504141.9896538,-88.8671875,-43.9453125,55.17578125,-52.734375,0.0
1734504141.9935591,-69.3359375,-178.22265625,41.015625,-30.76171875,0.0
1734504141.9974647,-65.4296875,-275.87890625,13.18359375,-0.48828125,0.0
1734504142.00137,-58.59375,-229.98046875,14.6484375,10.25390625,0.0
1734504142.0052755,-62.98828125,-117.1875,41.015625,-1.46484375,0.0
1734504142.0091808,-70.3125,-206.54296875,37.59765625,-2.9296875,0.0
1734504142.0130863,-31.25,-363.28125,59.5703125,16.11328125,0.0
1734504142.0169919,-12.20703125,48.33984375,85.44921875,21.484375,0.0
1734504142.0208972,-51.26953125,79.58984375,22.94921875,7.32421875,0.0
1734504142.0248756,-77.63671875,-192.87109375,-9.27734375,-15.13671875,0.0
1734504142.0287812,-64.453125,-114.2578125,18.06640625,-11.71875,0.0
1734504142.0326865,-49.8046875,-7.8125,-8.30078125,8.7890625,0.0
1734504142.036592,-41.9921875,-85.44921875,-10.7421875,15.625,0.0
1734504142.0404973,-23.4375,-252.9296875,35.15625,38.57421875,0.0
1734504142.0444028,-25.390625,-261.23046875,18.5546875,39.0625,0.0
1734504142.0483081,-12.6953125,-117.1875,-38.57421875,48.828125,0.0
1734504142.0522137,3.41796875,-30.2734375,-24.4140625,62.5,0.0
1734504142.0561192,9.765625,-298.33984375,11.23046875,58.10546875,0.0
1734504142.0600245,42.96875,-200.1953125,-9.27734375,64.453125,0.0
1734504142.06393,45.8984375,32.2265625,-33.203125,77.1484375,0.0
1734504142.0678353,14.6484375,-36.1328125,-19.04296875,69.82421875,0.0
1734504142.0717728,-9.27734375,-117.1875,-31.73828125,51.26953125,0.0
1734504142.075678,15.625,-33.69140625,-43.9453125,62.01171875,0.0
1734504142.0795836,27.34375,-23.92578125,-11.71875,66.40625,0.0
1734504142.083489,16.11328125,-134.765625,-7.8125,54.6875,0.0
1734504142.0873945,38.0859375,-250.9765625,-59.08203125,73.73046875,0.0
1734504142.0913,52.24609375,-206.0546875,-64.453125,80.078125,0.0
1734504142.0952053,34.66796875,-61.03515625,-39.55078125,59.08203125,0.0
1734504142.0991108,25.87890625,-188.4765625,-56.15234375,66.89453125,0.0
1734504142.1030161,41.9921875,-380.859375,-68.84765625,83.49609375,0.0
1734504142.1069217,59.08203125,47.8515625,-96.6796875,90.33203125,0.0
1734504142.110827,50.78125,131.34765625,-126.46484375,101.5625,0.0
1734504142.1147325,47.36328125,-102.05078125,-130.859375,83.49609375,0.0
1734504142.1186323,62.5,-77.63671875,-129.8828125,93.26171875,0.0
1734504142.1225376,40.0390625,-86.9140625,-94.23828125,86.42578125,0.0
1734504142.1264431,22.4609375,-62.98828125,-54.6875,49.8046875,0.0
1734504142.1303484,37.109375,-82.03125,-82.51953125,58.10546875,0.0
1734504142.134254,37.109375,-16.11328125,-138.18359375,104.98046875,0.0
1734504142.1381595,34.66796875,-48.33984375,-191.40625,90.33203125,0.0
1734504142.1420648,41.015625,-88.37890625,-167.96875,47.36328125,0.0
1734504142.1459703,39.55078125,-212.40234375,-142.578125,59.08203125,0.0
1734504142.1498756,-6.34765625,-8.30078125,-176.26953125,51.26953125,0.0
1734504142.1537812,-59.5703125,335.44921875,-193.84765625,45.8984375,0.0
1734504142.1576865,-51.26953125,196.2890625,-181.15234375,73.2421875,0.0
1734504142.161592,-59.5703125,113.76953125,-200.1953125,63.4765625,0.0
1734504142.1654758,0.0,302.734375,-208.49609375,68.84765625,0.0
1734504142.1693811,0.0,346.6796875,-191.89453125,95.703125,0.0
1734504142.1732867,0.0,208.49609375,-175.78125,67.3828125,0.0
1734504142.177192,0.0,174.31640625,-156.25,45.8984375,0.0
1734504142.1810975,0.0,208.49609375,-134.765625,42.48046875,0.0
1734504142.1850028,0.0,257.32421875,-138.671875,39.55078125,0.0
1734504142.1889083,0.0,277.83203125,-175.29296875,46.38671875,0.0
1734504142.1928139,0.0,332.51953125,-200.68359375,53.7109375,0.0
1734504142.1967192,0.0,705.56640625,-177.734375,31.25,0.0
1734504142.2006247,0.0,774.4140625,-165.52734375,17.08984375,0.0
1734504142.20453,0.0,547.8515625,-168.9453125,23.4375,0.0
1734504142.2084355,0.0,599.12109375,-190.4296875,32.2265625,0.0
1734504142.2112372,-82.03125,835.44921875,-204.58984375,27.34375,0.0
1734504142.2151427,-80.078125,809.08203125,-190.4296875,12.20703125,0.0
1734504142.219048,-92.7734375,654.78515625,-180.17578125,-0.48828125,0.0
1734504142.2229536,-100.09765625,734.375,-176.7578125,-13.18359375,0.0
1734504142.2268589,-113.28125,825.68359375,-167.96875,-4.8828125,0.0
1734504142.2307644,-134.27734375,725.09765625,-164.0625,10.7421875,0.0
1734504142.23467,-144.53125,587.890625,-154.78515625,14.6484375,0.0
1734504142.2385752,-151.85546875,721.19140625,-144.04296875,6.34765625,0.0
1734504142.2424808,-153.80859375,996.58203125,-158.203125,-10.25390625,0.0
1734504142.246386,-152.83203125,915.52734375,-160.64453125,-5.37109375,0.0
1734504142.2502916,-164.0625,756.8359375,-143.06640625,18.06640625,0.0
1734504142.254197,-179.19921875,859.375,-104.00390625,4.39453125,0.0
1734504142.258003,-209.47265625,902.34375,-60.05859375,-5.37109375,0.0
1734504142.2619083,-197.75390625,828.61328125,-10.25390625,4.8828125,0.0
1734504142.2658138,-161.62109375,804.19921875,18.06640625,-7.32421875,0.0
1734504142.2697191,-151.85546875,946.2890625,18.5546875,-24.90234375,0.0
1734504142.2736247,-161.62109375,873.53515625,19.04296875,-16.11328125,0.0
1734504142.27753,-144.04296875,696.77734375,-9.27734375,-8.7890625,0.0
1734504142.2814355,-134.27734375,673.33984375,-27.34375,-14.16015625,0.0
1734504142.285341,-149.4140625,735.3515625,18.5546875,-20.99609375,0.0
1734504142.2892463,-144.53125,845.21484375,48.33984375,-19.04296875,0.0
1734504142.2931519,-111.81640625,603.02734375,45.41015625,0.9765625,0.0
1734504142.2970572,-106.4453125,290.0390625,48.33984375,18.5546875,0.0
1734504142.3009627,-122.55859375,665.0390625,48.828125,-3.90625,0.0
1734504142.305116,-107.421875,681.15234375,46.38671875,-25.87890625,0.0
1734504142.3090215,-89.35546875,444.3359375,41.9921875,-31.73828125,0.0
1734504142.312927,-95.703125,569.3359375,53.22265625,-20.99609375,0.0
1734504142.3168323,-95.21484375,643.06640625,46.875,-14.6484375,0.0
1734504142.3207378,-79.58984375,547.36328125,33.203125,-23.92578125,0.0
1734504142.3246431,-67.87109375,292.48046875,30.76171875,-20.99609375,0.0
1734504142.3285487,-79.58984375,401.3671875,34.66796875,-27.34375,0.0
1734504142.332454,-98.6328125,649.4140625,39.0625,-45.41015625,0.0
1734504142.3363595,-72.75390625,519.53125,52.734375,-53.7109375,0.0
1734504142.3402648,-34.66796875,215.8203125,78.61328125,-44.43359375,0.0
1734504142.3441703,-55.17578125,377.9296875,92.28515625,-33.69140625,0.0
1734504142.3480756,-74.21875,560.05859375,77.63671875,-26.3671875,0.0
1734504142.3521638,-63.96484375,448.73046875,62.5,-23.92578125,0.0
1734504142.3560693,-62.5,336.42578125,54.6875,-31.25,0.0
1734504142.3599746,-62.5,452.63671875,49.31640625,-37.109375,0.0
1734504142.3638802,-55.17578125,546.875,33.69140625,-38.57421875,0.0
1734504142.3677855,-51.7578125,362.3046875,21.484375,-48.33984375,0.0
1734504142.371691,-37.59765625,237.79296875,30.76171875,-32.71484375,0.0
1734504142.3755963,-16.6015625,339.35546875,59.5703125,-20.01953125,0.0
1734504142.3795018,-21.97265625,505.37109375,85.9375,-29.78515625,0.0
1734504142.3834074,-5.859375,359.86328125,37.109375,-16.6015625,0.0
1734504142.3873127,-21.484375,66.40625,-25.390625,-9.765625,0.0
1734504142.3912182,-62.98828125,431.640625,10.7421875,-45.41015625,0.0
1734504142.3951235,-66.40625,473.14453125,85.9375,-66.40625,0.0
1734504142.3991916,0.0,212.890625,104.00390625,-63.4765625,0.0
1734504142.403097,0.0,232.91015625,83.984375,-60.546875,0.0
1734504142.4070024,0.0,256.34765625,64.453125,-53.7109375,0.0
1734504142.4109077,0.0,179.6875,54.6875,-53.7109375,0.0
1734504142.4148133,0.0,18.06640625,48.33984375,-47.36328125,0.0
1734504142.4187186,0.0,7.32421875,32.2265625,-35.64453125,0.0
1734504142.422624,0.0,106.4453125,40.52734375,-28.80859375,0.0
1734504142.4265296,0.0,211.42578125,28.3203125,-33.203125,0.0
1734504142.430435,0.0,-52.24609375,-8.30078125,-36.1328125,0.0
1734504142.4343405,0.0,85.9375,49.8046875,-57.6171875,0.0
1734504142.4382458,0.0,390.625,83.0078125,-94.7265625,0.0
1734504142.4421513,0.0,156.25,63.96484375,-97.16796875,0.0
1734504142.4451659,-59.08203125,3.90625,76.171875,-83.49609375,0.0
1734504142.4490712,-49.31640625,134.27734375,64.94140625,-95.21484375,0.0
1734504142.4529767,-44.43359375,191.89453125,47.36328125,-128.90625,0.0
1734504142.4568822,-37.109375,80.078125,70.80078125,-142.08984375,0.0
1734504142.4607875,-27.34375,-41.9921875,83.49609375,-118.65234375,0.0
1734504142.464693,-16.6015625,-18.5546875,80.078125,-109.86328125,0.0
1734504142.4685984,4.39453125,86.42578125,76.171875,-133.7890625,0.0
1734504142.472504,1.953125,19.53125,64.94140625,-113.28125,0.0
1734504142.4764092,-24.4140625,-126.953125,53.22265625,-80.078125,0.0
1734504142.4803147,-51.26953125,256.34765625,75.68359375,-94.23828125,0.0
1734504142.48422,-79.1015625,293.45703125,92.7734375,-102.5390625,0.0
1734504142.4881256,-73.73046875,21.484375,83.0078125,-94.7265625,0.0
1734504142.492091,-52.734375,79.58984375,75.68359375,-74.70703125,0.0
1734504142.4959965,-34.1796875,199.21875,48.828125,-62.01171875,0.0
1734504142.4999018,-50.78125,123.046875,63.96484375,-83.0078125,0.0
1734504142.5038073,-62.01171875,-19.53125,101.5625,-93.26171875,0.0
1734504142.5077126,-50.29296875,58.59375,102.05078125,-75.1953125,0.0
1734504142.5116181,-44.921875,41.50390625,92.7734375,-84.47265625,0.0
1734504142.5155234,-52.24609375,65.4296875,80.078125,-89.84375,0.0
1734504142.519429,-43.45703125,-61.03515625,74.70703125,-68.84765625,0.0
1734504142.5233343,-35.64453125,80.56640625,75.1953125,-49.8046875,0.0
1734504142.5272398,-35.64453125,378.90625,58.10546875,-44.921875,0.0
1734504142.531145,-28.80859375,135.25390625,-2.44140625,-28.80859375,0.0
1734504142.5350506,-17.578125,-36.62109375,3.41796875,-35.15625,0.0
1734504142.5389686,0.0,112.79296875,57.6171875,-66.40625,0.0
1734504142.5428739,0.0,125.9765625,54.6875,-74.70703125,0.0
1734504142.5467794,0.0,-6.34765625,50.29296875,-63.96484375,0.0
1734504142.5506847,0.0,-9.27734375,58.59375,-61.03515625,0.0
1734504142.5545902,0.0,115.234375,44.921875,-57.6171875,0.0
1734504142.5584955,0.0,77.1484375,22.94921875,-42.96875,0.0
1734504142.562401,0.0,-54.19921875,41.015625,-27.34375,0.0
1734504142.5663066,0.0,-225.09765625,64.94140625,-24.4140625,0.0
1734504142.570212,0.0,159.66796875,54.19921875,-45.8984375,0.0
1734504142.5741174,0.0,291.50390625,36.62109375,-53.22265625,0.0
1734504142.5780227,0.0,47.36328125,42.48046875,-39.55078125,0.0
1734504142.5819283,0.0,60.546875,45.8984375,-32.71484375,0.0
1734504142.584764,-22.4609375,121.09375,48.828125,-47.8515625,0.0
1734504142.5886695,-43.9453125,17.08984375,38.57421875,-41.015625,0.0
1734504142.5925748,-31.25,-91.796875,4.8828125,-17.578125,0.0
1734504142.5964804,-21.97265625,41.9921875,35.64453125,-26.85546875,0.0
1734504142.6003857,-38.57421875,96.6796875,66.89453125,-50.29296875,0.0
1734504142.6042912,-31.73828125,-46.38671875,57.12890625,-54.6875,0.0
1734504142.6081965,-5.37109375,-206.54296875,42.96875,-27.83203125,0.0
1734504142.612102,-8.7890625,31.25,10.25390625,-14.6484375,0.0
1734504142.6160073,-18.06640625,336.42578125,-0.48828125,-59.08203125,0.0
1734504142.6199129,-16.6015625,143.06640625,28.80859375,-81.0546875,0.0
1734504142.6238182,-11.71875,-31.73828125,57.12890625,-70.80078125,0.0
1734504142.6277237,-15.625,101.5625,66.89453125,-76.66015625,0.0
1734504142.6315675,-45.8984375,167.96875,50.29296875,-78.61328125,0.0
1734504142.635473,-70.3125,39.55078125,46.875,-75.1953125,0.0
1734504142.6393783,-59.08203125,-40.0390625,54.19921875,-80.078125,0.0
1734504142.6432838,-39.55078125,73.2421875,54.6875,-79.58984375,0.0
1734504142.6471891,-36.62109375,6.34765625,59.08203125,-74.70703125,0.0
1734504142.6510947,-42.48046875,-90.33203125,36.62109375,-59.08203125,0.0
1734504142.655,-38.0859375,-29.296875,31.73828125,-50.29296875,0.0
1734504142.6589055,-26.3671875,23.4375,50.29296875,-57.6171875,0.0
1734504142.6628108,-36.62109375,154.296875,45.41015625,-50.29296875,0.0
1734504142.6667163,-42.96875,2.9296875,56.640625,-50.29296875,0.0
1734504142.6706219,-28.3203125,-207.51953125,77.63671875,-46.38671875,0.0
1734504142.6745272,-39.0625,232.91015625,51.7578125,-40.0390625,0.0
1734504142.6786895,-41.015625,252.44140625,-10.7421875,-49.8046875,0.0
1734504142.682595,-28.80859375,-22.4609375,16.11328125,-51.7578125,0.0
1734504142.6865005,-22.4609375,41.9921875,49.31640625,-45.8984375,0.0
1734504142.6904058,-20.99609375,166.015625,29.296875,-31.25,0.0
1734504142.6943114,-22.94921875,135.7421875,53.22265625,-35.15625,0.0
1734504142.6982167,2.9296875,-134.27734375,52.24609375,-37.109375,0.0
1734504142.7021222,-0.48828125,-20.99609375,52.734375,-39.0625,0.0
1734504142.7060275,-31.25,239.74609375,45.41015625,-39.0625,0.0
1734504142.709933,-16.6015625,42.96875,42.48046875,-31.73828125,0.0
1734504142.7138383,-7.32421875,-132.8125,32.71484375,-5.37109375,0.0
1734504142.7177439,-28.3203125,103.515625,3.41796875,-15.625,0.0
1734504142.7216492,-21.97265625,197.265625,17.08984375,-43.9453125,0.0
1734504142.7257855,-11.23046875,-5.859375,33.203125,-46.875,0.0
1734504142.7296908,-7.32421875,-50.78125,24.90234375,-38.57421875,0.0
1734504142.7335963,-7.32421875,121.09375,1.953125,-32.2265625,0.0
1734504142.7375016,-14.6484375,135.7421875,-0.48828125,-53.22265625,0.0
1734504142.7414072,-21.97265625,-41.9921875,23.92578125,-56.15234375,0.0
1734504142.7453125,-51.26953125,-125.9765625,13.18359375,-57.6171875,0.0
1734504142.749218,-55.6640625,-7.8125,11.71875,-55.17578125,0.0
1734504142.7531233,-46.875,142.08984375,-6.8359375,-44.921875,0.0
1734504142.7570288,-31.73828125,20.01953125,-13.671875,-20.99609375,0.0
1734504142.760934,-16.11328125,-211.9140625,51.7578125,-18.5546875,0.0
1734504142.7648396,-35.64453125,138.671875,67.3828125,-55.17578125,0.0
1734504142.768745,-40.52734375,134.765625,40.52734375,-60.05859375,0.0
1734504142.7728148,0.0,39.0625,22.4609375,-42.48046875,0.0
1734504142.7767203,0.0,198.2421875,-4.39453125,-32.71484375,0.0
1734504142.7806256,0.0,187.01171875,16.11328125,-43.45703125,0.0
1734504142.784531,0.0,70.80078125,62.98828125,-47.8515625,0.0
1734504142.7884364,0.0,-58.10546875,104.4921875,-39.0625,0.0
1734504142.792342,0.0,-33.203125,109.375,-45.8984375,0.0
1734504142.7962472,0.0,148.4375,72.265625,-34.66796875,0.0
1734504142.8001528,0.0,197.265625,75.68359375,-7.32421875,0.0
1734504142.8040583,0.0,-151.3671875,113.76953125,-1.953125,0.0
1734504142.8079636,0.0,4.39453125,128.41796875,-23.4375,0.0
1734504142.8118691,0.0,330.56640625,98.14453125,-40.0390625,0.0
1734504142.8157744,0.0,150.390625,82.03125,-23.92578125,0.0
1734504142.8187523,-32.2265625,34.66796875,92.28515625,-25.87890625,0.0
1734504142.8226578,-23.92578125,137.20703125,112.79296875,-41.50390625,0.0
1734504142.8265631,-21.484375,87.890625,115.234375,-14.6484375,0.0
1734504142.8304687,-0.48828125,3.90625,99.609375,-1.46484375,0.0
1734504142.834374,-12.20703125,42.96875,111.328125,-29.78515625,0.0
1734504142.8382795,-47.36328125,46.38671875,133.30078125,-39.0625,0.0
1734504142.8421848,-27.34375,54.6875,130.859375,-25.87890625,0.0
1734504142.8460903,-4.39453125,-28.80859375,117.67578125,-13.18359375,0.0
1734504142.8499956,-9.765625,-166.015625,103.02734375,17.578125,0.0
1734504142.8539011,-13.18359375,206.0546875,91.796875,19.04296875,0.0
1734504142.8578064,-15.13671875,258.7890625,72.75390625,-8.7890625,0.0
1734504142.861712,-5.37109375,-13.18359375,96.19140625,-9.27734375,0.0
1734504142.864668,-24.4140625,36.1328125,117.67578125,-3.90625,0.0
1734504142.8685734,-35.15625,133.7890625,99.12109375,6.34765625,0.0
1734504142.8724787,6.8359375,53.22265625,79.1015625,28.80859375,0.0
1734504142.8763843,9.765625,-47.36328125,96.6796875,19.53125,0.0
1734504142.8802896,-20.01953125,8.30078125,117.67578125,0.0,0.0
1734504142.884195,-39.55078125,-29.78515625,57.6171875,6.34765625,0.0
1734504142.8881004,-41.9921875,-29.78515625,56.15234375,16.11328125,0.0
1734504142.892006,-37.59765625,-148.92578125,105.95703125,18.5546875,0.0
1734504142.8959112,-31.73828125,21.484375,108.3984375,25.87890625,0.0
1734504142.8998168,-13.18359375,260.7421875,101.07421875,53.7109375,0.0
1734504142.903722,1.953125,48.33984375,105.46875,44.43359375,0.0
1734504142.9076276,-1.953125,-63.96484375,85.9375,17.578125,0.0
1734504142.9115891,53.7109375,74.70703125,51.26953125,36.62109375,0.0
1734504142.9154947,42.96875,179.19921875,67.3828125,40.0390625,0.0
1734504142.9194,50.29296875,130.37109375,97.16796875,45.8984375,0.0
1734504142.9233055,47.8515625,108.88671875,66.40625,44.921875,0.0
1734504142.9272108,38.0859375,193.84765625,54.6875,32.71484375,0.0
1734504142.9311163,46.38671875,196.77734375,88.37890625,44.921875,0.0
1734504142.9350216,38.0859375,87.40234375,50.78125,66.89453125,0.0
1734504142.9389272,29.296875,-78.125,25.390625,73.2421875,0.0
1734504142.9428325,40.52734375,245.1171875,55.17578125,46.38671875,0.0
1734504142.946738,51.26953125,300.78125,46.38671875,30.2734375,0.0
1734504142.9506433,48.828125,185.546875,76.66015625,38.0859375,0.0
1734504142.9545488,64.94140625,237.79296875,101.5625,52.24609375,0.0
1734504142.9584785,43.9453125,232.91015625,86.42578125,29.78515625,0.0
1734504142.962384,5.859375,146.484375,60.546875,-3.41796875,0.0
1734504142.9662893,9.27734375,57.12890625,55.17578125,20.99609375,0.0
1734504142.9701948,27.34375,150.87890625,58.59375,43.9453125,0.0
1734504142.9741,46.875,236.328125,18.5546875,25.390625,0.0
1734504142.9780056,14.6484375,95.21484375,41.015625,10.7421875,0.0
1734504142.981911,0.0,-88.37890625,74.21875,-1.953125,0.0
1734504142.9858165,32.2265625,132.32421875,66.40625,12.6953125,0.0
1734504142.9897218,23.4375,434.08203125,66.40625,23.92578125,0.0
1734504142.9936273,13.671875,264.16015625,56.640625,-2.9296875,0.0
1734504142.9975326,9.27734375,116.69921875,69.3359375,-18.5546875,0.0
1734504143.0014381,10.7421875,214.84375,103.02734375,5.37109375,0.0
1734504143.0053024,25.390625,231.93359375,91.30859375,11.23046875,0.0
1734504143.0092077,13.18359375,237.79296875,75.68359375,-0.48828125,0.0
1734504143.0131133,-1.46484375,239.2578125,59.5703125,10.7421875,0.0
1734504143.0170186,5.37109375,324.70703125,83.984375,-14.6484375,0.0
1734504143.020924,12.6953125,226.5625,141.6015625,-25.87890625,0.0
1734504143.0248294,5.37109375,93.75,156.73828125,-12.6953125,0.0
1734504143.028735,-9.765625,108.3984375,138.671875,-31.73828125,0.0
1734504143.0326402,-17.08984375,294.921875,123.53515625,-58.10546875,0.0
1734504143.0365458,-54.6875,394.53125,145.01953125,-70.80078125,0.0
1734504143.040451,-35.15625,94.23828125,160.64453125,-50.29296875,0.0
1734504143.0443566,6.8359375,-3.90625,153.3203125,-21.484375,0.0
1734504143.048262,2.44140625,335.9375,102.5390625,-6.34765625,0.0
1734504143.0524757,-30.76171875,312.98828125,0.0,-45.8984375,0.0
1734504143.056381,-54.6875,120.60546875,0.0,-72.75390625,0.0
1734504143.0602865,-36.1328125,100.09765625,0.0,-51.7578125,0.0
1734504143.0641918,-22.4609375,120.1171875,0.0,-62.5,0.0
1734504143.0680974,-41.9921875,183.10546875,0.0,-51.7578125,0.0
1734504143.0720026,-51.7578125,7.8125,0.0,-28.80859375,0.0
1734504143.0759082,-28.3203125,64.453125,0.0,-14.16015625,0.0
1734504143.0798135,2.9296875,272.94921875,0.0,-22.4609375,0.0
1734504143.083719,-22.94921875,146.484375,0.0,-50.29296875,0.0
1734504143.0876243,-31.25,-90.33203125,0.0,-46.38671875,0.0
1734504143.0915298,-14.16015625,113.28125,0.0,-49.8046875,0.0
1734504143.0954351,-36.62109375,267.08984375,0.0,-79.1015625,0.0
1734504143.0995939,-29.78515625,42.96875,123.53515625,-63.4765625,0.0
1734504143.1034994,-48.33984375,-40.0390625,101.5625,-41.9921875,0.0
1734504143.1074047,-65.4296875,136.23046875,85.9375,-45.8984375,0.0
1734504143.1113102,-45.41015625,187.5,100.09765625,-52.734375,0.0
1734504143.1152155,-33.203125,52.24609375,92.7734375,-54.19921875,0.0
1734504143.119121,-12.6953125,-36.62109375,93.26171875,-31.25,0.0
1734504143.1230264,-5.37109375,71.77734375,97.16796875,-14.6484375,0.0
1734504143.126932,-32.2265625,164.0625,71.77734375,-35.15625,0.0
1734504143.1308372,-22.94921875,90.33203125,53.7109375,-33.69140625,0.0
1734504143.1347427,-14.16015625,-22.4609375,88.37890625,-19.04296875,0.0
1734504143.138648,-13.671875,286.62109375,108.88671875,-34.1796875,0.0
1734504143.1425536,-21.484375,279.78515625,100.09765625,-31.73828125,0.0
1734504143.146655,-25.390625,63.96484375,107.91015625,-16.11328125,0.0
1734504143.1505606,-23.4375,189.94140625,110.83984375,-22.94921875,0.0
1734504143.154466,-32.2265625,268.5546875,95.703125,-31.25,0.0
1734504143.1583714,-2.9296875,179.19921875,77.63671875,-38.57421875,0.0
1734504143.1622767,32.2265625,43.45703125,65.91796875,-44.43359375,0.0
1734504143.1661823,24.4140625,47.8515625,74.21875,-36.62109375,0.0
1734504143.1700876,20.5078125,200.68359375,71.2890625,-20.99609375,0.0
1734504143.173993,-13.671875,171.38671875,69.82421875,-0.48828125,0.0
1734504143.1778984,-13.671875,-230.95703125,55.17578125,28.80859375,0.0
1734504143.181804,4.8828125,-126.953125,46.38671875,17.578125,0.0
1734504143.1857092,-10.7421875,300.29296875,65.91796875,-11.23046875,0.0
1734504143.1896148,-6.34765625,169.43359375,82.51953125,-0.9765625,0.0
1734504143.1936502,20.5078125,158.203125,71.77734375,13.671875,0.0
1734504143.1975555,23.92578125,319.82421875,70.80078125,29.296875,0.0
1734504143.201461,5.859375,289.55078125,76.66015625,24.4140625,0.0
1734504143.2053664,18.5546875,188.96484375,47.8515625,9.27734375,0.0
1734504143.209272,34.1796875,100.09765625,58.10546875,22.4609375,0.0
1734504143.2131772,14.16015625,166.015625,77.63671875,21.484375,0.0
1734504143.2170827,4.39453125,205.078125,60.05859375,9.27734375,0.0
1734504143.220988,20.99609375,72.75390625,53.22265625,19.53125,0.0
1734504143.2248936,31.73828125,-114.2578125,52.24609375,47.8515625,0.0
1734504143.2287989,33.69140625,218.26171875,1.46484375,51.26953125,0.0
1734504143.2327044,40.0390625,304.6875,-21.97265625,47.8515625,0.0
1734504143.23661,43.9453125,56.15234375,67.87109375,32.71484375,0.0
1734504143.2406206,23.4375,11.71875,100.5859375,8.30078125,0.0
1734504143.244526,23.92578125,118.65234375,78.125,8.7890625,0.0
1734504143.2484314,6.34765625,158.203125,75.68359375,15.13671875,0.0
1734504143.2523367,-8.30078125,104.00390625,58.59375,16.6015625,0.0
1734504143.2562423,0.0,223.6328125,35.15625,31.25,0.0
1734504143.2601476,9.765625,217.28515625,7.32421875,43.45703125,0.0
1734504143.264053,20.01953125,148.4375,-8.30078125,33.69140625,0.0
1734504143.2679584,27.83203125,5.859375,32.2265625,39.55078125,0.0
1734504143.271864,24.90234375,146.484375,45.41015625,41.9921875,0.0
1734504143.2757692,26.85546875,300.78125,31.25,33.203125,0.0
1734504143.2796748,25.390625,9.765625,29.78515625,36.1328125,0.0
1734504143.28358,21.97265625,-162.59765625,37.59765625,59.08203125,0.0
1734504143.2875173,0.0,-55.6640625,27.83203125,51.7578125,0.0
1734504143.2914228,0.0,-19.04296875,19.53125,40.52734375,0.0
1734504143.2953281,0.0,-122.55859375,32.2265625,44.43359375,0.0
1734504143.2992337,0.0,-181.15234375,24.4140625,42.96875,0.0
1734504143.303139,0.0,-126.46484375,23.92578125,34.1796875,0.0
1734504143.3070445,0.0,-44.921875,25.87890625,31.73828125,0.0
1734504143.3109498,0.0,-88.8671875,29.78515625,57.12890625,0.0
1734504143.3148553,0.0,-247.0703125,54.6875,70.80078125,0.0
1734504143.3187606,0.0,112.3046875,59.08203125,38.0859375,0.0
1734504143.3226662,0.0,200.68359375,44.921875,29.296875,0.0
1734504143.3265715,0.0,-16.6015625,46.38671875,29.296875,0.0
1734504143.330477,0.0,76.171875,36.62109375,29.296875,0.0
1734504143.3333354,19.53125,155.76171875,-7.32421875,47.8515625,0.0
1734504143.3372407,14.6484375,103.02734375,-0.48828125,53.7109375,0.0
1734504143.3411462,33.69140625,4.39453125,39.0625,47.8515625,0.0
1734504143.3450515,42.96875,101.5625,35.15625,24.4140625,0.0
1734504143.348957,19.53125,190.4296875,10.25390625,23.92578125,0.0
1734504143.3528624,2.9296875,96.19140625,3.41796875,31.25,0.0
1734504143.356768,19.53125,-42.48046875,28.80859375,25.87890625,0.0
1734504143.3606732,35.64453125,130.37109375,30.76171875,26.3671875,0.0
1734504143.3645787,24.90234375,408.69140625,15.625,18.5546875,0.0
1734504143.368484,16.11328125,250.0,12.20703125,30.2734375,0.0
1734504143.3723896,-0.48828125,67.87109375,7.8125,44.43359375,0.0
1734504143.3762949,-7.8125,126.953125,-6.34765625,47.36328125,0.0
1734504143.380169,-7.8125,142.578125,-10.25390625,33.203125,0.0
1734504143.3840744,4.39453125,22.94921875,-16.6015625,25.87890625,0.0
1734504143.3879797,1.953125,-35.64453125,-24.4140625,19.53125,0.0
1734504143.391885,-19.53125,60.546875,0.0,-4.8828125,0.0
1734504143.3957906,-23.4375,-58.59375,11.23046875,2.9296875,0.0
1734504143.3996959,-12.6953125,-197.75390625,10.7421875,8.7890625,0.0
1734504143.4036014,-18.06640625,-178.7109375,-7.32421875,8.7890625,0.0
1734504143.4075067,-10.7421875,-40.0390625,-25.390625,25.390625,0.0
1734504143.4114122,8.30078125,126.46484375,-11.23046875,35.15625,0.0
1734504143.4153175,-8.7890625,-100.5859375,-14.16015625,36.1328125,0.0
1734504143.419223,-23.4375,-258.7890625,-24.4140625,45.41015625,0.0
1734504143.4231284,-19.53125,69.3359375,18.5546875,21.97265625,0.0
1734504143.4273665,-5.859375,41.9921875,21.97265625,8.30078125,0.0
1734504143.4312718,0.0,-172.8515625,16.11328125,13.671875,0.0
1734504143.4351773,-13.18359375,-154.78515625,10.7421875,30.2734375,0.0
1734504143.4390826,-68.84765625,-77.1484375,-13.18359375,19.53125,0.0
1734504143.4429882,-190.91796875,-125.0,7.32421875,4.39453125,0.0
1734504143.4468935,-219.23828125,-362.3046875,8.30078125,18.5546875,0.0
1734504143.450799,-204.58984375,-218.75,-5.37109375,9.27734375,0.0
1734504143.4547043,-196.77734375,52.24609375,7.8125,-1.46484375,0.0
1734504143.4586098,-183.59375,-95.21484375,3.90625,10.25390625,0.0
1734504143.462515,-176.7578125,-285.64453125,-18.06640625,3.90625,0.0
1734504143.4664207,-158.69140625,-106.4453125,0.48828125,5.859375,0.0
1734504143.470326,-153.3203125,20.5078125,-5.37109375,12.6953125,0.0
1734504143.4744802,-139.6484375,-161.62109375,0.0,15.625,0.0
1734504143.4783854,-121.58203125,-240.234375,0.0,16.6015625,0.0
1734504143.482291,-123.046875,-68.84765625,0.0,9.27734375,0.0
1734504143.4861963,-121.58203125,-66.89453125,0.0,13.18359375,0.0
1734504143.4901018,-111.328125,-202.63671875,0.0,28.80859375,0.0
1734504143.494007,-115.72265625,-237.79296875,0.0,23.92578125,0.0
1734504143.4979126,-104.00390625,-144.53125,0.0,17.578125,0.0
1734504143.501818,-97.65625,-7.32421875,0.0,13.18359375,0.0
1734504143.5057235,-87.40234375,-92.28515625,0.0,22.4609375,0.0
1734504143.5096288,-77.63671875,-318.84765625,0.0,48.828125,0.0
1734504143.5135343,-96.19140625,53.7109375,0.0,26.85546875,0.0
1734504143.5174396,-110.3515625,158.69140625,0.0,6.8359375,0.0
1734504143.5215485,-88.8671875,-70.3125,-1.46484375,11.71875,0.0
1734504143.525454,-82.03125,-38.0859375,-9.27734375,17.578125,0.0
1734504143.5293593,-89.35546875,38.0859375,-18.5546875,21.484375,0.0
1734504143.5332649,-95.703125,-21.484375,5.37109375,11.71875,0.0
1734504143.5371702,-101.07421875,-166.015625,26.3671875,1.953125,0.0
1734504143.5410757,-99.12109375,-166.50390625,15.625,5.37109375,0.0
1734504143.544981,-98.6328125,-12.20703125,-0.48828125,9.27734375,0.0
1734504143.5488865,-117.67578125,34.1796875,-12.20703125,9.27734375,0.0
1734504143.5527918,-145.99609375,-220.703125,-20.99609375,20.01953125,0.0
1734504143.5566974,-141.6015625,-39.0625,-11.71875,22.4609375,0.0
1734504143.5606027,-133.7890625,195.80078125,0.48828125,-6.8359375,0.0
1734504143.5645082,-135.25390625,-28.3203125,13.671875,7.32421875,0.0
1734504143.568574,0.0,-126.46484375,-25.390625,46.38671875,0.0
1734504143.5724795,0.0,-12.20703125,-59.5703125,23.4375,0.0
1734504143.5763848,0.0,49.31640625,11.23046875,9.27734375,0.0
1734504143.5802903,0.0,-65.91796875,25.87890625,16.11328125,0.0
1734504143.5841956,0.0,-172.8515625,4.8828125,3.41796875,0.0
1734504143.5881011,0.0,-123.53515625,10.7421875,-4.39453125,0.0
1734504143.5920064,0.0,-38.0859375,-21.484375,7.32421875,0.0
1734504143.595912,0.0,-77.1484375,-26.3671875,12.20703125,0.0
1734504143.5998173,0.0,-237.79296875,-3.41796875,17.578125,0.0
1734504143.6037228,0.0,91.30859375,-17.578125,9.27734375,0.0
1734504143.607628,0.0,136.71875,-13.18359375,-4.8828125,0.0
1734504143.6115336,0.0,-88.37890625,27.34375,9.27734375,0.0
1734504143.6155229,-81.54296875,57.6171875,30.76171875,8.7890625,0.0
1734504143.6194284,-75.1953125,101.5625,5.37109375,3.41796875,0.0
1734504143.6233337,-60.05859375,-13.671875,-21.97265625,16.6015625,0.0
1734504143.6272392,-47.36328125,-79.1015625,-14.6484375,15.625,0.0
1734504143.6311445,-47.36328125,2.44140625,7.32421875,16.11328125,0.0
1734504143.63505,-55.17578125,20.5078125,5.37109375,31.25,0.0
1734504143.6389554,-56.15234375,37.59765625,-9.27734375,39.55078125,0.0
1734504143.642861,-58.59375,-24.90234375,-26.85546875,21.484375,0.0
1734504143.6467662,-64.94140625,166.50390625,0.48828125,8.7890625,0.0
1734504143.6506717,-60.05859375,381.8359375,3.41796875,29.296875,0.0
1734504143.654577,-53.22265625,165.52734375,-7.32421875,26.85546875,0.0
1734504143.6584826,-60.546875,145.99609375,1.953125,8.30078125,0.0
1734504143.6623979,-66.89453125,282.2265625,13.671875,15.625,0.0
1734504143.6663032,-64.94140625,278.3203125,5.37109375,23.92578125,0.0
1734504143.6702087,-63.4765625,170.8984375,-14.16015625,39.55078125,0.0
1734504143.674114,-50.78125,160.15625,-27.34375,60.05859375,0.0
1734504143.6780195,-45.41015625,190.91796875,-19.53125,39.55078125,0.0
1734504143.6819248,-62.01171875,106.4453125,-10.7421875,2.9296875,0.0
1734504143.6858304,-62.01171875,22.94921875,10.25390625,1.46484375,0.0
1734504143.6897357,-54.19921875,-105.46875,13.671875,30.2734375,0.0
1734504143.6936412,-55.17578125,271.97265625,-17.578125,28.80859375,0.0
1734504143.6975465,-38.57421875,330.078125,-10.25390625,23.92578125,0.0
1734504143.701452,-38.0859375,73.2421875,-14.6484375,25.87890625,0.0
1734504143.7053573,-40.52734375,148.92578125,-62.5,22.94921875,0.0
1734504143.7096167,-26.3671875,251.953125,-35.64453125,42.48046875,0.0
1734504143.7135222,-40.52734375,147.4609375,-7.8125,27.34375,0.0
1734504143.7174275,-50.29296875,85.9375,-8.7890625,0.0,0.0
1734504143.721333,-41.015625,226.5625,-13.18359375,12.6953125,0.0
1734504143.7252383,-64.94140625,255.859375,-16.6015625,7.32421875,0.0
1734504143.7291439,-67.87109375,122.0703125,2.9296875,-1.46484375,0.0
1734504143.7330492,-48.828125,16.6015625,6.8359375,22.4609375,0.0
1734504143.7369547,-68.359375,218.75,-6.8359375,17.578125,0.0
1734504143.74086,-79.58984375,429.6875,-25.87890625,1.953125,0.0
1734504143.7447655,-57.12890625,223.6328125,-41.9921875,1.953125,0.0
1734504143.7486708,-50.29296875,49.31640625,-11.71875,3.90625,0.0
1734504143.7525764,-66.40625,190.4296875,2.44140625,8.30078125,0.0
1734504143.7564235,-74.70703125,286.1328125,-16.6015625,11.71875,0.0
1734504143.7603288,-54.6875,169.43359375,-16.6015625,17.08984375,0.0
1734504143.7642343,-39.0625,113.76953125,-15.625,30.76171875,0.0
1734504143.7681396,-54.6875,233.3984375,-20.01953125,29.296875,0.0
1734504143.7720451,-49.31640625,157.2265625,-11.23046875,29.78515625,0.0
1734504143.7759504,-25.87890625,58.10546875,-25.390625,23.4375,0.0
1734504143.779856,-30.2734375,93.75,2.9296875,12.20703125,0.0
1734504143.7837613,-57.6171875,155.76171875,22.4609375,9.765625,0.0
1734504143.7876668,-56.15234375,332.51953125,-3.41796875,13.18359375,0.0
1734504143.791572,-31.73828125,201.171875,2.9296875,18.5546875,0.0
1734504143.7954776,-29.78515625,-22.94921875,13.18359375,36.62109375,0.0
1734504143.7993832,-52.24609375,421.875,-7.8125,28.80859375,0.0
1734504143.803539,-63.4765625,549.31640625,-6.34765625,22.4609375,0.0
1734504143.8074443,-45.8984375,364.74609375,0.48828125,28.3203125,0.0
1734504143.8113499,-37.109375,514.6484375,-11.23046875,31.73828125,0.0
1734504143.8152552,-29.296875,656.25,-26.3671875,24.4140625,0.0
1734504143.8191607,-26.85546875,583.49609375,-13.18359375,16.11328125,0.0
1734504143.823066,-47.36328125,384.765625,11.71875,26.85546875,0.0
1734504143.8269715,-23.4375,601.07421875,19.53125,22.94921875,0.0
1734504143.8308768,-20.01953125,924.31640625,9.27734375,10.25390625,0.0
1734504143.8347824,-48.828125,794.43359375,-5.859375,13.671875,0.0
1734504143.838688,-42.48046875,651.3671875,-4.8828125,14.6484375,0.0
1734504143.8425932,-42.48046875,737.79296875,-26.3671875,11.23046875,0.0
1734504143.8464987,-33.203125,738.28125,-37.59765625,12.20703125,0.0
1734504143.8506176,-18.5546875,628.90625,2.44140625,37.59765625,0.0
1734504143.854523,-27.34375,624.51171875,-6.34765625,26.3671875,0.0
1734504143.8584285,-37.109375,695.80078125,-8.30078125,-4.39453125,0.0
1734504143.8623338,-21.484375,665.52734375,-2.44140625,4.8828125,0.0
1734504143.8662393,-20.01953125,567.3828125,4.39453125,11.71875,0.0
1734504143.8701448,-32.2265625,550.78125,10.7421875,7.32421875,0.0
1734504143.8740501,-41.015625,586.9140625,-13.671875,1.46484375,0.0
1734504143.8779557,-45.41015625,571.2890625,-34.66796875,0.0,0.0
1734504143.881861,-27.83203125,337.890625,-30.76171875,-3.90625,0.0
1734504143.8857665,-4.8828125,51.7578125,-4.8828125,4.8828125,0.0
1734504143.8896718,11.71875,207.03125,-24.90234375,27.83203125,0.0
1734504143.8935773,3.90625,-26.85546875,-52.24609375,9.765625,0.0
1734504143.8976586,-37.109375,-439.453125,-12.6953125,-20.01953125,0.0
1734504143.9015641,-52.734375,-515.625,-14.16015625,-13.671875,0.0
1734504143.9054694,-52.734375,-529.78515625,-26.85546875,-12.6953125,0.0
1734504143.909375,-54.19921875,-633.7890625,-5.37109375,-17.08984375,0.0
1734504143.9132802,-34.66796875,-677.734375,-2.9296875,-11.23046875,0.0
1734504143.9171858,-44.43359375,-672.8515625,-14.16015625,2.9296875,0.0
1734504143.921091,-48.33984375,-558.10546875,-28.80859375,0.48828125,0.0
1734504143.9249966,-30.76171875,-481.4453125,-25.390625,-9.27734375,0.0
1734504143.9289021,-21.484375,-654.296875,-12.6953125,6.8359375,0.0
1734504143.9328074,-22.4609375,-378.41796875,-13.671875,21.97265625,0.0
1734504143.936713,-20.99609375,-71.77734375,-38.0859375,5.37109375,0.0
1734504143.9406183,-5.37109375,-189.453125,-24.90234375,-1.953125,0.0
1734504143.9446526,-9.27734375,-289.55078125,0.0,13.671875,0.0
1734504143.948558,-9.27734375,-133.30078125,0.0,22.94921875,0.0
1734504143.9524634,-30.76171875,-92.7734375,0.0,-2.44140625,0.0
1734504143.956369,-60.05859375,-61.5234375,0.0,-2.44140625,0.0
1734504143.9602742,-54.6875,-46.38671875,0.0,-1.46484375,0.0
1734504143.9641798,-56.15234375,-38.57421875,0.0,-14.16015625,0.0
1734504143.968085,-57.6171875,38.57421875,0.0,-7.8125,0.0
1734504143.9719906,-38.57421875,9.27734375,0.0,-9.765625,0.0
1734504143.975896,-27.83203125,-135.25390625,0.0,9.765625,0.0
1734504143.9798014,-7.32421875,131.34765625,0.0,19.04296875,0.0
1734504143.9837067,-36.62109375,117.67578125,0.0,-18.5546875,0.0
1734504143.9876122,-57.12890625,-95.21484375,0.0,-12.6953125,0.0
1734504143.9916074,0.0,52.24609375,0.48828125,6.34765625,0.0
1734504143.995513,0.0,141.11328125,-20.5078125,-2.44140625,0.0
1734504143.9994183,0.0,83.0078125,-54.6875,-17.578125,0.0
1734504144.0033238,0.0,-6.8359375,-56.640625,-20.99609375,0.0
1734504144.007229,0.0,22.4609375,-20.5078125,-11.71875,0.0
1734504144.0111346,0.0,37.59765625,-32.71484375,9.765625,0.0
1734504144.0150402,0.0,40.52734375,-45.8984375,22.4609375,0.0
1734504144.0189455,0.0,-52.24609375,-22.94921875,18.5546875,0.0
1734504144.022851,0.0,67.87109375,-36.62109375,20.01953125,0.0
1734504144.0267563,0.0,279.296875,-58.59375,7.8125,0.0
1734504144.0306618,0.0,124.0234375,-26.3671875,0.9765625,0.0
1734504144.034567,0.0,8.30078125,1.46484375,25.390625,0.0
1734504144.0385125,-35.15625,100.09765625,-5.37109375,13.671875,0.0
1734504144.042418,-40.0390625,122.0703125,-18.5546875,3.90625,0.0
1734504144.0463233,-28.80859375,65.91796875,-38.57421875,21.484375,0.0
1734504144.0502288,-28.3203125,117.1875,-18.5546875,3.41796875,0.0
1734504144.0541341,-22.94921875,164.0625,12.20703125,-1.46484375,0.0
1734504144.0580397,-33.69140625,138.18359375,-10.7421875,1.953125,0.0
1734504144.061945,-41.9921875,87.40234375,-3.90625,-10.7421875,0.0
1734504144.0658505,-23.4375,-104.98046875,3.90625,4.39453125,0.0
1734504144.0697558,-1.953125,133.30078125,-2.9296875,5.859375,0.0
1734504144.0736613,0.0,231.93359375,-12.6953125,16.6015625,0.0
1734504144.0775669,-21.97265625,59.08203125,-46.38671875,19.53125,0.0
1734504144.0814722,-36.62109375,61.5234375,-8.7890625,8.30078125,0.0
1734504144.0853422,-39.0625,26.3671875,12.6953125,2.44140625,0.0
1734504144.0892475,-43.9453125,-115.72265625,0.0,-0.9765625,0.0
1734504144.093153,-18.5546875,-322.75390625,3.90625,12.6953125,0.0
1734504144.0970583,-13.671875,-362.3046875,-10.25390625,12.6953125,0.0
1734504144.1009638,-34.1796875,-378.90625,-1.953125,-0.9765625,0.0
1734504144.1048691,-25.87890625,-500.0,-5.859375,1.46484375,0.0
1734504144.1087747,9.765625,-575.1953125,-21.484375,38.57421875,0.0
1734504144.11268,11.71875,-379.39453125,27.34375,41.015625,0.0
1734504144.1165855,-14.6484375,-221.6796875,42.96875,-1.46484375,0.0
1734504144.1204908,-3.41796875,-422.36328125,1.46484375,-6.34765625,0.0
1734504144.1243963,-0.9765625,-599.12109375,-0.9765625,-6.8359375,0.0
1734504144.1283016,-25.87890625,-517.08984375,39.0625,-5.37109375,0.0
1734504144.1321425,-50.78125,-316.89453125,44.921875,33.69140625,0.0
1734504144.136048,-45.8984375,-321.77734375,-5.859375,48.828125,0.0
1734504144.1399534,-20.5078125,-377.44140625,19.53125,41.015625,0.0
1734504144.143859,-20.01953125,-331.0546875,49.31640625,40.0390625,0.0
1734504144.1477642,-50.78125,-401.85546875,60.546875,23.4375,0.0
1734504144.1516697,-63.96484375,-472.16796875,95.703125,20.99609375,0.0
1734504144.155575,-60.546875,-405.2734375,76.171875,46.38671875,0.0
1734504144.1594806,-58.59375,-238.28125,20.5078125,44.921875,0.0
1734504144.1633859,-38.0859375,-216.30859375,40.0390625,46.875,0.0
1734504144.1672914,-34.1796875,-372.55859375,85.44921875,63.96484375,0.0
1734504144.1711967,-40.0390625,-389.6484375,78.125,59.08203125,0.0
1734504144.1751022,-44.921875,-147.94921875,64.453125,36.1328125,0.0
1734504144.179277,-52.24609375,-189.94140625,77.1484375,38.0859375,0.0
1734504144.1831825,-50.78125,-295.41015625,72.75390625,50.78125,0.0
1734504144.187088,-53.7109375,-246.58203125,38.57421875,49.31640625,0.0
1734504144.1909933,-47.36328125,-123.53515625,47.8515625,47.36328125,0.0
1734504144.1948988,-38.57421875,-115.72265625,53.22265625,65.4296875,0.0
1734504144.1988041,-28.3203125,-286.1328125,7.8125,73.73046875,0.0
1734504144.2027097,-18.06640625,-147.94921875,-31.25,96.19140625,0.0
1734504144.206615,-43.45703125,37.59765625,-2.9296875,90.8203125,0.0
1734504144.2105205,-70.80078125,-34.66796875,72.265625,54.6875,0.0
1734504144.2144258,-54.6875,-177.24609375,93.75,61.5234375,0.0
1734504144.2183313,-25.390625,-2.9296875,62.5,85.44921875,0.0
1734504144.2222366,-24.4140625,104.98046875,41.50390625,76.66015625,0.0
1734504144.2263567,0.0,21.484375,30.76171875,67.3828125,0.0
1734504144.2302623,0.0,76.66015625,-12.6953125,91.30859375,0.0
1734504144.2341676,0.0,211.9140625,-27.83203125,95.703125,0.0
1734504144.238073,0.0,220.703125,6.8359375,63.96484375,0.0
1734504144.2419784,0.0,125.9765625,-0.9765625,48.828125,0.0
1734504144.245884,0.0,96.19140625,-20.01953125,53.22265625,0.0
1734504144.2497892,0.0,175.29296875,-20.99609375,65.4296875,0.0
1734504144.2536948,0.0,217.7734375,-41.015625,92.28515625,0.0
1734504144.2576,0.0,134.27734375,-99.609375,94.7265625,0.0
1734504144.2615056,0.0,58.59375,-85.9375,89.35546875,0.0
1734504144.2654111,0.0,355.95703125,-26.85546875,62.98828125,0.0
1734504144.2693164,0.0,347.65625,-31.73828125,55.17578125,0.0
1734504144.273391,-34.66796875,157.2265625,-47.8515625,70.3125,0.0
1734504144.2772963,-10.7421875,196.77734375,-70.3125,85.9375,0.0
1734504144.2812018,-8.30078125,190.91796875,-105.95703125,83.984375,0.0
1734504144.2851074,-31.25,124.51171875,-93.75,61.03515625,0.0
1734504144.2890127,-36.1328125,76.66015625,-84.47265625,74.70703125,0.0
1734504144.2929182,-29.78515625,103.515625,-86.42578125,92.28515625,0.0
1734504144.2968235,-26.3671875,206.0546875,-56.640625,66.89453125,0.0
1734504144.300729,-36.62109375,204.58984375,-66.40625,44.921875,0.0
1734504144.3046343,-37.109375,-48.33984375,-104.98046875,48.828125,0.0
1734504144.3085399,-27.34375,98.14453125,-88.37890625,38.57421875,0.0
1734504144.3124452,-29.78515625,276.85546875,-80.56640625,40.0390625,0.0
1734504144.3163507,-52.24609375,96.6796875,-97.16796875,38.0859375,0.0
1734504144.3203447,-40.0390625,43.9453125,-96.19140625,48.828125,0.0
1734504144.32425,-32.71484375,142.08984375,-96.6796875,56.640625,0.0
1734504144.3281555,-40.52734375,147.4609375,-90.33203125,44.921875,0.0
1734504144.3320608,-28.3203125,91.30859375,-89.35546875,53.22265625,0.0
1734504144.3359663,-24.4140625,88.37890625,-75.1953125,49.31640625,0.0
1734504144.3398716,-40.0390625,116.2109375,-85.9375,13.671875,0.0
1734504144.3437772,-31.73828125,151.3671875,-96.6796875,28.3203125,0.0
1734504144.3476825,-32.71484375,95.703125,-85.44921875,47.8515625,0.0
1734504144.351588,-69.82421875,-18.5546875,-76.171875,43.45703125,0.0
1734504144.3554935,-80.078125,242.67578125,-78.125,50.29296875,0.0
1734504144.3593988,-84.47265625,238.76953125,-67.87109375,43.45703125,0.0
1734504144.3633044,-126.953125,15.13671875,-62.5,27.34375,0.0
1734504144.3672605,-146.97265625,101.5625,-55.17578125,20.99609375,0.0
1734504144.3711658,-171.875,172.36328125,-32.2265625,25.87890625,0.0
1734504144.3750713,-209.47265625,90.33203125,-24.90234375,47.8515625,0.0
1734504144.3789766,-222.16796875,16.6015625,-30.76171875,33.69140625,0.0
1734504144.382882,-258.7890625,33.203125,-13.18359375,18.5546875,0.0
1734504144.3867874,-284.1796875,25.87890625,-3.41796875,25.87890625,0.0
1734504144.390693,-290.0390625,58.59375,10.25390625,30.2734375,0.0
1734504144.3945985,-309.5703125,3.41796875,15.625,33.203125,0.0
1734504144.3985038,-321.77734375,110.83984375,-28.3203125,54.6875,0.0
1734504144.4024093,-342.7734375,237.79296875,-12.6953125,45.41015625,0.0
1734504144.4063146,-364.2578125,76.66015625,29.78515625,22.94921875,0.0
1734504144.4102201,-378.41796875,0.9765625,27.34375,35.64453125,0.0
1734504144.4141192,-378.90625,109.86328125,1.953125,40.0390625,0.0
1734504144.4180248,-367.1875,126.953125,-12.20703125,25.87890625,0.0
1734504144.4219303,-357.421875,23.4375,34.1796875,33.203125,0.0
1734504144.4258356,-360.83984375,42.96875,69.3359375,40.52734375,0.0
1734504144.4297411,-382.32421875,96.19140625,49.8046875,37.109375,0.0
1734504144.4336464,-374.0234375,86.9140625,0.0,41.9921875,0.0
1734504144.437552,-392.08984375,43.9453125,8.7890625,36.62109375,0.0
1734504144.4414573,-403.80859375,-82.51953125,87.890625,39.55078125,0.0
1734504144.4453628,-399.90234375,181.640625,82.51953125,34.66796875,0.0
1734504144.449268,-394.04296875,241.69921875,34.1796875,37.59765625,0.0
1734504144.4531736,-390.625,69.82421875,22.94921875,39.55078125,0.0
1734504144.4570792,-416.9921875,112.3046875,63.4765625,30.2734375,0.0
1734504144.4609365,-444.82421875,172.36328125,57.12890625,7.32421875,0.0
1734504144.464842,-474.12109375,118.1640625,50.78125,-0.48828125,0.0
1734504144.4687476,-473.6328125,58.10546875,65.4296875,-8.7890625,0.0
1734504144.472653,-458.0078125,141.11328125,42.96875,-3.90625,0.0
1734504144.4765584,-474.12109375,145.01953125,24.90234375,14.16015625,0.0
1734504144.4804637,-462.40234375,10.25390625,18.5546875,3.90625,0.0
1734504144.4843693,-451.171875,-66.89453125,33.69140625,10.25390625,0.0
1734504144.4882746,-466.796875,73.73046875,20.99609375,11.23046875,0.0
1734504144.49218,-438.96484375,245.1171875,28.80859375,5.37109375,0.0
1734504144.4960854,-393.5546875,114.74609375,67.3828125,16.6015625,0.0
1734504144.499991,-391.11328125,7.8125,59.08203125,15.625,0.0
1734504144.5038965,-389.6484375,130.859375,70.80078125,8.30078125,0.0
1734504144.5077302,-363.76953125,173.828125,82.51953125,-4.39453125,0.0
1734504144.5116355,-329.1015625,96.6796875,68.84765625,-1.46484375,0.0
1734504144.515541,-305.17578125,104.4921875,66.89453125,8.7890625,0.0
1734504144.5194464,-297.36328125,171.38671875,61.03515625,-5.37109375,0.0
1734504144.523352,-262.6953125,112.79296875,46.875,-3.41796875,0.0
1734504144.5272572,-236.328125,56.640625,58.59375,10.25390625,0.0
1734504144.5311627,-221.6796875,110.83984375,68.84765625,20.99609375,0.0
1734504144.535068,-208.984375,275.87890625,59.08203125,28.80859375,0.0
1734504144.5389736,-188.4765625,262.20703125,72.265625,11.71875,0.0
1734504144.542879,-178.22265625,46.875,73.73046875,12.20703125,0.0
1734504144.5467844,-177.734375,72.75390625,52.24609375,22.4609375,0.0
1734504144.55069,-174.8046875,316.40625,66.40625,-1.46484375,0.0
1734504144.5548432,0.0,255.859375,0.0,-10.25390625,0.0
1734504144.5587487,0.0,128.41796875,0.0,-19.04296875,0.0
1734504144.562654,0.0,190.91796875,0.0,-19.53125,0.0
1734504144.5665596,0.0,206.0546875,0.0,-2.9296875,0.0
1734504144.570465,0.0,94.23828125,0.0,8.30078125,0.0
1734504144.5743704,0.0,-81.54296875,0.0,13.671875,0.0
1734504144.578276,0.0,-14.6484375,0.0,-15.625,0.0
1734504144.5821812,0.0,104.98046875,0.0,-15.625,0.0
1734504144.5860868,0.0,-5.37109375,0.0,29.296875,0.0
1734504144.589992,0.0,-179.6875,0.0,16.11328125,0.0
1734504144.5938976,0.0,-13.671875,0.0,-24.90234375,0.0
1734504144.5978029,0.0,49.8046875,0.0,-31.73828125,0.0
1734504144.6019247,-95.703125,-114.74609375,49.8046875,-21.97265625,0.0
1734504144.6058302,-96.19140625,-145.99609375,22.94921875,-33.69140625,0.0
1734504144.6097355,-86.9140625,-349.12109375,14.16015625,-37.59765625,0.0
1734504144.613641,-78.125,-598.14453125,26.3671875,13.671875,0.0
1734504144.6175466,-75.68359375,-729.98046875,20.99609375,20.5078125,0.0
1734504144.6214519,-88.8671875,-673.828125,23.4375,-24.4140625,0.0
1734504144.6253574,-95.21484375,-535.15625,24.90234375,-45.8984375,0.0
1734504144.6292627,-91.30859375,-407.2265625,44.43359375,-41.015625,0.0
1734504144.6331682,-108.3984375,-400.390625,66.40625,-43.9453125,0.0
1734504144.6370735,-94.23828125,-464.35546875,60.546875,-43.45703125,0.0
1734504144.640979,-74.21875,-134.27734375,59.5703125,-32.71484375,0.0
1734504144.6448843,-74.21875,-39.55078125,32.2265625,-27.34375,0.0
1734504144.6489382,-61.03515625,-119.62890625,20.99609375,-53.22265625,0.0
1734504144.6528437,-59.08203125,-4.39453125,49.8046875,-61.03515625,0.0
1734504144.656749,-72.75390625,-3.41796875,64.94140625,-35.64453125,0.0
1734504144.6606545,-92.7734375,-135.7421875,60.546875,-11.23046875,0.0
1734504144.66456,-93.26171875,-179.6875,33.203125,-24.4140625,0.0
1734504144.6684654,-62.01171875,-73.2421875,-15.625,-47.8515625,0.0
1734504144.672371,-84.47265625,104.4921875,-55.6640625,-58.10546875,0.0
1734504144.6762762,-119.140625,218.75,-101.07421875,-53.7109375,0.0
1734504144.6801817,-90.8203125,99.609375,-160.15625,-39.0625,0.0
1734504144.684087,-65.91796875,241.69921875,-197.75390625,-57.6171875,0.0
1734504144.6879926,-79.1015625,492.1875,-183.10546875,-78.61328125,0.0
1734504144.6918979,-94.7265625,426.26953125,-147.4609375,-36.1328125,0.0
1734504144.695895,-54.6875,292.48046875,-133.7890625,-17.08984375,0.0
1734504144.6998003,-38.57421875,343.26171875,-125.0,-45.41015625,0.0
1734504144.7037058,-47.8515625,407.2265625,-120.60546875,-67.3828125,0.0
1734504144.707611,-17.578125,372.0703125,-128.90625,-79.58984375,0.0
1734504144.7115166,-25.87890625,379.39453125,-142.08984375,-84.47265625,0.0
1734504144.715422,-19.53125,492.67578125,-145.5078125,-68.84765625,0.0
1734504144.7193274,-30.76171875,531.25,-149.4140625,-37.59765625,0.0
1734504144.723233,-87.40234375,356.93359375,-153.80859375,-38.57421875,0.0
1734504144.7271383,-87.40234375,201.171875,-151.3671875,-70.3125,0.0
1734504144.7310438,-73.2421875,414.55078125,-168.9453125,-110.83984375,0.0
1734504144.734949,-69.82421875,492.67578125,-175.29296875,-101.5625,0.0
1734504144.7388546,-104.00390625,406.25,-181.640625,-81.54296875,0.0
1734504144.7427905,0.0,427.24609375,-197.265625,-75.1953125,0.0
1734504144.746696,0.0,480.46875,-189.94140625,-110.83984375,0.0
1734504144.7506015,0.0,514.6484375,-196.2890625,-137.20703125,0.0
1734504144.7545068,0.0,527.83203125,-188.96484375,-100.09765625,0.0
1734504144.7584124,0.0,603.02734375,-183.59375,-115.72265625,0.0
1734504144.7623177,0.0,588.37890625,-194.82421875,-146.97265625,0.0
1734504144.7662232,0.0,435.546875,-198.2421875,-74.70703125,0.0
1734504144.7701285,0.0,115.234375,-231.93359375,-112.79296875,0.0
1734504144.774034,0.0,-94.23828125,-249.51171875,-167.48046875,0.0
1734504144.7779396,0.0,-328.125,-220.21484375,-172.36328125,0.0
1734504144.7818449,0.0,-550.29296875,-200.1953125,-193.359375,0.0
1734504144.7857504,0.0,-467.28515625,-223.14453125,-174.31640625,0.0
1734504144.78964,-153.80859375,-352.5390625,-273.4375,-128.41796875,0.0
1734504144.7935452,-132.8125,-366.2109375,-360.83984375,-116.69921875,0.0
1734504144.7974508,-160.15625,-430.6640625,-354.00390625,-129.8828125,0.0
1734504144.801356,-136.23046875,-402.83203125,-309.5703125,-127.9296875,0.0
1734504144.8052616,-95.703125,-377.9296875,-326.171875,-114.74609375,0.0
1734504144.8091671,-104.98046875,-426.7578125,-382.32421875,-129.8828125,0.0
1734504144.8130724,-185.05859375,-540.0390625,-526.3671875,-152.34375,0.0
1734504144.816978,-199.21875,-691.40625,-617.67578125,-116.2109375,0.0
1734504144.8208833,-111.81640625,-636.71875,-795.41015625,-110.3515625,0.0
1734504144.8247888,-69.3359375,-726.07421875,-956.54296875,-100.09765625,0.0
1734504144.828694,-60.546875,-852.5390625,-989.74609375,-109.86328125,0.0
1734504144.8325996,-85.44921875,-857.91015625,-1000.0,-119.62890625,0.0
1734504144.8364325,-88.37890625,-935.546875,-999.51171875,-35.64453125,0.0
1734504144.8403378,-69.3359375,-999.0234375,-1000.0,-12.20703125,0.0
1734504144.8442433,-62.98828125,-998.53515625,-1000.0,-97.65625,0.0
1734504144.8481486,-79.1015625,-1000.0,-1000.0,-97.65625,0.0
1734504144.852054,-48.33984375,-1000.0,-1000.0,-45.41015625,0.0
1734504144.8559597,73.73046875,-1000.0,-1000.0,-54.19921875,0.0
1734504144.859865,78.61328125,-1000.0,-1000.0,-68.359375,0.0
1734504144.8637705,-68.84765625,-992.1875,-1000.0,-28.3203125,0.0
1734504144.8676758,-167.96875,-997.55859375,-1000.0,-22.4609375,0.0
1734504144.8715813,-156.25,-1000.0,-1000.0,-65.91796875,0.0
1734504144.8754866,-50.29296875,-1000.0,-1000.0,-30.76171875,0.0
1734504144.8793921,34.66796875,-1000.0,-1000.0,-25.87890625,0.0
1734504144.8835914,0.0,-1000.0,0.0,-4.8828125,0.0
1734504144.887497,0.0,-1000.0,0.0,65.91796875,0.0
1734504144.8914022,0.0,-1000.0,0.0,55.17578125,0.0
1734504144.8953078,0.0,-1000.0,0.0,56.15234375,0.0
1734504144.8992133,0.0,-1000.0,0.0,128.90625,0.0
1734504144.9031186,0.0,-1000.0,0.0,96.6796875,0.0
1734504144.9070241,0.0,-1000.0,0.0,79.58984375,0.0
1734504144.9109294,0.0,-1000.0,0.0,149.4140625,0.0
1734504144.914835,0.0,-1000.0,0.0,153.3203125,0.0
1734504144.9187403,0.0,-1000.0,0.0,175.29296875,0.0
1734504144.9226458,0.0,-1000.0,0.0,202.63671875,0.0
1734504144.9265513,0.0,-1000.0,0.0,242.67578125,0.0
1734504144.9307122,24.4140625,-1000.0,-1000.0,307.6171875,0.0
1734504144.9346175,47.36328125,-1000.0,-1000.0,351.5625,0.0
1734504144.938523,58.59375,-1000.0,-1000.0,375.48828125,0.0
1734504144.9424286,4.39453125,-1000.0,-1000.0,388.18359375,0.0
1734504144.946334,36.62109375,-1000.0,-1000.0,453.61328125,0.0
1734504144.9502394,50.29296875,-1000.0,-1000.0,501.953125,0.0
1734504144.9541447,56.640625,-1000.0,-1000.0,517.578125,0.0
1734504144.9580503,140.13671875,-1000.0,-1000.0,546.38671875,0.0
1734504144.9619555,179.6875,-1000.0,-1000.0,595.21484375,0.0
1734504144.965861,143.5546875,-1000.0,-1000.0,649.90234375,0.0
1734504144.9697666,96.6796875,-1000.0,-1000.0,638.671875,0.0
1734504144.973672,93.75,-1000.0,-1000.0,660.15625,0.0
1734504144.9777749,62.98828125,-1000.0,-999.51171875,715.8203125,0.0
1734504144.9816802,60.546875,-1000.0,-996.58203125,707.03125,0.0
1734504144.9855857,134.27734375,-1000.0,-957.51953125,745.1171875,0.0
1734504144.9894912,112.79296875,-1000.0,-873.53515625,766.11328125,0.0
1734504144.9933965,150.87890625,-999.0234375,-813.4765625,796.38671875,0.0
1734504144.997302,217.7734375,-999.0234375,-754.39453125,806.15234375,0.0
1734504145.0012074,165.0390625,-997.0703125,-649.90234375,803.7109375,0.0
1734504145.005113,123.046875,-919.921875,-536.62109375,876.953125,0.0
1734504145.0090182,183.10546875,-752.9296875,-414.55078125,933.10546875,0.0
1734504145.0129237,185.546875,-568.359375,-319.82421875,864.74609375,0.0
1734504145.0168293,194.3359375,-438.96484375,-262.20703125,854.00390625,0.0
1734504145.0207345,223.14453125,-413.57421875,-222.65625,886.71875,0.0
1734504145.0247765,172.8515625,-417.96875,-165.0390625,888.671875,0.0
1734504145.028682,208.984375,-361.81640625,-91.30859375,874.0234375,0.0
1734504145.0325873,245.1171875,-218.75,-11.23046875,925.78125,0.0
1734504145.0364928,252.9296875,-53.22265625,62.01171875,949.70703125,0.0
1734504145.0403984,260.7421875,29.296875,125.48828125,893.5546875,0.0
1734504145.0443037,252.9296875,51.7578125,207.03125,877.44140625,0.0
1734504145.0482092,230.46875,115.72265625,221.6796875,872.0703125,0.0
1734504145.0521145,197.75390625,176.7578125,229.4921875,890.13671875,0.0
1734504145.05602,220.21484375,150.390625,348.14453125,903.3203125,0.0
1734504145.0599256,265.625,125.0,453.125,916.015625,0.0
1734504145.0638309,291.015625,83.49609375,510.25390625,946.2890625,0.0
1734504145.0677364,291.9921875,87.890625,553.7109375,969.23828125,0.0
1734504145.071718,301.26953125,128.90625,600.5859375,968.26171875,0.0
1734504145.0756235,230.95703125,171.875,650.390625,937.98828125,0.0
1734504145.0795288,213.8671875,227.5390625,676.7578125,917.48046875,0.0
1734504145.0834343,254.8828125,256.34765625,705.078125,925.78125,0.0
1734504145.0873399,245.1171875,267.578125,728.515625,922.36328125,0.0
1734504145.0912452,234.86328125,325.1953125,741.2109375,932.12890625,0.0
1734504145.0951507,328.61328125,386.23046875,756.8359375,938.96484375,0.0
1734504145.099056,304.19921875,401.85546875,788.0859375,961.42578125,0.0
1734504145.1029615,260.25390625,405.76171875,819.3359375,971.19140625,0.0
1734504145.1068668,275.390625,449.21875,814.94140625,967.28515625,0.0
1734504145.1107724,266.6015625,499.0234375,809.08203125,968.75,0.0
1734504145.114678,277.83203125,536.1328125,835.9375,968.75,0.0
1734504145.1185973,259.27734375,580.56640625,0.0,968.75,0.0
1734504145.1225028,241.2109375,611.81640625,0.0,968.75,0.0
1734504145.126408,256.34765625,639.16015625,0.0,968.75,0.0
1734504145.1303136,258.30078125,680.17578125,0.0,968.75,0.0
1734504145.134219,262.20703125,737.3046875,0.0,968.75,0.0
1734504145.1381245,286.1328125,770.01953125,0.0,968.75,0.0
1734504145.14203,282.71484375,793.45703125,0.0,968.26171875,0.0
1734504145.1459353,257.32421875,802.734375,0.0,968.26171875,0.0
1734504145.1498408,235.3515625,811.5234375,0.0,968.75,0.0
1734504145.1537461,220.21484375,838.8671875,0.0,968.26171875,0.0
1734504145.1576517,191.40625,854.00390625,0.0,968.75,0.0
1734504145.1615572,201.171875,891.11328125,0.0,967.7734375,0.0
1734504145.1654534,253.41796875,929.6875,942.3828125,969.7265625,0.0
1734504145.169359,254.39453125,947.265625,950.68359375,964.84375,0.0
1734504145.1732643,200.68359375,967.7734375,961.42578125,939.453125,0.0
1734504145.1771698,193.359375,962.890625,968.75,914.55078125,0.0
1734504145.1810753,196.2890625,975.09765625,968.26171875,885.7421875,0.0
1734504145.1849806,203.61328125,937.98828125,968.75,884.27734375,0.0
1734504145.1888862,235.83984375,770.01953125,968.26171875,874.0234375,0.0
1734504145.1927915,257.32421875,714.35546875,968.75,850.09765625,0.0
1734504145.196697,291.9921875,755.859375,968.26171875,845.703125,0.0
1734504145.2006023,281.73828125,783.203125,968.26171875,799.8046875,0.0
1734504145.2045078,220.703125,836.42578125,967.7734375,780.2734375,0.0
1734504145.2084134,213.8671875,917.96875,944.82421875,763.18359375,0.0
1734504145.2131307,0.0,969.23828125,923.33984375,710.9375,0.0
1734504145.217036,0.0,967.28515625,933.10546875,718.26171875,0.0
1734504145.2209415,0.0,968.26171875,929.6875,704.1015625,0.0
1734504145.2248468,0.0,968.75,905.2734375,656.25,0.0
1734504145.2287524,0.0,968.26171875,907.2265625,663.0859375,0.0
1734504145.232658,0.0,968.75,862.3046875,634.27734375,0.0
1734504145.2365632,0.0,968.75,769.04296875,632.8125,0.0
1734504145.2404687,0.0,968.75,755.37109375,635.7421875,0.0
1734504145.244374,0.0,968.75,760.25390625,599.609375,0.0
1734504145.2482796,0.0,968.75,771.97265625,577.1484375,0.0
1734504145.252185,0.0,968.75,779.296875,562.5,0.0
1734504145.2560904,0.0,968.75,773.92578125,553.7109375,0.0
1734504145.259814,186.03515625,968.75,776.3671875,547.8515625,0.0
1734504145.2637196,174.8046875,968.75,776.85546875,523.92578125,0.0
1734504145.267625,189.94140625,968.75,769.04296875,486.328125,0.0
1734504145.2715304,189.94140625,968.75,769.04296875,458.0078125,0.0
1734504145.275436,207.51953125,968.75,764.16015625,432.12890625,0.0
1734504145.2793412,226.5625,968.75,776.3671875,422.8515625,0.0
1734504145.2832468,222.65625,968.75,780.2734375,445.3125,0.0
1734504145.2871523,234.375,968.75,763.671875,433.59375,0.0
1734504145.2910576,226.07421875,968.75,760.25390625,359.86328125,0.0
1734504145.2949631,163.57421875,968.75,762.20703125,342.7734375,0.0
1734504145.2988684,142.08984375,968.75,755.37109375,376.953125,0.0
1734504145.302774,145.99609375,968.26171875,747.55859375,374.51171875,0.0
1734504145.3068657,156.25,968.26171875,751.46484375,352.5390625,0.0
1734504145.3107712,152.83203125,968.75,751.46484375,347.65625,0.0
1734504145.3146765,140.625,968.75,745.1171875,331.54296875,0.0
1734504145.318582,143.06640625,968.75,729.4921875,331.0546875,0.0
1734504145.3224876,192.3828125,969.23828125,696.2890625,321.2890625,0.0
1734504145.326393,202.1484375,967.7734375,687.5,287.59765625,0.0
1734504145.3302984,137.6953125,967.7734375,695.80078125,271.484375,0.0
1734504145.3342037,142.578125,968.26171875,690.91796875,260.25390625,0.0
1734504145.3381093,169.921875,927.734375,696.77734375,252.9296875,0.0
1734504145.3420148,147.94921875,857.91015625,697.75390625,243.1640625,0.0
1734504145.34592,151.3671875,823.73046875,684.08203125,251.953125,0.0
1734504145.3498256,170.8984375,801.7578125,666.9921875,227.5390625,0.0
1734504145.3538659,138.18359375,771.484375,657.2265625,212.40234375,0.0
1734504145.3577712,136.23046875,730.46875,646.484375,235.3515625,0.0
1734504145.3616767,182.12890625,691.40625,645.5078125,218.26171875,0.0
1734504145.365582,156.73828125,674.31640625,641.6015625,186.5234375,0.0
1734504145.3694875,127.9296875,646.97265625,617.67578125,177.24609375,0.0
1734504145.373393,152.83203125,604.98046875,601.5625,178.7109375,0.0
1734504145.3772984,155.2734375,553.7109375,600.5859375,168.9453125,0.0
1734504145.381204,141.11328125,528.80859375,603.515625,184.08203125,0.0
1734504145.3851092,131.8359375,523.92578125,589.84375,165.52734375,0.0
1734504145.3890147,143.06640625,503.41796875,566.40625,118.65234375,0.0
1734504145.3929203,114.2578125,502.44140625,580.56640625,102.05078125,0.0
1734504145.3968256,112.79296875,454.1015625,613.76953125,112.3046875,0.0
1734504145.4008021,127.44140625,382.8125,614.74609375,132.32421875,0.0
1734504145.4047077,108.88671875,359.375,608.3984375,119.62890625,0.0
1734504145.4086132,102.05078125,343.26171875,598.14453125,96.6796875,0.0
1734504145.4125185,107.91015625,322.75390625,578.61328125,82.03125,0.0
1734504145.416424,114.2578125,292.96875,565.91796875,93.75,0.0
1734504145.4203293,137.20703125,264.16015625,549.31640625,91.796875,0.0
1734504145.4242349,157.71484375,238.28125,548.828125,75.1953125,0.0
1734504145.4281404,132.8125,220.21484375,560.05859375,79.1015625,0.0
1734504145.4320457,125.9765625,231.4453125,547.8515625,70.3125,0.0
1734504145.4359512,110.3515625,250.0,537.59765625,52.24609375,0.0
1734504145.4398565,78.125,242.67578125,538.0859375,47.36328125,0.0
1734504145.443762,70.3125,228.515625,538.0859375,33.203125,0.0
1734504145.4476786,99.609375,220.21484375,528.80859375,4.39453125,0.0
1734504145.451584,93.75,231.93359375,514.16015625,-19.53125,0.0
1734504145.4554896,81.0546875,239.74609375,511.23046875,-33.69140625,0.0
1734504145.459395,111.81640625,248.53515625,512.20703125,-52.24609375,0.0
1734504145.4633005,111.81640625,254.8828125,495.1171875,-60.546875,0.0
1734504145.4672058,134.27734375,256.34765625,502.9296875,-59.08203125,0.0
1734504145.4711113,158.69140625,284.66796875,516.6015625,-38.0859375,0.0
1734504145.4750168,111.328125,307.12890625,503.90625,-35.15625,0.0
1734504145.4789221,92.7734375,320.3125,489.74609375,-44.921875,0.0
1734504145.4828277,96.6796875,365.72265625,489.2578125,-47.8515625,0.0
1734504145.486733,143.5546875,372.55859375,500.0,-78.125,0.0
1734504145.4906385,137.6953125,353.02734375,499.51171875,-63.96484375,0.0
1734504145.4945319,87.890625,366.69921875,483.3984375,-58.10546875,0.0
1734504145.4984374,93.75,365.72265625,475.5859375,-76.66015625,0.0
1734504145.5023427,107.91015625,369.140625,491.2109375,-72.75390625,0.0
1734504145.5062482,78.61328125,373.53515625,504.8828125,-66.89453125,0.0
1734504145.5101538,72.75390625,381.34765625,512.6953125,-39.0625,0.0
1734504145.514059,89.35546875,391.6015625,509.765625,-44.43359375,0.0
1734504145.5179646,83.0078125,414.0625,503.41796875,-69.82421875,0.0
1734504145.52187,94.7265625,427.734375,497.55859375,-69.82421875,0.0
1734504145.5257754,112.3046875,440.91796875,492.1875,-53.22265625,0.0
1734504145.529681,107.91015625,455.078125,484.86328125,-52.24609375,0.0
1734504145.5335863,92.7734375,463.8671875,476.07421875,-36.62109375,0.0
1734504145.5374918,80.078125,490.72265625,474.609375,-53.22265625,0.0
1734504145.5413399,0.0,520.01953125,473.6328125,-63.96484375,0.0
1734504145.5452452,0.0,552.734375,464.35546875,-56.640625,0.0
1734504145.5491507,0.0,574.21875,468.26171875,-34.66796875,0.0
1734504145.553056,0.0,578.125,486.328125,-24.4140625,0.0
1734504145.5569615,0.0,580.078125,491.69921875,-37.59765625,0.0
1734504145.560867,0.0,583.984375,485.3515625,-46.875,0.0
1734504145.5647724,0.0,584.47265625,477.5390625,-35.15625,0.0
1734504145.568678,0.0,588.8671875,473.14453125,-24.90234375,0.0
1734504145.5725832,0.0,610.3515625,467.7734375,-39.55078125,0.0
1734504145.5764887,0.0,607.421875,465.33203125,-36.62109375,0.0
1734504145.5803943,0.0,600.09765625,463.37890625,-59.5703125,0.0
1734504145.5842996,0.0,604.4921875,457.03125,-52.24609375,0.0
1734504145.588115,51.26953125,604.98046875,459.9609375,-43.45703125,0.0
1734504145.5920205,86.9140625,613.76953125,468.75,-11.71875,0.0
1734504145.5959258,124.51171875,620.60546875,470.21484375,-21.484375,0.0
1734504145.5998313,92.7734375,618.65234375,481.93359375,-47.8515625,0.0
1734504145.6037366,75.68359375,619.140625,491.69921875,9.765625,0.0
1734504145.6076422,122.0703125,606.93359375,494.62890625,31.25,0.0
1734504145.6115477,82.51953125,594.23828125,489.74609375,-26.85546875,0.0
1734504145.615453,37.109375,631.8359375,475.09765625,-38.57421875,0.0
1734504145.6193585,62.5,675.78125,472.65625,-34.1796875,0.0
1734504145.6232638,73.73046875,682.12890625,474.12109375,-38.57421875,0.0
1734504145.6271694,56.15234375,677.734375,474.12109375,-25.390625,0.0
1734504145.631075,31.73828125,676.26953125,476.5625,-24.4140625,0.0
1734504145.634823,31.25,671.38671875,478.02734375,-25.390625,0.0
1734504145.6387284,55.17578125,665.52734375,482.421875,-6.34765625,0.0
1734504145.642634,69.3359375,662.109375,469.23828125,-21.97265625,0.0
1734504145.6465392,88.8671875,692.87109375,445.80078125,-14.6484375,0.0
1734504145.6504447,73.2421875,734.375,458.984375,8.7890625,0.0
1734504145.6543503,62.98828125,742.1875,472.65625,-24.90234375,0.0
1734504145.6582556,83.0078125,745.60546875,470.21484375,-38.0859375,0.0
1734504145.662161,80.078125,757.8125,464.84375,5.37109375,0.0
1734504145.6660664,100.5859375,759.765625,460.9375,13.18359375,0.0
1734504145.669972,88.37890625,755.859375,455.078125,4.8828125,0.0
1734504145.6738775,56.15234375,748.53515625,444.3359375,58.10546875,0.0
1734504145.6777828,64.453125,749.0234375,431.15234375,63.96484375,0.0
1734504145.6818893,0.0,748.53515625,426.26953125,62.5,0.0
1734504145.6857948,0.0,746.09375,428.22265625,135.25390625,0.0
1734504145.6897001,0.0,759.765625,423.33984375,190.91796875,0.0
1734504145.6936057,0.0,777.34375,414.0625,196.77734375,0.0
1734504145.6975112,0.0,781.73828125,399.90234375,199.21875,0.0
1734504145.7014165,0.0,792.96875,392.578125,225.5859375,0.0
1734504145.705322,0.0,831.0546875,396.484375,262.6953125,0.0
1734504145.7092273,0.0,867.1875,407.71484375,291.50390625,0.0
1734504145.7131329,0.0,882.8125,399.4140625,310.05859375,0.0
1734504145.7170384,0.0,906.25,397.94921875,349.12109375,0.0
1734504145.7209437,0.0,928.22265625,400.390625,395.99609375,0.0
1734504145.7248492,0.0,947.75390625,377.44140625,394.04296875,0.0
1734504145.7278066,64.94140625,967.28515625,370.60546875,382.32421875,0.0
1734504145.731712,101.07421875,968.75,381.34765625,393.5546875,0.0
1734504145.7356176,67.87109375,967.7734375,369.62890625,378.41796875,0.0
1734504145.739523,39.0625,968.75,371.09375,371.09375,0.0
1734504145.7434285,73.2421875,968.75,394.04296875,397.4609375,0.0
1734504145.7473338,84.47265625,968.26171875,375.0,391.11328125,0.0
1734504145.7512393,69.3359375,968.75,361.328125,398.92578125,0.0
1734504145.7551446,59.5703125,968.75,380.37109375,392.578125,0.0
1734504145.7590501,79.1015625,968.75,375.0,364.74609375,0.0
1734504145.7629557,87.40234375,968.75,378.41796875,414.55078125,0.0
1734504145.766861,99.609375,968.75,386.23046875,464.35546875,0.0
1734504145.7707665,65.4296875,968.75,371.58203125,429.19921875,0.0
1734504145.7748017,49.31640625,968.75,371.09375,399.90234375,0.0
1734504145.778707,71.2890625,968.75,369.62890625,407.2265625,0.0
1734504145.7826126,64.453125,968.26171875,357.91015625,414.55078125,0.0
1734504145.7865179,51.26953125,968.75,353.02734375,416.50390625,0.0
1734504145.7904234,44.43359375,967.7734375,351.5625,421.875,0.0
1734504145.794329,64.94140625,947.265625,349.609375,416.50390625,0.0
1734504145.7982342,81.0546875,919.921875,344.23828125,393.06640625,0.0
1734504145.8021398,56.15234375,895.5078125,348.14453125,365.234375,0.0
1734504145.806045,52.734375,885.25390625,347.65625,368.65234375,0.0
1734504145.8099506,68.359375,890.13671875,333.49609375,372.0703125,0.0
1734504145.813856,59.08203125,881.34765625,318.84765625,331.54296875,0.0
1734504145.8177614,72.75390625,859.86328125,323.2421875,305.17578125,0.0
1734504145.8217406,85.44921875,833.0078125,334.9609375,312.5,0.0
1734504145.8256462,54.19921875,814.453125,333.0078125,305.17578125,0.0
1734504145.8295515,50.78125,790.0390625,324.70703125,299.31640625,0.0
1734504145.833457,72.75390625,796.875,316.89453125,270.99609375,0.0
1734504145.8373625,54.6875,801.7578125,320.80078125,278.80859375,0.0
1734504145.8412678,43.9453125,789.55078125,322.75390625,281.25,0.0
1734504145.8451734,49.8046875,770.5078125,306.15234375,244.140625,0.0
1734504145.8490787,27.34375,755.859375,301.7578125,234.375,0.0
1734504145.8529842,23.92578125,751.953125,298.828125,230.46875,0.0
1734504145.8568897,44.43359375,750.48828125,278.3203125,212.40234375,0.0
1734504145.860795,37.59765625,735.83984375,274.4140625,205.078125,0.0
1734504145.8647006,47.36328125,697.75390625,290.52734375,218.26171875,0.0
1734504145.8686168,59.5703125,707.03125,297.36328125,209.9609375,0.0
1734504145.8725224,55.6640625,722.16796875,288.57421875,174.8046875,0.0
1734504145.8764277,55.17578125,694.82421875,287.59765625,167.96875,0.0
1734504145.8803332,55.17578125,684.08203125,289.55078125,170.8984375,0.0
1734504145.8842387,63.4765625,679.19921875,291.015625,217.28515625,0.0
1734504145.888144,73.2421875,655.2734375,285.64453125,202.63671875,0.0
1734504145.8920496,67.3828125,640.625,270.5078125,112.79296875,0.0
1734504145.8959548,59.08203125,632.32421875,265.13671875,134.765625,0.0
1734504145.8998604,43.9453125,630.37109375,268.06640625,150.87890625,0.0
1734504145.903766,36.62109375,625.0,278.80859375,121.09375,0.0
1734504145.9076712,38.0859375,617.1875,284.66796875,127.9296875,0.0
1734504145.9115767,39.0625,611.81640625,281.73828125,124.0234375,0.0
1734504145.915472,60.05859375,594.7265625,283.69140625,129.8828125,0.0
1734504145.9193776,77.63671875,551.26953125,276.85546875,144.53125,0.0
1734504145.9232829,56.640625,506.8359375,265.13671875,132.32421875,0.0
1734504145.9271884,58.59375,517.08984375,273.92578125,136.71875,0.0
1734504145.9310937,68.359375,531.73828125,274.90234375,107.421875,0.0
1734504145.9349992,46.38671875,527.83203125,258.30078125,73.73046875,0.0
1734504145.9389048,28.3203125,518.06640625,245.1171875,79.58984375,0.0
1734504145.94281,48.828125,505.859375,242.67578125,100.09765625,0.0
1734504145.9467156,47.36328125,515.13671875,233.88671875,84.47265625,0.0
1734504145.950621,48.828125,506.34765625,237.3046875,71.77734375,0.0
1734504145.9545264,63.4765625,486.81640625,255.859375,80.078125,0.0
1734504145.958432,41.015625,493.1640625,274.90234375,94.23828125,0.0
1734504145.96226,0.0,497.0703125,277.83203125,92.28515625,0.0
1734504145.9661655,0.0,489.74609375,269.04296875,80.078125,0.0
1734504145.970071,0.0,481.93359375,250.48828125,91.796875,0.0
1734504145.9739764,0.0,474.12109375,253.41796875,112.3046875,0.0
1734504145.977882,0.0,453.61328125,275.390625,92.28515625,0.0
1734504145.9817872,0.0,441.89453125,277.83203125,76.171875,0.0
1734504145.9856927,0.0,429.19921875,285.15625,90.33203125,0.0
1734504145.9895983,0.0,414.0625,294.43359375,89.35546875,0.0
1734504145.9935036,0.0,404.78515625,291.015625,88.37890625,0.0
1734504145.997409,0.0,393.06640625,293.9453125,107.421875,0.0
1734504146.0013144,0.0,382.32421875,294.43359375,123.53515625,0.0
1734504146.00522,0.0,385.7421875,286.1328125,116.69921875,0.0
1734504146.0089896,75.68359375,398.4375,291.50390625,118.1640625,0.0
1734504146.012895,77.63671875,392.578125,303.7109375,137.20703125,0.0
1734504146.0168004,79.58984375,391.6015625,312.01171875,153.80859375,0.0
1734504146.020706,87.890625,357.91015625,318.359375,154.78515625,0.0
1734504146.0246112,102.05078125,244.62890625,303.7109375,130.37109375,0.0
1734504146.0285168,108.88671875,151.3671875,291.9921875,133.7890625,0.0
1734504146.032422,103.02734375,116.69921875,301.7578125,151.3671875,0.0
1734504146.0363276,100.5859375,93.75,309.5703125,139.16015625,0.0
1734504146.0402331,99.12109375,71.2890625,296.875,127.44140625,0.0
1734504146.0441384,104.4921875,43.9453125,286.1328125,116.69921875,0.0
1734504146.048044,103.515625,31.25,292.48046875,105.95703125,0.0
1734504146.0519493,91.30859375,45.8984375,291.9921875,101.07421875,0.0
1734504146.0560775,64.453125,44.921875,279.296875,93.75,0.0
1734504146.059983,50.29296875,32.2265625,274.4140625,78.61328125,0.0
1734504146.0638885,71.2890625,1.953125,275.390625,75.1953125,0.0
1734504146.0677938,100.5859375,-20.01953125,277.34375,69.82421875,0.0
1734504146.0716994,76.171875,8.7890625,264.6484375,41.015625,0.0
1734504146.0756047,45.41015625,-35.64453125,249.51171875,51.26953125,0.0
1734504146.0795102,63.96484375,-110.3515625,253.41796875,57.6171875,0.0
1734504146.0834157,72.75390625,-136.23046875,262.20703125,15.625,0.0
1734504146.087321,48.33984375,-138.18359375,256.8359375,2.44140625,0.0
1734504146.0912266,66.40625,-174.8046875,256.34765625,5.859375,0.0
1734504146.0951319,69.82421875,-224.609375,259.27734375,-17.578125,0.0
1734504146.0990374,32.71484375,-244.140625,252.9296875,-2.44140625,0.0
1734504146.1031084,22.4609375,-259.27734375,241.2109375,10.7421875,0.0
1734504146.107014,-6.34765625,-271.484375,227.5390625,-32.71484375,0.0
1734504146.1109192,-2.9296875,-278.3203125,213.8671875,-51.26953125,0.0
1734504146.1148248,15.625,-300.78125,218.26171875,-38.0859375,0.0
1734504146.1187303,16.6015625,-319.3359375,215.33203125,-36.62109375,0.0
1734504146.1226356,61.5234375,-339.35546875,214.35546875,-47.36328125,0.0
1734504146.1265411,68.359375,-345.703125,219.23828125,-44.43359375,0.0
1734504146.1304464,32.71484375,-337.890625,209.47265625,-50.78125,0.0
1734504146.134352,-6.8359375,-348.14453125,186.03515625,-57.6171875,0.0
1734504146.1382575,-2.44140625,-345.21484375,175.78125,-49.31640625,0.0
1734504146.1421628,5.37109375,-321.77734375,186.03515625,-57.6171875,0.0
1734504146.1460683,-19.04296875,-335.44921875,190.91796875,-65.4296875,0.0
1734504146.1500835,0.0,-349.609375,193.359375,-89.35546875,0.0
1734504146.153989,0.0,-340.8203125,197.265625,-109.86328125,0.0
1734504146.1578946,0.0,-345.703125,200.1953125,-118.65234375,0.0
1734504146.1618,0.0,-387.20703125,204.1015625,-107.421875,0.0
1734504146.1657054,0.0,-479.4921875,204.58984375,-83.984375,0.0
1734504146.1696107,0.0,-577.1484375,195.80078125,-130.37109375,0.0
1734504146.1735163,0.0,-657.2265625,180.6640625,-148.4375,0.0
1734504146.1774218,0.0,-776.3671875,171.875,-148.4375,0.0
1734504146.181327,0.0,-946.77734375,155.76171875,-149.90234375,0.0
1734504146.1852326,0.0,-1000.0,106.4453125,-108.88671875,0.0
1734504146.189138,0.0,-995.1171875,114.2578125,-169.921875,0.0
1734504146.1930435,0.0,-1000.0,164.55078125,-212.40234375,0.0
1734504146.1959002,-18.06640625,-1000.0,147.4609375,-199.21875,0.0
1734504146.1998055,-5.859375,-1000.0,157.71484375,-190.4296875,0.0
1734504146.203711,6.34765625,-1000.0,205.56640625,-206.0546875,0.0
1734504146.2076163,32.71484375,-1000.0,199.21875,-225.09765625,0.0
1734504146.2115219,7.8125,-1000.0,192.87109375,-209.9609375,0.0
1734504146.2154274,4.8828125,-1000.0,190.4296875,-225.09765625,0.0
1734504146.2193327,0.0,-998.046875,184.5703125,-234.375,0.0
1734504146.2232382,14.6484375,-1000.0,186.03515625,-231.93359375,0.0
1734504146.2271435,-0.9765625,-985.83984375,180.17578125,-267.578125,0.0
1734504146.231049,15.625,-917.48046875,166.015625,-338.37890625,0.0
1734504146.2349544,58.59375,-870.1171875,157.71484375,-357.421875,0.0
1734504146.23886,38.0859375,-844.7265625,162.59765625,-355.95703125,0.0
1734504146.2416928,-13.671875,-807.6171875,161.1328125,-371.09375,0.0
1734504146.2455983,-16.6015625,-768.5546875,156.73828125,-377.44140625,0.0
1734504146.2495036,-2.44140625,-728.02734375,159.66796875,-375.48828125,0.0
1734504146.2534091,-12.20703125,-689.94140625,164.0625,-369.140625,0.0
1734504146.2573144,-7.8125,-661.1328125,162.59765625,-371.58203125,0.0
1734504146.26122,29.78515625,-630.859375,152.34375,-381.8359375,0.0
1734504146.2651253,-4.8828125,-590.8203125,151.85546875,-382.8125,0.0
1734504146.2690308,-62.01171875,-568.359375,155.76171875,-370.60546875,0.0
1734504146.272936,-49.31640625,-538.0859375,156.25,-355.46875,0.0
1734504146.2768416,-30.76171875,-493.65234375,158.69140625,-360.3515625,0.0
1734504146.280747,-23.4375,-467.28515625,156.25,-396.484375,0.0
1734504146.2846525,-6.34765625,-432.12890625,157.71484375,-384.765625,0.0
1734504146.2874544,-40.0390625,-389.16015625,163.0859375,-357.421875,0.0
1734504146.29136,-41.50390625,-345.703125,169.43359375,-360.3515625,0.0
1734504146.2952652,0.0,-303.7109375,169.921875,-366.2109375,0.0
1734504146.2991707,-13.18359375,-273.92578125,174.8046875,-360.83984375,0.0
1734504146.303076,-41.50390625,-245.60546875,178.22265625,-374.0234375,0.0
1734504146.3069816,0.48828125,-220.703125,167.48046875,-391.6015625,0.0
1734504146.3108869,1.46484375,-192.87109375,161.62109375,-369.140625,0.0
1734504146.3147924,-68.84765625,-144.53125,158.69140625,-345.703125,0.0
1734504146.3186977,-73.2421875,-57.6171875,145.5078125,-352.5390625,0.0
1734504146.3226032,-61.03515625,-2.44140625,143.5546875,-343.26171875,0.0
1734504146.3265085,-62.5,5.37109375,152.83203125,-341.30859375,0.0
1734504146.330414,-48.828125,20.5078125,158.69140625,-367.1875,0.0
1734504146.334306,-88.37890625,28.80859375,150.390625,-382.8125,0.0
1734504146.3382113,-52.24609375,31.73828125,142.578125,-349.12109375,0.0
1734504146.3421168,-24.4140625,53.22265625,142.08984375,-327.1484375,0.0
1734504146.3460221,-50.78125,65.4296875,135.25390625,-328.125,0.0
1734504146.3499277,-54.6875,55.17578125,117.1875,-312.5,0.0
1734504146.353833,-30.76171875,57.6171875,107.91015625,-291.015625,0.0
1734504146.3577385,-49.8046875,59.08203125,130.37109375,-288.0859375,0.0
1734504146.3616438,-67.87109375,69.3359375,156.25,-271.97265625,0.0
1734504146.3655493,-54.6875,85.9375,170.41015625,-276.85546875,0.0
1734504146.3694546,-34.1796875,96.19140625,166.9921875,-270.99609375,0.0
1734504146.3733602,-23.92578125,119.62890625,160.15625,-246.58203125,0.0
1734504146.3772657,-8.30078125,143.5546875,153.80859375,-224.609375,0.0
1734504146.381105,22.4609375,140.13671875,138.671875,-205.56640625,0.0
1734504146.3850105,9.27734375,125.9765625,142.08984375,-248.046875,0.0
1734504146.3889158,-18.06640625,136.71875,155.76171875,-263.671875,0.0
1734504146.3928213,-30.2734375,179.6875,155.76171875,-235.3515625,0.0
1734504146.3967266,-38.57421875,208.984375,136.71875,-229.98046875,0.0
1734504146.4006321,-32.2265625,222.65625,96.19140625,-219.23828125,0.0
1734504146.4045374,-35.15625,225.5859375,107.91015625,-212.40234375,0.0
1734504146.408443,-24.4140625,221.6796875,160.64453125,-202.63671875,0.0
1734504146.4123483,-37.109375,227.05078125,162.59765625,-185.546875,0.0
1734504146.4162538,-30.76171875,217.28515625,131.34765625,-183.10546875,0.0
1734504146.420159,-23.92578125,216.796875,123.046875,-193.84765625,0.0
1734504146.4240646,-31.25,230.95703125,135.7421875,-204.58984375,0.0
1734504146.428288,-32.71484375,235.83984375,145.01953125,-186.03515625,0.0
1734504146.4321933,-56.640625,226.07421875,145.99609375,-170.41015625,0.0
1734504146.4360988,-36.1328125,221.6796875,128.41796875,-177.734375,0.0
1734504146.440004,-11.23046875,229.98046875,139.6484375,-166.50390625,0.0
1734504146.4439096,-30.2734375,225.5859375,165.52734375,-152.83203125,0.0
1734504146.447815,-30.2734375,214.35546875,151.85546875,-150.390625,0.0
1734504146.4517205,-20.5078125,224.609375,145.5078125,-148.4375,0.0
1734504146.455626,-18.5546875,228.02734375,147.4609375,-130.37109375,0.0
1734504146.4595313,-5.859375,208.0078125,151.85546875,-122.55859375,0.0
1734504146.4634368,-15.13671875,194.82421875,148.4375,-122.0703125,0.0
1734504146.4673421,-31.25,214.84375,142.578125,-118.65234375,0.0
1734504146.4712477,-23.4375,229.98046875,153.80859375,-130.37109375,0.0
1734504146.4753852,6.8359375,215.33203125,162.59765625,-120.1171875,0.0
1734504146.4792907,9.27734375,193.359375,149.4140625,-101.07421875,0.0
1734504146.483196,-3.41796875,194.82421875,136.23046875,-129.39453125,0.0
1734504146.4871016,-39.0625,196.2890625,149.4140625,-132.8125,0.0
1734504146.4910069,-52.24609375,193.84765625,152.34375,-117.67578125,0.0
1734504146.4949124,-41.50390625,197.265625,132.32421875,-100.5859375,0.0
1734504146.4988177,-20.99609375,198.2421875,135.25390625,-109.86328125,0.0
1734504146.5027232,-8.30078125,195.80078125,146.97265625,-144.53125,0.0
1734504146.5066285,-21.97265625,179.6875,150.87890625,-134.765625,0.0
1734504146.510534,-10.7421875,158.203125,147.4609375,-101.07421875,0.0
1734504146.5144393,42.48046875,152.83203125,149.90234375,-69.82421875,0.0
1734504146.5183449,54.6875,135.7421875,142.08984375,-90.33203125,0.0
1734504146.522432,-52.24609375,99.609375,118.1640625,-125.9765625,0.0
1734504146.5263374,-81.0546875,75.68359375,129.8828125,-133.7890625,0.0
1734504146.530243,-29.296875,67.3828125,154.78515625,-125.0,0.0
1734504146.5341482,-10.25390625,64.453125,157.71484375,-128.90625,0.0
1734504146.5380538,-6.8359375,62.5,143.5546875,-145.5078125,0.0
1734504146.541959,1.953125,54.19921875,136.71875,-141.6015625,0.0
1734504146.5458646,-14.6484375,62.5,139.6484375,-125.48828125,0.0
1734504146.5497699,-33.69140625,69.82421875,140.625,-81.0546875,0.0
1734504146.5536754,-15.625,32.2265625,146.97265625,-124.0234375,0.0
1734504146.557581,-2.9296875,-7.32421875,143.5546875,-150.390625,0.0
1734504146.5614862,-25.390625,-20.5078125,152.34375,-125.48828125,0.0
1734504146.5653918,-21.484375,-46.875,147.4609375,-104.00390625,0.0
1734504146.5694473,-8.7890625,-55.17578125,119.62890625,-115.234375,0.0
1734504146.5733526,-62.5,-49.8046875,129.8828125,-149.4140625,0.0
1734504146.577258,-76.66015625,-61.5234375,149.4140625,-128.41796875,0.0
1734504146.5811634,-30.2734375,-74.21875,145.01953125,-112.3046875,0.0
1734504146.585069,1.953125,-86.42578125,145.01953125,-91.796875,0.0
1734504146.5889742,-3.90625,-104.00390625,136.23046875,-89.35546875,0.0
1734504146.5928798,17.08984375,-119.62890625,130.859375,-83.984375,0.0
1734504146.596785,32.71484375,-81.0546875,138.671875,-83.984375,0.0
1734504146.6006906,20.01953125,-74.21875,129.39453125,-93.75,0.0
1734504146.604596,60.546875,-154.78515625,135.7421875,-112.3046875,0.0
1734504146.6085014,-50.78125,-164.0625,147.94921875,-125.9765625,0.0
1734504146.612407,-106.4453125,-106.93359375,137.20703125,-133.7890625,0.0
1734504146.6163902,-45.8984375,-91.796875,127.44140625,-143.5546875,0.0
1734504146.6202955,-54.6875,-102.05078125,112.3046875,-149.4140625,0.0
1734504146.624201,-80.56640625,-92.7734375,104.00390625,-160.64453125,0.0
1734504146.6281064,-3.90625,-83.0078125,114.2578125,-143.06640625,0.0
1734504146.632012,19.53125,-76.66015625,127.44140625,-162.59765625,0.0
1734504146.6359174,-62.5,-65.91796875,134.765625,-160.64453125,0.0
1734504146.6398227,-79.1015625,-137.6953125,138.18359375,-129.39453125,0.0
1734504146.6437283,-38.57421875,-297.36328125,138.18359375,-131.8359375,0.0
1734504146.6476336,-15.13671875,-365.72265625,131.34765625,-142.08984375,0.0
1734504146.651539,-40.0390625,-365.234375,132.8125,-134.27734375,0.0
1734504146.6554444,-46.875,-376.46484375,133.30078125,-134.765625,0.0
1734504146.65935,-10.7421875,-385.25390625,129.8828125,-136.71875,0.0
1734504146.6632836,0.0,-381.34765625,133.30078125,-113.76953125,0.0
1734504146.667189,0.0,-385.25390625,133.7890625,-94.7265625,0.0
1734504146.6710944,0.0,-372.0703125,111.328125,-79.1015625,0.0
1734504146.6749997,0.0,-337.40234375,105.95703125,-90.33203125,0.0
1734504146.6789052,0.0,-319.3359375,120.1171875,-71.2890625,0.0
1734504146.6828105,0.0,-304.6875,122.0703125,-56.640625,0.0
1734504146.686716,0.0,-288.57421875,130.859375,-51.26953125,0.0
1734504146.6906216,0.0,-274.4140625,143.5546875,-82.03125,0.0
1734504146.694527,0.0,-234.86328125,141.11328125,-94.7265625,0.0
1734504146.6984324,0.0,-212.40234375,131.8359375,-60.05859375,0.0
1734504146.7023377,0.0,-208.984375,123.046875,-80.56640625,0.0
1734504146.7062433,0.0,-183.10546875,124.0234375,-83.49609375,0.0
1734504146.7101197,-29.296875,-148.4375,128.90625,-59.5703125,0.0
1734504146.7140253,-33.203125,-121.09375,131.34765625,-62.5,0.0
1734504146.7179306,-27.83203125,-100.09765625,125.0,-63.4765625,0.0
1734504146.721836,-8.7890625,-70.3125,118.1640625,-57.6171875,0.0
1734504146.7257414,-0.9765625,-47.36328125,107.421875,-31.25,0.0
1734504146.729647,10.25390625,-31.73828125,109.375,-6.34765625,0.0
1734504146.7335525,-14.16015625,-19.53125,121.09375,-20.5078125,0.0
1734504146.7374578,-14.16015625,8.30078125,132.32421875,-30.2734375,0.0
1734504146.7413633,23.92578125,46.38671875,137.6953125,-34.66796875,0.0
1734504146.7452686,22.4609375,62.01171875,121.58203125,-22.4609375,0.0
1734504146.749174,21.97265625,85.44921875,108.3984375,13.18359375,0.0
1734504146.7530794,5.37109375,125.9765625,114.2578125,18.5546875,0.0
1734504146.7569396,-0.9765625,125.9765625,126.46484375,15.625,0.0
1734504146.7608452,1.953125,112.3046875,103.515625,8.30078125,0.0
1734504146.7647505,-17.08984375,143.06640625,108.88671875,-17.578125,0.0
1734504146.768656,-30.76171875,180.6640625,143.06640625,-21.97265625,0.0
1734504146.7725613,-13.671875,193.359375,146.97265625,-1.953125,0.0
1734504146.7764668,-7.8125,212.40234375,145.01953125,28.3203125,0.0
1734504146.7803724,-10.7421875,229.98046875,134.27734375,12.6953125,0.0
1734504146.7842777,20.5078125,240.234375,112.3046875,-1.46484375,0.0
1734504146.7881832,5.859375,242.67578125,99.609375,12.6953125,0.0
1734504146.7920885,-44.43359375,232.421875,105.95703125,6.34765625,0.0
1734504146.795994,-29.296875,249.0234375,116.2109375,7.32421875,0.0
1734504146.7998993,15.625,263.18359375,96.6796875,25.87890625,0.0
1734504146.8040931,22.94921875,264.16015625,68.84765625,15.13671875,0.0
1734504146.8079984,6.34765625,275.87890625,95.21484375,27.34375,0.0
1734504146.811904,-20.5078125,268.5546875,122.55859375,32.2265625,0.0
1734504146.8158092,-14.16015625,268.5546875,109.86328125,39.0625,0.0
1734504146.8197148,26.85546875,280.76171875,99.12109375,50.29296875,0.0
1734504146.8236203,31.25,274.90234375,93.26171875,67.3828125,0.0
1734504146.8275256,17.578125,277.83203125,109.86328125,77.1484375,0.0
1734504146.8314312,8.7890625,284.1796875,115.234375,42.96875,0.0
1734504146.8353364,11.71875,274.90234375,98.6328125,29.296875,0.0
1734504146.839242,16.11328125,279.78515625,109.86328125,75.68359375,0.0
1734504146.8431473,-1.46484375,290.0390625,113.28125,60.05859375,0.0
1734504146.8470528,0.9765625,322.75390625,89.84375,-27.83203125,0.0
1734504146.8512046,0.0,346.6796875,82.51953125,-4.39453125,0.0
1734504146.8551102,0.0,341.30859375,101.07421875,86.9140625,0.0
1734504146.8590155,0.0,340.8203125,112.3046875,89.35546875,0.0
1734504146.862921,0.0,342.7734375,100.09765625,75.1953125,0.0
1734504146.8668263,0.0,343.75,87.890625,63.96484375,0.0
1734504146.8707318,0.0,359.86328125,113.28125,53.7109375,0.0
1734504146.8746374,0.0,360.83984375,132.8125,12.6953125,0.0
1734504146.8785427,0.0,339.84375,118.1640625,4.8828125,0.0
1734504146.8824482,0.0,333.984375,110.83984375,79.58984375,0.0
1734504146.8863535,0.0,324.70703125,112.79296875,86.9140625,0.0
1734504146.890259,0.0,355.95703125,98.14453125,45.8984375,0.0
1734504146.8941643,0.0,379.8828125,91.30859375,37.59765625,0.0
1734504146.8982332,-11.23046875,363.76953125,98.14453125,74.70703125,0.0
1734504146.9021387,8.30078125,370.60546875,104.00390625,108.3984375,0.0
1734504146.906044,6.34765625,380.859375,109.86328125,93.75,0.0
1734504146.9099495,-3.90625,380.37109375,104.98046875,81.0546875,0.0
1734504146.9138548,13.671875,408.69140625,101.5625,49.8046875,0.0
1734504146.9177604,-3.90625,407.71484375,109.375,122.55859375,0.0
1734504146.9216657,-13.671875,398.4375,87.40234375,120.60546875,0.0
1734504146.9255712,16.6015625,392.08984375,96.19140625,104.4921875,0.0
1734504146.9294765,23.92578125,366.2109375,122.55859375,160.64453125,0.0
1734504146.933382,39.0625,384.27734375,121.58203125,132.32421875,0.0
1734504146.9372876,21.484375,393.06640625,114.2578125,100.5859375,0.0
1734504146.9411929,-35.15625,377.44140625,99.609375,91.30859375,0.0
1734504146.9452062,0.0,372.0703125,0.0,74.21875,0.0
1734504146.9491117,0.0,372.0703125,0.0,85.44921875,0.0
1734504146.953017,0.0,360.3515625,0.0,80.078125,0.0
1734504146.9569225,0.0,364.2578125,0.0,62.01171875,0.0
1734504146.960828,0.0,386.23046875,0.0,57.6171875,0.0
1734504146.9647334,0.0,387.6953125,0.0,58.10546875,0.0
1734504146.968639,0.0,385.25390625,0.0,70.80078125,0.0
1734504146.9725442,0.0,395.5078125,0.0,49.31640625,0.0
1734504146.9764497,0.0,382.8125,0.0,37.59765625,0.0
1734504146.980355,0.0,369.62890625,0.0,62.01171875,0.0
1734504146.9842606,0.0,367.1875,0.0,56.15234375,0.0
1734504146.9881659,0.0,364.74609375,0.0,55.17578125,0.0
1734504146.9909987,-31.25,366.69921875,110.3515625,74.70703125,0.0
1734504146.994904,6.34765625,365.72265625,129.39453125,61.03515625,0.0
1734504146.9988096,8.30078125,351.5625,128.41796875,37.59765625,0.0
1734504147.0027149,-24.90234375,333.49609375,128.41796875,18.5546875,0.0
1734504147.0066204,-28.3203125,339.84375,107.91015625,14.16015625,0.0
1734504147.0105257,-12.6953125,347.65625,98.6328125,11.71875,0.0
1734504147.0144312,17.578125,354.98046875,114.74609375,5.859375,0.0
1734504147.0183365,19.53125,346.19140625,114.2578125,6.8359375,0.0
1734504147.022242,-29.78515625,326.171875,98.14453125,4.8828125,0.0
1734504147.0261476,-31.73828125,329.1015625,92.28515625,-3.90625,0.0
1734504147.030053,-16.6015625,326.66015625,103.02734375,-0.9765625,0.0
1734504147.0339584,2.9296875,324.70703125,107.91015625,15.13671875,0.0
1734504147.0379186,-4.8828125,333.0078125,76.66015625,3.90625,0.0
1734504147.0418239,-9.27734375,330.078125,76.171875,-8.30078125,0.0
1734504147.0457294,-2.44140625,325.1953125,68.359375,-7.32421875,0.0
1734504147.049635,-2.9296875,322.265625,53.22265625,-1.46484375,0.0
1734504147.0535402,-5.37109375,308.10546875,49.8046875,-0.9765625,0.0
1734504147.0574458,-22.4609375,292.96875,51.26953125,-8.7890625,0.0
1734504147.061351,-19.53125,281.73828125,53.22265625,-5.37109375,0.0
1734504147.0652566,-22.94921875,273.92578125,56.640625,25.87890625,0.0
1734504147.069162,-20.99609375,281.73828125,52.734375,31.73828125,0.0
1734504147.0730674,20.5078125,283.203125,41.015625,26.85546875,0.0
1734504147.0769727,31.73828125,270.99609375,28.3203125,-17.08984375,0.0
1734504147.0808783,-3.41796875,252.44140625,28.3203125,-49.8046875,0.0
1734504147.0847652,6.8359375,264.16015625,33.69140625,-36.62109375,0.0
1734504147.0886707,6.8359375,303.22265625,49.8046875,-6.8359375,0.0
1734504147.092576,5.37109375,290.52734375,63.96484375,19.53125,0.0
1734504147.0964816,12.20703125,256.8359375,47.36328125,15.13671875,0.0
1734504147.1003869,-55.6640625,267.578125,29.78515625,-22.4609375,0.0
1734504147.1042924,-57.6171875,261.71875,35.64453125,-48.33984375,0.0
1734504147.108198,-20.01953125,232.91015625,23.92578125,-43.9453125,0.0
1734504147.1121032,-22.94921875,224.12109375,19.04296875,-43.45703125,0.0
1734504147.1160088,-19.04296875,223.6328125,26.85546875,-26.85546875,0.0
1734504147.119914,4.8828125,195.80078125,31.25,-21.97265625,0.0
1734504147.1238196,-31.25,174.8046875,35.64453125,-27.83203125,0.0
1734504147.127725,-64.453125,164.0625,25.390625,-23.4375,0.0
1734504147.1315653,-3.41796875,126.46484375,32.71484375,-20.5078125,0.0
1734504147.1354709,18.5546875,118.1640625,41.015625,-1.46484375,0.0
1734504147.1393762,-11.71875,131.8359375,25.87890625,-16.11328125,0.0
1734504147.1432817,-19.53125,127.9296875,23.4375,-16.6015625,0.0
1734504147.147187,-10.7421875,103.515625,27.34375,-15.625,0.0
1734504147.1510925,-9.27734375,80.56640625,23.92578125,-31.25,0.0
1734504147.154998,8.30078125,74.70703125,35.15625,-15.625,0.0
1734504147.1589034,21.484375,88.37890625,36.1328125,-7.32421875,0.0
1734504147.162809,-16.6015625,92.28515625,36.1328125,-22.4609375,0.0
1734504147.1667142,-35.15625,53.22265625,40.52734375,-17.08984375,0.0
1734504147.1706197,-25.87890625,39.0625,52.734375,-8.7890625,0.0
1734504147.174525,-39.55078125,38.0859375,61.03515625,-29.296875,0.0
1734504147.1787434,-34.1796875,19.04296875,47.8515625,-6.34765625,0.0
1734504147.1826487,-1.953125,3.90625,32.2265625,-15.13671875,0.0
1734504147.1865542,-22.4609375,-6.8359375,33.203125,-38.0859375,0.0
1734504147.1904595,-31.25,-20.01953125,22.94921875,-28.80859375,0.0
1734504147.194365,22.94921875,-25.390625,27.34375,-18.06640625,0.0
1734504147.1982703,17.578125,-24.90234375,38.57421875,0.0,0.0
1734504147.2021759,-20.01953125,-22.94921875,38.0859375,-25.390625,0.0
1734504147.2060814,-47.8515625,-17.08984375,39.0625,-44.921875,0.0
1734504147.2099867,-35.15625,-2.9296875,32.71484375,-36.1328125,0.0
1734504147.2138922,5.37109375,-5.37109375,29.78515625,-30.2734375,0.0
1734504147.2177975,-9.765625,-2.44140625,24.4140625,-5.37109375,0.0
1734504147.221703,-17.08984375,18.5546875,27.83203125,-12.20703125,0.0
1734504147.225846,-26.85546875,30.76171875,39.0625,-58.10546875,0.0
1734504147.2297513,-27.83203125,37.59765625,40.0390625,-38.57421875,0.0
1734504147.233657,-1.46484375,46.38671875,25.390625,-2.44140625,0.0
1734504147.2375622,12.6953125,56.15234375,19.53125,-7.8125,0.0
1734504147.2414677,21.484375,65.4296875,37.109375,-36.62109375,0.0
1734504147.2453732,-31.25,62.5,52.734375,-30.76171875,0.0
1734504147.2492785,-48.33984375,64.94140625,51.26953125,-6.8359375,0.0
1734504147.253184,2.44140625,83.49609375,45.41015625,-23.4375,0.0
1734504147.2570894,-18.06640625,82.51953125,34.1796875,-25.390625,0.0
1734504147.260995,-62.98828125,84.9609375,26.3671875,-11.23046875,0.0
1734504147.2649002,-37.59765625,108.3984375,35.15625,0.0,0.0
1734504147.2688057,-16.6015625,111.328125,40.52734375,18.06640625,0.0
1734504147.2728906,-12.20703125,114.74609375,37.59765625,19.04296875,0.0
1734504147.2767959,-7.32421875,134.765625,38.0859375,23.92578125,0.0
1734504147.2807014,-39.0625,153.80859375,31.73828125,3.41796875,0.0
1734504147.284607,-26.3671875,172.8515625,22.94921875,-13.18359375,0.0
1734504147.2885122,1.46484375,187.01171875,28.3203125,8.30078125,0.0
1734504147.2924178,-5.859375,207.03125,31.25,9.27734375,0.0
1734504147.296323,-28.80859375,232.91015625,26.3671875,9.27734375,0.0
1734504147.3002286,-40.0390625,235.83984375,24.4140625,22.4609375,0.0
1734504147.304134,-25.390625,229.98046875,30.2734375,20.01953125,0.0
1734504147.3080394,-27.34375,249.0234375,26.3671875,20.01953125,0.0
1734504147.3119447,-24.90234375,279.78515625,22.4609375,6.8359375,0.0
1734504147.3158503,-20.5078125,283.203125,22.94921875,5.37109375,0.0
1734504147.3198996,0.0,272.94921875,20.99609375,15.625,0.0
1734504147.3238049,0.0,274.4140625,29.296875,41.015625,0.0
1734504147.3277104,0.0,274.90234375,34.1796875,34.1796875,0.0
1734504147.3316157,0.0,271.484375,22.94921875,2.44140625,0.0
1734504147.3355212,0.0,265.13671875,21.484375,9.765625,0.0
1734504147.3394265,0.0,257.32421875,36.62109375,34.66796875,0.0
1734504147.343332,0.0,244.62890625,37.109375,23.4375,0.0
1734504147.3472376,0.0,247.0703125,29.296875,37.109375,0.0
1734504147.351143,0.0,256.34765625,39.55078125,51.7578125,0.0
1734504147.3550484,0.0,287.59765625,37.59765625,46.875,0.0
1734504147.3589537,0.0,308.59375,36.62109375,19.04296875,0.0
1734504147.3628592,0.0,305.6640625,40.0390625,14.16015625,0.0
1734504147.3656893,-24.4140625,302.24609375,37.109375,20.99609375,0.0
1734504147.3695946,-24.90234375,293.45703125,33.69140625,7.32421875,0.0
1734504147.3735,6.8359375,273.92578125,37.109375,12.20703125,0.0
1734504147.3774054,11.71875,277.34375,40.52734375,7.8125,0.0
1734504147.381311,-21.484375,290.0390625,36.62109375,8.30078125,0.0
1734504147.3852165,-28.3203125,305.6640625,33.69140625,16.11328125,0.0
1734504147.3891218,0.9765625,321.77734375,32.2265625,-2.44140625,0.0
1734504147.3930273,7.8125,293.9453125,32.71484375,16.6015625,0.0
1734504147.3969326,13.671875,284.66796875,30.76171875,39.55078125,0.0
1734504147.4008381,8.30078125,293.45703125,35.15625,20.99609375,0.0
1734504147.4047434,-31.73828125,269.53125,43.9453125,4.39453125,0.0
1734504147.408649,-17.08984375,251.46484375,41.9921875,10.25390625,0.0
1734504147.412601,-42.96875,257.32421875,37.109375,16.6015625,0.0
1734504147.4165065,-22.4609375,258.7890625,27.83203125,8.7890625,0.0
1734504147.4204118,-15.625,258.30078125,31.25,23.4375,0.0
1734504147.4243174,1.46484375,235.83984375,41.9921875,29.78515625,0.0
1734504147.4282227,6.34765625,201.66015625,41.9921875,12.6953125,0.0
1734504147.4321282,-48.828125,216.796875,41.015625,-5.859375,0.0
1734504147.4360335,-48.33984375,237.3046875,37.109375,3.90625,0.0
1734504147.439939,-28.3203125,234.375,31.73828125,23.92578125,0.0
1734504147.4438446,-44.43359375,231.93359375,27.83203125,20.99609375,0.0
1734504147.4477499,-26.85546875,223.14453125,39.0625,11.71875,0.0
1734504147.4516554,-11.71875,215.33203125,60.546875,5.37109375,0.0
1734504147.4555607,-1.46484375,221.19140625,56.640625,21.484375,0.0
1734504147.459469,-4.39453125,212.890625,43.45703125,13.671875,0.0
1734504147.4633746,-24.90234375,201.171875,41.50390625,21.484375,0.0
1734504147.46728,-14.6484375,181.640625,29.296875,26.3671875,0.0
1734504147.4711854,-6.34765625,185.05859375,20.99609375,-6.8359375,0.0
1734504147.4750907,-4.39453125,217.7734375,30.76171875,-7.32421875,0.0
1734504147.4789963,-9.765625,225.5859375,41.9921875,13.18359375,0.0
1734504147.4829016,0.0,206.54296875,41.9921875,20.01953125,0.0
1734504147.486807,3.41796875,200.68359375,38.57421875,31.73828125,0.0
1734504147.4907124,9.27734375,214.84375,41.015625,17.578125,0.0
1734504147.494618,0.9765625,221.19140625,47.8515625,12.20703125,0.0
1734504147.4985232,-16.11328125,209.9609375,48.828125,8.30078125,0.0
1734504147.5024288,-22.94921875,194.82421875,46.875,9.27734375,0.0
1734504147.5062842,-14.16015625,199.70703125,49.31640625,13.18359375,0.0
1734504147.5101895,14.16015625,200.68359375,46.38671875,34.1796875,0.0
1734504147.514095,58.10546875,211.9140625,44.43359375,15.625,0.0
1734504147.5180006,41.50390625,218.26171875,50.78125,0.0,0.0
1734504147.521906,-15.625,202.63671875,52.734375,3.90625,0.0
1734504147.5258114,-11.23046875,199.21875,40.52734375,6.34765625,0.0
1734504147.5297167,0.0,175.29296875,41.9921875,2.9296875,0.0
1734504147.5336223,-5.859375,177.24609375,49.8046875,-17.08984375,0.0
1734504147.5375276,9.27734375,198.73046875,47.8515625,-20.01953125,0.0
1734504147.541433,-1.953125,205.56640625,51.26953125,2.9296875,0.0
1734504147.5453384,-20.01953125,206.0546875,51.7578125,13.671875,0.0
1734504147.549244,-7.32421875,229.4921875,50.78125,0.48828125,0.0
1734504147.5534754,-1.953125,295.41015625,45.8984375,4.8828125,0.0
1734504147.5573807,3.90625,347.16796875,48.828125,3.90625,0.0
1734504147.5612862,7.32421875,375.0,53.7109375,-14.6484375,0.0
1734504147.5651915,-1.46484375,386.23046875,46.875,-21.484375,0.0
1734504147.569097,-12.6953125,378.41796875,49.8046875,-14.6484375,0.0
1734504147.5730023,-4.8828125,377.9296875,45.41015625,-7.32421875,0.0
1734504147.5769079,-10.7421875,376.953125,48.33984375,5.37109375,0.0
1734504147.5808132,3.41796875,376.953125,50.29296875,4.39453125,0.0
1734504147.5847187,0.9765625,393.5546875,48.33984375,26.3671875,0.0
1734504147.588624,-0.9765625,393.06640625,52.734375,33.203125,0.0
1734504147.5925295,24.4140625,385.7421875,43.9453125,13.18359375,0.0
1734504147.596435,11.23046875,378.41796875,45.8984375,-15.625,0.0
1734504147.6006112,-17.578125,383.30078125,57.12890625,-0.9765625,0.0
1734504147.6045167,-13.671875,389.6484375,55.6640625,0.0,0.0
1734504147.608422,-16.11328125,370.60546875,51.26953125,-24.4140625,0.0
1734504147.6123276,-26.85546875,343.75,44.921875,-12.6953125,0.0
1734504147.616233,-40.0390625,348.6328125,33.69140625,-9.27734375,0.0
1734504147.6201384,-25.87890625,366.2109375,37.59765625,0.0,0.0
1734504147.624044,-14.16015625,360.83984375,43.45703125,-20.99609375,0.0
1734504147.6279492,-25.87890625,338.37890625,37.59765625,-30.76171875,0.0
1734504147.6318548,-20.5078125,326.66015625,38.0859375,-15.625,0.0
1734504147.63576,-2.44140625,327.63671875,41.015625,-7.32421875,0.0
1734504147.6396656,-5.37109375,343.75,42.96875,-26.85546875,0.0
1734504147.643571,4.8828125,335.9375,53.7109375,-29.78515625,0.0
1734504147.6476843,10.7421875,317.87109375,58.10546875,-0.48828125,0.0
1734504147.6515899,16.6015625,301.26953125,60.546875,-38.57421875,0.0
1734504147.6554952,-10.25390625,278.80859375,66.40625,-49.8046875,0.0
