timestamps,TP9,AF7,AF8,TP10,Right AUX
1734503730.2309382,-42.96875,-41.015625,-68.84765625,-56.15234375,0.0
1734503730.2348428,-42.96875,-35.64453125,-61.5234375,-72.265625,0.0
1734503730.2387474,-38.0859375,-33.69140625,-49.31640625,-64.94140625,0.0
1734503730.242652,-30.76171875,-34.66796875,-59.08203125,-55.17578125,0.0
1734503730.2465563,-30.2734375,-40.0390625,-52.24609375,-53.7109375,0.0
1734503730.2504609,-25.390625,-39.55078125,-42.48046875,-36.1328125,0.0
1734503730.2543654,-14.16015625,-31.25,-42.96875,-19.04296875,0.0
1734503730.25827,-12.6953125,-30.2734375,-35.64453125,-24.4140625,0.0
1734503730.2621746,-18.06640625,-45.41015625,-25.87890625,-33.69140625,0.0
1734503730.266079,-27.83203125,-52.24609375,-37.109375,-37.109375,0.0
1734503730.2699835,-34.1796875,-39.55078125,-48.33984375,-40.52734375,0.0
1734503730.2740204,0.0,-35.64453125,0.0,-43.45703125,0.0
1734503730.277925,0.0,-45.41015625,0.0,-48.828125,0.0
1734503730.2818296,0.0,-44.921875,0.0,-40.52734375,0.0
1734503730.2857342,0.0,-34.66796875,0.0,-48.33984375,0.0
1734503730.2896388,0.0,-48.33984375,0.0,-60.05859375,0.0
1734503730.293543,0.0,-67.3828125,0.0,-51.26953125,0.0
1734503730.2974477,0.0,-64.453125,0.0,-59.5703125,0.0
1734503730.3013523,0.0,-51.7578125,0.0,-60.546875,0.0
1734503730.3052568,0.0,-49.31640625,0.0,-61.03515625,0.0
1734503730.3091614,0.0,-48.828125,0.0,-52.24609375,0.0
1734503730.313066,0.0,-46.875,0.0,-54.6875,0.0
1734503730.3169703,0.0,-52.734375,0.0,-57.12890625,0.0
1734503730.3206756,-34.1796875,-49.31640625,-56.15234375,-43.9453125,0.0
1734503730.32458,-37.109375,-38.57421875,-62.98828125,-48.33984375,0.0
1734503730.3284845,-38.57421875,-41.50390625,-62.98828125,-60.546875,0.0
1734503730.332389,-41.50390625,-49.8046875,-48.828125,-57.6171875,0.0
1734503730.3362937,-46.875,-52.24609375,-42.48046875,-49.31640625,0.0
1734503730.3401983,-52.734375,-44.43359375,-47.36328125,-34.66796875,0.0
1734503730.3441026,-62.01171875,-36.1328125,-35.64453125,-19.53125,0.0
1734503730.3480072,-63.4765625,-41.50390625,-33.69140625,-25.87890625,0.0
1734503730.3519118,-61.03515625,-55.17578125,-40.52734375,-29.78515625,0.0
1734503730.3558164,-49.31640625,-51.7578125,-42.96875,-26.85546875,0.0
1734503730.359721,-43.45703125,-52.734375,-58.10546875,-40.0390625,0.0
1734503730.3636253,-44.43359375,-65.4296875,-59.08203125,-48.828125,0.0
1734503730.36762,-17.08984375,-51.26953125,-49.31640625,-43.9453125,0.0
1734503730.3715243,-22.4609375,-43.45703125,-53.7109375,-41.9921875,0.0
1734503730.375429,-32.71484375,-42.48046875,-60.546875,-36.62109375,0.0
1734503730.3793335,-28.80859375,-36.1328125,-59.5703125,-21.97265625,0.0
1734503730.383238,-34.66796875,-47.36328125,-54.6875,-26.3671875,0.0
1734503730.3871427,-41.50390625,-53.7109375,-60.05859375,-39.0625,0.0
1734503730.391047,-33.203125,-46.875,-66.40625,-50.29296875,0.0
1734503730.3949516,-37.109375,-41.50390625,-48.33984375,-54.19921875,0.0
1734503730.3988562,-44.43359375,-48.33984375,-33.69140625,-51.26953125,0.0
1734503730.4027607,-49.31640625,-56.15234375,-41.50390625,-68.84765625,0.0
1734503730.4066653,-49.31640625,-49.8046875,-34.66796875,-76.66015625,0.0
1734503730.4105697,-51.26953125,-49.31640625,-29.78515625,-79.1015625,0.0
1734503730.414557,-49.31640625,-43.45703125,-47.36328125,-80.078125,0.0
1734503730.4184613,-46.875,-47.8515625,-56.15234375,-78.125,0.0
1734503730.422366,-39.55078125,-65.4296875,-46.38671875,-68.359375,0.0
1734503730.4262705,-34.66796875,-52.734375,-47.36328125,-50.78125,0.0
1734503730.430175,-34.1796875,-37.59765625,-55.17578125,-40.52734375,0.0
1734503730.4340796,-33.203125,-36.62109375,-46.875,-46.875,0.0
1734503730.437984,-37.59765625,-35.15625,-47.36328125,-44.921875,0.0
1734503730.4418886,-38.57421875,-30.76171875,-65.4296875,-22.4609375,0.0
1734503730.4457932,-34.66796875,-33.69140625,-68.359375,-21.484375,0.0
1734503730.4496977,-30.2734375,-42.96875,-52.734375,-40.0390625,0.0
1734503730.4536023,-26.3671875,-47.36328125,-32.71484375,-34.66796875,0.0
1734503730.457507,-21.484375,-54.6875,-41.9921875,-23.4375,0.0
1734503730.4614766,-14.6484375,-58.10546875,-47.8515625,-23.92578125,0.0
1734503730.4653811,-22.4609375,-51.26953125,-42.48046875,-34.1796875,0.0
1734503730.4692857,-29.78515625,-47.8515625,-54.19921875,-39.55078125,0.0
1734503730.4731903,-26.85546875,-46.38671875,-45.8984375,-36.1328125,0.0
1734503730.477095,-18.5546875,-42.96875,-26.85546875,-29.78515625,0.0
1734503730.4809992,-22.4609375,-47.36328125,-40.52734375,-29.296875,0.0
1734503730.4849038,-27.83203125,-55.17578125,-56.15234375,-24.90234375,0.0
1734503730.4888084,-31.25,-53.22265625,-50.29296875,-23.4375,0.0
1734503730.492713,-47.8515625,-45.41015625,-49.31640625,-53.22265625,0.0
1734503730.4966176,-44.921875,-45.41015625,-43.45703125,-67.3828125,0.0
1734503730.5005221,-32.2265625,-45.41015625,-50.78125,-61.5234375,0.0
1734503730.5044265,-34.1796875,-45.41015625,-63.96484375,-61.03515625,0.0
1734503730.5083816,-32.2265625,-49.31640625,-57.6171875,-68.359375,0.0
1734503730.5122862,-28.80859375,-56.640625,-46.875,-62.01171875,0.0
1734503730.5161908,-37.59765625,-56.640625,-36.62109375,-49.8046875,0.0
1734503730.5200953,-42.48046875,-49.31640625,-31.73828125,-60.546875,0.0
1734503730.524,-41.015625,-45.8984375,-40.0390625,-56.15234375,0.0
1734503730.5279043,-33.203125,-39.0625,-57.12890625,-48.33984375,0.0
1734503730.5318089,-24.90234375,-46.38671875,-53.7109375,-45.41015625,0.0
1734503730.5357134,-30.2734375,-52.734375,-33.69140625,-33.69140625,0.0
1734503730.539618,-31.25,-43.9453125,-28.3203125,-31.25,0.0
1734503730.5435226,-31.73828125,-44.43359375,-32.2265625,-25.390625,0.0
1734503730.5474272,-21.484375,-38.0859375,-37.59765625,-22.94921875,0.0
1734503730.5513315,-21.97265625,-39.55078125,-44.43359375,-29.296875,0.0
1734503730.5552728,-18.5546875,-49.31640625,-43.9453125,-30.2734375,0.0
1734503730.5591774,-9.765625,-45.41015625,-50.29296875,-25.87890625,0.0
1734503730.5630817,-9.765625,-41.9921875,-39.55078125,-18.5546875,0.0
1734503730.5669863,-24.4140625,-42.48046875,-25.390625,-34.66796875,0.0
1734503730.570891,-37.109375,-29.296875,-36.1328125,-51.7578125,0.0
1734503730.5747955,-36.62109375,-25.87890625,-62.98828125,-53.22265625,0.0
1734503730.5787,-30.76171875,-30.76171875,-62.01171875,-31.73828125,0.0
1734503730.5826046,-32.71484375,-38.57421875,-38.57421875,-31.25,0.0
1734503730.586509,-41.015625,-58.10546875,-36.1328125,-57.6171875,0.0
1734503730.5904136,-42.96875,-54.6875,-33.203125,-61.5234375,0.0
1734503730.5943182,-46.38671875,-46.38671875,-33.69140625,-50.29296875,0.0
1734503730.5982227,-43.45703125,-47.36328125,-36.1328125,-32.71484375,0.0
1734503730.6021495,-36.1328125,-45.41015625,-38.57421875,-35.64453125,0.0
1734503730.606054,-39.0625,-40.0390625,-45.41015625,-50.78125,0.0
1734503730.6099586,-47.8515625,-42.48046875,-48.33984375,-68.359375,0.0
1734503730.613863,-59.08203125,-49.8046875,-42.96875,-72.265625,0.0
1734503730.6177676,-66.40625,-50.78125,-28.80859375,-61.5234375,0.0
1734503730.6216722,-66.89453125,-52.24609375,-21.484375,-62.01171875,0.0
1734503730.6255767,-61.5234375,-57.6171875,-28.80859375,-62.5,0.0
1734503730.6294813,-52.734375,-54.19921875,-30.76171875,-62.5,0.0
1734503730.633386,-50.78125,-42.96875,-22.94921875,-53.22265625,0.0
1734503730.6372902,-50.78125,-40.52734375,-21.484375,-44.43359375,0.0
1734503730.6411948,-48.828125,-41.015625,-35.64453125,-41.015625,0.0
1734503730.6450994,-45.8984375,-51.7578125,-44.921875,-47.36328125,0.0
1734503730.6491246,-33.69140625,-63.96484375,-47.8515625,-49.31640625,0.0
1734503730.6530292,-41.015625,-58.59375,-56.15234375,-61.03515625,0.0
1734503730.6569338,-52.734375,-45.8984375,-53.7109375,-72.75390625,0.0
1734503730.6608384,-43.45703125,-45.41015625,-60.546875,-62.01171875,0.0
1734503730.664743,-36.62109375,-44.43359375,-55.17578125,-50.29296875,0.0
1734503730.6686473,-28.80859375,-29.296875,-26.85546875,-45.8984375,0.0
1734503730.6725519,-37.59765625,-41.9921875,-26.85546875,-56.15234375,0.0
1734503730.6764565,-54.6875,-62.98828125,-31.25,-71.77734375,0.0
1734503730.680361,-52.24609375,-65.4296875,-29.78515625,-71.77734375,0.0
1734503730.6842656,-54.6875,-54.6875,-35.15625,-59.5703125,0.0
1734503730.6881702,-57.12890625,-44.43359375,-36.62109375,-62.5,0.0
1734503730.6920745,-44.43359375,-47.8515625,-42.96875,-61.03515625,0.0
1734503730.696085,-52.24609375,-47.36328125,-55.17578125,-59.08203125,0.0
1734503730.6999896,-59.5703125,-30.2734375,-59.08203125,-62.01171875,0.0
1734503730.7038941,-59.08203125,-22.4609375,-60.546875,-58.59375,0.0
1734503730.7077985,-57.6171875,-37.109375,-53.22265625,-56.15234375,0.0
1734503730.711703,-44.921875,-47.36328125,-30.2734375,-52.734375,0.0
1734503730.7156076,-41.015625,-41.50390625,-18.06640625,-48.828125,0.0
1734503730.7195122,-44.921875,-49.8046875,-34.66796875,-52.734375,0.0
1734503730.7234168,-42.48046875,-44.43359375,-43.9453125,-35.15625,0.0
1734503730.7273214,-30.76171875,-38.0859375,-39.0625,-31.25,0.0
1734503730.7312257,-35.15625,-45.8984375,-67.3828125,-53.7109375,0.0
1734503730.7351303,-48.33984375,-37.109375,-48.33984375,-60.546875,0.0
1734503730.739035,-51.7578125,-32.71484375,-8.7890625,-63.96484375,0.0
1734503730.7430286,-50.29296875,-42.48046875,-15.13671875,-56.640625,0.0
1734503730.7469332,-43.9453125,-49.31640625,-31.25,-50.78125,0.0
1734503730.7508378,-43.45703125,-37.59765625,-39.55078125,-44.921875,0.0
1734503730.7547424,-39.55078125,-35.15625,-35.15625,-37.109375,0.0
1734503730.758647,-26.85546875,-43.9453125,-33.203125,-22.4609375,0.0
1734503730.7625515,-29.78515625,-38.0859375,-41.9921875,-1.953125,0.0
1734503730.766456,-39.0625,-36.62109375,-37.59765625,-20.99609375,0.0
1734503730.7703605,-35.64453125,-37.109375,-34.66796875,-43.45703125,0.0
1734503730.774265,-30.2734375,-31.73828125,-36.62109375,-29.296875,0.0
1734503730.7781696,-25.87890625,-36.62109375,-35.64453125,-25.87890625,0.0
1734503730.7820742,-21.484375,-36.1328125,-41.50390625,-27.83203125,0.0
1734503730.7859788,-31.73828125,-26.3671875,-42.96875,-34.1796875,0.0
1734503730.7899578,-38.0859375,-27.34375,-33.69140625,-50.78125,0.0
1734503730.7938623,-30.76171875,-43.9453125,-24.90234375,-47.8515625,0.0
1734503730.797767,-25.390625,-57.6171875,-20.01953125,-34.1796875,0.0
1734503730.8016715,-30.2734375,-48.33984375,-16.6015625,-36.1328125,0.0
1734503730.805576,-49.31640625,-26.85546875,-31.73828125,-46.875,0.0
1734503730.8094807,-55.6640625,-25.87890625,-39.55078125,-41.9921875,0.0
1734503730.813385,-42.48046875,-32.2265625,-31.25,-40.0390625,0.0
1734503730.8172896,-45.41015625,-42.48046875,-29.296875,-48.33984375,0.0
1734503730.8211942,-58.10546875,-44.921875,-15.13671875,-40.0390625,0.0
1734503730.8250988,-62.01171875,-43.9453125,-15.13671875,-47.8515625,0.0
1734503730.8290033,-66.40625,-47.36328125,-40.52734375,-62.5,0.0
1734503730.832908,-63.4765625,-44.43359375,-33.203125,-66.40625,0.0
1734503730.8368726,-44.921875,-48.33984375,-7.8125,-42.48046875,0.0
1734503730.8407772,-19.53125,-54.19921875,-8.7890625,-29.78515625,0.0
1734503730.8446817,-30.2734375,-49.31640625,-14.6484375,-37.109375,0.0
1734503730.848586,-45.41015625,-40.0390625,-20.5078125,-41.015625,0.0
1734503730.8524907,-34.66796875,-30.2734375,-27.34375,-47.36328125,0.0
1734503730.8563952,-26.3671875,-28.3203125,-22.94921875,-41.9921875,0.0
1734503730.8602998,-29.296875,-25.390625,-22.4609375,-36.62109375,0.0
1734503730.8642044,-12.20703125,-23.92578125,-17.578125,-17.08984375,0.0
1734503730.868109,-12.6953125,-29.296875,-25.390625,-22.4609375,0.0
1734503730.8720133,-29.78515625,-26.3671875,-32.2265625,-42.48046875,0.0
1734503730.875918,-24.90234375,-22.4609375,-21.484375,-25.87890625,0.0
1734503730.8798225,-19.53125,-29.78515625,-23.4375,-21.97265625,0.0
1734503730.883773,-11.23046875,-48.33984375,-35.64453125,-35.64453125,0.0
1734503730.8876777,-25.87890625,-64.453125,-28.80859375,-28.80859375,0.0
1734503730.8915823,-34.1796875,-47.36328125,-14.6484375,-20.5078125,0.0
1734503730.8954868,-27.83203125,-27.34375,-39.0625,-28.3203125,0.0
1734503730.8993914,-30.2734375,-28.80859375,-34.1796875,-37.59765625,0.0
1734503730.9032958,-41.9921875,-43.45703125,-15.625,-55.17578125,0.0
1734503730.9072003,-53.7109375,-39.55078125,-19.53125,-64.94140625,0.0
1734503730.911105,-49.8046875,-44.921875,-18.06640625,-45.8984375,0.0
1734503730.9150095,-51.26953125,-57.6171875,-21.97265625,-54.19921875,0.0
1734503730.918914,-46.875,-42.48046875,-20.5078125,-66.40625,0.0
1734503730.9228187,-43.9453125,-30.2734375,-10.7421875,-45.8984375,0.0
1734503730.9267232,-55.6640625,-32.2265625,-9.27734375,-51.26953125,0.0
1734503730.9306605,-59.5703125,-45.8984375,-18.5546875,-62.01171875,0.0
1734503730.934565,-48.33984375,-50.29296875,-22.4609375,-44.921875,0.0
1734503730.9384696,-43.45703125,-45.8984375,-23.92578125,-44.921875,0.0
1734503730.9423742,-45.41015625,-57.12890625,-23.4375,-44.921875,0.0
1734503730.9462788,-36.62109375,-60.546875,-24.90234375,-41.50390625,0.0
1734503730.9501832,-31.73828125,-44.921875,-36.62109375,-47.8515625,0.0
1734503730.9540877,-42.48046875,-31.73828125,-48.33984375,-49.8046875,0.0
1734503730.9579923,-37.59765625,-33.203125,-35.15625,-55.17578125,0.0
1734503730.961897,-38.57421875,-42.96875,-20.01953125,-61.5234375,0.0
1734503730.9658015,-41.015625,-46.875,-18.5546875,-56.15234375,0.0
1734503730.969706,-48.33984375,-50.78125,-20.5078125,-58.59375,0.0
1734503730.9736106,-63.96484375,-44.921875,-29.296875,-72.265625,0.0
1734503730.9775355,-32.2265625,-35.15625,-33.69140625,-61.03515625,0.0
1734503730.98144,-15.13671875,-52.734375,-21.484375,-44.43359375,0.0
1734503730.9853446,-46.875,-56.15234375,-10.25390625,-54.6875,0.0
1734503730.9892492,-58.10546875,-42.48046875,-16.6015625,-66.40625,0.0
1734503730.9931538,-60.05859375,-39.0625,-9.27734375,-59.08203125,0.0
1734503730.9970582,-53.7109375,-32.2265625,-5.859375,-52.24609375,0.0
1734503731.0009627,-48.828125,-25.390625,-9.27734375,-48.828125,0.0
1734503731.0048673,-56.640625,-31.25,-11.23046875,-49.31640625,0.0
1734503731.008772,-53.7109375,-37.59765625,-19.53125,-48.828125,0.0
1734503731.0126765,-55.17578125,-43.9453125,-22.94921875,-55.17578125,0.0
1734503731.016581,-50.29296875,-52.24609375,-10.25390625,-48.33984375,0.0
1734503731.0204856,-31.25,-43.9453125,-1.46484375,-41.9921875,0.0
1734503731.0245104,-20.01953125,-36.1328125,0.0,-43.45703125,0.0
1734503731.028415,-26.3671875,-42.96875,6.8359375,-34.66796875,0.0
1734503731.0323195,-38.57421875,-32.2265625,-1.46484375,-35.64453125,0.0
1734503731.0362241,-32.71484375,-21.97265625,-8.30078125,-42.48046875,0.0
1734503731.0401287,-15.13671875,-20.01953125,-4.8828125,-31.25,0.0
1734503731.044033,-2.44140625,-15.625,0.9765625,-19.53125,0.0
1734503731.0479376,-8.7890625,-27.83203125,12.20703125,-27.34375,0.0
1734503731.0518422,-20.5078125,-39.0625,13.671875,-39.55078125,0.0
1734503731.0557468,-15.13671875,-34.66796875,8.30078125,-31.25,0.0
1734503731.0596514,-12.20703125,-38.57421875,11.71875,-19.04296875,0.0
1734503731.063556,-20.01953125,-40.52734375,-26.85546875,-24.4140625,0.0
1734503731.0674605,-1.953125,-19.04296875,-40.52734375,-27.83203125,0.0
1734503731.0714655,20.99609375,-30.76171875,19.53125,-23.92578125,0.0
1734503731.07537,36.62109375,-43.9453125,39.55078125,-17.08984375,0.0
1734503731.0792744,6.34765625,-33.203125,37.59765625,-18.06640625,0.0
1734503731.083179,-55.17578125,-39.55078125,43.45703125,-41.50390625,0.0
1734503731.0870836,-72.75390625,-43.9453125,38.57421875,-61.03515625,0.0
1734503731.0909882,-83.0078125,-44.921875,20.5078125,-69.82421875,0.0
1734503731.0948927,-86.9140625,-38.0859375,15.13671875,-73.73046875,0.0
1734503731.0987973,-86.42578125,-37.109375,33.69140625,-78.125,0.0
1734503731.102702,-88.37890625,-45.8984375,48.828125,-78.61328125,0.0
1734503731.1066062,-90.8203125,-48.33984375,47.36328125,-76.171875,0.0
1734503731.1105108,-104.4921875,-56.640625,37.109375,-88.8671875,0.0
1734503731.1144154,-101.5625,-61.03515625,38.57421875,-88.37890625,0.0
1734503731.1184058,-93.75,-62.5,51.26953125,-77.63671875,0.0
1734503731.1223102,-104.00390625,-64.94140625,57.12890625,-68.359375,0.0
1734503731.1262147,-112.3046875,-73.73046875,58.59375,-69.3359375,0.0
1734503731.1301193,-119.140625,-80.56640625,57.6171875,-80.56640625,0.0
1734503731.134024,-117.67578125,-78.125,54.19921875,-75.68359375,0.0
1734503731.1379285,-104.4921875,-75.1953125,62.98828125,-56.640625,0.0
1734503731.141833,-97.65625,-88.8671875,52.24609375,-49.8046875,0.0
1734503731.1457376,-85.44921875,-95.703125,48.33984375,-51.26953125,0.0
1734503731.149642,-75.1953125,-84.9609375,63.4765625,-29.296875,0.0
1734503731.1535466,-85.44921875,-69.3359375,54.19921875,-39.0625,0.0
1734503731.1574512,-99.609375,-64.94140625,46.38671875,-76.171875,0.0
1734503731.1613557,-100.5859375,-75.1953125,51.7578125,-80.078125,0.0
1734503731.165339,-99.12109375,-82.51953125,62.98828125,-55.17578125,0.0
1734503731.1692436,-82.03125,-91.30859375,61.5234375,-49.31640625,0.0
1734503731.1731482,-79.1015625,-90.8203125,51.26953125,-68.84765625,0.0
1734503731.1770527,-112.79296875,-92.7734375,57.12890625,-84.9609375,0.0
1734503731.1809573,-114.2578125,-99.12109375,56.640625,-78.125,0.0
1734503731.1848617,-97.65625,-93.75,29.78515625,-62.01171875,0.0
1734503731.1887662,-93.26171875,-86.9140625,11.71875,-53.22265625,0.0
1734503731.1926708,-90.8203125,-87.890625,45.41015625,-47.8515625,0.0
1734503731.1965754,-94.23828125,-91.796875,65.4296875,-47.8515625,0.0
1734503731.20048,-78.125,-104.98046875,62.98828125,-41.9921875,0.0
1734503731.2043846,-70.80078125,-110.3515625,43.45703125,-51.7578125,0.0
1734503731.2082891,-83.49609375,-90.33203125,39.55078125,-58.59375,0.0
1734503731.2122557,-78.61328125,-86.9140625,60.05859375,-48.33984375,0.0
1734503731.2161603,-75.1953125,-101.5625,58.10546875,-49.8046875,0.0
1734503731.2200649,-81.0546875,-101.5625,27.83203125,-32.71484375,0.0
1734503731.2239695,-53.22265625,-98.6328125,14.6484375,-6.8359375,0.0
1734503731.2278738,-43.45703125,-114.2578125,46.38671875,-10.7421875,0.0
1734503731.2317784,-52.24609375,-113.76953125,47.36328125,-18.06640625,0.0
1734503731.235683,-55.17578125,-104.00390625,38.57421875,-23.92578125,0.0
1734503731.2395875,-49.31640625,-114.2578125,41.9921875,-0.48828125,0.0
1734503731.2434921,-30.76171875,-116.69921875,33.203125,22.4609375,0.0
1734503731.2473967,-9.765625,-114.2578125,37.59765625,38.57421875,0.0
1734503731.2513013,0.0,-114.74609375,30.76171875,38.57421875,0.0
1734503731.2552059,-9.27734375,-126.46484375,41.50390625,26.85546875,0.0
1734503731.25916,-2.9296875,-152.34375,0.0,51.26953125,0.0
1734503731.2630646,-2.44140625,-135.7421875,0.0,61.5234375,0.0
1734503731.2669692,-24.90234375,-107.421875,0.0,33.203125,0.0
1734503731.2708738,-25.87890625,-100.5859375,0.0,24.90234375,0.0
1734503731.2747784,-11.23046875,-98.6328125,0.0,27.34375,0.0
1734503731.278683,-13.671875,-104.00390625,0.0,28.3203125,0.0
1734503731.2825875,8.7890625,-111.328125,0.0,42.48046875,0.0
1734503731.286492,33.69140625,-114.2578125,0.0,56.15234375,0.0
1734503731.2903965,16.11328125,-123.53515625,0.0,37.59765625,0.0
1734503731.294301,-19.53125,-128.41796875,0.0,23.92578125,0.0
1734503731.2982056,-25.390625,-123.53515625,0.0,41.50390625,0.0
1734503731.3021102,-6.8359375,-116.2109375,0.0,51.7578125,0.0
1734503731.3060577,19.04296875,-106.93359375,22.94921875,55.17578125,0.0
1734503731.3099623,28.3203125,-111.81640625,46.875,57.12890625,0.0
1734503731.3138669,18.06640625,-114.2578125,2.44140625,62.98828125,0.0
1734503731.3177714,19.53125,-99.12109375,-9.765625,70.80078125,0.0
1734503731.321676,28.3203125,-92.7734375,22.94921875,73.73046875,0.0
1734503731.3255806,22.4609375,-104.98046875,11.23046875,68.84765625,0.0
1734503731.329485,31.25,-110.3515625,27.34375,73.2421875,0.0
1734503731.3333895,64.453125,-96.6796875,26.85546875,89.35546875,0.0
1734503731.337294,51.26953125,-94.23828125,27.83203125,78.125,0.0
1734503731.3411987,23.4375,-93.26171875,12.6953125,67.3828125,0.0
1734503731.3451033,21.484375,-96.19140625,-11.71875,82.03125,0.0
1734503731.3490078,14.16015625,-100.5859375,22.94921875,77.63671875,0.0
1734503731.352926,3.90625,-97.16796875,37.109375,48.828125,0.0
1734503731.3568306,12.6953125,-97.65625,20.99609375,41.015625,0.0
1734503731.3607352,23.92578125,-97.65625,9.765625,52.24609375,0.0
1734503731.3646398,17.08984375,-84.9609375,-2.9296875,55.17578125,0.0
1734503731.3685443,7.32421875,-81.54296875,-10.7421875,48.33984375,0.0
1734503731.372449,37.59765625,-84.9609375,-15.625,44.43359375,0.0
1734503731.3763535,43.45703125,-78.61328125,-7.8125,44.43359375,0.0
1734503731.380258,17.578125,-85.44921875,-30.2734375,59.5703125,0.0
1734503731.3841624,1.46484375,-89.35546875,-52.734375,51.7578125,0.0
1734503731.388067,0.48828125,-71.77734375,-17.578125,32.2265625,0.0
1734503731.3919716,-0.48828125,-62.5,-8.30078125,24.4140625,0.0
1734503731.3958762,-6.34765625,-67.87109375,-7.8125,12.20703125,0.0
1734503731.3998928,1.953125,-56.640625,27.34375,21.484375,0.0
1734503731.4037974,23.92578125,-37.109375,20.99609375,42.96875,0.0
1734503731.407702,17.08984375,-40.0390625,0.0,29.296875,0.0
1734503731.4116066,5.859375,-47.8515625,6.34765625,10.7421875,0.0
1734503731.4155111,3.41796875,-51.7578125,0.48828125,20.01953125,0.0
1734503731.4194157,12.6953125,-44.43359375,-17.578125,29.296875,0.0
1734503731.4233203,31.25,-61.03515625,-3.41796875,26.85546875,0.0
1734503731.4272246,49.31640625,-72.75390625,-52.24609375,49.8046875,0.0
1734503731.4311292,57.12890625,-44.43359375,-76.66015625,49.31640625,0.0
1734503731.4350338,20.99609375,-31.73828125,17.08984375,2.44140625,0.0
1734503731.4389384,1.953125,-35.64453125,38.0859375,3.90625,0.0
1734503731.442843,-2.9296875,-32.2265625,22.4609375,10.7421875,0.0
1734503731.4468448,-6.34765625,-28.80859375,13.671875,0.48828125,0.0
1734503731.4507494,-0.48828125,-31.25,4.39453125,-0.9765625,0.0
1734503731.454654,7.32421875,-40.0390625,-35.15625,0.9765625,0.0
1734503731.4585586,8.30078125,-45.41015625,-72.265625,5.37109375,0.0
1734503731.4624631,-6.34765625,-34.1796875,-25.390625,8.30078125,0.0
1734503731.4663677,-15.625,-33.69140625,27.34375,-6.8359375,0.0
1734503731.470272,-29.78515625,-39.0625,2.9296875,-24.4140625,0.0
1734503731.4741766,-20.99609375,-42.48046875,-32.2265625,-23.4375,0.0
1734503731.4780812,1.953125,-48.33984375,13.18359375,-26.3671875,0.0
1734503731.4819858,6.8359375,-43.45703125,7.32421875,-10.25390625,0.0
1734503731.4858904,-8.7890625,-35.15625,-50.29296875,-16.6015625,0.0
1734503731.489795,-26.85546875,-28.80859375,-25.390625,-30.76171875,0.0
1734503731.4937823,-30.76171875,-33.203125,4.39453125,-19.04296875,0.0
1734503731.4976869,-19.53125,-35.64453125,0.9765625,-38.0859375,0.0
1734503731.5015914,-30.76171875,-38.57421875,-8.30078125,-51.7578125,0.0
1734503731.5054958,-35.15625,-34.66796875,-49.8046875,-15.625,0.0
1734503731.5094004,-25.390625,-34.66796875,-64.94140625,-2.44140625,0.0
1734503731.513305,-3.41796875,-59.5703125,18.5546875,-24.4140625,0.0
1734503731.5172095,-6.34765625,-48.828125,28.80859375,-25.87890625,0.0
1734503731.521114,-33.203125,-17.08984375,-7.32421875,-8.30078125,0.0
1734503731.5250187,-20.01953125,-16.6015625,6.34765625,9.765625,0.0
1734503731.5289233,-26.3671875,-21.97265625,4.39453125,-10.25390625,0.0
1734503731.5328279,-31.73828125,-17.08984375,-15.625,-28.80859375,0.0
1734503731.5367324,-28.3203125,-29.78515625,-57.12890625,-14.16015625,0.0
1734503731.5407052,-30.76171875,-41.9921875,-51.26953125,-33.203125,0.0
1734503731.5446098,-34.1796875,-30.76171875,2.9296875,-53.22265625,0.0
1734503731.5485144,-35.64453125,-25.87890625,0.0,-54.19921875,0.0
1734503731.552419,-27.83203125,-25.87890625,-3.41796875,-65.91796875,0.0
1734503731.5563233,-20.01953125,-41.015625,-8.7890625,-51.7578125,0.0
1734503731.5602279,-0.9765625,-38.57421875,-37.59765625,-4.8828125,0.0
1734503731.5641325,-15.13671875,-46.875,-31.25,9.765625,0.0
1734503731.568037,-45.8984375,-62.01171875,-47.36328125,-22.4609375,0.0
1734503731.5719416,-41.50390625,-26.85546875,-28.3203125,-52.734375,0.0
1734503731.5758462,-36.1328125,-27.83203125,20.5078125,-63.96484375,0.0
1734503731.5797508,-45.41015625,-32.71484375,19.04296875,-50.78125,0.0
1734503731.5836554,-50.29296875,-21.484375,3.41796875,-46.38671875,0.0
1734503731.5876138,-37.109375,-20.01953125,-9.27734375,-56.15234375,0.0
1734503731.5915184,-33.69140625,-17.08984375,-26.85546875,-46.875,0.0
1734503731.595423,-35.15625,-28.80859375,-43.9453125,-33.69140625,0.0
1734503731.5993273,-31.25,-29.296875,-56.640625,-28.80859375,0.0
1734503731.603232,-8.30078125,-21.97265625,-74.21875,-7.8125,0.0
1734503731.6071365,0.9765625,-31.25,-75.1953125,4.39453125,0.0
1734503731.611041,-30.2734375,-33.203125,-83.49609375,-18.06640625,0.0
1734503731.6149457,-34.66796875,-29.78515625,-60.05859375,-18.06640625,0.0
1734503731.6188502,-22.4609375,-28.80859375,-24.4140625,-16.11328125,0.0
1734503731.6227548,-24.90234375,-24.4140625,-27.83203125,-22.4609375,0.0
1734503731.6266594,-35.64453125,-28.3203125,-46.38671875,-28.80859375,0.0
1734503731.630564,-30.76171875,-30.2734375,-86.9140625,-28.80859375,0.0
1734503731.6345081,-37.109375,-28.80859375,-118.1640625,-25.390625,0.0
1734503731.6384127,-50.78125,-35.64453125,-121.09375,-30.76171875,0.0
1734503731.6423173,-27.34375,-41.50390625,-109.86328125,-24.90234375,0.0
1734503731.6462219,-18.06640625,-46.38671875,-105.95703125,-18.5546875,0.0
1734503731.6501265,-39.0625,-43.45703125,-100.09765625,-37.109375,0.0
1734503731.6540308,-40.0390625,-40.0390625,-105.95703125,-29.296875,0.0
1734503731.6579354,-16.11328125,-46.38671875,-121.58203125,-0.48828125,0.0
1734503731.66184,-27.34375,-46.875,-104.4921875,-7.8125,0.0
1734503731.6657445,-45.41015625,-56.15234375,-114.2578125,-12.6953125,0.0
1734503731.6696491,-46.875,-51.7578125,-111.81640625,-18.5546875,0.0
1734503731.6735537,-44.921875,-49.8046875,-52.734375,-26.3671875,0.0
1734503731.6774583,-23.4375,-61.5234375,-53.22265625,-10.25390625,0.0
1734503731.6813884,-14.16015625,-48.828125,-106.4453125,0.48828125,0.0
1734503731.685293,-27.83203125,-44.43359375,-54.6875,-15.13671875,0.0
1734503731.6891975,-19.53125,-48.828125,-11.23046875,-40.52734375,0.0
1734503731.6931021,-26.85546875,-40.0390625,-8.7890625,-37.59765625,0.0
1734503731.6970067,-45.8984375,-31.73828125,-20.01953125,-33.69140625,0.0
1734503731.7009113,-56.15234375,-36.1328125,-83.984375,-30.76171875,0.0
1734503731.7048159,-50.78125,-38.57421875,-72.265625,-32.71484375,0.0
1734503731.7087204,-46.875,-32.2265625,-45.41015625,-34.66796875,0.0
1734503731.7126248,-46.875,-36.1328125,-51.26953125,-19.53125,0.0
1734503731.7165294,-37.109375,-44.921875,-31.73828125,-20.01953125,0.0
1734503731.720434,-38.0859375,-48.828125,-31.73828125,-23.92578125,0.0
1734503731.7243385,-55.17578125,-48.828125,-70.80078125,-20.5078125,0.0
1734503731.7282548,-56.15234375,-45.8984375,-60.05859375,-28.3203125,0.0
1734503731.7321594,-57.12890625,-39.0625,-42.48046875,-24.90234375,0.0
1734503731.736064,-58.10546875,-40.52734375,-97.16796875,-5.37109375,0.0
1734503731.7399685,-39.55078125,-45.8984375,-128.41796875,-5.37109375,0.0
1734503731.7438731,-47.8515625,-38.0859375,-71.77734375,-35.15625,0.0
1734503731.7477775,-48.828125,-39.0625,-25.87890625,-40.0390625,0.0
1734503731.751682,-54.6875,-39.55078125,-35.15625,-31.25,0.0
1734503731.7555866,-68.84765625,-28.80859375,-63.4765625,-29.78515625,0.0
1734503731.7594912,-53.7109375,-37.109375,-81.54296875,-27.34375,0.0
1734503731.7633958,-50.29296875,-37.59765625,-110.3515625,-27.83203125,0.0
1734503731.7673004,-65.4296875,-35.15625,-108.3984375,-41.015625,0.0
1734503731.771205,-74.70703125,-28.3203125,-122.55859375,-45.8984375,0.0
1734503731.7752187,-60.546875,-8.30078125,-146.484375,-27.34375,0.0
1734503731.7791233,-51.26953125,-0.9765625,-54.6875,-46.38671875,0.0
1734503731.783028,-77.1484375,-16.11328125,-46.38671875,-64.453125,0.0
1734503731.7869325,-77.1484375,-25.87890625,-65.91796875,-52.24609375,0.0
1734503731.790837,-63.4765625,-23.92578125,-64.453125,-41.50390625,0.0
1734503731.7947414,-49.8046875,-29.296875,-83.0078125,-41.50390625,0.0
1734503731.798646,-46.38671875,-40.0390625,-89.84375,-27.34375,0.0
1734503731.8025506,-58.10546875,-49.8046875,-102.5390625,-30.76171875,0.0
1734503731.8064551,-78.61328125,-39.0625,-101.5625,-65.4296875,0.0
1734503731.8103597,-71.77734375,-33.203125,-83.0078125,-46.875,0.0
1734503731.8142643,-44.43359375,-38.0859375,-81.0546875,-20.01953125,0.0
1734503731.8181689,-68.84765625,-36.1328125,-89.35546875,-60.05859375,0.0
1734503731.8221684,-97.65625,-33.203125,-101.07421875,-90.8203125,0.0
1734503731.8260727,-104.00390625,-39.0625,-168.45703125,-76.171875,0.0
1734503731.8299773,-95.703125,-45.41015625,-174.31640625,-83.0078125,0.0
1734503731.8338819,-80.078125,-28.3203125,-61.03515625,-103.02734375,0.0
1734503731.8377864,-83.49609375,-23.4375,-20.5078125,-78.61328125,0.0
1734503731.841691,-103.02734375,-21.97265625,-58.59375,-62.01171875,0.0
1734503731.8455956,-112.79296875,-21.97265625,-62.98828125,-82.51953125,0.0
1734503731.8495002,-113.76953125,-25.390625,-93.75,-93.26171875,0.0
1734503731.8534048,-93.75,-31.25,-126.46484375,-78.61328125,0.0
1734503731.8573093,-77.1484375,-55.17578125,-82.03125,-81.0546875,0.0
1734503731.861214,-94.23828125,-59.5703125,-128.41796875,-95.703125,0.0
1734503731.8651183,-120.1171875,-21.97265625,-132.8125,-94.23828125,0.0
1734503731.8691032,-132.32421875,-11.71875,-62.98828125,-111.328125,0.0
1734503731.8730075,-125.48828125,-30.76171875,-62.5,-111.328125,0.0
1734503731.876912,-105.95703125,-28.80859375,-76.171875,-93.26171875,0.0
1734503731.8808167,-106.4453125,-23.4375,-82.51953125,-101.07421875,0.0
1734503731.8847213,-91.796875,-48.828125,-98.6328125,-100.5859375,0.0
1734503731.8886259,-89.35546875,-39.55078125,-115.72265625,-104.00390625,0.0
1734503731.8925304,-101.07421875,4.8828125,-83.49609375,-87.40234375,0.0
1734503731.896435,-93.75,-3.90625,-85.44921875,-62.5,0.0
1734503731.9003396,-106.93359375,-29.78515625,-93.75,-80.078125,0.0
1734503731.9042442,-105.95703125,-19.53125,-92.28515625,-94.7265625,0.0
1734503731.9081488,-104.00390625,-25.390625,-77.63671875,-122.0703125,0.0
1734503731.912053,-120.1171875,-34.1796875,-60.05859375,-144.53125,0.0
1734503731.9160235,-123.046875,-20.01953125,-102.5390625,-134.765625,0.0
1734503731.919928,-125.9765625,-19.04296875,-107.421875,-129.8828125,0.0
1734503731.9238327,-133.30078125,-16.11328125,-123.046875,-130.37109375,0.0
1734503731.9277372,-123.53515625,-12.6953125,-152.83203125,-130.859375,0.0
1734503731.9316418,-102.5390625,-13.18359375,-141.11328125,-115.72265625,0.0
1734503731.9355462,-81.0546875,-25.390625,-134.27734375,-92.28515625,0.0
1734503731.9394507,-83.49609375,-25.390625,-171.875,-79.1015625,0.0
1734503731.9433553,-96.19140625,-22.94921875,-196.2890625,-60.546875,0.0
1734503731.94726,-91.796875,-22.4609375,-221.19140625,-58.59375,0.0
1734503731.9511645,-92.28515625,-31.73828125,-171.38671875,-83.984375,0.0
1734503731.955069,-78.125,-50.78125,-128.41796875,-78.61328125,0.0
1734503731.9589736,-78.125,-53.22265625,-175.29296875,-64.94140625,0.0
1734503731.9629295,-66.40625,-20.99609375,-198.73046875,-63.96484375,0.0
1734503731.966834,-66.89453125,15.625,-225.5859375,-59.5703125,0.0
1734503731.9707386,-87.40234375,-10.7421875,-317.87109375,-45.8984375,0.0
1734503731.9746432,-32.2265625,-22.94921875,-288.57421875,-15.625,0.0
1734503731.9785478,-55.6640625,-2.44140625,-216.796875,-65.4296875,0.0
1734503731.9824524,-121.58203125,-12.6953125,-229.00390625,-114.74609375,0.0
1734503731.986357,-123.046875,-33.203125,-249.51171875,-102.5390625,0.0
1734503731.9902616,-104.98046875,-24.90234375,-270.01953125,-72.265625,0.0
1734503731.9941661,-91.30859375,-8.7890625,-285.64453125,-66.89453125,0.0
1734503731.9980707,-94.23828125,-4.39453125,-289.0625,-68.84765625,0.0
1734503732.001975,-94.7265625,-11.71875,-282.71484375,-66.89453125,0.0
1734503732.0058796,-96.19140625,-18.06640625,-340.8203125,-52.24609375,0.0
1734503732.0098257,-83.49609375,-32.2265625,-403.3203125,-17.578125,0.0
1734503732.0137303,-67.87109375,-36.62109375,-296.875,-22.94921875,0.0
1734503732.0176349,-67.87109375,-3.41796875,-236.328125,-49.31640625,0.0
1734503732.0215394,-83.49609375,4.39453125,-297.36328125,-48.33984375,0.0
1734503732.025444,-91.796875,-28.80859375,-269.53125,-45.8984375,0.0
1734503732.0293486,-66.89453125,-61.5234375,-256.8359375,-32.2265625,0.0
1734503732.0332532,-30.2734375,-20.99609375,-317.3828125,5.859375,0.0
1734503732.0371578,-39.55078125,31.25,-267.578125,-5.859375,0.0
1734503732.0410624,-92.7734375,4.8828125,-186.5234375,-67.87109375,0.0
1734503732.044967,-104.4921875,-21.97265625,-191.40625,-81.54296875,0.0
1734503732.0488715,-85.44921875,-8.30078125,-189.94140625,-57.6171875,0.0
1734503732.0527759,-73.73046875,1.953125,-187.5,-54.6875,0.0
1734503732.0567155,-91.30859375,-18.06640625,-215.33203125,-58.59375,0.0
1734503732.06062,-70.3125,-23.92578125,-225.5859375,-41.9921875,0.0
1734503732.0645247,-57.12890625,-38.57421875,-174.31640625,-49.31640625,0.0
1734503732.0684292,-79.1015625,-62.01171875,-141.6015625,-52.734375,0.0
1734503732.0723338,-83.0078125,-37.59765625,-173.828125,-43.45703125,0.0
1734503732.0762384,-83.49609375,-22.4609375,-170.41015625,-35.15625,0.0
1734503732.0801427,-74.21875,-34.1796875,-144.53125,-19.53125,0.0
1734503732.0840473,-48.33984375,-39.55078125,-120.60546875,-36.62109375,0.0
1734503732.087952,-48.33984375,-25.87890625,-79.1015625,-63.96484375,0.0
1734503732.0918565,-57.6171875,-25.390625,-108.3984375,-61.5234375,0.0
1734503732.095761,-75.1953125,-45.41015625,-148.92578125,-50.78125,0.0
1734503732.0996656,-87.890625,-32.2265625,-94.7265625,-66.89453125,0.0
1734503732.1035872,-81.0546875,-19.53125,-62.5,-67.3828125,0.0
1734503732.1074915,-72.265625,-21.97265625,-63.96484375,-44.921875,0.0
1734503732.111396,-52.24609375,-65.91796875,-62.5,-48.33984375,0.0
1734503732.1153007,-33.203125,-80.56640625,-40.0390625,-62.98828125,0.0
1734503732.1192052,-51.7578125,-10.7421875,-47.36328125,-77.63671875,0.0
1734503732.1231098,-92.28515625,11.71875,-83.984375,-72.75390625,0.0
1734503732.1270144,-94.7265625,6.8359375,-80.078125,-62.98828125,0.0
1734503732.130919,-76.171875,2.9296875,-59.5703125,-62.01171875,0.0
1734503732.1348236,-63.96484375,-9.27734375,-46.38671875,-48.33984375,0.0
1734503732.1387281,-54.6875,-25.390625,-51.7578125,-46.38671875,0.0
1734503732.1426327,-66.89453125,-28.3203125,-62.98828125,-58.59375,0.0
1734503732.1465373,-53.7109375,-20.01953125,-74.70703125,-51.26953125,0.0
1734503732.1505566,-39.0625,-30.76171875,-79.58984375,-29.78515625,0.0
1734503732.1544611,-21.97265625,-32.71484375,-76.171875,-12.20703125,0.0
1734503732.1583657,-32.2265625,-15.13671875,-106.4453125,-36.1328125,0.0
1734503732.1622703,-77.1484375,-0.9765625,-91.796875,-88.37890625,0.0
1734503732.166175,-100.09765625,-6.34765625,-74.70703125,-105.46875,0.0
1734503732.1700795,-82.51953125,-14.6484375,-45.8984375,-73.73046875,0.0
1734503732.173984,-67.3828125,-5.859375,4.39453125,-83.0078125,0.0
1734503732.1778886,-84.47265625,8.30078125,-8.7890625,-115.72265625,0.0
1734503732.181793,-105.46875,6.34765625,-36.62109375,-111.81640625,0.0
1734503732.1856976,-116.69921875,5.37109375,-34.1796875,-110.3515625,0.0
1734503732.1896021,-101.5625,-5.859375,-61.03515625,-115.72265625,0.0
1734503732.1935067,-75.68359375,-21.484375,-38.57421875,-112.3046875,0.0
1734503732.1975162,-77.63671875,15.625,27.83203125,-121.58203125,0.0
1734503732.2014208,-81.0546875,50.29296875,11.23046875,-125.48828125,0.0
1734503732.2053254,-98.6328125,32.2265625,-35.15625,-122.0703125,0.0
1734503732.20923,-84.9609375,5.859375,-37.109375,-108.3984375,0.0
1734503732.2131345,-83.984375,17.578125,-18.06640625,-103.02734375,0.0
1734503732.217039,-119.62890625,43.9453125,-37.59765625,-120.1171875,0.0
1734503732.2209437,-105.46875,42.48046875,-37.59765625,-115.72265625,0.0
1734503732.2248483,-81.0546875,14.6484375,-10.7421875,-114.2578125,0.0
1734503732.2287526,-74.21875,11.71875,-8.7890625,-101.07421875,0.0
1734503732.2326572,-79.58984375,36.62109375,-18.06640625,-87.890625,0.0
1734503732.2365618,-87.40234375,39.0625,-42.96875,-100.09765625,0.0
1734503732.2404664,-72.75390625,23.92578125,-30.2734375,-98.6328125,0.0
1734503732.2444618,-74.21875,7.32421875,-27.83203125,-90.33203125,0.0
1734503732.2483664,-96.19140625,-11.23046875,-54.6875,-88.37890625,0.0
1734503732.252271,-89.84375,5.859375,-60.546875,-91.30859375,0.0
1734503732.2561755,-84.9609375,14.16015625,-49.8046875,-87.890625,0.0
1734503732.2600799,-73.73046875,0.9765625,-54.19921875,-83.0078125,0.0
1734503732.2639844,-72.75390625,15.625,-56.15234375,-73.73046875,0.0
1734503732.267889,-83.0078125,27.34375,-32.2265625,-76.171875,0.0
1734503732.2717936,-61.03515625,25.87890625,3.41796875,-63.96484375,0.0
1734503732.2756982,-53.7109375,27.83203125,20.5078125,-56.15234375,0.0
1734503732.2796028,-62.98828125,11.71875,17.578125,-74.70703125,0.0
1734503732.2835073,-54.6875,16.6015625,26.85546875,-87.890625,0.0
1734503732.287412,-49.8046875,24.90234375,25.390625,-75.1953125,0.0
1734503732.2913864,-60.05859375,12.6953125,7.32421875,-66.40625,0.0
1734503732.295291,-46.875,9.765625,-1.46484375,-69.3359375,0.0
1734503732.2991955,-43.45703125,26.3671875,-24.90234375,-64.94140625,0.0
1734503732.3031,-52.734375,37.109375,-28.3203125,-49.31640625,0.0
1734503732.3070047,-42.48046875,32.2265625,0.9765625,-43.45703125,0.0
1734503732.3109093,-55.17578125,30.76171875,21.97265625,-64.453125,0.0
1734503732.3148139,-54.19921875,13.671875,26.85546875,-80.078125,0.0
1734503732.3187184,-38.0859375,-0.48828125,3.90625,-65.4296875,0.0
1734503732.322623,-46.875,19.04296875,-6.8359375,-53.7109375,0.0
1734503732.3265274,-35.64453125,19.53125,22.94921875,-66.40625,0.0
1734503732.330432,-12.6953125,-0.48828125,3.41796875,-56.15234375,0.0
1734503732.3343365,-30.76171875,9.27734375,-19.04296875,-69.3359375,0.0
1734503732.3382957,-49.31640625,34.66796875,38.0859375,-57.6171875,0.0
1734503732.3422003,-49.8046875,32.2265625,23.92578125,-49.8046875,0.0
1734503732.3461049,-63.96484375,27.83203125,44.43359375,-66.40625,0.0
1734503732.3500094,-65.4296875,42.96875,73.73046875,-67.3828125,0.0
1734503732.353914,-51.26953125,43.9453125,49.31640625,-68.84765625,0.0
1734503732.3578186,-45.41015625,23.92578125,43.45703125,-62.5,0.0
1734503732.3617232,-48.828125,16.11328125,-15.625,-51.26953125,0.0
1734503732.3656278,-54.6875,21.484375,-3.41796875,-53.7109375,0.0
1734503732.3695323,-55.6640625,28.80859375,74.70703125,-62.01171875,0.0
1734503732.373437,-38.0859375,39.55078125,110.83984375,-58.59375,0.0
1734503732.3773415,-40.52734375,20.99609375,105.46875,-55.6640625,0.0
1734503732.3812459,-68.359375,4.39453125,68.84765625,-53.7109375,0.0
1734503732.3851957,-73.73046875,25.390625,36.62109375,-49.8046875,0.0
1734503732.3891003,-53.7109375,35.64453125,2.9296875,-43.45703125,0.0
1734503732.393005,-33.203125,30.76171875,2.44140625,-36.1328125,0.0
1734503732.3969095,-27.83203125,15.625,26.3671875,-50.29296875,0.0
1734503732.400814,-40.52734375,11.71875,72.265625,-47.8515625,0.0
1734503732.4047186,-40.52734375,5.37109375,102.5390625,-45.8984375,0.0
1734503732.4086232,-31.73828125,-5.859375,103.515625,-39.55078125,0.0
1734503732.4125278,-34.1796875,44.921875,79.1015625,-35.15625,0.0
1734503732.4164324,-60.05859375,58.10546875,64.94140625,-58.59375,0.0
1734503732.4203367,-57.12890625,47.36328125,65.91796875,-54.19921875,0.0
1734503732.4242413,-29.78515625,44.921875,26.3671875,-21.484375,0.0
1734503732.428146,-36.1328125,37.59765625,42.96875,-25.87890625,0.0
1734503732.4320877,-48.33984375,23.4375,95.21484375,-61.5234375,0.0
1734503732.435992,-51.7578125,16.11328125,97.16796875,-52.24609375,0.0
1734503732.4398966,-41.50390625,23.92578125,82.03125,-33.203125,0.0
1734503732.4438012,-28.3203125,17.578125,102.5390625,-41.9921875,0.0
1734503732.4477057,-54.6875,17.08984375,107.91015625,-52.734375,0.0
1734503732.4516103,-70.3125,37.59765625,97.65625,-58.59375,0.0
1734503732.455515,-44.921875,38.0859375,97.16796875,-53.7109375,0.0
1734503732.4594195,-47.36328125,22.4609375,91.30859375,-40.0390625,0.0
1734503732.463324,-38.0859375,24.4140625,74.70703125,-19.04296875,0.0
1734503732.4672287,-19.04296875,37.109375,97.65625,-35.64453125,0.0
1734503732.4711332,-36.1328125,32.2265625,128.90625,-64.94140625,0.0
1734503732.4750378,-41.50390625,25.390625,117.67578125,-64.453125,0.0
1734503732.4789557,0.0,25.390625,125.9765625,-59.08203125,0.0
1734503732.4828603,0.0,34.1796875,126.953125,-61.5234375,0.0
1734503732.486765,0.0,41.50390625,110.3515625,-60.05859375,0.0
1734503732.4906695,0.0,33.203125,108.3984375,-51.26953125,0.0
1734503732.494574,0.0,28.80859375,105.46875,-51.7578125,0.0
1734503732.4984787,0.0,38.57421875,69.82421875,-42.48046875,0.0
1734503732.5023832,0.0,41.50390625,83.984375,-20.99609375,0.0
1734503732.5062878,0.0,13.18359375,123.53515625,-16.6015625,0.0
1734503732.5101922,0.0,10.7421875,129.39453125,-49.8046875,0.0
1734503732.5140967,0.0,41.9921875,129.39453125,-44.43359375,0.0
1734503732.5180013,0.0,48.828125,114.2578125,-21.97265625,0.0
1734503732.521906,0.0,29.296875,124.0234375,-36.1328125,0.0
1734503732.525922,-33.203125,14.16015625,135.7421875,-45.8984375,0.0
1734503732.5298266,-27.34375,16.11328125,153.3203125,-41.9921875,0.0
1734503732.533731,-17.08984375,18.06640625,143.5546875,-34.66796875,0.0
1734503732.5376356,-3.90625,22.4609375,104.98046875,-29.78515625,0.0
1734503732.5415401,-12.20703125,34.1796875,101.5625,-50.29296875,0.0
1734503732.5454447,-22.94921875,34.1796875,119.140625,-61.03515625,0.0
1734503732.5493493,-32.2265625,23.92578125,123.046875,-53.7109375,0.0
1734503732.553254,-28.3203125,25.87890625,117.1875,-41.9921875,0.0
1734503732.5571585,-37.59765625,38.57421875,84.9609375,-36.1328125,0.0
1734503732.561063,-45.41015625,38.57421875,36.62109375,-19.53125,0.0
1734503732.5649676,-29.296875,43.9453125,97.16796875,-21.97265625,0.0
1734503732.5688722,-15.13671875,23.92578125,165.0390625,-37.109375,0.0
1734503732.5728793,0.0,6.8359375,144.53125,-32.71484375,0.0
1734503732.576784,0.0,19.04296875,123.046875,-33.69140625,0.0
1734503732.5806885,0.0,26.85546875,121.09375,-19.53125,0.0
1734503732.584593,0.0,20.5078125,99.609375,-5.37109375,0.0
1734503732.5884976,0.0,23.4375,93.75,-9.765625,0.0
1734503732.5924022,0.0,39.0625,114.2578125,-8.7890625,0.0
1734503732.5963068,0.0,34.1796875,117.1875,-30.2734375,0.0
1734503732.6002114,0.0,39.55078125,121.58203125,-37.59765625,0.0
1734503732.604116,0.0,50.78125,125.0,-28.80859375,0.0
1734503732.6080205,0.0,51.26953125,131.8359375,-28.80859375,0.0
1734503732.6119251,0.0,35.15625,131.8359375,-44.43359375,0.0
1734503732.6158297,0.0,30.2734375,118.65234375,-44.43359375,0.0
1734503732.6198173,-13.671875,47.36328125,114.2578125,-37.59765625,0.0
1734503732.6237218,-5.859375,28.3203125,98.14453125,-32.71484375,0.0
1734503732.6276264,-15.625,20.99609375,58.59375,-16.6015625,0.0
1734503732.631531,9.27734375,59.08203125,54.6875,9.765625,0.0
1734503732.6354356,28.3203125,49.8046875,107.91015625,0.0,0.0
1734503732.6393402,-18.06640625,27.83203125,155.2734375,-38.0859375,0.0
1734503732.6432447,-37.109375,30.2734375,129.39453125,-40.52734375,0.0
1734503732.6471493,-21.97265625,41.015625,96.19140625,-30.76171875,0.0
1734503732.651054,-7.32421875,25.87890625,118.65234375,-24.90234375,0.0
1734503732.6549585,-10.25390625,-14.6484375,116.69921875,-28.3203125,0.0
1734503732.658863,-16.11328125,5.37109375,71.2890625,-7.32421875,0.0
1734503732.6627676,-21.484375,41.9921875,104.98046875,-14.6484375,0.0
1734503732.6667562,-26.85546875,59.08203125,141.11328125,-40.52734375,0.0
1734503732.6706607,-21.97265625,3.90625,106.4453125,-34.1796875,0.0
1734503732.6745653,18.06640625,-15.13671875,90.33203125,-1.953125,0.0
1734503732.6784697,26.3671875,38.57421875,107.91015625,18.5546875,0.0
1734503732.6823742,-35.15625,42.48046875,117.67578125,-27.83203125,0.0
1734503732.6862788,-63.4765625,32.2265625,112.79296875,-68.84765625,0.0
1734503732.6901834,-26.85546875,31.73828125,104.98046875,-33.69140625,0.0
1734503732.694088,-8.7890625,29.78515625,91.796875,-12.6953125,0.0
1734503732.6979926,-8.7890625,17.578125,73.73046875,-9.765625,0.0
1734503732.7018971,5.859375,18.06640625,70.3125,-4.39453125,0.0
1734503732.7058017,-14.16015625,11.23046875,70.80078125,-15.13671875,0.0
1734503732.7097063,-23.4375,0.0,79.1015625,-15.13671875,0.0
1734503732.7136626,16.11328125,-0.48828125,0.0,4.8828125,0.0
1734503732.717567,27.34375,3.90625,0.0,12.20703125,0.0
1734503732.7214715,0.48828125,20.5078125,0.0,-8.7890625,0.0
1734503732.7253761,-4.8828125,22.94921875,0.0,-12.20703125,0.0
1734503732.7292807,20.5078125,21.97265625,0.0,25.390625,0.0
1734503732.7331853,28.80859375,26.85546875,0.0,26.85546875,0.0
1734503732.7370899,17.578125,14.16015625,0.0,16.11328125,0.0
1734503732.7409945,20.5078125,7.8125,0.0,35.15625,0.0
1734503732.744899,23.92578125,-4.8828125,0.0,19.04296875,0.0
1734503732.7488036,32.2265625,-5.859375,0.0,13.671875,0.0
1734503732.7527082,40.0390625,1.46484375,0.0,38.0859375,0.0
1734503732.7566128,13.18359375,-3.90625,0.0,20.5078125,0.0
1734503732.7605562,8.7890625,-12.6953125,50.78125,14.6484375,0.0
1734503732.7644608,23.4375,-7.32421875,38.57421875,49.8046875,0.0
1734503732.7683654,52.24609375,-19.04296875,43.9453125,50.29296875,0.0
1734503732.77227,33.203125,-38.0859375,59.5703125,27.34375,0.0
1734503732.7761745,14.6484375,-12.6953125,72.75390625,19.04296875,0.0
1734503732.7800791,3.41796875,8.7890625,78.125,-2.9296875,0.0
1734503732.7839837,-11.23046875,8.30078125,70.3125,-23.92578125,0.0
1734503732.787888,13.18359375,13.18359375,63.96484375,13.671875,0.0
1734503732.7917926,23.4375,-5.37109375,50.29296875,29.296875,0.0
1734503732.7956972,32.2265625,-39.55078125,-14.16015625,24.90234375,0.0
1734503732.7996018,50.29296875,-3.90625,35.64453125,41.015625,0.0
1734503732.8035064,11.71875,42.96875,110.3515625,-2.9296875,0.0
1734503732.8074365,-38.0859375,28.3203125,96.6796875,-50.29296875,0.0
1734503732.8113408,-26.3671875,23.92578125,92.7734375,-44.921875,0.0
1734503732.8152454,-20.5078125,25.87890625,79.1015625,-31.73828125,0.0
1734503732.81915,-34.66796875,4.8828125,71.77734375,-34.66796875,0.0
1734503732.8230546,-30.76171875,-10.7421875,54.6875,-39.55078125,0.0
1734503732.8269591,-14.16015625,-2.44140625,44.921875,-36.1328125,0.0
1734503732.8308637,-29.78515625,9.27734375,63.96484375,-34.1796875,0.0
1734503732.8347683,-35.64453125,10.7421875,63.4765625,-14.6484375,0.0
1734503732.8386729,-11.23046875,22.4609375,57.12890625,8.30078125,0.0
1734503732.8425775,-8.30078125,27.34375,47.8515625,-2.9296875,0.0
1734503732.846482,-33.69140625,-14.6484375,90.8203125,-41.50390625,0.0
1734503732.8503866,-37.59765625,-27.83203125,112.3046875,-47.8515625,0.0
1734503732.8543034,0.0,-15.625,93.26171875,-31.73828125,0.0
1734503732.858208,0.0,-27.34375,75.68359375,-9.765625,0.0
1734503732.8621125,0.0,-26.3671875,14.16015625,-0.9765625,0.0
1734503732.866017,0.0,-12.20703125,65.4296875,-35.64453125,0.0
1734503732.8699217,0.0,-12.6953125,115.234375,-71.77734375,0.0
1734503732.8738263,0.0,-2.9296875,85.44921875,-59.5703125,0.0
1734503732.8777308,0.0,7.8125,78.125,-28.3203125,0.0
1734503732.8816352,0.0,3.41796875,67.87109375,-34.66796875,0.0
1734503732.8855398,0.0,-7.8125,38.0859375,-36.1328125,0.0
1734503732.8894444,0.0,-10.25390625,35.64453125,-27.34375,0.0
1734503732.893349,0.0,-2.9296875,66.89453125,-38.57421875,0.0
1734503732.8972535,0.0,-9.765625,71.77734375,-38.0859375,0.0
1734503732.9012678,-23.92578125,-4.39453125,47.8515625,0.0,0.0
1734503732.9051723,-9.27734375,3.90625,53.22265625,0.0,0.0
1734503732.909077,-1.953125,-6.34765625,37.109375,0.0,0.0
1734503732.9129815,-9.27734375,-7.32421875,38.57421875,0.0,0.0
1734503732.916886,-18.06640625,-9.27734375,105.95703125,0.0,0.0
1734503732.9207904,-11.71875,-10.7421875,105.46875,0.0,0.0
1734503732.924695,-24.4140625,11.71875,88.37890625,0.0,0.0
1734503732.9285996,-24.4140625,25.87890625,52.734375,0.0,0.0
1734503732.9325042,-22.4609375,20.5078125,62.01171875,0.0,0.0
1734503732.9364088,-50.29296875,18.06640625,83.0078125,0.0,0.0
1734503732.9403133,-57.12890625,12.20703125,62.5,0.0,0.0
1734503732.944218,-41.015625,2.44140625,61.5234375,0.0,0.0
1734503732.9482167,-43.45703125,2.44140625,89.35546875,-37.59765625,0.0
1734503732.9521213,-29.78515625,4.39453125,78.61328125,-14.6484375,0.0
1734503732.9560258,-41.9921875,16.6015625,76.66015625,-42.96875,0.0
1734503732.9599304,-78.125,40.0390625,93.26171875,-88.37890625,0.0
1734503732.963835,-71.77734375,31.73828125,88.8671875,-82.51953125,0.0
1734503732.9677396,-70.3125,26.85546875,93.75,-70.3125,0.0
1734503732.9716442,-82.03125,28.3203125,101.5625,-84.47265625,0.0
1734503732.9755487,-102.5390625,21.484375,108.88671875,-107.421875,0.0
1734503732.9794533,-124.0234375,31.25,114.74609375,-124.0234375,0.0
1734503732.983358,-117.67578125,20.5078125,122.55859375,-108.88671875,0.0
1734503732.9872622,-110.3515625,1.953125,131.8359375,-86.42578125,0.0
1734503732.9911668,-110.3515625,3.90625,101.07421875,-93.75,0.0
1734503732.9951503,0.0,-14.16015625,114.2578125,-99.609375,0.0
1734503732.999055,0.0,-21.97265625,119.140625,-85.44921875,0.0
1734503733.0029595,0.0,-0.48828125,152.83203125,-122.55859375,0.0
1734503733.006864,0.0,-3.90625,214.35546875,-127.44140625,0.0
1734503733.0107687,0.0,5.859375,180.6640625,-119.62890625,0.0
1734503733.0146732,0.0,2.44140625,152.83203125,-143.06640625,0.0
1734503733.0185778,0.0,2.9296875,117.67578125,-118.65234375,0.0
1734503733.0224824,0.0,28.80859375,78.61328125,-118.65234375,0.0
1734503733.026387,0.0,18.06640625,80.078125,-121.09375,0.0
1734503733.0302916,0.0,-11.23046875,92.7734375,-133.7890625,0.0
1734503733.0341961,0.0,-25.390625,142.578125,-145.5078125,0.0
1734503733.0381007,0.0,-39.55078125,145.01953125,-102.5390625,0.0
1734503733.042068,-95.21484375,-17.578125,127.44140625,-92.7734375,0.0
1734503733.0459726,-125.9765625,16.11328125,91.796875,-121.09375,0.0
1734503733.0498772,-90.33203125,21.484375,60.05859375,-85.44921875,0.0
1734503733.0537817,-59.5703125,31.73828125,80.078125,-71.77734375,0.0
1734503733.0576863,-82.03125,24.4140625,41.015625,-80.56640625,0.0
1734503733.061591,-67.87109375,-11.71875,-48.828125,-41.015625,0.0
1734503733.0654955,-32.2265625,-3.90625,26.3671875,-25.390625,0.0
1734503733.0694,-34.66796875,10.25390625,80.56640625,-39.0625,0.0
1734503733.0733047,-19.04296875,-17.08984375,20.5078125,-26.85546875,0.0
1734503733.0772092,-21.97265625,-12.6953125,31.25,-24.4140625,0.0
1734503733.0811138,-37.59765625,8.30078125,37.59765625,-29.296875,0.0
1734503733.0850184,-13.671875,13.671875,20.01953125,-13.671875,0.0
1734503733.088977,2.44140625,16.11328125,4.8828125,-7.32421875,0.0
1734503733.0928817,10.7421875,-4.8828125,15.625,0.9765625,0.0
1734503733.0967863,13.18359375,-8.7890625,26.3671875,21.97265625,0.0
1734503733.1006908,-7.32421875,5.37109375,-11.23046875,-1.953125,0.0
1734503733.1045954,3.41796875,4.8828125,26.3671875,-13.671875,0.0
1734503733.1085,33.69140625,7.8125,43.9453125,12.6953125,0.0
1734503733.1124046,29.78515625,9.27734375,20.01953125,21.97265625,0.0
1734503733.1163092,39.0625,0.48828125,9.765625,41.015625,0.0
1734503733.1202137,36.62109375,-8.30078125,-12.6953125,49.8046875,0.0
1734503733.1241183,49.8046875,8.30078125,-62.98828125,61.5234375,0.0
1734503733.128023,52.24609375,21.484375,-69.82421875,47.36328125,0.0
1734503733.1319275,25.87890625,10.25390625,-6.34765625,20.99609375,0.0
1734503733.1358678,27.83203125,13.18359375,4.39453125,15.625,0.0
1734503733.1397724,12.20703125,10.7421875,-28.3203125,29.296875,0.0
1734503733.143677,16.11328125,-6.8359375,-43.9453125,41.9921875,0.0
1734503733.1475816,42.48046875,-0.48828125,-39.0625,50.29296875,0.0
1734503733.1514862,32.71484375,9.765625,-65.4296875,56.15234375,0.0
1734503733.1553907,19.53125,2.9296875,-72.75390625,28.80859375,0.0
1734503733.1592953,37.59765625,3.90625,-48.828125,31.25,0.0
1734503733.1632,41.50390625,10.7421875,-36.62109375,50.78125,0.0
1734503733.1671045,33.69140625,4.39453125,-87.40234375,39.0625,0.0
1734503733.171009,52.24609375,-12.20703125,-96.6796875,48.33984375,0.0
1734503733.1749136,56.15234375,-10.25390625,-69.3359375,55.17578125,0.0
1734503733.1788182,49.8046875,6.8359375,-100.5859375,79.58984375,0.0
1734503733.182746,49.8046875,16.11328125,-83.0078125,71.2890625,0.0
1734503733.1866505,64.453125,22.94921875,-74.21875,32.2265625,0.0
1734503733.190555,67.3828125,25.87890625,-83.49609375,44.43359375,0.0
1734503733.1944597,55.6640625,20.99609375,-90.8203125,53.7109375,0.0
1734503733.1983643,68.84765625,4.8828125,-104.98046875,62.5,0.0
1734503733.2022688,89.35546875,17.08984375,-90.33203125,83.984375,0.0
1734503733.2061734,74.21875,13.18359375,-115.72265625,94.7265625,0.0
1734503733.210078,62.98828125,3.90625,-155.76171875,85.44921875,0.0
1734503733.2139826,83.0078125,21.484375,-115.234375,59.5703125,0.0
1734503733.2178872,86.9140625,40.52734375,-62.5,65.91796875,0.0
1734503733.2217917,62.01171875,37.59765625,-52.734375,70.3125,0.0
1734503733.2256963,51.7578125,23.92578125,-105.46875,51.26953125,0.0
1734503733.229723,51.26953125,23.4375,-140.13671875,50.29296875,0.0
1734503733.2336276,61.5234375,30.2734375,-88.8671875,55.17578125,0.0
1734503733.2375321,61.03515625,34.1796875,-69.82421875,68.84765625,0.0
1734503733.2414367,59.5703125,29.296875,-144.53125,83.0078125,0.0
1734503733.2453413,69.3359375,27.34375,-155.2734375,75.68359375,0.0
1734503733.249246,77.63671875,34.1796875,-83.49609375,77.63671875,0.0
1734503733.2531505,78.125,18.5546875,-97.16796875,79.58984375,0.0
1734503733.257055,71.2890625,25.87890625,-126.953125,56.640625,0.0
1734503733.2609596,70.80078125,57.6171875,-91.30859375,51.26953125,0.0
1734503733.2648642,55.6640625,62.98828125,-66.89453125,53.22265625,0.0
1734503733.2687688,53.22265625,53.7109375,-100.5859375,50.29296875,0.0
1734503733.2726734,64.453125,45.41015625,-181.640625,66.89453125,0.0
1734503733.2766862,70.80078125,48.828125,-159.66796875,73.2421875,0.0
1734503733.2805908,91.796875,55.17578125,-51.26953125,72.75390625,0.0
1734503733.2844954,76.66015625,39.0625,-34.1796875,57.6171875,0.0
1734503733.2884,41.50390625,28.80859375,-68.84765625,38.57421875,0.0
1734503733.2923045,38.57421875,35.15625,-98.6328125,45.8984375,0.0
1734503733.296209,62.5,45.8984375,-118.1640625,59.08203125,0.0
1734503733.3001137,84.47265625,57.6171875,-112.79296875,71.77734375,0.0
1734503733.3040183,69.82421875,43.45703125,-116.69921875,73.2421875,0.0
1734503733.3079228,45.8984375,39.0625,-110.83984375,50.29296875,0.0
1734503733.3118274,36.62109375,33.203125,-75.1953125,40.0390625,0.0
1734503733.315732,31.73828125,23.4375,-75.68359375,32.71484375,0.0
1734503733.3196366,33.69140625,23.92578125,-137.6953125,27.83203125,0.0
1734503733.3236291,42.96875,9.27734375,-186.03515625,68.84765625,0.0
1734503733.3275337,45.8984375,6.34765625,-122.55859375,68.359375,0.0
1734503733.3314383,49.8046875,44.921875,-87.890625,44.43359375,0.0
1734503733.335343,33.69140625,56.640625,-153.80859375,32.2265625,0.0
1734503733.3392475,17.578125,49.31640625,-206.54296875,16.6015625,0.0
1734503733.343152,29.78515625,57.6171875,-204.58984375,27.83203125,0.0
1734503733.3470566,39.0625,52.734375,-204.58984375,41.015625,0.0
1734503733.3509612,40.0390625,45.8984375,-218.75,54.6875,0.0
1734503733.3548658,43.9453125,46.875,-211.42578125,68.359375,0.0
1734503733.3587704,23.4375,16.6015625,-189.453125,57.6171875,0.0
1734503733.362675,1.46484375,0.48828125,-140.625,27.34375,0.0
1734503733.3665795,20.01953125,29.78515625,-92.7734375,19.53125,0.0
1734503733.3705606,20.99609375,29.78515625,-75.68359375,13.671875,0.0
1734503733.3744652,2.9296875,13.671875,-64.94140625,4.8828125,0.0
1734503733.3783698,-1.953125,15.13671875,-49.31640625,9.27734375,0.0
1734503733.3822744,3.41796875,17.578125,-50.29296875,25.87890625,0.0
1734503733.386179,20.99609375,18.06640625,-69.3359375,42.96875,0.0
1734503733.3900836,31.25,8.7890625,-5.37109375,38.57421875,0.0
1734503733.3939881,23.92578125,3.41796875,47.8515625,25.390625,0.0
1734503733.3978927,8.7890625,15.625,62.98828125,22.4609375,0.0
1734503733.4017973,13.671875,16.6015625,64.453125,38.57421875,0.0
1734503733.4057019,14.16015625,10.7421875,23.92578125,40.0390625,0.0
1734503733.4096065,11.23046875,9.27734375,-2.44140625,26.85546875,0.0
1734503733.413511,19.53125,2.9296875,1.46484375,35.64453125,0.0
1734503733.4174814,37.109375,-9.765625,23.4375,40.0390625,0.0
1734503733.421386,12.20703125,-17.578125,76.171875,24.4140625,0.0
1734503733.4252906,-17.08984375,5.859375,46.38671875,18.5546875,0.0
1734503733.4291952,-19.53125,17.08984375,-44.43359375,12.20703125,0.0
1734503733.4330997,0.48828125,11.71875,-93.26171875,26.85546875,0.0
1734503733.4370043,27.34375,4.8828125,-89.84375,28.80859375,0.0
1734503733.440909,14.6484375,-16.6015625,-55.6640625,2.44140625,0.0
1734503733.4448135,-8.30078125,-14.6484375,-57.6171875,4.8828125,0.0
1734503733.448718,-17.578125,-3.90625,-40.0390625,20.99609375,0.0
1734503733.4526227,-31.25,-18.06640625,-35.64453125,14.16015625,0.0
1734503733.4565272,-26.85546875,-20.5078125,-30.2734375,5.859375,0.0
1734503733.4604318,-20.01953125,-15.13671875,-10.7421875,-2.9296875,0.0
1734503733.4643886,-14.6484375,-14.6484375,-26.85546875,5.859375,0.0
1734503733.4682932,-9.27734375,-8.7890625,-42.48046875,14.6484375,0.0
1734503733.4721978,-19.53125,-18.5546875,-9.27734375,0.48828125,0.0
1734503733.4761024,-22.4609375,-23.4375,16.6015625,0.9765625,0.0
1734503733.480007,-23.4375,-25.87890625,-15.625,-3.90625,0.0
1734503733.4839115,-21.484375,-25.390625,-61.5234375,-1.46484375,0.0
1734503733.487816,-19.53125,-11.71875,-29.78515625,10.25390625,0.0
1734503733.4917207,-31.25,-18.5546875,32.2265625,14.16015625,0.0
1734503733.4956253,-41.50390625,-27.34375,22.94921875,-3.41796875,0.0
1734503733.4995298,-20.01953125,-18.5546875,1.46484375,-2.9296875,0.0
1734503733.5034344,-8.7890625,-36.62109375,38.57421875,19.04296875,0.0
1734503733.507339,-0.48828125,-49.8046875,35.15625,8.7890625,0.0
1734503733.5112793,-2.9296875,-40.0390625,26.3671875,-7.8125,0.0
1734503733.515184,-25.390625,-28.80859375,12.6953125,-23.92578125,0.0
1734503733.5190885,-24.90234375,-8.30078125,-0.48828125,-24.90234375,0.0
1734503733.522993,0.48828125,1.953125,31.73828125,0.0,0.0
1734503733.5268977,2.9296875,-13.18359375,7.8125,7.32421875,0.0
1734503733.5308022,-20.99609375,-16.11328125,-24.4140625,-1.46484375,0.0
1734503733.5347068,-19.53125,-21.484375,-47.36328125,9.27734375,0.0
1734503733.5386114,4.8828125,-37.59765625,-80.078125,33.203125,0.0
1734503733.542516,-19.04296875,-24.4140625,-59.08203125,6.34765625,0.0
1734503733.5464206,-52.734375,-16.11328125,1.46484375,-8.7890625,0.0
1734503733.5503252,-31.73828125,-31.73828125,-11.71875,5.37109375,0.0
1734503733.5542297,-21.484375,-40.0390625,-46.38671875,-9.765625,0.0
1734503733.5582678,-29.78515625,-27.34375,-46.875,-12.6953125,0.0
1734503733.5621724,-21.97265625,-17.578125,-61.03515625,-3.41796875,0.0
1734503733.566077,-10.25390625,-18.5546875,-64.94140625,1.46484375,0.0
1734503733.5699816,-7.32421875,-21.484375,-77.1484375,-1.46484375,0.0
1734503733.5738862,-20.5078125,-28.80859375,-83.984375,-10.25390625,0.0
1734503733.5777907,-21.97265625,-31.25,-99.609375,1.953125,0.0
1734503733.5816953,-13.671875,-32.71484375,-168.45703125,15.13671875,0.0
1734503733.5856,-6.34765625,-31.25,-171.38671875,-6.34765625,0.0
1734503733.5895045,-0.48828125,-30.2734375,-136.71875,-12.6953125,0.0
1734503733.593409,-21.97265625,-42.96875,-119.62890625,-25.390625,0.0
1734503733.5973136,-35.64453125,-58.59375,-117.1875,-28.3203125,0.0
1734503733.6012182,-27.83203125,-51.7578125,-139.16015625,-25.390625,0.0
1734503733.6051273,-30.2734375,-47.8515625,-160.15625,-19.04296875,0.0
1734503733.609032,-30.76171875,-49.8046875,-143.5546875,-13.671875,0.0
1734503733.6129365,-13.671875,-39.0625,-138.18359375,-12.20703125,0.0
1734503733.616841,-34.66796875,-28.3203125,-157.2265625,-13.18359375,0.0
1734503733.6207457,-41.50390625,-28.3203125,-184.08203125,9.765625,0.0
1734503733.6246502,-4.8828125,-20.99609375,-209.9609375,26.3671875,0.0
1734503733.6285548,-39.55078125,-32.2265625,-173.828125,-18.5546875,0.0
1734503733.6324594,-60.546875,-57.6171875,-127.44140625,-41.9921875,0.0
1734503733.636364,-42.48046875,-57.6171875,-129.39453125,-40.0390625,0.0
1734503733.6402686,-37.59765625,-40.52734375,-151.3671875,-40.52734375,0.0
1734503733.6441731,-41.50390625,-40.0390625,-157.71484375,-21.97265625,0.0
1734503733.6480777,-30.76171875,-44.921875,-151.3671875,-17.08984375,0.0
1734503733.6520834,-29.296875,-48.828125,-134.27734375,-31.73828125,0.0
1734503733.655988,-33.203125,-61.5234375,-126.953125,-25.390625,0.0
1734503733.6598926,-20.01953125,-50.29296875,-129.8828125,-8.7890625,0.0
1734503733.6637971,-26.3671875,-26.3671875,-141.6015625,1.46484375,0.0
1734503733.6677017,-29.296875,-32.2265625,-122.0703125,-3.90625,0.0
1734503733.6716063,-23.92578125,-42.96875,-52.24609375,-21.97265625,0.0
1734503733.675511,-42.96875,-40.0390625,-48.828125,-34.66796875,0.0
1734503733.6794155,-55.17578125,-34.1796875,-56.15234375,-37.59765625,0.0
1734503733.68332,-32.71484375,-48.33984375,-30.76171875,-22.4609375,0.0
1734503733.6872246,-34.66796875,-52.734375,-22.4609375,-11.71875,0.0
1734503733.6911292,-52.24609375,-47.8515625,-20.99609375,-26.85546875,0.0
1734503733.6950338,-35.64453125,-42.96875,-15.13671875,-18.06640625,0.0
1734503733.6990268,-23.92578125,-46.875,0.0,-15.625,0.0
1734503733.7029314,0.48828125,-77.63671875,0.0,-16.11328125,0.0
1734503733.706836,-3.41796875,-56.640625,0.0,-25.87890625,0.0
1734503733.7107406,-49.8046875,-12.20703125,0.0,-39.0625,0.0
1734503733.7146451,-61.03515625,-1.953125,0.0,-34.66796875,0.0
1734503733.7185497,-51.26953125,-18.06640625,0.0,-31.25,0.0
1734503733.7224543,-40.52734375,-18.5546875,0.0,-26.3671875,0.0
1734503733.726359,-13.18359375,-16.6015625,0.0,-31.25,0.0
1734503733.7302635,-15.13671875,-39.0625,0.0,-33.69140625,0.0
1734503733.734168,-36.1328125,-47.36328125,0.0,-15.13671875,0.0
1734503733.7380726,-27.34375,-42.48046875,0.0,1.46484375,0.0
1734503733.7419772,-23.4375,-32.71484375,0.0,-29.296875,0.0
1734503733.745959,-32.2265625,-26.85546875,28.3203125,-35.64453125,0.0
1734503733.7498636,-39.55078125,-29.296875,8.30078125,-34.66796875,0.0
1734503733.7537682,-48.828125,-39.0625,0.0,-46.38671875,0.0
1734503733.7576728,-42.96875,-62.01171875,-25.390625,-31.73828125,0.0
1734503733.7615774,-11.23046875,-38.57421875,-26.85546875,-11.71875,0.0
1734503733.765482,-15.13671875,-15.13671875,-16.6015625,5.37109375,0.0
1734503733.7693865,-27.34375,-19.04296875,-47.36328125,-3.41796875,0.0
1734503733.773291,-8.30078125,-23.92578125,-62.98828125,-13.18359375,0.0
1734503733.7771957,-15.625,-27.34375,-43.45703125,-15.625,0.0
1734503733.7811003,-0.48828125,-33.203125,-20.01953125,-17.08984375,0.0
1734503733.7850049,-4.39453125,-30.76171875,-11.71875,-13.671875,0.0
1734503733.7889094,-35.64453125,-20.5078125,-64.94140625,-20.99609375,0.0
1734503733.79288,0.0,-14.16015625,-78.125,-26.85546875,0.0
1734503733.7967846,0.0,-8.30078125,-45.41015625,-32.2265625,0.0
1734503733.8006892,0.0,-11.71875,-52.734375,-34.1796875,0.0
1734503733.804594,0.0,-20.01953125,-53.22265625,-50.29296875,0.0
1734503733.8084986,0.0,-19.04296875,-51.26953125,-43.45703125,0.0
1734503733.8124032,0.0,-27.83203125,-77.1484375,-21.484375,0.0
1734503733.8163078,0.0,-31.73828125,-89.84375,-28.3203125,0.0
1734503733.8202124,0.0,-41.50390625,-83.0078125,-18.06640625,0.0
1734503733.824117,0.0,-64.94140625,-66.89453125,16.11328125,0.0
1734503733.8280215,0.0,-42.96875,-12.20703125,2.44140625,0.0
1734503733.831926,0.0,-58.59375,-18.5546875,-11.23046875,0.0
1734503733.8358307,0.0,-63.4765625,-37.109375,-21.484375,0.0
1734503733.8394809,-29.296875,-31.73828125,0.0,-41.015625,0.0
1734503733.8433855,-37.109375,-20.5078125,0.0,-22.4609375,0.0
1734503733.84729,-39.0625,-12.20703125,0.0,-13.671875,0.0
1734503733.8511946,-41.015625,-5.37109375,0.0,-1.953125,0.0
1734503733.8550992,-39.0625,-31.73828125,0.0,6.8359375,0.0
1734503733.8590038,-34.66796875,-45.8984375,0.0,-1.46484375,0.0
1734503733.8629084,-41.9921875,-41.015625,0.0,-10.25390625,0.0
1734503733.866813,-26.85546875,-47.36328125,0.0,-15.625,0.0
1734503733.8707175,0.9765625,-54.6875,0.0,-3.41796875,0.0
1734503733.874622,-6.8359375,-43.9453125,0.0,-9.27734375,0.0
1734503733.8785267,7.32421875,-46.875,0.0,-2.44140625,0.0
1734503733.8824313,10.7421875,-44.43359375,0.0,-3.90625,0.0
1734503733.8863773,-3.41796875,-33.203125,-23.4375,-27.34375,0.0
1734503733.890282,3.90625,-41.015625,-6.34765625,20.99609375,0.0
1734503733.8941865,-8.30078125,-55.6640625,34.1796875,31.25,0.0
1734503733.898091,-25.390625,-54.19921875,20.5078125,-13.18359375,0.0
1734503733.9019957,-41.9921875,-52.24609375,31.25,-8.30078125,0.0
1734503733.9059002,-23.4375,-42.48046875,49.8046875,-7.32421875,0.0
1734503733.9098048,27.83203125,-39.0625,30.76171875,-11.71875,0.0
1734503733.9137094,-0.9765625,-64.453125,15.13671875,15.13671875,0.0
1734503733.917614,-33.203125,-48.33984375,22.94921875,9.27734375,0.0
1734503733.9215186,1.46484375,-26.85546875,32.71484375,-14.6484375,0.0
1734503733.9254231,-12.6953125,-37.109375,33.203125,-22.94921875,0.0
1734503733.9293277,-52.734375,-26.3671875,32.2265625,-20.5078125,0.0
1734503733.9332552,-47.8515625,-24.4140625,2.9296875,7.8125,0.0
1734503733.9371598,-19.53125,-37.59765625,17.08984375,-1.953125,0.0
1734503733.9410644,-39.55078125,-52.24609375,44.43359375,-9.27734375,0.0
1734503733.944969,-79.1015625,-88.37890625,31.73828125,24.4140625,0.0
1734503733.9488735,-56.640625,-56.15234375,13.671875,10.7421875,0.0
1734503733.952778,-53.22265625,-16.6015625,4.39453125,-20.01953125,0.0
1734503733.9566827,-81.0546875,-20.99609375,-7.8125,-23.92578125,0.0
1734503733.9605873,-84.9609375,-45.8984375,-23.92578125,-0.9765625,0.0
1734503733.9644918,-77.1484375,-58.59375,-26.85546875,2.44140625,0.0
1734503733.9683964,-83.0078125,-55.17578125,-11.71875,5.37109375,0.0
1734503733.972301,-76.66015625,-69.3359375,-23.92578125,5.859375,0.0
1734503733.9762056,-71.2890625,-66.40625,9.765625,-21.484375,0.0
1734503733.9801128,0.0,-59.5703125,43.45703125,-32.71484375,0.0
1734503733.9840174,0.0,-65.91796875,17.578125,-15.13671875,0.0
1734503733.987922,0.0,-50.78125,-8.30078125,-26.85546875,0.0
1734503733.9918265,0.0,-44.43359375,-7.32421875,-55.6640625,0.0
1734503733.995731,0.0,-40.52734375,0.0,-33.69140625,0.0
1734503733.9996357,0.0,-33.69140625,-1.953125,-20.5078125,0.0
1734503734.0035403,0.0,-48.828125,3.90625,10.25390625,0.0
1734503734.0074449,0.0,-64.94140625,-11.71875,3.41796875,0.0
1734503734.0113494,0.0,-52.24609375,-43.45703125,-32.2265625,0.0
1734503734.015254,0.0,-52.734375,-12.6953125,-22.4609375,0.0
1734503734.0191588,0.0,-48.828125,30.76171875,-18.06640625,0.0
1734503734.0230634,0.0,-39.55078125,7.8125,-12.6953125,0.0
1734503734.027073,-53.7109375,-43.9453125,-48.33984375,-3.41796875,0.0
1734503734.0309775,-56.640625,-32.71484375,10.25390625,-1.46484375,0.0
1734503734.034882,-40.0390625,-38.57421875,59.5703125,9.27734375,0.0
1734503734.0387866,-45.8984375,-57.12890625,18.06640625,-8.7890625,0.0
1734503734.0426912,-65.4296875,-46.38671875,12.20703125,-26.85546875,0.0
1734503734.0465958,-69.82421875,-44.43359375,26.3671875,-3.41796875,0.0
1734503734.0505004,-62.01171875,-55.17578125,15.13671875,25.390625,0.0
1734503734.054405,-42.96875,-66.89453125,16.11328125,16.6015625,0.0
1734503734.0583096,-7.32421875,-81.54296875,11.23046875,14.16015625,0.0
1734503734.0622141,-43.45703125,-52.24609375,12.20703125,-13.18359375,0.0
1734503734.0661187,-111.81640625,-1.46484375,5.37109375,-59.5703125,0.0
1734503734.0700233,-113.76953125,-8.7890625,-14.16015625,-53.22265625,0.0
1734503734.0740123,-104.4921875,-18.5546875,-4.8828125,-38.0859375,0.0
1734503734.0779169,-85.9375,-30.76171875,-4.39453125,-38.0859375,0.0
1734503734.0818214,-72.265625,-48.828125,-7.32421875,-31.73828125,0.0
1734503734.085726,-77.63671875,-46.875,-1.46484375,-34.66796875,0.0
1734503734.0896306,-13.18359375,-48.828125,17.578125,-15.625,0.0
1734503734.0935352,-13.18359375,-68.359375,24.90234375,-4.8828125,0.0
1734503734.0974398,-43.45703125,-56.15234375,4.8828125,-6.34765625,0.0
1734503734.1013443,-44.921875,-40.0390625,10.7421875,-2.44140625,0.0
1734503734.105249,-70.80078125,-43.9453125,-6.8359375,7.32421875,0.0
1734503734.1091535,-89.35546875,-42.48046875,0.0,5.37109375,0.0
1734503734.113058,-89.35546875,-43.45703125,20.5078125,-17.578125,0.0
1734503734.1169627,-89.35546875,-52.734375,-0.48828125,-12.6953125,0.0
1734503734.1209402,0.0,-52.24609375,0.0,-1.953125,0.0
1734503734.1248448,0.0,-22.94921875,0.0,9.27734375,0.0
1734503734.1287494,0.0,-22.4609375,0.0,1.953125,0.0
1734503734.132654,0.0,-52.734375,0.0,-20.99609375,0.0
1734503734.1365585,0.0,-49.8046875,0.0,-16.11328125,0.0
1734503734.140463,0.0,-55.6640625,0.0,-7.8125,0.0
1734503734.1443677,0.0,-60.546875,0.0,-13.18359375,0.0
1734503734.1482723,0.0,-55.17578125,0.0,12.20703125,0.0
1734503734.1521769,0.0,-53.22265625,0.0,26.3671875,0.0
1734503734.1560814,0.0,-40.0390625,0.0,16.6015625,0.0
1734503734.159986,0.0,-29.78515625,0.0,23.92578125,0.0
1734503734.1638906,0.0,-38.0859375,0.0,9.27734375,0.0
1734503734.1675568,-95.703125,-54.19921875,-20.01953125,-15.13671875,0.0
1734503734.1714613,-71.77734375,-53.7109375,-21.97265625,0.48828125,0.0
1734503734.175366,-86.9140625,-40.52734375,-16.6015625,5.37109375,0.0
1734503734.1792705,-109.375,-43.9453125,-33.69140625,0.48828125,0.0
1734503734.183175,-82.03125,-62.01171875,-10.25390625,15.625,0.0
1734503734.1870797,-81.0546875,-66.40625,-14.16015625,20.99609375,0.0
1734503734.1909842,-77.63671875,-50.29296875,-56.15234375,8.7890625,0.0
1734503734.1948888,-48.33984375,-29.296875,-54.6875,7.8125,0.0
1734503734.1987934,-46.875,-20.99609375,-58.10546875,26.3671875,0.0
1734503734.202698,-61.5234375,-29.78515625,-45.8984375,20.99609375,0.0
1734503734.2066026,-51.26953125,-41.015625,4.39453125,-4.8828125,0.0
1734503734.2105072,-52.734375,-66.89453125,-23.4375,1.953125,0.0
1734503734.2141547,-72.265625,-41.9921875,-53.22265625,8.30078125,0.0
1734503734.2180593,-53.7109375,-25.87890625,-15.625,0.0,0.0
1734503734.221964,-44.921875,-49.8046875,1.46484375,4.8828125,0.0
1734503734.2258685,-55.17578125,-56.640625,-10.25390625,27.83203125,0.0
1734503734.229773,-53.22265625,-41.50390625,-32.71484375,24.90234375,0.0
1734503734.2336776,-45.8984375,-23.4375,-25.390625,0.48828125,0.0
1734503734.2375822,-53.22265625,-27.34375,-44.43359375,18.06640625,0.0
1734503734.2414868,-60.05859375,-21.97265625,-70.80078125,50.78125,0.0
1734503734.2453914,-43.9453125,8.7890625,-22.94921875,50.78125,0.0
1734503734.249296,-42.48046875,-19.04296875,12.6953125,25.87890625,0.0
1734503734.2532005,-73.2421875,-48.33984375,-2.9296875,-18.5546875,0.0
1734503734.257105,-64.94140625,-30.76171875,-27.83203125,-19.53125,0.0
1734503734.26075,-45.41015625,-49.31640625,-41.015625,-2.44140625,0.0
1734503734.2646546,-35.15625,-58.10546875,-33.69140625,2.44140625,0.0
1734503734.2685592,-51.26953125,-39.0625,-41.9921875,-12.6953125,0.0
1734503734.2724638,-47.8515625,-48.828125,-31.73828125,-9.27734375,0.0
1734503734.2763684,-22.94921875,-58.59375,-17.578125,-0.48828125,0.0
1734503734.280273,-17.08984375,-23.92578125,-42.96875,-19.04296875,0.0
1734503734.2841775,-9.765625,-19.04296875,-35.15625,-2.44140625,0.0
1734503734.2880821,-20.01953125,-23.4375,-0.9765625,3.90625,0.0
1734503734.2919867,-12.20703125,-17.08984375,-14.6484375,-21.97265625,0.0
1734503734.2958913,-36.1328125,-19.04296875,-31.25,-9.765625,0.0
1734503734.2997959,-57.12890625,-20.5078125,-15.13671875,-1.46484375,0.0
1734503734.3037004,-38.57421875,-31.73828125,-14.16015625,-3.41796875,0.0
1734503734.3076327,-11.71875,-42.48046875,-25.87890625,-15.625,0.0
1734503734.3115373,-16.6015625,-41.015625,-30.76171875,-8.30078125,0.0
1734503734.3154418,-12.20703125,-19.53125,-27.34375,9.765625,0.0
1734503734.3193464,-23.92578125,-22.94921875,-22.94921875,-12.6953125,0.0
1734503734.323251,-28.3203125,-35.15625,-26.3671875,-15.13671875,0.0
1734503734.3271556,-11.71875,-32.2265625,-22.94921875,5.37109375,0.0
1734503734.3310602,-6.34765625,-22.94921875,-20.5078125,4.8828125,0.0
1734503734.3349648,0.48828125,-12.20703125,-10.25390625,0.0,0.0
1734503734.3388693,10.7421875,-18.06640625,5.37109375,0.9765625,0.0
1734503734.342774,21.97265625,-16.11328125,0.48828125,3.90625,0.0
1734503734.3466785,-1.46484375,-16.11328125,-15.13671875,4.39453125,0.0
1734503734.350583,-10.7421875,-44.921875,2.9296875,22.94921875,0.0
1734503734.3544972,10.7421875,-44.921875,6.34765625,35.64453125,0.0
1734503734.3584018,-14.6484375,-25.87890625,0.48828125,19.04296875,0.0
1734503734.3623064,-48.828125,-22.94921875,38.57421875,-22.94921875,0.0
1734503734.366211,-26.85546875,-8.30078125,24.90234375,-27.83203125,0.0
1734503734.3701155,-8.30078125,-10.7421875,31.73828125,0.48828125,0.0
1734503734.37402,-18.06640625,-18.5546875,29.296875,10.25390625,0.0
1734503734.3779247,-3.41796875,-3.41796875,-20.01953125,14.6484375,0.0
1734503734.3818293,-7.32421875,-17.08984375,7.32421875,1.46484375,0.0
1734503734.3857338,7.8125,-22.4609375,55.6640625,-7.32421875,0.0
1734503734.3896384,0.0,-12.20703125,41.9921875,18.5546875,0.0
1734503734.393543,-32.2265625,-31.25,-3.41796875,7.8125,0.0
1734503734.3974476,-14.6484375,-21.97265625,5.37109375,-0.48828125,0.0
1734503734.4014578,7.32421875,-3.90625,34.66796875,10.7421875,0.0
1734503734.4053624,-12.6953125,-27.83203125,29.296875,3.90625,0.0
1734503734.409267,-12.6953125,-31.25,3.90625,-3.90625,0.0
1734503734.4131715,18.5546875,-49.8046875,21.97265625,4.8828125,0.0
1734503734.417076,7.8125,-54.19921875,25.390625,-0.9765625,0.0
1734503734.4209807,-25.87890625,-22.4609375,5.859375,-19.04296875,0.0
1734503734.4248853,-24.4140625,-11.23046875,14.16015625,-24.90234375,0.0
1734503734.4287899,-3.90625,-16.6015625,17.578125,-20.5078125,0.0
1734503734.4326944,-15.625,-21.484375,-11.23046875,5.37109375,0.0
1734503734.436599,16.6015625,-28.80859375,-29.296875,34.1796875,0.0
1734503734.4405036,16.11328125,-54.6875,22.4609375,12.20703125,0.0
1734503734.4444082,-22.4609375,-57.12890625,56.640625,-18.06640625,0.0
1734503734.4484043,-34.66796875,-39.55078125,21.484375,-20.5078125,0.0
1734503734.452309,-35.64453125,-31.73828125,25.390625,-6.8359375,0.0
1734503734.4562135,-23.92578125,-30.76171875,10.7421875,-1.953125,0.0
1734503734.460118,-46.38671875,-37.109375,-52.24609375,-18.06640625,0.0
1734503734.4640226,-44.921875,-39.0625,-26.85546875,-29.78515625,0.0
1734503734.4679272,-33.203125,-35.64453125,27.83203125,-24.4140625,0.0
1734503734.4718318,-27.83203125,-32.71484375,36.62109375,-17.08984375,0.0
1734503734.4757364,-32.2265625,-59.08203125,7.32421875,-22.94921875,0.0
1734503734.479641,-34.1796875,-54.19921875,4.39453125,-22.94921875,0.0
1734503734.4835455,-39.55078125,-31.73828125,15.13671875,-16.11328125,0.0
1734503734.4874501,-30.2734375,-48.33984375,-1.46484375,0.48828125,0.0
1734503734.4913547,-8.7890625,-56.640625,-21.97265625,18.06640625,0.0
1734503734.4953399,0.0,-42.96875,-44.921875,20.01953125,0.0
1734503734.4992445,0.0,-31.73828125,-1.953125,-1.46484375,0.0
1734503734.503149,0.0,-29.78515625,22.94921875,-32.71484375,0.0
1734503734.5070536,0.0,-43.9453125,21.484375,-39.55078125,0.0
1734503734.5109582,0.0,-54.19921875,39.55078125,-7.32421875,0.0
1734503734.5148628,0.0,-34.1796875,30.2734375,16.6015625,0.0
1734503734.5187674,0.0,-29.78515625,2.9296875,6.34765625,0.0
1734503734.522672,0.0,-39.55078125,8.30078125,-38.0859375,0.0
1734503734.5265765,0.0,-40.52734375,31.73828125,-31.73828125,0.0
1734503734.530481,0.0,-40.52734375,15.625,-36.62109375,0.0
1734503734.5343857,0.0,-38.0859375,1.953125,-61.03515625,0.0
1734503734.5382903,0.0,-48.33984375,14.16015625,-22.4609375,0.0
1734503734.542258,-34.1796875,-52.24609375,-8.7890625,-20.5078125,0.0
1734503734.5461626,-36.62109375,-54.19921875,-11.71875,-50.78125,0.0
1734503734.5500672,-21.97265625,-60.546875,20.99609375,-32.2265625,0.0
1734503734.5539718,-15.625,-55.17578125,10.25390625,-3.41796875,0.0
1734503734.5578763,-34.66796875,-49.8046875,-20.5078125,-6.8359375,0.0
1734503734.561781,-35.15625,-54.6875,3.90625,-28.3203125,0.0
1734503734.5656855,-17.08984375,-46.38671875,37.109375,-25.390625,0.0
1734503734.56959,2.9296875,-49.8046875,39.0625,-15.13671875,0.0
1734503734.5734947,-7.8125,-62.98828125,39.0625,-12.20703125,0.0
1734503734.5773993,-25.87890625,-48.33984375,7.8125,-36.1328125,0.0
1734503734.5813038,-19.04296875,-28.3203125,-19.53125,-54.6875,0.0
1734503734.5852084,-31.73828125,-32.71484375,-19.53125,-41.9921875,0.0
1734503734.5891619,-55.17578125,-42.96875,0.0,-20.01953125,0.0
1734503734.5930665,-44.43359375,-67.87109375,0.0,-25.390625,0.0
1734503734.596971,-7.32421875,-89.84375,0.0,-30.2734375,0.0
1734503734.6008756,-15.625,-59.5703125,0.0,-22.4609375,0.0
1734503734.6047802,-48.33984375,-33.203125,0.0,-31.25,0.0
1734503734.6086848,-38.0859375,-27.34375,0.0,-29.296875,0.0
1734503734.6125894,-54.19921875,-29.78515625,0.0,-23.92578125,0.0
1734503734.616494,-57.12890625,-43.9453125,0.0,-10.25390625,0.0
1734503734.6203985,-29.78515625,-52.734375,0.0,-13.671875,0.0
1734503734.624303,-24.90234375,-71.2890625,0.0,-35.15625,0.0
1734503734.6282077,-27.34375,-70.80078125,0.0,-10.7421875,0.0
1734503734.6321123,-28.80859375,-35.64453125,0.0,-13.18359375,0.0
1734503734.636052,-31.73828125,-30.2734375,10.7421875,-46.38671875,0.0
1734503734.6399565,-22.4609375,-40.52734375,20.5078125,-39.0625,0.0
1734503734.643861,-28.80859375,-43.9453125,7.8125,-29.296875,0.0
1734503734.6477656,-40.0390625,-48.33984375,-2.44140625,-30.76171875,0.0
1734503734.6516702,-20.01953125,-38.0859375,-10.25390625,-26.85546875,0.0
1734503734.6555748,-5.37109375,-39.0625,-4.8828125,-5.859375,0.0
1734503734.6594794,-12.6953125,-50.29296875,0.9765625,-1.46484375,0.0
1734503734.663384,-30.2734375,-62.5,5.859375,-18.06640625,0.0
1734503734.6672885,-28.3203125,-35.15625,20.5078125,-42.96875,0.0
1734503734.6711931,-27.34375,-3.90625,22.94921875,-47.8515625,0.0
1734503734.6750977,-49.8046875,-21.484375,-6.34765625,-32.71484375,0.0
1734503734.6790023,-49.31640625,-32.2265625,-28.3203125,-22.4609375,0.0
1734503734.6829286,-37.109375,-55.17578125,-91.30859375,-17.08984375,0.0
1734503734.6868331,-18.06640625,-86.42578125,-85.44921875,-3.90625,0.0
1734503734.6907377,-13.671875,-60.05859375,-13.671875,-15.13671875,0.0
1734503734.6946423,-42.96875,-61.5234375,-18.5546875,-40.0390625,0.0
1734503734.698547,-37.59765625,-72.75390625,-3.90625,-24.4140625,0.0
1734503734.7024515,-36.1328125,-54.19921875,14.16015625,-20.01953125,0.0
1734503734.706356,-27.83203125,-43.45703125,-13.671875,-17.08984375,0.0
1734503734.7102606,-33.203125,-4.8828125,-37.59765625,-16.11328125,0.0
1734503734.7141652,-47.8515625,-4.8828125,-17.08984375,-32.71484375,0.0
1734503734.7180698,-48.33984375,-38.57421875,-18.5546875,-35.15625,0.0
1734503734.7219744,-40.52734375,-34.66796875,-34.1796875,-15.13671875,0.0
1734503734.725879,-36.62109375,-36.62109375,-25.390625,-6.8359375,0.0
1734503734.7297943,0.0,-61.5234375,-24.4140625,-20.99609375,0.0
1734503734.7336988,0.0,-64.94140625,-16.11328125,-49.8046875,0.0
1734503734.7376034,0.0,-35.15625,-26.3671875,-41.9921875,0.0
1734503734.741508,0.0,-31.73828125,-47.36328125,-22.4609375,0.0
1734503734.7454126,0.0,-45.8984375,-32.71484375,-49.8046875,0.0
1734503734.7493172,0.0,-43.9453125,-14.6484375,-49.8046875,0.0
1734503734.7532218,0.0,-44.921875,-27.34375,-18.06640625,0.0
1734503734.7571263,0.0,-43.45703125,-94.7265625,-29.78515625,0.0
1734503734.761031,0.0,-61.03515625,-76.66015625,-38.0859375,0.0
1734503734.7649355,0.0,-68.359375,3.90625,-17.578125,0.0
1734503734.76884,0.0,-63.4765625,2.44140625,-17.08984375,0.0
1734503734.7727447,0.0,-67.87109375,-9.765625,-30.2734375,0.0
1734503734.7764454,-45.41015625,-59.08203125,-3.41796875,-46.38671875,0.0
1734503734.78035,-55.6640625,-62.5,-13.671875,-42.48046875,0.0
1734503734.7842546,-54.6875,-82.51953125,-20.5078125,-25.87890625,0.0
1734503734.7881591,-58.59375,-69.82421875,-8.7890625,-26.3671875,0.0
1734503734.7920637,-46.38671875,-32.71484375,-6.34765625,-20.5078125,0.0
1734503734.7959683,-21.97265625,-22.94921875,-30.2734375,-18.5546875,0.0
1734503734.7998729,-44.43359375,-42.96875,-34.1796875,-3.90625,0.0
1734503734.8037775,-62.5,-45.41015625,-28.3203125,-18.06640625,0.0
1734503734.807682,-49.8046875,-54.6875,-10.25390625,-32.2265625,0.0
1734503734.8115866,-37.109375,-83.49609375,-0.48828125,-24.90234375,0.0
1734503734.8154912,-34.66796875,-76.171875,-16.6015625,-25.87890625,0.0
1734503734.8193958,-25.87890625,-63.96484375,-45.41015625,-1.953125,0.0
1734503734.8230896,-45.8984375,-62.5,0.0,-0.48828125,0.0
1734503734.8269942,-56.15234375,-25.87890625,0.0,-33.203125,0.0
1734503734.8308988,-38.0859375,-0.9765625,0.0,-48.828125,0.0
1734503734.8348033,-26.85546875,-15.625,0.0,-51.7578125,0.0
1734503734.838708,-23.92578125,-33.203125,0.0,-60.546875,0.0
1734503734.8426125,-38.0859375,-39.0625,0.0,-50.78125,0.0
1734503734.846517,-38.0859375,-31.73828125,0.0,-48.33984375,0.0
1734503734.8504217,-39.0625,-19.53125,0.0,-48.33984375,0.0
1734503734.8543262,-4.39453125,-37.59765625,0.0,-19.04296875,0.0
1734503734.8582308,19.53125,-62.5,0.0,-1.953125,0.0
1734503734.8621354,-27.83203125,-31.73828125,0.0,-25.390625,0.0
1734503734.86604,-34.66796875,-16.6015625,0.0,-46.38671875,0.0
1734503734.8700302,19.04296875,-47.8515625,30.76171875,-29.296875,0.0
1734503734.8739347,33.69140625,-62.5,26.85546875,-20.99609375,0.0
1734503734.8778393,-4.39453125,-25.390625,20.5078125,-42.48046875,0.0
1734503734.881744,-45.8984375,-10.7421875,21.484375,-57.12890625,0.0
1734503734.8856485,-60.05859375,-21.484375,17.08984375,-66.89453125,0.0
1734503734.889553,-67.3828125,-30.76171875,17.578125,-69.3359375,0.0
1734503734.8934577,-51.7578125,-44.921875,18.5546875,-70.80078125,0.0
1734503734.8973622,-34.1796875,-39.55078125,19.53125,-66.89453125,0.0
1734503734.9012668,-17.578125,-37.59765625,22.4609375,-51.7578125,0.0
1734503734.9051714,-11.23046875,-35.15625,33.69140625,-26.85546875,0.0
1734503734.909076,-14.6484375,-51.26953125,48.828125,-21.97265625,0.0
1734503734.9129806,-5.859375,-59.08203125,57.6171875,-47.8515625,0.0
1734503734.9169595,-5.859375,-37.59765625,71.77734375,-62.01171875,0.0
1734503734.920864,-7.8125,-27.34375,80.078125,-48.828125,0.0
1734503734.9247687,42.96875,-30.2734375,75.68359375,-35.64453125,0.0
1734503734.9286733,54.6875,-27.83203125,88.8671875,-25.390625,0.0
1734503734.9325778,-10.25390625,-23.4375,109.375,1.953125,0.0
1734503734.9364824,-17.08984375,-24.4140625,115.72265625,17.578125,0.0
1734503734.940387,-14.16015625,-15.13671875,146.484375,-9.27734375,0.0
1734503734.9442916,-91.796875,-37.109375,175.29296875,-78.125,0.0
1734503734.9481962,-153.80859375,-49.8046875,209.47265625,-145.99609375,0.0
1734503734.9521008,-129.39453125,-56.15234375,267.08984375,-136.71875,0.0
1734503734.9560053,-64.94140625,-58.10546875,287.109375,-109.86328125,0.0
1734503734.95991,-81.54296875,-39.0625,312.98828125,-107.421875,0.0
1734503734.9638655,-145.5078125,-11.23046875,309.08203125,-126.953125,0.0
1734503734.96777,-149.4140625,-18.06640625,347.65625,-133.7890625,0.0
1734503734.9716747,-107.421875,-48.828125,540.0390625,-117.67578125,0.0
1734503734.9755793,-126.953125,-22.4609375,618.1640625,-169.921875,0.0
1734503734.9794838,-135.7421875,9.27734375,649.4140625,-207.03125,0.0
1734503734.9833884,-74.21875,-16.11328125,658.203125,-155.76171875,0.0
1734503734.987293,-85.9375,-29.296875,622.0703125,-144.53125,0.0
1734503734.9911976,-119.62890625,-4.39453125,639.16015625,-134.765625,0.0
1734503734.9951022,-175.29296875,9.27734375,866.69921875,-143.5546875,0.0
1734503734.9990067,-207.51953125,-6.34765625,979.00390625,-202.1484375,0.0
1734503735.0029113,-192.3828125,-51.26953125,937.98828125,-205.078125,0.0
1734503735.006816,-162.109375,-58.10546875,966.796875,-180.6640625,0.0
1734503735.0107574,-115.234375,-43.45703125,882.32421875,-154.78515625,0.0
1734503735.014662,-53.7109375,-21.97265625,723.6328125,-165.0390625,0.0
1734503735.0185666,-12.20703125,-0.48828125,726.5625,-179.6875,0.0
1734503735.0224712,-91.30859375,-25.87890625,722.65625,-99.12109375,0.0
1734503735.0263758,-192.87109375,-63.96484375,751.46484375,-139.6484375,0.0
1734503735.0302804,-214.35546875,-10.7421875,812.01171875,-234.375,0.0
1734503735.034185,-175.78125,-3.41796875,719.7265625,-216.30859375,0.0
1734503735.0380895,-151.3671875,-43.9453125,649.90234375,-162.109375,0.0
1734503735.041994,-156.25,-31.73828125,578.61328125,-157.71484375,0.0
1734503735.0458987,-59.08203125,-34.1796875,516.6015625,-165.52734375,0.0
1734503735.0498033,74.21875,-52.24609375,617.67578125,-123.046875,0.0
1734503735.0537078,-65.91796875,-90.8203125,768.5546875,-127.44140625,0.0
1734503735.0576386,-189.453125,-130.859375,747.0703125,-127.44140625,0.0
1734503735.0615432,-166.9921875,-120.1171875,806.640625,-85.9375,0.0
1734503735.0654478,-120.1171875,-95.21484375,959.9609375,-113.76953125,0.0
1734503735.0693524,-62.5,-121.58203125,971.19140625,-135.25390625,0.0
1734503735.073257,78.125,-138.671875,964.35546875,-115.72265625,0.0
1734503735.0771616,140.625,-74.70703125,969.7265625,-135.7421875,0.0
1734503735.0810661,-24.90234375,-80.078125,968.26171875,-52.734375,0.0
1734503735.0849707,-139.16015625,-136.71875,968.75,-26.85546875,0.0
1734503735.0888753,-113.28125,-138.18359375,969.23828125,-141.11328125,0.0
1734503735.0927799,-118.1640625,-131.34765625,967.7734375,-149.90234375,0.0
1734503735.0966845,-149.4140625,-133.30078125,970.703125,-134.765625,0.0
1734503735.100589,-112.79296875,-182.12890625,961.42578125,-74.21875,0.0
1734503735.1045082,17.578125,-223.14453125,955.56640625,42.48046875,0.0
1734503735.1084127,20.5078125,-175.29296875,969.23828125,-59.5703125,0.0
1734503735.1123173,-45.41015625,-79.58984375,969.23828125,-132.32421875,0.0
1734503735.116222,18.06640625,-16.6015625,968.26171875,-111.81640625,0.0
1734503735.1201265,-59.08203125,-45.8984375,968.75,-52.734375,0.0
1734503735.124031,-149.4140625,-101.5625,968.26171875,-37.59765625,0.0
1734503735.1279356,-165.0390625,-117.67578125,968.75,-89.35546875,0.0
1734503735.1318402,-121.09375,-135.25390625,968.75,-27.34375,0.0
1734503735.1357448,23.4375,-141.6015625,968.75,-6.8359375,0.0
1734503735.1396494,-48.828125,-105.95703125,968.75,-67.87109375,0.0
1734503735.143554,-180.17578125,-60.546875,968.75,-53.22265625,0.0
1734503735.1474586,-125.9765625,-44.43359375,968.75,-18.5546875,0.0
1734503735.1514757,-73.73046875,-52.24609375,968.26171875,-28.80859375,0.0
1734503735.1553802,-70.3125,-57.6171875,968.75,-9.765625,0.0
1734503735.1592848,-32.2265625,-53.22265625,968.75,24.90234375,0.0
1734503735.1631894,-43.9453125,-60.546875,968.75,-7.8125,0.0
1734503735.167094,-57.12890625,-62.01171875,968.75,-36.1328125,0.0
1734503735.1709986,45.8984375,-100.5859375,968.75,9.765625,0.0
1734503735.1749032,15.13671875,-75.68359375,968.75,33.203125,0.0
1734503735.1788077,-124.0234375,-17.08984375,968.75,17.578125,0.0
1734503735.1827123,-57.12890625,14.16015625,968.75,55.6640625,0.0
1734503735.186617,39.55078125,19.53125,968.75,26.3671875,0.0
1734503735.1905215,-73.73046875,-41.9921875,968.75,-27.34375,0.0
1734503735.194426,-180.17578125,-28.3203125,968.75,-11.23046875,0.0
1734503735.1984212,-160.15625,57.6171875,968.75,-19.53125,0.0
1734503735.2023258,-107.421875,67.3828125,968.75,6.8359375,0.0
1734503735.2062304,-75.1953125,40.0390625,968.75,36.62109375,0.0
1734503735.210135,-92.7734375,34.66796875,968.75,54.19921875,0.0
1734503735.2140396,-83.984375,56.640625,968.75,65.4296875,0.0
1734503735.2179441,-14.6484375,56.15234375,968.26171875,101.5625,0.0
1734503735.2218487,-75.68359375,52.24609375,968.75,129.8828125,0.0
1734503735.2257533,-57.12890625,15.625,968.75,86.42578125,0.0
1734503735.229658,-33.203125,53.7109375,968.75,58.59375,0.0
1734503735.2335625,-120.60546875,57.12890625,968.75,109.86328125,0.0
1734503735.237467,-89.35546875,2.9296875,968.75,145.5078125,0.0
1734503735.2413716,-69.3359375,-10.7421875,968.75,109.375,0.0
1734503735.2453527,0.0,9.27734375,968.75,146.484375,0.0
1734503735.2492573,0.0,-5.859375,968.75,201.66015625,0.0
1734503735.253162,0.0,-5.37109375,968.75,218.75,0.0
1734503735.2570665,0.0,33.203125,968.75,248.53515625,0.0
1734503735.260971,0.0,62.98828125,968.75,211.42578125,0.0
1734503735.2648757,0.0,37.59765625,968.75,180.6640625,0.0
1734503735.2687802,0.0,1.46484375,968.75,212.890625,0.0
1734503735.2726848,0.0,13.18359375,968.75,201.66015625,0.0
1734503735.2765894,0.0,-0.48828125,968.75,215.33203125,0.0
1734503735.280494,0.0,-21.97265625,968.75,236.81640625,0.0
1734503735.2843986,0.0,-10.25390625,968.75,212.890625,0.0
1734503735.2883031,0.0,-6.34765625,968.75,228.02734375,0.0
1734503735.291977,-99.12109375,-23.4375,968.75,265.625,0.0
1734503735.2958815,-60.05859375,-40.0390625,968.75,259.27734375,0.0
1734503735.299786,-2.44140625,-37.59765625,968.75,258.7890625,0.0
1734503735.3036907,-144.53125,-23.92578125,968.75,238.28125,0.0
1734503735.3075955,-229.98046875,-68.359375,968.75,233.3984375,0.0
1734503735.3115,-169.43359375,-53.7109375,968.75,244.62890625,0.0
1734503735.3154047,-144.53125,-13.18359375,968.75,207.03125,0.0
1734503735.3193092,-118.65234375,-15.625,968.75,195.80078125,0.0
1734503735.3232138,-121.58203125,-63.96484375,968.75,234.375,0.0
1734503735.3271184,-157.2265625,-109.86328125,968.75,255.859375,0.0
1734503735.331023,-170.8984375,-77.1484375,968.75,225.5859375,0.0
1734503735.3349276,-100.5859375,-59.5703125,968.26171875,193.359375,0.0
1734503735.3388824,-63.4765625,-31.25,0.0,234.86328125,0.0
1734503735.342787,-74.21875,-41.015625,0.0,221.19140625,0.0
1734503735.3466916,-135.7421875,-50.78125,0.0,156.25,0.0
1734503735.3505962,-121.58203125,-33.203125,0.0,153.80859375,0.0
1734503735.3545008,-66.40625,-56.640625,0.0,166.9921875,0.0
1734503735.3584054,19.04296875,-59.5703125,0.0,180.6640625,0.0
1734503735.36231,17.08984375,-46.38671875,0.0,163.57421875,0.0
1734503735.3662145,-45.8984375,-58.10546875,0.0,191.89453125,0.0
1734503735.370119,-60.05859375,-79.58984375,0.0,225.5859375,0.0
1734503735.3740237,-97.16796875,-84.9609375,0.0,160.64453125,0.0
1734503735.3779283,-62.98828125,-53.22265625,0.0,102.5390625,0.0
1734503735.3818328,-47.36328125,-41.015625,0.0,109.86328125,0.0
1734503735.3857727,-71.77734375,-29.296875,968.75,135.7421875,0.0
1734503735.3896773,-61.5234375,-23.4375,968.75,90.8203125,0.0
1734503735.3935819,-98.14453125,-43.45703125,968.75,88.37890625,0.0
1734503735.3974864,-90.8203125,-76.66015625,967.28515625,114.74609375,0.0
1734503735.401391,-31.73828125,-51.7578125,968.75,121.58203125,0.0
1734503735.4052956,-45.41015625,-27.83203125,968.26171875,90.8203125,0.0
1734503735.4092002,-53.22265625,-23.4375,933.59375,75.68359375,0.0
1734503735.4131048,4.8828125,-26.3671875,908.203125,104.4921875,0.0
1734503735.4170094,28.3203125,-56.640625,903.3203125,131.8359375,0.0
1734503735.4209142,-56.15234375,-38.0859375,880.37109375,119.140625,0.0
1734503735.4248188,-27.34375,-62.01171875,834.9609375,113.76953125,0.0
1734503735.4287233,39.0625,-86.42578125,784.1796875,106.93359375,0.0
1734503735.4326591,31.73828125,-43.45703125,783.69140625,88.37890625,0.0
1734503735.4365637,-38.0859375,-20.99609375,779.78515625,87.40234375,0.0
1734503735.4404683,-79.58984375,-4.8828125,729.00390625,74.70703125,0.0
1734503735.444373,-40.52734375,-19.04296875,709.47265625,73.73046875,0.0
1734503735.4482775,0.0,-24.4140625,728.02734375,54.6875,0.0
1734503735.452182,-8.7890625,-8.30078125,723.14453125,78.61328125,0.0
1734503735.4560866,0.9765625,-5.37109375,689.453125,89.84375,0.0
1734503735.4599912,29.296875,-16.6015625,652.83203125,60.546875,0.0
1734503735.4638958,17.578125,-23.92578125,645.99609375,76.171875,0.0
1734503735.4678004,30.2734375,-41.9921875,621.09375,100.09765625,0.0
1734503735.471705,2.44140625,-40.52734375,586.42578125,72.265625,0.0
1734503735.4756095,-14.6484375,12.20703125,569.3359375,24.90234375,0.0
1734503735.479524,7.8125,15.13671875,574.70703125,56.640625,0.0
1734503735.4834285,-8.30078125,-18.5546875,568.84765625,60.546875,0.0
1734503735.487333,17.08984375,-29.78515625,533.69140625,36.1328125,0.0
1734503735.4912376,4.39453125,-20.99609375,531.25,68.359375,0.0
1734503735.4951422,-32.2265625,-7.8125,529.296875,35.64453125,0.0
1734503735.4990468,-20.01953125,-42.96875,502.9296875,12.6953125,0.0
1734503735.5029514,-4.8828125,-52.734375,499.0234375,40.0390625,0.0
1734503735.506856,-28.3203125,-8.30078125,458.984375,54.6875,0.0
1734503735.5107605,-24.90234375,-2.44140625,428.22265625,68.359375,0.0
1734503735.5146651,23.4375,-42.48046875,455.078125,65.4296875,0.0
1734503735.5185697,-13.18359375,-17.08984375,458.0078125,43.9453125,0.0
1734503735.5224743,-18.06640625,29.296875,459.47265625,51.26953125,0.0
1734503735.5264833,-5.37109375,10.7421875,438.96484375,43.45703125,0.0
1734503735.5303879,-28.80859375,-5.859375,407.71484375,12.20703125,0.0
1734503735.5342925,-11.23046875,-33.203125,379.39453125,48.33984375,0.0
1734503735.538197,-17.578125,-58.10546875,367.67578125,70.3125,0.0
1734503735.5421016,-30.2734375,-23.4375,362.3046875,49.8046875,0.0
1734503735.5460062,-37.109375,-2.44140625,348.6328125,59.08203125,0.0
1734503735.5499108,-57.6171875,-32.2265625,336.9140625,55.17578125,0.0
1734503735.5538154,-63.4765625,-57.12890625,325.68359375,21.484375,0.0
1734503735.55772,-8.7890625,-13.671875,337.890625,14.6484375,0.0
1734503735.5616245,36.1328125,-109.86328125,341.796875,52.734375,0.0
1734503735.565529,-20.99609375,-319.82421875,322.265625,47.8515625,0.0
1734503735.5694337,-83.0078125,-345.21484375,306.15234375,22.4609375,0.0
1734503735.573428,-21.97265625,-322.265625,281.25,39.55078125,0.0
1734503735.5773325,-16.6015625,-318.84765625,291.50390625,69.3359375,0.0
1734503735.581237,-49.8046875,-293.45703125,279.296875,74.70703125,0.0
1734503735.5851417,-53.7109375,-223.14453125,255.37109375,54.6875,0.0
1734503735.5890462,-71.2890625,-155.2734375,259.27734375,24.90234375,0.0
1734503735.5929508,-55.17578125,-143.06640625,292.48046875,28.3203125,0.0
1734503735.5968554,18.5546875,-122.55859375,300.78125,16.11328125,0.0
1734503735.60076,7.32421875,-100.09765625,279.296875,25.390625,0.0
1734503735.6046646,-56.15234375,-107.91015625,263.18359375,49.8046875,0.0
1734503735.6085691,-32.71484375,-117.67578125,243.65234375,66.89453125,0.0
1734503735.6124737,-62.01171875,-73.73046875,260.7421875,91.796875,0.0
1734503735.6163783,-93.75,-53.7109375,250.9765625,29.296875,0.0
1734503735.6203597,0.0,-56.640625,234.375,3.90625,0.0
1734503735.6242642,0.0,-40.52734375,250.0,30.2734375,0.0
1734503735.6281688,0.0,-24.4140625,243.65234375,41.9921875,0.0
1734503735.6320734,0.0,-8.30078125,221.6796875,43.45703125,0.0
1734503735.635978,0.0,-3.41796875,220.21484375,76.66015625,0.0
1734503735.6398826,0.0,-36.1328125,207.51953125,71.77734375,0.0
1734503735.6437871,0.0,12.20703125,215.33203125,37.109375,0.0
1734503735.6476917,0.0,96.6796875,214.84375,12.20703125,0.0
1734503735.6515963,0.0,83.984375,209.47265625,5.859375,0.0
1734503735.655501,0.0,62.01171875,241.2109375,14.6484375,0.0
1734503735.6594055,0.0,69.3359375,226.5625,23.4375,0.0
1734503735.66331,0.0,88.37890625,218.75,77.1484375,0.0
1734503735.6669788,-71.77734375,111.328125,212.40234375,71.77734375,0.0
1734503735.6708834,-62.5,99.12109375,204.58984375,34.66796875,0.0
1734503735.674788,-45.8984375,110.83984375,193.84765625,38.0859375,0.0
1734503735.6786926,-42.48046875,119.62890625,192.87109375,13.671875,0.0
1734503735.6825972,6.34765625,75.68359375,216.30859375,-3.41796875,0.0
1734503735.6865017,-16.6015625,90.8203125,214.84375,28.80859375,0.0
1734503735.6904063,-68.84765625,127.44140625,203.61328125,42.48046875,0.0
1734503735.694311,-49.8046875,132.8125,185.546875,32.71484375,0.0
1734503735.6982155,-68.359375,140.625,179.19921875,25.390625,0.0
1734503735.70212,-95.703125,126.46484375,172.36328125,22.4609375,0.0
1734503735.7060246,-93.26171875,80.56640625,155.76171875,37.59765625,0.0
1734503735.7099292,-44.921875,72.75390625,186.5234375,25.390625,0.0
1734503735.7135925,-9.765625,114.74609375,224.12109375,44.43359375,0.0
1734503735.717497,10.7421875,165.0390625,208.49609375,13.671875,0.0
1734503735.7214017,29.296875,156.73828125,181.15234375,-16.6015625,0.0
1734503735.7253063,-30.2734375,134.27734375,165.0390625,24.90234375,0.0
1734503735.7292109,-94.7265625,150.87890625,169.921875,41.50390625,0.0
1734503735.7331154,-101.07421875,123.53515625,160.64453125,23.4375,0.0
1734503735.73702,-89.84375,80.56640625,128.90625,6.34765625,0.0
1734503735.7409246,-37.59765625,107.421875,166.50390625,22.4609375,0.0
1734503735.7448292,63.4765625,136.71875,183.10546875,23.4375,0.0
1734503735.7487338,-55.6640625,141.11328125,177.24609375,6.8359375,0.0
1734503735.7526383,-105.46875,126.953125,181.640625,6.8359375,0.0
1734503735.756543,-44.921875,107.91015625,169.921875,30.76171875,0.0
1734503735.7604868,-31.25,103.515625,158.69140625,29.78515625,0.0
1734503735.7643914,-2.44140625,92.28515625,129.8828125,20.99609375,0.0
1734503735.768296,3.41796875,78.61328125,145.01953125,29.296875,0.0
1734503735.7722006,-23.92578125,88.37890625,155.76171875,34.1796875,0.0
1734503735.7761052,-37.59765625,87.890625,125.48828125,25.87890625,0.0
1734503735.7800097,7.8125,90.33203125,149.90234375,9.765625,0.0
1734503735.7839143,5.37109375,97.65625,180.17578125,9.765625,0.0
1734503735.787819,-28.80859375,115.72265625,177.734375,24.90234375,0.0
1734503735.7917235,-27.83203125,130.859375,179.6875,8.30078125,0.0
1734503735.795628,-29.78515625,125.48828125,174.8046875,-11.23046875,0.0
1734503735.7995327,9.765625,96.6796875,164.55078125,0.0,0.0
1734503735.8034372,-2.44140625,111.328125,136.23046875,32.71484375,0.0
1734503735.8073661,-67.3828125,130.37109375,101.5625,37.59765625,0.0
1734503735.8112707,-19.53125,121.09375,138.671875,-5.859375,0.0
1734503735.8151753,-14.16015625,98.6328125,155.76171875,-30.76171875,0.0
1734503735.8190799,-63.96484375,86.42578125,158.69140625,-32.71484375,0.0
1734503735.8229845,-19.04296875,101.5625,165.52734375,-31.25,0.0
1734503735.826889,2.9296875,77.1484375,147.4609375,-13.671875,0.0
1734503735.8307936,-20.5078125,60.05859375,134.765625,-9.27734375,0.0
1734503735.8346982,-16.6015625,88.37890625,154.78515625,-25.87890625,0.0
1734503735.8386028,-6.34765625,98.6328125,127.9296875,-17.08984375,0.0
1734503735.8425074,-9.27734375,103.02734375,117.1875,-31.73828125,0.0
1734503735.846412,-31.73828125,92.7734375,124.0234375,-17.08984375,0.0
1734503735.8503165,3.90625,80.56640625,85.44921875,9.765625,0.0
1734503735.8542323,18.5546875,51.26953125,108.88671875,-23.4375,0.0
1734503735.858137,-38.0859375,4.39453125,131.34765625,-34.66796875,0.0
1734503735.8620415,-52.24609375,55.6640625,96.19140625,-28.80859375,0.0
1734503735.865946,-22.94921875,90.8203125,78.61328125,-23.92578125,0.0
1734503735.8698506,-14.16015625,66.89453125,98.14453125,-3.90625,0.0
1734503735.8737552,-1.953125,63.96484375,114.2578125,-13.18359375,0.0
1734503735.8776598,21.97265625,57.6171875,103.02734375,-25.87890625,0.0
1734503735.8815644,-9.27734375,17.08984375,85.9375,-28.3203125,0.0
1734503735.885469,-43.9453125,35.15625,67.3828125,-28.80859375,0.0
1734503735.8893735,-35.15625,78.61328125,77.63671875,-27.83203125,0.0
1734503735.8932781,-5.859375,67.87109375,66.40625,-35.15625,0.0
1734503735.8971827,6.34765625,50.78125,83.49609375,-46.38671875,0.0
1734503735.9011974,-21.484375,76.66015625,105.46875,-45.8984375,0.0
1734503735.905102,-32.71484375,78.61328125,62.5,-47.8515625,0.0
1734503735.9090066,-11.23046875,44.921875,58.10546875,-73.73046875,0.0
1734503735.9129112,-23.4375,34.1796875,113.76953125,-67.87109375,0.0
1734503735.9168158,-34.1796875,41.50390625,109.86328125,-60.546875,0.0
1734503735.9207203,-30.2734375,82.03125,71.77734375,-72.75390625,0.0
1734503735.924625,-13.18359375,105.46875,87.40234375,-60.05859375,0.0
1734503735.9285295,-27.34375,80.078125,94.23828125,-70.3125,0.0
1734503735.932434,-35.64453125,75.1953125,75.1953125,-88.37890625,0.0
1734503735.9363387,-33.69140625,76.66015625,83.49609375,-75.68359375,0.0
1734503735.9402432,-21.97265625,58.59375,78.61328125,-75.68359375,0.0
1734503735.9441478,20.5078125,30.76171875,69.82421875,-99.12109375,0.0
1734503735.9481494,0.0,-9.27734375,75.68359375,-83.984375,0.0
1734503735.952054,0.0,40.0390625,82.51953125,-47.36328125,0.0
1734503735.9559586,0.0,78.61328125,57.12890625,-54.19921875,0.0
1734503735.9598632,0.0,64.94140625,46.38671875,-31.73828125,0.0
1734503735.9637678,0.0,52.24609375,61.5234375,-41.015625,0.0
1734503735.9676723,0.0,53.22265625,65.4296875,-79.1015625,0.0
1734503735.971577,0.0,50.29296875,98.6328125,-88.8671875,0.0
1734503735.9754815,0.0,45.41015625,85.9375,-106.4453125,0.0
1734503735.979386,0.0,36.1328125,34.1796875,-109.375,0.0
1734503735.9832907,0.0,24.4140625,54.6875,-67.87109375,0.0
1734503735.9871953,0.0,25.390625,79.1015625,-47.8515625,0.0
1734503735.9910998,0.0,38.57421875,67.87109375,-92.28515625,0.0
1734503735.9950852,-85.44921875,42.96875,69.3359375,-102.05078125,0.0
1734503735.9989898,-48.828125,44.921875,49.31640625,-89.84375,0.0
1734503736.0028944,-30.2734375,31.25,38.57421875,-95.21484375,0.0
1734503736.006799,-63.96484375,8.30078125,64.453125,-91.30859375,0.0
1734503736.0107036,-44.43359375,25.390625,59.5703125,-83.0078125,0.0
1734503736.0146081,-32.2265625,30.76171875,32.71484375,-75.1953125,0.0
1734503736.0185127,-40.0390625,35.15625,60.05859375,-58.59375,0.0
1734503736.0224173,-21.484375,52.734375,102.05078125,-38.57421875,0.0
1734503736.026322,-19.53125,63.96484375,99.609375,-58.10546875,0.0
1734503736.0302265,-86.9140625,30.2734375,77.1484375,-100.09765625,0.0
1734503736.034131,-96.19140625,4.39453125,74.21875,-96.19140625,0.0
1734503736.0380356,-69.82421875,51.7578125,83.984375,-78.125,0.0
1734503736.0420039,-97.65625,49.8046875,74.70703125,-106.4453125,0.0
1734503736.0459085,-114.74609375,42.96875,77.63671875,-125.48828125,0.0
1734503736.049813,-110.83984375,61.5234375,82.51953125,-152.34375,0.0
1734503736.0537176,-93.26171875,69.82421875,79.1015625,-169.921875,0.0
1734503736.0576222,-139.16015625,67.87109375,81.54296875,-153.80859375,0.0
1734503736.0615268,-156.73828125,26.85546875,95.703125,-186.5234375,0.0
1734503736.0654314,-151.3671875,40.0390625,60.546875,-223.14453125,0.0
1734503736.069336,-181.15234375,98.14453125,52.734375,-240.72265625,0.0
1734503736.0732405,-222.65625,64.453125,160.15625,-266.11328125,0.0
1734503736.077145,-256.34765625,52.734375,177.24609375,-236.81640625,0.0
1734503736.0810497,-221.6796875,58.10546875,119.140625,-226.5625,0.0
1734503736.0849543,-207.03125,104.00390625,138.18359375,-251.46484375,0.0
1734503736.0889063,-225.5859375,112.79296875,175.29296875,-279.296875,0.0
1734503736.0928109,-238.76953125,84.9609375,146.97265625,-289.55078125,0.0
1734503736.0967155,-231.4453125,46.875,118.65234375,-232.91015625,0.0
1734503736.10062,-193.359375,43.9453125,65.91796875,-205.078125,0.0
1734503736.1045246,-211.9140625,54.19921875,64.94140625,-238.28125,0.0
1734503736.1084292,-171.875,15.13671875,104.4921875,-247.55859375,0.0
1734503736.1123338,-145.5078125,-18.5546875,99.12109375,-229.00390625,0.0
1734503736.1162384,-184.08203125,33.203125,81.54296875,-189.453125,0.0
1734503736.120143,-155.76171875,72.265625,89.84375,-183.59375,0.0
1734503736.1240475,-165.0390625,49.31640625,83.0078125,-177.734375,0.0
1734503736.127952,-172.8515625,20.01953125,63.96484375,-156.73828125,0.0
1734503736.1318567,-142.08984375,-27.83203125,52.734375,-171.38671875,0.0
1734503736.1358047,-96.6796875,-4.39453125,-10.25390625,-116.2109375,0.0
1734503736.1397092,-78.61328125,24.90234375,-56.15234375,-99.609375,0.0
1734503736.1436138,-125.48828125,7.8125,39.0625,-106.93359375,0.0
1734503736.1475184,-97.65625,2.44140625,100.5859375,-64.453125,0.0
1734503736.151423,-48.33984375,-10.7421875,75.1953125,-49.8046875,0.0
1734503736.1553276,-8.30078125,-33.203125,43.45703125,-20.99609375,0.0
1734503736.1592321,7.8125,-29.78515625,-13.18359375,-4.8828125,0.0
1734503736.1631367,10.25390625,-79.1015625,-47.8515625,-30.76171875,0.0
1734503736.1670413,-21.97265625,-86.9140625,0.0,-64.94140625,0.0
1734503736.170946,-40.52734375,-24.90234375,42.96875,-53.7109375,0.0
1734503736.1748505,-33.69140625,-24.90234375,20.5078125,-21.484375,0.0
1734503736.178755,-53.22265625,-66.40625,5.859375,4.39453125,0.0
1734503736.1826835,0.0,-88.8671875,3.41796875,21.484375,0.0
1734503736.186588,0.0,-80.078125,-14.6484375,21.97265625,0.0
1734503736.1904926,0.0,-51.26953125,0.9765625,20.99609375,0.0
1734503736.1943972,0.0,-26.3671875,-38.0859375,21.484375,0.0
1734503736.1983018,0.0,-61.5234375,-40.0390625,24.4140625,0.0
1734503736.2022064,0.0,-83.0078125,41.9921875,19.04296875,0.0
1734503736.206111,0.0,-70.3125,67.3828125,41.50390625,0.0
1734503736.2100158,0.0,-83.49609375,21.484375,41.50390625,0.0
1734503736.2139204,0.0,-45.8984375,5.37109375,27.34375,0.0
1734503736.217825,0.0,-21.97265625,33.69140625,55.17578125,0.0
1734503736.2217295,0.0,-63.4765625,2.9296875,51.26953125,0.0
1734503736.225634,0.0,-67.3828125,-56.640625,10.7421875,0.0
1734503736.229357,-20.01953125,-50.78125,-13.671875,7.32421875,0.0
1734503736.2332618,39.0625,-60.05859375,7.8125,10.7421875,0.0
1734503736.2371664,41.015625,-66.40625,-33.69140625,37.109375,0.0
1734503736.241071,45.8984375,-41.9921875,-25.87890625,70.80078125,0.0
1734503736.2449756,67.3828125,-49.31640625,47.8515625,23.4375,0.0
1734503736.2488801,53.7109375,-81.0546875,73.73046875,0.9765625,0.0
1734503736.2527847,60.05859375,-72.265625,6.8359375,26.85546875,0.0
1734503736.2566893,29.296875,-54.6875,-44.921875,22.94921875,0.0
1734503736.260594,17.578125,-64.453125,-4.8828125,32.71484375,0.0
1734503736.2644985,38.57421875,-66.40625,31.73828125,33.69140625,0.0
1734503736.268403,40.52734375,-74.21875,26.3671875,38.57421875,0.0
1734503736.2723076,27.83203125,-58.10546875,28.80859375,25.87890625,0.0
1734503736.2760153,27.34375,-52.24609375,13.671875,-2.44140625,0.0
1734503736.2799199,53.7109375,-58.59375,3.90625,10.7421875,0.0
1734503736.2838244,59.08203125,-23.92578125,7.8125,29.296875,0.0
1734503736.287729,70.80078125,-40.52734375,10.7421875,16.11328125,0.0
1734503736.2916336,79.1015625,-64.453125,-37.109375,39.0625,0.0
1734503736.2955382,24.90234375,-56.640625,-42.48046875,16.6015625,0.0
1734503736.2994428,32.2265625,-54.6875,15.13671875,15.13671875,0.0
1734503736.3033473,73.73046875,-62.01171875,26.85546875,56.15234375,0.0
1734503736.307252,39.0625,-47.8515625,3.90625,11.23046875,0.0
1734503736.3111565,31.25,-33.203125,-41.50390625,-16.11328125,0.0
1734503736.315061,68.359375,-17.08984375,-10.25390625,-43.45703125,0.0
1734503736.3189657,69.3359375,-17.578125,57.12890625,-53.7109375,0.0
1734503736.322672,30.2734375,-19.53125,46.875,-41.50390625,0.0
1734503736.3265765,8.30078125,-14.16015625,21.97265625,-31.73828125,0.0
1734503736.330481,34.66796875,-14.16015625,10.7421875,-10.25390625,0.0
1734503736.3343856,54.19921875,-17.578125,-11.71875,-3.90625,0.0
1734503736.3382902,56.640625,-18.06640625,3.90625,-13.18359375,0.0
1734503736.3421948,22.94921875,-13.18359375,17.578125,-35.64453125,0.0
1734503736.3460994,28.80859375,-42.48046875,8.7890625,-40.52734375,0.0
1734503736.350004,26.3671875,-58.59375,17.578125,-45.41015625,0.0
1734503736.3539085,16.11328125,-17.578125,25.87890625,-46.38671875,0.0
1734503736.3578131,28.3203125,-11.71875,16.6015625,-33.69140625,0.0
1734503736.3617177,3.41796875,-20.5078125,-1.953125,-46.38671875,0.0
1734503736.3656223,10.25390625,-20.01953125,-8.7890625,-46.875,0.0
1734503736.3693123,47.8515625,-17.08984375,-5.859375,-43.45703125,0.0
1734503736.3732169,45.8984375,-27.83203125,1.953125,-69.3359375,0.0
1734503736.3771214,3.90625,-23.4375,22.4609375,-62.01171875,0.0
1734503736.381026,3.41796875,-20.5078125,18.5546875,-80.078125,0.0
1734503736.3849306,26.3671875,-44.921875,20.01953125,-98.6328125,0.0
1734503736.3888352,3.41796875,-38.0859375,18.5546875,-82.51953125,0.0
1734503736.3927398,4.39453125,-8.7890625,1.953125,-78.61328125,0.0
1734503736.3966444,15.625,-27.83203125,1.46484375,-91.30859375,0.0
1734503736.400549,21.484375,-20.99609375,-0.9765625,-66.40625,0.0
1734503736.4044535,3.90625,-3.41796875,-2.44140625,-68.359375,0.0
1734503736.408358,-28.80859375,5.859375,9.27734375,-66.89453125,0.0
1734503736.4122627,-20.99609375,-4.39453125,8.7890625,-42.96875,0.0
1734503736.4162366,-2.9296875,-12.6953125,25.87890625,-101.5625,0.0
1734503736.4201412,-11.71875,-25.390625,22.94921875,-127.9296875,0.0
1734503736.4240458,-15.13671875,-18.5546875,2.9296875,-104.4921875,0.0
1734503736.4279504,-12.6953125,9.27734375,6.8359375,-100.5859375,0.0
1734503736.431855,-16.6015625,13.18359375,7.8125,-99.609375,0.0
1734503736.4357595,-31.25,8.7890625,-3.90625,-104.98046875,0.0
1734503736.4396641,-19.53125,-0.48828125,-19.04296875,-113.76953125,0.0
1734503736.4435687,-8.30078125,-12.6953125,-22.94921875,-108.3984375,0.0
1734503736.4474733,7.8125,-17.08984375,25.390625,-79.58984375,0.0
1734503736.4513779,36.62109375,-12.6953125,36.62109375,-66.89453125,0.0
1734503736.4552824,-9.27734375,4.8828125,23.92578125,-110.3515625,0.0
1734503736.459187,-60.546875,8.7890625,17.578125,-148.4375,0.0
1734503736.4631536,-26.3671875,9.765625,0.9765625,-134.27734375,0.0
1734503736.4670582,-5.37109375,-18.5546875,15.13671875,-106.4453125,0.0
1734503736.4709628,4.8828125,-20.99609375,16.11328125,-99.12109375,0.0
1734503736.4748673,20.01953125,18.5546875,6.8359375,-111.81640625,0.0
1734503736.478772,5.37109375,13.671875,2.9296875,-105.95703125,0.0
1734503736.4826765,-33.203125,-14.6484375,-4.8828125,-147.4609375,0.0
1734503736.486581,-40.52734375,-36.62109375,1.953125,-162.59765625,0.0
1734503736.4904857,-16.6015625,-56.15234375,-26.85546875,-129.39453125,0.0
1734503736.4943902,-14.16015625,-33.69140625,-20.99609375,-131.34765625,0.0
1734503736.4982948,-53.22265625,-4.8828125,2.9296875,-140.13671875,0.0
1734503736.5021994,-13.671875,-26.85546875,13.671875,-105.95703125,0.0
1734503736.506104,69.3359375,-33.203125,2.9296875,-80.56640625,0.0
1734503736.510057,0.0,-40.0390625,-20.01953125,-108.88671875,0.0
1734503736.5139616,0.0,-45.8984375,0.9765625,-97.16796875,0.0
1734503736.5178661,0.0,-65.4296875,-0.9765625,-100.5859375,0.0
1734503736.5217707,0.0,-77.63671875,-9.27734375,-149.4140625,0.0
1734503736.5256753,0.0,-81.0546875,-38.0859375,-164.55078125,0.0
1734503736.5295799,0.0,-64.94140625,-39.0625,-168.45703125,0.0
1734503736.5334845,0.0,-67.87109375,-10.25390625,-144.04296875,0.0
1734503736.537389,0.0,-72.265625,-2.44140625,-105.95703125,0.0
1734503736.5412936,0.0,-47.8515625,-19.53125,-104.00390625,0.0
1734503736.5451984,0.0,-30.76171875,-28.80859375,-91.30859375,0.0
1734503736.549103,0.0,-38.57421875,-35.64453125,-85.44921875,0.0
1734503736.5530076,0.0,-64.94140625,-45.8984375,-73.2421875,0.0
1734503736.556939,-3.90625,-72.75390625,-32.2265625,-66.40625,0.0
1734503736.5608435,-22.94921875,-86.42578125,-3.41796875,-96.19140625,0.0
1734503736.564748,-27.34375,-87.890625,-15.625,-112.79296875,0.0
1734503736.5686526,-39.0625,-52.24609375,-35.64453125,-133.30078125,0.0
1734503736.5725572,-81.0546875,-36.62109375,-3.41796875,-134.27734375,0.0
1734503736.5764618,-78.61328125,-46.875,-0.48828125,-130.859375,0.0
1734503736.5803664,-53.22265625,-50.78125,-40.52734375,-121.09375,0.0
1734503736.584271,-49.31640625,-51.7578125,-30.2734375,-117.67578125,0.0
1734503736.5881755,-48.33984375,-51.26953125,2.9296875,-99.609375,0.0
1734503736.59208,-51.7578125,-57.6171875,-10.7421875,-112.3046875,0.0
1734503736.5959847,-59.5703125,-54.6875,-29.78515625,-139.6484375,0.0
1734503736.5998893,-39.0625,-48.33984375,-49.8046875,-96.6796875,0.0
1734503736.603805,-25.87890625,-95.703125,-34.66796875,-84.47265625,0.0
1734503736.6077096,-14.16015625,-61.5234375,12.20703125,-101.5625,0.0
1734503736.6116142,-17.578125,-0.9765625,31.25,-127.9296875,0.0
1734503736.6155188,-73.2421875,-42.48046875,22.94921875,-126.953125,0.0
1734503736.6194234,-100.09765625,-48.828125,2.9296875,-115.72265625,0.0
1734503736.623328,-73.73046875,-16.6015625,-22.4609375,-136.71875,0.0
1734503736.6272326,-54.6875,-30.76171875,-19.04296875,-102.05078125,0.0
1734503736.6311371,-69.3359375,-88.8671875,-2.9296875,-81.0546875,0.0
1734503736.6350417,-87.40234375,-86.9140625,-47.8515625,-111.81640625,0.0
1734503736.6389463,-73.73046875,-13.18359375,-35.15625,-124.51171875,0.0
1734503736.6428509,-71.77734375,1.953125,28.3203125,-127.9296875,0.0
1734503736.6467555,-81.0546875,-19.04296875,15.625,-125.0,0.0
1734503736.6507697,0.0,-32.71484375,11.23046875,-126.46484375,0.0
1734503736.6546743,0.0,-41.9921875,32.71484375,-103.02734375,0.0
1734503736.6585789,0.0,-46.38671875,25.390625,-117.1875,0.0
1734503736.6624835,0.0,-41.015625,12.6953125,-127.9296875,0.0
1734503736.666388,0.0,-40.52734375,22.4609375,-73.2421875,0.0
1734503736.6702926,0.0,-77.63671875,22.4609375,-91.30859375,0.0
1734503736.6741972,0.0,-45.41015625,21.484375,-107.91015625,0.0
1734503736.6781018,0.0,-12.20703125,1.953125,-94.7265625,0.0
1734503736.6820064,0.0,-33.69140625,-21.97265625,-73.2421875,0.0
1734503736.685911,0.0,-21.484375,16.11328125,-71.2890625,0.0
1734503736.6898155,0.0,-12.6953125,44.43359375,-103.02734375,0.0
1734503736.69372,0.0,-22.94921875,9.765625,-108.3984375,0.0
1734503736.6974285,-65.91796875,-39.0625,3.90625,-88.8671875,0.0
1734503736.701333,-51.7578125,-64.453125,53.22265625,-87.890625,0.0
1734503736.7052376,-50.29296875,-35.15625,36.62109375,-92.28515625,0.0
1734503736.7091422,-49.31640625,-20.01953125,-13.671875,-84.9609375,0.0
1734503736.7130468,-62.5,-32.2265625,11.23046875,-80.078125,0.0
1734503736.7169514,-48.828125,-30.2734375,46.875,-78.61328125,0.0
1734503736.720856,-39.0625,-30.2734375,32.2265625,-73.2421875,0.0
1734503736.7247605,-67.87109375,-28.3203125,18.5546875,-67.87109375,0.0
1734503736.728665,-72.75390625,-28.3203125,20.01953125,-73.73046875,0.0
1734503736.7325697,-36.62109375,-20.5078125,7.8125,-84.9609375,0.0
1734503736.7364743,-52.24609375,-38.0859375,24.4140625,-98.14453125,0.0
1734503736.7403789,-54.6875,-40.0390625,41.9921875,-75.68359375,0.0
1734503736.7443736,-57.12890625,-8.30078125,-9.27734375,-41.50390625,0.0
1734503736.7482781,-78.125,-15.625,-36.1328125,-54.19921875,0.0
1734503736.7521827,-57.6171875,-27.83203125,3.41796875,-84.47265625,0.0
1734503736.7560873,-29.296875,-17.578125,42.48046875,-74.70703125,0.0
1734503736.759992,-53.22265625,-40.52734375,59.5703125,-63.4765625,0.0
1734503736.7638965,-64.94140625,-37.109375,36.62109375,-72.265625,0.0
1734503736.767801,-65.91796875,-21.484375,16.6015625,-86.9140625,0.0
1734503736.7717056,-49.31640625,-21.97265625,12.20703125,-104.4921875,0.0
1734503736.7756102,-34.66796875,-4.39453125,13.18359375,-82.51953125,0.0
1734503736.7795148,-75.1953125,-11.23046875,0.9765625,-73.2421875,0.0
1734503736.7834194,-84.47265625,-41.015625,5.859375,-66.40625,0.0
1734503736.787324,-64.453125,-41.50390625,9.27734375,-93.26171875,0.0
1734503736.7912993,0.0,-32.71484375,13.671875,-100.09765625,0.0
1734503736.795204,0.0,-58.10546875,24.90234375,-94.7265625,0.0
1734503736.7991085,0.0,-52.24609375,11.23046875,-88.8671875,0.0
1734503736.803013,0.0,-36.1328125,7.32421875,-58.10546875,0.0
1734503736.8069177,0.0,-37.109375,17.578125,-54.6875,0.0
1734503736.8108222,0.0,-4.39453125,-6.34765625,-49.31640625,0.0
1734503736.8147268,0.0,-11.23046875,10.25390625,-70.80078125,0.0
1734503736.8186314,0.0,-39.55078125,27.83203125,-75.1953125,0.0
1734503736.822536,0.0,-16.11328125,32.2265625,-52.24609375,0.0
1734503736.8264406,0.0,-21.97265625,22.4609375,-64.453125,0.0
1734503736.8303452,0.0,-27.83203125,14.6484375,-74.21875,0.0
1734503736.8342497,0.0,-29.78515625,41.9921875,-50.78125,0.0
1734503736.8382094,-56.15234375,-19.04296875,39.55078125,-47.8515625,0.0
1734503736.842114,-67.87109375,-9.765625,14.6484375,-67.87109375,0.0
1734503736.8460186,-67.87109375,-22.4609375,4.39453125,-86.9140625,0.0
1734503736.8499231,-62.98828125,-8.7890625,6.8359375,-101.07421875,0.0
1734503736.8538277,-51.26953125,13.671875,-11.71875,-103.02734375,0.0
1734503736.8577323,-57.12890625,2.44140625,-31.25,-55.17578125,0.0
1734503736.8616369,-19.04296875,16.6015625,20.01953125,-32.71484375,0.0
1734503736.8655415,-8.7890625,24.90234375,25.390625,-60.546875,0.0
1734503736.869446,-89.84375,-1.46484375,13.671875,-72.265625,0.0
1734503736.8733506,-104.4921875,23.4375,24.4140625,-75.68359375,0.0
1734503736.8772552,-112.79296875,40.52734375,11.23046875,-93.26171875,0.0
1734503736.8811598,-104.00390625,-32.2265625,5.859375,-108.88671875,0.0
1734503736.8851032,-68.359375,-23.92578125,10.7421875,-90.33203125,0.0
1734503736.8890078,-81.0546875,55.17578125,41.50390625,-62.01171875,0.0
1734503736.8929124,-61.5234375,61.03515625,53.22265625,-52.734375,0.0
1734503736.896817,-46.38671875,37.59765625,46.875,-59.08203125,0.0
1734503736.9007215,-53.7109375,0.9765625,43.9453125,-41.50390625,0.0
1734503736.9046261,-41.015625,24.90234375,25.390625,-11.71875,0.0
1734503736.9085307,-40.0390625,43.45703125,15.625,-51.26953125,0.0
1734503736.9124353,-57.12890625,31.73828125,22.94921875,-79.58984375,0.0
1734503736.9163399,-88.37890625,37.109375,24.90234375,-73.2421875,0.0
1734503736.9202445,-63.96484375,12.6953125,31.73828125,-20.5078125,0.0
1734503736.924149,-30.76171875,-15.625,35.15625,-21.484375,0.0
1734503736.9280536,-93.75,32.2265625,24.4140625,-64.94140625,0.0
1734503736.9319932,-101.07421875,46.38671875,13.18359375,-38.57421875,0.0
1734503736.9358978,-77.1484375,22.94921875,20.5078125,-36.1328125,0.0
1734503736.9398024,-74.70703125,-1.46484375,-4.39453125,-59.08203125,0.0
1734503736.943707,-55.17578125,-18.5546875,-6.8359375,-35.15625,0.0
1734503736.9476116,1.953125,50.29296875,38.57421875,-38.0859375,0.0
1734503736.9515162,-72.75390625,107.91015625,41.015625,-22.94921875,0.0
1734503736.9554207,-143.06640625,95.21484375,27.83203125,7.32421875,0.0
1734503736.9593253,-106.4453125,134.27734375,26.85546875,-47.8515625,0.0
1734503736.96323,-94.7265625,150.390625,6.34765625,-73.73046875,0.0
1734503736.9671345,-88.37890625,124.51171875,-0.48828125,-54.6875,0.0
1734503736.971039,-90.33203125,131.34765625,33.203125,-66.40625,0.0
1734503736.9749436,-117.67578125,142.08984375,40.0390625,-45.41015625,0.0
1734503736.978862,0.0,133.30078125,10.7421875,-39.55078125,0.0
1734503736.9827666,0.0,166.50390625,18.06640625,-20.99609375,0.0
1734503736.9866712,0.0,180.17578125,49.8046875,-20.5078125,0.0
1734503736.9905758,0.0,161.1328125,38.0859375,-25.87890625,0.0
1734503736.9944804,0.0,181.640625,27.83203125,-20.99609375,0.0
1734503736.998385,0.0,221.19140625,42.48046875,-24.4140625,0.0
1734503737.0022895,0.0,238.28125,16.6015625,0.48828125,0.0
1734503737.0061944,0.0,246.09375,13.671875,12.6953125,0.0
1734503737.010099,0.0,225.09765625,35.64453125,23.4375,0.0
1734503737.0140035,0.0,190.91796875,42.96875,-3.90625,0.0
1734503737.017908,0.0,175.29296875,29.78515625,-31.73828125,0.0
1734503737.0218127,0.0,142.08984375,-0.48828125,-23.4375,0.0
1734503737.0258236,-85.44921875,147.94921875,0.0,-30.2734375,0.0
1734503737.0297282,-90.8203125,156.25,0.0,-20.99609375,0.0
1734503737.0336328,-91.796875,153.3203125,0.0,-20.5078125,0.0
1734503737.0375373,-89.84375,177.24609375,0.0,-17.578125,0.0
1734503737.041442,-110.83984375,159.1796875,0.0,-25.390625,0.0
1734503737.0453465,-112.79296875,143.06640625,0.0,-5.37109375,0.0
1734503737.049251,-75.68359375,134.765625,0.0,17.08984375,0.0
1734503737.0531557,-71.2890625,126.46484375,0.0,-8.30078125,0.0
1734503737.0570602,-70.80078125,134.765625,0.0,-15.13671875,0.0
1734503737.0609648,-49.31640625,111.328125,0.0,41.9921875,0.0
1734503737.0648694,-75.68359375,85.9375,0.0,43.9453125,0.0
1734503737.068774,-72.265625,100.09765625,0.0,0.48828125,0.0
1734503737.072779,-67.3828125,132.32421875,71.77734375,-1.953125,0.0
1734503737.0766835,-83.49609375,159.66796875,81.0546875,11.23046875,0.0
1734503737.080588,-83.0078125,141.11328125,78.61328125,20.01953125,0.0
1734503737.0844927,-79.1015625,122.0703125,81.0546875,13.18359375,0.0
1734503737.0883973,-69.82421875,107.421875,69.82421875,34.1796875,0.0
1734503737.0923018,-58.59375,113.76953125,60.05859375,20.99609375,0.0
1734503737.0962064,-73.73046875,117.1875,61.5234375,-14.6484375,0.0
1734503737.100111,-84.9609375,109.375,60.05859375,0.9765625,0.0
1734503737.1040156,-81.54296875,104.98046875,56.640625,19.53125,0.0
1734503737.1079202,-100.09765625,99.609375,57.6171875,23.92578125,0.0
1734503737.1118248,-91.30859375,83.49609375,59.5703125,25.87890625,0.0
1734503737.1157293,-66.40625,68.84765625,36.62109375,8.7890625,0.0
1734503737.1197147,0.0,86.9140625,12.20703125,13.671875,0.0
1734503737.1236193,0.0,90.33203125,29.78515625,20.5078125,0.0
1734503737.127524,0.0,52.24609375,69.3359375,19.53125,0.0
1734503737.1314285,0.0,39.55078125,50.78125,54.19921875,0.0
