timestamps,TP9,AF7,AF8,TP10,Right AUX
1734411607.71291,207.51953125,-266.6015625,168.9453125,909.1796875,0.0
1734411607.7168152,-812.01171875,965.8203125,716.796875,-985.83984375,0.0
1734411607.7207205,632.8125,837.40234375,404.78515625,-301.26953125,0.0
1734411607.7246258,-746.09375,-595.21484375,-565.4296875,-1000.0,0.0
1734411607.728531,-1000.0,-1000.0,-859.86328125,-682.6171875,0.0
1734411607.7324362,-77.63671875,-439.94140625,-85.44921875,729.4921875,0.0
1734411607.7363415,-903.80859375,911.62109375,708.49609375,-896.97265625,0.0
1734411607.7402468,770.99609375,884.765625,469.23828125,-197.265625,0.0
1734411607.744152,-613.28125,-575.68359375,-650.390625,-1000.0,0.0
1734411607.7480571,-1000.0,-1000.0,-882.32421875,-838.8671875,0.0
1734411607.7519624,-425.78125,-539.55078125,-48.828125,543.9453125,0.0
1734411607.7558799,963.8671875,816.40625,631.8359375,-833.984375,0.0
1734411607.7597852,865.72265625,937.01171875,436.03515625,-20.99609375,0.0
1734411607.7636905,-578.61328125,-505.859375,-559.5703125,-1000.0,0.0
1734411607.7675958,-1000.0,-1000.0,-945.80078125,-860.83984375,0.0
1734411607.7715008,-739.74609375,-851.5625,-313.96484375,531.25,0.0
1734411607.7754061,793.45703125,586.42578125,451.66015625,-817.87109375,0.0
1734411607.7793114,842.7734375,943.84765625,441.40625,126.46484375,0.0
1734411607.7832167,-716.30859375,-612.3046875,-565.91796875,-1000.0,0.0
1734411607.787122,-1000.0,-1000.0,-1000.0,-951.66015625,0.0
1734411607.791027,-882.32421875,-900.87890625,-482.91015625,383.7890625,0.0
1734411607.7949324,616.69921875,545.8984375,484.375,-792.48046875,0.0
1734411607.7988377,911.62109375,975.09765625,547.8515625,365.234375,0.0
1734411607.8027534,-677.734375,-595.21484375,-578.125,-933.10546875,0.0
1734411607.8066587,-1000.0,-1000.0,-1000.0,-1000.0,0.0
1734411607.810564,-875.9765625,-921.38671875,-467.28515625,180.6640625,0.0
1734411607.8144693,603.515625,520.5078125,462.40234375,-810.05859375,0.0
1734411607.8183746,962.890625,951.171875,511.71875,593.26171875,0.0
1734411607.8222797,-614.2578125,-637.20703125,-544.43359375,-780.2734375,0.0
1734411607.826185,-1000.0,-1000.0,-1000.0,-1000.0,0.0
1734411607.8300903,-873.53515625,-933.59375,-545.8984375,-86.9140625,0.0
1734411607.8339956,602.5390625,346.19140625,365.72265625,-902.83203125,0.0
1734411607.8379009,967.28515625,-899.4140625,587.890625,763.18359375,0.0
1734411607.841806,-607.421875,-205.56640625,-237.79296875,-630.859375,0.0
1734411607.8457112,-1000.0,-1000.0,-976.5625,-1000.0,0.0
1734411607.8496268,-862.3046875,-945.3125,-703.125,-370.60546875,0.0
1734411607.8535318,573.73046875,392.08984375,385.25390625,982.91015625,0.0
1734411607.8574371,-950.1953125,-873.53515625,713.8671875,863.28125,0.0
1734411607.8613424,-465.8203125,-116.2109375,-183.59375,-566.40625,0.0
1734411607.8652477,-1000.0,-1000.0,-961.42578125,-1000.0,0.0
1734411607.869153,-832.03125,-1000.0,-742.1875,-590.8203125,0.0
1734411607.873058,518.06640625,242.67578125,365.234375,872.55859375,0.0
1734411607.8769634,-830.078125,-893.06640625,763.671875,919.921875,0.0
1734411607.8808687,-30.2734375,-137.20703125,-218.75,-557.6171875,0.0
1734411607.884774,-1000.0,-1000.0,-957.51953125,-1000.0,0.0
1734411607.8886793,-838.37890625,-922.36328125,-623.53515625,-716.30859375,0.0
1734411607.8925843,506.34765625,312.98828125,374.0234375,733.88671875,0.0
1734411607.896499,-819.3359375,-855.95703125,820.80078125,-968.26171875,0.0
1734411607.900404,582.03125,775.390625,392.08984375,-420.41015625,0.0
1734411607.9043093,-900.87890625,-699.70703125,-666.015625,-1000.0,0.0
1734411607.9082146,-936.5234375,-1000.0,-683.10546875,-753.41796875,0.0
1734411607.9121199,568.359375,490.72265625,461.42578125,610.3515625,0.0
1734411607.9160252,-890.625,-895.5078125,874.51171875,-843.75,0.0
1734411607.9199302,842.7734375,876.953125,542.48046875,17.08984375,0.0
1734411607.9238355,-635.7421875,-520.99609375,-572.75390625,-1000.0,0.0
1734411607.9277408,-993.65234375,-1000.0,-672.36328125,-838.8671875,0.0
1734411607.931646,581.0546875,437.01171875,459.47265625,540.52734375,0.0
1734411607.9355514,-878.41796875,-879.8828125,848.14453125,-816.89453125,0.0
1734411607.9394565,802.734375,835.44921875,521.97265625,338.8671875,0.0
1734411607.9433699,-609.86328125,-496.58203125,-558.10546875,-1000.0,0.0
1734411607.9472752,-1000.0,-1000.0,-814.94140625,-894.53125,0.0
1734411607.9511805,323.73046875,-22.4609375,180.6640625,536.1328125,0.0
1734411607.9550858,-856.93359375,-945.3125,782.2265625,-826.66015625,0.0
1734411607.9589908,801.26953125,840.33203125,600.5859375,561.03515625,0.0
1734411607.962896,-565.91796875,-514.6484375,-532.2265625,-898.92578125,0.0
1734411607.9668014,-1000.0,-1000.0,-1000.0,-953.61328125,0.0
1734411607.9707067,44.921875,-703.125,-251.46484375,521.97265625,0.0
1734411607.974612,-894.04296875,733.3984375,711.9140625,-837.40234375,0.0
1734411607.978517,838.37890625,984.86328125,641.11328125,652.34375,0.0
1734411607.9824224,-582.03125,-536.1328125,-533.203125,-787.59765625,0.0
1734411607.9863276,-1000.0,-1000.0,-941.40625,-1000.0,0.0
1734411607.9902394,110.3515625,-274.90234375,19.53125,360.3515625,0.0
1734411607.9941447,-875.0,964.84375,812.5,-845.703125,0.0
1734411607.99805,793.45703125,905.2734375,624.0234375,751.953125,0.0
1734411608.0019553,-530.2734375,-442.3828125,-371.09375,-630.37109375,0.0
1734411608.0058603,-1000.0,-1000.0,-1000.0,-1000.0,0.0
1734411608.0097656,-590.8203125,-752.9296875,-312.01171875,83.0078125,0.0
1734411608.013671,882.32421875,669.43359375,621.58203125,-881.34765625,0.0
1734411608.0175762,899.4140625,-962.890625,579.1015625,806.15234375,0.0
1734411608.0214815,-588.8671875,-376.46484375,-315.4296875,-558.10546875,0.0
1734411608.0253866,-1000.0,-1000.0,-1000.0,-1000.0,0.0
1734411608.0292919,-763.18359375,-835.9375,-556.15234375,-242.67578125,0.0
1734411608.0331972,737.3046875,627.44140625,601.07421875,-969.7265625,0.0
1734411608.0371082,937.98828125,-965.33203125,747.0703125,844.23828125,0.0
1734411608.0410135,-609.375,-464.84375,-402.34375,-556.640625,0.0
1734411608.0449188,-1000.0,-1000.0,-1000.0,-1000.0,0.0
1734411608.0488238,-864.2578125,-897.94921875,-624.0234375,-547.8515625,0.0
1734411608.0527291,605.46875,534.66796875,504.39453125,890.13671875,0.0
1734411608.0566344,766.6015625,812.01171875,497.0703125,726.07421875,0.0
1734411608.0605397,-689.94140625,-635.7421875,-569.3359375,-618.1640625,0.0
1734411608.064445,-1000.0,-1000.0,-1000.0,-1000.0,0.0
1734411608.06835,-878.41796875,-914.0625,-674.31640625,-753.90625,0.0
1734411608.0722554,580.56640625,387.20703125,405.76171875,721.19140625,0.0
1734411608.0761607,-952.63671875,-843.26171875,714.35546875,-967.28515625,0.0
1734411608.080066,-471.19140625,56.15234375,4.39453125,-436.03515625,0.0
1734411608.083976,-1000.0,-1000.0,-910.64453125,-1000.0,0.0
1734411608.087881,-842.7734375,-987.3046875,-832.03125,-838.8671875,0.0
1734411608.0917864,536.1328125,298.33984375,387.20703125,564.94140625,0.0
1734411608.0956917,-853.515625,-829.58984375,835.9375,-881.34765625,0.0
1734411608.099597,-212.40234375,277.34375,135.25390625,-292.48046875,0.0
1734411608.1035023,-1000.0,-936.03515625,-871.09375,-1000.0,0.0
1734411608.1074073,-906.73828125,-1000.0,-921.38671875,-841.796875,0.0
1734411608.1113126,414.0625,168.45703125,297.8515625,529.78515625,0.0
1734411608.115218,-797.8515625,-836.42578125,856.93359375,-833.0078125,0.0
1734411608.1191232,33.203125,276.85546875,123.046875,-68.359375,0.0
1734411608.1230285,-1000.0,-908.69140625,-861.328125,-1000.0,0.0
1734411608.1269336,-1000.0,-1000.0,-978.515625,-919.43359375,0.0
1734411608.130851,67.87109375,-343.75,-78.125,420.41015625,0.0
1734411608.1347563,-805.6640625,-979.00390625,665.0390625,-797.36328125,0.0
1734411608.1386616,63.96484375,563.96484375,272.4609375,102.05078125,0.0
1734411608.1425667,-984.375,-808.10546875,-775.390625,-1000.0,0.0
1734411608.146472,-1000.0,-1000.0,-1000.0,-1000.0,0.0
1734411608.1503773,-679.6875,-816.40625,-423.828125,91.30859375,0.0
1734411608.1542826,901.3671875,714.35546875,513.671875,-799.8046875,0.0
1734411608.1581879,69.82421875,541.015625,229.98046875,188.4765625,0.0
1734411608.162093,-1000.0,-902.83203125,-801.7578125,-951.66015625,0.0
1734411608.1659982,-1000.0,-1000.0,-1000.0,-1000.0,0.0
1734411608.1699035,-907.71484375,-929.6875,-567.3828125,-475.5859375,0.0
1734411608.1738088,654.296875,563.96484375,394.53125,-966.796875,0.0
1734411608.177725,47.8515625,472.65625,197.75390625,438.96484375,0.0
1734411608.1816304,-1000.0,-954.1015625,-811.03515625,-918.9453125,0.0
1734411608.1855357,-1000.0,-1000.0,-1000.0,-1000.0,0.0
1734411608.189441,-925.78125,-1000.0,-698.2421875,-732.421875,0.0
1734411608.193346,676.7578125,295.8984375,231.4453125,855.46875,0.0
1734411608.1972513,101.07421875,338.8671875,56.15234375,419.921875,0.0
1734411608.2011566,-1000.0,-993.65234375,-859.86328125,-952.1484375,0.0
1734411608.205062,-942.87109375,-955.56640625,-1000.0,-1000.0,0.0
1734411608.2089672,-1000.0,-1000.0,-993.1640625,-882.8125,0.0
1734411608.2128723,335.9375,-227.5390625,-133.7890625,685.546875,0.0
1734411608.2167776,199.70703125,537.109375,293.9453125,840.8203125,0.0
1734411608.2206829,-1000.0,-780.76171875,-752.9296875,-746.58203125,0.0
1734411608.2245982,-970.703125,-1000.0,-1000.0,-1000.0,0.0
1734411608.2285035,-980.95703125,-971.6796875,-960.44921875,-887.6953125,0.0
1734411608.2324088,-1000.0,-867.1875,-346.6796875,629.39453125,0.0
1734411608.236314,-1000.0,-740.234375,-79.1015625,867.1875,0.0
1734411608.240219,-1000.0,-998.53515625,-854.4921875,-746.09375,0.0
1734411608.2441244,-1000.0,-1000.0,-1000.0,-1000.0,0.0
1734411608.2480297,-1000.0,-990.72265625,-985.83984375,-984.375,0.0
1734411608.251935,-1000.0,-1000.0,-724.609375,462.890625,0.0
1734411608.2558403,-1000.0,-1000.0,-694.82421875,879.8828125,0.0
1734411608.2597454,-1000.0,-1000.0,-986.328125,-802.24609375,0.0
1734411608.2636507,-1000.0,-1000.0,-999.51171875,-1000.0,0.0
1734411608.267556,-1000.0,-1000.0,-1000.0,-1000.0,0.0
1734411608.2714698,-1000.0,-1000.0,-931.640625,-161.1328125,0.0
1734411608.2753751,-1000.0,-1000.0,-844.7265625,707.51953125,0.0
1734411608.2792804,-1000.0,-1000.0,-968.75,-803.7109375,0.0
1734411608.2831857,-1000.0,-1000.0,-1000.0,-1000.0,0.0
1734411608.2870908,-1000.0,-1000.0,-993.1640625,-969.23828125,0.0
1734411608.290996,-1000.0,-1000.0,-1000.0,-924.31640625,0.0
1734411608.2949014,-1000.0,-1000.0,-1000.0,-699.21875,0.0
1734411608.2988067,-1000.0,-1000.0,-1000.0,-975.5859375,0.0
1734411608.302712,-1000.0,-1000.0,-1000.0,-1000.0,0.0
1734411608.306617,-1000.0,-1000.0,-1000.0,-983.88671875,0.0
1734411608.3105223,-1000.0,-1000.0,-1000.0,-1000.0,0.0
1734411608.3144276,-1000.0,-1000.0,-1000.0,-1000.0,0.0
1734411608.3183413,-1000.0,-1000.0,-1000.0,-1000.0,0.0
1734411608.3222463,-1000.0,-1000.0,-1000.0,-1000.0,0.0
1734411608.3261516,-1000.0,-1000.0,-1000.0,-1000.0,0.0
1734411608.330057,-1000.0,-1000.0,-1000.0,-1000.0,0.0
1734411608.3339622,-1000.0,-1000.0,-1000.0,-1000.0,0.0
1734411608.3378675,-1000.0,-1000.0,-1000.0,-1000.0,0.0
1734411608.3417726,-1000.0,-1000.0,-1000.0,-1000.0,0.0
1734411608.3456779,-1000.0,-1000.0,-1000.0,-1000.0,0.0
1734411608.3495831,-1000.0,-1000.0,-1000.0,-1000.0,0.0
1734411608.3534884,-1000.0,-1000.0,-1000.0,-1000.0,0.0
1734411608.3573937,-1000.0,-1000.0,-1000.0,-1000.0,0.0
1734411608.3612988,-1000.0,-1000.0,-1000.0,-1000.0,0.0
1734411608.3652112,-1000.0,-1000.0,-1000.0,-1000.0,0.0
1734411608.3691165,-1000.0,-1000.0,-1000.0,-1000.0,0.0
1734411608.3730218,-1000.0,-1000.0,-1000.0,-1000.0,0.0
1734411608.3769271,-1000.0,-1000.0,-1000.0,-1000.0,0.0
1734411608.3808322,-1000.0,-1000.0,-1000.0,-1000.0,0.0
1734411608.3847375,-1000.0,-1000.0,-1000.0,-1000.0,0.0
1734411608.3886428,-1000.0,-1000.0,-1000.0,-1000.0,0.0
1734411608.392548,-1000.0,-1000.0,-1000.0,-1000.0,0.0
1734411608.3964534,-1000.0,-1000.0,-1000.0,-1000.0,0.0
1734411608.4003587,-1000.0,-1000.0,-1000.0,-1000.0,0.0
1734411608.4042637,-1000.0,-1000.0,-1000.0,-1000.0,0.0
1734411608.408169,-1000.0,-1000.0,-1000.0,-1000.0,0.0
1734411608.4120803,-1000.0,-1000.0,-1000.0,-1000.0,0.0
1734411608.4159856,-1000.0,-1000.0,-1000.0,-1000.0,0.0
1734411608.4198906,-1000.0,-1000.0,-1000.0,-1000.0,0.0
1734411608.423796,-1000.0,-1000.0,-1000.0,-1000.0,0.0
1734411608.4277012,-1000.0,-1000.0,-1000.0,-1000.0,0.0
1734411608.4316065,-1000.0,-1000.0,-1000.0,-1000.0,0.0
1734411608.4355118,-1000.0,-1000.0,-1000.0,-1000.0,0.0
1734411608.439417,-1000.0,-1000.0,-1000.0,-1000.0,0.0
1734411608.4433222,-1000.0,-1000.0,-1000.0,-1000.0,0.0
1734411608.4472275,-1000.0,-1000.0,-1000.0,-1000.0,0.0
1734411608.4511328,-1000.0,-1000.0,-1000.0,-1000.0,0.0
1734411608.455038,-1000.0,-1000.0,-1000.0,-1000.0,0.0
1734411608.4589484,-1000.0,-1000.0,-1000.0,-1000.0,0.0
1734411608.4628534,-1000.0,-1000.0,-1000.0,-1000.0,0.0
1734411608.4667587,-1000.0,-1000.0,-1000.0,-1000.0,0.0
1734411608.470664,-1000.0,-1000.0,-1000.0,-1000.0,0.0
1734411608.4745693,-1000.0,-1000.0,-998.046875,-1000.0,0.0
1734411608.4784746,-1000.0,-1000.0,-1000.0,-1000.0,0.0
1734411608.4823797,-1000.0,-973.6328125,-963.8671875,-1000.0,0.0
1734411608.486285,-1000.0,-981.4453125,-1000.0,-1000.0,0.0
1734411608.4901903,-1000.0,-1000.0,-767.08984375,-1000.0,0.0
1734411608.4940956,-1000.0,109.86328125,243.65234375,-1000.0,0.0
1734411608.4980009,-984.375,870.60546875,481.93359375,-1000.0,0.0
1734411608.501906,-966.30859375,-610.3515625,-563.96484375,-940.91796875,0.0
1734411608.5058231,-1000.0,-1000.0,-933.10546875,-1000.0,0.0
1734411608.5097284,13.671875,142.08984375,174.8046875,-923.33984375,0.0
1734411608.5136337,-928.7109375,-957.03125,909.1796875,641.6015625,0.0
1734411608.517539,927.734375,930.17578125,895.5078125,224.609375,0.0
1734411608.521444,958.0078125,958.984375,666.50390625,-1000.0,0.0
1734411608.5253494,972.65625,971.6796875,388.671875,-1000.0,0.0
1734411608.5292547,969.23828125,970.21484375,793.9453125,-378.41796875,0.0
1734411608.53316,969.23828125,969.7265625,975.5859375,981.93359375,0.0
1734411608.5370653,969.23828125,969.7265625,915.52734375,952.63671875,0.0
1734411608.5409706,969.23828125,970.21484375,897.94921875,-550.29296875,0.0
1734411608.5448756,969.23828125,970.21484375,883.7890625,-1000.0,0.0
1734411608.548781,969.23828125,969.7265625,924.8046875,334.47265625,0.0
1734411608.5526977,969.23828125,969.7265625,962.40234375,-980.46875,0.0
1734411608.5566027,968.75,969.7265625,969.7265625,-979.00390625,0.0
1734411608.560508,968.75,969.7265625,948.73046875,789.55078125,0.0
1734411608.5644133,969.23828125,969.7265625,927.734375,-513.18359375,0.0
1734411608.5683186,969.23828125,969.7265625,944.82421875,454.58984375,0.0
1734411608.572224,969.23828125,969.7265625,967.28515625,-853.02734375,0.0
1734411608.5761292,969.23828125,969.7265625,970.703125,894.53125,0.0
1734411608.5800343,969.23828125,969.7265625,951.66015625,992.67578125,0.0
1734411608.5839396,968.75,969.7265625,922.8515625,554.6875,0.0
1734411608.5878448,969.23828125,969.7265625,945.3125,760.7421875,0.0
1734411608.5917501,969.23828125,969.7265625,972.16796875,-959.9609375,0.0
1734411608.5956554,969.23828125,969.7265625,968.75,940.4296875,0.0
1734411608.5995708,969.23828125,969.7265625,968.75,975.5859375,0.0
1734411608.603476,969.23828125,969.7265625,967.28515625,969.7265625,0.0
1734411608.6073813,969.23828125,969.7265625,968.75,969.7265625,0.0
1734411608.6112866,969.23828125,969.7265625,970.21484375,969.7265625,0.0
1734411608.615192,968.75,969.7265625,969.23828125,969.7265625,0.0
1734411608.619097,968.75,969.7265625,969.7265625,969.7265625,0.0
1734411608.6230023,969.23828125,969.7265625,969.7265625,969.7265625,0.0
1734411608.6269076,969.23828125,969.7265625,969.7265625,969.7265625,0.0
1734411608.630813,969.23828125,969.7265625,969.7265625,969.7265625,0.0
1734411608.6347182,969.23828125,969.7265625,969.7265625,969.7265625,0.0
1734411608.6386232,968.75,969.7265625,969.7265625,969.7265625,0.0
1734411608.6425285,969.23828125,969.7265625,969.7265625,969.7265625,0.0
1734411608.6464427,969.23828125,969.7265625,969.7265625,969.7265625,0.0
1734411608.650348,969.23828125,969.7265625,969.7265625,969.7265625,0.0
1734411608.654253,968.75,969.7265625,969.23828125,969.7265625,0.0
1734411608.6581583,968.75,969.7265625,971.19140625,969.7265625,0.0
1734411608.6620636,969.23828125,969.7265625,949.21875,969.7265625,0.0
1734411608.665969,969.23828125,969.7265625,930.6640625,969.7265625,0.0
1734411608.6698742,968.75,970.21484375,955.56640625,969.7265625,0.0
1734411608.6737792,968.75,969.7265625,972.65625,969.7265625,0.0
1734411608.6776845,969.23828125,969.7265625,962.40234375,969.7265625,0.0
1734411608.6815898,969.23828125,969.7265625,918.9453125,969.7265625,0.0
1734411608.6854951,969.23828125,969.7265625,891.11328125,969.7265625,0.0
1734411608.6894004,969.23828125,969.7265625,921.875,969.7265625,0.0
1734411608.693314,968.75,969.7265625,939.94140625,969.7265625,0.0
1734411608.6972194,968.75,969.7265625,955.56640625,969.7265625,0.0
1734411608.7011244,969.23828125,969.7265625,850.5859375,969.7265625,0.0
1734411608.7050297,969.23828125,969.7265625,728.02734375,969.7265625,0.0
1734411608.708935,968.75,969.7265625,872.55859375,970.703125,0.0
1734411608.7128403,968.75,969.7265625,921.38671875,963.8671875,0.0
1734411608.7167456,968.75,969.7265625,936.5234375,978.515625,0.0
1734411608.7206507,969.23828125,969.7265625,754.8828125,960.9375,0.0
1734411608.724556,969.23828125,969.7265625,437.01171875,864.74609375,0.0
1734411608.7284613,968.75,969.7265625,703.61328125,954.1015625,0.0
1734411608.7323666,968.75,969.7265625,909.66796875,916.015625,0.0
1734411608.7362719,968.75,969.23828125,925.78125,-940.91796875,0.0
1734411608.740184,969.23828125,970.21484375,744.62890625,852.05078125,0.0
1734411608.7440894,969.23828125,961.9140625,76.66015625,-422.8515625,0.0
1734411608.7479947,968.75,967.7734375,309.08203125,447.75390625,0.0
1734411608.7518997,969.23828125,960.9375,839.35546875,-900.390625,0.0
1734411608.755805,969.23828125,930.17578125,907.71484375,961.9140625,0.0
1734411608.7597103,969.23828125,-909.1796875,718.26171875,895.01953125,0.0
1734411608.7636156,969.23828125,78.125,-411.1328125,-644.53125,0.0
1734411608.767521,975.09765625,-362.79296875,-266.6015625,95.703125,0.0
1734411608.771426,945.80078125,888.18359375,795.8984375,-883.30078125,0.0
1734411608.7753313,937.98828125,982.91015625,910.64453125,936.03515625,0.0
1734411608.7792366,-886.71875,-964.84375,694.3359375,930.6640625,0.0
1734411608.7831419,-267.578125,24.90234375,-379.8828125,-714.35546875,0.0
1734411608.787053,-535.64453125,-768.5546875,-491.2109375,-612.3046875,0.0
1734411608.7909584,935.546875,645.5078125,572.265625,909.66796875,0.0
1734411608.7948635,-990.72265625,-927.734375,896.484375,-969.7265625,0.0
1734411608.7987688,949.70703125,957.51953125,637.6953125,872.0703125,0.0
1734411608.802674,-505.859375,-166.50390625,-483.3984375,-652.34375,0.0
1734411608.8065794,-1000.0,-1000.0,-827.1484375,-939.453125,0.0
1734411608.8104846,584.9609375,283.203125,176.7578125,651.3671875,0.0
1734411608.8143897,-892.578125,-907.71484375,850.5859375,-901.3671875,0.0
1734411608.818295,862.79296875,928.22265625,690.91796875,845.703125,0.0
1734411608.8222003,-588.37890625,-340.33203125,-524.90234375,-634.27734375,0.0
1734411608.8261056,-1000.0,-1000.0,-929.6875,-994.140625,0.0
1734411608.830011,536.1328125,180.17578125,114.74609375,583.984375,0.0
1734411608.8339207,-872.55859375,-912.59765625,858.3984375,-888.671875,0.0
1734411608.837826,808.59375,882.32421875,628.90625,840.8203125,0.0
1734411608.8417313,-561.03515625,-361.328125,-503.41796875,-615.72265625,0.0
1734411608.8456366,-1000.0,-1000.0,-1000.0,-1000.0,0.0
1734411608.8495417,146.97265625,-317.3828125,-140.625,514.6484375,0.0
1734411608.853447,-868.65234375,918.45703125,722.16796875,-881.8359375,0.0
1734411608.8573523,790.0390625,986.81640625,586.42578125,844.23828125,0.0
1734411608.8612576,-528.3203125,-247.55859375,-398.4375,-540.52734375,0.0
1734411608.8651628,-1000.0,-1000.0,-1000.0,-1000.0,0.0
1734411608.869068,-562.5,-854.00390625,-522.4609375,290.0390625,0.0
1734411608.8729732,896.97265625,568.84765625,565.91796875,-875.9765625,0.0
1734411608.8768785,900.390625,-896.97265625,728.515625,863.28125,0.0
1734411608.880796,-577.1484375,-194.82421875,-326.171875,-444.3359375,0.0
1734411608.8847013,-1000.0,-1000.0,-1000.0,-1000.0,0.0
1734411608.8886065,-770.99609375,-885.25390625,-569.82421875,-79.58984375,0.0
1734411608.8925116,706.54296875,579.58984375,514.16015625,-965.33203125,0.0
1734411608.896417,991.2109375,-930.6640625,712.890625,943.359375,0.0
1734411608.9003222,-530.2734375,-374.0234375,-367.1875,-326.171875,0.0
1734411608.9042275,-1000.0,-1000.0,-1000.0,-1000.0,0.0
1734411608.9081328,-860.3515625,-873.53515625,-636.23046875,-510.7421875,0.0
1734411608.9120378,571.77734375,462.890625,414.0625,857.421875,0.0
1734411608.9159431,-938.4765625,-843.26171875,632.8125,-947.75390625,0.0
1734411608.9198484,-444.3359375,57.6171875,-112.3046875,-240.234375,0.0
1734411608.9237537,-1000.0,-1000.0,-931.15234375,-1000.0,0.0
1734411608.9276698,-865.234375,-1000.0,-870.60546875,-721.6796875,0.0
1734411608.931575,549.31640625,229.98046875,190.4296875,671.875,0.0
1734411608.9354804,-900.390625,-857.91015625,688.4765625,-859.375,0.0
1734411608.9393857,-399.4140625,77.63671875,-25.87890625,-26.3671875,0.0
1734411608.943291,-1000.0,-949.70703125,-888.671875,-1000.0,0.0
1734411608.947196,-994.140625,-1000.0,-984.375,-843.26171875,0.0
1734411608.9511013,279.78515625,-210.9375,-21.97265625,533.69140625,0.0
1734411608.9550066,-840.8203125,-922.36328125,717.7734375,-816.40625,0.0
1734411608.958912,-332.03125,171.875,14.6484375,263.18359375,0.0
1734411608.9628172,-1000.0,-978.02734375,-910.15625,-1000.0,0.0
1734411608.9667222,-1000.0,-1000.0,-1000.0,-886.23046875,0.0
1734411608.9706275,-159.66796875,-463.37890625,-158.69140625,532.71484375,0.0
1734411608.9745429,-875.0,962.40234375,625.0,-816.89453125,0.0
1734411608.9784482,-123.53515625,475.09765625,223.14453125,447.265625,0.0
1734411608.9823534,-1000.0,-863.28125,-786.1328125,-942.87109375,0.0
1734411608.9862587,-1000.0,-1000.0,-1000.0,-975.5859375,0.0
1734411608.990164,-644.04296875,-724.12109375,-334.47265625,441.89453125,0.0
1734411608.994069,967.28515625,788.57421875,579.1015625,-813.4765625,0.0
1734411608.9979744,259.765625,554.19921875,228.515625,571.2890625,0.0
1734411609.0018797,-1000.0,-866.69921875,-792.96875,-812.5,0.0
1734411609.005785,-1000.0,-1000.0,-1000.0,-1000.0,0.0
1734411609.0096903,-830.078125,-855.46875,-477.5390625,157.2265625,0.0
1734411609.0135953,802.24609375,686.5234375,521.97265625,-823.2421875,0.0
1734411609.0175006,594.23828125,790.0390625,345.703125,626.953125,0.0
1734411609.021415,-926.7578125,-771.97265625,-770.5078125,-725.09765625,0.0
1734411609.0253203,-1000.0,-1000.0,-1000.0,-1000.0,0.0
1734411609.0292256,-909.1796875,-945.3125,-626.953125,-378.90625,0.0
1734411609.033131,652.83203125,505.37109375,354.4921875,-984.86328125,0.0
1734411609.0370362,766.6015625,929.19921875,398.92578125,749.0234375,0.0
1734411609.0409412,-829.1015625,-716.796875,-731.93359375,-702.63671875,0.0
1734411609.0448465,-1000.0,-1000.0,-1000.0,-1000.0,0.0
1734411609.0487518,-894.53125,-1000.0,-866.69921875,-754.8828125,0.0
1734411609.0526571,635.7421875,-15.13671875,-40.0390625,783.69140625,0.0
1734411609.0565624,842.28515625,896.97265625,437.5,830.078125,0.0
1734411609.0604677,-779.78515625,-619.62890625,-625.0,-730.95703125,0.0
1734411609.0643728,-1000.0,-1000.0,-1000.0,-1000.0,0.0
1734411609.0682867,-1000.0,-1000.0,-891.6015625,-892.578125,0.0
1734411609.0721917,418.45703125,88.8671875,-0.9765625,653.80859375,0.0
1734411609.076097,901.3671875,898.92578125,422.8515625,747.0703125,0.0
1734411609.0800023,-772.94921875,-669.921875,-671.38671875,-867.67578125,0.0
1734411609.0839076,-1000.0,-1000.0,-1000.0,-1000.0,0.0
1734411609.087813,-1000.0,-1000.0,-978.02734375,-1000.0,0.0
1734411609.091718,-39.55078125,-462.890625,-325.1953125,393.06640625,0.0
1734411609.0956233,865.234375,406.73828125,40.0390625,684.08203125,0.0
1734411609.0995286,-724.12109375,-732.421875,-724.609375,-973.14453125,0.0
1734411609.1034338,-1000.0,-1000.0,-1000.0,-970.21484375,0.0
1734411609.1073391,-1000.0,-1000.0,-1000.0,-1000.0,0.0
1734411609.1112444,-594.23828125,-733.3984375,-514.6484375,-563.96484375,0.0
1734411609.1151564,678.22265625,604.00390625,223.6328125,187.5,0.0
1734411609.1190615,-595.21484375,-417.48046875,-560.546875,-902.34375,0.0
1734411609.1229668,-1000.0,-1000.0,-1000.0,-1000.0,0.0
1734411609.126872,-1000.0,-990.234375,-1000.0,-967.7734375,0.0
1734411609.1307774,-839.84375,-900.87890625,-639.6484375,-951.66015625,0.0
1734411609.1346827,416.015625,74.70703125,-26.3671875,-833.0078125,0.0
1734411609.1385877,-532.2265625,-582.51953125,-639.6484375,-994.140625,0.0
1734411609.142493,-1000.0,-1000.0,-1000.0,-1000.0,0.0
1734411609.1463983,-911.62109375,-935.05859375,-983.88671875,-992.1875,0.0
1734411609.1503036,-1000.0,-1000.0,-904.78515625,-1000.0,0.0
1734411609.154209,-1000.0,-1000.0,-694.82421875,-1000.0,0.0
1734411609.158114,-1000.0,-1000.0,-896.484375,-1000.0,0.0
1734411609.1620333,-1000.0,-1000.0,-1000.0,-1000.0,0.0
1734411609.1659386,-1000.0,-1000.0,-988.76953125,-1000.0,0.0
1734411609.1698437,-1000.0,-1000.0,-1000.0,-1000.0,0.0
1734411609.173749,-1000.0,-1000.0,-942.3828125,-1000.0,0.0
1734411609.1776543,-1000.0,-1000.0,-975.09765625,-1000.0,0.0
1734411609.1815596,-1000.0,-1000.0,-1000.0,-1000.0,0.0
1734411609.1854649,-1000.0,-1000.0,-998.046875,-1000.0,0.0
1734411609.18937,-1000.0,-1000.0,-1000.0,-1000.0,0.0
1734411609.1932752,-1000.0,-1000.0,-950.1953125,-1000.0,0.0
1734411609.1971805,-1000.0,-1000.0,-978.515625,-1000.0,0.0
1734411609.2010858,-1000.0,-1000.0,-1000.0,-1000.0,0.0
1734411609.204991,-1000.0,-1000.0,-997.0703125,-1000.0,0.0
1734411609.208901,-1000.0,-1000.0,-1000.0,-1000.0,0.0
1734411609.2128062,-1000.0,-1000.0,-983.88671875,-1000.0,0.0
1734411609.2167115,-1000.0,-1000.0,-993.1640625,-1000.0,0.0
1734411609.2206168,-1000.0,-1000.0,-1000.0,-1000.0,0.0
1734411609.224522,-1000.0,-1000.0,-999.51171875,-1000.0,0.0
1734411609.2284272,-1000.0,-1000.0,-1000.0,-1000.0,0.0
1734411609.2323325,-1000.0,-1000.0,-984.375,-1000.0,0.0
1734411609.2362378,-1000.0,-1000.0,-983.3984375,-1000.0,0.0
1734411609.240143,-1000.0,-1000.0,-997.55859375,-1000.0,0.0
1734411609.2440484,-1000.0,-1000.0,-998.53515625,-1000.0,0.0
1734411609.2479534,-1000.0,-1000.0,-1000.0,-1000.0,0.0
1734411609.2518587,-1000.0,-1000.0,-952.63671875,-1000.0,0.0
1734411609.2557929,-1000.0,-1000.0,-903.80859375,-1000.0,0.0
1734411609.2596982,-1000.0,-1000.0,-979.4921875,-1000.0,0.0
1734411609.2636034,-1000.0,-1000.0,-1000.0,-1000.0,0.0
1734411609.2675087,-1000.0,-1000.0,-1000.0,-1000.0,0.0
1734411609.271414,-1000.0,-1000.0,-943.359375,-1000.0,0.0
1734411609.275319,-1000.0,-1000.0,-845.703125,-1000.0,0.0
1734411609.2792244,-1000.0,-1000.0,-961.9140625,-1000.0,0.0
1734411609.2831297,-1000.0,-990.234375,-1000.0,-1000.0,0.0
1734411609.287035,-1000.0,-1000.0,-1000.0,-1000.0,0.0
1734411609.2909403,-1000.0,-984.375,-962.40234375,-1000.0,0.0
1734411609.2948456,-1000.0,-798.33984375,-649.90234375,-1000.0,0.0
1734411609.2987506,-1000.0,-933.10546875,-863.76953125,-1000.0,0.0
1734411609.302667,-1000.0,-1000.0,-1000.0,-1000.0,0.0
1734411609.306572,-1000.0,-1000.0,-1000.0,-1000.0,0.0
1734411609.3104773,-1000.0,-971.19140625,-897.4609375,-1000.0,0.0
1734411609.3143826,-1000.0,-474.12109375,-512.6953125,-1000.0,0.0
1734411609.3182878,-1000.0,-782.2265625,-820.80078125,-1000.0,0.0
1734411609.3221931,-1000.0,-1000.0,-1000.0,-1000.0,0.0
1734411609.3260982,-1000.0,-966.30859375,-982.91015625,-1000.0,0.0
1734411609.3300035,-1000.0,-1000.0,-987.3046875,-1000.0,0.0
1734411609.3339088,-1000.0,-1000.0,-819.3359375,-1000.0,0.0
1734411609.337814,-1000.0,-1000.0,-908.203125,-1000.0,0.0
1734411609.3417194,-1000.0,-997.55859375,-1000.0,-1000.0,0.0
1734411609.3456247,-1000.0,-997.0703125,-999.0234375,-1000.0,0.0
1734411609.3495398,-1000.0,-1000.0,-1000.0,-1000.0,0.0
1734411609.353445,-1000.0,-813.96484375,-579.58984375,-1000.0,0.0
1734411609.3573503,-1000.0,-849.12109375,-595.21484375,-1000.0,0.0
1734411609.3612556,-956.54296875,-994.140625,-971.19140625,-964.35546875,0.0
1734411609.365161,-1000.0,-988.28125,-1000.0,-1000.0,0.0
1734411609.369066,-1000.0,-1000.0,-958.49609375,-1000.0,0.0
1734411609.3729713,492.1875,378.41796875,-26.3671875,-19.04296875,0.0
1734411609.3768766,812.98828125,963.8671875,419.43359375,-474.12109375,0.0
1734411609.380782,-785.64453125,-598.6328125,-694.82421875,-1000.0,0.0
1734411609.3846872,-1000.0,-1000.0,-1000.0,-971.6796875,0.0
1734411609.3885922,-588.8671875,-523.92578125,-365.72265625,-973.14453125,0.0
1734411609.3924975,787.109375,782.71484375,692.3828125,664.0625,0.0
1734411609.3964117,-949.21875,-966.30859375,905.2734375,782.71484375,0.0
1734411609.400317,882.8125,907.71484375,515.13671875,-799.31640625,0.0
1734411609.4042222,858.88671875,962.890625,-9.27734375,-1000.0,0.0
1734411609.4081275,948.2421875,967.28515625,468.75,-721.6796875,0.0
1734411609.4120326,982.91015625,971.19140625,945.3125,718.26171875,0.0
1734411609.415938,960.9375,968.75,895.01953125,-934.5703125,0.0
1734411609.4198432,971.19140625,969.7265625,833.984375,-345.703125,0.0
1734411609.4237485,969.23828125,969.7265625,539.55078125,-1000.0,0.0
1734411609.4276538,969.23828125,969.7265625,677.24609375,-473.14453125,0.0
1734411609.431559,969.23828125,969.7265625,958.984375,796.38671875,0.0
1734411609.4354641,969.23828125,969.7265625,932.12890625,-904.296875,0.0
1734411609.4393694,969.23828125,969.7265625,906.73828125,766.6015625,0.0
1734411609.4432828,969.23828125,970.21484375,849.12109375,-816.89453125,0.0
1734411609.4471881,969.23828125,969.7265625,868.65234375,-401.3671875,0.0
1734411609.4510934,969.23828125,969.7265625,928.7109375,991.2109375,0.0
1734411609.4549985,969.23828125,969.7265625,929.6875,996.58203125,0.0
1734411609.4589038,969.23828125,969.7265625,919.43359375,793.9453125,0.0
1734411609.462809,969.23828125,969.7265625,735.83984375,-734.375,0.0
1734411609.4667144,969.23828125,969.7265625,694.3359375,-723.6328125,0.0
1734411609.4706197,969.23828125,969.7265625,902.34375,830.56640625,0.0
1734411609.474525,969.23828125,969.7265625,920.41015625,-942.87109375,0.0
1734411609.47843,969.23828125,969.7265625,917.48046875,861.328125,0.0
1734411609.4823353,969.23828125,970.21484375,678.7109375,-646.97265625,0.0
1734411609.4862406,969.23828125,970.21484375,550.78125,-950.1953125,0.0
1734411609.4901528,969.23828125,969.7265625,850.5859375,638.18359375,0.0
1734411609.4940581,969.23828125,969.7265625,930.6640625,-898.92578125,0.0
1734411609.4979632,969.23828125,969.7265625,875.9765625,845.21484375,0.0
1734411609.5018685,969.23828125,970.21484375,535.64453125,-634.27734375,0.0
1734411609.5057738,969.23828125,969.7265625,319.3359375,-994.62890625,0.0
1734411609.509679,969.23828125,970.703125,756.34765625,583.984375,0.0
1734411609.5135844,969.23828125,967.28515625,912.109375,-889.16015625,0.0
1734411609.5174894,969.23828125,974.12109375,864.74609375,842.28515625,0.0
1734411609.5213947,969.23828125,961.42578125,477.05078125,-600.5859375,0.0
1734411609.5253,969.23828125,937.5,-59.5703125,-1000.0,0.0
1734411609.5292053,972.16796875,977.05078125,539.55078125,472.16796875,0.0
1734411609.5331106,958.0078125,929.19921875,939.453125,-860.83984375,0.0
1734411609.5370216,987.3046875,-974.12109375,873.046875,806.640625,0.0
1734411609.540927,940.91796875,895.5078125,424.31640625,-556.640625,0.0
1734411609.5448322,797.36328125,-47.36328125,-325.68359375,-1000.0,0.0
1734411609.5487373,949.70703125,484.86328125,272.94921875,197.75390625,0.0
1734411609.5526426,917.48046875,-956.54296875,933.59375,-902.83203125,0.0
1734411609.5565479,-939.94140625,-991.69921875,817.3828125,823.2421875,0.0
1734411609.5604532,831.54296875,661.1328125,41.015625,-513.18359375,0.0
1734411609.5643585,-557.12890625,-833.49609375,-722.65625,-1000.0,0.0
1734411609.5682638,348.6328125,-95.703125,-45.8984375,-472.16796875,0.0
1734411609.5721688,-887.6953125,-970.703125,817.87109375,936.03515625,0.0
1734411609.5760741,946.77734375,974.609375,857.421875,899.90234375,0.0
1734411609.5799794,892.08984375,885.7421875,391.11328125,-546.38671875,0.0
1734411609.583898,-748.53515625,-686.5234375,-701.66015625,-1000.0,0.0
1734411609.5878034,-264.6484375,-778.80859375,-411.1328125,-748.53515625,0.0
1734411609.5917087,-966.796875,746.58203125,721.6796875,722.65625,0.0
1734411609.595614,991.2109375,-922.36328125,880.37109375,-999.51171875,0.0
1734411609.599519,843.26171875,825.68359375,400.87890625,-502.44140625,0.0
1734411609.6034243,-778.3203125,-686.03515625,-721.6796875,-1000.0,0.0
1734411609.6073296,-756.34765625,-939.453125,-636.71875,-844.7265625,0.0
1734411609.611235,814.94140625,627.44140625,573.2421875,564.94140625,0.0
1734411609.6151402,-928.7109375,-870.60546875,904.296875,-896.484375,0.0
1734411609.6190453,811.03515625,707.03125,403.80859375,-339.84375,0.0
1734411609.6229506,-699.70703125,-767.08984375,-729.98046875,-1000.0,0.0
1734411609.6268559,-958.0078125,-976.5625,-704.1015625,-834.9609375,0.0
1734411609.6307738,615.234375,562.01171875,470.703125,520.99609375,0.0
1734411609.6346788,-896.97265625,-894.53125,898.92578125,-826.66015625,0.0
1734411609.6385841,846.19140625,857.421875,551.7578125,4.39453125,0.0
1734411609.6424894,-641.6015625,-570.80078125,-613.76953125,-1000.0,0.0
1734411609.6463947,-986.81640625,-1000.0,-736.81640625,-842.28515625,0.0
1734411609.6503,684.08203125,565.4296875,419.43359375,512.6953125,0.0
1734411609.6542053,979.00390625,-993.1640625,896.97265625,-836.9140625,0.0
1734411609.6581104,-922.36328125,-965.8203125,792.48046875,680.17578125,0.0
1734411609.6620157,457.03125,562.5,-42.96875,-817.3828125,0.0
1734411609.665921,-690.91796875,-675.78125,-621.09375,-959.9609375,0.0
1734411609.6698263,658.69140625,505.37109375,423.828125,571.2890625,0.0
1734411609.6737316,-966.30859375,-914.55078125,965.8203125,-885.7421875,0.0
1734411609.6776478,-963.37890625,979.4921875,770.01953125,828.125,0.0
1734411609.681553,657.71484375,805.6640625,186.03515625,-630.37109375,0.0
1734411609.6854582,-669.43359375,-304.6875,-362.3046875,-1000.0,0.0
1734411609.6893635,505.859375,519.04296875,406.73828125,503.90625,0.0
1734411609.6932688,-929.6875,-932.12890625,922.8515625,-880.859375,0.0
1734411609.697174,-979.4921875,972.65625,767.578125,842.28515625,0.0
1734411609.7010791,698.2421875,866.69921875,219.7265625,-575.68359375,0.0
1734411609.7049844,-647.94921875,-596.19140625,-503.90625,-1000.0,0.0
1734411609.7088897,475.5859375,40.0390625,44.43359375,405.76171875,0.0
1734411609.712795,-915.0390625,-935.05859375,799.8046875,-912.109375,0.0
1734411609.7167003,987.3046875,986.81640625,855.95703125,954.1015625,0.0
1734411609.7206056,803.7109375,865.72265625,344.23828125,-337.40234375,0.0
1734411609.7245204,-688.96484375,-658.69140625,-632.32421875,-1000.0,0.0
1734411609.7284257,250.9765625,-105.95703125,-60.546875,365.72265625,0.0
1734411609.732331,-873.53515625,-945.3125,854.98046875,-967.7734375,0.0
1734411609.7362363,945.80078125,960.44921875,817.3828125,-960.44921875,0.0
1734411609.7401414,887.20703125,926.26953125,372.0703125,579.58984375,0.0
1734411609.7440467,-460.9375,-566.89453125,-491.2109375,-558.10546875,0.0
1734411609.747952,61.03515625,-515.625,-151.85546875,455.078125,0.0
1734411609.7518573,-943.84765625,915.0390625,760.25390625,-958.0078125,0.0
1734411609.7557626,968.75,989.2578125,809.5703125,-990.72265625,0.0
1734411609.7596679,913.57421875,972.65625,471.19140625,804.6875,0.0
1734411609.763573,-716.30859375,-327.63671875,-522.4609375,-708.49609375,0.0
1734411609.7674782,-554.19921875,-738.28125,-431.640625,184.5703125,0.0
1734411609.7713923,939.453125,757.8125,648.92578125,-884.27734375,0.0
1734411609.7752974,-981.93359375,-964.84375,896.484375,967.7734375,0.0
1734411609.7792027,884.27734375,978.515625,565.4296875,880.859375,0.0
1734411609.783108,-681.640625,-289.0625,-519.04296875,-637.20703125,0.0
1734411609.7870133,-823.73046875,-792.48046875,-495.1171875,116.69921875,0.0
1734411609.7909186,775.87890625,692.87109375,564.94140625,-859.86328125,0.0
1734411609.7948236,-927.734375,-907.71484375,881.8359375,911.62109375,0.0
1734411609.798729,851.5625,855.95703125,512.20703125,-967.28515625,0.0
1734411609.8026342,-635.25390625,-620.1171875,-574.70703125,-319.3359375,0.0
1734411609.8065395,-988.28125,-977.5390625,-582.51953125,59.5703125,0.0
1734411609.8104448,590.8203125,646.97265625,472.65625,-846.6796875,0.0
1734411609.8143501,-892.08984375,-967.28515625,892.08984375,866.69921875,0.0
1734411609.818263,845.21484375,987.79296875,700.1953125,-878.41796875,0.0
1734411609.822168,-631.8359375,50.29296875,-358.3984375,68.359375,0.0
1734411609.8260734,-994.62890625,-1000.0,-754.39453125,-145.5078125,0.0
1734411609.8299787,583.49609375,248.046875,216.30859375,-971.6796875,0.0
1734411609.833884,-884.765625,-907.2265625,834.9609375,921.875,0.0
1734411609.8377893,825.68359375,945.3125,636.71875,-898.4375,0.0
1734411609.8416946,-578.125,-202.63671875,-462.890625,-80.56640625,0.0
1734411609.8455997,-1000.0,-1000.0,-1000.0,-848.6328125,0.0
1734411609.849505,322.75390625,39.0625,-35.15625,693.84765625,0.0
1734411609.8534102,-860.3515625,-959.9609375,820.3125,-925.29296875,0.0
1734411609.8573155,808.59375,942.3828125,641.6015625,958.984375,0.0
1734411609.8612208,-514.16015625,-148.92578125,-419.921875,-418.45703125,0.0
1734411609.8651326,-1000.0,-1000.0,-973.14453125,-1000.0,0.0
1734411609.8690379,-187.5,-443.84765625,-231.93359375,580.078125,0.0
1734411609.8729432,-964.35546875,836.9140625,634.27734375,-913.57421875,0.0
1734411609.8768485,868.1640625,-950.1953125,626.953125,934.08203125,0.0
1734411609.8807538,-497.55859375,-1.46484375,-311.5234375,-395.01953125,0.0
1734411609.884659,-1000.0,-1000.0,-1000.0,-1000.0,0.0
1734411609.888564,-666.9921875,-881.8359375,-554.6875,387.20703125,0.0
1734411609.8924694,791.50390625,488.76953125,440.91796875,-922.36328125,0.0
1734411609.8963747,-999.0234375,-859.375,716.796875,984.86328125,0.0
1734411609.90028,-461.42578125,142.08984375,-161.62109375,-165.0390625,0.0
1734411609.9041853,-1000.0,-1000.0,-983.3984375,-1000.0,0.0
1734411609.9080904,-823.2421875,-875.9765625,-580.56640625,150.87890625,0.0
1734411609.9120014,597.65625,591.30859375,519.04296875,-964.35546875,0.0
1734411609.9159067,-906.25,-870.60546875,734.86328125,-968.75,0.0
1734411609.9198117,-352.05078125,35.64453125,-187.98828125,226.07421875,0.0
1734411609.923717,-1000.0,-1000.0,-976.5625,-1000.0,0.0
1734411609.9276223,-838.8671875,-949.21875,-633.7890625,-207.03125,0.0
1734411609.9315276,527.34375,360.3515625,326.66015625,957.51953125,0.0
1734411609.935433,-835.44921875,-838.8671875,582.51953125,-944.82421875,0.0
1734411609.9393382,-82.51953125,476.07421875,128.90625,640.625,0.0
1734411609.9432433,-1000.0,-829.1015625,-809.08203125,-965.8203125,0.0
1734411609.9471486,-858.88671875,-1000.0,-833.0078125,-511.23046875,0.0
1734411609.9510539,495.1171875,226.07421875,262.20703125,911.62109375,0.0
1734411609.9549592,-805.17578125,-857.421875,792.48046875,-959.9609375,0.0
1734411609.9588697,247.55859375,676.7578125,351.5625,819.3359375,0.0
1734411609.962775,-1000.0,-716.30859375,-751.46484375,-769.53125,0.0
1734411609.96668,-986.81640625,-1000.0,-818.84765625,-744.62890625,0.0
1734411609.9705853,344.23828125,112.3046875,282.2265625,821.2890625,0.0
1734411609.9744906,-793.45703125,-869.62890625,806.15234375,-942.3828125,0.0
1734411609.978396,494.62890625,629.39453125,346.6796875,862.3046875,0.0
1734411609.9823012,-861.328125,-742.67578125,-745.60546875,-653.3203125,0.0
1734411609.9862063,-1000.0,-1000.0,-885.25390625,-923.828125,0.0
1734411609.9901116,101.5625,-248.53515625,62.01171875,668.9453125,0.0
1734411609.994017,-830.078125,-996.58203125,724.12109375,-904.78515625,0.0
1734411609.9979222,637.6953125,827.63671875,522.94921875,846.19140625,0.0
1734411610.0018275,-727.5390625,-585.44921875,-539.55078125,-634.27734375,0.0
1734411610.0057452,-1000.0,-1000.0,-1000.0,-994.140625,0.0
1734411610.0096505,-341.30859375,-666.50390625,-216.30859375,583.49609375,0.0
1734411610.0135558,-979.4921875,785.64453125,666.50390625,-888.671875,0.0
1734411610.0174608,784.1796875,911.1328125,555.17578125,841.796875,0.0
1734411610.0213661,-649.4140625,-599.609375,-497.0703125,-630.37109375,0.0
1734411610.0252714,-1000.0,-1000.0,-1000.0,-1000.0,0.0
1734411610.0291767,-659.1796875,-683.10546875,-226.5625,563.4765625,0.0
1734411610.033082,836.42578125,755.37109375,714.84375,-892.08984375,0.0
1734411610.036987,913.57421875,921.38671875,616.2109375,858.3984375,0.0
1734411610.0408924,-598.6328125,-599.12109375,-565.4296875,-538.57421875,0.0
1734411610.0447977,-1000.0,-1000.0,-1000.0,-1000.0,0.0
1734411610.048703,-831.0546875,-820.80078125,-319.82421875,369.62890625,0.0
1734411610.0526197,660.15625,600.5859375,563.4765625,-880.859375,0.0
1734411610.056525,953.61328125,-945.3125,664.0625,874.0234375,0.0
1734411610.06043,-612.79296875,-397.94921875,-227.05078125,-438.96484375,0.0
1734411610.0643353,-1000.0,-1000.0,-993.65234375,-1000.0,0.0
1734411610.0682406,-874.0234375,-936.5234375,-583.49609375,45.8984375,0.0
1734411610.072146,603.515625,382.8125,441.89453125,-925.78125,0.0
1734411610.0760512,963.8671875,-881.34765625,667.96875,908.69140625,0.0
1734411610.0799565,-612.79296875,-195.80078125,-135.25390625,-355.95703125,0.0
1734411610.0838616,-1000.0,-1000.0,-973.6328125,-1000.0,0.0
1734411610.087767,-868.1640625,-980.46875,-704.58984375,-520.5078125,0.0
1734411610.0916722,583.984375,314.94140625,387.6953125,882.8125,0.0
1734411610.0955775,-978.515625,-883.30078125,695.80078125,989.74609375,0.0
1734411610.099493,-542.96875,-271.97265625,-210.9375,-414.0625,0.0
1734411610.1033983,-1000.0,-1000.0,-966.30859375,-1000.0,0.0
1734411610.1073036,-975.5859375,-1000.0,-847.16796875,-843.26171875,0.0
1734411610.111209,361.81640625,-228.515625,6.34765625,619.140625,0.0
1734411610.1151142,-904.296875,-975.5859375,545.8984375,-975.09765625,0.0
1734411610.1190193,-469.23828125,-63.96484375,-134.27734375,-506.34765625,0.0
1734411610.1229246,-1000.0,-1000.0,-922.36328125,-1000.0,0.0
1734411610.1268299,-1000.0,-1000.0,-970.21484375,-894.53125,0.0
1734411610.1307352,32.2265625,-479.98046875,-166.015625,552.24609375,0.0
1734411610.1346405,-867.67578125,955.56640625,616.69921875,-976.07421875,0.0
1734411610.1385455,-317.3828125,379.8828125,116.69921875,-578.61328125,0.0
1734411610.1424508,-1000.0,-907.2265625,-848.14453125,-1000.0,0.0
1734411610.1463652,-1000.0,-1000.0,-1000.0,-1000.0,0.0
1734411610.1502702,-443.359375,-586.42578125,-211.9140625,97.65625,0.0
1734411610.1541755,-952.1484375,869.140625,572.265625,998.046875,0.0
1734411610.1580808,63.4765625,458.984375,163.0859375,-609.375,0.0
1734411610.161986,-1000.0,-891.6015625,-801.26953125,-1000.0,0.0
1734411610.1658914,-1000.0,-1000.0,-1000.0,-1000.0,0.0
1734411610.1697967,-738.28125,-817.87109375,-439.94140625,-465.33203125,0.0
1734411610.1737018,900.87890625,676.26953125,378.90625,858.88671875,0.0
1734411610.177607,495.60546875,641.11328125,208.49609375,-473.14453125,0.0
1734411610.1815124,-946.77734375,-785.64453125,-731.4453125,-1000.0,0.0
1734411610.1854177,-1000.0,-1000.0,-1000.0,-1000.0,0.0
1734411610.189323,-861.328125,-878.41796875,-593.75,-743.65234375,0.0
1734411610.1932364,723.14453125,632.32421875,388.18359375,732.421875,0.0
1734411610.1971414,749.0234375,923.33984375,472.16796875,-327.1484375,0.0
1734411610.2010467,-832.03125,-667.96875,-645.5078125,-1000.0,0.0
1734411610.204952,-1000.0,-1000.0,-1000.0,-1000.0,0.0
1734411610.2088573,-892.08984375,-947.75390625,-546.875,-890.625,0.0
1734411610.2127626,626.46484375,456.0546875,355.46875,652.83203125,0.0
1734411610.216668,875.9765625,941.40625,418.9453125,-122.0703125,0.0
1734411610.220573,-721.6796875,-652.83203125,-667.96875,-1000.0,0.0
1734411610.2244782,-1000.0,-1000.0,-1000.0,-986.81640625,0.0
1734411610.2283835,-877.44140625,-937.5,-601.5625,-936.03515625,0.0
1734411610.2322888,602.5390625,417.48046875,315.91796875,670.8984375,0.0
1734411610.2361941,963.8671875,-958.0078125,565.4296875,201.66015625,0.0
1734411610.2401063,-618.1640625,-490.234375,-385.7421875,-1000.0,0.0
1734411610.2440116,-1000.0,-1000.0,-1000.0,-1000.0,0.0
1734411610.247917,-905.2734375,-986.81640625,-747.0703125,-939.94140625,0.0
1734411610.2518222,555.17578125,227.5390625,248.046875,663.57421875,0.0
1734411610.2557273,973.6328125,-947.265625,622.55859375,740.72265625,0.0
1734411610.2596326,-631.34765625,-399.4140625,-329.1015625,-843.75,0.0
1734411610.263538,-1000.0,-1000.0,-1000.0,-1000.0,0.0
1734411610.2674432,-981.93359375,-1000.0,-780.2734375,-895.99609375,0.0
1734411610.2713485,371.58203125,56.15234375,185.05859375,591.30859375,0.0
1734411610.2752535,-945.3125,-912.109375,645.5078125,959.9609375,0.0
1734411610.2791588,-535.15625,-162.59765625,-178.22265625,-626.953125,0.0
1734411610.2830641,-1000.0,-1000.0,-962.890625,-1000.0,0.0
1734411610.2869751,-1000.0,-1000.0,-835.9375,-904.296875,0.0
1734411610.2908804,167.48046875,-220.703125,38.57421875,541.9921875,0.0
1734411610.2947857,-864.74609375,-957.51953125,562.01171875,-999.51171875,0.0
1734411610.2986908,-376.46484375,139.6484375,-1.46484375,-585.9375,0.0
1734411610.302596,-1000.0,-959.47265625,-847.65625,-1000.0,0.0
1734411610.3065014,-1000.0,-1000.0,-978.515625,-956.0546875,0.0
1734411610.3104067,-310.05859375,-860.3515625,-400.87890625,398.4375,0.0
1734411610.314312,-910.15625,696.2890625,495.60546875,-910.64453125,0.0
1734411610.3182173,-6.8359375,654.296875,320.3125,-472.65625,0.0
1734411610.3221223,-1000.0,-825.1953125,-784.66796875,-1000.0,0.0
1734411610.3260276,-1000.0,-1000.0,-1000.0,-1000.0,0.0
1734411610.329933,-583.0078125,-602.5390625,-191.40625,56.15234375,0.0
1734411610.333843,-999.51171875,849.609375,608.3984375,-892.578125,0.0
1734411610.3377483,371.58203125,655.76171875,315.91796875,-379.39453125,0.0
1734411610.3416533,-965.8203125,-787.59765625,-731.93359375,-1000.0,0.0
1734411610.3455586,-1000.0,-1000.0,-1000.0,-1000.0,0.0
1734411610.349464,-775.87890625,-755.859375,-317.3828125,-425.29296875,0.0
1734411610.3533692,834.47265625,715.8203125,462.890625,-987.3046875,0.0
1734411610.3572745,693.84765625,861.328125,307.12890625,-144.04296875,0.0
1734411610.3611796,-854.98046875,-666.015625,-658.203125,-1000.0,0.0
1734411610.365085,-1000.0,-1000.0,-1000.0,-1000.0,0.0
1734411610.3689902,-881.8359375,-892.578125,-585.44921875,-755.37109375,0.0
1734411610.3728955,655.2734375,568.359375,372.55859375,749.0234375,0.0
1734411610.3768008,836.42578125,973.14453125,470.21484375,-243.1640625,0.0
1734411610.3807182,-759.27734375,-610.3515625,-576.171875,-1000.0,0.0
1734411610.3846233,-1000.0,-1000.0,-1000.0,-1000.0,0.0
1734411610.3885286,-876.46484375,-957.51953125,-645.01953125,-887.6953125,0.0
1734411610.392434,609.86328125,388.671875,265.625,569.82421875,0.0
1734411610.3963392,830.078125,864.2578125,281.25,-268.5546875,0.0
1734411610.4002445,-693.359375,-651.3671875,-671.38671875,-1000.0,0.0
1734411610.4041498,-1000.0,-1000.0,-1000.0,-925.78125,0.0
1734411610.4080548,-905.76171875,-964.35546875,-718.26171875,-1000.0,0.0
1734411610.4119601,571.2890625,311.03515625,153.3203125,109.375,0.0
1734411610.4158654,971.6796875,-941.40625,298.828125,-230.95703125,0.0
1734411610.4197707,-629.39453125,-399.4140625,-527.83203125,-1000.0,0.0
1734411610.423676,-1000.0,-1000.0,-1000.0,-906.25,0.0
1734411610.4275925,-978.02734375,-1000.0,-885.25390625,-1000.0,0.0
1734411610.4314976,415.52734375,47.36328125,-76.66015625,-100.5859375,0.0
1734411610.4354029,995.60546875,-895.01953125,523.92578125,-8.7890625,0.0
1734411610.4393082,-632.8125,-22.4609375,-253.90625,-1000.0,0.0
1734411610.4432135,-1000.0,-997.55859375,-973.6328125,-918.9453125,0.0
1734411610.4471188,-1000.0,-1000.0,-955.56640625,-1000.0,0.0
1734411610.4510238,186.03515625,-242.1875,-134.765625,-465.33203125,0.0
1734411610.454929,-940.4296875,-977.05078125,540.0390625,104.98046875,0.0
1734411610.4588344,-533.69140625,-8.30078125,-248.046875,-983.3984375,0.0
1734411610.4627397,-1000.0,-1000.0,-986.81640625,-989.74609375,0.0
1734411610.466645,-1000.0,-1000.0,-953.61328125,-1000.0,0.0
1734411610.4705503,-212.890625,-437.5,-244.62890625,-755.859375,0.0
1734411610.4744658,-951.66015625,967.28515625,461.42578125,-27.83203125,0.0
1734411610.4783711,-331.54296875,351.5625,-54.19921875,-875.0,0.0
1734411610.4822764,-1000.0,-927.24609375,-899.4140625,-1000.0,0.0
1734411610.4861815,-1000.0,-1000.0,-1000.0,-1000.0,0.0
1734411610.4900868,-479.4921875,-540.0390625,-360.83984375,-715.8203125,0.0
1734411610.493992,-981.4453125,861.81640625,398.4375,221.19140625,0.0
1734411610.4978974,33.69140625,574.21875,63.96484375,-746.09375,0.0
1734411610.5018027,-1000.0,-797.36328125,-821.77734375,-1000.0,0.0
1734411610.505708,-1000.0,-1000.0,-1000.0,-1000.0,0.0
1734411610.509613,-760.25390625,-687.5,-437.98828125,-852.5390625,0.0
1734411610.5135183,885.7421875,792.96875,451.171875,399.4140625,0.0
1734411610.5174236,507.32421875,817.3828125,250.48828125,-543.9453125,0.0
1734411610.5213377,-943.359375,-704.1015625,-773.92578125,-1000.0,0.0
1734411610.525243,-1000.0,-1000.0,-1000.0,-1000.0,0.0
1734411610.5291483,-834.9609375,-763.671875,-494.140625,-854.00390625,0.0
1734411610.5330536,735.83984375,702.1484375,355.95703125,457.03125,0.0
1734411610.536959,684.08203125,819.82421875,302.734375,-494.140625,0.0
1734411610.540864,-832.03125,-681.640625,-705.56640625,-1000.0,0.0
1734411610.5447693,-1000.0,-1000.0,-1000.0,-1000.0,0.0
1734411610.5486746,-888.671875,-978.02734375,-702.63671875,-897.94921875,0.0
1734411610.5525799,616.2109375,333.49609375,130.37109375,580.078125,0.0
1734411610.5564852,937.01171875,-949.70703125,487.79296875,-264.6484375,0.0
1734411610.5603905,-645.99609375,-425.78125,-511.71875,-1000.0,0.0
1734411610.5642955,-1000.0,-1000.0,-1000.0,-977.5390625,0.0
1734411610.5682094,-875.0,-895.99609375,-635.7421875,-942.3828125,0.0
1734411610.5721145,603.515625,523.4375,338.37890625,669.921875,0.0
1734411610.5760198,962.890625,-939.94140625,527.83203125,179.19921875,0.0
1734411610.579925,-615.234375,-452.1484375,-499.0234375,-1000.0,0.0
1734411610.5838304,-1000.0,-1000.0,-1000.0,-997.55859375,0.0
1734411610.5877357,-877.9296875,-946.2890625,-766.6015625,-939.94140625,0.0
1734411610.591641,585.44921875,275.390625,89.84375,654.78515625,0.0
1734411610.595546,991.2109375,-883.30078125,389.16015625,802.734375,0.0
1734411610.5994513,-584.9609375,-64.453125,-333.0078125,-794.43359375,0.0
1734411610.6033566,-1000.0,-1000.0,-960.9375,-1000.0,0.0
1734411610.607262,-922.36328125,-1000.0,-879.39453125,-893.06640625,0.0
1734411610.6111672,443.359375,138.18359375,21.484375,588.37890625,0.0
1734411610.6150799,-885.7421875,-855.46875,640.13671875,961.9140625,0.0
1734411610.6189852,-388.671875,420.8984375,23.92578125,-623.046875,0.0
1734411610.6228902,-1000.0,-861.328125,-893.5546875,-1000.0,0.0
1734411610.6267955,-975.5859375,-1000.0,-877.9296875,-892.578125,0.0
1734411610.6307008,257.32421875,137.6953125,64.94140625,544.43359375,0.0
1734411610.6346061,-799.31640625,-861.328125,626.46484375,-971.19140625,0.0
1734411610.6385114,-65.91796875,456.54296875,77.63671875,-529.296875,0.0
1734411610.6424167,-1000.0,-842.28515625,-848.6328125,-1000.0,0.0
1734411610.6463218,-1000.0,-1000.0,-922.8515625,-925.29296875,0.0
1734411610.650227,31.25,-91.30859375,-70.80078125,419.921875,0.0
1734411610.6541324,-798.33984375,-926.26953125,586.9140625,-976.5625,0.0
1734411610.6580377,316.89453125,699.70703125,227.5390625,-427.734375,0.0
1734411610.6619492,-917.96875,-678.7109375,-746.09375,-1000.0,0.0
1734411610.6658545,-1000.0,-1000.0,-1000.0,-1000.0,0.0
1734411610.6697598,-359.86328125,-610.3515625,-384.765625,39.0625,0.0
1734411610.6736648,-929.19921875,823.73046875,500.0,-932.12890625,0.0
1734411610.67757,589.84375,883.7890625,375.48828125,-459.9609375,0.0
1734411610.6814754,-826.66015625,-628.90625,-745.1171875,-1000.0,0.0
1734411610.6853807,-1000.0,-1000.0,-1000.0,-1000.0,0.0
1734411610.689286,-673.33984375,-594.23828125,-429.19921875,-666.9921875,0.0
1734411610.6931913,887.20703125,821.2890625,475.5859375,720.21484375,0.0
1734411610.6970963,747.0703125,878.90625,372.0703125,-455.078125,0.0
1734411610.7010016,-782.71484375,-628.41796875,-748.046875,-1000.0,0.0
1734411610.704907,-1000.0,-1000.0,-1000.0,-1000.0,0.0
1734411610.708817,-813.4765625,-739.74609375,-536.62109375,-867.67578125,0.0
1734411610.7127223,708.0078125,705.56640625,343.75,524.90234375,0.0
1734411610.7166276,895.5078125,964.35546875,375.48828125,-390.625,0.0
1734411610.720533,-675.78125,-571.2890625,-683.10546875,-1000.0,0.0
1734411610.7244382,-1000.0,-1000.0,-1000.0,-998.046875,0.0
1734411610.7283435,-875.9765625,-949.21875,-770.5078125,-907.2265625,0.0
1734411610.7322485,603.02734375,344.7265625,61.5234375,598.6328125,0.0
1734411610.7361538,962.890625,-899.90234375,498.046875,-207.51953125,0.0
1734411610.7400591,-614.2578125,-245.1171875,-480.46875,-1000.0,0.0
1734411610.7439644,-1000.0,-1000.0,-1000.0,-964.35546875,0.0
1734411610.7478697,-874.0234375,-898.92578125,-706.0546875,-970.703125,0.0
1734411610.751775,604.00390625,500.0,280.2734375,652.83203125,0.0
1734411610.7556922,963.37890625,-879.39453125,551.7578125,362.79296875,0.0
1734411610.7595975,-615.72265625,-192.3828125,-485.83984375,-1000.0,0.0
1734411610.7635028,-1000.0,-1000.0,-1000.0,-1000.0,0.0
1734411610.7674081,-869.140625,-923.33984375,-782.71484375,-934.5703125,0.0
1734411610.7713132,555.17578125,383.7890625,116.2109375,600.09765625,0.0
1734411610.7752185,950.1953125,-875.9765625,439.94140625,787.109375,0.0
1734411610.7791238,-524.90234375,95.703125,-288.0859375,-744.140625,0.0
1734411610.783029,-1000.0,-924.8046875,-926.26953125,-1000.0,0.0
1734411610.7869344,-944.3359375,-1000.0,-905.2734375,-888.18359375,0.0
1734411610.7908397,375.0,-248.046875,-179.19921875,584.47265625,0.0
1734411610.7947447,-832.51953125,-965.8203125,614.2578125,998.53515625,0.0
1734411610.79865,-213.37890625,644.04296875,154.296875,-560.05859375,0.0
1734411610.8025665,-1000.0,-812.98828125,-864.2578125,-1000.0,0.0
1734411610.8064718,-966.30859375,-1000.0,-879.39453125,-822.265625,0.0
1734411610.8103771,254.39453125,229.00390625,108.3984375,503.90625,0.0
1734411610.8142824,-778.80859375,-861.328125,708.0078125,-818.84765625,0.0
1734411610.8181877,260.25390625,704.58984375,258.7890625,115.234375,0.0
1734411610.822093,-971.19140625,-706.0546875,-783.69140625,-1000.0,0.0
1734411610.825998,-1000.0,-1000.0,-913.57421875,-858.3984375,0.0
1734411610.8299034,106.4453125,88.8671875,46.875,528.3203125,0.0
1734411610.8338087,-810.546875,-921.875,628.90625,-864.2578125,0.0
1734411610.837714,586.42578125,837.890625,316.40625,784.66796875,0.0
1734411610.8416193,-786.1328125,-507.8125,-600.5859375,-708.0078125,0.0
1734411610.8455245,-1000.0,-1000.0,-937.01171875,-987.79296875,0.0
1734411610.8494399,-175.78125,-353.02734375,-163.57421875,619.62890625,0.0
1734411610.8533452,-935.05859375,922.36328125,715.8203125,-959.47265625,0.0
1734411610.8572502,810.546875,943.84765625,626.953125,-968.26171875,0.0
1734411610.8611555,-617.67578125,-446.2890625,-501.46484375,-234.86328125,0.0
1734411610.8650608,-1000.0,-1000.0,-868.1640625,-614.74609375,0.0
1734411610.868966,-193.84765625,-340.33203125,-67.3828125,926.26953125,0.0
1734411610.8728714,-957.51953125,899.90234375,778.80859375,-983.3984375,0.0
1734411610.8767767,856.4453125,-989.74609375,749.0234375,917.48046875,0.0
1734411610.8806818,-564.453125,-287.109375,-417.48046875,982.91015625,0.0
1734411610.884587,-1000.0,-1000.0,-803.7109375,969.7265625,0.0
1734411610.8884923,-184.08203125,-169.43359375,108.88671875,969.7265625,0.0
1734411610.8923976,969.23828125,904.78515625,789.0625,969.7265625,0.0
1734411610.896312,-970.21484375,-955.56640625,795.41015625,969.7265625,0.0
1734411610.9002173,-188.96484375,705.56640625,290.0390625,969.7265625,0.0
1734411610.9041224,-1000.0,-811.03515625,-428.22265625,969.7265625,0.0
1734411610.9080276,-172.8515625,-417.48046875,59.5703125,969.7265625,0.0
1734411610.911933,925.78125,913.57421875,816.40625,969.7265625,0.0
1734411610.9158382,-921.38671875,-971.6796875,835.44921875,969.7265625,0.0
1734411610.9197435,530.76171875,854.4921875,447.265625,969.7265625,0.0
1734411610.9236488,-1000.0,-691.89453125,-452.63671875,970.21484375,0.0
1734411610.927554,-356.93359375,-485.83984375,-92.7734375,970.21484375,0.0
1734411610.9314592,963.37890625,966.796875,835.9375,969.7265625,0.0
1734411610.9353645,-985.83984375,976.5625,880.37109375,969.7265625,0.0
1734411610.9392698,883.7890625,970.703125,613.76953125,969.7265625,0.0
1734411610.943183,-707.03125,151.85546875,-7.32421875,969.7265625,0.0
1734411610.9470882,-432.6171875,89.35546875,252.9296875,969.7265625,0.0
1734411610.9509935,-995.60546875,979.98046875,815.4296875,969.7265625,0.0
1734411610.9548988,990.72265625,964.35546875,875.48828125,969.7265625,0.0
1734411610.958804,852.05078125,-995.60546875,637.6953125,969.7265625,0.0
1734411610.9627092,-595.703125,424.31640625,20.01953125,969.7265625,0.0
1734411610.9666145,-276.85546875,248.53515625,180.17578125,969.7265625,0.0
1734411610.9705198,-907.2265625,962.890625,735.3515625,969.7265625,0.0
1734411610.974425,923.33984375,980.95703125,901.3671875,969.7265625,0.0
1734411610.9783304,-998.53515625,966.796875,786.1328125,969.7265625,0.0
1734411610.9822354,786.1328125,911.62109375,332.03125,969.7265625,0.0
1734411610.9861407,698.2421875,844.23828125,376.46484375,969.7265625,0.0
1734411610.990053,-994.62890625,974.12109375,808.59375,969.7265625,0.0
1734411610.993958,966.30859375,973.6328125,907.71484375,969.7265625,0.0
1734411610.9978633,962.890625,965.8203125,819.3359375,969.7265625,0.0
1734411611.0017686,969.23828125,966.796875,461.42578125,969.7265625,0.0
1734411611.005674,969.23828125,964.84375,374.0234375,969.7265625,0.0
1734411611.0095792,969.23828125,970.21484375,765.625,969.7265625,0.0
1734411611.0134845,969.23828125,969.23828125,887.20703125,969.7265625,0.0
1734411611.0173895,969.23828125,970.21484375,820.3125,969.7265625,0.0
1734411611.0212948,969.23828125,968.26171875,529.296875,969.7265625,0.0
1734411611.0252001,969.23828125,966.796875,346.6796875,969.7265625,0.0
1734411611.0291054,970.703125,974.609375,723.14453125,969.7265625,0.0
1734411611.0330107,963.8671875,947.75390625,899.4140625,969.7265625,0.0
1734411611.0369222,978.02734375,-999.0234375,864.2578125,969.7265625,0.0
1734411611.0408275,956.0546875,931.15234375,503.90625,969.7265625,0.0
1734411611.0447328,892.578125,526.3671875,59.08203125,969.7265625,0.0
1734411611.048638,971.19140625,809.08203125,533.69140625,969.7265625,0.0
1734411611.0525434,903.80859375,996.09375,916.015625,969.7265625,0.0
1734411611.0564485,-924.31640625,-993.1640625,813.96484375,969.7265625,0.0
1734411611.0603538,807.12890625,775.390625,232.421875,969.7265625,0.0
1734411611.064259,-487.79296875,187.5,-190.4296875,969.7265625,0.0
1734411611.0681643,462.890625,739.2578125,427.24609375,969.7265625,0.0
1734411611.0720696,-904.296875,-973.14453125,845.703125,969.7265625,0.0
1734411611.075975,967.7734375,947.265625,824.70703125,969.7265625,0.0
1734411611.07988,875.48828125,976.07421875,518.5546875,969.7265625,0.0
1734411611.0837908,-631.8359375,196.77734375,-106.93359375,969.7265625,0.0
1734411611.0876958,185.05859375,353.02734375,206.54296875,969.7265625,0.0
1734411611.0916011,-878.90625,-998.53515625,785.15625,969.7265625,0.0
1734411611.0955064,951.171875,953.61328125,845.703125,969.7265625,0.0
1734411611.0994117,905.2734375,-992.1875,563.4765625,969.7265625,0.0
1734411611.103317,-698.73046875,-221.6796875,-356.4453125,969.7265625,0.0
1734411611.1072223,-154.296875,-389.6484375,-117.67578125,969.7265625,0.0
1734411611.1111274,-922.8515625,927.734375,770.5078125,969.7265625,0.0
1734411611.1150327,954.1015625,993.1640625,846.6796875,969.7265625,0.0
1734411611.118938,955.56640625,964.35546875,581.54296875,969.7265625,0.0
1734411611.1228433,-625.48828125,315.91796875,-83.0078125,969.7265625,0.0
1734411611.1267486,-438.4765625,98.14453125,44.921875,969.7265625,0.0
1734411611.1306663,-978.515625,906.73828125,695.3125,969.7265625,0.0
1734411611.1345716,944.82421875,978.02734375,872.55859375,969.7265625,0.0
1734411611.1384768,-944.3359375,-988.28125,703.61328125,969.7265625,0.0
1734411611.142382,-261.23046875,398.92578125,-34.66796875,969.7265625,0.0
1734411611.1462872,-352.5390625,-6.34765625,-39.55078125,969.7265625,0.0
1734411611.1501925,-950.1953125,859.86328125,629.8828125,969.7265625,0.0
1734411611.1540978,968.75,989.74609375,862.3046875,969.7265625,0.0
1734411611.158003,937.01171875,989.74609375,800.29296875,969.7265625,0.0
1734411611.1619084,977.5390625,875.9765625,343.75,969.7265625,0.0
1734411611.1658134,969.23828125,327.1484375,129.8828125,969.7265625,0.0
1734411611.1697187,969.23828125,795.8984375,708.984375,969.7265625,0.0
1734411611.173624,968.75,-952.1484375,927.734375,969.7265625,0.0
1734411611.1775408,968.75,930.17578125,817.87109375,969.23828125,0.0
1734411611.181446,968.75,976.07421875,515.13671875,969.7265625,0.0
1734411611.1853511,969.23828125,966.30859375,397.4609375,969.7265625,0.0
1734411611.1892564,969.23828125,970.21484375,750.0,969.7265625,0.0
1734411611.1931617,969.23828125,969.23828125,877.9296875,969.7265625,0.0
1734411611.197067,969.23828125,970.703125,814.94140625,969.7265625,0.0
1734411611.2009723,969.23828125,966.796875,530.76171875,969.7265625,0.0
1734411611.2048776,969.23828125,963.37890625,349.609375,969.7265625,0.0
1734411611.2087827,968.75,971.19140625,611.328125,969.23828125,0.0
1734411611.212688,968.75,961.42578125,821.2890625,969.7265625,0.0
1734411611.2165933,969.23828125,979.98046875,872.0703125,969.7265625,0.0
1734411611.2204986,969.23828125,962.40234375,566.40625,969.7265625,0.0
1734411611.2244143,969.23828125,793.45703125,210.44921875,969.7265625,0.0
1734411611.2283196,969.23828125,899.90234375,592.28515625,969.7265625,0.0
1734411611.232225,969.23828125,990.234375,884.765625,969.7265625,0.0
1734411611.23613,969.23828125,964.84375,826.66015625,969.7265625,0.0
1734411611.2400353,969.23828125,967.28515625,542.96875,969.7265625,0.0
1734411611.2439406,969.23828125,817.87109375,190.4296875,969.7265625,0.0
1734411611.247846,969.23828125,896.97265625,508.30078125,969.7265625,0.0
1734411611.2517512,969.23828125,993.1640625,845.703125,969.7265625,0.0
1734411611.2556565,969.23828125,959.9609375,859.375,969.7265625,0.0
1734411611.2595615,969.23828125,971.19140625,718.26171875,969.7265625,0.0
1734411611.2634668,969.23828125,967.7734375,372.55859375,969.7265625,0.0
1734411611.2673721,969.23828125,968.75,536.1328125,969.7265625,0.0
1734411611.2712865,968.75,969.7265625,824.70703125,969.7265625,0.0
1734411611.2751918,968.75,969.23828125,903.3203125,969.7265625,0.0
1734411611.279097,969.23828125,972.16796875,749.51171875,969.7265625,0.0
1734411611.2830024,969.23828125,950.1953125,319.82421875,969.7265625,0.0
1734411611.2869077,968.75,952.63671875,473.6328125,969.7265625,0.0
1734411611.290813,968.75,966.796875,803.22265625,969.7265625,0.0
1734411611.294718,969.23828125,980.95703125,910.15625,969.7265625,0.0
1734411611.2986233,969.23828125,946.2890625,693.84765625,969.7265625,0.0
1734411611.3025286,969.23828125,871.09375,182.6171875,969.7265625,0.0
1734411611.306434,969.23828125,951.66015625,395.99609375,969.7265625,0.0
1734411611.3103392,969.23828125,979.4921875,776.3671875,969.7265625,0.0
1734411611.3142445,969.23828125,962.40234375,870.60546875,969.7265625,0.0
1734411611.318158,968.75,975.5859375,763.671875,969.7265625,0.0
1734411611.3220632,968.75,953.125,375.0,969.23828125,0.0
1734411611.3259685,969.23828125,938.96484375,299.31640625,969.7265625,0.0
1734411611.3298738,979.98046875,981.4453125,601.5625,969.7265625,0.0
1734411611.3337789,920.41015625,917.96875,848.14453125,969.23828125,0.0
1734411611.3376842,-947.75390625,-956.0546875,777.83203125,969.23828125,0.0
1734411611.3415895,828.125,856.93359375,227.05078125,969.7265625,0.0
1734411611.3454947,191.89453125,-145.5078125,-262.20703125,969.7265625,0.0
1734411611.3494,822.75390625,538.0859375,401.85546875,971.19140625,0.0
1734411611.3533053,974.12109375,-912.109375,909.66796875,963.8671875,0.0
1734411611.3572104,-937.98828125,954.1015625,741.69921875,985.3515625,0.0
1734411611.3611157,696.2890625,893.06640625,268.06640625,923.33984375,0.0
1734411611.3650284,-627.9296875,233.3984375,-95.703125,894.04296875,0.0
1734411611.3689334,488.76953125,694.3359375,371.09375,992.67578125,0.0
1734411611.3728387,-924.8046875,-993.1640625,782.2265625,885.7421875,0.0
1734411611.376744,-974.12109375,986.328125,733.3984375,-861.328125,0.0
1734411611.3806493,591.796875,863.76953125,224.609375,520.5078125,0.0
1734411611.3845546,-901.3671875,-638.18359375,-421.38671875,-439.94140625,0.0
1734411611.38846,240.72265625,-398.4375,-147.4609375,741.2109375,0.0
1734411611.392365,-889.16015625,882.32421875,518.5546875,-961.42578125,0.0
1734411611.3962703,983.88671875,-958.0078125,674.31640625,-955.078125,0.0
1734411611.4001756,298.828125,690.4296875,135.7421875,6.34765625,0.0
1734411611.4040809,-1000.0,-799.31640625,-671.38671875,-966.796875,0.0
1734411611.4079862,-650.87890625,-716.796875,-365.72265625,521.97265625,0.0
1734411611.411898,864.2578125,781.73828125,498.53515625,-869.140625,0.0
1734411611.415803,-959.9609375,-915.52734375,575.68359375,866.2109375,0.0
1734411611.4197083,-321.2890625,80.56640625,-321.77734375,-353.515625,0.0
1734411611.4236135,-1000.0,-979.00390625,-918.45703125,-1000.0,0.0
1734411611.4275188,-897.94921875,-1000.0,-657.2265625,-370.60546875,0.0
1734411611.4314241,586.9140625,162.59765625,-101.07421875,988.28125,0.0
1734411611.4353294,982.421875,852.05078125,13.18359375,864.74609375,0.0
1734411611.4392345,-688.96484375,-440.91796875,-541.50390625,-585.9375,0.0
1734411611.4431398,-1000.0,-1000.0,-941.40625,-1000.0,0.0
1734411611.447045,-1000.0,-1000.0,-973.14453125,-923.33984375,0.0
1734411611.4509504,-715.33203125,-584.9609375,-506.34765625,584.47265625,0.0
1734411611.4548557,334.47265625,547.36328125,-43.45703125,414.55078125,0.0
1734411611.458766,-727.5390625,-475.5859375,-573.73046875,-1000.0,0.0
1734411611.4626713,-1000.0,-1000.0,-1000.0,-995.1171875,0.0
1734411611.4665766,-920.8984375,-973.6328125,-995.60546875,-964.35546875,0.0
1734411611.4704816,-1000.0,-939.453125,-713.8671875,-1000.0,0.0
1734411611.474387,-1000.0,-366.2109375,-383.7890625,-1000.0,0.0
1734411611.4782922,-1000.0,-773.4375,-764.16015625,-1000.0,0.0
1734411611.4821975,-1000.0,-1000.0,-1000.0,-1000.0,0.0
1734411611.4861028,-1000.0,-960.44921875,-995.60546875,-1000.0,0.0
1734411611.490008,-1000.0,-1000.0,-882.8125,-1000.0,0.0
1734411611.4939132,-1000.0,-1000.0,-659.66796875,-1000.0,0.0
1734411611.4978185,-1000.0,-1000.0,-794.43359375,-1000.0,0.0
1734411611.5017238,-1000.0,-1000.0,-990.72265625,-1000.0,0.0
1734411611.5056412,-1000.0,-1000.0,-1000.0,-1000.0,0.0
1734411611.5095465,-1000.0,-1000.0,-956.0546875,-1000.0,0.0
1734411611.5134518,-1000.0,-1000.0,-742.67578125,-1000.0,0.0
1734411611.5173569,-1000.0,-1000.0,-857.421875,-1000.0,0.0
1734411611.5212622,-1000.0,-1000.0,-1000.0,-1000.0,0.0
1734411611.5251675,-1000.0,-1000.0,-996.58203125,-1000.0,0.0
1734411611.5290728,-1000.0,-1000.0,-974.609375,-1000.0,0.0
1734411611.532978,-1000.0,-1000.0,-739.74609375,-1000.0,0.0
1734411611.5368834,-1000.0,-1000.0,-771.484375,-1000.0,0.0
1734411611.5407884,-1000.0,-1000.0,-986.81640625,-1000.0,0.0
1734411611.5446937,-1000.0,-1000.0,-1000.0,-1000.0,0.0
1734411611.548599,-1000.0,-1000.0,-984.86328125,-1000.0,0.0
1734411611.5525153,-1000.0,-1000.0,-700.1953125,-1000.0,0.0
1734411611.5564206,-1000.0,-1000.0,-597.65625,-1000.0,0.0
1734411611.5603259,-1000.0,-1000.0,-925.78125,-1000.0,0.0
1734411611.5642312,-1000.0,-979.4921875,-1000.0,-1000.0,0.0
1734411611.5681365,-1000.0,-1000.0,-937.98828125,-1000.0,0.0
1734411611.5720415,-1000.0,-753.90625,-519.04296875,-1000.0,0.0
1734411611.5759468,-1000.0,-489.2578125,-339.35546875,-1000.0,0.0
1734411611.579852,-1000.0,-928.7109375,-844.7265625,-1000.0,0.0
1734411611.5837574,-999.0234375,-982.421875,-1000.0,-1000.0,0.0
1734411611.5876627,-1000.0,-1000.0,-920.8984375,-1000.0,0.0
1734411611.591568,-988.28125,-332.51953125,-285.15625,-1000.0,0.0
1734411611.595473,-979.98046875,566.40625,129.39453125,-1000.0,0.0
1734411611.5993886,-1000.0,-669.921875,-716.796875,-1000.0,0.0
1734411611.603294,-921.38671875,-1000.0,-1000.0,-1000.0,0.0
1734411611.6071992,-1000.0,-1000.0,-885.25390625,-1000.0,0.0
1734411611.6111045,-615.72265625,-523.92578125,-384.765625,-1000.0,0.0
1734411611.6150098,236.81640625,420.8984375,49.8046875,-1000.0,0.0
1734411611.6189148,-854.00390625,-603.02734375,-577.63671875,-1000.0,0.0
1734411611.6228201,-1000.0,-1000.0,-1000.0,-977.05078125,0.0
1734411611.6267254,-1000.0,-1000.0,-937.98828125,-1000.0,0.0
1734411611.6306307,-494.140625,-543.45703125,-316.89453125,-815.4296875,0.0
1734411611.634536,771.97265625,890.625,390.13671875,-688.4765625,0.0
1734411611.6384413,-561.5234375,89.35546875,-189.94140625,-1000.0,0.0
1734411611.6423464,-1000.0,-1000.0,-949.70703125,-922.36328125,0.0
1734411611.6462615,-1000.0,-1000.0,-949.70703125,-1000.0,0.0
1734411611.6501667,-412.109375,-282.71484375,-168.45703125,-364.2578125,0.0
1734411611.654072,903.3203125,-984.86328125,504.39453125,561.03515625,0.0
1734411611.6579773,-445.80078125,345.21484375,-2.44140625,-797.36328125,0.0
1734411611.6618824,-1000.0,-896.484375,-837.40234375,-1000.0,0.0
1734411611.6657877,-1000.0,-1000.0,-930.6640625,-1000.0,0.0
1734411611.669693,-468.26171875,-434.08203125,-196.2890625,-204.58984375,0.0
1734411611.6735983,-984.86328125,894.04296875,444.3359375,873.53515625,0.0
1734411611.6775036,-86.42578125,604.98046875,119.62890625,-609.86328125,0.0
1734411611.681409,-1000.0,-732.421875,-703.125,-1000.0,0.0
1734411611.6853142,-1000.0,-1000.0,-930.6640625,-1000.0,0.0
1734411611.6892192,-603.515625,-567.87109375,-287.59765625,-282.2265625,0.0
1734411611.6931324,998.046875,829.58984375,520.99609375,921.38671875,0.0
1734411611.6970377,528.80859375,926.7578125,455.078125,-505.37109375,0.0
1734411611.700943,-895.5078125,-556.15234375,-594.23828125,-1000.0,0.0
1734411611.704848,-1000.0,-1000.0,-987.79296875,-1000.0,0.0
1734411611.7087533,-664.55078125,-458.49609375,-212.40234375,-462.40234375,0.0
1734411611.7126586,892.08984375,873.046875,549.31640625,-970.703125,0.0
1734411611.716564,782.71484375,911.62109375,425.29296875,21.484375,0.0
1734411611.7204692,-739.2578125,-539.55078125,-626.46484375,-1000.0,0.0
1734411611.7243745,-1000.0,-1000.0,-988.76953125,-1000.0,0.0
1734411611.7282798,-770.5078125,-649.90234375,-314.453125,-551.26953125,0.0
1734411611.732185,736.81640625,682.12890625,465.8203125,-995.1171875,0.0
1734411611.7360902,929.19921875,-931.15234375,567.3828125,535.64453125,0.0
1734411611.740003,-621.09375,-107.91015625,-295.41015625,-881.34765625,0.0
1734411611.7439084,-1000.0,-1000.0,-915.0390625,-1000.0,0.0
1734411611.7478137,-867.67578125,-792.96875,-451.66015625,-708.984375,0.0
1734411611.751719,612.79296875,634.27734375,454.58984375,850.5859375,0.0
1734411611.7556243,960.9375,-914.55078125,601.07421875,779.296875,0.0
1734411611.7595294,-614.2578125,-113.28125,-277.34375,-758.30078125,0.0
1734411611.7634346,-1000.0,-1000.0,-978.515625,-1000.0,0.0
1734411611.76734,-874.0234375,-837.40234375,-592.28515625,-827.63671875,0.0
1734411611.7712452,603.515625,568.84765625,379.39453125,684.08203125,0.0
1734411611.7751505,963.8671875,-863.76953125,614.74609375,905.2734375,0.0
1734411611.7790558,-619.140625,43.45703125,-200.1953125,-666.50390625,0.0
1734411611.7829611,-1000.0,-1000.0,-930.6640625,-1000.0,0.0
1734411611.7868724,-908.203125,-979.98046875,-641.6015625,-878.90625,0.0
1734411611.7907777,530.76171875,308.10546875,222.16796875,613.28125,0.0
1734411611.794683,-984.86328125,-856.93359375,509.765625,932.12890625,0.0
1734411611.7985883,-591.796875,188.96484375,-111.328125,-666.9921875,0.0
1734411611.8024936,-1000.0,-894.04296875,-849.609375,-1000.0,0.0
1734411611.8063986,-1000.0,-1000.0,-860.3515625,-957.03125,0.0
1734411611.810304,152.83203125,-405.2734375,-246.58203125,487.3046875,0.0
1734411611.8142092,-942.87109375,903.80859375,457.03125,933.59375,0.0
1734411611.8181145,-541.015625,519.04296875,89.35546875,-745.1171875,0.0
1734411611.8220198,-1000.0,-840.33203125,-854.4921875,-1000.0,0.0
1734411611.825925,-1000.0,-1000.0,-915.52734375,-1000.0,0.0
1734411611.8298302,-484.375,-279.78515625,-156.73828125,-299.8046875,0.0
1734411611.8337407,894.04296875,998.046875,476.5625,666.50390625,0.0
1734411611.8376458,-406.73828125,380.859375,10.7421875,-774.90234375,0.0
1734411611.841551,-1000.0,-872.0703125,-854.4921875,-1000.0,0.0
1734411611.8454564,-1000.0,-1000.0,-968.75,-1000.0,0.0
1734411611.8493617,-826.171875,-663.0859375,-400.87890625,-837.40234375,0.0
1734411611.853267,681.15234375,771.484375,290.52734375,70.3125,0.0
1734411611.8571723,-252.44140625,464.84375,78.125,-745.60546875,0.0
1734411611.8610775,-1000.0,-843.75,-781.73828125,-1000.0,0.0
1734411611.8649826,-989.2578125,-1000.0,-1000.0,-931.640625,0.0
1734411611.868888,-922.8515625,-944.82421875,-576.171875,-1000.0,0.0
1734411611.8727932,646.97265625,555.17578125,256.34765625,-1000.0,0.0
1734411611.8766985,-20.5078125,883.7890625,261.71875,-1000.0,0.0
1734411611.8806164,-1000.0,-714.35546875,-739.74609375,-1000.0,0.0
1734411611.8845217,-991.69921875,-1000.0,-1000.0,-1000.0,0.0
1734411611.8884268,-942.3828125,-950.68359375,-689.94140625,-1000.0,0.0
1734411611.892332,659.1796875,454.1015625,33.69140625,-1000.0,0.0
1734411611.8962374,242.1875,901.85546875,160.15625,-1000.0,0.0
1734411611.9001427,-1000.0,-682.6171875,-755.37109375,-1000.0,0.0
1734411611.904048,-986.328125,-1000.0,-1000.0,-1000.0,0.0
1734411611.9079533,-1000.0,-918.45703125,-765.625,-1000.0,0.0
1734411611.9118583,479.4921875,462.890625,-64.453125,-1000.0,0.0
1734411611.9157636,335.44921875,608.88671875,-189.453125,-1000.0,0.0
1734411611.919669,-1000.0,-798.828125,-853.515625,-1000.0,0.0
1734411611.9235742,-944.3359375,-1000.0,-999.0234375,-1000.0,0.0
1734411611.9274912,-1000.0,-1000.0,-933.10546875,-1000.0,0.0
1734411611.9313965,185.546875,165.0390625,-290.0390625,-1000.0,0.0
1734411611.9353018,678.7109375,-979.4921875,104.98046875,-1000.0,0.0
1734411611.939207,-923.828125,-454.1015625,-676.7578125,-1000.0,0.0
1734411611.9431124,-992.67578125,-1000.0,-1000.0,-1000.0,0.0
1734411611.9470174,-1000.0,-972.16796875,-934.08203125,-1000.0,0.0
1734411611.9509227,-168.9453125,-30.76171875,-405.76171875,-1000.0,0.0
1734411611.954828,829.58984375,-976.5625,151.3671875,-1000.0,0.0
1734411611.9587333,-683.10546875,-174.8046875,-578.61328125,-1000.0,0.0
1734411611.9626386,-1000.0,-1000.0,-1000.0,-1000.0,0.0
1734411611.966544,-1000.0,-978.02734375,-925.78125,-1000.0,0.0
1734411611.970449,-238.76953125,99.12109375,-324.70703125,-1000.0,0.0
1734411611.9743645,875.48828125,-874.0234375,252.9296875,-1000.0,0.0
1734411611.9782698,-592.7734375,396.97265625,-321.2890625,-1000.0,0.0
1734411611.982175,-1000.0,-851.5625,-959.9609375,-923.33984375,0.0
1734411611.9860804,-1000.0,-1000.0,-941.89453125,-1000.0,0.0
1734411611.9899857,-213.37890625,-15.13671875,-287.59765625,-715.33203125,0.0
1734411611.9938908,941.89453125,-945.80078125,389.6484375,341.30859375,0.0
1734411611.997796,-346.6796875,846.6796875,41.015625,-600.09765625,0.0
1734411612.0017014,-1000.0,-617.67578125,-793.9453125,-1000.0,0.0
1734411612.0056067,-1000.0,-1000.0,-964.84375,-796.38671875,0.0
1734411612.009512,0.0,344.7265625,-82.51953125,480.95703125,0.0
1734411612.0134172,-798.33984375,-908.69140625,670.8984375,-820.3125,0.0
1734411612.0173225,346.19140625,895.99609375,383.30078125,597.16796875,0.0
1734411612.021237,-916.50390625,-375.0,-623.046875,-881.34765625,0.0
1734411612.0251422,-1000.0,-1000.0,-915.52734375,-940.4296875,0.0
1734411612.0290475,-256.8359375,256.8359375,-119.140625,568.359375,0.0
1734411612.0329528,-911.1328125,-941.40625,594.23828125,-885.7421875,0.0
1734411612.0368578,658.69140625,958.49609375,445.3125,830.56640625,0.0
1734411612.0407631,-756.34765625,-116.69921875,-582.03125,-652.83203125,0.0
1734411612.0446684,-1000.0,-1000.0,-909.1796875,-991.2109375,0.0
1734411612.0485737,-554.6875,63.4765625,-258.30078125,583.0078125,0.0
1734411612.052479,923.33984375,982.91015625,415.52734375,-887.20703125,0.0
1734411612.0563843,835.44921875,-979.00390625,531.25,835.44921875,0.0
1734411612.0602896,-649.90234375,356.93359375,-435.546875,-615.234375,0.0
1734411612.0641947,-1000.0,-958.49609375,-1000.0,-1000.0,0.0
1734411612.0681083,-719.23828125,-120.60546875,-361.81640625,492.67578125,0.0
1734411612.0720136,782.71484375,-991.2109375,508.30078125,-889.16015625,0.0
1734411612.075919,927.24609375,-997.55859375,524.90234375,871.09375,0.0
1734411612.0798242,-604.4921875,254.8828125,-485.83984375,-508.30078125,0.0
1734411612.0837295,-1000.0,-1000.0,-1000.0,-1000.0,0.0
1734411612.0876348,-847.65625,-484.375,-502.44140625,346.19140625,0.0
1734411612.0915399,638.671875,807.6171875,278.80859375,-902.83203125,0.0
1734411612.0954452,957.03125,-934.08203125,341.796875,934.5703125,0.0
1734411612.0993505,-613.28125,749.0234375,-295.8984375,-316.89453125,0.0
1734411612.1032557,-1000.0,-759.765625,-885.25390625,-1000.0,0.0
1734411612.107161,-865.234375,-620.1171875,-610.83984375,59.5703125,0.0
1734411612.1110663,580.56640625,809.5703125,284.66796875,-949.21875,0.0
1734411612.114979,-968.26171875,-947.75390625,592.28515625,975.5859375,0.0
1734411612.118884,-499.51171875,846.6796875,-99.609375,-181.15234375,0.0
1734411612.1227894,-1000.0,-672.36328125,-914.0625,-1000.0,0.0
1734411612.1266947,-851.5625,-787.109375,-677.734375,-375.9765625,0.0
1734411612.1306,551.7578125,729.98046875,264.6484375,896.97265625,0.0
1734411612.1345053,-886.23046875,-907.71484375,552.734375,-932.12890625,0.0
1734411612.1384106,-333.49609375,774.4140625,-81.0546875,5.37109375,0.0
1734411612.1423156,-1000.0,-733.3984375,-884.27734375,-1000.0,0.0
1734411612.146221,-901.3671875,-962.890625,-785.15625,-693.359375,0.0
1734411612.1501262,408.203125,609.375,131.8359375,718.26171875,0.0
1734411612.1540315,-804.6875,-917.48046875,588.37890625,-860.3515625,0.0
1734411612.1579368,-3.90625,892.578125,154.296875,126.953125,0.0
1734411612.1618483,-1000.0,-436.03515625,-734.86328125,-1000.0,0.0
1734411612.1657536,-1000.0,-1000.0,-843.75,-860.83984375,0.0
1734411612.169659,190.4296875,405.76171875,-177.24609375,543.9453125,0.0
1734411612.1735642,-779.78515625,-897.94921875,475.09765625,-818.84765625,0.0
1734411612.1774695,339.84375,882.8125,270.99609375,310.546875,0.0
1734411612.1813748,-918.45703125,-491.69921875,-750.0,-1000.0,0.0
1734411612.18528,-1000.0,-1000.0,-1000.0,-892.578125,0.0
1734411612.1891851,-88.37890625,338.8671875,-189.94140625,535.15625,0.0
1734411612.1930904,-853.02734375,-916.50390625,574.70703125,-820.80078125,0.0
1734411612.1969957,589.84375,909.66796875,305.6640625,497.0703125,0.0
1734411612.200901,-790.0390625,-325.1953125,-671.875,-912.59765625,0.0
1734411612.2048063,-1000.0,-1000.0,-970.21484375,-992.1875,0.0
1734411612.2087166,-451.171875,163.57421875,-246.58203125,430.6640625,0.0
1734411612.212622,988.76953125,-982.91015625,507.32421875,-820.80078125,0.0
1734411612.2165272,764.16015625,987.3046875,450.1953125,616.69921875,0.0
1734411612.2204325,-700.68359375,155.2734375,-527.83203125,-785.15625,0.0
1734411612.2243376,-1000.0,-1000.0,-970.21484375,-1000.0,0.0
1734411612.2282429,-688.4765625,-379.39453125,-419.921875,200.68359375,0.0
1734411612.2321482,818.84765625,856.93359375,382.32421875,-841.796875,0.0
1734411612.2360535,900.87890625,-941.40625,522.94921875,716.30859375,0.0
1734411612.2399588,-623.53515625,282.2265625,-454.58984375,-654.296875,0.0
1734411612.243864,-1000.0,-1000.0,-1000.0,-1000.0,0.0
1734411612.2477694,-822.75390625,-471.19140625,-471.6796875,-149.90234375,0.0
1734411612.2516744,669.921875,857.421875,414.0625,-937.01171875,0.0
1734411612.2555923,951.66015625,-939.453125,524.4140625,814.453125,0.0
1734411612.2594976,-612.3046875,210.44921875,-471.19140625,-576.66015625,0.0
1734411612.263403,-1000.0,-1000.0,-1000.0,-1000.0,0.0
1734411612.267308,-873.53515625,-687.98828125,-566.89453125,-483.3984375,0.0
1734411612.2712133,602.5390625,690.91796875,270.01953125,934.08203125,0.0
1734411612.2751186,967.7734375,-898.92578125,411.62109375,881.34765625,0.0
1734411612.279024,-606.4453125,565.4296875,-270.99609375,-577.1484375,0.0
1734411612.2829292,-1000.0,-836.9140625,-863.28125,-1000.0,0.0
1734411612.2868345,-861.81640625,-839.84375,-684.5703125,-695.80078125,0.0
1734411612.2907398,573.2421875,619.62890625,-9.27734375,787.59765625,0.0
1734411612.2946448,-946.77734375,-890.625,545.8984375,954.1015625,0.0
1734411612.2985501,-466.30859375,753.41796875,-18.06640625,-553.22265625,0.0
1734411612.3024752,-1000.0,-735.3515625,-921.38671875,-1000.0,0.0
1734411612.3063803,-886.23046875,-930.17578125,-714.35546875,-810.05859375,0.0
1734411612.3102856,493.1640625,607.91015625,248.53515625,624.51171875,0.0
1734411612.3141909,-868.65234375,-872.55859375,605.95703125,-934.5703125,0.0
1734411612.3180962,-325.68359375,720.21484375,-15.13671875,-405.2734375,0.0
1734411612.3220015,-1000.0,-715.8203125,-842.28515625,-1000.0,0.0
1734411612.3259068,-967.28515625,-1000.0,-862.3046875,-835.9375,0.0
1734411612.329812,270.5078125,410.64453125,-30.2734375,535.64453125,0.0
1734411612.333717,-791.50390625,-892.578125,507.32421875,-845.21484375,0.0
1734411612.3376224,17.08984375,840.8203125,30.76171875,-114.2578125,0.0
1734411612.3415277,-1000.0,-526.3671875,-751.46484375,-1000.0,0.0
1734411612.345433,-1000.0,-1000.0,-871.09375,-842.28515625,0.0
1734411612.3493488,54.19921875,228.515625,-175.29296875,515.13671875,0.0
1734411612.353254,-797.8515625,-909.1796875,573.73046875,-812.98828125,0.0
1734411612.3571591,371.09375,842.28515625,330.078125,270.01953125,0.0
1734411612.3610644,-900.390625,-526.3671875,-734.375,-1000.0,0.0
1734411612.3649697,-1000.0,-1000.0,-955.56640625,-903.3203125,0.0
1734411612.368875,-283.69140625,-32.71484375,-245.1171875,500.9765625,0.0
1734411612.3727803,-916.015625,-964.35546875,508.30078125,-819.82421875,0.0
1734411612.3766856,636.23046875,881.8359375,410.15625,563.4765625,0.0
1734411612.380591,-780.76171875,-517.578125,-651.3671875,-854.98046875,0.0
1734411612.384496,-1000.0,-1000.0,-1000.0,-1000.0,0.0
1734411612.3884013,-568.84765625,-90.8203125,-216.796875,361.328125,0.0
1734411612.3923066,927.24609375,968.26171875,532.71484375,-834.9609375,0.0
1734411612.3962207,807.6171875,971.19140625,281.25,709.47265625,0.0
1734411612.400126,-687.5,-115.72265625,-557.6171875,-693.359375,0.0
1734411612.4040313,-1000.0,-1000.0,-966.30859375,-1000.0,0.0
1734411612.4079363,-733.3984375,-545.8984375,-416.015625,165.52734375,0.0
1734411612.4118416,771.484375,797.36328125,475.09765625,-867.1875,0.0
1734411612.415747,925.29296875,-972.65625,499.0234375,797.36328125,0.0
1734411612.4196522,-609.86328125,-148.4375,-450.68359375,-566.40625,0.0
1734411612.4235575,-1000.0,-1000.0,-1000.0,-1000.0,0.0
1734411612.4274628,-831.54296875,-631.34765625,-499.0234375,-152.83203125,0.0
1734411612.431368,659.1796875,731.93359375,486.328125,-943.84765625,0.0
1734411612.4352732,953.61328125,-913.57421875,621.58203125,834.47265625,0.0
1734411612.4391785,-612.79296875,-8.7890625,-391.11328125,-553.22265625,0.0
1734411612.4430919,-1000.0,-1000.0,-1000.0,-1000.0,0.0
1734411612.4469972,-869.62890625,-704.58984375,-473.6328125,-471.19140625,0.0
1734411612.4509025,591.30859375,658.203125,419.921875,929.6875,0.0
1734411612.4548078,-999.51171875,-882.8125,554.19921875,907.2265625,0.0
1734411612.4587128,-554.19921875,434.08203125,-123.046875,-531.25,0.0
1734411612.462618,-1000.0,-888.671875,-893.5546875,-1000.0,0.0
1734411612.4665234,-855.46875,-953.61328125,-717.28515625,-678.7109375,0.0
1734411612.4704287,560.546875,481.4453125,125.0,768.06640625,0.0
1734411612.474334,-911.1328125,-860.83984375,599.609375,-974.609375,0.0
1734411612.4782393,-388.18359375,610.83984375,80.56640625,-416.50390625,0.0
1734411612.4821444,-1000.0,-799.31640625,-873.53515625,-1000.0,0.0
1734411612.4860497,-865.234375,-981.93359375,-717.28515625,-802.734375,0.0
1734411612.4899704,495.1171875,512.20703125,320.3125,597.16796875,0.0
1734411612.4938757,-835.44921875,-852.05078125,686.03515625,-875.0,0.0
1734411612.497781,-162.109375,635.7421875,108.3984375,-226.5625,0.0
1734411612.5016863,-1000.0,-743.65234375,-821.2890625,-1000.0,0.0
1734411612.5055916,-958.984375,-1000.0,-829.1015625,-836.9140625,0.0
1734411612.509497,295.41015625,309.08203125,63.4765625,517.578125,0.0
1734411612.5134022,-783.203125,-890.13671875,560.05859375,-818.359375,0.0
1734411612.5173073,206.54296875,759.27734375,101.5625,137.20703125,0.0
1734411612.5212126,-986.81640625,-596.19140625,-725.5859375,-1000.0,0.0
1734411612.5251179,-1000.0,-1000.0,-866.2109375,-867.1875,0.0
1734411612.5290232,103.02734375,139.16015625,-84.47265625,523.4375,0.0
1734411612.5329285,-800.78125,-929.6875,650.390625,-816.40625,0.0
1734411612.53684,509.27734375,867.67578125,432.12890625,456.54296875,0.0
1734411612.5407453,-833.984375,-469.23828125,-639.16015625,-937.98828125,0.0
1734411612.5446503,-1000.0,-1000.0,-1000.0,-971.19140625,0.0
1734411612.5485556,-216.796875,-158.203125,-209.9609375,453.125,0.0
1734411612.552461,-909.1796875,-982.421875,634.765625,-829.1015625,0.0
1734411612.5563662,669.921875,871.09375,428.7109375,654.296875,0.0
1734411612.5602715,-742.1875,-540.52734375,-684.5703125,-772.94921875,0.0
1734411612.5641768,-1000.0,-1000.0,-1000.0,-1000.0,0.0
1734411612.5680819,-527.83203125,-228.02734375,-201.171875,299.31640625,0.0
1734411612.5719872,941.40625,935.05859375,578.61328125,-845.21484375,0.0
1734411612.5758924,825.68359375,981.93359375,416.50390625,753.41796875,0.0
1734411612.5797977,-654.296875,-191.89453125,-523.4375,-625.48828125,0.0
1734411612.5837085,-1000.0,-1000.0,-984.86328125,-1000.0,0.0
1734411612.5876136,-725.09765625,-539.55078125,-427.734375,31.25,0.0
1734411612.5915189,777.34375,777.83203125,376.953125,-894.04296875,0.0
1734411612.5954242,929.19921875,-935.05859375,572.75390625,812.01171875,0.0
1734411612.5993295,-605.95703125,20.5078125,-357.421875,-555.17578125,0.0
1734411612.6032348,-1000.0,-1000.0,-1000.0,-1000.0,0.0
1734411612.60714,-858.88671875,-687.98828125,-520.99609375,-310.05859375,0.0
1734411612.6110454,623.53515625,723.6328125,497.55859375,-994.140625,0.0
1734411612.6149504,959.47265625,-919.921875,619.62890625,853.02734375,0.0
1734411612.6188557,-613.76953125,-21.484375,-386.71875,-562.01171875,0.0
1734411612.622761,-1000.0,-1000.0,-1000.0,-1000.0,0.0
1734411612.6266663,-874.0234375,-800.78125,-588.37890625,-639.6484375,0.0
1734411612.630592,604.00390625,605.95703125,376.953125,833.984375,0.0
1734411612.6344974,963.37890625,-859.86328125,591.796875,940.4296875,0.0
1734411612.6384027,-617.67578125,213.8671875,-267.08984375,-550.29296875,0.0
1734411612.642308,-1000.0,-979.98046875,-979.00390625,-1000.0,0.0
1734411612.6462133,-898.92578125,-966.796875,-772.94921875,-798.828125,0.0
1734411612.6501186,554.6875,381.34765625,30.76171875,652.83203125,0.0
1734411612.6540236,998.046875,-850.5859375,553.7109375,-965.33203125,0.0
1734411612.657929,-607.91015625,396.97265625,-112.3046875,-461.42578125,0.0
1734411612.6618342,-1000.0,-885.7421875,-949.70703125,-1000.0,0.0
1734411612.6657395,-1000.0,-1000.0,-889.16015625,-855.46875,0.0
1734411612.6696448,259.765625,348.6328125,-1.46484375,560.546875,0.0
1734411612.6735501,-964.35546875,-834.47265625,567.3828125,-903.3203125,0.0
1734411612.677475,-611.328125,313.4765625,-155.76171875,-363.76953125,0.0
1734411612.6813803,-1000.0,-884.765625,-944.82421875,-1000.0,0.0
1734411612.6852853,-1000.0,-1000.0,-981.4453125,-866.2109375,0.0
1734411612.6891906,-368.1640625,-43.45703125,-205.078125,518.06640625,0.0
1734411612.693096,881.34765625,-902.34375,461.42578125,-849.609375,0.0
1734411612.6970012,-520.01953125,150.390625,-231.93359375,-259.27734375,0.0
1734411612.7009065,-1000.0,-950.68359375,-948.2421875,-1000.0,0.0
1734411612.7048118,-1000.0,-1000.0,-1000.0,-991.2109375,0.0
1734411612.708717,-842.7734375,-686.5234375,-543.45703125,281.73828125,0.0
1734411612.7126222,467.28515625,792.48046875,273.4375,-823.73046875,0.0
1734411612.7165275,-479.98046875,388.671875,-143.06640625,-246.09375,0.0
1734411612.7204328,-1000.0,-947.265625,-938.96484375,-1000.0,0.0
1734411612.724348,-909.66796875,-1000.0,-1000.0,-1000.0,0.0
1734411612.7282534,-1000.0,-915.0390625,-748.046875,-387.20703125,0.0
1734411612.7321587,-1000.0,274.4140625,-220.21484375,986.81640625,0.0
1734411612.736064,-1000.0,-203.125,-555.17578125,-274.90234375,0.0
1734411612.739969,-1000.0,-1000.0,-998.046875,-1000.0,0.0
1734411612.7438743,-1000.0,-976.5625,-1000.0,-1000.0,0.0
1734411612.7477796,-1000.0,-990.72265625,-901.85546875,-809.5703125,0.0
1734411612.751685,-1000.0,-325.1953125,-458.49609375,697.75390625,0.0
1734411612.7555902,-1000.0,-630.37109375,-580.56640625,-237.79296875,0.0
1734411612.7594955,-1000.0,-1000.0,-983.3984375,-1000.0,0.0
1734411612.7634008,-1000.0,-935.05859375,-993.1640625,-998.046875,0.0
1734411612.7673059,-1000.0,-1000.0,-1000.0,-907.71484375,0.0
1734411612.7712202,-1000.0,-904.296875,-774.90234375,622.0703125,0.0
1734411612.7751255,-1000.0,-614.74609375,-581.54296875,-130.37109375,0.0
1734411612.7790308,-1000.0,-937.98828125,-912.109375,-1000.0,0.0
1734411612.782936,-1000.0,-1000.0,-1000.0,-983.3984375,0.0
1734411612.7868414,-1000.0,-1000.0,-984.375,-958.984375,0.0
1734411612.7907467,-1000.0,-762.20703125,-653.80859375,588.37890625,0.0
1734411612.7946517,-1000.0,-502.44140625,-539.0625,43.45703125,0.0
1734411612.798557,-1000.0,-950.68359375,-928.22265625,-1000.0,0.0
1734411612.8024623,-1000.0,-1000.0,-1000.0,-939.453125,0.0
1734411612.8063676,-1000.0,-1000.0,-1000.0,-1000.0,0.0
1734411612.810273,-1000.0,-707.03125,-645.99609375,318.359375,0.0
1734411612.8141782,-1000.0,-430.17578125,-575.68359375,278.80859375,0.0
1734411612.8180919,-1000.0,-970.703125,-963.8671875,-1000.0,0.0
1734411612.8219972,-1000.0,-1000.0,-999.0234375,-928.22265625,0.0
1734411612.8259025,-1000.0,-1000.0,-1000.0,-1000.0,0.0
1734411612.8298078,-1000.0,-940.4296875,-834.47265625,-107.91015625,0.0
1734411612.833713,-1000.0,-485.83984375,-557.6171875,444.82421875,0.0
1734411612.8376184,-1000.0,-847.65625,-882.32421875,-968.26171875,0.0
1734411612.8415236,-1000.0,-1000.0,-1000.0,-974.12109375,0.0
1734411612.8454287,-1000.0,-1000.0,-1000.0,-1000.0,0.0
1734411612.849334,-1000.0,-926.7578125,-787.109375,-530.2734375,0.0
1734411612.8532393,-1000.0,-320.80078125,-480.46875,457.03125,0.0
1734411612.8571446,-1000.0,-774.90234375,-853.515625,-798.828125,0.0
1734411612.86105,-1000.0,-1000.0,-1000.0,-1000.0,0.0
1734411612.8649707,-1000.0,-996.58203125,-1000.0,-1000.0,0.0
1734411612.868876,-1000.0,-953.125,-832.51953125,-774.4140625,0.0
1734411612.8727813,-1000.0,-495.60546875,-589.84375,379.8828125,0.0
1734411612.8766866,-1000.0,-826.66015625,-861.81640625,-655.76171875,0.0
1734411612.8805916,-1000.0,-1000.0,-1000.0,-1000.0,0.0
1734411612.884497,-1000.0,-968.26171875,-992.67578125,-1000.0,0.0
1734411612.8884022,-1000.0,-1000.0,-964.84375,-842.7734375,0.0
1734411612.8923075,-1000.0,-868.1640625,-697.265625,428.22265625,0.0
1734411612.8962128,-1000.0,-908.69140625,-801.26953125,-534.66796875,0.0
1734411612.900118,-1000.0,-1000.0,-1000.0,-1000.0,0.0
1734411612.9040234,-1000.0,-995.1171875,-1000.0,-1000.0,0.0
1734411612.9079285,-1000.0,-1000.0,-975.09765625,-881.8359375,0.0
1734411612.91184,-1000.0,-879.8828125,-675.29296875,410.64453125,0.0
1734411612.9157453,-1000.0,-934.08203125,-768.06640625,-488.28125,0.0
1734411612.9196506,-1000.0,-1000.0,-1000.0,-1000.0,0.0
1734411612.9235559,-1000.0,-991.69921875,-997.55859375,-1000.0,0.0
1734411612.927461,-1000.0,-1000.0,-999.51171875,-905.76171875,0.0
1734411612.9313662,-1000.0,-1000.0,-869.62890625,467.28515625,0.0
1734411612.9352715,-1000.0,-1000.0,-899.4140625,-382.8125,0.0
1734411612.9391768,-1000.0,-1000.0,-1000.0,-1000.0,0.0
1734411612.943082,-1000.0,-1000.0,-993.1640625,-980.46875,0.0
1734411612.9469874,-1000.0,-1000.0,-1000.0,-943.359375,0.0
1734411612.9508927,-1000.0,-1000.0,-949.21875,642.578125,0.0
1734411612.9547977,-1000.0,-1000.0,-889.6484375,51.7578125,0.0
1734411612.9587083,-1000.0,-1000.0,-977.5390625,-1000.0,0.0
1734411612.9626136,-1000.0,-1000.0,-1000.0,-981.93359375,0.0
1734411612.9665189,-1000.0,-1000.0,-1000.0,-949.70703125,0.0
1734411612.9704242,-1000.0,-1000.0,-891.6015625,662.109375,0.0
1734411612.9743295,-1000.0,-1000.0,-854.00390625,769.04296875,0.0
1734411612.9782345,-1000.0,-1000.0,-983.3984375,-818.84765625,0.0
1734411612.9821398,-1000.0,-1000.0,-1000.0,-1000.0,0.0
1734411612.9860451,-1000.0,-1000.0,-1000.0,-884.27734375,0.0
1734411612.9899504,-1000.0,-1000.0,-921.38671875,603.515625,0.0
1734411612.9938557,-1000.0,-1000.0,-904.78515625,963.37890625,0.0
1734411612.997761,-1000.0,-1000.0,-995.1171875,-613.76953125,0.0
1734411613.0016663,-1000.0,-1000.0,-998.046875,-1000.0,0.0
1734411613.0055835,-1000.0,-1000.0,-1000.0,-842.28515625,0.0
1734411613.0094886,-1000.0,-1000.0,-974.12109375,565.91796875,0.0
1734411613.0133939,-1000.0,-1000.0,-884.27734375,802.734375,0.0
1734411613.0172992,-1000.0,-1000.0,-967.28515625,-494.62890625,0.0
1734411613.0212045,-1000.0,-1000.0,-1000.0,-1000.0,0.0
1734411613.0251098,-1000.0,-1000.0,-1000.0,-842.28515625,0.0
1734411613.029015,-1000.0,-1000.0,-939.453125,507.8125,0.0
1734411613.0329204,-1000.0,-1000.0,-733.88671875,-811.03515625,0.0
1734411613.0368254,-1000.0,-1000.0,-903.80859375,271.97265625,0.0
1734411613.0407307,-1000.0,-1000.0,-1000.0,-1000.0,0.0
1734411613.044636,-1000.0,-1000.0,-1000.0,-881.8359375,0.0
1734411613.0485413,-1000.0,-1000.0,-894.04296875,532.2265625,0.0
1734411613.052458,-1000.0,-1000.0,-606.93359375,-838.8671875,0.0
1734411613.0563633,-1000.0,-1000.0,-781.25,662.59765625,0.0
1734411613.0602686,-1000.0,-993.1640625,-992.67578125,-830.56640625,0.0
1734411613.064174,-1000.0,-1000.0,-1000.0,-961.9140625,0.0
1734411613.0680792,-1000.0,-1000.0,-900.390625,559.08203125,0.0
1734411613.0719845,-1000.0,-781.73828125,-425.78125,-878.41796875,0.0
1734411613.0758898,-1000.0,-878.90625,-455.078125,805.17578125,0.0
1734411613.079795,-1000.0,-1000.0,-916.9921875,-651.85546875,0.0
1734411613.0837002,-1000.0,-983.88671875,-1000.0,-1000.0,0.0
1734411613.0876055,-1000.0,-1000.0,-793.9453125,479.00390625,0.0
1734411613.0915108,-1000.0,356.4453125,54.19921875,-871.58203125,0.0
1734411613.095416,-1000.0,709.47265625,128.41796875,820.3125,0.0
1734411613.0993316,-1000.0,-794.43359375,-801.7578125,-582.51953125,0.0
1734411613.103237,-960.9375,-1000.0,-1000.0,-1000.0,0.0
1734411613.1071422,-1000.0,-938.4765625,-743.1640625,303.22265625,0.0
1734411613.1110475,-467.7734375,447.75390625,120.1171875,-868.65234375,0.0
1734411613.1149528,-347.65625,-963.8671875,334.47265625,736.81640625,0.0
1734411613.118858,-1000.0,-467.7734375,-604.98046875,-551.7578125,0.0
1734411613.1227634,-1000.0,-1000.0,-1000.0,-1000.0,0.0
1734411613.1266685,-947.265625,-707.51953125,-569.3359375,53.7109375,0.0
1734411613.1305737,601.07421875,580.078125,237.79296875,-929.19921875,0.0
1734411613.134479,964.35546875,-865.72265625,621.09375,931.15234375,0.0
1734411613.1383843,-612.3046875,714.84375,8.7890625,-341.796875,0.0
1734411613.1422896,-1000.0,-787.109375,-893.06640625,-1000.0,0.0
1734411613.1462042,-776.85546875,-583.0078125,-450.1953125,-229.00390625,0.0
1734411613.1501095,508.30078125,901.85546875,637.20703125,944.82421875,0.0
1734411613.1540148,-829.1015625,-994.140625,824.70703125,-951.171875,0.0
1734411613.1579201,698.2421875,926.26953125,373.046875,-22.94921875,0.0
1734411613.1618254,-876.46484375,511.23046875,-484.86328125,-1000.0,0.0
1734411613.1657305,-456.54296875,584.9609375,-208.49609375,-421.38671875,0.0
1734411613.1696358,-977.05078125,-984.375,771.97265625,850.5859375,0.0
1734411613.173541,966.796875,958.984375,876.46484375,-904.78515625,0.0
1734411613.1774464,928.7109375,962.890625,609.86328125,601.5625,0.0
1734411613.1813517,980.46875,971.6796875,253.41796875,-965.8203125,0.0
1734411613.185257,969.23828125,969.7265625,448.73046875,-625.9765625,0.0
1734411613.1891623,969.23828125,969.7265625,852.5390625,852.5390625,0.0
1734411613.193076,969.23828125,969.7265625,901.85546875,-946.2890625,0.0
1734411613.1969812,969.23828125,969.7265625,858.88671875,849.12109375,0.0
1734411613.2008862,969.23828125,970.21484375,592.7734375,-726.5625,0.0
1734411613.2047915,969.23828125,970.21484375,587.890625,-687.5,0.0
1734411613.2086968,968.75,969.7265625,885.7421875,866.2109375,0.0
1734411613.2126021,969.23828125,969.7265625,934.08203125,-960.9375,0.0
1734411613.2165074,969.23828125,969.7265625,875.48828125,892.578125,0.0
1734411613.2204127,969.23828125,969.7265625,666.015625,-653.3203125,0.0
1734411613.224318,969.23828125,970.21484375,732.421875,-804.6875,0.0
1734411613.228223,968.75,969.7265625,918.45703125,799.31640625,0.0
1734411613.2321284,969.23828125,969.7265625,908.69140625,-947.265625,0.0
1734411613.2360337,969.23828125,969.7265625,912.59765625,900.390625,0.0
1734411613.2399464,969.23828125,969.7265625,770.01953125,-561.03515625,0.0
1734411613.2438517,969.23828125,969.7265625,694.82421875,-994.62890625,0.0
1734411613.247757,969.23828125,970.21484375,875.48828125,608.3984375,0.0
1734411613.2516623,969.23828125,969.7265625,910.64453125,-916.9921875,0.0
1734411613.2555676,969.23828125,969.7265625,914.0625,923.828125,0.0
1734411613.2594726,969.23828125,969.7265625,755.37109375,-496.58203125,0.0
1734411613.263378,969.23828125,969.7265625,556.640625,-1000.0,0.0
1734411613.2672832,968.75,969.7265625,784.66796875,595.21484375,0.0
1734411613.2711885,968.75,969.7265625,923.33984375,-913.0859375,0.0
1734411613.2750938,969.23828125,969.7265625,909.66796875,919.43359375,0.0
1734411613.278999,969.23828125,969.7265625,750.9765625,-422.36328125,0.0
1734411613.2829044,969.23828125,970.21484375,567.3828125,-1000.0,0.0
1734411613.2868156,968.75,969.7265625,800.29296875,367.1875,0.0
1734411613.290721,969.23828125,969.7265625,911.62109375,-886.23046875,0.0
1734411613.2946262,969.23828125,969.7265625,908.203125,896.97265625,0.0
1734411613.2985315,969.23828125,969.7265625,766.6015625,-379.39453125,0.0
1734411613.3024368,969.23828125,969.7265625,469.7265625,-1000.0,0.0
1734411613.3063421,969.23828125,969.7265625,672.8515625,-14.6484375,0.0
1734411613.3102474,969.23828125,969.7265625,890.625,-958.984375,0.0
1734411613.3141525,968.75,969.7265625,905.76171875,966.796875,0.0
1734411613.3180578,969.23828125,969.7265625,786.1328125,-255.37109375,0.0
1734411613.321963,969.23828125,969.7265625,449.70703125,-1000.0,0.0
1734411613.3258684,969.23828125,970.21484375,635.25390625,-369.140625,0.0
1734411613.3297737,969.23828125,969.7265625,904.78515625,879.39453125,0.0
1734411613.3336842,968.75,969.7265625,910.15625,-915.52734375,0.0
1734411613.3375893,969.23828125,969.7265625,788.0859375,133.7890625,0.0
1734411613.3414946,969.23828125,969.7265625,485.83984375,-1000.0,0.0
1734411613.3453999,968.75,969.7265625,646.484375,-582.51953125,0.0
1734411613.3493052,968.75,970.21484375,899.90234375,789.55078125,0.0
1734411613.3532104,969.23828125,969.7265625,899.90234375,-889.16015625,0.0
1734411613.3571157,969.23828125,969.7265625,833.49609375,634.765625,0.0
1734411613.361021,969.23828125,969.7265625,551.7578125,-912.59765625,0.0
1734411613.364926,969.23828125,969.7265625,599.12109375,-784.66796875,0.0
1734411613.3688314,969.23828125,969.7265625,864.74609375,740.72265625,0.0
1734411613.3727367,969.23828125,969.7265625,899.4140625,-901.85546875,0.0
1734411613.376642,969.23828125,970.21484375,846.6796875,763.671875,0.0
1734411613.3805597,969.23828125,969.7265625,413.57421875,-746.58203125,0.0
1734411613.3844647,969.23828125,970.21484375,265.13671875,-947.75390625,0.0
1734411613.38837,969.23828125,970.703125,736.328125,611.81640625,0.0
1734411613.3922753,968.75,958.49609375,927.24609375,-892.578125,0.0
1734411613.3961806,969.23828125,995.60546875,774.90234375,832.51953125,0.0
1734411613.400086,969.23828125,842.7734375,-76.171875,-650.390625,0.0
1734411613.4039912,972.16796875,718.26171875,-270.01953125,-991.69921875,0.0
1734411613.4078965,960.44921875,961.42578125,601.5625,583.0078125,0.0
1734411613.4118016,909.1796875,918.9453125,866.69921875,-888.18359375,0.0
1734411613.4157069,-872.0703125,-932.6171875,632.8125,838.8671875,0.0
1734411613.4196122,41.015625,613.28125,-121.58203125,-623.046875,0.0
1734411613.4235175,-988.76953125,-766.11328125,-672.8515625,-1000.0,0.0
1734411613.4274344,459.47265625,155.2734375,41.015625,524.4140625,0.0
1734411613.4313395,-828.61328125,-869.140625,734.375,-869.140625,0.0
1734411613.4352448,762.6953125,913.0859375,578.61328125,806.640625,0.0
1734411613.43915,-520.99609375,-116.2109375,-435.05859375,-562.01171875,0.0
1734411613.4430554,-1000.0,-1000.0,-1000.0,-1000.0,0.0
1734411613.4469607,-836.9140625,-849.12109375,-575.1953125,183.59375,0.0
1734411613.450866,699.70703125,672.8515625,351.5625,-878.41796875,0.0
1734411613.4547713,827.63671875,947.75390625,370.60546875,800.78125,0.0
1734411613.4586763,-782.2265625,-626.46484375,-668.45703125,-534.66796875,0.0
1734411613.4625816,-1000.0,-1000.0,-1000.0,-1000.0,0.0
1734411613.466487,-1000.0,-974.12109375,-724.12109375,-429.6875,0.0
1734411613.4703922,459.9609375,363.28125,130.859375,960.9375,0.0
1734411613.4743075,518.5546875,880.859375,269.53125,871.09375,0.0
1734411613.4782128,-1000.0,-717.7734375,-670.41015625,-575.68359375,0.0
1734411613.4821181,-961.42578125,-1000.0,-1000.0,-1000.0,0.0
1734411613.4860234,-1000.0,-1000.0,-944.82421875,-744.62890625,0.0
1734411613.4899287,-334.47265625,-302.734375,-273.4375,746.58203125,0.0
1734411613.493834,-5.859375,508.30078125,129.39453125,740.72265625,0.0
1734411613.4977393,-1000.0,-727.5390625,-696.2890625,-684.5703125,0.0
1734411613.5016444,-1000.0,-1000.0,-1000.0,-1000.0,0.0
1734411613.5055497,-970.703125,-1000.0,-996.58203125,-885.25390625,0.0
1734411613.509455,-1000.0,-647.4609375,-429.19921875,610.83984375,0.0
1734411613.5133603,-1000.0,173.828125,55.17578125,974.609375,0.0
1734411613.5172656,-1000.0,-729.4921875,-685.546875,-598.6328125,0.0
1734411613.5211804,-1000.0,-1000.0,-1000.0,-1000.0,0.0
1734411613.5250857,-1000.0,-995.60546875,-990.72265625,-886.23046875,0.0
1734411613.528991,-1000.0,-908.69140625,-576.171875,570.80078125,0.0
1734411613.532896,-1000.0,-375.48828125,-166.50390625,-998.046875,0.0
1734411613.5368013,-1000.0,-820.3125,-701.66015625,-590.8203125,0.0
1734411613.5407066,-1000.0,-1000.0,-1000.0,-1000.0,0.0
1734411613.544612,-1000.0,-962.890625,-996.58203125,-1000.0,0.0
1734411613.5485172,-1000.0,-1000.0,-822.265625,316.40625,0.0
1734411613.5524225,-1000.0,-965.8203125,-490.72265625,-974.609375,0.0
1734411613.5563278,-1000.0,-981.4453125,-732.91015625,-625.0,0.0
1734411613.5602329,-1000.0,-1000.0,-1000.0,-1000.0,0.0
1734411613.5641382,-1000.0,-998.046875,-1000.0,-1000.0,0.0
1734411613.5680518,-1000.0,-1000.0,-890.13671875,-323.73046875,0.0
1734411613.571957,-1000.0,-1000.0,-674.31640625,859.375,0.0
1734411613.5758624,-1000.0,-1000.0,-871.58203125,-578.61328125,0.0
1734411613.5797675,-1000.0,-1000.0,-1000.0,-1000.0,0.0
1734411613.5836728,-1000.0,-1000.0,-991.2109375,-1000.0,0.0
1734411613.587578,-1000.0,-1000.0,-1000.0,-824.70703125,0.0
1734411613.5914834,-1000.0,-1000.0,-947.75390625,491.69921875,0.0
1734411613.5953887,-1000.0,-1000.0,-977.05078125,-483.88671875,0.0
1734411613.599294,-1000.0,-1000.0,-1000.0,-1000.0,0.0
1734411613.6031992,-1000.0,-1000.0,-996.58203125,-909.1796875,0.0
1734411613.6071045,-1000.0,-1000.0,-1000.0,-1000.0,0.0
1734411613.6110096,-1000.0,-1000.0,-1000.0,-1000.0,0.0
1734411613.6149306,-1000.0,-1000.0,-1000.0,-1000.0,0.0
1734411613.618836,-1000.0,-1000.0,-1000.0,-1000.0,0.0
1734411613.6227412,-1000.0,-1000.0,-1000.0,-1000.0,0.0
1734411613.6266463,-1000.0,-1000.0,-1000.0,-1000.0,0.0
1734411613.6305516,-1000.0,-1000.0,-1000.0,-1000.0,0.0
1734411613.6344569,-1000.0,-1000.0,-1000.0,-1000.0,0.0
1734411613.6383622,-1000.0,-1000.0,-1000.0,-1000.0,0.0
1734411613.6422675,-1000.0,-1000.0,-1000.0,-1000.0,0.0
1734411613.6461728,-1000.0,-1000.0,-1000.0,-1000.0,0.0
1734411613.650078,-1000.0,-1000.0,-989.2578125,-1000.0,0.0
1734411613.653983,-1000.0,-1000.0,-995.60546875,-1000.0,0.0
1734411613.6578884,-1000.0,-1000.0,-1000.0,-1000.0,0.0
1734411613.6618,-1000.0,-1000.0,-991.69921875,-1000.0,0.0
1734411613.6657052,-1000.0,-1000.0,-1000.0,-1000.0,0.0
1734411613.6696105,-1000.0,-1000.0,-936.5234375,-1000.0,0.0
1734411613.6735158,-1000.0,-1000.0,-789.55078125,-1000.0,0.0
1734411613.677421,-1000.0,-1000.0,-935.546875,-1000.0,0.0
1734411613.6813262,-1000.0,-960.44921875,-1000.0,-993.65234375,0.0
1734411613.6852314,-1000.0,-1000.0,-1000.0,-1000.0,0.0
1734411613.6891367,-1000.0,-888.18359375,-697.265625,-950.68359375,0.0
1734411613.693042,-1000.0,-126.46484375,-320.3125,-912.59765625,0.0
1734411613.6969473,-1000.0,-657.71484375,-700.68359375,-1000.0,0.0
1734411613.7008526,-926.7578125,-1000.0,-1000.0,-921.875,0.0
1734411613.704758,-1000.0,-1000.0,-1000.0,-1000.0,0.0
1734411613.7086687,-832.03125,-566.89453125,-469.7265625,-697.75390625,0.0
1734411613.7125738,394.53125,915.52734375,302.734375,293.9453125,0.0
1734411613.716479,-554.6875,484.86328125,-134.27734375,-769.04296875,0.0
1734411613.7203844,-1000.0,-866.2109375,-922.36328125,-1000.0,0.0
1734411613.7242897,-1000.0,-1000.0,-1000.0,-1000.0,0.0
1734411613.728195,-806.640625,-486.81640625,-483.3984375,-704.1015625,0.0
1734411613.7321002,783.203125,880.37109375,313.96484375,587.890625,0.0
1734411613.7360055,-95.703125,900.87890625,217.7734375,-561.5234375,0.0
1734411613.7399108,-1000.0,-611.328125,-774.4140625,-1000.0,0.0
1734411613.743816,-1000.0,-1000.0,-1000.0,-1000.0,0.0
1734411613.7477212,-648.92578125,-65.4296875,-271.97265625,-703.61328125,0.0
1734411613.7516265,960.9375,-997.55859375,565.4296875,645.01953125,0.0
1734411613.7555447,707.51953125,952.1484375,424.8046875,-506.34765625,0.0
1734411613.75945,-799.31640625,-318.359375,-668.45703125,-1000.0,0.0
1734411613.763355,-1000.0,-1000.0,-1000.0,-1000.0,0.0
1734411613.7672603,-451.66015625,-181.640625,-278.80859375,-761.23046875,0.0
1734411613.7711656,953.61328125,914.55078125,592.28515625,818.359375,0.0
1734411613.775071,887.20703125,-948.2421875,491.69921875,-102.5390625,0.0
1734411613.7789762,-583.984375,314.453125,-440.4296875,-1000.0,0.0
1734411613.7828815,-1000.0,-958.49609375,-915.0390625,-1000.0,0.0
1734411613.7867868,-278.80859375,-42.96875,-266.6015625,-818.359375,0.0
1734411613.790692,962.40234375,-999.0234375,559.08203125,837.890625,0.0
1734411613.7945971,995.60546875,-992.1875,708.49609375,577.1484375,0.0
1734411613.7985024,-313.4765625,800.78125,-89.84375,-907.71484375,0.0
1734411613.8024194,-1000.0,-756.8359375,-901.85546875,-1000.0,0.0
1734411613.8063245,-328.125,-283.69140625,-330.078125,-810.546875,0.0
1734411613.8102298,887.6953125,992.67578125,666.50390625,731.93359375,0.0
1734411613.814135,-914.55078125,-989.74609375,758.7890625,875.0,0.0
1734411613.8180404,178.7109375,840.33203125,20.99609375,-687.5,0.0
1734411613.8219457,-1000.0,-735.3515625,-845.21484375,-1000.0,0.0
1734411613.825851,-567.87109375,-480.46875,-417.96875,-841.30859375,0.0
1734411613.8297563,803.7109375,946.2890625,650.87890625,648.4375,0.0
1734411613.8336616,-884.765625,983.3984375,729.00390625,956.0546875,0.0
1734411613.8375666,574.70703125,934.5703125,-107.421875,-612.79296875,0.0
1734411613.841472,-959.47265625,-392.08984375,-802.734375,-1000.0,0.0
1734411613.8453772,-782.71484375,-590.33203125,-481.93359375,-872.0703125,0.0
1734411613.849293,722.16796875,824.70703125,481.4453125,598.6328125,0.0
1734411613.8531983,-878.41796875,-962.40234375,809.5703125,986.328125,0.0
1734411613.8571036,693.359375,922.36328125,316.40625,-592.7734375,0.0
1734411613.861009,-808.10546875,-491.2109375,-741.2109375,-1000.0,0.0
1734411613.8649142,-852.05078125,-797.36328125,-693.84765625,-763.18359375,0.0
1734411613.8688195,613.76953125,704.58984375,385.7421875,610.83984375,0.0
1734411613.8727245,-889.16015625,-939.94140625,755.859375,-967.7734375,0.0
1734411613.8766298,778.80859375,917.48046875,301.7578125,-475.5859375,0.0
1734411613.8805351,-728.515625,-527.34375,-779.78515625,-1000.0,0.0
1734411613.8844404,-978.02734375,-990.234375,-792.96875,-933.10546875,0.0
1734411613.8883457,580.078125,650.390625,317.3828125,425.78125,0.0
1734411613.892251,-891.11328125,-977.5390625,779.78515625,-883.7890625,0.0
1734411613.8961654,842.7734375,-984.86328125,496.58203125,-395.01953125,0.0
1734411613.9000707,-635.25390625,137.6953125,-546.875,-1000.0,0.0
1734411613.903976,-997.0703125,-867.1875,-799.31640625,-1000.0,0.0
1734411613.9078813,593.26171875,540.0390625,205.56640625,151.3671875,0.0
1734411613.9117866,-915.0390625,-935.546875,805.17578125,-839.35546875,0.0
1734411613.9156916,914.55078125,986.328125,569.3359375,-250.48828125,0.0
1734411613.919597,-498.046875,443.84765625,-454.58984375,-1000.0,0.0
1734411613.9235022,-1000.0,-922.36328125,-933.59375,-1000.0,0.0
1734411613.9274075,545.8984375,73.2421875,-147.94921875,-343.26171875,0.0
1734411613.9313128,-899.90234375,-938.4765625,750.9765625,-989.74609375,0.0
1734411613.935218,897.4609375,-977.5390625,641.6015625,-262.20703125,0.0
1734411613.9391234,-435.05859375,328.125,-470.703125,-1000.0,0.0
1734411613.943037,-1000.0,-958.984375,-975.5859375,-1000.0,0.0
1734411613.9469423,269.04296875,147.4609375,-165.0390625,-839.35546875,0.0
1734411613.9508476,-910.64453125,-954.1015625,646.97265625,613.28125,0.0
1734411613.954753,963.8671875,994.62890625,570.3125,-305.6640625,0.0
1734411613.9586582,-270.5078125,688.4765625,-279.296875,-1000.0,0.0
1734411613.9625633,-1000.0,-847.65625,-958.0078125,-994.140625,0.0
1734411613.9664686,128.41796875,-261.71875,-398.4375,-924.8046875,0.0
1734411613.9703739,-992.1875,995.1171875,483.88671875,514.6484375,0.0
1734411613.9742792,-942.87109375,994.62890625,649.90234375,-267.578125,0.0
1734411613.9781845,361.328125,900.390625,-67.87109375,-1000.0,0.0
1734411613.9820898,-1000.0,-577.63671875,-893.5546875,-953.125,0.0
1734411613.985995,-6.8359375,-299.8046875,-375.48828125,-1000.0,0.0
1734411613.9899075,-960.9375,-982.91015625,640.13671875,458.0078125,0.0
1734411613.9938128,999.0234375,991.69921875,789.0625,9.27734375,0.0
1734411613.997718,847.16796875,909.1796875,161.62109375,-1000.0,0.0
1734411614.0016234,-733.3984375,-43.9453125,-728.02734375,-944.3359375,0.0
1734411614.0055287,-102.5390625,251.46484375,-339.35546875,-1000.0,0.0
1734411614.009434,-916.50390625,-939.94140625,676.26953125,472.16796875,0.0
1734411614.013339,974.12109375,941.89453125,764.6484375,619.140625,0.0
1734411614.0172443,931.15234375,975.09765625,241.2109375,-938.96484375,0.0
1734411614.0211496,-479.4921875,747.55859375,-520.99609375,-1000.0,0.0
1734411614.025055,157.71484375,793.9453125,-248.53515625,-994.62890625,0.0
1734411614.0289602,-818.84765625,-996.09375,689.453125,438.4765625,0.0
1734411614.0328655,889.16015625,959.9609375,879.39453125,966.796875,0.0
1734411614.036777,974.609375,969.23828125,697.75390625,-635.25390625,0.0
1734411614.0406823,969.23828125,969.23828125,-110.83984375,-1000.0,0.0
1734411614.0445876,969.23828125,969.23828125,-192.3828125,-892.578125,0.0
1734411614.048493,969.23828125,969.23828125,698.2421875,482.421875,0.0
1734411614.0523982,969.23828125,969.23828125,959.9609375,-883.7890625,0.0
1734411614.0563035,969.23828125,969.7265625,732.421875,-331.0546875,0.0
1734411614.0602088,969.23828125,969.7265625,61.03515625,-1000.0,0.0
1734411614.0641139,969.23828125,969.7265625,290.0390625,-809.08203125,0.0
1734411614.0680192,969.23828125,969.7265625,882.8125,485.83984375,0.0
1734411614.0719244,969.23828125,969.7265625,895.01953125,-824.21875,0.0
1734411614.0758297,969.23828125,969.7265625,884.765625,635.25390625,0.0
1734411614.079735,969.23828125,969.7265625,779.296875,-855.46875,0.0
1734411614.0836456,969.23828125,969.7265625,768.06640625,-951.66015625,0.0
1734411614.0875509,969.23828125,969.7265625,907.2265625,584.47265625,0.0
1734411614.0914562,969.23828125,969.7265625,933.10546875,-920.41015625,0.0
1734411614.0953615,969.23828125,969.7265625,922.36328125,933.59375,0.0
1734411614.0992668,969.23828125,970.21484375,891.11328125,-511.23046875,0.0
1734411614.103172,969.23828125,970.21484375,873.046875,-941.40625,0.0
1734411614.1070774,969.23828125,969.7265625,910.64453125,750.0,0.0
1734411614.1109827,969.23828125,969.7265625,949.21875,974.12109375,0.0
1734411614.1148877,969.23828125,969.7265625,938.96484375,-925.78125,0.0
1734411614.118793,969.23828125,969.7265625,890.625,451.171875,0.0
1734411614.1226983,969.23828125,969.7265625,870.60546875,-728.515625,0.0
1734411614.1266036,969.23828125,969.7265625,912.109375,613.76953125,0.0
1734411614.1305215,969.23828125,969.7265625,935.546875,-954.1015625,0.0
1734411614.1344268,969.23828125,969.7265625,936.03515625,-977.5390625,0.0
1734411614.1383321,968.75,969.7265625,877.9296875,715.33203125,0.0
1734411614.1422374,968.75,969.7265625,822.75390625,-592.7734375,0.0
1734411614.1461425,969.23828125,969.7265625,880.37109375,503.90625,0.0
1734411614.1500478,969.23828125,969.7265625,922.8515625,-918.45703125,0.0
1734411614.153953,969.23828125,969.7265625,922.8515625,991.69921875,0.0
1734411614.1578584,969.23828125,969.7265625,882.8125,817.87109375,0.0
1734411614.1617637,969.23828125,969.7265625,802.24609375,-490.72265625,0.0
1734411614.165669,969.23828125,969.7265625,833.984375,465.33203125,0.0
1734411614.1695743,969.23828125,969.7265625,916.015625,-904.296875,0.0
1734411614.1734796,968.75,969.7265625,932.12890625,974.12109375,0.0
1734411614.177396,968.75,969.7265625,857.421875,870.1171875,0.0
1734411614.1813014,969.23828125,969.7265625,706.0546875,-405.76171875,0.0
1734411614.1852067,969.23828125,969.7265625,797.36328125,450.1953125,0.0
1734411614.189112,969.23828125,969.7265625,909.66796875,-892.08984375,0.0
1734411614.1930172,969.23828125,969.7265625,921.38671875,946.2890625,0.0
1734411614.1969225,968.75,969.7265625,821.77734375,950.1953125,0.0
1734411614.2008278,969.23828125,969.7265625,529.296875,-332.03125,0.0
1734411614.2047331,969.23828125,969.7265625,651.85546875,355.95703125,0.0
1734411614.2086382,969.23828125,969.7265625,878.90625,-878.41796875,0.0
1734411614.2125435,968.75,969.7265625,893.06640625,923.33984375,0.0
1734411614.2164488,969.23828125,970.21484375,842.28515625,-993.1640625,0.0
1734411614.220354,969.23828125,969.7265625,468.26171875,-462.40234375,0.0
1734411614.2242696,969.23828125,969.7265625,427.24609375,-2.9296875,0.0
1734411614.228175,969.23828125,969.7265625,797.8515625,-886.23046875,0.0
1734411614.2320802,969.23828125,969.7265625,927.24609375,924.8046875,0.0
1734411614.2359855,969.23828125,970.21484375,779.296875,-991.69921875,0.0
1734411614.2398906,969.23828125,969.23828125,204.58984375,-548.33984375,0.0
1734411614.2437959,969.23828125,968.26171875,176.26953125,-530.2734375,0.0
1734411614.2477012,969.23828125,969.7265625,727.05078125,950.68359375,0.0
1734411614.2516065,969.23828125,969.23828125,897.94921875,990.72265625,0.0
1734411614.2555118,969.23828125,970.703125,757.8125,963.8671875,0.0
1734411614.259417,969.23828125,966.30859375,230.95703125,-505.37109375,0.0
1734411614.2633224,969.23828125,964.35546875,-102.05078125,-958.984375,0.0
1734411614.2672276,968.75,975.5859375,559.08203125,659.1796875,0.0
1734411614.2711504,969.23828125,945.3125,919.921875,-929.19921875,0.0
1734411614.2750556,969.23828125,-996.58203125,786.1328125,938.96484375,0.0
1734411614.278961,969.23828125,928.22265625,225.5859375,-468.75,0.0
1734411614.282866,968.75,451.171875,-430.6640625,-1000.0,0.0
1734411614.2867713,985.83984375,776.3671875,213.8671875,596.19140625,0.0
1734411614.2906766,890.13671875,970.21484375,867.67578125,-916.50390625,0.0
1734411614.294582,-904.78515625,-955.56640625,754.39453125,931.640625,0.0
1734411614.2984872,754.39453125,782.2265625,27.83203125,-417.48046875,0.0
1734411614.3023925,-551.7578125,-714.35546875,-706.54296875,-1000.0,0.0
1734411614.3062978,472.16796875,147.94921875,-40.52734375,425.29296875,0.0
1734411614.310203,-912.109375,-908.69140625,808.59375,-893.5546875,0.0
1734411614.3141081,990.72265625,957.03125,735.83984375,908.203125,0.0
1734411614.3180218,613.28125,835.44921875,32.2265625,-349.12109375,0.0
1734411614.321927,-1000.0,-750.9765625,-786.62109375,-1000.0,0.0
1734411614.3258324,-422.36328125,-733.88671875,-456.54296875,-29.296875,0.0
1734411614.3297377,-962.890625,797.36328125,490.234375,-935.05859375,0.0
1734411614.333643,952.63671875,-925.29296875,615.234375,903.3203125,0.0
1734411614.3375483,-368.1640625,68.359375,-306.15234375,-381.8359375,0.0
1734411614.3414536,-1000.0,-1000.0,-1000.0,-1000.0,0.0
1734411614.3453588,-877.44140625,-1000.0,-845.21484375,-613.76953125,0.0
1734411614.349264,610.83984375,412.109375,110.3515625,847.65625,0.0
1734411614.3531692,979.00390625,-926.26953125,478.515625,962.40234375,0.0
1734411614.3570745,-672.36328125,-435.05859375,-522.4609375,-508.30078125,0.0
1734411614.3609798,-1000.0,-1000.0,-1000.0,-1000.0,0.0
1734411614.3648927,-925.78125,-935.546875,-982.421875,-875.48828125,0.0
1734411614.3687978,-1000.0,-1000.0,-707.03125,609.375,0.0
1734411614.372703,-1000.0,-1000.0,-633.7890625,972.16796875,0.0
1734411614.3766084,-1000.0,-1000.0,-970.21484375,-697.265625,0.0
1734411614.3805137,-1000.0,-1000.0,-1000.0,-1000.0,0.0
1734411614.384419,-1000.0,-1000.0,-989.2578125,-1000.0,0.0
1734411614.3883243,-1000.0,-1000.0,-1000.0,-660.64453125,0.0
1734411614.3922296,-1000.0,-1000.0,-1000.0,54.6875,0.0
1734411614.3961349,-1000.0,-1000.0,-1000.0,-895.99609375,0.0
1734411614.40004,-1000.0,-1000.0,-1000.0,-1000.0,0.0
1734411614.4039452,-1000.0,-1000.0,-1000.0,-944.82421875,0.0
1734411614.4078505,-1000.0,-1000.0,-1000.0,-1000.0,0.0
1734411614.4117622,-1000.0,-1000.0,-1000.0,-1000.0,0.0
1734411614.4156675,-1000.0,-1000.0,-1000.0,-1000.0,0.0
1734411614.4195726,-1000.0,-1000.0,-1000.0,-1000.0,0.0
1734411614.423478,-1000.0,-1000.0,-1000.0,-1000.0,0.0
1734411614.4273832,-1000.0,-1000.0,-1000.0,-1000.0,0.0
1734411614.4312885,-1000.0,-1000.0,-1000.0,-1000.0,0.0
1734411614.4351938,-1000.0,-1000.0,-1000.0,-1000.0,0.0
1734411614.439099,-1000.0,-1000.0,-1000.0,-1000.0,0.0
1734411614.4430044,-1000.0,-1000.0,-1000.0,-1000.0,0.0
1734411614.4469097,-1000.0,-1000.0,-1000.0,-1000.0,0.0
1734411614.4508147,-1000.0,-1000.0,-1000.0,-1000.0,0.0
1734411614.45472,-1000.0,-1000.0,-1000.0,-1000.0,0.0
1734411614.45863,-1000.0,-1000.0,-1000.0,-1000.0,0.0
1734411614.4625354,-1000.0,-1000.0,-1000.0,-1000.0,0.0
1734411614.4664407,-1000.0,-1000.0,-1000.0,-1000.0,0.0
1734411614.470346,-1000.0,-1000.0,-1000.0,-1000.0,0.0
1734411614.4742513,-1000.0,-1000.0,-1000.0,-1000.0,0.0
1734411614.4781566,-1000.0,-1000.0,-1000.0,-1000.0,0.0
1734411614.4820619,-1000.0,-1000.0,-1000.0,-1000.0,0.0
1734411614.4859672,-1000.0,-1000.0,-1000.0,-1000.0,0.0
1734411614.4898722,-1000.0,-1000.0,-1000.0,-1000.0,0.0
1734411614.4937775,-1000.0,-1000.0,-1000.0,-1000.0,0.0
1734411614.4976828,-1000.0,-1000.0,-1000.0,-1000.0,0.0
1734411614.501588,-1000.0,-1000.0,-995.60546875,-1000.0,0.0
1734411614.5055058,-1000.0,-1000.0,-1000.0,-1000.0,0.0
1734411614.509411,-1000.0,-1000.0,-979.98046875,-1000.0,0.0
1734411614.5133164,-1000.0,-1000.0,-896.484375,-1000.0,0.0
1734411614.5172217,-1000.0,-1000.0,-967.28515625,-1000.0,0.0
1734411614.521127,-1000.0,-1000.0,-1000.0,-1000.0,0.0
1734411614.5250323,-1000.0,-1000.0,-1000.0,-1000.0,0.0
1734411614.5289376,-1000.0,-1000.0,-910.64453125,-1000.0,0.0
1734411614.5328426,-1000.0,-1000.0,-745.1171875,-1000.0,0.0
1734411614.536748,-1000.0,-1000.0,-920.41015625,-1000.0,0.0
1734411614.5406532,-1000.0,-958.49609375,-1000.0,-1000.0,0.0
1734411614.5445585,-1000.0,-1000.0,-1000.0,-1000.0,0.0
1734411614.5484638,-1000.0,-913.57421875,-745.1171875,-1000.0,0.0
1734411614.5523806,-1000.0,-151.3671875,-369.62890625,-1000.0,0.0
1734411614.5562859,-1000.0,-691.40625,-706.0546875,-1000.0,0.0
1734411614.5601912,-926.26953125,-1000.0,-994.62890625,-959.47265625,0.0
1734411614.5640965,-1000.0,-1000.0,-1000.0,-1000.0,0.0
1734411614.5680017,-837.40234375,-663.0859375,-547.36328125,-864.2578125,0.0
1734411614.571907,457.03125,849.609375,208.49609375,-371.09375,0.0
1734411614.575812,-495.60546875,716.796875,-68.84765625,-908.69140625,0.0
1734411614.5797174,-1000.0,-747.0703125,-864.74609375,-984.375,0.0
1734411614.5836227,-1000.0,-1000.0,-1000.0,-1000.0,0.0
1734411614.587528,-776.3671875,-375.0,-425.29296875,-744.140625,0.0
1734411614.5914333,874.51171875,949.21875,503.90625,565.91796875,0.0
