timestamps,TP9,AF7,AF8,TP10,Right AUX
1734498719.4478955,-1000.0,926.26953125,-824.21875,-1000.0,0.0
1734498719.451793,-1000.0,974.609375,-811.03515625,-996.09375,0.0
1734498719.4556904,-1000.0,969.23828125,-839.35546875,-1000.0,0.0
1734498719.4595878,-1000.0,968.75,-835.9375,-962.40234375,0.0
1734498719.4634855,-1000.0,969.23828125,-780.76171875,-784.1796875,0.0
1734498719.467383,-1000.0,968.75,-703.61328125,-555.17578125,0.0
1734498719.4712803,-1000.0,968.75,-673.828125,-345.703125,0.0
1734498719.4751778,-1000.0,968.75,-576.171875,-167.48046875,0.0
1734498719.4790752,-1000.0,968.75,-296.875,-59.5703125,0.0
1734498719.4829726,-1000.0,968.75,-73.2421875,15.625,0.0
1734498719.48687,-939.453125,968.75,-113.76953125,95.703125,0.0
1734498719.4908876,-1000.0,968.75,-161.1328125,178.7109375,0.0
1734498719.494785,-690.4296875,968.75,-111.81640625,264.6484375,0.0
1734498719.4986825,700.68359375,968.75,59.5703125,366.2109375,0.0
1734498719.50258,-959.9609375,968.75,248.046875,449.70703125,0.0
1734498719.5064776,910.64453125,968.75,415.0390625,509.765625,0.0
1734498719.510375,979.98046875,968.75,696.2890625,550.29296875,0.0
1734498719.5142725,968.26171875,968.75,892.578125,583.984375,0.0
1734498719.5181699,968.26171875,968.75,924.8046875,626.46484375,0.0
1734498719.5220673,968.26171875,968.75,941.40625,630.859375,0.0
1734498719.5259647,968.26171875,968.75,946.2890625,624.51171875,0.0
1734498719.5298622,968.26171875,968.75,945.80078125,634.27734375,0.0
1734498719.5337596,968.26171875,968.75,946.77734375,602.5390625,0.0
1734498719.5377643,967.7734375,968.75,946.77734375,586.9140625,0.0
1734498719.5416617,980.46875,968.75,946.77734375,579.1015625,0.0
1734498719.5455594,909.66796875,968.75,947.265625,566.40625,0.0
1734498719.5494568,-960.44921875,968.75,947.265625,570.80078125,0.0
1734498719.5533543,727.5390625,968.75,946.77734375,532.71484375,0.0
1734498719.5572517,-663.57421875,968.75,946.2890625,471.6796875,0.0
1734498719.5611491,-1000.0,968.75,946.2890625,464.35546875,0.0
1734498719.5650465,-939.94140625,968.75,945.80078125,510.25390625,0.0
1734498719.5689442,-1000.0,968.75,945.80078125,478.02734375,0.0
1734498719.5728416,-945.80078125,968.75,945.80078125,427.24609375,0.0
1734498719.576739,-1000.0,968.75,945.3125,495.60546875,0.0
1734498719.5806365,-735.83984375,968.26171875,944.82421875,571.77734375,0.0
1734498719.5846305,0.0,969.23828125,945.3125,606.93359375,0.0
1734498719.5885282,0.0,971.19140625,941.40625,684.08203125,0.0
1734498719.5924256,0.0,945.80078125,933.10546875,756.8359375,0.0
1734498719.596323,0.0,956.54296875,925.78125,829.58984375,0.0
1734498719.6002204,0.0,953.61328125,902.34375,868.1640625,0.0
1734498719.6041179,0.0,-997.55859375,895.99609375,901.85546875,0.0
1734498719.6080155,0.0,808.10546875,789.0625,958.49609375,0.0
1734498719.611913,0.0,533.203125,688.96484375,967.28515625,0.0
1734498719.6158104,0.0,326.171875,679.19921875,944.82421875,0.0
1734498719.6197078,0.0,485.83984375,606.93359375,923.828125,0.0
1734498719.6236053,0.0,947.265625,628.90625,933.59375,0.0
1734498719.627503,0.0,972.65625,594.7265625,951.66015625,0.0
1734498719.6315544,-1000.0,835.9375,315.4296875,920.8984375,0.0
1734498719.6354518,-960.9375,-215.33203125,88.37890625,895.01953125,0.0
1734498719.6393492,-978.02734375,-601.07421875,70.80078125,930.17578125,0.0
1734498719.6432467,-1000.0,516.11328125,90.8203125,868.65234375,0.0
1734498719.6471443,-880.859375,-945.80078125,10.25390625,765.625,0.0
1734498719.6510417,106.4453125,895.5078125,-128.90625,740.72265625,0.0
1734498719.6549392,945.80078125,-461.42578125,-282.2265625,670.41015625,0.0
1734498719.6588368,957.03125,-190.91796875,-416.50390625,554.6875,0.0
1734498719.6627343,950.68359375,-896.484375,-489.74609375,475.5859375,0.0
1734498719.6666317,972.65625,892.08984375,-510.7421875,417.96875,0.0
1734498719.6705291,968.26171875,-906.25,-557.12890625,293.9453125,0.0
1734498719.6744268,967.7734375,331.54296875,-650.390625,162.59765625,0.0
1734498719.6784017,968.26171875,-12.20703125,-766.6015625,99.12109375,0.0
1734498719.6822991,968.26171875,-998.53515625,-844.23828125,35.64453125,0.0
1734498719.6861966,968.26171875,925.29296875,-870.1171875,-66.40625,0.0
1734498719.6900942,967.7734375,-916.015625,-848.6328125,-156.73828125,0.0
1734498719.6939917,968.26171875,437.5,-843.26171875,-220.703125,0.0
1734498719.697889,968.26171875,-628.90625,-862.79296875,-313.4765625,0.0
1734498719.7017868,968.26171875,511.71875,-860.83984375,-416.50390625,0.0
1734498719.7056842,967.7734375,-971.6796875,-838.37890625,-451.171875,0.0
1734498719.7095816,968.26171875,-900.390625,-779.296875,-462.40234375,0.0
1734498719.7134793,967.7734375,166.50390625,-685.05859375,-400.390625,0.0
1734498719.7173767,967.7734375,-625.0,-515.13671875,-342.28515625,0.0
1734498719.7212741,968.26171875,789.0625,-341.796875,-346.19140625,0.0
1734498719.7253091,967.7734375,997.55859375,-242.1875,-287.109375,0.0
1734498719.7292068,967.7734375,-983.88671875,-143.06640625,-256.8359375,0.0
1734498719.7331042,968.26171875,632.32421875,-12.20703125,-201.66015625,0.0
1734498719.737002,968.26171875,-361.81640625,142.578125,-42.96875,0.0
1734498719.7408993,968.26171875,495.1171875,367.1875,197.75390625,0.0
1734498719.744797,967.7734375,-942.87109375,706.54296875,481.93359375,0.0
1734498719.7486944,967.7734375,941.40625,941.40625,817.3828125,0.0
1734498719.7525918,968.26171875,905.2734375,953.125,979.00390625,0.0
1734498719.7564895,968.26171875,-543.9453125,959.9609375,960.44921875,0.0
1734498719.760387,968.26171875,-257.32421875,970.703125,967.28515625,0.0
1734498719.7642846,967.7734375,-947.265625,968.75,969.23828125,0.0
1734498719.768182,968.26171875,996.09375,968.75,968.75,0.0
1734498719.7722104,968.26171875,820.3125,968.75,968.75,0.0
1734498719.7761078,968.75,-544.921875,968.75,968.75,0.0
1734498719.7800055,969.7265625,-104.4921875,968.75,968.75,0.0
1734498719.783903,926.7578125,-916.015625,968.75,968.75,0.0
1734498719.7878006,-976.07421875,926.7578125,968.75,968.75,0.0
1734498719.791698,548.33984375,-993.1640625,968.75,968.26171875,0.0
1734498719.7955956,-654.296875,-396.484375,968.75,968.75,0.0
1734498719.799493,-1000.0,-423.828125,968.75,968.75,0.0
1734498719.8033907,-963.8671875,-967.7734375,968.75,968.75,0.0
1734498719.8072882,-1000.0,929.19921875,968.75,968.75,0.0
1734498719.8111858,-1000.0,-915.0390625,968.75,968.75,0.0
1734498719.8150833,-1000.0,-151.3671875,968.75,968.75,0.0
1734498719.8190994,-1000.0,-691.89453125,968.75,968.75,0.0
1734498719.822997,-1000.0,776.85546875,968.75,968.75,0.0
1734498719.8268945,-1000.0,-927.24609375,968.75,968.75,0.0
1734498719.8307922,-1000.0,763.18359375,968.75,968.75,0.0
1734498719.8346896,-1000.0,-468.26171875,968.75,968.75,0.0
1734498719.8385873,-1000.0,-1000.0,968.75,968.75,0.0
1734498719.8424847,-1000.0,-316.40625,968.75,968.75,0.0
1734498719.8463824,-1000.0,204.58984375,968.75,968.75,0.0
1734498719.85028,-1000.0,-707.51953125,968.75,968.26171875,0.0
1734498719.8541775,-1000.0,-1000.0,968.75,968.26171875,0.0
1734498719.8580751,-1000.0,-953.125,968.75,968.75,0.0
1734498719.8619726,-990.234375,-1000.0,968.75,968.75,0.0
1734498719.865979,-981.4453125,-914.55078125,968.75,968.75,0.0
1734498719.8698764,-1000.0,-873.53515625,968.75,968.75,0.0
1734498719.873774,-356.4453125,-979.98046875,968.75,968.75,0.0
1734498719.8776715,603.515625,-1000.0,968.75,968.75,0.0
1734498719.8815691,811.5234375,-716.796875,968.75,968.75,0.0
1734498719.8854668,879.8828125,-231.93359375,968.75,968.75,0.0
1734498719.8893642,978.02734375,-367.67578125,968.75,968.26171875,0.0
1734498719.893262,959.9609375,-800.29296875,968.75,968.75,0.0
1734498719.8971593,967.28515625,-1000.0,968.75,968.75,0.0
1734498719.901057,968.75,25.390625,968.75,968.26171875,0.0
1734498719.9049547,967.7734375,972.16796875,968.75,968.75,0.0
1734498719.908852,968.26171875,-958.984375,968.75,968.75,0.0
1734498719.9128497,967.7734375,415.52734375,968.75,968.26171875,0.0
1734498719.9167473,967.7734375,-476.5625,968.75,968.75,0.0
1734498719.9206448,967.7734375,419.43359375,968.75,968.75,0.0
1734498719.9245424,967.7734375,-998.046875,968.75,968.75,0.0
1734498719.92844,968.26171875,993.65234375,968.75,968.75,0.0
1734498719.9323375,968.26171875,604.00390625,968.75,968.75,0.0
1734498719.9362352,968.26171875,-407.2265625,968.75,968.75,0.0
1734498719.9401326,968.26171875,-139.16015625,968.75,968.26171875,0.0
1734498719.9440303,968.26171875,849.12109375,968.75,968.75,0.0
1734498719.947928,968.26171875,-947.75390625,968.75,968.75,0.0
1734498719.9518254,968.26171875,781.25,968.75,968.75,0.0
1734498719.955723,968.26171875,611.81640625,968.75,968.75,0.0
1734498719.9597101,967.7734375,917.96875,968.75,968.75,0.0
1734498719.9636078,968.26171875,991.69921875,968.75,968.75,0.0
1734498719.9675055,968.26171875,921.38671875,968.75,968.26171875,0.0
1734498719.971403,967.7734375,972.65625,968.75,968.75,0.0
1734498719.9753006,967.7734375,666.50390625,968.75,968.75,0.0
1734498719.9791982,967.7734375,404.78515625,968.75,968.75,0.0
1734498719.983096,968.26171875,320.80078125,968.26171875,968.26171875,0.0
1734498719.9869933,968.26171875,354.4921875,968.75,968.75,0.0
1734498719.990891,968.26171875,522.4609375,968.75,968.75,0.0
1734498719.9947886,968.26171875,-184.5703125,968.26171875,968.75,0.0
1734498719.998686,967.7734375,-842.28515625,968.75,968.75,0.0
1734498720.0025837,967.7734375,136.71875,968.75,968.75,0.0
1734498720.0066333,968.26171875,-909.66796875,968.75,968.75,0.0
1734498720.0105307,968.26171875,879.39453125,968.75,968.75,0.0
1734498720.0144284,968.26171875,584.9609375,968.75,968.75,0.0
1734498720.018326,967.7734375,767.578125,968.75,968.75,0.0
1734498720.0222237,967.7734375,-993.1640625,968.75,968.75,0.0
1734498720.0261214,968.26171875,955.078125,968.75,968.75,0.0
1734498720.0300188,968.26171875,968.26171875,968.26171875,967.28515625,0.0
1734498720.0339165,967.7734375,969.23828125,968.75,967.7734375,0.0
1734498720.0378141,967.7734375,968.75,968.75,968.75,0.0
1734498720.0417118,968.26171875,968.75,968.26171875,968.26171875,0.0
1734498720.0456092,968.26171875,968.26171875,969.23828125,968.26171875,0.0
1734498720.049507,968.26171875,968.26171875,963.37890625,968.75,0.0
1734498720.0534785,967.7734375,972.65625,952.1484375,968.75,0.0
1734498720.0573761,974.12109375,941.89453125,934.08203125,968.75,0.0
1734498720.0612738,948.73046875,918.9453125,913.0859375,968.75,0.0
1734498720.0651715,958.0078125,956.0546875,951.171875,968.26171875,0.0
1734498720.0690691,952.63671875,729.98046875,-56.15234375,968.75,0.0
1734498720.0729668,0.48828125,-385.25390625,-1000.0,968.75,0.0
1734498720.0768642,-981.4453125,-1000.0,-975.09765625,967.28515625,0.0
1734498720.080762,-994.140625,-963.8671875,-982.91015625,967.7734375,0.0
1734498720.0846596,-978.515625,-995.1171875,-1000.0,969.7265625,0.0
1734498720.0885572,-1000.0,-1000.0,-1000.0,972.65625,0.0
1734498720.092455,-1000.0,-1000.0,-1000.0,929.19921875,0.0
1734498720.0963526,-978.515625,-997.55859375,-1000.0,-998.53515625,0.0
1734498720.1003828,-974.12109375,-942.87109375,-1000.0,731.4453125,0.0
1734498720.1042805,-1000.0,-1000.0,-1000.0,-409.66796875,0.0
1734498720.1081781,116.2109375,-163.57421875,-1000.0,-1000.0,0.0
1734498720.1120758,-898.4375,-945.80078125,-1000.0,-972.16796875,0.0
1734498720.1159732,911.1328125,944.82421875,-1000.0,-987.3046875,0.0
1734498720.119871,964.35546875,945.80078125,-1000.0,-988.76953125,0.0
1734498720.1237686,968.75,974.609375,-1000.0,-987.79296875,0.0
1734498720.1276662,968.26171875,968.75,-1000.0,-982.421875,0.0
1734498720.131564,968.26171875,968.75,-1000.0,-971.19140625,0.0
1734498720.1354616,968.26171875,969.23828125,-1000.0,-955.078125,0.0
1734498720.1393592,968.26171875,968.75,-1000.0,-766.11328125,0.0
1734498720.143257,967.7734375,968.75,-1000.0,-773.4375,0.0
1734498720.1472769,968.26171875,968.75,-1000.0,-909.1796875,0.0
1734498720.1511745,968.26171875,968.75,-1000.0,-974.609375,0.0
1734498720.1550722,968.26171875,968.75,-1000.0,-874.51171875,0.0
1734498720.1589699,967.7734375,968.75,-1000.0,299.31640625,0.0
1734498720.1628675,967.7734375,968.75,-1000.0,-948.2421875,0.0
1734498720.1667652,968.26171875,968.75,-1000.0,926.26953125,0.0
1734498720.1706629,968.26171875,969.23828125,-1000.0,964.35546875,0.0
1734498720.1745605,968.26171875,979.98046875,-1000.0,970.21484375,0.0
1734498720.1784582,968.26171875,900.390625,-1000.0,968.75,0.0
1734498720.1823559,968.75,-914.55078125,-1000.0,968.75,0.0
1734498720.1862535,905.2734375,495.1171875,-1000.0,968.75,0.0
1734498720.1901512,-893.5546875,-897.4609375,-1000.0,968.75,0.0
1734498720.194167,187.98828125,-1000.0,-1000.0,968.75,0.0
1734498720.1980646,-1000.0,-950.68359375,-1000.0,968.75,0.0
1734498720.2019622,-984.375,-1000.0,-1000.0,968.75,0.0
1734498720.20586,-973.14453125,-1000.0,-1000.0,968.75,0.0
1734498720.2097576,-1000.0,-1000.0,-998.53515625,968.75,0.0
1734498720.2136552,-1000.0,-1000.0,-1000.0,970.703125,0.0
1734498720.217553,-1000.0,-1000.0,-976.5625,961.42578125,0.0
1734498720.2214506,-1000.0,-1000.0,-897.4609375,967.7734375,0.0
1734498720.2253482,-1000.0,-1000.0,-723.14453125,929.19921875,0.0
1734498720.229246,-1000.0,-1000.0,-502.44140625,575.68359375,0.0
1734498720.2331436,-1000.0,-1000.0,-442.87109375,27.34375,0.0
1734498720.2370412,-1000.0,-1000.0,117.1875,-306.15234375,0.0
1734498720.2410445,-1000.0,-1000.0,770.5078125,-722.16796875,0.0
1734498720.2449422,-1000.0,-1000.0,874.51171875,-815.91796875,0.0
1734498720.2488399,-1000.0,-1000.0,898.4375,-691.89453125,0.0
1734498720.2527375,-1000.0,-1000.0,916.015625,-882.32421875,0.0
1734498720.2566352,-1000.0,-1000.0,916.9921875,-969.23828125,0.0
1734498720.2605329,-1000.0,-1000.0,886.23046875,-530.76171875,0.0
1734498720.2644305,-925.78125,-966.796875,869.62890625,-143.06640625,0.0
1734498720.2683282,-1000.0,-1000.0,872.0703125,-291.015625,0.0
1734498720.2722259,-597.65625,-1000.0,894.04296875,-750.0,0.0
1734498720.2761235,858.88671875,270.01953125,952.63671875,-1000.0,0.0
1734498720.2800212,-978.02734375,-901.3671875,913.57421875,-979.00390625,0.0
1734498720.2839189,910.15625,906.25,-958.984375,-1000.0,0.0
1734498720.2879205,984.375,971.6796875,165.0390625,-1000.0,0.0
1734498720.2918181,968.26171875,969.23828125,-1000.0,-1000.0,0.0
1734498720.2957158,968.26171875,969.23828125,-992.1875,-1000.0,0.0
1734498720.2996135,967.7734375,968.75,-971.6796875,-1000.0,0.0
1734498720.3035114,968.26171875,968.75,-1000.0,-1000.0,0.0
1734498720.307409,968.26171875,968.75,-1000.0,-1000.0,0.0
1734498720.3113067,968.26171875,969.23828125,-1000.0,-1000.0,0.0
1734498720.3152044,968.26171875,968.75,-1000.0,-1000.0,0.0
1734498720.319102,967.7734375,968.75,-1000.0,-1000.0,0.0
1734498720.3229997,968.26171875,968.75,-956.54296875,-1000.0,0.0
1734498720.3268974,968.26171875,968.75,-1000.0,-1000.0,0.0
1734498720.3307953,968.26171875,968.75,-548.33984375,-1000.0,0.0
1734498720.3347838,968.26171875,968.75,641.6015625,-1000.0,0.0
1734498720.3386817,968.26171875,969.23828125,947.75390625,-1000.0,0.0
1734498720.3425794,968.26171875,968.75,875.0,-1000.0,0.0
1734498720.346477,968.26171875,968.26171875,909.1796875,-1000.0,0.0
1734498720.3503747,968.26171875,968.75,908.69140625,-1000.0,0.0
1734498720.3542724,968.26171875,969.23828125,915.52734375,-1000.0,0.0
1734498720.3581703,968.26171875,970.21484375,903.3203125,-1000.0,0.0
1734498720.362068,969.7265625,905.76171875,752.44140625,-1000.0,0.0
1734498720.3659656,904.78515625,-892.578125,-92.7734375,-1000.0,0.0
1734498720.3698633,-893.06640625,199.70703125,-952.63671875,-1000.0,0.0
1734498720.373761,198.73046875,-1000.0,-933.59375,-1000.0,0.0
1734498720.3776586,-1000.0,-986.328125,-932.6171875,-1000.0,0.0
1734498720.3816457,0.0,-972.16796875,-1000.0,-1000.0,0.0
1734498720.3855436,0.0,-1000.0,-998.53515625,-1000.0,0.0
1734498720.3894413,0.0,-1000.0,-1000.0,-1000.0,0.0
1734498720.393339,0.0,-1000.0,-1000.0,-1000.0,0.0
1734498720.3972366,0.0,-1000.0,-1000.0,-1000.0,0.0
1734498720.4011343,0.0,-1000.0,-1000.0,-1000.0,0.0
1734498720.4050322,0.0,-1000.0,-1000.0,-1000.0,0.0
1734498720.4089298,0.0,-1000.0,-1000.0,-1000.0,0.0
1734498720.4128275,0.0,-1000.0,-1000.0,-1000.0,0.0
1734498720.4167252,0.0,-1000.0,-1000.0,-1000.0,0.0
1734498720.420623,0.0,-1000.0,-1000.0,-1000.0,0.0
1734498720.4245207,0.0,-1000.0,-1000.0,-1000.0,0.0
1734498720.4284906,-1000.0,-1000.0,-1000.0,-1000.0,0.0
1734498720.4323883,-1000.0,-1000.0,-1000.0,-1000.0,0.0
1734498720.436286,-1000.0,-1000.0,-1000.0,-1000.0,0.0
1734498720.4401836,-1000.0,-1000.0,-1000.0,-1000.0,0.0
1734498720.4440815,-1000.0,-1000.0,-1000.0,-1000.0,0.0
1734498720.4479792,-1000.0,-1000.0,-1000.0,-1000.0,0.0
1734498720.4518769,-1000.0,-1000.0,-1000.0,-1000.0,0.0
1734498720.4557745,-1000.0,-1000.0,-1000.0,-1000.0,0.0
1734498720.4596725,-1000.0,-998.53515625,-1000.0,-1000.0,0.0
1734498720.46357,-1000.0,-941.40625,-1000.0,-1000.0,0.0
1734498720.4674678,-1000.0,-1000.0,-1000.0,-1000.0,0.0
1734498720.4713655,-1000.0,-180.17578125,-1000.0,-1000.0,0.0
1734498720.4753933,-1000.0,-950.68359375,-1000.0,-1000.0,0.0
1734498720.479291,-1000.0,947.265625,-1000.0,-1000.0,0.0
1734498720.4831886,-1000.0,944.82421875,-1000.0,-1000.0,0.0
1734498720.4870865,-1000.0,974.609375,-1000.0,-1000.0,0.0
1734498720.4909842,-1000.0,968.75,-1000.0,-1000.0,0.0
1734498720.4948819,-1000.0,969.23828125,-1000.0,-1000.0,0.0
1734498720.4987798,-1000.0,969.23828125,-1000.0,-1000.0,0.0
1734498720.5026774,-1000.0,968.75,-1000.0,-1000.0,0.0
1734498720.506575,-1000.0,968.75,-1000.0,-1000.0,0.0
1734498720.510473,-1000.0,969.23828125,-1000.0,-1000.0,0.0
1734498720.5143707,-1000.0,968.75,-1000.0,-1000.0,0.0
1734498720.5182683,-1000.0,968.75,-1000.0,-1000.0,0.0
1734498720.522291,-1000.0,969.23828125,-1000.0,-1000.0,0.0
1734498720.5261886,-1000.0,969.23828125,-1000.0,-1000.0,0.0
1734498720.5300865,-1000.0,968.75,-1000.0,-1000.0,0.0
1734498720.5339842,-1000.0,968.75,-1000.0,-1000.0,0.0
1734498720.537882,-1000.0,968.75,-1000.0,-1000.0,0.0
1734498720.5417798,-1000.0,968.75,-1000.0,-1000.0,0.0
1734498720.5456774,-1000.0,969.23828125,-1000.0,-1000.0,0.0
1734498720.5495753,-1000.0,969.23828125,-1000.0,-1000.0,0.0
1734498720.553473,-1000.0,968.75,-1000.0,-1000.0,0.0
1734498720.557371,-1000.0,968.75,-1000.0,-1000.0,0.0
1734498720.5612686,-1000.0,968.75,-1000.0,-1000.0,0.0
1734498720.5651662,-1000.0,968.75,-1000.0,-1000.0,0.0
1734498720.5691774,-1000.0,968.75,-1000.0,-1000.0,0.0
1734498720.573075,-1000.0,968.75,-1000.0,-1000.0,0.0
1734498720.5769727,-1000.0,968.75,-1000.0,-1000.0,0.0
1734498720.5808706,-1000.0,968.75,-1000.0,-1000.0,0.0
1734498720.5847683,-1000.0,968.75,-1000.0,-1000.0,0.0
1734498720.5886662,-1000.0,969.23828125,-1000.0,-1000.0,0.0
1734498720.5925639,-1000.0,968.75,-1000.0,-1000.0,0.0
1734498720.5964618,-1000.0,968.75,-1000.0,-1000.0,0.0
1734498720.6003594,-1000.0,968.75,-1000.0,-1000.0,0.0
1734498720.6042573,-1000.0,968.75,-1000.0,-1000.0,0.0
1734498720.608155,-1000.0,969.23828125,-1000.0,-1000.0,0.0
1734498720.612053,-1000.0,969.23828125,-1000.0,-1000.0,0.0
1734498720.6160612,-1000.0,969.23828125,-1000.0,-1000.0,0.0
1734498720.619959,-1000.0,969.23828125,-1000.0,-1000.0,0.0
1734498720.6238568,-1000.0,969.23828125,-1000.0,-1000.0,0.0
1734498720.6277547,-1000.0,968.75,-1000.0,-1000.0,0.0
1734498720.6316524,-1000.0,968.75,-1000.0,-1000.0,0.0
1734498720.6355503,-1000.0,968.75,-1000.0,-1000.0,0.0
1734498720.639448,-1000.0,968.75,-1000.0,-1000.0,0.0
1734498720.6433458,-1000.0,969.23828125,-1000.0,-1000.0,0.0
1734498720.6472435,-1000.0,968.75,-1000.0,-1000.0,0.0
1734498720.6511414,-1000.0,968.75,-1000.0,-1000.0,0.0
1734498720.655039,-1000.0,968.75,-1000.0,-1000.0,0.0
1734498720.658937,-1000.0,968.75,-1000.0,-1000.0,0.0
1734498720.662936,0.0,968.75,-1000.0,-1000.0,0.0
1734498720.6668336,0.0,968.75,-1000.0,-1000.0,0.0
1734498720.6707315,0.0,968.75,-1000.0,-1000.0,0.0
1734498720.6746294,0.0,968.75,-1000.0,-1000.0,0.0
1734498720.678527,0.0,968.75,-1000.0,-1000.0,0.0
1734498720.682425,0.0,968.75,-1000.0,-1000.0,0.0
1734498720.6863227,0.0,968.75,-1000.0,-1000.0,0.0
1734498720.6902206,0.0,968.75,-1000.0,-1000.0,0.0
1734498720.6941183,0.0,968.75,-1000.0,-1000.0,0.0
1734498720.6980162,0.0,969.23828125,-1000.0,-1000.0,0.0
1734498720.701914,0.0,968.75,-1000.0,-1000.0,0.0
1734498720.7058117,0.0,969.23828125,-1000.0,-1000.0,0.0
1734498720.7098053,-1000.0,969.23828125,-1000.0,-1000.0,0.0
1734498720.713703,-1000.0,968.75,-1000.0,-1000.0,0.0
1734498720.7176008,-1000.0,969.23828125,-1000.0,-1000.0,0.0
1734498720.7214987,-1000.0,969.23828125,-1000.0,-1000.0,0.0
1734498720.7253964,-1000.0,969.23828125,-999.51171875,-1000.0,0.0
1734498720.7292943,-1000.0,968.75,-1000.0,-1000.0,0.0
1734498720.7331922,-1000.0,968.75,-993.1640625,-1000.0,0.0
1734498720.7370899,-1000.0,968.75,-982.91015625,-1000.0,0.0
1734498720.7409878,-1000.0,968.75,-992.67578125,-1000.0,0.0
1734498720.7448854,-1000.0,968.75,-986.328125,-1000.0,0.0
1734498720.7487833,-1000.0,969.23828125,-982.91015625,-1000.0,0.0
1734498720.7526813,-1000.0,968.75,-980.46875,-1000.0,0.0
1734498720.7566648,-1000.0,968.75,-968.26171875,-1000.0,0.0
1734498720.7605624,-1000.0,968.75,-950.68359375,-1000.0,0.0
1734498720.7644603,-957.03125,968.75,-947.75390625,-963.37890625,0.0
1734498720.7683582,-1000.0,969.23828125,-967.7734375,-1000.0,0.0
1734498720.772256,-1000.0,968.75,-953.61328125,-998.046875,0.0
1734498720.7761538,185.05859375,968.75,-910.15625,0.0,0.0
1734498720.7800517,-333.49609375,969.23828125,-928.7109375,-457.03125,0.0
1734498720.7839494,-1000.0,968.75,-978.02734375,-1000.0,0.0
1734498720.7878473,-1000.0,968.75,-994.140625,-952.63671875,0.0
1734498720.7917452,-878.90625,968.75,-993.1640625,-995.60546875,0.0
1734498720.7956429,464.35546875,968.75,-988.76953125,-854.4921875,0.0
1734498720.7995408,-303.22265625,970.21484375,-1000.0,-967.7734375,0.0
1734498720.8035793,-1000.0,963.37890625,-1000.0,-1000.0,0.0
1734498720.807477,-922.8515625,916.015625,-1000.0,-989.74609375,0.0
1734498720.811375,-1000.0,-909.1796875,-1000.0,-1000.0,0.0
1734498720.8152728,-1000.0,140.625,-1000.0,-1000.0,0.0
1734498720.8191707,-1000.0,-1000.0,-1000.0,-1000.0,0.0
1734498720.8230684,-1000.0,-574.21875,-1000.0,-1000.0,0.0
1734498720.8269663,-1000.0,656.73828125,-1000.0,-1000.0,0.0
1734498720.8308642,-1000.0,-76.66015625,-1000.0,-1000.0,0.0
1734498720.8347619,-1000.0,-1000.0,-1000.0,-1000.0,0.0
1734498720.8386598,-1000.0,-970.21484375,-1000.0,-1000.0,0.0
1734498720.8425577,-1000.0,-983.88671875,-1000.0,-961.42578125,0.0
1734498720.8464556,-937.5,-1000.0,-1000.0,-1000.0,0.0
1734498720.850489,0.0,-972.16796875,-1000.0,-576.171875,0.0
1734498720.8543868,0.0,-989.2578125,-1000.0,584.47265625,0.0
1734498720.8582845,0.0,-1000.0,-943.359375,-974.609375,0.0
1734498720.8621824,0.0,203.125,-1000.0,928.7109375,0.0
1734498720.8660803,0.0,-901.3671875,-217.28515625,970.703125,0.0
1734498720.8699782,0.0,911.62109375,976.5625,969.23828125,0.0
1734498720.873876,0.0,957.51953125,977.5390625,968.75,0.0
1734498720.8777738,0.0,925.29296875,771.484375,968.75,0.0
1734498720.8816717,0.0,-916.015625,-424.31640625,968.75,0.0
1734498720.8855696,0.0,1.46484375,-1000.0,968.75,0.0
1734498720.8894675,0.0,-1000.0,-951.171875,968.75,0.0
1734498720.8933654,0.0,-960.44921875,-1000.0,968.75,0.0
1734498720.897207,-1000.0,-986.81640625,-1000.0,968.75,0.0
1734498720.901105,-220.21484375,-1000.0,-1000.0,968.26171875,0.0
1734498720.9050026,-960.9375,-1000.0,-1000.0,968.75,0.0
1734498720.9089005,951.66015625,-1000.0,-1000.0,968.75,0.0
1734498720.9127984,940.91796875,-1000.0,-1000.0,968.75,0.0
1734498720.9166963,975.09765625,-1000.0,-1000.0,968.75,0.0
1734498720.920594,967.7734375,-1000.0,-1000.0,968.75,0.0
1734498720.924492,967.7734375,-1000.0,-1000.0,968.75,0.0
1734498720.9283898,968.26171875,-1000.0,-1000.0,968.75,0.0
1734498720.9322877,968.75,-1000.0,-1000.0,968.75,0.0
1734498720.9361856,905.2734375,-1000.0,-974.12109375,968.75,0.0
1734498720.9400833,-893.5546875,-999.0234375,-1000.0,968.75,0.0
1734498720.944099,983.3984375,-941.89453125,-926.7578125,968.75,0.0
1734498720.9479969,968.26171875,-1000.0,64.94140625,968.75,0.0
1734498720.9518948,968.26171875,-199.21875,858.88671875,968.75,0.0
1734498720.9557927,968.26171875,-963.8671875,851.5625,968.75,0.0
1734498720.9596906,968.26171875,951.66015625,885.25390625,968.75,0.0
1734498720.9635885,968.26171875,942.3828125,943.359375,968.75,0.0
1734498720.9674861,968.26171875,975.5859375,964.84375,968.75,0.0
1734498720.971384,968.26171875,968.75,962.890625,968.75,0.0
1734498720.975282,967.7734375,968.75,960.9375,968.75,0.0
1734498720.9791799,968.26171875,968.75,969.23828125,968.75,0.0
1734498720.9830778,968.26171875,968.75,969.23828125,968.75,0.0
1734498720.9869757,968.26171875,968.75,968.75,968.26171875,0.0
1734498720.990985,968.26171875,968.75,968.75,968.75,0.0
1734498720.9948828,968.26171875,968.75,968.75,968.75,0.0
1734498720.9987807,967.7734375,969.23828125,968.75,968.75,0.0
1734498721.0026786,967.7734375,968.75,968.75,968.75,0.0
1734498721.0065765,968.26171875,970.703125,968.26171875,968.75,0.0
1734498721.0104744,968.26171875,904.78515625,967.7734375,968.75,0.0
1734498721.0143723,968.26171875,-892.578125,969.7265625,968.75,0.0
1734498721.01827,968.26171875,211.42578125,948.2421875,968.75,0.0
1734498721.022168,982.421875,-1000.0,900.390625,968.75,0.0
1734498721.0260658,894.53125,-988.28125,871.09375,968.75,0.0
1734498721.0299637,-910.64453125,-971.19140625,832.51953125,968.75,0.0
1734498721.0338616,531.73828125,-1000.0,551.26953125,968.75,0.0
1734498721.0378616,-906.73828125,-1000.0,291.9921875,968.75,0.0
1734498721.0417595,-1000.0,-1000.0,241.69921875,968.75,0.0
1734498721.0456574,-892.08984375,-1000.0,388.18359375,968.75,0.0
1734498721.0495553,-1000.0,-1000.0,698.2421875,968.75,0.0
1734498721.0534532,-124.51171875,-1000.0,853.02734375,968.75,0.0
1734498721.057351,-938.4765625,-1000.0,882.32421875,968.75,0.0
1734498721.061249,938.96484375,-1000.0,938.96484375,968.75,0.0
1734498721.0651467,947.75390625,-1000.0,971.19140625,968.75,0.0
1734498721.0690446,972.65625,-1000.0,968.26171875,968.75,0.0
1734498721.0729425,968.26171875,-1000.0,968.75,968.75,0.0
1734498721.0768404,968.26171875,-1000.0,969.23828125,968.75,0.0
1734498721.0807383,967.7734375,-1000.0,968.26171875,968.75,0.0
1734498721.084793,0.0,-1000.0,968.75,968.75,0.0
1734498721.088691,0.0,-1000.0,969.7265625,968.75,0.0
1734498721.092589,0.0,-1000.0,955.56640625,968.75,0.0
1734498721.0964868,0.0,-1000.0,949.70703125,968.75,0.0
1734498721.1003847,0.0,-1000.0,956.0546875,968.75,0.0
1734498721.1042826,0.0,-1000.0,962.890625,968.75,0.0
1734498721.1081805,0.0,-1000.0,963.8671875,968.75,0.0
1734498721.1120784,0.0,-1000.0,965.33203125,968.75,0.0
1734498721.1159763,0.0,-1000.0,957.03125,968.75,0.0
1734498721.1198742,0.0,-1000.0,946.2890625,968.75,0.0
1734498721.1237721,0.0,-1000.0,953.125,968.75,0.0
1734498721.12767,0.0,-1000.0,965.8203125,968.75,0.0
1734498721.1316535,968.26171875,-1000.0,958.49609375,968.75,0.0
1734498721.1355517,968.26171875,-1000.0,933.10546875,968.75,0.0
1734498721.1394496,968.26171875,-1000.0,934.08203125,968.75,0.0
1734498721.1433475,968.26171875,-1000.0,963.37890625,968.75,0.0
1734498721.1472454,967.7734375,-1000.0,970.21484375,968.75,0.0
1734498721.1511433,968.26171875,-1000.0,967.28515625,968.75,0.0
1734498721.1550412,968.26171875,-1000.0,968.75,968.75,0.0
1734498721.1589391,968.26171875,-1000.0,968.75,968.75,0.0
1734498721.162837,968.26171875,-930.6640625,968.75,968.75,0.0
1734498721.166735,968.26171875,-1000.0,968.75,968.75,0.0
1734498721.1706328,968.26171875,-433.10546875,968.75,968.75,0.0
1734498721.1745307,968.26171875,947.75390625,968.75,968.26171875,0.0
1734498721.1785047,967.7734375,949.70703125,968.75,968.75,0.0
1734498721.1824026,967.7734375,958.984375,968.75,968.75,0.0
1734498721.1863005,968.26171875,836.42578125,968.75,968.75,0.0
1734498721.1901987,968.26171875,-460.9375,968.26171875,968.75,0.0
1734498721.1940966,968.26171875,-1000.0,968.75,968.75,0.0
1734498721.1979945,968.26171875,-947.265625,968.75,968.75,0.0
1734498721.2018924,981.93359375,-1000.0,968.26171875,968.75,0.0
1734498721.2057903,893.06640625,-1000.0,965.8203125,968.75,0.0
1734498721.2096882,-901.85546875,-1000.0,961.9140625,968.75,0.0
1734498721.213586,477.05078125,-1000.0,901.3671875,968.75,0.0
1734498721.217484,-947.75390625,-1000.0,856.4453125,968.75,0.0
1734498721.221382,-1000.0,-1000.0,-105.95703125,968.75,0.0
1734498721.2254193,-949.70703125,-1000.0,-1000.0,968.75,0.0
1734498721.2293172,-1000.0,-1000.0,-976.5625,968.75,0.0
1734498721.233215,-1000.0,-1000.0,-982.91015625,968.75,0.0
1734498721.237113,-1000.0,-1000.0,-1000.0,968.75,0.0
1734498721.241011,-1000.0,-1000.0,-1000.0,968.75,0.0
1734498721.244909,-1000.0,-1000.0,-1000.0,968.75,0.0
1734498721.248807,-1000.0,-1000.0,-1000.0,968.75,0.0
1734498721.2527049,-1000.0,-1000.0,-1000.0,968.75,0.0
1734498721.2566028,-1000.0,-1000.0,-987.3046875,968.75,0.0
1734498721.2605007,-1000.0,-937.98828125,-999.0234375,968.75,0.0
1734498721.2643986,-1000.0,-1000.0,-946.77734375,968.75,0.0
1734498721.2682967,-1000.0,-548.33984375,-262.20703125,968.75,0.0
1734498721.27232,-1000.0,809.5703125,464.35546875,968.75,0.0
1734498721.276218,-1000.0,-985.3515625,721.19140625,968.75,0.0
1734498721.280116,-1000.0,919.921875,866.2109375,968.75,0.0
1734498721.284014,-1000.0,979.4921875,895.99609375,971.6796875,0.0
1734498721.287912,-1000.0,968.75,907.71484375,953.61328125,0.0
1734498721.2918098,-1000.0,968.75,921.38671875,974.12109375,0.0
1734498721.295708,-1000.0,968.75,935.05859375,872.55859375,0.0
1734498721.2996058,-1000.0,968.75,954.58984375,272.4609375,0.0
1734498721.3035038,-1000.0,969.23828125,968.75,-524.90234375,0.0
1734498721.3074017,-1000.0,971.19140625,968.75,-960.9375,0.0
1734498721.3112998,-1000.0,958.49609375,968.75,-996.09375,0.0
1734498721.3151977,-1000.0,958.0078125,969.23828125,-990.72265625,0.0
1734498721.3192115,-1000.0,928.22265625,968.75,-1000.0,0.0
1734498721.3231094,-1000.0,358.3984375,968.75,-1000.0,0.0
1734498721.3270075,-1000.0,-621.58203125,968.75,-1000.0,0.0
1734498721.3309054,-1000.0,-1000.0,969.23828125,-1000.0,0.0
1734498721.3348033,-1000.0,-978.02734375,968.75,-1000.0,0.0
1734498721.3387015,-1000.0,-996.58203125,969.23828125,-1000.0,0.0
1734498721.3425994,-994.140625,-1000.0,968.75,-1000.0,0.0
1734498721.3464973,-947.265625,-1000.0,968.75,-1000.0,0.0
1734498721.3503952,-1000.0,-1000.0,968.75,-1000.0,0.0
1734498721.3542933,-106.4453125,-1000.0,968.26171875,-1000.0,0.0
1734498721.3581913,-931.640625,-1000.0,968.75,-1000.0,0.0
1734498721.3620892,935.546875,-1000.0,968.75,-1000.0,0.0
1734498721.366157,949.70703125,-1000.0,969.23828125,-1000.0,0.0
1734498721.3700552,972.16796875,-1000.0,969.23828125,-1000.0,0.0
1734498721.373953,968.26171875,-1000.0,968.75,-1000.0,0.0
1734498721.377851,968.26171875,-1000.0,968.75,-1000.0,0.0
1734498721.3817492,967.7734375,-1000.0,969.23828125,-1000.0,0.0
1734498721.385647,967.7734375,-1000.0,968.75,-1000.0,0.0
1734498721.389545,968.26171875,-1000.0,966.796875,-1000.0,0.0
1734498721.393443,968.26171875,-1000.0,972.16796875,-1000.0,0.0
1734498721.397341,968.26171875,-1000.0,948.73046875,-1000.0,0.0
1734498721.4012392,968.75,-1000.0,876.46484375,-1000.0,0.0
1734498721.405137,905.2734375,-1000.0,976.5625,-1000.0,0.0
1734498721.409035,-893.06640625,-1000.0,-101.07421875,-1000.0,0.0
1734498721.4130287,187.98828125,-1000.0,-1000.0,-1000.0,0.0
1734498721.4169266,-1000.0,-1000.0,-955.56640625,-1000.0,0.0
1734498721.4208248,-984.375,-1000.0,-990.72265625,-1000.0,0.0
1734498721.4247227,-973.14453125,-1000.0,-1000.0,-1000.0,0.0
1734498721.4286208,-1000.0,-1000.0,-1000.0,-1000.0,0.0
1734498721.4325187,-1000.0,-1000.0,-1000.0,-1000.0,0.0
1734498721.4364166,-1000.0,-1000.0,-1000.0,-1000.0,0.0
1734498721.4403148,-1000.0,-1000.0,-1000.0,-997.0703125,0.0
1734498721.4442127,-1000.0,-1000.0,-1000.0,-1000.0,0.0
1734498721.4481108,-1000.0,-1000.0,-1000.0,-939.94140625,0.0
1734498721.4520087,-1000.0,-1000.0,-1000.0,-833.984375,0.0
1734498721.4559069,-1000.0,-1000.0,-1000.0,-865.234375,0.0
1734498721.4599042,-1000.0,-1000.0,-1000.0,-888.18359375,0.0
1734498721.4638023,-1000.0,-1000.0,-969.7265625,-823.73046875,0.0
1734498721.4677002,-1000.0,-1000.0,-960.9375,-854.98046875,0.0
1734498721.4715984,-937.5,-1000.0,-588.37890625,-958.0078125,0.0
1734498721.4754963,-1000.0,-1000.0,518.06640625,-1000.0,0.0
1734498721.4793944,-220.21484375,-1000.0,-990.234375,-997.55859375,0.0
1734498721.4832923,-960.44921875,-1000.0,930.6640625,-1000.0,0.0
1734498721.4871905,951.66015625,-1000.0,971.6796875,-1000.0,0.0
1734498721.4910884,940.91796875,-1000.0,971.19140625,-1000.0,0.0
1734498721.4949865,985.83984375,-1000.0,966.30859375,-1000.0,0.0
1734498721.4988844,925.29296875,-1000.0,956.54296875,-1000.0,0.0
1734498721.5027826,989.74609375,-1000.0,940.4296875,-1000.0,0.0
1734498721.5067618,930.17578125,-1000.0,890.625,-1000.0,0.0
1734498721.5106597,-420.8984375,-1000.0,-174.31640625,-1000.0,0.0
1734498721.5145578,-1000.0,-1000.0,-1000.0,-1000.0,0.0
1734498721.518456,-933.59375,-1000.0,-964.84375,-1000.0,0.0
1734498721.522354,-1000.0,-1000.0,-988.76953125,-1000.0,0.0
1734498721.526252,-1000.0,-1000.0,-1000.0,-1000.0,0.0
1734498721.53015,-1000.0,-1000.0,-1000.0,-1000.0,0.0
1734498721.534048,-1000.0,-1000.0,-1000.0,-1000.0,0.0
1734498721.537946,-1000.0,-1000.0,-946.77734375,-1000.0,0.0
1734498721.5418441,-987.79296875,-1000.0,-1000.0,-1000.0,0.0
1734498721.545742,-958.0078125,-1000.0,-662.59765625,-1000.0,0.0
1734498721.5496402,-1000.0,-1000.0,587.890625,-1000.0,0.0
1734498721.5536106,-7.8125,-1000.0,997.55859375,-1000.0,0.0
1734498721.5575087,-913.0859375,-1000.0,927.734375,-1000.0,0.0
1734498721.5614069,923.33984375,-1000.0,971.19140625,-995.1171875,0.0
1734498721.5653048,956.54296875,-1000.0,969.23828125,-1000.0,0.0
1734498721.569203,970.21484375,-1000.0,957.51953125,-927.734375,0.0
1734498721.5731008,968.26171875,-1000.0,908.69140625,-750.0,0.0
1734498721.576999,968.26171875,-1000.0,776.85546875,-603.515625,0.0
1734498721.5808969,968.26171875,-1000.0,465.33203125,-414.55078125,0.0
1734498721.584795,968.26171875,-1000.0,-92.7734375,-222.16796875,0.0
1734498721.5886931,968.26171875,-1000.0,58.10546875,-186.5234375,0.0
1734498721.592591,968.26171875,-1000.0,830.078125,-306.15234375,0.0
1734498721.5964892,968.26171875,-1000.0,921.875,-321.77734375,0.0
1734498721.6005168,968.26171875,-1000.0,867.1875,-194.82421875,0.0
1734498721.6044147,968.26171875,-1000.0,903.3203125,15.625,0.0
1734498721.6083128,968.26171875,-1000.0,514.16015625,222.65625,0.0
1734498721.612211,968.26171875,-999.51171875,-512.20703125,360.83984375,0.0
1734498721.616109,968.26171875,-990.234375,-1000.0,496.58203125,0.0
1734498721.620007,968.26171875,-1000.0,-947.75390625,608.3984375,0.0
1734498721.6239052,968.26171875,-838.8671875,-953.125,670.8984375,0.0
1734498721.627803,968.26171875,-398.4375,-253.90625,693.359375,0.0
1734498721.6317012,968.26171875,-44.921875,644.04296875,736.81640625,0.0
1734498721.6355991,968.26171875,95.21484375,751.953125,794.43359375,0.0
1734498721.6394973,968.26171875,234.86328125,804.19921875,832.03125,0.0
1734498721.6433954,968.26171875,398.4375,833.0078125,924.8046875,0.0
1734498721.647418,968.26171875,470.703125,626.46484375,968.26171875,0.0
1734498721.651316,968.75,424.31640625,241.69921875,966.796875,0.0
1734498721.655214,980.46875,338.8671875,-527.34375,967.7734375,0.0
1734498721.6591122,896.97265625,347.65625,-958.49609375,968.75,0.0
1734498721.6630101,-887.6953125,447.265625,-846.6796875,968.75,0.0
1734498721.6669083,515.625,482.421875,-877.9296875,968.75,0.0
1734498721.6708064,-212.890625,487.3046875,-1000.0,968.75,0.0
1734498721.6747043,861.328125,731.4453125,-223.6328125,968.75,0.0
1734498721.6786025,-944.3359375,970.703125,837.40234375,968.75,0.0
1734498721.6825006,906.73828125,965.8203125,884.27734375,968.75,0.0
1734498721.6863987,981.4453125,959.47265625,855.95703125,968.75,0.0
1734498721.6902966,967.7734375,862.79296875,813.4765625,968.75,0.0
1734498721.6943107,967.7734375,749.51171875,681.640625,968.75,0.0
1734498721.6982088,967.7734375,858.88671875,802.24609375,968.75,0.0
1734498721.7021067,968.26171875,980.46875,949.70703125,968.75,0.0
1734498721.7060049,968.26171875,964.35546875,957.51953125,968.26171875,0.0
1734498721.709903,967.7734375,965.8203125,937.5,968.26171875,0.0
1734498721.7138011,968.26171875,974.12109375,900.390625,968.75,0.0
1734498721.717699,968.26171875,936.03515625,878.41796875,968.26171875,0.0
1734498721.7215972,968.26171875,926.7578125,873.046875,968.75,0.0
1734498721.7254953,968.26171875,966.796875,869.140625,969.23828125,0.0
1734498721.7293935,968.26171875,968.26171875,907.71484375,964.35546875,0.0
1734498721.7332914,967.7734375,967.7734375,958.49609375,970.703125,0.0
1734498721.7371895,967.7734375,968.75,969.23828125,957.03125,0.0
1734498721.7411957,967.7734375,968.75,967.7734375,770.01953125,0.0
1734498721.7450938,968.26171875,968.75,969.7265625,745.60546875,0.0
1734498721.7489917,967.7734375,968.75,967.7734375,911.1328125,0.0
1734498721.7528899,967.7734375,968.75,968.26171875,944.3359375,0.0
1734498721.756788,968.26171875,968.26171875,967.7734375,955.56640625,0.0
1734498721.7606862,967.7734375,968.75,939.94140625,965.8203125,0.0
1734498721.7645843,967.7734375,967.7734375,903.3203125,968.75,0.0
1734498721.7684822,968.26171875,965.33203125,867.1875,968.26171875,0.0
1734498721.7723804,967.7734375,971.6796875,796.38671875,968.75,0.0
1734498721.7762785,967.7734375,873.046875,650.87890625,968.75,0.0
1734498721.7801766,967.7734375,753.90625,522.4609375,968.75,0.0
1734498721.7840748,968.26171875,353.515625,-343.26171875,968.75,0.0
1734498721.7880692,968.26171875,-268.5546875,-1000.0,968.75,0.0
1734498721.7919674,968.26171875,-554.6875,-970.21484375,968.75,0.0
1734498721.7958655,968.26171875,-630.37109375,-990.234375,968.75,0.0
1734498721.7997637,968.26171875,-588.8671875,-1000.0,969.23828125,0.0
1734498721.8036618,972.65625,-452.63671875,-1000.0,968.75,0.0
1734498721.80756,948.2421875,-306.640625,-1000.0,968.75,0.0
1734498721.811458,937.98828125,-219.23828125,-1000.0,968.75,0.0
1734498721.815356,-936.03515625,-256.34765625,-1000.0,968.75,0.0
1734498721.8192542,-121.09375,-334.9609375,-1000.0,968.75,0.0
1734498721.8231523,-1000.0,-404.296875,-1000.0,966.796875,0.0
1734498721.8270504,-946.2890625,-448.2421875,-1000.0,970.21484375,0.0
1734498721.8309486,-995.1171875,-419.921875,-1000.0,955.078125,0.0
1734498721.8349352,-1000.0,-370.1171875,-1000.0,879.39453125,0.0
1734498721.838833,-1000.0,-320.3125,-1000.0,817.3828125,0.0
1734498721.8427312,-1000.0,-314.453125,-1000.0,827.1484375,0.0
1734498721.8466294,-1000.0,-353.515625,-1000.0,847.65625,0.0
1734498721.8505275,-1000.0,-416.50390625,-1000.0,859.86328125,0.0
1734498721.8544257,-1000.0,-510.25390625,-1000.0,848.14453125,0.0
1734498721.8583238,-1000.0,-633.30078125,-1000.0,860.83984375,0.0
1734498721.862222,-1000.0,-712.890625,-1000.0,869.62890625,0.0
1734498721.86612,-1000.0,-724.12109375,-1000.0,831.54296875,0.0
1734498721.8700182,-1000.0,-737.3046875,-1000.0,809.5703125,0.0
1734498721.8739164,-1000.0,-760.7421875,-1000.0,750.0,0.0
1734498721.8778143,-1000.0,-747.55859375,-1000.0,686.03515625,0.0
1734498721.8817956,-1000.0,-711.9140625,-1000.0,682.12890625,0.0
1734498721.8856938,-1000.0,-777.83203125,-1000.0,676.7578125,0.0
1734498721.889592,-1000.0,-902.34375,-1000.0,657.2265625,0.0
1734498721.89349,-1000.0,-979.4921875,-1000.0,635.25390625,0.0
1734498721.8973882,-1000.0,-998.53515625,-1000.0,562.01171875,0.0
1734498721.9012864,-1000.0,-1000.0,-1000.0,506.8359375,0.0
1734498721.9051845,-1000.0,-989.2578125,-1000.0,495.60546875,0.0
1734498721.9090827,-1000.0,-926.7578125,-1000.0,450.1953125,0.0
1734498721.9129808,-1000.0,-902.83203125,-1000.0,394.53125,0.0
1734498721.9168787,-1000.0,-821.2890625,-1000.0,312.01171875,0.0
1734498721.9207768,-1000.0,-630.859375,-1000.0,242.1875,0.0
1734498721.924675,-1000.0,-468.26171875,-1000.0,218.75,0.0
1734498721.9286463,0.0,-355.46875,-996.09375,174.31640625,0.0
1734498721.9325445,0.0,-283.203125,-976.5625,155.2734375,0.0
1734498721.9364426,0.0,-224.12109375,-896.97265625,141.11328125,0.0
1734498721.9403408,0.0,-149.90234375,-503.90625,139.16015625,0.0
1734498721.944239,0.0,-89.35546875,176.7578125,217.28515625,0.0
1734498721.948137,0.0,-52.24609375,395.5078125,270.5078125,0.0
1734498721.9520352,0.0,-15.625,459.47265625,229.00390625,0.0
1734498721.9559333,0.0,15.625,630.37109375,130.859375,0.0
1734498721.9598315,0.0,42.96875,750.48828125,94.7265625,0.0
1734498721.9637296,0.0,53.22265625,811.5234375,121.58203125,0.0
1734498721.9676278,0.0,56.15234375,827.63671875,103.515625,0.0
1734498721.971526,0.0,36.1328125,863.76953125,47.36328125,0.0
1734498721.975553,-1000.0,1.953125,846.19140625,-16.6015625,0.0
1734498721.9794512,-1000.0,7.8125,846.6796875,-84.9609375,0.0
1734498721.9833493,-1000.0,32.71484375,864.74609375,-66.89453125,0.0
1734498721.9872475,-1000.0,36.1328125,871.09375,21.484375,0.0
1734498721.9911456,-1000.0,29.296875,859.375,92.7734375,0.0
1734498721.9950438,-1000.0,31.25,831.54296875,128.41796875,0.0
1734498721.998942,-1000.0,61.5234375,849.609375,135.25390625,0.0
1734498722.00284,-1000.0,116.2109375,869.140625,163.0859375,0.0
1734498722.0067382,-1000.0,157.2265625,855.95703125,194.3359375,0.0
1734498722.0106363,-1000.0,194.3359375,845.21484375,214.35546875,0.0
1734498722.0145345,-1000.0,236.328125,854.98046875,200.1953125,0.0
1734498722.0184326,-1000.0,287.59765625,857.421875,235.83984375,0.0
1734498722.022449,0.0,339.84375,850.09765625,355.95703125,0.0
1734498722.0263472,0.0,378.90625,853.02734375,442.3828125,0.0
1734498722.0302453,0.0,408.69140625,858.88671875,485.83984375,0.0
1734498722.0341434,0.0,439.94140625,830.078125,497.55859375,0.0
1734498722.0380416,0.0,482.421875,724.609375,532.71484375,0.0
1734498722.0419397,0.0,525.87890625,760.7421875,594.23828125,0.0
1734498722.0458379,0.0,573.73046875,804.6875,634.27734375,0.0
1734498722.0497363,0.0,626.953125,769.53125,662.59765625,0.0
1734498722.0536344,0.0,651.85546875,598.6328125,691.40625,0.0
1734498722.0575325,0.0,712.890625,571.2890625,719.7265625,0.0
1734498722.0614307,0.0,826.171875,716.796875,774.4140625,0.0
1734498722.0653288,0.0,896.97265625,697.75390625,839.35546875,0.0
1734498722.0691648,-1000.0,946.77734375,696.77734375,823.2421875,0.0
1734498722.073063,-1000.0,969.23828125,641.11328125,850.5859375,0.0
1734498722.076961,-1000.0,968.26171875,569.3359375,886.23046875,0.0
1734498722.0808592,-1000.0,968.75,581.0546875,850.09765625,0.0
1734498722.0847573,-1000.0,968.75,571.2890625,881.34765625,0.0
1734498722.0886555,-1000.0,968.75,547.36328125,916.50390625,0.0
1734498722.0925536,-1000.0,968.75,487.3046875,877.9296875,0.0
1734498722.0964518,-1000.0,968.75,298.828125,881.8359375,0.0
1734498722.10035,-1000.0,968.75,152.34375,952.1484375,0.0
1734498722.104248,-1000.0,968.75,294.43359375,964.84375,0.0
1734498722.1081462,-1000.0,968.75,386.71875,908.69140625,0.0
1734498722.1120446,-1000.0,968.75,107.91015625,896.97265625,0.0
1734498722.115876,-1000.0,968.75,-328.61328125,940.4296875,0.0
1734498722.119774,-1000.0,968.75,-418.9453125,963.37890625,0.0
1734498722.1236722,-1000.0,968.75,-308.10546875,968.26171875,0.0
1734498722.1275704,-1000.0,968.75,-325.1953125,968.26171875,0.0
1734498722.1314685,-1000.0,968.75,-484.86328125,968.75,0.0
1734498722.1353667,-1000.0,969.23828125,-653.3203125,968.75,0.0
1734498722.1392648,-1000.0,969.23828125,-518.5546875,968.75,0.0
1734498722.143163,-1000.0,968.75,-402.34375,968.75,0.0
1734498722.147061,-1000.0,968.75,-152.83203125,968.75,0.0
1734498722.1509593,-1000.0,968.75,309.5703125,968.75,0.0
1734498722.1548574,-1000.0,968.75,189.94140625,968.75,0.0
1734498722.1587555,-1000.0,968.75,162.109375,968.75,0.0
1734498722.1627543,-1000.0,969.23828125,351.5625,968.75,0.0
1734498722.1666524,-1000.0,968.75,411.1328125,968.75,0.0
1734498722.1705506,-1000.0,968.75,353.02734375,968.75,0.0
1734498722.1744487,-1000.0,969.23828125,229.98046875,968.26171875,0.0
1734498722.1783469,-1000.0,968.75,272.94921875,968.75,0.0
1734498722.182245,-1000.0,969.23828125,395.01953125,968.75,0.0
1734498722.1861432,-1000.0,968.75,444.82421875,968.75,0.0
1734498722.1900415,-931.15234375,968.75,409.66796875,968.75,0.0
1734498722.1939397,-1000.0,968.75,432.12890625,968.75,0.0
1734498722.1978378,-335.9375,968.75,598.14453125,968.26171875,0.0
1734498722.201736,996.58203125,968.75,820.3125,968.75,0.0
1734498722.205634,971.19140625,968.75,881.34765625,964.35546875,0.0
1734498722.2096212,931.640625,968.26171875,887.20703125,935.546875,0.0
1734498722.2135193,978.02734375,968.75,896.97265625,887.20703125,0.0
1734498722.2174175,968.26171875,968.75,883.30078125,868.1640625,0.0
1734498722.2213156,968.26171875,968.75,903.3203125,869.62890625,0.0
1734498722.2252138,968.26171875,968.75,918.45703125,872.0703125,0.0
1734498722.2291121,968.26171875,968.75,905.76171875,866.69921875,0.0
1734498722.2330103,968.26171875,968.75,887.20703125,833.49609375,0.0
1734498722.2369084,968.26171875,968.75,885.25390625,760.25390625,0.0
1734498722.2408066,968.26171875,968.75,909.1796875,676.26953125,0.0
1734498722.2447047,968.26171875,968.75,915.0390625,665.52734375,0.0
1734498722.2486029,968.26171875,968.75,911.62109375,662.109375,0.0
1734498722.252501,968.26171875,968.75,907.71484375,620.60546875,0.0
1734498722.2565434,0.0,968.75,902.34375,577.1484375,0.0
1734498722.2604415,0.0,968.75,908.203125,555.6640625,0.0
1734498722.2643397,0.0,968.75,909.66796875,545.8984375,0.0
1734498722.2682378,0.0,967.7734375,913.57421875,543.45703125,0.0
1734498722.2721362,0.0,964.35546875,907.71484375,540.0390625,0.0
1734498722.2760344,0.0,975.5859375,880.37109375,516.6015625,0.0
1734498722.2799325,0.0,886.23046875,862.3046875,516.6015625,0.0
1734498722.2838306,0.0,726.5625,878.90625,494.62890625,0.0
1734498722.2877288,0.0,600.09765625,882.8125,461.9140625,0.0
1734498722.2916272,0.0,434.5703125,864.2578125,426.26953125,0.0
1734498722.2955253,0.0,279.78515625,853.515625,387.6953125,0.0
1734498722.2994235,0.0,206.54296875,856.4453125,368.65234375,0.0
1734498722.3033948,968.26171875,144.53125,870.1171875,370.1171875,0.0
1734498722.307293,968.26171875,48.33984375,874.51171875,374.51171875,0.0
1734498722.3111913,968.26171875,-17.08984375,875.9765625,358.88671875,0.0
1734498722.3150895,968.26171875,-50.78125,870.60546875,285.64453125,0.0
1734498722.3189876,968.26171875,-75.1953125,871.58203125,185.05859375,0.0
1734498722.3228858,967.7734375,-92.28515625,869.62890625,183.59375,0.0
1734498722.3267841,967.7734375,-104.4921875,872.55859375,216.30859375,0.0
1734498722.3306823,967.7734375,-127.44140625,875.0,192.3828125,0.0
1734498722.3345804,967.7734375,-175.78125,864.74609375,125.0,0.0
1734498722.3384786,968.26171875,-236.81640625,854.00390625,109.375,0.0
1734498722.342377,968.26171875,-254.8828125,857.421875,117.1875,0.0
1734498722.346275,968.26171875,-280.2734375,863.76953125,100.5859375,0.0
1734498722.3503044,968.26171875,-389.6484375,858.88671875,110.83984375,0.0
1734498722.3542025,968.26171875,-519.53125,751.46484375,99.12109375,0.0
1734498722.3581007,968.26171875,-616.2109375,616.69921875,65.91796875,0.0
1734498722.361999,968.26171875,-672.8515625,636.71875,73.2421875,0.0
1734498722.3658972,968.26171875,-753.41796875,526.3671875,96.19140625,0.0
1734498722.3697953,968.26171875,-846.19140625,341.796875,114.74609375,0.0
1734498722.3736937,968.26171875,-940.4296875,-94.7265625,98.6328125,0.0
1734498722.3775918,968.26171875,-1000.0,-645.01953125,48.33984375,0.0
1734498722.38149,968.26171875,-999.51171875,-834.47265625,35.64453125,0.0
1734498722.3853884,968.26171875,-999.51171875,-970.703125,63.96484375,0.0
1734498722.3892865,977.05078125,-1000.0,-998.53515625,43.45703125,0.0
1734498722.3931847,932.6171875,-1000.0,-997.0703125,-1.953125,0.0
1734498722.3972015,0.0,-1000.0,-999.51171875,-33.203125,0.0
1734498722.4011,0.0,-1000.0,-1000.0,-38.57421875,0.0
1734498722.404998,0.0,-1000.0,-1000.0,-41.015625,0.0
1734498722.4088962,0.0,-1000.0,-1000.0,-70.3125,0.0
1734498722.4127946,0.0,-1000.0,-1000.0,-110.83984375,0.0
1734498722.4166927,0.0,-1000.0,-1000.0,-162.109375,0.0
1734498722.420591,0.0,-1000.0,-1000.0,-195.80078125,0.0
1734498722.4244893,0.0,-1000.0,-1000.0,-200.68359375,0.0
1734498722.4283874,0.0,-1000.0,-1000.0,-206.54296875,0.0
1734498722.4322858,0.0,-1000.0,-1000.0,-248.53515625,0.0
1734498722.436184,0.0,-1000.0,-1000.0,-336.9140625,0.0
1734498722.440082,0.0,-1000.0,-1000.0,-372.55859375,0.0
1734498722.4439206,973.6328125,-1000.0,-1000.0,-396.97265625,0.0
1734498722.4478188,974.12109375,-1000.0,-1000.0,-438.96484375,0.0
1734498722.451717,-329.58984375,-1000.0,-1000.0,-477.5390625,0.0
1734498722.4556153,-1000.0,-1000.0,-997.0703125,-559.5703125,0.0
1734498722.4595134,-936.5234375,-1000.0,-995.60546875,-631.8359375,0.0
1734498722.4634116,-1000.0,-1000.0,-990.234375,-668.9453125,0.0
1734498722.46731,-1000.0,-1000.0,-666.9921875,-724.12109375,0.0
1734498722.471208,-1000.0,-1000.0,-234.375,-754.8828125,0.0
1734498722.4751062,-1000.0,-1000.0,-129.8828125,-772.94921875,0.0
1734498722.4790046,-1000.0,-1000.0,425.29296875,-831.0546875,0.0
1734498722.4829028,-1000.0,-1000.0,845.703125,-878.41796875,0.0
1734498722.486801,-1000.0,-1000.0,831.54296875,-896.484375,0.0
1734498722.4906328,-1000.0,-1000.0,869.62890625,-920.8984375,0.0
1734498722.494531,-1000.0,-1000.0,864.74609375,-953.61328125,0.0
1734498722.498429,-1000.0,-1000.0,858.3984375,-986.81640625,0.0
1734498722.5023274,-1000.0,-1000.0,835.44921875,-1000.0,0.0
1734498722.5062256,-1000.0,-1000.0,836.9140625,-999.51171875,0.0
1734498722.5101237,-989.74609375,-1000.0,836.42578125,-1000.0,0.0
1734498722.5140219,-954.58984375,-1000.0,813.4765625,-1000.0,0.0
1734498722.5179203,-1000.0,-1000.0,578.61328125,-1000.0,0.0
1734498722.5218184,-39.55078125,-1000.0,447.75390625,-1000.0,0.0
1734498722.5257165,-919.43359375,-1000.0,295.8984375,-1000.0,0.0
1734498722.529615,927.734375,-1000.0,-473.14453125,-1000.0,0.0
1734498722.533513,954.1015625,-1000.0,-994.62890625,-1000.0,0.0
1734498722.5375073,-1000.0,-1000.0,-984.86328125,-1000.0,0.0
1734498722.5414054,-984.375,-1000.0,-990.234375,-1000.0,0.0
1734498722.5453038,-973.14453125,-1000.0,-1000.0,-1000.0,0.0
1734498722.549202,-1000.0,-1000.0,-1000.0,-1000.0,0.0
1734498722.5531,-1000.0,-1000.0,-1000.0,-1000.0,0.0
1734498722.5569985,-1000.0,-1000.0,-1000.0,-1000.0,0.0
1734498722.5608966,-1000.0,-1000.0,-1000.0,-1000.0,0.0
1734498722.5647948,-1000.0,-1000.0,-1000.0,-1000.0,0.0
1734498722.5686932,-1000.0,-1000.0,-1000.0,-1000.0,0.0
1734498722.5725913,-1000.0,-1000.0,-1000.0,-1000.0,0.0
1734498722.5764894,-1000.0,-1000.0,-995.60546875,-1000.0,0.0
1734498722.5803878,-1000.0,-1000.0,-983.3984375,-1000.0,0.0
1734498722.584376,0.0,-1000.0,-906.25,-1000.0,0.0
1734498722.5882742,0.0,-1000.0,-365.234375,-1000.0,0.0
1734498722.5921726,0.0,-1000.0,390.625,-1000.0,0.0
1734498722.5960708,0.0,-1000.0,761.23046875,-1000.0,0.0
1734498722.599969,0.0,-1000.0,864.2578125,-1000.0,0.0
1734498722.6038673,0.0,-1000.0,884.27734375,-1000.0,0.0
1734498722.6077654,0.0,-1000.0,895.99609375,-1000.0,0.0
1734498722.6116638,0.0,-1000.0,908.203125,-1000.0,0.0
1734498722.615562,0.0,-1000.0,932.12890625,-1000.0,0.0
1734498722.61946,0.0,-1000.0,944.3359375,-1000.0,0.0
1734498722.6233585,0.0,-1000.0,947.75390625,-1000.0,0.0
1734498722.6272566,0.0,-1000.0,949.70703125,-1000.0,0.0
1734498722.631236,967.7734375,-1000.0,948.2421875,-1000.0,0.0
1734498722.6351342,968.26171875,-1000.0,945.3125,-1000.0,0.0
1734498722.6390326,968.26171875,-1000.0,951.66015625,-1000.0,0.0
1734498722.6429307,968.26171875,-1000.0,965.33203125,-1000.0,0.0
1734498722.6468291,968.26171875,-1000.0,969.23828125,-1000.0,0.0
1734498722.6507273,968.26171875,-1000.0,967.28515625,-1000.0,0.0
1734498722.6546254,968.26171875,-1000.0,965.8203125,-1000.0,0.0
1734498722.6585238,967.7734375,-1000.0,967.7734375,-1000.0,0.0
1734498722.662422,968.26171875,-1000.0,969.23828125,-1000.0,0.0
1734498722.6663203,968.26171875,-1000.0,957.03125,-1000.0,0.0
1734498722.6702185,968.26171875,-995.60546875,922.36328125,-1000.0,0.0
1734498722.6741168,968.26171875,-1000.0,863.76953125,-1000.0,0.0
1734498722.678089,967.7734375,-969.23828125,791.50390625,-1000.0,0.0
1734498722.681987,968.26171875,-801.7578125,311.5234375,-995.1171875,0.0
1734498722.6858854,968.26171875,-654.296875,-618.1640625,-1000.0,0.0
1734498722.6897836,968.75,-671.38671875,-1000.0,-941.89453125,0.0
1734498722.693682,905.76171875,-858.88671875,-978.02734375,-771.97265625,0.0
1734498722.69758,-893.06640625,-1000.0,-994.62890625,-541.50390625,0.0
1734498722.7014785,187.98828125,-998.046875,-1000.0,-263.671875,0.0
1734498722.7053766,-1000.0,-989.74609375,-1000.0,-77.63671875,0.0
1734498722.709275,-984.375,-999.0234375,-1000.0,35.64453125,0.0
1734498722.7131732,-973.14453125,-910.64453125,-1000.0,14.6484375,0.0
1734498722.7170713,-1000.0,-535.64453125,-1000.0,-111.81640625,0.0
1734498722.7209697,-1000.0,-134.27734375,-1000.0,-126.46484375,0.0
1734498722.7249973,-1000.0,-301.7578125,-1000.0,-49.31640625,0.0
1734498722.7288954,-937.5,-597.65625,-1000.0,-42.96875,0.0
1734498722.7327938,-1000.0,-203.61328125,-977.5390625,-170.8984375,0.0
1734498722.736692,-220.21484375,342.7734375,-1000.0,-315.4296875,0.0
1734498722.7405903,-959.9609375,661.1328125,-910.15625,-359.375,0.0
1734498722.7444885,889.16015625,775.87890625,-347.65625,-339.84375,0.0
1734498722.7483869,-920.41015625,528.80859375,-594.7265625,-250.0,0.0
1734498722.752285,194.82421875,95.21484375,-1000.0,-72.265625,0.0
1734498722.7561834,-1000.0,-157.71484375,-984.86328125,-5.37109375,0.0
1734498722.7600818,-984.375,-155.76171875,-992.67578125,13.18359375,0.0
1734498722.76398,-973.14453125,-19.04296875,-1000.0,-20.5078125,0.0
1734498722.7678783,-1000.0,133.7890625,-1000.0,-141.11328125,0.0
1734498722.7718983,0.0,199.70703125,-1000.0,-172.36328125,0.0
1734498722.7757967,0.0,191.89453125,-1000.0,-182.12890625,0.0
1734498722.7796948,0.0,135.7421875,-1000.0,-142.578125,0.0
1734498722.7835932,0.0,14.6484375,-1000.0,-53.22265625,0.0
1734498722.7874916,0.0,-148.4375,-1000.0,-1.46484375,0.0
1734498722.7913897,0.0,-267.08984375,-1000.0,34.66796875,0.0
1734498722.795288,0.0,-300.29296875,-1000.0,57.12890625,0.0
1734498722.7991862,0.0,-268.5546875,-1000.0,81.0546875,0.0
1734498722.8030846,0.0,-186.5234375,-1000.0,114.2578125,0.0
1734498722.806983,0.0,-62.01171875,-1000.0,71.77734375,0.0
1734498722.8108811,0.0,88.8671875,-1000.0,15.13671875,0.0
1734498722.8147795,0.0,240.72265625,-1000.0,-4.39453125,0.0
1734498722.818789,-1000.0,375.9765625,-997.55859375,-44.43359375,0.0
1734498722.8226871,-1000.0,458.984375,-988.76953125,-80.078125,0.0
1734498722.8265855,-1000.0,502.44140625,-972.16796875,-79.58984375,0.0
1734498722.830484,-1000.0,536.62109375,-591.30859375,-89.35546875,0.0
1734498722.834382,-1000.0,577.63671875,204.58984375,-100.5859375,0.0
1734498722.8382804,-1000.0,633.7890625,658.203125,-62.5,0.0
1734498722.8421788,-1000.0,645.5078125,783.203125,-76.171875,0.0
1734498722.846077,-1000.0,603.515625,799.31640625,-79.1015625,0.0
1734498722.8499753,-1000.0,514.6484375,555.17578125,-12.6953125,0.0
1734498722.8538737,-1000.0,391.11328125,39.55078125,-26.85546875,0.0
1734498722.8577719,-1000.0,381.8359375,-156.25,-121.58203125,0.0
1734498722.8616703,-1000.0,479.00390625,427.734375,-194.3359375,0.0
1734498722.8656728,-1000.0,573.73046875,828.61328125,-187.98828125,0.0
1734498722.8695712,-1000.0,625.0,857.421875,-196.77734375,0.0
1734498722.8734694,-1000.0,591.796875,854.4921875,-206.54296875,0.0
1734498722.8773677,-1000.0,513.671875,834.47265625,-149.4140625,0.0
1734498722.881266,-958.0078125,446.77734375,813.4765625,-93.26171875,0.0
1734498722.8851643,-1000.0,444.3359375,801.7578125,-141.6015625,0.0
1734498722.8890626,-959.9609375,519.04296875,851.07421875,-178.7109375,0.0
1734498722.892961,386.23046875,584.47265625,879.39453125,-120.60546875,0.0
1734498722.8968594,-908.69140625,647.94921875,895.99609375,-118.1640625,0.0
1734498722.9007576,901.85546875,739.74609375,932.6171875,-185.546875,0.0
1734498722.904656,975.5859375,789.55078125,956.54296875,-236.328125,0.0
1734498722.9085543,968.26171875,827.1484375,968.26171875,-273.92578125,0.0
1734498722.9125495,967.7734375,876.46484375,968.75,-263.671875,0.0
1734498722.9164476,968.26171875,929.19921875,968.75,-269.53125,0.0
1734498722.920346,968.26171875,969.23828125,968.75,-260.7421875,0.0
1734498722.9242444,968.26171875,968.26171875,968.75,-208.49609375,0.0
1734498722.9281428,968.26171875,967.7734375,968.75,-209.9609375,0.0
1734498722.932041,968.26171875,968.75,968.75,-293.9453125,0.0
1734498722.9359393,968.26171875,968.75,968.75,-359.375,0.0
1734498722.9398377,968.26171875,968.75,968.75,-347.65625,0.0
1734498722.943736,968.26171875,969.23828125,968.75,-385.25390625,0.0
1734498722.9476342,968.26171875,962.890625,968.75,-326.171875,0.0
1734498722.9515326,968.26171875,976.07421875,968.75,-164.0625,0.0
1734498722.955431,967.7734375,912.59765625,968.75,-27.34375,0.0
1734498722.9594824,0.0,727.05078125,968.75,70.80078125,0.0
1734498722.9633806,0.0,584.47265625,968.75,187.98828125,0.0
1734498722.967279,0.0,484.375,967.7734375,255.37109375,0.0
1734498722.9711773,0.0,397.4609375,968.26171875,264.16015625,0.0
1734498722.9750757,0.0,330.078125,959.9609375,343.75,0.0
1734498722.978974,0.0,266.11328125,937.98828125,438.96484375,0.0
1734498722.9828725,0.0,199.70703125,906.25,503.90625,0.0
1734498722.9867706,0.0,144.04296875,871.58203125,506.8359375,0.0
1734498722.990669,0.0,77.63671875,837.40234375,463.37890625,0.0
1734498722.9945674,0.0,139.6484375,963.37890625,543.9453125,0.0
1734498722.9984658,0.0,-302.734375,-91.796875,732.91015625,0.0
1734498723.0023642,0.0,-988.76953125,-1000.0,918.9453125,0.0
1734498723.006343,-1000.0,-1000.0,-957.03125,970.703125,0.0
1734498723.0102413,-945.3125,-977.05078125,-989.74609375,964.35546875,0.0
1734498723.0141397,-995.60546875,-1000.0,-1000.0,968.75,0.0
1734498723.018038,-1000.0,-996.58203125,-1000.0,974.12109375,0.0
1734498723.0219364,-1000.0,-730.95703125,-1000.0,928.22265625,0.0
1734498723.0258348,-1000.0,-440.4296875,-1000.0,-967.28515625,0.0
1734498723.0297332,-933.10546875,-243.1640625,-1000.0,651.3671875,0.0
1734498723.0336316,-1000.0,-66.89453125,-1000.0,-324.70703125,0.0
1734498723.0375297,-619.62890625,144.53125,-1000.0,-593.26171875,0.0
1734498723.041428,-116.2109375,301.26953125,-997.55859375,-349.12109375,0.0
1734498723.0453265,-421.875,175.78125,-1000.0,-485.83984375,0.0
1734498723.0492249,954.1015625,366.2109375,-992.1875,-949.70703125,0.0
1734498723.053196,176.26953125,125.0,-896.97265625,-1000.0,0.0
1734498723.0570943,-1000.0,-366.69921875,-1000.0,-985.3515625,0.0
1734498723.0609925,-167.48046875,89.84375,-674.31640625,-1000.0,0.0
1734498723.0648909,-945.80078125,598.6328125,697.265625,-1000.0,0.0
1734498723.0687892,948.73046875,841.796875,-986.328125,-1000.0,0.0
1734498723.0726876,940.91796875,734.375,890.625,-1000.0,0.0
1734498723.076586,974.609375,416.015625,929.6875,-1000.0,0.0
1734498723.0804844,973.14453125,544.43359375,953.125,-1000.0,0.0
1734498723.0843828,899.90234375,581.54296875,922.8515625,-997.0703125,0.0
1734498723.0882812,-891.6015625,279.78515625,-977.05078125,-999.0234375,0.0
1734498723.0921795,272.94921875,-392.578125,-8.30078125,-984.375,0.0
1734498723.096078,-1000.0,-990.72265625,-1000.0,-832.51953125,0.0
1734498723.1001039,0.0,-996.09375,-966.796875,-516.6015625,0.0
1734498723.1040022,0.0,-986.328125,-984.86328125,-217.7734375,0.0
1734498723.1079006,0.0,-1000.0,-1000.0,-106.4453125,0.0
1734498723.111799,0.0,-1000.0,-1000.0,-44.921875,0.0
1734498723.1156974,0.0,-1000.0,-1000.0,-49.31640625,0.0
1734498723.1195958,0.0,-997.0703125,-1000.0,-166.015625,0.0
1734498723.1234941,0.0,-995.1171875,-1000.0,-197.265625,0.0
1734498723.1273925,0.0,-1000.0,-1000.0,-202.63671875,0.0
1734498723.1312907,0.0,-769.04296875,-1000.0,-308.10546875,0.0
1734498723.135189,0.0,-524.4140625,-1000.0,-327.1484375,0.0
1734498723.1390874,0.0,-378.90625,-998.53515625,-270.01953125,0.0
1734498723.1429858,0.0,-45.41015625,-1000.0,-248.046875,0.0
1734498723.1470046,-1000.0,202.63671875,-992.1875,-200.1953125,0.0
1734498723.150903,-1000.0,225.09765625,-971.6796875,-146.484375,0.0
1734498723.1548014,-1000.0,-112.3046875,-959.9609375,-113.76953125,0.0
1734498723.1586998,-1000.0,-233.88671875,-1000.0,-109.375,0.0
1734498723.1625981,-1000.0,163.57421875,-245.1171875,-131.34765625,0.0
1734498723.1664965,-1000.0,400.87890625,834.47265625,-119.140625,0.0
1734498723.170395,-1000.0,309.08203125,932.12890625,-77.1484375,0.0
1734498723.1742933,-1000.0,-97.16796875,-105.46875,-34.66796875,0.0
1734498723.1781917,-1000.0,-343.75,-1000.0,6.34765625,0.0
1734498723.18209,-1000.0,45.8984375,-94.7265625,-35.64453125,0.0
1734498723.1859884,-990.234375,494.62890625,996.58203125,-132.8125,0.0
1734498723.1898868,-953.61328125,666.50390625,937.98828125,-191.89453125,0.0
1734498723.1938996,0.0,638.18359375,947.75390625,-274.4140625,0.0
1734498723.197798,0.0,707.03125,974.12109375,-449.21875,0.0
1734498723.2016964,0.0,979.4921875,962.40234375,-577.1484375,0.0
1734498723.205595,0.0,854.00390625,918.9453125,-485.3515625,0.0
1734498723.2094934,0.0,264.6484375,-948.73046875,-324.70703125,0.0
1734498723.2133918,0.0,-379.39453125,75.1953125,-247.55859375,0.0
1734498723.2172902,0.0,-615.234375,-1000.0,-293.45703125,0.0
1734498723.2211885,0.0,-131.34765625,-89.84375,-421.38671875,0.0
1734498723.225087,0.0,421.38671875,986.328125,-502.44140625,0.0
1734498723.2289853,0.0,541.50390625,914.55078125,-533.203125,0.0
1734498723.2328837,0.0,344.23828125,864.74609375,-491.69921875,0.0
1734498723.236782,0.0,90.33203125,806.15234375,-430.6640625,0.0
1734498723.240784,471.6796875,520.01953125,920.8984375,-509.27734375,0.0
1734498723.2446823,-896.484375,960.9375,977.5390625,-569.3359375,0.0
1734498723.2485807,898.4375,979.00390625,962.890625,-491.69921875,0.0
1734498723.252479,976.5625,747.0703125,969.7265625,-353.515625,0.0
1734498723.2563775,968.26171875,153.3203125,880.859375,-231.4453125,0.0
1734498723.260276,968.26171875,35.64453125,854.4921875,-225.5859375,0.0
1734498723.2641745,968.26171875,435.546875,930.17578125,-327.1484375,0.0
1734498723.2680728,968.26171875,712.40234375,965.33203125,-388.671875,0.0
1734498723.2719712,968.26171875,649.90234375,948.2421875,-396.484375,0.0
1734498723.2758696,967.7734375,354.00390625,899.4140625,-412.109375,0.0
1734498723.279768,970.21484375,276.3671875,884.765625,-381.34765625,0.0
1734498723.2836664,903.80859375,359.375,851.5625,-343.26171875,0.0
1734498723.2876596,-892.578125,285.15625,975.09765625,-323.2421875,0.0
1734498723.291558,215.8203125,-82.51953125,72.265625,-234.375,0.0
1734498723.2954564,-1000.0,-476.5625,-1000.0,-191.40625,0.0
1734498723.299355,-945.80078125,-395.01953125,-984.375,-238.76953125,0.0
1734498723.3032534,-1000.0,-87.890625,-972.16796875,-267.08984375,0.0
1734498723.3071518,20.99609375,97.16796875,-561.03515625,-297.36328125,0.0
1734498723.3110502,238.76953125,107.91015625,-470.703125,-347.65625,0.0
1734498723.3149486,-1000.0,-138.671875,-928.7109375,-395.5078125,0.0
1734498723.318847,-1000.0,-251.46484375,-1000.0,-467.7734375,0.0
1734498723.3227456,-614.74609375,-30.2734375,-680.17578125,-531.25,0.0
1734498723.326644,865.234375,155.2734375,204.58984375,-539.55078125,0.0
1734498723.3305423,-973.14453125,138.671875,499.51171875,-462.40234375,0.0
1734498723.3345273,0.0,-100.5859375,-466.796875,-375.48828125,0.0
1734498723.3384259,0.0,-165.0390625,-750.48828125,-324.21875,0.0
1734498723.3423243,0.0,152.83203125,542.48046875,-260.25390625,0.0
1734498723.3462226,0.0,359.375,951.171875,-216.796875,0.0
1734498723.350121,0.0,329.58984375,863.76953125,-201.171875,0.0
1734498723.3540194,0.0,56.15234375,772.94921875,-225.09765625,0.0
1734498723.357918,0.0,-107.91015625,737.79296875,-241.2109375,0.0
1734498723.3618164,0.0,142.08984375,893.5546875,-208.0078125,0.0
1734498723.3657148,0.0,243.1640625,920.41015625,-127.9296875,0.0
1734498723.3696132,0.0,125.0,919.43359375,13.671875,0.0
1734498723.3735118,0.0,-109.375,835.9375,39.55078125,0.0
1734498723.3774102,0.0,-314.94140625,716.796875,-28.80859375,0.0
1734498723.3813915,968.26171875,-104.98046875,850.09765625,8.7890625,0.0
1734498723.38529,955.56640625,40.0390625,863.76953125,138.671875,0.0
1734498723.3891883,979.98046875,-95.703125,963.37890625,199.70703125,0.0
1734498723.393087,974.609375,-459.47265625,94.23828125,208.984375,0.0
1734498723.3969853,693.84765625,-818.359375,-1000.0,194.82421875,0.0
1734498723.4008837,869.140625,-574.70703125,-739.2578125,207.51953125,0.0
1734498723.404782,936.03515625,-245.60546875,180.17578125,320.3125,0.0
1734498723.4086807,-909.1796875,-213.8671875,483.88671875,371.58203125,0.0
1734498723.412579,641.11328125,-435.546875,-226.5625,299.8046875,0.0
1734498723.4164774,-637.20703125,-775.390625,-1000.0,-359.375,0.0
1734498723.4203758,445.80078125,-534.1796875,-701.171875,-1000.0,0.0
1734498723.4242744,-858.88671875,-114.74609375,485.83984375,-992.1875,0.0
1734498723.4282453,0.0,-84.9609375,923.828125,-986.81640625,0.0
1734498723.4321437,0.0,-343.26171875,108.3984375,-1000.0,0.0
1734498723.4360423,0.0,-753.41796875,-1000.0,-1000.0,0.0
1734498723.4399407,0.0,-641.6015625,-700.1953125,-1000.0,0.0
1734498723.443839,0.0,-214.35546875,562.01171875,-1000.0,0.0
1734498723.4477375,0.0,-157.71484375,933.10546875,-1000.0,0.0
1734498723.451636,0.0,-404.78515625,212.890625,-1000.0,0.0
1734498723.4555345,0.0,-798.33984375,-1000.0,-1000.0,0.0
1734498723.4594328,0.0,-694.3359375,-410.64453125,-1000.0,0.0
1734498723.4633315,0.0,-199.21875,879.8828125,-1000.0,0.0
1734498723.4672298,0.0,-81.54296875,860.83984375,-1000.0,0.0
1734498723.4711282,0.0,-298.828125,909.66796875,-1000.0,0.0
1734498723.4749823,885.7421875,-760.25390625,-240.234375,-1000.0,0.0
1734498723.4788806,979.4921875,-813.4765625,-791.015625,-1000.0,0.0
1734498723.482779,968.26171875,-323.2421875,645.99609375,-1000.0,0.0
1734498723.4866774,968.26171875,-102.5390625,924.8046875,-1000.0,0.0
1734498723.490576,968.26171875,-198.2421875,988.76953125,-1000.0,0.0
1734498723.4944744,968.26171875,-616.69921875,-175.78125,-1000.0,0.0
1734498723.4983728,968.26171875,-738.76953125,-549.8046875,-989.74609375,0.0
1734498723.5022712,968.26171875,-235.83984375,865.72265625,-1000.0,0.0
1734498723.5061698,968.26171875,1.46484375,882.8125,-914.0625,0.0
1734498723.5100682,968.26171875,-126.46484375,-981.4453125,-560.546875,0.0
1734498723.5139666,968.26171875,-560.546875,-3.90625,-184.08203125,0.0
1734498723.517865,968.26171875,-774.90234375,-761.71875,59.08203125,0.0
1734498723.521881,968.26171875,-295.8984375,647.94921875,143.5546875,0.0
1734498723.5257795,968.26171875,-5.37109375,926.7578125,185.546875,0.0
1734498723.529678,967.7734375,-88.37890625,999.0234375,187.98828125,0.0
1734498723.5335765,967.7734375,-491.69921875,93.26171875,196.2890625,0.0
1734498723.5374749,968.26171875,-790.0390625,-937.98828125,382.32421875,0.0
1734498723.5413735,968.26171875,-349.12109375,375.9765625,568.84765625,0.0
1734498723.5452719,968.26171875,20.5078125,934.08203125,643.06640625,0.0
1734498723.5491703,967.7734375,-5.37109375,-993.1640625,730.46875,0.0
1734498723.5530689,968.26171875,-384.765625,194.3359375,852.5390625,0.0
1734498723.5569673,968.26171875,-757.8125,-935.546875,918.45703125,0.0
1734498723.5608656,967.7734375,-356.4453125,311.03515625,935.05859375,0.0
1734498723.5647643,968.26171875,46.875,953.61328125,969.7265625,0.0
1734498723.5687716,967.7734375,-8.30078125,957.03125,968.26171875,0.0
1734498723.57267,968.26171875,-399.90234375,281.25,968.26171875,0.0
1734498723.5765686,968.26171875,-880.37109375,-1000.0,968.75,0.0
1734498723.580467,968.26171875,-578.61328125,-456.0546875,968.75,0.0
1734498723.5843656,968.26171875,-74.70703125,770.99609375,968.26171875,0.0
1734498723.588264,968.26171875,-47.36328125,966.30859375,968.26171875,0.0
1734498723.5921624,968.26171875,-382.32421875,145.99609375,968.75,0.0
1734498723.596061,968.26171875,-876.46484375,-1000.0,968.75,0.0
1734498723.5999594,982.91015625,-689.94140625,-848.6328125,968.26171875,0.0
1734498723.6038578,907.71484375,-145.5078125,408.69140625,968.75,0.0
1734498723.6077564,-962.890625,-57.12890625,932.6171875,968.75,0.0
1734498723.6116548,830.56640625,-434.5703125,-170.41015625,968.26171875,0.0
1734498723.6156626,-795.8984375,-953.61328125,-1000.0,972.65625,0.0
1734498723.6195612,-315.4296875,-839.35546875,-1000.0,956.0546875,0.0
1734498723.6234596,-895.01953125,-314.94140625,-530.2734375,944.3359375,0.0
1734498723.627358,938.4765625,-36.1328125,551.26953125,989.2578125,0.0
1734498723.6312566,940.91796875,29.296875,793.9453125,95.21484375,0.0
1734498723.635155,975.09765625,190.91796875,787.59765625,-961.42578125,0.0
1734498723.6390536,968.26171875,466.30859375,938.4765625,-995.60546875,0.0
1734498723.642952,968.26171875,349.12109375,922.8515625,-977.05078125,0.0
1734498723.6468503,968.26171875,122.55859375,878.41796875,-1000.0,0.0
1734498723.650749,968.26171875,10.7421875,875.48828125,-974.12109375,0.0
1734498723.6546474,968.26171875,-91.30859375,854.98046875,-1000.0,0.0
1734498723.658546,968.26171875,-151.3671875,843.26171875,-834.9609375,0.0
1734498723.6625435,0.0,-188.4765625,846.19140625,198.2421875,0.0
1734498723.666442,0.0,-213.37890625,849.12109375,972.65625,0.0
1734498723.6703405,0.0,-232.91015625,853.02734375,952.63671875,0.0
1734498723.674239,0.0,-258.30078125,837.890625,953.61328125,0.0
1734498723.6781375,0.0,-292.96875,740.72265625,973.14453125,0.0
1734498723.682036,0.0,-323.73046875,583.984375,968.75,0.0
1734498723.6859343,0.0,-332.51953125,369.140625,968.75,0.0
1734498723.689833,0.0,-342.7734375,-75.1953125,968.26171875,0.0
1734498723.6937313,0.0,-358.3984375,-526.85546875,968.75,0.0
1734498723.69763,0.0,-398.4375,-749.0234375,968.75,0.0
1734498723.7015283,0.0,-390.13671875,-797.36328125,968.75,0.0
1734498723.705427,0.0,-476.07421875,-918.9453125,968.75,0.0
1734498723.7094164,-133.30078125,-871.09375,-1000.0,968.75,0.0
1734498723.713315,-1000.0,-1000.0,-1000.0,968.75,0.0
1734498723.7172134,-870.1171875,-972.65625,-959.9609375,968.75,0.0
1734498723.721112,-1000.0,-985.3515625,-1000.0,969.23828125,0.0
1734498723.7250104,-573.73046875,-436.5234375,-946.2890625,965.8203125,0.0
1734498723.728909,874.51171875,462.40234375,313.96484375,968.75,0.0
1734498723.7328074,-983.3984375,570.3125,-991.69921875,978.515625,0.0
1734498723.736706,912.109375,145.99609375,816.89453125,849.609375,0.0
1734498723.7406044,983.88671875,-81.0546875,868.65234375,876.46484375,0.0
1734498723.744503,968.26171875,-241.2109375,848.14453125,987.79296875,0.0
1734498723.7484014,968.26171875,-391.11328125,744.140625,962.890625,0.0
1734498723.7523,968.26171875,-530.76171875,546.38671875,968.75,0.0
1734498723.7562776,968.26171875,-648.4375,296.875,968.75,0.0
1734498723.7601762,967.7734375,-727.5390625,107.91015625,968.75,0.0
1734498723.7640746,968.26171875,-776.85546875,-202.63671875,968.75,0.0
1734498723.7679732,967.7734375,-799.31640625,-436.03515625,968.75,0.0
1734498723.7718716,968.26171875,-820.80078125,-646.484375,968.75,0.0
1734498723.7757702,968.26171875,-849.609375,-897.94921875,968.75,0.0
1734498723.7796688,967.7734375,-864.74609375,-919.43359375,968.75,0.0
1734498723.7835672,968.26171875,-861.81640625,-818.84765625,968.75,0.0
1734498723.7874658,968.26171875,-858.3984375,-787.59765625,968.75,0.0
1734498723.7913642,967.7734375,-842.7734375,-899.4140625,968.75,0.0
1734498723.7952628,967.7734375,-871.09375,-1000.0,968.75,0.0
1734498723.7991612,968.26171875,-854.00390625,-980.46875,968.75,0.0
1734498723.8031292,969.7265625,-776.3671875,-883.30078125,968.75,0.0
1734498723.8070278,908.69140625,-780.2734375,-893.5546875,968.26171875,0.0
1734498723.8109264,-838.37890625,-742.67578125,-924.31640625,969.23828125,0.0
1734498723.8148248,86.9140625,-882.32421875,-961.9140625,968.26171875,0.0
1734498723.8187234,-174.31640625,-888.671875,-948.73046875,960.44921875,0.0
1734498723.8226218,-945.3125,-623.046875,-891.6015625,967.28515625,0.0
1734498723.8265204,941.40625,-592.7734375,-882.8125,959.9609375,0.0
1734498723.830419,-972.16796875,-547.8515625,-881.34765625,982.421875,0.0
1734498723.8343174,-91.30859375,-775.87890625,-983.88671875,894.53125,0.0
1734498723.838216,-1000.0,-1000.0,-1000.0,619.62890625,0.0
1734498723.8421144,-225.5859375,-625.48828125,-930.6640625,568.359375,0.0
1734498723.846013,-819.3359375,-275.87890625,-789.55078125,702.1484375,0.0
1734498723.8500361,0.0,-367.1875,-927.24609375,730.95703125,0.0
1734498723.8539348,0.0,-762.6953125,-1000.0,526.3671875,0.0
1734498723.8578331,0.0,-1000.0,-995.1171875,198.2421875,0.0
1734498723.8617318,0.0,-661.1328125,-998.53515625,210.44921875,0.0
1734498723.8656304,0.0,-291.015625,-1000.0,397.94921875,0.0
1734498723.8695288,0.0,-396.484375,-1000.0,386.23046875,0.0
1734498723.8734274,0.0,-769.04296875,-1000.0,111.81640625,0.0
1734498723.877326,0.0,-1000.0,-1000.0,-443.84765625,0.0
1734498723.8812244,0.0,-783.203125,-1000.0,-834.9609375,0.0
1734498723.885123,0.0,-354.4921875,-1000.0,-801.7578125,0.0
1734498723.8890216,0.0,-312.01171875,-1000.0,-865.72265625,0.0
1734498723.89292,0.0,-667.96875,-1000.0,-1000.0,0.0
1734498723.8969347,-1000.0,-1000.0,-1000.0,-997.55859375,0.0
1734498723.9008334,-1000.0,-751.46484375,-1000.0,-998.046875,0.0
1734498723.9047318,-1000.0,-241.2109375,-1000.0,-1000.0,0.0
1734498723.9086304,-1000.0,-285.64453125,-1000.0,-1000.0,0.0
1734498723.912529,-1000.0,-701.171875,-1000.0,-1000.0,0.0
1734498723.9164274,-1000.0,-1000.0,-1000.0,-1000.0,0.0
1734498723.920326,-1000.0,-866.2109375,-1000.0,-1000.0,0.0
1734498723.9242246,-1000.0,-433.10546875,-1000.0,-1000.0,0.0
1734498723.928123,-1000.0,-345.21484375,-1000.0,-1000.0,0.0
1734498723.9320216,-1000.0,-671.38671875,-1000.0,-1000.0,0.0
1734498723.9359202,-1000.0,-1000.0,-1000.0,-1000.0,0.0
1734498723.9398186,-1000.0,-839.35546875,-1000.0,-1000.0,0.0
1734498723.943827,-1000.0,-273.4375,-1000.0,-1000.0,0.0
1734498723.9477255,-1000.0,-59.5703125,-1000.0,-1000.0,0.0
1734498723.9516242,-1000.0,-298.33984375,-1000.0,-1000.0,0.0
1734498723.9555225,-1000.0,-815.4296875,-980.46875,-1000.0,0.0
1734498723.9594212,-1000.0,-743.65234375,-1000.0,-1000.0,0.0
1734498723.9633198,-1000.0,-103.02734375,-985.83984375,-1000.0,0.0
1734498723.9672184,-1000.0,166.9921875,-71.77734375,-1000.0,0.0
1734498723.9711168,-1000.0,38.0859375,29.78515625,-1000.0,0.0
1734498723.9750154,-1000.0,-442.87109375,-1000.0,-1000.0,0.0
1734498723.978914,-1000.0,-437.98828125,-809.5703125,-1000.0,0.0
1734498723.9828126,-1000.0,192.3828125,565.91796875,-1000.0,0.0
1734498723.986711,-1000.0,427.734375,940.4296875,-1000.0,0.0
1734498723.990771,-1000.0,270.5078125,-994.62890625,-1000.0,0.0
1734498723.9946697,-1000.0,-225.5859375,-84.47265625,-1000.0,0.0
1734498723.9985683,-1000.0,-354.4921875,-310.05859375,-1000.0,0.0
1734498724.002467,-1000.0,250.9765625,-986.81640625,-1000.0,0.0
1734498724.0063655,-1000.0,550.29296875,972.65625,-1000.0,0.0
1734498724.010264,-1000.0,503.41796875,943.84765625,-1000.0,0.0
1734498724.0141625,-937.01171875,116.2109375,901.85546875,-1000.0,0.0
1734498724.0180612,-1000.0,-199.21875,844.23828125,-997.0703125,0.0
1734498724.0219598,-761.23046875,292.48046875,938.4765625,-1000.0,0.0
1734498724.0258584,599.609375,715.33203125,974.609375,-974.609375,0.0
1734498724.029757,-731.4453125,718.26171875,967.7734375,-916.9921875,0.0
1734498724.0336554,-10.25390625,265.625,949.70703125,-968.75,0.0
1734498724.0376487,-525.390625,-110.3515625,929.6875,-1000.0,0.0
1734498724.0415473,952.63671875,445.3125,964.84375,-1000.0,0.0
1734498724.045446,-977.05078125,911.1328125,971.6796875,-971.19140625,0.0
1734498724.0493445,914.0625,862.79296875,966.796875,-819.3359375,0.0
1734498724.0532432,981.93359375,432.12890625,969.23828125,-853.515625,0.0
1734498724.0571418,968.26171875,-10.7421875,968.75,-1000.0,0.0
1734498724.0610404,968.26171875,395.01953125,968.75,-992.1875,0.0
1734498724.0649388,968.26171875,818.84765625,967.28515625,-805.17578125,0.0
1734498724.0688374,968.26171875,738.76953125,971.6796875,-602.05078125,0.0
1734498724.072736,967.7734375,301.26953125,965.8203125,-675.29296875,0.0
1734498724.0766346,967.7734375,-271.97265625,944.82421875,-933.59375,0.0
1734498724.0805333,968.26171875,-11.23046875,963.37890625,-1000.0,0.0
1734498724.0845187,0.0,513.18359375,964.84375,-914.0625,0.0
1734498724.0884173,0.0,511.71875,971.19140625,-780.2734375,0.0
1734498724.092316,0.0,82.03125,963.8671875,-844.7265625,0.0
1734498724.0962143,0.0,-586.42578125,745.60546875,-994.140625,0.0
1734498724.100113,0.0,-441.89453125,811.5234375,-1000.0,0.0
1734498724.1040115,0.0,150.87890625,978.515625,-995.60546875,0.0
1734498724.1079102,0.0,179.6875,906.73828125,-1000.0,0.0
1734498724.1118088,0.0,-199.21875,-962.890625,-1000.0,0.0
1734498724.1157074,0.0,-818.359375,-232.421875,-1000.0,0.0
1734498724.119606,0.0,-807.12890625,-576.66015625,-1000.0,0.0
1734498724.1235046,0.0,-227.05078125,808.59375,-1000.0,0.0
1734498724.1274033,0.0,-64.453125,-984.86328125,-1000.0,0.0
1734498724.1313798,967.7734375,-340.8203125,409.66796875,-1000.0,0.0
1734498724.1352785,968.26171875,-866.2109375,-809.08203125,-1000.0,0.0
1734498724.139177,968.26171875,-922.36328125,-1000.0,-1000.0,0.0
1734498724.1430757,968.26171875,-378.41796875,35.64453125,-1000.0,0.0
1734498724.1469743,968.26171875,-131.8359375,-966.30859375,-1000.0,0.0
1734498724.150873,968.26171875,-380.859375,212.890625,-1000.0,0.0
1734498724.1547716,968.26171875,-860.83984375,-945.3125,-1000.0,0.0
1734498724.1586702,968.26171875,-965.33203125,-1000.0,-1000.0,0.0
1734498724.1625688,968.75,-449.70703125,-237.79296875,-1000.0,0.0
1734498724.1664674,894.04296875,-156.25,954.58984375,-1000.0,0.0
1734498724.170366,-819.82421875,-384.27734375,219.23828125,-1000.0,0.0
1734498724.1742647,52.734375,-821.77734375,-903.80859375,-1000.0,0.0
1734498724.1782331,-511.71875,-1000.0,-1000.0,-1000.0,0.0
1734498724.1821318,968.26171875,-653.3203125,-831.0546875,-1000.0,0.0
1734498724.1860304,943.359375,-292.48046875,101.07421875,-1000.0,0.0
1734498724.189929,-899.90234375,-392.578125,-87.40234375,-1000.0,0.0
1734498724.1938276,173.33984375,-772.4609375,-942.3828125,-1000.0,0.0
1734498724.1977262,-1000.0,-1000.0,-1000.0,-1000.0,0.0
1734498724.2016249,448.73046875,-613.28125,-585.44921875,-1000.0,0.0
1734498724.2055235,-971.19140625,-96.19140625,668.9453125,-1000.0,0.0
1734498724.209422,-900.87890625,-72.265625,-999.51171875,-1000.0,0.0
1734498724.2133207,354.98046875,-531.25,-75.68359375,-997.0703125,0.0
1734498724.2172194,-444.82421875,-969.23828125,-1000.0,-993.1640625,0.0
1734498724.221118,885.7421875,-459.9609375,-168.45703125,-1000.0,0.0
1734498724.2251387,-947.75390625,100.09765625,919.43359375,-798.33984375,0.0
1734498724.2290373,903.80859375,134.765625,-946.77734375,-446.77734375,0.0
1734498724.232936,982.421875,-252.9296875,286.62109375,-535.15625,0.0
1734498724.2368348,968.26171875,-752.44140625,-919.43359375,-963.8671875,0.0
1734498724.2407334,968.26171875,-351.5625,212.40234375,-716.30859375,0.0
1734498724.244632,968.26171875,239.74609375,-952.63671875,31.73828125,0.0
1734498724.2485306,968.26171875,263.18359375,905.76171875,455.56640625,0.0
1734498724.2524292,968.26171875,-93.26171875,930.17578125,389.16015625,0.0
1734498724.2563279,968.26171875,-629.8828125,-53.7109375,-138.671875,0.0
1734498724.2602265,968.26171875,-364.2578125,194.82421875,-119.140625,0.0
1734498724.264125,968.26171875,20.01953125,-969.23828125,513.671875,0.0
1734498724.2680237,968.26171875,-115.72265625,846.19140625,795.8984375,0.0
1734498724.272037,968.26171875,-205.56640625,861.81640625,556.15234375,0.0
1734498724.2759356,974.12109375,-254.39453125,839.84375,-161.1328125,0.0
1734498724.2798343,898.92578125,-307.6171875,739.2578125,-291.50390625,0.0
1734498724.283733,-891.6015625,-255.859375,844.23828125,213.37890625,0.0
1734498724.2876315,287.59765625,-588.37890625,-30.2734375,504.39453125,0.0
1734498724.2915301,-1000.0,-1000.0,-1000.0,850.5859375,0.0
1734498724.2954288,-1000.0,-994.140625,-975.5859375,907.2265625,0.0
1734498724.2993274,-965.33203125,-991.2109375,-980.95703125,777.34375,0.0
1734498724.303226,-1000.0,-1000.0,-1000.0,927.734375,0.0
1734498724.3071246,-1000.0,-1000.0,-1000.0,982.421875,0.0
1734498724.3110232,-1000.0,-997.0703125,-1000.0,961.9140625,0.0
1734498724.314922,-1000.0,-1000.0,-1000.0,969.7265625,0.0
1734498724.3189275,0.0,-987.3046875,-1000.0,975.09765625,0.0
1734498724.3228261,0.0,-845.703125,-1000.0,933.10546875,0.0
1734498724.3267248,0.0,-672.8515625,-1000.0,994.62890625,0.0
1734498724.3306234,0.0,-557.6171875,-1000.0,819.3359375,0.0
1734498724.334522,0.0,-459.9609375,-1000.0,-385.25390625,0.0
1734498724.3384209,0.0,-379.39453125,-1000.0,-1000.0,0.0
1734498724.3423195,0.0,-288.57421875,-1000.0,-958.49609375,0.0
1734498724.346218,0.0,-208.984375,-1000.0,-997.0703125,0.0
1734498724.3501167,0.0,-169.921875,-1000.0,-1000.0,0.0
1734498724.3540154,0.0,-113.76953125,-1000.0,-1000.0,0.0
1734498724.357914,0.0,-50.29296875,-956.54296875,-1000.0,0.0
1734498724.3618126,0.0,-22.4609375,-945.80078125,-1000.0,0.0
1734498724.3656456,-1000.0,-13.18359375,-546.875,-992.67578125,0.0
1734498724.3695443,-1000.0,101.07421875,500.48828125,-1000.0,0.0
1734498724.373443,-1000.0,95.703125,782.71484375,-916.9921875,0.0
1734498724.3773415,-1000.0,18.5546875,701.66015625,-586.9140625,0.0
1734498724.3812401,-1000.0,285.64453125,929.19921875,186.5234375,0.0
1734498724.3851388,-1000.0,475.09765625,973.6328125,903.3203125,0.0
1734498724.3890376,-1000.0,411.62109375,967.28515625,972.65625,0.0
1734498724.3929362,-1000.0,150.87890625,945.80078125,950.1953125,0.0
1734498724.3968349,-1000.0,-61.5234375,938.96484375,973.14453125,0.0
1734498724.4007335,-1000.0,85.44921875,969.23828125,968.75,0.0
1734498724.404632,-1000.0,311.03515625,969.7265625,968.75,0.0
1734498724.4085307,-1000.0,452.1484375,967.7734375,968.75,0.0
1734498724.4125202,841.30859375,338.8671875,969.23828125,968.75,0.0
1734498724.4164188,-976.5625,414.0625,968.75,968.75,0.0
1734498724.4203174,910.64453125,824.70703125,968.75,968.75,0.0
1734498724.424216,983.88671875,978.02734375,968.75,968.26171875,0.0
1734498724.4281147,968.26171875,945.80078125,968.75,968.26171875,0.0
1734498724.4320133,968.26171875,661.62109375,968.75,968.75,0.0
1734498724.4359121,967.7734375,300.78125,968.75,968.75,0.0
1734498724.4398108,968.26171875,553.22265625,968.75,968.75,0.0
1734498724.4437094,967.7734375,929.19921875,968.75,968.75,0.0
1734498724.447608,967.7734375,986.328125,968.75,966.30859375,0.0
1734498724.4515066,967.7734375,743.1640625,968.75,973.6328125,0.0
1734498724.4554052,967.7734375,101.07421875,968.75,953.125,0.0
1734498724.4593894,0.0,-174.31640625,968.75,938.96484375,0.0
1734498724.463288,0.0,-46.875,964.35546875,964.84375,0.0
1734498724.4671867,0.0,-108.3984375,947.265625,966.30859375,0.0
1734498724.4710853,0.0,-387.20703125,-993.1640625,984.375,0.0
1734498724.4749842,0.0,-828.125,576.66015625,772.4609375,0.0
1734498724.4788828,0.0,-990.72265625,199.70703125,697.265625,0.0
1734498724.4827814,0.0,-799.31640625,477.05078125,930.17578125,0.0
1734498724.48668,0.0,-739.74609375,294.43359375,966.796875,0.0
1734498724.4905787,0.0,-880.859375,-544.43359375,979.00390625,0.0
1734498724.4944775,0.0,-989.74609375,-1000.0,898.92578125,0.0
1734498724.4983761,0.0,-1000.0,-978.02734375,651.85546875,0.0
1734498724.5022748,0.0,-875.0,-987.79296875,715.8203125,0.0
1734498724.5063097,905.2734375,-691.89453125,-991.69921875,929.6875,0.0
1734498724.5102084,-881.8359375,-788.57421875,-1000.0,989.74609375,0.0
1734498724.514107,197.265625,-952.63671875,-1000.0,596.6796875,0.0
1734498724.5180056,-1000.0,-1000.0,-1000.0,169.43359375,0.0
1734498724.5219045,-373.53515625,-917.48046875,-1000.0,233.3984375,0.0
1734498724.525803,-492.67578125,-753.41796875,-1000.0,99.609375,0.0
1734498724.5297017,-1000.0,-725.5859375,-1000.0,-36.62109375,0.0
1734498724.5336003,-963.37890625,-872.55859375,-1000.0,-236.81640625,0.0
1734498724.5374992,-1000.0,-1000.0,-1000.0,-564.453125,0.0
1734498724.5413978,-1000.0,-853.02734375,-1000.0,-372.0703125,0.0
1734498724.5452964,-1000.0,-613.28125,-1000.0,34.1796875,0.0
1734498724.549195,-1000.0,-604.4921875,-1000.0,296.38671875,0.0
1734498724.5531638,-1000.0,-806.640625,-1000.0,528.80859375,0.0
1734498724.5570624,-1000.0,-1000.0,-1000.0,299.8046875,0.0
1734498724.5609612,-1000.0,-695.3125,-1000.0,171.875,0.0
1734498724.5648599,-1000.0,-63.4765625,-1000.0,732.421875,0.0
1734498724.5687585,-1000.0,488.28125,-1000.0,998.53515625,0.0
1734498724.572657,-1000.0,897.94921875,-963.8671875,951.171875,0.0
1734498724.576556,-1000.0,970.703125,-1000.0,967.28515625,0.0
1734498724.5804546,-1000.0,959.47265625,-871.09375,969.7265625,0.0
1734498724.5843532,-1000.0,970.703125,79.1015625,968.75,0.0
1734498724.588252,-1000.0,969.23828125,-24.4140625,968.75,0.0
1734498724.5921507,-1000.0,968.75,-773.92578125,968.75,0.0
1734498724.5960493,-1000.0,968.75,-1000.0,968.75,0.0
1734498724.600072,-1000.0,968.75,-844.23828125,970.21484375,0.0
1734498724.6039705,-1000.0,968.75,239.74609375,964.35546875,0.0
1734498724.6078691,-927.734375,968.75,860.83984375,955.078125,0.0
1734498724.611768,-1000.0,968.75,625.0,994.140625,0.0
1734498724.6156666,-668.45703125,968.75,449.21875,603.515625,0.0
1734498724.6195652,804.6875,968.75,777.83203125,159.66796875,0.0
1734498724.623464,-962.40234375,968.75,932.12890625,254.39453125,0.0
1734498724.6273627,905.2734375,968.75,892.578125,496.09375,0.0
1734498724.6312613,985.3515625,968.75,887.6953125,853.02734375,0.0
1734498724.6351602,968.26171875,968.75,907.71484375,984.375,0.0
1734498724.6390588,968.26171875,968.75,958.49609375,956.54296875,0.0
1734498724.6429574,967.7734375,968.75,969.7265625,968.26171875,0.0
1734498724.6469703,0.0,968.75,967.28515625,909.66796875,0.0
1734498724.650869,0.0,968.75,968.75,-896.97265625,0.0
1734498724.6547675,0.0,968.75,968.75,156.25,0.0
1734498724.6586664,0.0,968.75,968.75,-1000.0,0.0
1734498724.662565,0.0,968.75,968.75,-980.46875,0.0
1734498724.6664639,0.0,968.75,968.75,-975.5859375,0.0
1734498724.6703625,0.0,968.75,968.75,-1000.0,0.0
1734498724.674261,0.0,968.75,969.23828125,-1000.0,0.0
1734498724.67816,0.0,969.23828125,966.30859375,-1000.0,0.0
1734498724.6820586,0.0,968.75,958.984375,-1000.0,0.0
1734498724.6859574,0.0,968.75,957.03125,-1000.0,0.0
1734498724.689856,0.0,968.75,946.77734375,-1000.0,0.0
1734498724.693862,968.26171875,969.23828125,933.59375,-1000.0,0.0
1734498724.6977606,968.26171875,968.75,918.9453125,-1000.0,0.0
1734498724.7016592,968.26171875,959.47265625,906.73828125,-1000.0,0.0
1734498724.705558,968.26171875,962.890625,843.75,-1000.0,0.0
1734498724.7094567,968.26171875,875.48828125,943.359375,-945.80078125,0.0
1734498724.7133555,968.26171875,248.53515625,33.203125,-1000.0,0.0
1734498724.7172542,968.26171875,-348.14453125,-1000.0,-340.33203125,0.0
1734498724.721153,968.26171875,-341.30859375,-980.46875,923.33984375,0.0
1734498724.7250516,968.26171875,-265.625,-978.515625,981.93359375,0.0
1734498724.7289505,968.26171875,-113.28125,-1000.0,932.6171875,0.0
1734498724.7328491,983.88671875,-147.94921875,-1000.0,977.05078125,0.0
1734498724.7367477,900.87890625,-488.76953125,-1000.0,982.91015625,0.0
1734498724.7407444,-938.96484375,-645.99609375,-1000.0,900.87890625,0.0
1734498724.744643,679.6875,-803.7109375,-1000.0,-931.15234375,0.0
1734498724.7485418,-766.6015625,-1000.0,-1000.0,625.48828125,0.0
1734498724.7524405,-1000.0,-997.55859375,-1000.0,-804.19921875,0.0
1734498724.7563393,-937.5,-996.58203125,-1000.0,-1000.0,0.0
1734498724.760238,-1000.0,-1000.0,-1000.0,-941.89453125,0.0
1734498724.7641368,-1000.0,-1000.0,-1000.0,-1000.0,0.0
1734498724.7680354,-1000.0,-1000.0,-1000.0,-1000.0,0.0
1734498724.7719343,-1000.0,-1000.0,-1000.0,-1000.0,0.0
1734498724.775833,-1000.0,-1000.0,-1000.0,-1000.0,0.0
1734498724.7797318,-1000.0,-1000.0,-1000.0,-1000.0,0.0
1734498724.7836304,-1000.0,-1000.0,-1000.0,-1000.0,0.0
1734498724.7876217,-1000.0,-1000.0,-1000.0,-1000.0,0.0
1734498724.7915206,-1000.0,-1000.0,-1000.0,-1000.0,0.0
1734498724.7954195,-1000.0,-1000.0,-1000.0,-1000.0,0.0
1734498724.799318,-1000.0,-1000.0,-1000.0,-1000.0,0.0
1734498724.803217,-1000.0,-1000.0,-1000.0,-1000.0,0.0
1734498724.8071156,-1000.0,-1000.0,-984.375,-1000.0,0.0
1734498724.8110144,-1000.0,-1000.0,-888.18359375,-1000.0,0.0
1734498724.814913,-1000.0,-1000.0,-651.3671875,-1000.0,0.0
1734498724.818812,-1000.0,-1000.0,65.4296875,-1000.0,0.0
1734498724.8227105,-1000.0,-1000.0,602.5390625,-1000.0,0.0
1734498724.8266094,-1000.0,-1000.0,582.51953125,-1000.0,0.0
1734498724.830508,-1000.0,-1000.0,698.73046875,-1000.0,0.0
1734498724.8344932,0.0,-1000.0,0.0,-1000.0,0.0
1734498724.838392,0.0,-1000.0,0.0,-1000.0,0.0
1734498724.8422906,0.0,-1000.0,0.0,-1000.0,0.0
1734498724.8461895,0.0,-1000.0,0.0,-1000.0,0.0
1734498724.8500884,0.0,-1000.0,0.0,-1000.0,0.0
1734498724.853987,0.0,-1000.0,0.0,-1000.0,0.0
1734498724.8578858,0.0,-1000.0,0.0,-1000.0,0.0
1734498724.8617845,0.0,-1000.0,0.0,-1000.0,0.0
1734498724.8656833,0.0,-1000.0,0.0,-1000.0,0.0
1734498724.869582,0.0,-996.58203125,0.0,-1000.0,0.0
1734498724.8734808,0.0,-1000.0,0.0,-954.1015625,0.0
1734498724.8773797,0.0,-967.28515625,0.0,-1000.0,0.0
1734498724.8813548,968.26171875,-878.90625,968.75,-857.421875,0.0
1734498724.8852534,968.26171875,-865.234375,968.75,465.33203125,0.0
1734498724.8891523,968.26171875,-898.92578125,968.75,-934.5703125,0.0
1734498724.893051,968.26171875,-891.11328125,968.75,911.1328125,0.0
1734498724.8969498,968.26171875,-885.25390625,968.75,974.609375,0.0
1734498724.9008486,968.26171875,-952.63671875,968.75,969.23828125,0.0
1734498724.9047472,968.26171875,-938.4765625,968.75,968.75,0.0
1734498724.908646,968.26171875,-794.43359375,968.75,968.75,0.0
1734498724.9125447,968.26171875,-527.34375,968.75,968.75,0.0
1734498724.9164436,968.26171875,-387.20703125,969.23828125,968.75,0.0
1734498724.9203424,968.26171875,-451.66015625,966.30859375,968.75,0.0
1734498724.924241,968.26171875,-457.51953125,968.75,968.75,0.0
1734498724.9282084,968.26171875,-396.484375,962.40234375,968.75,0.0
1734498724.932107,968.26171875,-625.0,903.3203125,968.75,0.0
1734498724.9360058,968.26171875,-881.34765625,824.70703125,968.75,0.0
1734498724.9399045,967.7734375,-699.21875,599.12109375,968.75,0.0
1734498724.9438033,968.26171875,-357.421875,108.3984375,968.75,0.0
1734498724.9477022,969.7265625,-3.41796875,-610.83984375,968.75,0.0
1734498724.9516008,958.984375,173.33984375,-984.375,968.75,0.0
1734498724.9554996,920.41015625,113.76953125,-985.83984375,968.75,0.0
1734498724.9593985,-908.69140625,49.8046875,-993.65234375,968.75,0.0
1734498724.9632971,27.34375,-47.8515625,-1000.0,968.75,0.0
1734498724.967196,-1000.0,-78.125,-1000.0,969.23828125,0.0
1734498724.9710948,-962.40234375,-33.203125,-1000.0,968.75,0.0
1734498724.9751148,-985.3515625,-90.33203125,-1000.0,968.75,0.0
1734498724.9790137,-1000.0,-187.98828125,-1000.0,968.75,0.0
1734498724.9829123,-1000.0,-0.9765625,-1000.0,968.75,0.0
1734498724.9868112,-1000.0,395.99609375,-1000.0,968.75,0.0
1734498724.99071,-1000.0,524.90234375,-1000.0,968.75,0.0
1734498724.9946086,-1000.0,124.51171875,-1000.0,968.75,0.0
1734498724.9985075,-1000.0,168.9453125,-1000.0,968.75,0.0
1734498725.0024064,-1000.0,792.48046875,-1000.0,968.75,0.0
1734498725.006305,-1000.0,505.859375,-1000.0,968.75,0.0
1734498725.0102038,-1000.0,-269.53125,-1000.0,968.75,0.0
1734498725.0141027,-1000.0,-680.17578125,-1000.0,968.75,0.0
1734498725.0180013,-1000.0,-957.03125,-1000.0,968.75,0.0
1734498725.022014,-1000.0,-1000.0,-1000.0,968.75,0.0
1734498725.0259128,-1000.0,-993.65234375,-1000.0,968.75,0.0
1734498725.0298116,-1000.0,-1000.0,-1000.0,968.75,0.0
1734498725.0337105,-1000.0,-1000.0,-1000.0,968.75,0.0
1734498725.037609,-1000.0,-1000.0,-1000.0,968.75,0.0
1734498725.041508,-1000.0,-1000.0,-1000.0,968.75,0.0
1734498725.0454068,-1000.0,-1000.0,-1000.0,968.75,0.0
1734498725.0493054,-1000.0,-1000.0,-1000.0,968.75,0.0
1734498725.0532043,-1000.0,-1000.0,-1000.0,968.75,0.0
1734498725.0571032,-1000.0,-1000.0,-1000.0,968.75,0.0
1734498725.061002,-1000.0,-1000.0,-1000.0,968.75,0.0
1734498725.0649006,-1000.0,-1000.0,-1000.0,968.75,0.0
1734498725.0689063,-1000.0,-1000.0,-1000.0,968.75,0.0
1734498725.0728052,-1000.0,-1000.0,-1000.0,968.75,0.0
1734498725.076704,-1000.0,-1000.0,-1000.0,968.75,0.0
1734498725.080603,-1000.0,-1000.0,-1000.0,968.75,0.0
1734498725.0845015,-1000.0,-996.58203125,-1000.0,968.75,0.0
1734498725.0884004,-1000.0,-1000.0,-1000.0,968.75,0.0
1734498725.0922992,-1000.0,-982.421875,-1000.0,968.75,0.0
1734498725.096198,-1000.0,-865.234375,-1000.0,968.75,0.0
1734498725.100097,-1000.0,-766.6015625,-1000.0,968.75,0.0
1734498725.1039956,-1000.0,-589.84375,-1000.0,968.26171875,0.0
1734498725.1078944,-1000.0,-538.57421875,-1000.0,968.75,0.0
1734498725.1117933,-1000.0,-559.08203125,-1000.0,968.75,0.0
1734498725.11579,0.0,-316.89453125,-1000.0,968.75,0.0
1734498725.1196885,0.0,-39.0625,-1000.0,968.75,0.0
1734498725.1235874,0.0,-23.92578125,-1000.0,968.75,0.0
1734498725.1274862,0.0,-559.08203125,-1000.0,968.75,0.0
1734498725.131385,0.0,-1000.0,-1000.0,968.75,0.0
1734498725.135284,0.0,-924.31640625,-1000.0,968.75,0.0
1734498725.1391828,0.0,-533.69140625,-1000.0,968.75,0.0
1734498725.1430814,0.0,-296.38671875,-1000.0,968.75,0.0
1734498725.1469803,0.0,-168.9453125,-1000.0,968.75,0.0
1734498725.1508791,0.0,63.4765625,-1000.0,968.75,0.0
1734498725.154778,0.0,136.23046875,-1000.0,968.75,0.0
1734498725.1586769,0.0,154.296875,-986.328125,968.75,0.0
1734498725.1625042,-1000.0,145.99609375,-1000.0,968.75,0.0
1734498725.166403,-1000.0,354.00390625,-789.55078125,968.75,0.0
1734498725.170302,-1000.0,467.28515625,-538.0859375,968.75,0.0
1734498725.1742008,-1000.0,525.87890625,-362.3046875,968.75,0.0
1734498725.1780996,-1000.0,719.23828125,275.87890625,968.75,0.0
1734498725.1819983,-1000.0,827.1484375,506.8359375,968.75,0.0
1734498725.185897,-1000.0,880.859375,541.50390625,968.75,0.0
1734498725.189796,-1000.0,738.28125,107.91015625,968.75,0.0
1734498725.1936948,-1000.0,673.33984375,-489.74609375,968.75,0.0
1734498725.1975937,-1000.0,893.5546875,-280.2734375,968.75,0.0
1734498725.2014925,-1000.0,979.00390625,-265.625,968.75,0.0
1734498725.2053912,-1000.0,962.40234375,-707.51953125,968.75,0.0
1734498725.2093768,955.078125,968.75,-398.92578125,968.75,0.0
1734498725.2132754,970.21484375,968.75,328.125,969.23828125,0.0
1734498725.2171743,967.7734375,972.65625,166.015625,968.75,0.0
1734498725.2210732,967.7734375,945.3125,126.46484375,968.75,0.0
1734498725.224972,968.26171875,977.5390625,610.3515625,968.75,0.0
1734498725.2288709,968.26171875,874.51171875,602.5390625,971.19140625,0.0
1734498725.2327697,968.26171875,-51.7578125,489.2578125,956.0546875,0.0
1734498725.2366683,968.26171875,-715.8203125,678.22265625,963.8671875,0.0
1734498725.2405672,968.26171875,-818.359375,887.6953125,910.64453125,0.0
1734498725.244466,968.26171875,-1000.0,878.90625,333.984375,0.0
1734498725.248365,968.26171875,-999.51171875,881.34765625,-607.421875,0.0
1734498725.2522638,968.26171875,-997.0703125,874.51171875,-1000.0,0.0
1734498725.2562962,968.26171875,-1000.0,885.25390625,-980.46875,0.0
1734498725.2601948,968.26171875,-1000.0,874.0234375,-996.09375,0.0
1734498725.2640936,968.26171875,-984.375,860.83984375,-1000.0,0.0
1734498725.2679925,968.26171875,-1000.0,868.1640625,-1000.0,0.0
1734498725.2718914,968.26171875,-985.3515625,854.00390625,-1000.0,0.0
1734498725.2757902,970.21484375,-373.53515625,867.1875,-1000.0,0.0
1734498725.279689,903.80859375,-601.07421875,719.23828125,-1000.0,0.0
1734498725.283588,-892.578125,-1000.0,-242.1875,-992.1875,0.0
1734498725.2874868,213.37890625,-967.7734375,-1000.0,-991.2109375,0.0
1734498725.2913857,-1000.0,-1000.0,-979.98046875,-967.28515625,0.0
1734498725.2952845,-988.28125,-1000.0,-984.86328125,-548.33984375,0.0
1734498725.2991831,-971.19140625,-1000.0,-1000.0,407.71484375,0.0
1734498725.303151,-1000.0,-1000.0,-1000.0,987.3046875,0.0
1734498725.3070498,-1000.0,-1000.0,-1000.0,951.66015625,0.0
1734498725.3109486,-1000.0,-976.5625,-1000.0,958.49609375,0.0
1734498725.3148475,-1000.0,-990.72265625,-1000.0,972.16796875,0.0
1734498725.318746,-1000.0,-1000.0,-1000.0,968.75,0.0
1734498725.322645,-958.984375,132.8125,-1000.0,968.75,0.0
1734498725.3265438,-1000.0,-944.3359375,-1000.0,968.75,0.0
1734498725.3304427,-1000.0,930.17578125,-1000.0,968.75,0.0
1734498725.3343415,421.38671875,959.47265625,-1000.0,968.75,0.0
1734498725.3382404,972.65625,972.16796875,-1000.0,968.75,0.0
1734498725.3421392,-604.00390625,968.75,-1000.0,968.75,0.0
1734498725.346038,-1000.0,968.75,-1000.0,968.26171875,0.0
1734498725.350055,0.0,968.75,-1000.0,968.75,0.0
1734498725.3539538,0.0,968.75,-1000.0,968.75,0.0
1734498725.3578527,0.0,968.75,-1000.0,969.23828125,0.0
1734498725.3617516,0.0,968.75,-1000.0,968.75,0.0
1734498725.3656504,0.0,968.75,-1000.0,968.75,0.0
1734498725.3695493,0.0,968.75,-1000.0,968.75,0.0
1734498725.3734481,0.0,968.75,-1000.0,968.75,0.0
1734498725.377347,0.0,968.75,-1000.0,968.75,0.0
1734498725.3812459,0.0,968.75,-1000.0,968.75,0.0
1734498725.3851447,0.0,968.75,-1000.0,971.6796875,0.0
1734498725.3890436,0.0,968.75,-1000.0,954.58984375,0.0
1734498725.3929424,0.0,969.23828125,-1000.0,955.56640625,0.0
1734498725.3969533,-1000.0,968.75,-1000.0,909.1796875,0.0
1734498725.4008524,-1000.0,968.75,-1000.0,26.3671875,0.0
1734498725.4047513,-1000.0,969.23828125,-1000.0,-960.44921875,0.0
1734498725.4086502,-935.546875,968.75,-1000.0,-1000.0,0.0
1734498725.412549,-1000.0,968.75,-1000.0,-974.609375,0.0
1734498725.4164479,-253.90625,968.75,-1000.0,-1000.0,0.0
1734498725.4203467,-972.16796875,968.75,-968.26171875,-1000.0,0.0
1734498725.4242456,957.51953125,968.75,-1000.0,-1000.0,0.0
1734498725.4281445,938.4765625,968.75,-926.7578125,-1000.0,0.0
1734498725.4320433,976.07421875,969.23828125,226.5625,-971.19140625,0.0
1734498725.4359422,968.26171875,968.75,974.12109375,-1000.0,0.0
1734498725.439841,968.26171875,968.75,898.92578125,-686.5234375,0.0
1734498725.4438434,0.0,968.75,0.0,215.33203125,0.0
1734498725.4477422,0.0,969.23828125,0.0,396.484375,0.0
1734498725.451641,0.0,968.75,0.0,83.0078125,0.0
1734498725.45554,0.0,968.75,0.0,507.32421875,0.0
1734498725.4594388,0.0,973.6328125,0.0,955.56640625,0.0
1734498725.4633377,0.0,937.01171875,0.0,716.796875,0.0
1734498725.4672365,0.0,989.74609375,0.0,-195.3125,0.0
1734498725.4711354,0.0,813.4765625,0.0,-983.88671875,0.0
1734498725.4750342,0.0,-339.84375,0.0,-995.1171875,0.0
1734498725.4789333,0.0,-1000.0,0.0,-981.4453125,0.0
1734498725.4828322,0.0,-965.8203125,0.0,-1000.0,0.0
1734498725.486731,0.0,-993.1640625,0.0,-1000.0,0.0
1734498725.4907258,-1000.0,-1000.0,-1000.0,-1000.0,0.0
1734498725.4946249,-1000.0,-1000.0,-1000.0,-1000.0,0.0
1734498725.4985237,-1000.0,-1000.0,-1000.0,-1000.0,0.0
1734498725.5024226,-1000.0,-1000.0,-1000.0,-1000.0,0.0
1734498725.5063214,-1000.0,-1000.0,-1000.0,-1000.0,0.0
1734498725.5102203,-1000.0,-1000.0,-1000.0,-1000.0,0.0
1734498725.5141191,-1000.0,-1000.0,-1000.0,-1000.0,0.0
1734498725.518018,-1000.0,-1000.0,-1000.0,-1000.0,0.0
1734498725.5219169,-1000.0,-1000.0,-1000.0,-1000.0,0.0
1734498725.525816,-1000.0,-1000.0,-1000.0,-1000.0,0.0
1734498725.5297148,-1000.0,-1000.0,-1000.0,-1000.0,0.0
1734498725.5336137,-1000.0,-1000.0,-1000.0,-1000.0,0.0
1734498725.537603,0.0,-1000.0,-1000.0,-1000.0,0.0
1734498725.5415018,0.0,-1000.0,-1000.0,-1000.0,0.0
1734498725.5454009,0.0,-1000.0,-1000.0,-1000.0,0.0
1734498725.5492997,0.0,-1000.0,-1000.0,-1000.0,0.0
1734498725.5531986,0.0,-1000.0,-1000.0,-1000.0,0.0
1734498725.5570974,0.0,-1000.0,-1000.0,-1000.0,0.0
1734498725.5609963,0.0,-1000.0,-1000.0,-1000.0,0.0
1734498725.5648952,0.0,-1000.0,-1000.0,-1000.0,0.0
1734498725.5687943,0.0,-1000.0,-1000.0,-1000.0,0.0
1734498725.572693,0.0,-1000.0,-1000.0,-987.79296875,0.0
1734498725.576592,0.0,-1000.0,-1000.0,-1000.0,0.0
1734498725.5804908,0.0,-1000.0,-995.1171875,-824.21875,0.0
1734498725.5844712,-1000.0,-1000.0,0.0,-362.79296875,0.0
1734498725.58837,-1000.0,-1000.0,0.0,47.8515625,0.0
1734498725.5922692,-1000.0,-1000.0,0.0,369.140625,0.0
1734498725.596168,-1000.0,-1000.0,0.0,575.1953125,0.0
1734498725.600067,-1000.0,-1000.0,0.0,766.11328125,0.0
1734498725.6039658,-1000.0,-1000.0,0.0,921.38671875,0.0
1734498725.6078649,-1000.0,-1000.0,0.0,961.9140625,0.0
1734498725.6117637,-1000.0,-1000.0,0.0,966.796875,0.0
1734498725.6156626,-1000.0,-1000.0,0.0,968.26171875,0.0
1734498725.6195614,-1000.0,-1000.0,0.0,968.75,0.0
1734498725.6234603,-1000.0,-1000.0,0.0,968.75,0.0
1734498725.6273594,-1000.0,-1000.0,0.0,968.75,0.0
1734498725.6313348,-1000.0,-1000.0,-412.59765625,968.75,0.0
1734498725.6352336,-1000.0,-1000.0,-428.22265625,968.75,0.0
1734498725.6391325,-1000.0,-1000.0,-401.85546875,968.75,0.0
1734498725.6430314,-1000.0,-1000.0,-278.3203125,968.75,0.0
1734498725.6469305,-1000.0,-1000.0,-350.09765625,968.75,0.0
1734498725.6508293,-1000.0,-1000.0,-572.75390625,968.75,0.0
1734498725.6547282,-1000.0,-1000.0,-690.4296875,968.75,0.0
1734498725.658627,-1000.0,-1000.0,-353.02734375,969.23828125,0.0
1734498725.6625261,-1000.0,-1000.0,163.57421875,968.75,0.0
1734498725.666425,-1000.0,-1000.0,181.15234375,968.75,0.0
1734498725.6703238,-1000.0,-1000.0,229.4921875,968.75,0.0
1734498725.6742227,-1000.0,-998.046875,418.45703125,968.75,0.0
1734498725.6781893,-1000.0,-1000.0,478.515625,968.75,0.0
1734498725.6820884,-1000.0,-969.7265625,397.94921875,968.75,0.0
1734498725.6859872,-1000.0,-869.140625,387.20703125,968.75,0.0
1734498725.689886,-1000.0,-781.25,448.2421875,968.75,0.0
1734498725.693785,-1000.0,-759.27734375,290.52734375,968.75,0.0
1734498725.697684,-1000.0,-769.04296875,-217.28515625,968.75,0.0
1734498725.701583,-1000.0,-743.65234375,-466.30859375,968.75,0.0
1734498725.7054818,-1000.0,-708.49609375,-320.80078125,968.75,0.0
1734498725.7093809,-1000.0,-684.5703125,-446.77734375,968.75,0.0
1734498725.7132797,-1000.0,-527.83203125,-468.75,968.75,0.0
1734498725.7171786,-1000.0,-349.12109375,-375.9765625,968.75,0.0
1734498725.7210774,-1000.0,-241.69921875,-146.484375,966.796875,0.0
1734498725.7250974,0.0,-181.15234375,-181.15234375,973.6328125,0.0
1734498725.7289963,0.0,-94.23828125,41.015625,944.3359375,0.0
1734498725.7328951,0.0,-75.1953125,-20.5078125,901.85546875,0.0
1734498725.7367942,0.0,-68.359375,-583.49609375,936.5234375,0.0
1734498725.740693,0.0,144.53125,-556.640625,972.16796875,0.0
1734498725.744592,0.0,204.58984375,-820.3125,967.7734375,0.0
1734498725.748491,0.0,266.6015625,-979.00390625,967.7734375,0.0
1734498725.75239,0.0,542.48046875,-718.26171875,968.75,0.0
1734498725.7562888,0.0,840.8203125,-89.84375,968.75,0.0
1734498725.7601879,0.0,971.6796875,419.921875,968.75,0.0
1734498725.7640867,0.0,962.890625,655.76171875,968.75,0.0
1734498725.7679856,0.0,967.28515625,741.69921875,968.75,0.0
1734498725.7719948,968.26171875,969.23828125,717.7734375,968.75,0.0
1734498725.775894,968.26171875,968.75,655.76171875,968.75,0.0
1734498725.7797928,968.26171875,968.75,655.76171875,968.75,0.0
1734498725.783692,968.26171875,968.75,583.49609375,968.75,0.0
1734498725.7875907,968.26171875,968.75,523.4375,968.75,0.0
1734498725.7914896,968.26171875,968.75,-37.109375,968.75,0.0
1734498725.7953887,968.26171875,968.75,-978.02734375,968.75,0.0
1734498725.7992876,967.7734375,969.23828125,-909.66796875,968.75,0.0
1734498725.8031864,968.26171875,968.75,-215.33203125,968.75,0.0
1734498725.8070855,968.26171875,968.26171875,424.31640625,968.26171875,0.0
1734498725.8109844,967.7734375,968.75,812.5,968.75,0.0
1734498725.8148835,967.7734375,968.75,908.203125,968.75,0.0
1734498725.818886,967.7734375,968.26171875,949.70703125,968.75,0.0
1734498725.822785,968.26171875,968.75,972.16796875,968.75,0.0
1734498725.826684,968.26171875,968.75,968.75,968.75,0.0
1734498725.8305829,967.7734375,968.75,968.75,968.75,0.0
1734498725.834482,967.7734375,968.75,969.23828125,968.75,0.0
1734498725.8383808,968.26171875,968.75,967.28515625,968.26171875,0.0
1734498725.84228,968.26171875,968.75,969.7265625,968.26171875,0.0
1734498725.8461788,968.26171875,968.75,967.28515625,968.75,0.0
1734498725.8500776,968.26171875,968.75,941.89453125,968.75,0.0
1734498725.8539767,968.26171875,968.75,936.03515625,968.26171875,0.0
1734498725.8578756,968.26171875,971.6796875,934.5703125,968.75,0.0
1734498725.8617747,983.3984375,936.5234375,850.09765625,968.75,0.0
1734498725.8657706,901.3671875,-985.3515625,-956.54296875,968.75,0.0
1734498725.8696697,-942.3828125,682.12890625,246.58203125,968.75,0.0
1734498725.8735685,693.359375,-212.890625,-1000.0,968.75,0.0
1734498725.8774676,-751.46484375,-648.92578125,-1000.0,968.75,0.0
1734498725.8813665,-1000.0,-882.32421875,-966.30859375,968.75,0.0
1734498725.8852656,-937.01171875,-847.16796875,-1000.0,968.75,0.0
1734498725.8891644,-1000.0,-429.6875,-1000.0,968.75,0.0
1734498725.8930635,-1000.0,-314.94140625,-1000.0,968.26171875,0.0
1734498725.8969624,-1000.0,234.86328125,-1000.0,968.75,0.0
1734498725.9008615,-1000.0,672.8515625,-1000.0,968.75,0.0
1734498725.9047604,-1000.0,-24.90234375,-1000.0,969.23828125,0.0
1734498725.9086592,-1000.0,-109.86328125,-1000.0,957.51953125,0.0
1734498725.912646,-1000.0,358.88671875,-1000.0,983.88671875,0.0
1734498725.9165452,-1000.0,458.0078125,-1000.0,845.21484375,0.0
1734498725.920444,-1000.0,441.89453125,-1000.0,501.46484375,0.0
1734498725.924343,-1000.0,427.24609375,-1000.0,166.9921875,0.0
1734498725.928242,-1000.0,359.86328125,-1000.0,-125.48828125,0.0
1734498725.932141,-1000.0,326.66015625,-1000.0,-452.1484375,0.0
1734498725.93604,-1000.0,368.65234375,-1000.0,-890.625,0.0
1734498725.939939,-1000.0,326.171875,-1000.0,-1000.0,0.0
1734498725.943838,-1000.0,256.34765625,-1000.0,-985.83984375,0.0
1734498725.947737,-1000.0,248.046875,-1000.0,-1000.0,0.0
1734498725.9516358,-1000.0,213.37890625,-1000.0,-1000.0,0.0
1734498725.955535,-1000.0,171.38671875,-1000.0,-1000.0,0.0
1734498725.959514,-1000.0,148.4375,0.0,-1000.0,0.0
1734498725.9634128,-1000.0,129.8828125,0.0,-1000.0,0.0
1734498725.9673119,-1000.0,117.1875,0.0,-1000.0,0.0
1734498725.9712107,-1000.0,133.30078125,0.0,-1000.0,0.0
1734498725.9751098,-1000.0,197.75390625,0.0,-1000.0,0.0
1734498725.9790087,-1000.0,285.64453125,0.0,-1000.0,0.0
1734498725.9829078,-1000.0,327.1484375,0.0,-1000.0,0.0
1734498725.9868066,-1000.0,349.12109375,0.0,-1000.0,0.0
1734498725.9907057,-1000.0,384.765625,0.0,-1000.0,0.0
1734498725.9946046,-1000.0,390.13671875,0.0,-1000.0,0.0
1734498725.9985037,-1000.0,491.2109375,0.0,-1000.0,0.0
1734498726.0024028,-1000.0,784.66796875,0.0,-1000.0,0.0
1734498726.0063784,-1000.0,976.07421875,-699.70703125,-1000.0,0.0
1734498726.0102773,-1000.0,962.890625,-829.58984375,-1000.0,0.0
1734498726.0141764,-1000.0,965.8203125,-926.7578125,-1000.0,0.0
1734498726.0180752,-1000.0,970.21484375,-951.171875,-1000.0,0.0
1734498726.0219743,-1000.0,968.75,-992.1875,-1000.0,0.0
1734498726.0258734,-1000.0,969.23828125,-997.55859375,-1000.0,0.0
1734498726.0297723,-1000.0,968.75,-989.74609375,-1000.0,0.0
1734498726.0336714,-1000.0,968.75,-992.1875,-1000.0,0.0
1734498726.0375702,-1000.0,969.23828125,-997.0703125,-1000.0,0.0
1734498726.0414693,-1000.0,969.23828125,-1000.0,-1000.0,0.0
1734498726.0453682,-1000.0,968.75,-1000.0,-1000.0,0.0
1734498726.0492673,-1000.0,968.75,-1000.0,-1000.0,0.0
1734498726.0532892,-1000.0,968.75,-1000.0,-1000.0,0.0
1734498726.0571883,-1000.0,969.23828125,-1000.0,-1000.0,0.0
1734498726.0610871,-1000.0,969.23828125,-996.58203125,-1000.0,0.0
1734498726.0649862,-1000.0,968.75,-956.0546875,-1000.0,0.0
1734498726.0688853,-1000.0,969.23828125,-873.53515625,-1000.0,0.0
1734498726.0727842,-938.96484375,969.23828125,-903.80859375,-1000.0,0.0
1734498726.0766833,-1000.0,968.75,-546.875,-1000.0,0.0
1734498726.0805821,-204.58984375,969.23828125,265.625,-1000.0,0.0
1734498726.0844812,-956.54296875,967.28515625,641.11328125,-1000.0,0.0
1734498726.0883803,949.70703125,965.33203125,727.05078125,-1000.0,0.0
1734498726.0922792,941.89453125,968.75,803.22265625,-988.76953125,0.0
1734498726.0961783,974.609375,871.58203125,831.0546875,-994.140625,0.0
1734498726.100194,968.26171875,680.6640625,0.0,-950.1953125,0.0
1734498726.104093,967.7734375,543.9453125,0.0,-379.39453125,0.0
1734498726.1079922,967.7734375,452.1484375,0.0,550.29296875,0.0
1734498726.111891,968.26171875,346.6796875,0.0,974.12109375,0.0
1734498726.1157901,967.7734375,214.84375,0.0,952.1484375,0.0
1734498726.1196892,968.26171875,61.03515625,0.0,962.40234375,0.0
1734498726.123588,967.7734375,-57.6171875,0.0,971.19140625,0.0
1734498726.1274872,967.7734375,-142.578125,0.0,968.75,0.0
1734498726.1313863,968.26171875,-231.4453125,0.0,968.75,0.0
1734498726.1352851,967.7734375,-350.09765625,0.0,968.75,0.0
1734498726.1391842,967.7734375,-345.21484375,0.0,968.75,0.0
1734498726.1430833,968.26171875,-417.96875,0.0,968.75,0.0
1734498726.1470873,967.7734375,-530.76171875,283.69140625,968.75,0.0
1734498726.1509864,968.26171875,-359.375,530.2734375,969.23828125,0.0
1734498726.1548853,967.7734375,-178.22265625,798.828125,964.35546875,0.0
1734498726.1587844,968.26171875,-10.7421875,878.41796875,967.28515625,0.0
1734498726.1626835,968.26171875,144.04296875,914.0625,945.80078125,0.0
1734498726.1665823,968.26171875,125.48828125,945.80078125,729.00390625,0.0
1734498726.1704814,968.26171875,18.5546875,949.70703125,437.01171875,0.0
1734498726.1743805,968.26171875,-243.65234375,941.89453125,204.58984375,0.0
1734498726.1782796,968.26171875,-591.796875,925.78125,3.41796875,0.0
1734498726.1821785,968.26171875,-886.71875,906.73828125,-302.24609375,0.0
1734498726.1860776,968.26171875,-1000.0,885.25390625,-715.8203125,0.0
1734498726.1899767,969.23828125,-993.1640625,784.1796875,-944.82421875,0.0
1734498726.1939743,963.37890625,-1000.0,527.34375,-999.0234375,0.0
1734498726.1978734,913.57421875,-1000.0,115.234375,-996.09375,0.0
1734498726.2017725,-902.34375,-1000.0,-382.32421875,-1000.0,0.0
1734498726.2056715,96.19140625,-1000.0,-715.8203125,-1000.0,0.0
1734498726.2095706,-1000.0,-1000.0,-868.65234375,-1000.0,0.0
1734498726.2134695,-971.6796875,-1000.0,-933.10546875,-1000.0,0.0
1734498726.2173686,-979.98046875,-1000.0,-930.17578125,-1000.0,0.0
1734498726.2212677,-1000.0,-1000.0,-919.921875,-1000.0,0.0
1734498726.2251668,-1000.0,-1000.0,-870.60546875,-1000.0,0.0
1734498726.2290657,-979.98046875,-1000.0,-819.82421875,-1000.0,0.0
1734498726.2329648,-972.16796875,-1000.0,-376.953125,-1000.0,0.0
1734498726.2368639,-1000.0,-1000.0,457.03125,-1000.0,0.0
1734498726.2408543,94.7265625,-1000.0,862.79296875,-1000.0,0.0
1734498726.2447534,-904.78515625,-1000.0,896.97265625,-1000.0,0.0
1734498726.2486525,915.0390625,-1000.0,932.12890625,-1000.0,0.0
1734498726.2525516,962.40234375,-1000.0,961.9140625,-1000.0,0.0
1734498726.2564507,969.23828125,-1000.0,968.75,-1000.0,0.0
1734498726.2603495,968.26171875,-1000.0,968.75,-1000.0,0.0
1734498726.2642486,968.26171875,-1000.0,968.75,-1000.0,0.0
1734498726.2681477,968.26171875,-1000.0,968.75,-1000.0,0.0
1734498726.2720468,968.26171875,-1000.0,968.75,-1000.0,0.0
1734498726.275946,968.26171875,-1000.0,969.23828125,-1000.0,0.0
1734498726.279845,968.26171875,-1000.0,968.75,-1000.0,0.0
1734498726.2837439,968.26171875,-1000.0,968.75,-1000.0,0.0
1734498726.2877307,968.26171875,-1000.0,969.23828125,-1000.0,0.0
1734498726.2916298,968.26171875,-1000.0,969.23828125,-1000.0,0.0
1734498726.295529,968.26171875,-1000.0,968.75,-1000.0,0.0
1734498726.299428,968.26171875,-1000.0,968.75,-1000.0,0.0
1734498726.303327,968.26171875,-1000.0,968.75,-1000.0,0.0
1734498726.3072262,968.26171875,-1000.0,969.23828125,-1000.0,0.0
1734498726.3111253,967.7734375,-1000.0,968.75,-1000.0,0.0
1734498726.3150241,968.26171875,-1000.0,968.75,-1000.0,0.0
1734498726.3189232,979.98046875,-1000.0,968.75,-1000.0,0.0
1734498726.3228223,918.45703125,-1000.0,969.23828125,-1000.0,0.0
1734498726.3267214,-988.76953125,-1000.0,968.75,-1000.0,0.0
1734498726.3306205,847.16796875,-1000.0,968.75,-1000.0,0.0
1734498726.3345983,-521.97265625,-1000.0,969.23828125,-1000.0,0.0
1734498726.3384974,-1000.0,-1000.0,968.75,-1000.0,0.0
1734498726.3423965,-936.5234375,-1000.0,968.75,-1000.0,0.0
1734498726.3462956,-1000.0,-1000.0,968.75,-1000.0,0.0
1734498726.3501947,-1000.0,-1000.0,969.23828125,-1000.0,0.0
1734498726.3540938,-1000.0,-1000.0,968.75,-1000.0,0.0
1734498726.3579926,-1000.0,-1000.0,968.75,-1000.0,0.0
1734498726.3618917,-1000.0,-1000.0,968.75,-1000.0,0.0
1734498726.3657908,-1000.0,-1000.0,969.23828125,-1000.0,0.0
1734498726.36969,-1000.0,-1000.0,968.75,-1000.0,0.0
1734498726.373589,-1000.0,-1000.0,969.23828125,-1000.0,0.0
1734498726.3774881,-1000.0,-1000.0,968.75,-1000.0,0.0
1734498726.381459,-1000.0,-1000.0,969.23828125,-1000.0,0.0
1734498726.385358,-1000.0,-1000.0,969.23828125,-1000.0,0.0
1734498726.3892572,-1000.0,-1000.0,968.75,-1000.0,0.0
1734498726.3931563,-1000.0,-1000.0,968.75,-1000.0,0.0
1734498726.3970551,-1000.0,-1000.0,968.75,-1000.0,0.0
1734498726.4009542,-1000.0,-1000.0,969.23828125,-1000.0,0.0
1734498726.4048533,-1000.0,-1000.0,968.75,-1000.0,0.0
1734498726.4087524,-1000.0,-1000.0,968.75,-1000.0,0.0
1734498726.4126515,-1000.0,-1000.0,969.23828125,-1000.0,0.0
1734498726.4165506,-1000.0,-1000.0,968.75,-1000.0,0.0
1734498726.4204497,-1000.0,-1000.0,969.23828125,-1000.0,0.0
1734498726.4243488,-1000.0,-1000.0,969.23828125,-1000.0,0.0
1734498726.428368,-1000.0,-1000.0,968.75,-1000.0,0.0
1734498726.4322672,-1000.0,-1000.0,968.75,-985.3515625,0.0
1734498726.4361663,-1000.0,-1000.0,968.75,-1000.0,0.0
1734498726.4400654,-1000.0,-1000.0,968.75,-895.01953125,0.0
1734498726.4439645,-1000.0,-1000.0,968.75,-404.296875,0.0
1734498726.4478636,-1000.0,-1000.0,968.75,-16.6015625,0.0
1734498726.4517627,-1000.0,-1000.0,968.75,106.93359375,0.0
1734498726.4556618,-1000.0,-1000.0,968.26171875,179.19921875,0.0
1734498726.4595609,-1000.0,-1000.0,964.84375,653.80859375,0.0
1734498726.46346,-1000.0,-1000.0,971.19140625,-999.0234375,0.0
1734498726.467359,-1000.0,-1000.0,913.0859375,953.125,0.0
1734498726.4712582,-1000.0,-1000.0,757.32421875,964.84375,0.0
1734498726.4752703,-1000.0,-1000.0,591.796875,970.703125,0.0
1734498726.4791694,-1000.0,-1000.0,423.828125,965.8203125,0.0
1734498726.4830685,-1000.0,-1000.0,260.25390625,973.14453125,0.0
1734498726.4869676,-1000.0,-1000.0,116.69921875,940.91796875,0.0
1734498726.4908667,-1000.0,-1000.0,-27.34375,878.41796875,0.0
1734498726.4947658,-1000.0,-1000.0,-165.0390625,783.69140625,0.0
1734498726.498665,-1000.0,-1000.0,-273.92578125,854.98046875,0.0
1734498726.5025642,-1000.0,-1000.0,-361.328125,983.3984375,0.0
1734498726.5064633,-1000.0,-1000.0,-430.6640625,963.8671875,0.0
1734498726.5103624,-1000.0,-1000.0,-490.234375,967.28515625,0.0
1734498726.5142615,-1000.0,-1000.0,-557.12890625,969.23828125,0.0
1734498726.5181606,-1000.0,-1000.0,-595.703125,968.75,0.0
1734498726.522165,-1000.0,-1000.0,-600.5859375,968.75,0.0
1734498726.5260644,-1000.0,-1000.0,-593.75,968.75,0.0
1734498726.5299635,-1000.0,-1000.0,-615.234375,968.75,0.0
1734498726.5338626,-1000.0,-1000.0,-654.296875,968.75,0.0
1734498726.5377617,-1000.0,-1000.0,-681.640625,968.75,0.0
1734498726.5416608,-1000.0,-1000.0,-708.0078125,968.75,0.0
1734498726.54556,-1000.0,-1000.0,-701.66015625,968.75,0.0
1734498726.549459,-1000.0,-1000.0,-674.8046875,968.75,0.0
1734498726.553358,-947.75390625,-1000.0,-657.2265625,968.75,0.0
1734498726.5572572,-1000.0,-1000.0,-636.71875,964.84375,0.0
1734498726.5611563,-840.33203125,-1000.0,-595.703125,967.28515625,0.0
1734498726.5650554,469.23828125,-1000.0,-542.96875,969.23828125,0.0
1734498726.5690544,0.0,-1000.0,-519.53125,967.7734375,0.0
1734498726.5729537,0.0,-1000.0,-496.09375,972.16796875,0.0
1734498726.5768528,0.0,-1000.0,-438.96484375,944.82421875,0.0
1734498726.580752,0.0,-1000.0,-374.0234375,948.73046875,0.0
1734498726.584651,0.0,-1000.0,-323.73046875,973.14453125,0.0
1734498726.58855,0.0,-1000.0,-272.94921875,967.28515625,0.0
1734498726.5924492,0.0,-997.55859375,-220.21484375,968.75,0.0
1734498726.5963483,0.0,-1000.0,-179.19921875,968.75,0.0
1734498726.6002474,0.0,-975.09765625,-137.6953125,968.75,0.0
1734498726.6041465,0.0,-868.1640625,-105.95703125,968.75,0.0
1734498726.6080458,0.0,-752.44140625,-69.82421875,968.75,0.0
1734498726.611945,0.0,-637.6953125,-57.12890625,968.75,0.0
1734498726.615937,-870.1171875,-524.90234375,-90.8203125,968.75,0.0
1734498726.619836,-1000.0,-435.546875,-104.98046875,968.75,0.0
1734498726.6237352,-945.80078125,-351.5625,-105.95703125,968.75,0.0
1734498726.6276343,-1000.0,-250.9765625,-148.4375,968.75,0.0
1734498726.6315334,-1000.0,-124.51171875,-171.38671875,968.75,0.0
1734498726.6354327,-1000.0,-4.8828125,-151.85546875,968.75,0.0
1734498726.6393318,-1000.0,104.00390625,-156.73828125,968.75,0.0
1734498726.643231,-1000.0,182.12890625,-186.03515625,968.75,0.0
1734498726.64713,-1000.0,226.5625,-222.65625,968.75,0.0
1734498726.651029,-1000.0,269.53125,-262.6953125,968.75,0.0
1734498726.6549282,-1000.0,308.10546875,-303.22265625,968.75,0.0
1734498726.6588273,-1000.0,342.28515625,-335.9375,968.75,0.0
1734498726.6628137,-1000.0,373.046875,-362.3046875,968.75,0.0
1734498726.6667128,-1000.0,396.484375,-386.23046875,968.75,0.0
1734498726.6706119,-1000.0,414.0625,-398.4375,968.75,0.0
1734498726.674511,-1000.0,435.546875,-405.2734375,968.75,0.0
1734498726.67841,-1000.0,451.171875,-406.25,968.75,0.0
1734498726.6823094,-1000.0,458.984375,-395.5078125,968.75,0.0
1734498726.6862085,-1000.0,478.02734375,-384.765625,968.75,0.0
1734498726.6901076,-1000.0,520.99609375,-374.0234375,968.75,0.0
1734498726.6940067,-1000.0,575.68359375,-381.34765625,968.75,0.0
1734498726.6979058,-1000.0,650.87890625,-390.13671875,968.75,0.0
1734498726.7018049,-1000.0,764.6484375,-383.7890625,968.75,0.0
1734498726.7057042,-1000.0,873.53515625,-393.06640625,968.75,0.0
1734498726.7096817,0.0,948.2421875,-413.0859375,968.26171875,0.0
1734498726.7135808,0.0,969.7265625,-431.15234375,968.75,0.0
1734498726.71748,0.0,967.28515625,-456.0546875,968.75,0.0
1734498726.721379,0.0,969.23828125,-494.140625,970.703125,0.0
1734498726.7252781,0.0,968.75,-526.3671875,961.42578125,0.0
1734498726.7291775,0.0,968.75,-539.55078125,958.49609375,0.0
1734498726.7330766,0.0,968.75,-567.3828125,997.55859375,0.0
1734498726.7369757,0.0,968.75,-610.83984375,537.59765625,0.0
1734498726.7408748,0.0,969.23828125,-647.94921875,228.515625,0.0
1734498726.744774,0.0,968.75,-669.43359375,643.5546875,0.0
1734498726.7486732,0.0,968.75,-679.19921875,936.03515625,0.0
1734498726.7525723,0.0,969.23828125,-694.82421875,887.6953125,0.0
1734498726.7565455,-984.375,968.75,-716.30859375,328.61328125,0.0
1734498726.7604446,-978.515625,968.75,-724.609375,-120.60546875,0.0
1734498726.764344,-1000.0,969.23828125,-728.02734375,-99.12109375,0.0
1734498726.768243,30.76171875,969.23828125,-733.88671875,-395.5078125,0.0
1734498726.7721422,176.7578125,967.28515625,-730.46875,-889.16015625,0.0
1734498726.7760413,-1000.0,972.16796875,-721.6796875,-997.55859375,0.0
1734498726.7799406,-1000.0,951.66015625,-713.37890625,-1000.0,0.0
1734498726.7838397,-147.94921875,903.3203125,-715.8203125,-909.1796875,0.0
1734498726.7877388,-849.12109375,873.046875,-731.93359375,-578.125,0.0
1734498726.791638,611.328125,834.9609375,-747.0703125,-395.99609375,0.0
1734498726.7955372,-735.83984375,792.48046875,-767.578125,-641.6015625,0.0
1734498726.7994363,-1000.0,751.953125,-801.7578125,-544.921875,0.0
1734498726.8033948,-304.6875,716.30859375,-830.078125,271.484375,0.0
1734498726.8072941,-903.80859375,684.5703125,-854.98046875,845.21484375,0.0
1734498726.8111932,575.68359375,636.71875,-885.7421875,-998.53515625,0.0
1734498726.8150923,-809.5703125,581.54296875,-915.52734375,811.03515625,0.0
1734498726.8189914,-1000.0,529.296875,-950.68359375,623.53515625,0.0
1734498726.8228908,-635.25390625,481.93359375,-985.3515625,866.69921875,0.0
1734498726.8267899,616.69921875,428.7109375,-999.0234375,987.3046875,0.0
1734498726.830689,-939.453125,370.60546875,-999.51171875,883.30078125,0.0
1734498726.8345883,-241.69921875,310.05859375,-1000.0,-113.76953125,0.0
1734498726.8384874,-1000.0,250.0,-1000.0,-1000.0,0.0
1734498726.8423865,-160.64453125,204.58984375,-1000.0,-983.88671875,0.0
1734498726.8462856,977.05078125,160.64453125,-1000.0,-982.91015625,0.0
1734498726.8502955,-916.50390625,103.02734375,-1000.0,-1000.0,0.0
1734498726.8541946,224.609375,45.8984375,-1000.0,-1000.0,0.0
1734498726.8580937,-1000.0,-12.6953125,-1000.0,-1000.0,0.0
1734498726.861993,-253.90625,-66.89453125,-1000.0,-1000.0,0.0
1734498726.8658922,926.7578125,-113.28125,-1000.0,-1000.0,0.0
1734498726.8697913,-448.73046875,-160.64453125,-1000.0,-1000.0,0.0
1734498726.8736906,-1000.0,-211.9140625,-1000.0,-1000.0,0.0
1734498726.8775897,-978.515625,-257.8125,-1000.0,-1000.0,0.0
1734498726.8814888,434.08203125,-291.015625,-1000.0,-1000.0,0.0
1734498726.8853881,308.59375,-326.66015625,-1000.0,-1000.0,0.0
1734498726.8892872,-1000.0,-362.3046875,-1000.0,-1000.0,0.0
