timestamps,TP9,AF7,AF8,TP10,Right AUX
1734411771.529498,22.94921875,-108.88671875,-6.34765625,13.18359375,0.0
1734411771.533404,25.87890625,-116.69921875,-5.859375,4.39453125,0.0
1734411771.5373101,36.62109375,-106.93359375,-3.90625,14.6484375,0.0
1734411771.5412161,17.578125,-97.65625,-8.30078125,9.27734375,0.0
1734411771.5451224,10.7421875,-97.65625,-9.765625,1.46484375,0.0
1734411771.5490284,18.5546875,-100.5859375,-4.39453125,2.44140625,0.0
1734411771.5529344,23.92578125,-105.46875,-4.8828125,9.765625,0.0
1734411771.5568404,22.4609375,-105.46875,-8.30078125,2.9296875,0.0
1734411771.5607464,10.25390625,-104.98046875,-16.11328125,-5.37109375,0.0
1734411771.5646527,2.9296875,-100.5859375,-18.5546875,-11.71875,0.0
1734411771.5685587,8.7890625,-100.5859375,-22.4609375,-17.08984375,0.0
1734411771.569033,16.11328125,-101.5625,-25.390625,-16.6015625,0.0
1734411771.572939,5.37109375,-97.16796875,-21.484375,-25.87890625,0.0
1734411771.576845,-9.27734375,-92.28515625,-22.94921875,-17.08984375,0.0
1734411771.5807512,-14.16015625,-83.0078125,-25.87890625,-12.20703125,0.0
1734411771.5846572,-12.20703125,-75.68359375,-28.3203125,-8.30078125,0.0
1734411771.5885632,0.48828125,-73.2421875,-29.296875,-6.34765625,0.0
1734411771.5924692,-1.46484375,-77.1484375,-29.296875,-5.859375,0.0
1734411771.5963755,-15.625,-77.1484375,-24.90234375,1.953125,0.0
1734411771.6002815,-13.18359375,-67.87109375,-23.4375,4.8828125,0.0
1734411771.6041875,-3.41796875,-61.5234375,-27.34375,-6.8359375,0.0
1734411771.6080935,6.8359375,-61.03515625,-21.97265625,-14.6484375,0.0
1734411771.6119995,15.13671875,-59.08203125,-13.18359375,-11.71875,0.0
1734411771.6146996,12.6953125,-57.12890625,-11.23046875,-12.20703125,0.0
1734411771.6186056,1.953125,-59.08203125,-9.27734375,-6.8359375,0.0
1734411771.6225116,-0.48828125,-53.22265625,-6.8359375,2.9296875,0.0
1734411771.6264176,6.34765625,-43.9453125,-2.9296875,6.8359375,0.0
1734411771.630324,6.8359375,-43.45703125,0.48828125,14.16015625,0.0
1734411771.63423,2.44140625,-52.24609375,-1.953125,6.34765625,0.0
1734411771.638136,-7.32421875,-53.22265625,-4.39453125,-13.671875,0.0
1734411771.642042,-11.71875,-40.52734375,-7.8125,-26.3671875,0.0
1734411771.645948,28.80859375,-25.390625,-8.7890625,9.765625,0.0
1734411771.6498542,59.08203125,-23.4375,-8.7890625,43.9453125,0.0
1734411771.6537602,21.484375,-37.59765625,2.44140625,2.9296875,0.0
1734411771.6576662,-18.06640625,-40.0390625,18.06640625,-28.3203125,0.0
1734411771.6721303,-11.71875,-47.36328125,19.53125,-15.625,0.0
1734411771.6760364,5.859375,-52.734375,15.625,-6.8359375,0.0
1734411771.6799424,20.99609375,-48.828125,14.6484375,-8.30078125,0.0
1734411771.6838484,24.90234375,-51.26953125,14.6484375,-14.16015625,0.0
1734411771.6877546,4.8828125,-59.5703125,18.06640625,-11.23046875,0.0
1734411771.6916606,-6.34765625,-73.2421875,19.04296875,3.90625,0.0
1734411771.6955667,2.44140625,-62.98828125,19.53125,8.7890625,0.0
1734411771.6994727,9.27734375,-50.29296875,27.34375,6.8359375,0.0
1734411771.703379,15.625,-44.43359375,23.92578125,9.765625,0.0
1734411771.707285,13.18359375,-38.57421875,15.625,19.04296875,0.0
1734411771.711191,0.48828125,-42.96875,19.04296875,27.34375,0.0
1734411771.715097,1.953125,-49.31640625,18.06640625,15.13671875,0.0
1734411771.717947,18.5546875,-52.24609375,19.04296875,3.90625,0.0
1734411771.721853,9.765625,-53.7109375,19.53125,3.90625,0.0
1734411771.725759,-4.8828125,-60.05859375,9.765625,7.32421875,0.0
1734411771.7296653,-11.23046875,-59.08203125,3.90625,5.37109375,0.0
1734411771.7335713,0.0,-60.546875,3.41796875,15.13671875,0.0
1734411771.7374773,8.7890625,-74.70703125,4.39453125,23.92578125,0.0
1734411771.7413833,3.41796875,-74.70703125,4.8828125,6.8359375,0.0
1734411771.7452896,-11.71875,-61.03515625,6.34765625,-9.27734375,0.0
1734411771.7491956,-12.6953125,-56.640625,6.8359375,-7.8125,0.0
1734411771.7531016,-1.46484375,-60.546875,1.953125,7.8125,0.0
1734411771.7570076,-5.859375,-51.7578125,-3.41796875,2.9296875,0.0
1734411771.7609138,-9.765625,-54.6875,-10.7421875,-10.7421875,0.0
1734411771.7875502,-18.5546875,-62.01171875,-12.20703125,-4.39453125,0.0
1734411771.7914562,-29.78515625,-61.5234375,-7.8125,-5.37109375,0.0
1734411771.7953625,-14.6484375,-52.24609375,-3.90625,1.46484375,0.0
1734411771.7992685,12.6953125,-50.78125,0.9765625,17.08984375,0.0
1734411771.8031745,9.765625,-58.10546875,2.44140625,10.25390625,0.0
1734411771.8070807,-3.90625,-55.17578125,5.37109375,5.859375,0.0
1734411771.8109868,-0.9765625,-49.31640625,13.18359375,4.8828125,0.0
1734411771.8148928,4.39453125,-41.50390625,11.23046875,6.34765625,0.0
1734411771.818799,13.18359375,-43.45703125,2.9296875,27.83203125,0.0
1734411771.822705,27.83203125,-56.640625,1.46484375,23.92578125,0.0
1734411771.826611,-4.39453125,-57.6171875,-7.8125,-20.01953125,0.0
1734411771.830517,-45.8984375,-43.9453125,-13.18359375,-44.921875,0.0
1734411771.813957,-40.0390625,-35.15625,-15.625,-48.828125,0.0
1734411771.817863,-6.34765625,-28.3203125,-19.53125,-37.109375,0.0
1734411771.821769,6.34765625,-20.01953125,-17.578125,-26.85546875,0.0
1734411771.8256752,-9.765625,-22.94921875,-17.08984375,-24.4140625,0.0
1734411771.8295813,-23.4375,-28.80859375,-13.671875,-19.04296875,0.0
1734411771.8334873,-20.01953125,-32.2265625,-8.30078125,-12.6953125,0.0
1734411771.8373933,-3.90625,-28.80859375,-0.48828125,-10.7421875,0.0
1734411771.8412995,-3.41796875,-28.3203125,10.7421875,-14.6484375,0.0
1734411771.8452055,-3.41796875,-17.08984375,17.08984375,-12.6953125,0.0
1734411771.8491116,4.8828125,-1.953125,14.16015625,-3.90625,0.0
1734411771.8530176,4.39453125,-2.44140625,13.671875,3.41796875,0.0
1734411771.8569238,11.23046875,0.48828125,18.06640625,17.08984375,0.0
1734411771.8553858,15.625,-1.953125,22.4609375,17.578125,0.0
1734411771.8592918,3.90625,-19.53125,25.390625,1.953125,0.0
1734411771.8631978,-4.8828125,-22.94921875,24.90234375,0.0,0.0
1734411771.867104,-2.9296875,-28.80859375,23.92578125,17.578125,0.0
1734411771.87101,5.37109375,-29.296875,27.83203125,16.11328125,0.0
1734411771.874916,8.30078125,-19.53125,30.2734375,6.8359375,0.0
1734411771.878822,1.46484375,-37.109375,31.73828125,-0.48828125,0.0
1734411771.8827283,-6.34765625,-50.29296875,33.69140625,-4.8828125,0.0
1734411771.8866343,-2.9296875,-40.52734375,34.1796875,5.859375,0.0
1734411771.8905404,5.37109375,-33.69140625,42.96875,10.25390625,0.0
1734411771.8944464,20.5078125,-35.64453125,46.38671875,14.16015625,0.0
1734411771.8983524,34.66796875,-30.76171875,44.921875,14.6484375,0.0
1734411771.9116158,21.484375,-26.85546875,41.015625,24.90234375,0.0
1734411771.9155219,8.30078125,-30.2734375,42.48046875,22.4609375,0.0
1734411771.9194279,20.01953125,-34.66796875,44.921875,18.5546875,0.0
1734411771.923334,26.3671875,-26.3671875,47.8515625,19.53125,0.0
1734411771.9272401,25.87890625,-17.08984375,47.8515625,6.34765625,0.0
1734411771.9311461,30.2734375,-11.71875,44.921875,2.9296875,0.0
1734411771.9350522,17.578125,-15.13671875,42.48046875,11.23046875,0.0
1734411771.9389582,14.6484375,-16.6015625,38.0859375,9.27734375,0.0
1734411771.9428644,21.484375,-8.7890625,41.50390625,13.18359375,0.0
1734411771.9467704,27.83203125,-12.6953125,42.48046875,19.53125,0.0
1734411771.9506764,23.4375,-26.85546875,32.2265625,16.6015625,0.0
1734411771.9545827,13.671875,-31.25,25.390625,11.71875,0.0
1734411771.9478745,15.13671875,-21.97265625,30.2734375,9.27734375,0.0
1734411771.9517806,18.06640625,-16.6015625,39.55078125,-0.9765625,0.0
1734411771.9556866,26.85546875,-24.90234375,40.0390625,-10.25390625,0.0
1734411771.9595926,24.4140625,-21.97265625,35.15625,-3.90625,0.0
1734411771.9634986,-0.9765625,-17.578125,32.2265625,-4.8828125,0.0
1734411771.9674048,-2.44140625,-30.2734375,28.80859375,-6.8359375,0.0
1734411771.9713109,8.30078125,-41.50390625,26.3671875,-13.18359375,0.0
1734411771.9752169,13.18359375,-38.0859375,29.296875,0.0,0.0
1734411771.9791229,-8.30078125,-43.45703125,28.3203125,3.41796875,0.0
1734411771.983029,-21.484375,-50.29296875,18.06640625,-9.765625,0.0
1734411771.9869351,14.16015625,-40.52734375,6.34765625,15.13671875,0.0
1734411771.9908412,28.80859375,-23.92578125,3.90625,24.4140625,0.0
1734411771.9899762,-10.7421875,-35.15625,20.99609375,-7.32421875,0.0
1734411771.9938824,-31.25,-64.94140625,24.4140625,-31.25,0.0
1734411771.9977884,-36.1328125,-75.68359375,18.06640625,-31.73828125,0.0
1734411772.0016944,-29.296875,-59.5703125,27.34375,-10.25390625,0.0
1734411772.0056005,-4.8828125,-45.8984375,33.69140625,3.41796875,0.0
1734411772.0095065,10.25390625,-47.8515625,33.203125,2.44140625,0.0
1734411772.0134127,-0.48828125,-45.41015625,30.2734375,-1.953125,0.0
1734411772.0173187,-18.06640625,-34.1796875,32.2265625,-6.8359375,0.0
1734411772.0212247,-11.71875,-36.1328125,38.57421875,-0.9765625,0.0
1734411772.0251307,5.859375,-43.9453125,41.50390625,7.32421875,0.0
1734411772.0290368,20.01953125,-42.96875,40.52734375,10.25390625,0.0
1734411772.032943,16.6015625,-41.015625,37.109375,20.5078125,0.0
1734411772.0348933,4.39453125,-41.50390625,34.66796875,26.3671875,0.0
1734411772.0387993,-3.90625,-35.15625,34.66796875,21.97265625,0.0
1734411772.0427053,-0.9765625,-28.3203125,34.1796875,20.5078125,0.0
1734411772.0466115,1.953125,-33.69140625,32.2265625,4.39453125,0.0
1734411772.0505176,0.9765625,-39.55078125,34.1796875,-11.71875,0.0
1734411772.0544236,-6.34765625,-43.45703125,33.203125,-11.71875,0.0
1734411772.0583296,-21.97265625,-34.1796875,23.92578125,-15.625,0.0
1734411772.0622356,-16.11328125,-25.390625,17.578125,-19.53125,0.0
1734411772.0661418,4.39453125,-26.85546875,13.18359375,-13.18359375,0.0
1734411772.0700479,-4.39453125,-29.296875,5.37109375,-11.23046875,0.0
1734411772.0739539,-11.23046875,-32.2265625,2.44140625,-9.765625,0.0
1734411772.0778599,-4.39453125,-29.296875,2.44140625,-1.46484375,0.0
1734411772.0918875,-10.7421875,-29.78515625,-2.9296875,-6.34765625,0.0
1734411772.0957935,1.46484375,-31.25,-4.8828125,6.8359375,0.0
1734411772.0996995,14.16015625,-23.92578125,4.8828125,16.11328125,0.0
1734411772.1036057,3.41796875,-26.3671875,11.71875,15.13671875,0.0
1734411772.1075118,1.46484375,-30.76171875,12.6953125,8.30078125,0.0
1734411772.1114178,7.32421875,-21.484375,15.13671875,8.7890625,0.0
1734411772.1153238,12.20703125,-22.94921875,14.6484375,8.7890625,0.0
1734411772.1192298,6.34765625,-35.15625,8.30078125,-0.48828125,0.0
1734411772.123136,-11.23046875,-46.875,6.8359375,7.32421875,0.0
1734411772.127042,-19.04296875,-48.33984375,11.71875,9.27734375,0.0
1734411772.130948,-14.16015625,-36.1328125,17.08984375,-3.41796875,0.0
1734411772.134854,-3.41796875,-38.0859375,14.16015625,-6.34765625,0.0
1734411772.1382835,11.23046875,-47.8515625,17.08984375,-10.7421875,0.0
1734411772.1421897,9.27734375,-44.921875,22.4609375,-3.41796875,0.0
1734411772.1460958,-4.8828125,-32.2265625,17.578125,3.41796875,0.0
1734411772.1500018,-9.765625,-32.71484375,11.23046875,-9.765625,0.0
1734411772.1539078,-6.8359375,-44.43359375,9.27734375,-10.7421875,0.0
1734411772.1578138,7.8125,-42.96875,18.06640625,6.8359375,0.0
1734411772.16172,3.41796875,-46.875,18.06640625,-4.8828125,0.0
1734411772.165626,-20.5078125,-51.26953125,10.7421875,-22.4609375,0.0
1734411772.169532,-35.64453125,-42.96875,0.9765625,-27.83203125,0.0
1734411772.173438,-37.109375,-36.62109375,-11.23046875,-35.15625,0.0
1734411772.1773443,-32.2265625,-30.2734375,-9.765625,-41.9921875,0.0
1734411772.1812503,-39.0625,-29.78515625,-3.41796875,-46.38671875,0.0
1734411772.196759,-50.29296875,-23.4375,-3.90625,-48.33984375,0.0
1734411772.200665,-36.1328125,-25.390625,-8.30078125,-53.7109375,0.0
1734411772.2045712,-26.3671875,-41.015625,-5.859375,-57.12890625,0.0
1734411772.2084773,-28.3203125,-46.38671875,-0.9765625,-44.921875,0.0
1734411772.2123833,-30.76171875,-43.9453125,-10.7421875,-53.22265625,0.0
1734411772.2162895,-35.64453125,-44.43359375,-14.16015625,-55.17578125,0.0
1734411772.2201955,-32.71484375,-43.45703125,-9.27734375,-58.59375,0.0
1734411772.2241015,-24.4140625,-34.1796875,-8.30078125,-66.89453125,0.0
1734411772.2280076,-17.08984375,-25.390625,-2.9296875,-55.17578125,0.0
1734411772.2319138,-25.87890625,-26.3671875,0.9765625,-49.31640625,0.0
1734411772.2358198,-30.2734375,-28.80859375,-0.9765625,-44.921875,0.0
1734411772.2397258,-36.1328125,-35.15625,-9.765625,-52.24609375,0.0
1734411772.2324264,-36.62109375,-41.015625,-12.6953125,-65.91796875,0.0
1734411772.2363324,-19.04296875,-33.203125,-2.9296875,-64.94140625,0.0
1734411772.2402384,-21.97265625,-26.85546875,5.859375,-57.12890625,0.0
1734411772.2441444,-35.15625,-25.390625,2.44140625,-52.24609375,0.0
1734411772.2480507,-49.31640625,-31.73828125,-7.32421875,-70.3125,0.0
1734411772.2519567,-54.19921875,-32.2265625,-10.7421875,-81.0546875,0.0
1734411772.2558627,-49.31640625,-32.2265625,-11.71875,-75.1953125,0.0
1734411772.2597687,-54.19921875,-36.1328125,-15.13671875,-77.1484375,0.0
1734411772.263675,-57.6171875,-32.71484375,-14.6484375,-76.171875,0.0
1734411772.267581,-56.15234375,-37.59765625,-19.53125,-83.984375,0.0
1734411772.271487,-56.640625,-39.55078125,-16.6015625,-86.42578125,0.0
1734411772.275393,-48.33984375,-39.55078125,-11.23046875,-73.73046875,0.0
1734411772.2749634,-44.921875,-46.38671875,-16.11328125,-63.4765625,0.0
1734411772.2788694,-62.5,-58.10546875,-21.97265625,-70.80078125,0.0
1734411772.2827754,-82.03125,-62.98828125,-29.78515625,-87.890625,0.0
1734411772.2866814,-83.0078125,-60.05859375,-30.2734375,-91.796875,0.0
1734411772.2905877,-63.4765625,-56.640625,-19.04296875,-81.54296875,0.0
1734411772.2944937,-50.78125,-50.78125,-20.01953125,-79.58984375,0.0
1734411772.2983997,-61.03515625,-56.640625,-26.85546875,-87.40234375,0.0
1734411772.3023057,-61.03515625,-55.17578125,-24.4140625,-83.984375,0.0
1734411772.306212,-49.31640625,-44.921875,-22.94921875,-69.3359375,0.0
1734411772.310118,-38.0859375,-52.734375,-18.5546875,-64.453125,0.0
1734411772.314024,-50.29296875,-72.265625,-26.3671875,-55.6640625,0.0
1734411772.31793,-62.98828125,-81.0546875,-24.4140625,-38.0859375,0.0
1734411772.3200886,-65.91796875,-75.1953125,-9.27734375,-41.9921875,0.0
1734411772.3239946,-55.6640625,-64.453125,-2.44140625,-39.0625,0.0
1734411772.3279006,-42.96875,-59.5703125,5.859375,-25.87890625,0.0
1734411772.331807,-31.25,-60.546875,8.30078125,-19.04296875,0.0
1734411772.335713,-19.53125,-51.26953125,2.44140625,-20.5078125,0.0
1734411772.339619,-35.64453125,-48.33984375,2.44140625,-36.62109375,0.0
1734411772.343525,-62.98828125,-66.40625,1.953125,-48.33984375,0.0
1734411772.347431,-59.08203125,-54.6875,2.9296875,-40.0390625,0.0
1734411772.3513372,-43.45703125,-23.4375,7.8125,-44.921875,0.0
1734411772.3552432,-46.38671875,-17.578125,2.9296875,-56.640625,0.0
1734411772.3591492,-59.08203125,-16.6015625,-2.9296875,-54.6875,0.0
1734411772.3630552,-52.24609375,-19.04296875,-9.27734375,-45.41015625,0.0
1734411772.3770137,-48.828125,-18.5546875,-11.71875,-39.0625,0.0
1734411772.3809197,-39.55078125,-11.23046875,-3.90625,-60.546875,0.0
1734411772.3848257,-36.62109375,-2.44140625,-0.48828125,-78.61328125,0.0
1734411772.3887317,-54.19921875,-1.46484375,1.953125,-63.96484375,0.0
1734411772.392638,-63.96484375,-19.04296875,6.34765625,-62.98828125,0.0
1734411772.396544,-68.84765625,-31.25,6.8359375,-72.75390625,0.0
1734411772.40045,-51.26953125,-22.94921875,0.0,-56.15234375,0.0
1734411772.404356,-42.48046875,-10.7421875,-0.9765625,-39.55078125,0.0
1734411772.4082623,-51.26953125,-12.20703125,9.765625,-36.1328125,0.0
1734411772.4121683,-48.33984375,-19.53125,15.13671875,-34.1796875,0.0
1734411772.4160743,-38.57421875,-17.578125,18.5546875,-29.296875,0.0
1734411772.4199803,-29.78515625,-17.08984375,20.99609375,-25.390625,0.0
1734411772.4126942,-25.390625,-17.08984375,21.97265625,-23.92578125,0.0
1734411772.4166002,-31.25,-12.6953125,23.4375,-18.06640625,0.0
1734411772.4205065,-36.1328125,-21.484375,21.97265625,-19.04296875,0.0
1734411772.4244125,-16.6015625,-21.484375,24.90234375,-21.484375,0.0
1734411772.4283185,-10.25390625,-16.11328125,20.01953125,-26.3671875,0.0
1734411772.4322245,-18.5546875,-20.01953125,12.6953125,-34.66796875,0.0
1734411772.4361305,-30.76171875,-17.08984375,15.625,-36.62109375,0.0
1734411772.4400368,-33.203125,-13.18359375,16.11328125,-33.69140625,0.0
1734411772.4439428,-31.25,-10.25390625,15.625,-35.64453125,0.0
1734411772.4478488,-17.578125,-7.8125,19.53125,-20.01953125,0.0
1734411772.4517548,1.46484375,-3.90625,24.90234375,-9.765625,0.0
1734411772.4556608,-10.7421875,7.32421875,29.296875,-30.2734375,0.0
1734411772.4685912,-24.90234375,9.765625,30.76171875,-33.203125,0.0
1734411772.4724972,-22.94921875,15.625,32.71484375,-29.296875,0.0
1734411772.4764032,-13.18359375,31.73828125,40.0390625,-32.71484375,0.0
1734411772.4803095,1.953125,33.69140625,41.9921875,-12.20703125,0.0
1734411772.4842155,-1.953125,19.04296875,37.109375,-6.8359375,0.0
1734411772.4881215,-22.4609375,14.16015625,45.41015625,-8.7890625,0.0
1734411772.4920275,-22.4609375,18.5546875,43.9453125,-1.953125,0.0
1734411772.4959338,-8.30078125,16.6015625,34.66796875,-9.27734375,0.0
1734411772.4998398,-2.9296875,13.671875,34.1796875,-5.37109375,0.0
1734411772.5037458,-6.8359375,13.671875,36.62109375,5.37109375,0.0
1734411772.5076518,-5.37109375,24.90234375,48.828125,7.32421875,0.0
1734411772.511558,-2.44140625,25.390625,57.6171875,-0.9765625,0.0
1734411772.5273066,-10.7421875,16.6015625,0.0,0.0,0.0
1734411772.5312126,-8.7890625,22.4609375,0.0,0.0,0.0
1734411772.5351188,-6.8359375,23.4375,0.0,0.0,0.0
1734411772.5390248,-18.06640625,20.01953125,0.0,0.0,0.0
1734411772.5429308,-27.83203125,15.13671875,0.0,0.0,0.0
1734411772.5468369,-21.97265625,10.7421875,0.0,0.0,0.0
1734411772.550743,-11.23046875,9.765625,0.0,0.0,0.0
1734411772.554649,-6.34765625,6.34765625,0.0,0.0,0.0
1734411772.5585551,0.48828125,7.32421875,0.0,0.0,0.0
1734411772.5624611,1.46484375,23.92578125,0.0,0.0,0.0
1734411772.5663674,-10.7421875,30.76171875,0.0,0.0,0.0
1734411772.5702734,-22.4609375,24.4140625,0.0,0.0,0.0
1734411772.5616643,-32.71484375,20.01953125,61.5234375,-38.57421875,0.0
1734411772.5655706,-30.2734375,13.18359375,58.10546875,-35.64453125,0.0
1734411772.5694766,-21.484375,14.6484375,55.6640625,-32.2265625,0.0
1734411772.5733826,-18.06640625,15.625,53.7109375,-26.85546875,0.0
1734411772.5772886,-0.9765625,20.01953125,58.10546875,-9.765625,0.0
1734411772.5811949,-0.48828125,31.25,62.5,-4.8828125,0.0
1734411772.585101,-16.6015625,28.80859375,60.05859375,-21.484375,0.0
1734411772.589007,-17.578125,20.01953125,58.59375,-25.87890625,0.0
1734411772.592913,-6.34765625,23.4375,66.89453125,-10.25390625,0.0
1734411772.5968192,-0.9765625,24.4140625,66.40625,-3.90625,0.0
1734411772.6007252,-5.859375,17.08984375,54.19921875,-0.48828125,0.0
1734411772.6046312,-8.7890625,10.7421875,50.78125,0.0,0.0
1734411772.6049051,-13.18359375,4.8828125,56.15234375,9.27734375,0.0
1734411772.6088111,-11.71875,7.8125,58.59375,17.08984375,0.0
1734411772.6127172,-7.8125,6.34765625,49.31640625,-6.8359375,0.0
1734411772.6166234,-20.99609375,3.41796875,44.921875,-28.80859375,0.0
1734411772.6205294,-20.5078125,5.37109375,52.24609375,-18.5546875,0.0
1734411772.6244354,-14.6484375,9.765625,60.05859375,-10.25390625,0.0
1734411772.6283414,-22.4609375,10.7421875,59.08203125,-8.7890625,0.0
1734411772.6322474,-9.27734375,0.0,47.8515625,-2.9296875,0.0
1734411772.6361537,3.41796875,1.953125,34.66796875,-7.32421875,0.0
1734411772.6400597,-14.16015625,5.859375,25.87890625,-19.04296875,0.0
1734411772.6439657,-9.27734375,10.7421875,34.1796875,-19.04296875,0.0
1734411772.6478717,6.34765625,22.4609375,40.52734375,-8.7890625,0.0
1734411772.650567,7.8125,19.53125,33.69140625,0.48828125,0.0
1734411772.654473,14.6484375,14.16015625,32.2265625,0.48828125,0.0
1734411772.6583793,5.37109375,17.08984375,27.34375,-6.8359375,0.0
1734411772.6622853,-16.6015625,7.32421875,22.4609375,-15.13671875,0.0
1734411772.6661913,-22.94921875,-7.8125,24.4140625,-21.97265625,0.0
1734411772.6700974,-14.6484375,-10.25390625,27.83203125,-23.4375,0.0
1734411772.6740036,-7.32421875,-1.953125,31.73828125,-17.578125,0.0
1734411772.6779096,-13.671875,0.48828125,34.66796875,0.9765625,0.0
1734411772.6818156,-25.87890625,8.30078125,34.1796875,-0.9765625,0.0
1734411772.6857216,-25.87890625,21.97265625,23.92578125,-26.85546875,0.0
1734411772.6896276,-22.4609375,20.99609375,19.04296875,-38.0859375,0.0
1734411772.693534,-8.30078125,15.13671875,13.671875,-29.296875,0.0
1734411772.694939,-7.8125,23.4375,7.8125,-23.92578125,0.0
1734411772.698845,-28.80859375,22.4609375,4.8828125,-39.0625,0.0
1734411772.702751,-41.50390625,6.8359375,0.9765625,-56.640625,0.0
1734411772.706657,-33.69140625,8.7890625,-1.953125,-62.01171875,0.0
1734411772.7105632,-24.90234375,16.11328125,0.9765625,-60.546875,0.0
1734411772.7144692,-34.66796875,17.578125,3.90625,-58.59375,0.0
1734411772.7183752,-37.109375,13.671875,0.0,-49.8046875,0.0
1734411772.7222812,-39.0625,17.08984375,4.39453125,-41.9921875,0.0
1734411772.7261872,-38.57421875,22.94921875,11.23046875,-43.9453125,0.0
1734411772.7300935,-31.25,10.25390625,7.8125,-41.9921875,0.0
1734411772.7339995,-27.34375,-2.9296875,10.25390625,-29.78515625,0.0
1734411772.7379055,-33.69140625,-5.859375,10.7421875,-30.2734375,0.0
1734411772.7400901,-36.62109375,-7.8125,4.39453125,-37.59765625,0.0
1734411772.7439961,-31.25,0.0,5.37109375,-28.80859375,0.0
1734411772.7479022,-30.2734375,12.20703125,8.30078125,-25.390625,0.0
1734411772.7518082,-35.64453125,9.765625,3.41796875,-29.78515625,0.0
1734411772.7557144,-45.8984375,1.953125,1.46484375,-37.109375,0.0
1734411772.7596204,-38.57421875,2.9296875,11.23046875,-35.64453125,0.0
1734411772.7635264,-32.71484375,4.39453125,13.18359375,-13.671875,0.0
1734411772.7674325,-32.71484375,10.25390625,8.7890625,-20.01953125,0.0
1734411772.7713385,-25.87890625,22.4609375,17.08984375,-31.25,0.0
1734411772.7752447,-32.2265625,27.83203125,18.5546875,-24.4140625,0.0
1734411772.7791507,-35.64453125,22.4609375,15.625,-28.80859375,0.0
1734411772.7830567,-35.64453125,14.6484375,20.5078125,-30.2734375,0.0
1734411772.7845514,-32.2265625,1.953125,13.18359375,-32.2265625,0.0
1734411772.7884574,-34.1796875,0.0,2.44140625,-48.828125,0.0
1734411772.7923634,-41.9921875,12.20703125,5.859375,-45.8984375,0.0
1734411772.7962697,-48.33984375,13.18359375,7.8125,-46.875,0.0
1734411772.8001757,-42.48046875,7.32421875,3.41796875,-51.26953125,0.0
1734411772.8040817,-20.99609375,7.8125,1.953125,-36.62109375,0.0
1734411772.8079877,-20.01953125,17.578125,4.8828125,-32.71484375,0.0
1734411772.8118937,-28.3203125,16.6015625,10.25390625,-40.52734375,0.0
1734411772.8158,-36.62109375,13.18359375,9.27734375,-36.1328125,0.0
1734411772.819706,-35.64453125,12.6953125,9.765625,-22.94921875,0.0
1734411772.823612,-28.80859375,5.859375,13.18359375,-33.203125,0.0
1734411772.827518,-29.78515625,-1.46484375,13.18359375,-54.6875,0.0
1734411772.853532,-31.25,-9.765625,10.7421875,-56.15234375,0.0
1734411772.8574383,-41.9921875,-7.32421875,9.765625,-55.17578125,0.0
1734411772.8613443,-54.6875,-6.34765625,10.7421875,-52.24609375,0.0
1734411772.8652503,-47.36328125,-15.13671875,0.0,-56.640625,0.0
1734411772.8691566,-43.9453125,-20.5078125,-2.9296875,-62.01171875,0.0
1734411772.8730626,-54.19921875,-18.06640625,5.37109375,-62.01171875,0.0
1734411772.8769686,-61.03515625,-20.5078125,7.32421875,-83.49609375,0.0
1734411772.8808746,-67.87109375,-21.484375,7.32421875,-85.9375,0.0
1734411772.884781,-53.7109375,-18.5546875,3.41796875,-68.359375,0.0
1734411772.888687,-37.59765625,-12.6953125,3.41796875,-54.19921875,0.0
1734411772.892593,-42.48046875,1.953125,6.8359375,-55.17578125,0.0
1734411772.896499,-54.19921875,0.9765625,7.32421875,-61.5234375,0.0
1734411772.891311,-57.12890625,-2.9296875,8.7890625,-61.5234375,0.0
1734411772.895217,-44.921875,12.6953125,12.20703125,-72.75390625,0.0
1734411772.899123,-41.9921875,15.13671875,11.71875,-84.9609375,0.0
1734411772.903029,-52.24609375,-4.8828125,10.25390625,-79.58984375,0.0
1734411772.906935,-61.5234375,-9.27734375,12.6953125,-64.94140625,0.0
1734411772.9108412,-52.24609375,0.9765625,16.6015625,-56.15234375,0.0
1734411772.9147472,-45.41015625,0.48828125,11.23046875,-59.08203125,0.0
1734411772.9186532,-53.7109375,-5.37109375,8.30078125,-54.6875,0.0
1734411772.9225593,-48.828125,-0.9765625,12.6953125,-47.8515625,0.0
1734411772.9264655,-51.26953125,5.859375,16.6015625,-50.29296875,0.0
1734411772.9303715,-54.6875,8.7890625,20.5078125,-53.22265625,0.0
1734411772.9342775,-45.41015625,20.5078125,27.83203125,-37.109375,0.0
1734411772.9351895,-35.64453125,20.5078125,22.94921875,-31.73828125,0.0
1734411772.9390957,-36.1328125,18.06640625,12.20703125,-43.9453125,0.0
1734411772.9430017,-42.48046875,19.53125,10.25390625,-55.6640625,0.0
1734411772.9469078,-45.8984375,12.6953125,11.71875,-55.17578125,0.0
1734411772.9508138,-38.0859375,8.7890625,15.13671875,-50.29296875,0.0
1734411772.95472,-28.80859375,2.44140625,12.6953125,-56.15234375,0.0
1734411772.958626,-32.71484375,2.44140625,4.39453125,-59.5703125,0.0
1734411772.962532,-34.66796875,4.8828125,-0.9765625,-46.875,0.0
1734411772.966438,-37.59765625,5.859375,3.41796875,-39.55078125,0.0
1734411772.970344,-43.45703125,15.13671875,3.41796875,-54.19921875,0.0
1734411772.9742503,-37.109375,14.16015625,4.39453125,-65.4296875,0.0
1734411772.9781563,-33.203125,12.6953125,7.32421875,-58.10546875,0.0
1734411772.9832368,-44.921875,10.25390625,2.9296875,-43.9453125,0.0
1734411772.9871428,-57.6171875,-1.46484375,-0.9765625,-50.78125,0.0
1734411772.9910488,-57.6171875,-5.859375,1.953125,-61.03515625,0.0
1734411772.994955,-42.48046875,-1.46484375,4.39453125,-46.38671875,0.0
1734411772.998861,-36.1328125,6.8359375,7.32421875,-32.2265625,0.0
1734411773.002767,-34.1796875,9.765625,6.34765625,-50.78125,0.0
1734411773.006673,-45.41015625,8.7890625,1.953125,-59.08203125,0.0
1734411773.0105793,-46.38671875,6.34765625,-0.9765625,-44.43359375,0.0
1734411773.0144854,-28.3203125,4.39453125,-4.39453125,-35.15625,0.0
1734411773.0183914,-29.78515625,0.9765625,-11.23046875,-43.9453125,0.0
1734411773.0222974,-58.10546875,-18.06640625,-25.390625,-63.96484375,0.0
1734411773.0262036,-85.9375,-30.2734375,-30.76171875,-73.73046875,0.0
1734411773.0256603,-82.51953125,-23.4375,-32.2265625,-69.3359375,0.0
1734411773.0295663,-66.89453125,-23.4375,-33.69140625,-69.82421875,0.0
1734411773.0334725,-61.5234375,-30.76171875,-26.85546875,-68.84765625,0.0
1734411773.0373785,-68.359375,-31.25,-23.4375,-68.84765625,0.0
1734411773.0412846,-77.63671875,-33.203125,-21.484375,-79.1015625,0.0
1734411773.0451906,-80.56640625,-35.64453125,-16.11328125,-79.58984375,0.0
1734411773.0490966,-72.75390625,-28.3203125,-14.16015625,-67.87109375,0.0
1734411773.0530028,-58.59375,-29.78515625,-19.53125,-55.6640625,0.0
1734411773.0569088,-54.6875,-24.4140625,-16.11328125,-51.26953125,0.0
1734411773.0608149,-74.21875,-23.92578125,-4.39453125,-69.82421875,0.0
1734411773.0647209,-87.40234375,-27.34375,2.9296875,-76.66015625,0.0
1734411773.068627,-81.0546875,-21.97265625,0.0,-63.4765625,0.0
1734411773.0828583,-72.265625,-18.5546875,-5.37109375,-65.91796875,0.0
1734411773.0867646,-78.61328125,-22.4609375,-10.7421875,-93.75,0.0
1734411773.0906706,-98.6328125,-36.62109375,-18.06640625,-106.4453125,0.0
1734411773.0945766,-114.2578125,-45.41015625,-16.6015625,-108.3984375,0.0
1734411773.0984826,-104.4921875,-42.96875,-12.6953125,-106.4453125,0.0
1734411773.1023889,-63.96484375,-21.484375,-1.46484375,-74.21875,0.0
1734411773.1062949,-47.8515625,-6.34765625,11.23046875,-44.921875,0.0
1734411773.110201,-45.8984375,-0.48828125,17.578125,-41.015625,0.0
1734411773.114107,-51.26953125,9.27734375,18.06640625,-52.734375,0.0
1734411773.1180131,-50.78125,7.8125,19.04296875,-47.8515625,0.0
1734411773.1219192,-27.83203125,6.8359375,21.97265625,-22.4609375,0.0
1734411773.1258252,-21.484375,14.6484375,31.25,-16.6015625,0.0
1734411773.1173828,-41.015625,14.6484375,34.1796875,-50.29296875,0.0
1734411773.1212888,-52.24609375,5.37109375,36.1328125,-62.01171875,0.0
1734411773.125195,-46.875,7.32421875,44.921875,-41.50390625,0.0
1734411773.129101,-38.57421875,13.671875,40.0390625,-43.45703125,0.0
1734411773.133007,-36.1328125,9.27734375,38.57421875,-41.015625,0.0
1734411773.136913,-33.69140625,2.44140625,38.57421875,-39.0625,0.0
1734411773.140819,-39.55078125,3.90625,35.64453125,-48.33984375,0.0
1734411773.1447253,-46.38671875,3.90625,41.015625,-47.8515625,0.0
1734411773.1486313,-41.50390625,4.39453125,42.96875,-46.38671875,0.0
1734411773.1525373,-25.390625,10.7421875,40.0390625,-39.55078125,0.0
1734411773.1564434,-30.76171875,11.23046875,41.50390625,-28.80859375,0.0
1734411773.1603496,-51.7578125,15.13671875,45.8984375,-37.109375,0.0
1734411773.1607416,-49.8046875,12.20703125,47.8515625,-43.9453125,0.0
1734411773.1646478,-36.1328125,12.6953125,45.8984375,-43.45703125,0.0
1734411773.1685538,-31.73828125,15.625,38.0859375,-46.38671875,0.0
1734411773.1724598,-30.2734375,12.20703125,37.59765625,-49.31640625,0.0
1734411773.1763659,-40.52734375,14.6484375,41.015625,-47.8515625,0.0
1734411773.1802719,-48.828125,4.39453125,32.71484375,-45.41015625,0.0
1734411773.184178,-43.45703125,3.90625,32.2265625,-46.38671875,0.0
1734411773.1880841,-40.0390625,15.13671875,41.015625,-54.6875,0.0
1734411773.1919901,-50.29296875,14.16015625,37.109375,-57.12890625,0.0
1734411773.1958961,-53.7109375,14.16015625,28.3203125,-46.875,0.0
1734411773.1998022,-46.875,18.06640625,28.80859375,-36.1328125,0.0
1734411773.2037084,-48.33984375,15.625,31.73828125,-44.43359375,0.0
1734411773.2170713,-43.9453125,8.7890625,26.85546875,-49.8046875,0.0
1734411773.2209775,-32.71484375,7.32421875,23.4375,-40.0390625,0.0
1734411773.2248836,-39.0625,11.23046875,27.34375,-42.96875,0.0
1734411773.2287896,-50.78125,13.671875,31.73828125,-24.4140625,0.0
1734411773.2326956,-47.8515625,7.8125,31.25,-20.5078125,0.0
1734411773.2366018,-44.43359375,4.8828125,27.34375,-53.22265625,0.0
1734411773.2405078,-45.41015625,20.5078125,24.90234375,-57.6171875,0.0
1734411773.2444139,-46.38671875,20.5078125,27.83203125,-47.36328125,0.0
1734411773.2483199,-32.71484375,-0.48828125,25.87890625,-20.5078125,0.0
1734411773.252226,-24.90234375,-0.48828125,16.11328125,-15.625,0.0
1734411773.2561321,-42.96875,14.6484375,12.6953125,-49.31640625,0.0
1734411773.2600381,-45.41015625,20.01953125,8.7890625,-62.5,0.0
1734411773.265484,-46.875,19.53125,6.8359375,-47.8515625,0.0
1734411773.2693903,-61.5234375,18.06640625,5.859375,-47.36328125,0.0
1734411773.2732964,-59.08203125,24.90234375,4.39453125,-64.94140625,0.0
1734411773.2772024,-47.36328125,33.203125,11.23046875,-70.80078125,0.0
1734411773.2811084,-49.8046875,25.87890625,12.6953125,-81.54296875,0.0
1734411773.2850146,-50.78125,17.08984375,7.32421875,-84.47265625,0.0
1734411773.2889206,-52.24609375,26.3671875,4.39453125,-71.2890625,0.0
1734411773.2928267,-50.29296875,32.71484375,1.46484375,-60.05859375,0.0
1734411773.2967327,-39.55078125,23.4375,1.953125,-41.015625,0.0
1734411773.300639,-37.59765625,31.25,12.20703125,-35.64453125,0.0
1734411773.304545,-44.921875,47.8515625,13.18359375,-52.734375,0.0
1734411773.308451,-43.9453125,42.96875,6.34765625,-51.7578125,0.0
1734411773.3212783,-45.8984375,34.1796875,7.32421875,-50.29296875,0.0
1734411773.3251843,-45.8984375,41.50390625,11.23046875,-44.43359375,0.0
1734411773.3290904,-47.36328125,43.9453125,13.18359375,-39.55078125,0.0
1734411773.3329964,-50.29296875,39.0625,16.6015625,-42.48046875,0.0
1734411773.3369026,-49.8046875,44.43359375,13.671875,-41.9921875,0.0
1734411773.3408086,-56.15234375,37.109375,8.7890625,-48.33984375,0.0
1734411773.3447146,-59.08203125,30.2734375,8.30078125,-72.265625,0.0
1734411773.348621,-42.96875,27.83203125,7.8125,-71.2890625,0.0
1734411773.352527,-44.921875,20.01953125,11.71875,-44.43359375,0.0
1734411773.356433,-59.08203125,26.3671875,19.04296875,-57.6171875,0.0
1734411773.360339,-70.80078125,30.76171875,15.13671875,-82.03125,0.0
1734411773.3642452,-69.3359375,25.390625,7.32421875,-75.1953125,0.0
1734411773.3694332,-48.828125,14.16015625,8.7890625,-64.94140625,0.0
1734411773.3733392,-56.15234375,20.5078125,11.71875,-65.91796875,0.0
1734411773.3772452,-65.4296875,20.01953125,17.08984375,-64.94140625,0.0
1734411773.3811514,-56.15234375,8.7890625,15.13671875,-60.546875,0.0
1734411773.3850574,-41.50390625,16.6015625,15.625,-52.24609375,0.0
1734411773.3889635,-27.34375,23.92578125,19.53125,-40.52734375,0.0
1734411773.3928695,-27.83203125,21.97265625,18.06640625,-32.2265625,0.0
1734411773.3967757,-36.1328125,16.6015625,14.6484375,-25.87890625,0.0
1734411773.4006817,-37.59765625,17.578125,13.18359375,-29.78515625,0.0
1734411773.4045877,-27.34375,17.08984375,8.30078125,-33.69140625,0.0
1734411773.408494,-26.3671875,15.625,6.34765625,-41.50390625,0.0
1734411773.4124,-37.59765625,9.27734375,8.30078125,-43.9453125,0.0
1734411773.4027834,-39.0625,14.6484375,17.578125,-26.85546875,0.0
1734411773.4066894,-46.875,23.4375,18.5546875,-38.0859375,0.0
1734411773.4105954,-52.734375,18.5546875,2.44140625,-58.59375,0.0
1734411773.4145017,-51.26953125,21.484375,5.37109375,-56.15234375,0.0
1734411773.4184077,-42.48046875,33.69140625,10.7421875,-56.640625,0.0
1734411773.4223137,-43.9453125,25.87890625,5.859375,-56.15234375,0.0
1734411773.4262197,-55.6640625,3.90625,2.44140625,-53.7109375,0.0
1734411773.430126,-44.43359375,7.8125,5.37109375,-61.5234375,0.0
1734411773.434032,-30.2734375,23.92578125,9.27734375,-65.4296875,0.0
1734411773.437938,-36.62109375,22.94921875,9.765625,-61.03515625,0.0
1734411773.441844,-43.9453125,19.04296875,11.23046875,-53.7109375,0.0
1734411773.44575,-35.64453125,19.04296875,17.578125,-39.0625,0.0
1734411773.4567757,0.0,28.80859375,20.5078125,-33.203125,0.0
1734411773.460682,0.0,28.80859375,21.484375,-28.80859375,0.0
1734411773.464588,0.0,16.6015625,21.484375,-23.92578125,0.0
1734411773.468494,0.0,19.04296875,17.08984375,-39.55078125,0.0
1734411773.4724,0.0,22.4609375,12.6953125,-43.45703125,0.0
1734411773.4763062,0.0,20.01953125,12.20703125,-37.109375,0.0
1734411773.4802122,0.0,18.5546875,13.671875,-31.25,0.0
1734411773.4841182,0.0,21.97265625,12.20703125,-28.3203125,0.0
1734411773.4880242,0.0,24.4140625,9.27734375,-38.0859375,0.0
1734411773.4919305,0.0,14.6484375,11.23046875,-39.55078125,0.0
1734411773.4958365,0.0,17.578125,9.765625,-43.45703125,0.0
1734411773.4997425,0.0,20.99609375,-0.48828125,-61.03515625,0.0
1734411773.4929364,-39.55078125,23.4375,-1.953125,-67.3828125,0.0
1734411773.4968426,-37.109375,25.87890625,3.90625,-64.94140625,0.0
1734411773.5007486,-41.9921875,23.92578125,0.48828125,-65.91796875,0.0
1734411773.5046546,-55.6640625,22.94921875,1.46484375,-62.98828125,0.0
1734411773.5085607,-47.36328125,16.6015625,8.7890625,-52.24609375,0.0
1734411773.5124667,-32.71484375,16.11328125,17.08984375,-36.1328125,0.0
1734411773.516373,-41.015625,13.671875,16.6015625,-40.52734375,0.0
1734411773.520279,-62.98828125,15.13671875,1.46484375,-58.10546875,0.0
1734411773.524185,-71.2890625,24.90234375,-3.90625,-54.6875,0.0
1734411773.528091,-54.19921875,16.6015625,4.8828125,-45.8984375,0.0
1734411773.531997,-37.109375,14.16015625,2.9296875,-33.69140625,0.0
1734411773.5359032,-41.50390625,21.484375,0.9765625,-34.66796875,0.0
1734411773.5591586,-53.22265625,12.20703125,1.46484375,-51.26953125,0.0
1734411773.5630646,-50.29296875,15.625,2.44140625,-52.24609375,0.0
1734411773.5669706,-41.50390625,23.4375,6.34765625,-48.33984375,0.0
1734411773.5708766,-46.38671875,12.20703125,4.8828125,-51.26953125,0.0
1734411773.5747828,-53.7109375,6.34765625,1.46484375,-59.5703125,0.0
1734411773.5786889,-66.40625,-1.953125,-10.7421875,-68.84765625,0.0
1734411773.5825949,-78.125,-3.90625,-20.5078125,-72.75390625,0.0
1734411773.5865011,-73.73046875,7.8125,-19.04296875,-91.796875,0.0
1734411773.5904071,-69.3359375,2.9296875,-20.01953125,-94.23828125,0.0
1734411773.5943131,-75.68359375,-5.859375,-31.25,-93.75,0.0
1734411773.5982192,-93.75,-17.08984375,-38.0859375,-94.7265625,0.0
1734411773.6021254,-102.05078125,-25.87890625,-33.203125,-94.23828125,0.0
1734411773.5965397,-96.6796875,-40.0390625,-44.921875,-109.375,0.0
1734411773.600446,-94.23828125,-44.921875,-59.08203125,-110.83984375,0.0
1734411773.604352,-92.28515625,-38.0859375,-61.03515625,-115.234375,0.0
1734411773.608258,-87.890625,-35.64453125,-58.59375,-113.28125,0.0
1734411773.612164,-84.47265625,-36.1328125,-50.29296875,-100.5859375,0.0
1734411773.6160703,-83.49609375,-33.69140625,-43.45703125,-92.28515625,0.0
1734411773.6199763,-87.40234375,-24.90234375,-42.96875,-93.75,0.0
1734411773.6238823,-94.23828125,-20.5078125,-47.36328125,-95.21484375,0.0
1734411773.6277883,-94.7265625,-21.484375,-46.875,-91.30859375,0.0
1734411773.6316946,-97.16796875,-11.23046875,-39.55078125,-84.47265625,0.0
1734411773.6356006,-91.796875,13.671875,-35.64453125,-85.9375,0.0
1734411773.6395066,-77.63671875,8.30078125,-36.1328125,-94.7265625,0.0
1734411773.6407764,-75.1953125,-6.8359375,-37.59765625,-96.6796875,0.0
1734411773.6446824,-73.73046875,-1.953125,-36.1328125,-83.49609375,0.0
1734411773.6485884,-74.70703125,4.8828125,-32.71484375,-82.51953125,0.0
1734411773.6524944,-76.171875,5.859375,-32.71484375,-84.9609375,0.0
1734411773.6564007,-74.21875,2.44140625,-32.71484375,-84.47265625,0.0
1734411773.6603067,-66.89453125,-6.34765625,-27.83203125,-71.77734375,0.0
1734411773.6642127,-65.4296875,-8.30078125,-20.99609375,-60.05859375,0.0
1734411773.6681187,-69.82421875,-4.39453125,-15.13671875,-63.96484375,0.0
1734411773.672025,-68.84765625,-13.18359375,-19.53125,-62.98828125,0.0
1734411773.675931,-63.4765625,-11.71875,-20.5078125,-62.01171875,0.0
1734411773.679837,-61.03515625,-0.9765625,-16.6015625,-60.546875,0.0
1734411773.683743,-62.01171875,0.0,-16.6015625,-61.5234375,0.0
1734411773.6994417,0.0,-2.44140625,0.0,-67.87109375,0.0
1734411773.7033477,0.0,-10.25390625,0.0,-78.125,0.0
1734411773.7072537,0.0,-6.34765625,0.0,-82.03125,0.0
1734411773.71116,0.0,0.48828125,0.0,-84.47265625,0.0
1734411773.715066,0.0,-20.99609375,0.0,-89.35546875,0.0
1734411773.718972,0.0,-31.73828125,0.0,-89.35546875,0.0
1734411773.722878,0.0,-24.4140625,0.0,-86.9140625,0.0
1734411773.7267842,0.0,-20.99609375,0.0,-81.0546875,0.0
1734411773.7306902,0.0,-15.13671875,0.0,-68.84765625,0.0
1734411773.7345963,0.0,-8.7890625,0.0,-75.1953125,0.0
1734411773.7385025,0.0,-13.671875,0.0,-87.890625,0.0
1734411773.7424085,0.0,-18.06640625,0.0,-80.078125,0.0
1734411773.7326388,-59.08203125,-9.27734375,-11.71875,-69.82421875,0.0
1734411773.7365448,-59.5703125,1.953125,-11.23046875,-72.75390625,0.0
1734411773.7404509,-60.05859375,4.8828125,-14.16015625,-65.91796875,0.0
1734411773.744357,-59.08203125,-4.39453125,-23.4375,-59.5703125,0.0
1734411773.7482631,-60.05859375,-4.39453125,-23.4375,-71.2890625,0.0
1734411773.7521691,-61.03515625,-1.46484375,-14.16015625,-75.1953125,0.0
1734411773.7560751,-60.05859375,-2.9296875,-12.6953125,-78.125,0.0
1734411773.7599812,-54.6875,-0.9765625,-9.765625,-78.61328125,0.0
1734411773.7638874,-63.4765625,-1.953125,-7.8125,-70.80078125,0.0
1734411773.7677934,-71.2890625,-3.41796875,-10.25390625,-84.9609375,0.0
1734411773.7716994,-63.96484375,-1.953125,-3.90625,-79.1015625,0.0
1734411773.7756054,-55.17578125,7.32421875,2.44140625,-62.98828125,0.0
1734411773.7990887,-50.78125,6.8359375,2.44140625,-63.96484375,0.0
1734411773.8029947,-57.6171875,2.44140625,5.37109375,-61.03515625,0.0
1734411773.8069007,-59.5703125,7.8125,8.30078125,-49.31640625,0.0
1734411773.8108068,-50.78125,26.85546875,14.6484375,-34.1796875,0.0
1734411773.814713,-41.015625,38.0859375,11.23046875,-44.43359375,0.0
1734411773.818619,-30.76171875,33.203125,3.90625,-52.734375,0.0
1734411773.822525,-24.4140625,29.78515625,4.8828125,-41.015625,0.0
1734411773.8264313,-29.78515625,35.64453125,7.32421875,-32.2265625,0.0
1734411773.8303373,-37.59765625,37.59765625,5.37109375,-41.9921875,0.0
1734411773.8342433,-29.296875,37.59765625,-1.953125,-47.8515625,0.0
1734411773.8381495,-22.4609375,37.109375,-1.46484375,-36.1328125,0.0
1734411773.8420556,-27.34375,41.50390625,11.71875,-34.66796875,0.0
1734411773.8247874,-37.59765625,41.015625,17.578125,-40.0390625,0.0
1734411773.8286936,-41.9921875,36.62109375,19.04296875,-42.48046875,0.0
1734411773.8325996,-37.109375,35.64453125,20.5078125,-42.48046875,0.0
1734411773.8365057,-31.73828125,34.66796875,15.13671875,-44.43359375,0.0
1734411773.8404117,-24.90234375,37.109375,14.16015625,-40.0390625,0.0
1734411773.844318,-28.3203125,27.83203125,13.671875,-42.96875,0.0
1734411773.848224,-32.71484375,27.34375,16.6015625,-43.45703125,0.0
1734411773.85213,-27.34375,32.2265625,23.92578125,-42.96875,0.0
1734411773.856036,-21.97265625,31.73828125,25.390625,-39.0625,0.0
1734411773.8599422,-23.4375,31.73828125,22.4609375,-28.3203125,0.0
1734411773.8638482,-36.1328125,32.71484375,23.92578125,-29.78515625,0.0
1734411773.8677542,-38.57421875,40.52734375,21.484375,-32.2265625,0.0
1734411773.8665957,-32.2265625,41.9921875,16.11328125,-31.73828125,0.0
1734411773.870502,-31.25,35.15625,15.625,-34.1796875,0.0
1734411773.874408,-36.1328125,30.76171875,15.13671875,-27.83203125,0.0
1734411773.878314,-42.48046875,38.57421875,20.5078125,-33.69140625,0.0
1734411773.88222,-34.1796875,41.9921875,25.87890625,-42.48046875,0.0
1734411773.8861263,-29.78515625,35.15625,25.390625,-36.1328125,0.0
1734411773.8900323,-30.2734375,38.57421875,21.484375,-33.203125,0.0
1734411773.8939383,-33.203125,42.96875,22.4609375,-30.76171875,0.0
1734411773.8978443,-42.48046875,39.55078125,24.90234375,-35.64453125,0.0
1734411773.9017503,-39.55078125,37.109375,20.99609375,-41.9921875,0.0
1734411773.9056566,-39.55078125,38.0859375,16.6015625,-56.15234375,0.0
1734411773.9095626,-36.62109375,36.62109375,16.6015625,-64.94140625,0.0
1734411773.9103346,-29.78515625,37.109375,18.06640625,-57.12890625,0.0
1734411773.9142406,-36.62109375,39.55078125,20.99609375,-61.5234375,0.0
1734411773.9181466,-53.22265625,47.36328125,18.06640625,-71.77734375,0.0
1734411773.9220526,-48.33984375,81.0546875,15.13671875,-74.70703125,0.0
1734411773.9259589,-39.55078125,101.07421875,18.06640625,-69.82421875,0.0
1734411773.929865,-42.96875,98.6328125,22.4609375,-53.7109375,0.0
1734411773.933771,-49.31640625,104.00390625,25.390625,-50.78125,0.0
1734411773.937677,-52.734375,106.93359375,25.87890625,-59.08203125,0.0
1734411773.941583,-42.48046875,92.28515625,18.5546875,-54.6875,0.0
1734411773.9454892,-25.390625,85.9375,11.71875,-55.17578125,0.0
1734411773.9493952,-40.0390625,93.75,14.16015625,-61.5234375,0.0
1734411773.9533012,-62.5,91.796875,14.16015625,-71.2890625,0.0
1734411773.966838,-62.5,86.42578125,7.32421875,-79.58984375,0.0
1734411773.970744,-64.94140625,89.84375,6.34765625,-75.1953125,0.0
1734411773.9746501,-59.08203125,97.16796875,9.765625,-76.171875,0.0
1734411773.9785562,-45.41015625,92.7734375,7.32421875,-81.0546875,0.0
1734411773.9824622,-48.828125,89.84375,8.7890625,-79.58984375,0.0
1734411773.9863682,-62.98828125,88.37890625,12.6953125,-77.63671875,0.0
1734411773.9902744,-71.77734375,83.984375,16.11328125,-85.44921875,0.0
1734411773.9941804,-84.47265625,79.58984375,10.7421875,-94.23828125,0.0
1734411773.9980865,-83.984375,64.453125,-1.46484375,-83.984375,0.0
1734411774.0019925,-84.9609375,58.10546875,2.44140625,-66.89453125,0.0
1734411774.0058985,-92.7734375,66.40625,9.27734375,-83.49609375,0.0
1734411774.0098047,-92.7734375,64.453125,11.23046875,-92.28515625,0.0
1734411774.0255957,-95.21484375,64.453125,20.01953125,-71.77734375,0.0
1734411774.0295017,-91.796875,61.5234375,21.484375,-72.75390625,0.0
1734411774.0334077,-93.26171875,46.38671875,17.578125,-79.1015625,0.0
1734411774.037314,-94.7265625,42.96875,15.13671875,-82.51953125,0.0
1734411774.04122,-80.078125,45.8984375,5.859375,-84.9609375,0.0
1734411774.045126,-55.17578125,55.17578125,3.90625,-81.54296875,0.0
1734411774.0490322,-44.43359375,55.6640625,9.27734375,-80.078125,0.0
1734411774.0529382,-46.38671875,45.41015625,11.71875,-71.77734375,0.0
1734411774.0568442,-54.19921875,38.57421875,12.6953125,-50.78125,0.0
1734411774.0607502,-59.5703125,48.33984375,14.16015625,-49.8046875,0.0
1734411774.0646565,-75.1953125,50.78125,13.671875,-85.9375,0.0
1734411774.0685625,-76.171875,42.48046875,2.44140625,-87.40234375,0.0
1734411774.0619316,-75.68359375,41.50390625,-2.44140625,-80.56640625,0.0
1734411774.0658379,-89.35546875,40.52734375,-1.953125,-96.19140625,0.0
1734411774.0697439,-91.796875,31.25,-2.9296875,-90.8203125,0.0
1734411774.07365,-89.84375,15.13671875,-1.953125,-82.03125,0.0
1734411774.077556,-86.9140625,14.6484375,-4.39453125,-87.40234375,0.0
1734411774.0814621,-89.84375,21.97265625,-4.8828125,-88.8671875,0.0
1734411774.0853682,-101.5625,21.97265625,-2.9296875,-93.26171875,0.0
1734411774.0892742,-104.4921875,22.4609375,0.9765625,-83.984375,0.0
1734411774.0931802,-90.33203125,28.80859375,7.32421875,-62.5,0.0
1734411774.0970862,-80.56640625,31.73828125,2.9296875,-59.5703125,0.0
1734411774.1009924,-79.58984375,34.1796875,0.48828125,-55.6640625,0.0
1734411774.1048985,-74.21875,32.2265625,6.8359375,-48.33984375,0.0
1734411774.1045465,-77.1484375,30.2734375,0.0,-51.26953125,0.0
1734411774.1084526,-77.1484375,44.921875,-1.46484375,-60.05859375,0.0
1734411774.1123586,-67.3828125,41.9921875,0.48828125,-75.1953125,0.0
1734411774.1162646,-56.640625,36.1328125,-4.8828125,-72.265625,0.0
1734411774.1201708,-57.12890625,41.50390625,-10.7421875,-67.87109375,0.0
1734411774.1240768,-55.6640625,47.8515625,-18.5546875,-69.82421875,0.0
1734411774.1279829,-53.22265625,43.45703125,-20.01953125,-73.73046875,0.0
1734411774.1318889,-55.6640625,29.78515625,-25.390625,-79.1015625,0.0
1734411774.1357949,-56.640625,25.87890625,-24.90234375,-73.2421875,0.0
1734411774.1397011,-57.12890625,26.85546875,-20.01953125,-76.66015625,0.0
1734411774.1436071,-62.98828125,23.92578125,-20.99609375,-71.77734375,0.0
1734411774.1475132,-62.5,25.390625,-19.04296875,-62.5,0.0
1734411774.1492708,-51.7578125,27.34375,-16.11328125,-60.05859375,0.0
1734411774.1531768,-53.22265625,23.92578125,-11.23046875,-63.96484375,0.0
1734411774.1570828,-58.10546875,18.5546875,-15.13671875,-73.73046875,0.0
1734411774.1609888,-58.10546875,23.4375,-14.6484375,-71.2890625,0.0
1734411774.164895,-58.10546875,24.90234375,-14.16015625,-60.546875,0.0
1734411774.168801,-43.9453125,17.578125,-20.5078125,-58.10546875,0.0
1734411774.172707,-42.96875,21.97265625,-15.625,-62.01171875,0.0
1734411774.176613,-60.546875,25.87890625,-11.23046875,-52.734375,0.0
1734411774.180519,-58.10546875,38.0859375,-13.18359375,-50.78125,0.0
1734411774.1844254,-48.828125,45.41015625,-14.16015625,-51.26953125,0.0
1734411774.1883314,-48.828125,36.62109375,-13.671875,-44.43359375,0.0
1734411774.1922374,-48.828125,30.76171875,-9.27734375,-46.875,0.0
1734411774.1938915,-38.57421875,25.390625,-12.6953125,-59.08203125,0.0
1734411774.1977975,-41.50390625,23.92578125,-8.7890625,-66.89453125,0.0
1734411774.2017038,-57.6171875,22.4609375,-3.90625,-71.77734375,0.0
1734411774.2056098,-58.10546875,27.34375,-8.7890625,-84.47265625,0.0
1734411774.2095158,-62.98828125,18.5546875,-9.27734375,-80.078125,0.0
1734411774.2134218,-65.91796875,9.765625,-11.71875,-81.0546875,0.0
1734411774.2173278,-61.03515625,11.23046875,-19.04296875,-77.63671875,0.0
1734411774.221234,-62.5,14.6484375,-20.99609375,-69.82421875,0.0
1734411774.22514,-72.75390625,22.4609375,-10.7421875,-77.1484375,0.0
1734411774.229046,-71.2890625,24.4140625,-3.41796875,-75.1953125,0.0
1734411774.232952,-59.08203125,24.4140625,-8.7890625,-77.1484375,0.0
1734411774.2368581,-54.19921875,31.25,-13.671875,-74.21875,0.0
1734411774.2390304,-54.6875,38.0859375,-12.20703125,-59.5703125,0.0
1734411774.2429364,-64.94140625,20.99609375,-16.6015625,-64.453125,0.0
1734411774.2468424,-61.03515625,15.625,-12.6953125,-60.05859375,0.0
1734411774.2507486,-56.640625,24.90234375,-3.90625,-44.921875,0.0
1734411774.2546546,-65.4296875,25.87890625,-7.8125,-36.62109375,0.0
1734411774.2585607,-56.15234375,27.83203125,-8.7890625,-28.3203125,0.0
1734411774.2624667,-42.48046875,25.87890625,-0.9765625,-22.94921875,0.0
1734411774.2663727,-35.15625,34.1796875,0.9765625,-29.78515625,0.0
1734411774.270279,-34.1796875,39.55078125,0.0,-37.109375,0.0
1734411774.274185,-35.64453125,33.69140625,-5.859375,-35.64453125,0.0
1734411774.278091,-39.55078125,36.1328125,-13.18359375,-40.52734375,0.0
1734411774.281997,-51.26953125,26.85546875,-16.11328125,-43.9453125,0.0
1734411774.2843306,-41.015625,20.01953125,-14.16015625,-41.9921875,0.0
1734411774.2882366,-31.73828125,27.34375,-13.18359375,-49.8046875,0.0
1734411774.2921426,-45.41015625,25.87890625,-14.16015625,-64.453125,0.0
1734411774.2960489,-55.6640625,24.90234375,-18.5546875,-68.84765625,0.0
1734411774.299955,-53.7109375,21.484375,-21.97265625,-61.5234375,0.0
1734411774.303861,-52.734375,15.625,-23.4375,-58.59375,0.0
1734411774.307767,-54.6875,20.01953125,-20.5078125,-62.5,0.0
1734411774.311673,-60.05859375,14.16015625,-20.5078125,-67.87109375,0.0
1734411774.3155792,-61.5234375,5.37109375,-24.4140625,-67.3828125,0.0
1734411774.3194852,-62.01171875,4.8828125,-20.99609375,-64.453125,0.0
1734411774.3233912,-56.15234375,1.46484375,-16.11328125,-69.3359375,0.0
1734411774.3272972,-44.921875,6.8359375,-15.13671875,-69.3359375,0.0
1734411774.341326,-45.41015625,13.671875,-18.06640625,-61.03515625,0.0
1734411774.345232,-50.78125,15.13671875,-20.01953125,-59.08203125,0.0
1734411774.3491383,-45.8984375,14.16015625,-17.08984375,-56.640625,0.0
1734411774.3530443,-34.66796875,11.71875,-12.20703125,-55.6640625,0.0
1734411774.3569503,-34.1796875,2.9296875,-14.16015625,-56.15234375,0.0
1734411774.3608563,-35.15625,0.9765625,-16.11328125,-54.19921875,0.0
1734411774.3647625,-38.57421875,12.6953125,-11.71875,-53.7109375,0.0
1734411774.3686686,-41.9921875,6.8359375,-11.23046875,-60.05859375,0.0
1734411774.3725746,-28.3203125,-1.46484375,-16.6015625,-55.17578125,0.0
1734411774.3764806,-25.87890625,1.46484375,-18.06640625,-47.8515625,0.0
1734411774.3803868,-37.59765625,4.8828125,-20.01953125,-53.7109375,0.0
1734411774.3842928,-42.96875,0.48828125,-21.484375,-59.5703125,0.0
1734411774.389187,-38.0859375,-8.7890625,-15.625,-53.7109375,0.0
1734411774.393093,-29.78515625,-5.859375,-10.25390625,-50.29296875,0.0
1734411774.3969994,-36.1328125,-4.39453125,-10.25390625,-58.59375,0.0
1734411774.4009054,-40.0390625,-1.46484375,-10.7421875,-48.828125,0.0
1734411774.4048114,-39.0625,3.41796875,-9.27734375,-38.57421875,0.0
1734411774.4087174,-37.109375,10.25390625,-9.27734375,-38.57421875,0.0
1734411774.4126236,-36.1328125,14.16015625,-4.8828125,-37.59765625,0.0
1734411774.4165297,-41.50390625,4.8828125,-2.9296875,-48.33984375,0.0
1734411774.4204357,-43.45703125,-0.9765625,-7.32421875,-54.19921875,0.0
1734411774.4243417,-44.43359375,8.7890625,-4.39453125,-54.6875,0.0
1734411774.428248,-47.36328125,17.578125,-1.46484375,-63.4765625,0.0
1734411774.432154,-44.43359375,11.71875,-6.34765625,-62.98828125,0.0
1734411774.4345682,-42.48046875,3.90625,-8.7890625,-62.01171875,0.0
1734411774.4384742,-32.71484375,14.6484375,-8.30078125,-65.4296875,0.0
1734411774.4423804,-30.2734375,22.94921875,-1.953125,-61.5234375,0.0
1734411774.4462864,-40.0390625,6.34765625,-0.48828125,-55.6640625,0.0
1734411774.4501925,-29.296875,6.34765625,0.48828125,-42.96875,0.0
1734411774.4540985,-18.5546875,14.16015625,8.7890625,-35.15625,0.0
1734411774.4580047,-34.1796875,11.71875,12.20703125,-42.48046875,0.0
1734411774.4619107,-43.9453125,13.18359375,9.27734375,-46.38671875,0.0
1734411774.4658167,-41.9921875,8.30078125,5.37109375,-42.96875,0.0
1734411774.4697227,-40.0390625,11.71875,2.44140625,-38.0859375,0.0
1734411774.4736288,-37.109375,20.99609375,3.41796875,-38.0859375,0.0
1734411774.477535,-36.1328125,11.71875,-3.90625,-43.9453125,0.0
1734411774.504346,-38.57421875,7.8125,-2.9296875,-46.38671875,0.0
1734411774.508252,-45.41015625,18.06640625,2.9296875,-49.8046875,0.0
1734411774.512158,-45.8984375,12.20703125,-1.46484375,-55.6640625,0.0
1734411774.5160642,-35.15625,12.20703125,-7.8125,-51.7578125,0.0
1734411774.5199702,-31.73828125,16.6015625,-13.671875,-42.96875,0.0
1734411774.5238762,-42.96875,13.18359375,-15.13671875,-49.8046875,0.0
1734411774.5277824,-53.7109375,14.6484375,-8.7890625,-53.7109375,0.0
1734411774.5316885,-50.78125,11.23046875,-4.39453125,-41.9921875,0.0
1734411774.5355945,-41.015625,17.08984375,-4.39453125,-39.0625,0.0
1734411774.5395007,-42.48046875,16.6015625,0.48828125,-48.33984375,0.0
1734411774.5434067,-45.8984375,8.30078125,2.44140625,-46.875,0.0
1734411774.5473127,-45.8984375,19.04296875,-2.44140625,-42.48046875,0.0
1734411774.5298982,-54.19921875,17.08984375,-13.18359375,-54.6875,0.0
1734411774.5338042,-52.24609375,10.25390625,-13.671875,-49.8046875,0.0
1734411774.5377102,-37.109375,12.20703125,-6.8359375,-38.0859375,0.0
1734411774.5416164,-39.0625,14.16015625,2.44140625,-33.203125,0.0
1734411774.5455225,-45.8984375,13.671875,6.34765625,-30.76171875,0.0
1734411774.5494285,-43.9453125,8.7890625,-4.39453125,-42.48046875,0.0
1734411774.5533345,-32.71484375,11.71875,-10.25390625,-42.48046875,0.0
1734411774.5572407,-21.484375,18.5546875,-8.7890625,-46.38671875,0.0
1734411774.5611467,-22.4609375,28.3203125,-9.27734375,-53.22265625,0.0
1734411774.5650527,-41.50390625,32.71484375,-12.6953125,-52.24609375,0.0
1734411774.5689588,-41.50390625,13.671875,-11.71875,-46.38671875,0.0
1734411774.5728648,-32.2265625,3.41796875,-8.7890625,-42.48046875,0.0
1734411774.570532,-38.0859375,14.6484375,-6.34765625,-43.45703125,0.0
1734411774.574438,-41.50390625,16.11328125,-3.41796875,-44.921875,0.0
1734411774.578344,-36.62109375,8.7890625,-6.34765625,-35.64453125,0.0
1734411774.58225,-38.57421875,10.25390625,-3.90625,-21.484375,0.0
1734411774.5861564,-41.015625,25.87890625,-6.34765625,-26.3671875,0.0
1734411774.5900624,-18.5546875,27.83203125,-6.8359375,-24.90234375,0.0
1734411774.5939684,-20.99609375,28.3203125,-0.48828125,-11.71875,0.0
1734411774.5978744,-36.1328125,33.69140625,-3.90625,-14.6484375,0.0
1734411774.6017807,-40.0390625,30.76171875,-0.9765625,-31.73828125,0.0
1734411774.6056867,-41.50390625,21.97265625,0.9765625,-39.0625,0.0
1734411774.6095927,-36.1328125,19.04296875,-0.9765625,-41.015625,0.0
1734411774.6134987,-35.15625,11.71875,-6.34765625,-35.15625,0.0
1734411774.6265764,-37.109375,18.06640625,-13.671875,-30.2734375,0.0
1734411774.6304824,-34.66796875,21.97265625,-16.6015625,-40.0390625,0.0
1734411774.6343887,-33.69140625,20.01953125,-15.13671875,-42.48046875,0.0
1734411774.6382947,-27.34375,24.4140625,-15.13671875,-42.48046875,0.0
1734411774.6422007,-26.3671875,23.92578125,-15.13671875,-46.38671875,0.0
1734411774.6461067,-28.3203125,9.27734375,-14.16015625,-50.78125,0.0
1734411774.650013,-24.90234375,0.48828125,-17.578125,-41.50390625,0.0
1734411774.653919,-39.55078125,13.18359375,-22.4609375,-42.48046875,0.0
1734411774.657825,-42.48046875,18.5546875,-16.6015625,-44.921875,0.0
1734411774.661731,-35.64453125,16.11328125,-13.18359375,-37.59765625,0.0
1734411774.6656373,-35.15625,19.04296875,-19.53125,-55.17578125,0.0
1734411774.6695433,-40.0390625,23.92578125,-19.53125,-62.98828125,0.0
1734411774.662051,-52.24609375,16.6015625,-15.625,-51.7578125,0.0
1734411774.665957,-42.96875,10.7421875,-19.53125,-42.48046875,0.0
1734411774.669863,-34.66796875,14.16015625,-22.94921875,-47.36328125,0.0
1734411774.673769,-48.828125,8.30078125,-24.4140625,-54.19921875,0.0
1734411774.6776752,-56.640625,5.37109375,-25.390625,-49.31640625,0.0
1734411774.6815813,-48.828125,4.8828125,-21.484375,-49.31640625,0.0
1734411774.6854873,-41.9921875,4.39453125,-16.6015625,-53.7109375,0.0
1734411774.6893933,-39.0625,6.34765625,-14.6484375,-54.6875,0.0
1734411774.6932995,-37.59765625,7.8125,-18.5546875,-51.7578125,0.0
1734411774.6972055,-41.50390625,7.32421875,-23.92578125,-37.59765625,0.0
1734411774.7011116,-40.52734375,6.34765625,-25.87890625,-30.2734375,0.0
1734411774.7050176,-37.59765625,1.953125,-20.01953125,-43.9453125,0.0
1734411774.7407792,-33.203125,-5.859375,-19.04296875,-40.0390625,0.0
1734411774.7446852,-28.3203125,5.37109375,-16.11328125,-26.85546875,0.0
1734411774.7485914,-39.0625,11.71875,-13.18359375,-25.390625,0.0
1734411774.7524974,-43.45703125,13.18359375,-14.16015625,-24.4140625,0.0
1734411774.7564034,-32.71484375,15.625,-14.16015625,-29.296875,0.0
1734411774.7603097,-28.3203125,11.23046875,-18.5546875,-34.66796875,0.0
1734411774.7642157,-28.80859375,15.625,-21.484375,-33.203125,0.0
1734411774.7681217,-24.90234375,25.87890625,-22.4609375,-33.69140625,0.0
1734411774.772028,-27.34375,14.16015625,-21.97265625,-32.2265625,0.0
1734411774.775934,-28.3203125,0.48828125,-22.94921875,-25.390625,0.0
1734411774.77984,-34.66796875,5.859375,-22.94921875,-28.80859375,0.0
1734411774.7837462,-34.1796875,6.8359375,-15.13671875,-29.78515625,0.0
1734411774.7685943,-34.66796875,7.8125,-17.08984375,-33.203125,0.0
1734411774.7725003,-46.875,22.4609375,-25.87890625,-37.59765625,0.0
1734411774.7764063,-49.31640625,27.34375,-27.83203125,-39.55078125,0.0
1734411774.7803123,-35.64453125,20.01953125,-33.69140625,-47.8515625,0.0
1734411774.7842185,-36.1328125,27.34375,-31.73828125,-47.8515625,0.0
1734411774.7881246,-46.875,21.97265625,-30.76171875,-49.8046875,0.0
1734411774.7920306,-53.7109375,13.671875,-34.1796875,-54.19921875,0.0
1734411774.7959366,-53.7109375,20.5078125,-25.87890625,-50.29296875,0.0
1734411774.7998428,-52.734375,21.484375,-25.87890625,-53.22265625,0.0
1734411774.8037488,-57.12890625,20.5078125,-40.0390625,-64.453125,0.0
1734411774.8076549,-64.94140625,20.01953125,-46.875,-70.3125,0.0
1734411774.8115609,-62.5,17.578125,-49.31640625,-65.4296875,0.0
1734411774.8099241,-43.9453125,27.83203125,-45.41015625,-50.29296875,0.0
1734411774.8138304,-40.0390625,44.921875,-45.8984375,-51.7578125,0.0
1734411774.8177364,-39.55078125,44.43359375,-43.9453125,-53.22265625,0.0
1734411774.8216424,-40.0390625,39.0625,-39.0625,-44.43359375,0.0
1734411774.8255484,-48.33984375,41.015625,-39.0625,-49.31640625,0.0
1734411774.8294547,-47.36328125,42.96875,-37.59765625,-54.6875,0.0
1734411774.8333607,-41.9921875,48.828125,-38.0859375,-61.5234375,0.0
1734411774.8372667,-37.59765625,39.0625,-36.62109375,-51.26953125,0.0
1734411774.8411727,-45.41015625,24.90234375,-36.1328125,-37.59765625,0.0
1734411774.845079,-53.22265625,30.76171875,-36.62109375,-49.8046875,0.0
1734411774.848985,-48.33984375,27.34375,-39.0625,-62.98828125,0.0
1734411774.852891,-40.52734375,18.06640625,-39.55078125,-61.03515625,0.0
1734411774.8545322,-40.52734375,14.6484375,-39.0625,-49.31640625,0.0
1734411774.8584383,-44.921875,14.6484375,-40.52734375,-47.36328125,0.0
1734411774.8623445,-49.8046875,12.20703125,-43.9453125,-51.7578125,0.0
1734411774.8662505,-44.43359375,15.625,-45.41015625,-50.29296875,0.0
1734411774.8701565,-30.76171875,17.578125,-45.8984375,-55.17578125,0.0
1734411774.8740625,-29.78515625,10.7421875,-40.0390625,-53.7109375,0.0
1734411774.8779685,-36.62109375,17.578125,-33.203125,-49.31640625,0.0
1734411774.8818748,-39.0625,18.5546875,-34.1796875,-41.50390625,0.0
1734411774.8857808,-41.9921875,16.11328125,-34.66796875,-34.1796875,0.0
1734411774.8896868,-46.38671875,24.90234375,-37.109375,-41.9921875,0.0
1734411774.8935928,-34.66796875,28.80859375,-35.15625,-45.41015625,0.0
1734411774.897499,-43.9453125,22.94921875,-39.55078125,-37.59765625,0.0
1734411774.898709,-66.89453125,16.11328125,-46.875,-35.15625,0.0
1734411774.902615,-55.17578125,20.5078125,-41.015625,-38.57421875,0.0
1734411774.906521,-46.875,21.484375,-41.015625,-51.7578125,0.0
1734411774.9104273,-38.0859375,27.34375,-40.0390625,-62.01171875,0.0
1734411774.9143333,-30.76171875,31.73828125,-31.73828125,-47.36328125,0.0
1734411774.9182394,-44.43359375,18.5546875,-33.203125,-40.52734375,0.0
1734411774.9221454,-46.875,14.16015625,-37.59765625,-40.0390625,0.0
1734411774.9260514,-39.0625,21.484375,-38.0859375,-34.1796875,0.0
1734411774.9299576,-36.1328125,30.76171875,-36.1328125,-35.15625,0.0
1734411774.9338636,-30.76171875,21.97265625,-38.0859375,-39.0625,0.0
1734411774.9377697,-40.0390625,19.53125,-34.1796875,-30.76171875,0.0
1734411774.9416757,-45.41015625,21.484375,-30.2734375,-20.01953125,0.0
1734411774.9438226,-36.62109375,23.92578125,-30.76171875,-26.85546875,0.0
1734411774.9477286,-28.3203125,31.73828125,-29.296875,-29.296875,0.0
1734411774.9516346,-30.76171875,28.80859375,-26.3671875,-26.85546875,0.0
1734411774.955541,-43.9453125,28.80859375,-24.4140625,-33.203125,0.0
1734411774.959447,-51.26953125,26.85546875,-30.76171875,-46.38671875,0.0
1734411774.963353,-41.50390625,24.4140625,-28.80859375,-47.8515625,0.0
1734411774.967259,-32.2265625,18.5546875,-30.2734375,-33.203125,0.0
1734411774.971165,-39.55078125,21.484375,-37.59765625,-29.296875,0.0
1734411774.9750712,-50.29296875,24.90234375,-35.15625,-41.9921875,0.0
1734411774.9789772,-52.24609375,24.90234375,-30.76171875,-29.78515625,0.0
1734411774.9828832,-49.31640625,22.94921875,-35.64453125,-35.64453125,0.0
1734411774.9867892,-45.41015625,12.20703125,-36.1328125,-45.41015625,0.0
1734411774.989265,-40.0390625,12.6953125,-36.62109375,-40.52734375,0.0
1734411774.993171,-43.9453125,7.32421875,-44.43359375,-44.921875,0.0
1734411774.9970772,-54.19921875,3.41796875,-45.41015625,-51.7578125,0.0
1734411775.0009832,-56.640625,8.7890625,-43.45703125,-64.94140625,0.0
1734411775.0048892,-43.9453125,9.765625,-41.015625,-55.6640625,0.0
1734411775.0087953,-32.2265625,8.7890625,-32.71484375,-43.9453125,0.0
1734411775.0127013,-31.73828125,0.9765625,-33.69140625,-35.15625,0.0
1734411775.0166075,-36.62109375,-1.953125,-35.64453125,-24.90234375,0.0
1734411775.0205135,-37.59765625,-4.8828125,-28.3203125,-23.4375,0.0
1734411775.0244195,-37.109375,5.859375,-24.4140625,-26.3671875,0.0
1734411775.0283256,-41.9921875,20.01953125,-31.25,-33.69140625,0.0
1734411775.0322316,-44.43359375,25.87890625,-33.203125,-41.50390625,0.0
1734411775.0344765,-47.8515625,32.2265625,-30.2734375,-33.203125,0.0
1734411775.0383825,-51.26953125,34.1796875,-31.25,-35.64453125,0.0
1734411775.0422885,-44.43359375,34.66796875,-30.76171875,-54.19921875,0.0
1734411775.0461946,-41.50390625,38.0859375,-29.296875,-52.734375,0.0
1734411775.0501006,-29.78515625,38.0859375,-27.34375,-50.78125,0.0
1734411775.0540068,-27.83203125,34.66796875,-26.3671875,-40.0390625,0.0
1734411775.0579128,-31.25,37.109375,-28.80859375,-36.62109375,0.0
1734411775.0618188,-29.296875,39.55078125,-33.69140625,-43.45703125,0.0
1734411775.0657248,-29.78515625,42.48046875,-28.80859375,-46.38671875,0.0
1734411775.0696309,-32.2265625,41.9921875,-30.76171875,-46.875,0.0
1734411775.073537,-39.55078125,48.33984375,-35.15625,-49.8046875,0.0
1734411775.0774431,-49.31640625,57.6171875,-26.85546875,-57.12890625,0.0
1734411775.1029696,-52.734375,53.22265625,-31.73828125,-60.546875,0.0
1734411775.1068757,-40.0390625,52.734375,-36.1328125,-52.24609375,0.0
1734411775.1107817,-28.3203125,48.33984375,-33.203125,-56.15234375,0.0
1734411775.1146877,-36.62109375,45.8984375,-34.66796875,-53.7109375,0.0
1734411775.118594,-46.875,44.43359375,-34.66796875,-39.55078125,0.0
1734411775.1225,-41.9921875,35.64453125,-34.1796875,-43.45703125,0.0
1734411775.126406,-39.0625,35.64453125,-30.76171875,-45.8984375,0.0
1734411775.1303122,-41.9921875,34.1796875,-27.34375,-41.9921875,0.0
1734411775.1342182,-34.66796875,25.87890625,-27.83203125,-51.7578125,0.0
1734411775.1381242,-38.0859375,27.34375,-30.76171875,-49.31640625,0.0
1734411775.1420302,-40.52734375,33.203125,-22.4609375,-36.1328125,0.0
1734411775.1459365,-38.57421875,26.85546875,-15.13671875,-36.62109375,0.0
1734411775.140476,-40.52734375,22.4609375,-21.484375,-41.9921875,0.0
1734411775.1443822,-42.48046875,19.04296875,-22.94921875,-46.875,0.0
1734411775.1482882,-52.734375,22.4609375,-26.85546875,-56.15234375,0.0
1734411775.1521943,-44.921875,39.55078125,-22.94921875,-55.6640625,0.0
1734411775.1561003,-30.76171875,39.0625,-17.08984375,-40.0390625,0.0
1734411775.1600065,-29.78515625,29.296875,-21.484375,-37.59765625,0.0
1734411775.1639125,-33.203125,36.62109375,-17.08984375,-39.55078125,0.0
1734411775.1678185,-40.52734375,36.1328125,-11.23046875,-42.96875,0.0
1734411775.1717246,-52.24609375,29.78515625,-9.27734375,-40.52734375,0.0
1734411775.1756308,-43.45703125,32.2265625,-14.16015625,-39.55078125,0.0
1734411775.1795368,-37.59765625,29.296875,-22.4609375,-48.33984375,0.0
1734411775.1834428,-46.875,21.97265625,-21.484375,-46.38671875,0.0
1734411775.183763,-52.24609375,24.90234375,-19.53125,-41.015625,0.0
1734411775.187669,-53.7109375,25.390625,-16.6015625,-35.64453125,0.0
1734411775.191575,-43.45703125,19.04296875,-9.27734375,-35.15625,0.0
1734411775.195481,-40.0390625,14.6484375,-5.37109375,-37.59765625,0.0
1734411775.1993873,-47.36328125,10.25390625,-13.671875,-42.96875,0.0
1734411775.2032933,-41.9921875,9.27734375,-20.5078125,-42.48046875,0.0
1734411775.2071993,-38.57421875,9.27734375,-20.01953125,-43.45703125,0.0
1734411775.2111053,-52.24609375,4.39453125,-22.94921875,-42.96875,0.0
1734411775.2150114,-51.7578125,6.8359375,-24.90234375,-44.43359375,0.0
1734411775.2189176,-41.9921875,18.5546875,-23.4375,-44.921875,0.0
1734411775.2228236,-42.48046875,30.2734375,-14.6484375,-40.52734375,0.0
1734411775.2267296,-41.9921875,23.92578125,-12.6953125,-46.38671875,0.0
1734411775.2289157,-38.0859375,18.5546875,-17.08984375,-46.38671875,0.0
1734411775.2328217,-27.83203125,29.78515625,-14.6484375,-37.109375,0.0
1734411775.236728,-14.16015625,31.25,-18.06640625,-30.76171875,0.0
1734411775.240634,-29.296875,28.80859375,-17.578125,-30.76171875,0.0
1734411775.24454,-43.9453125,41.015625,-10.7421875,-25.390625,0.0
1734411775.248446,-37.109375,51.26953125,-16.11328125,-23.92578125,0.0
1734411775.2523522,-30.76171875,62.01171875,-16.11328125,-41.015625,0.0
1734411775.2562582,-27.83203125,84.9609375,-5.859375,-30.76171875,0.0
1734411775.2601643,-32.71484375,95.703125,-4.8828125,-17.578125,0.0
1734411775.2640703,-48.33984375,88.37890625,-10.7421875,-39.55078125,0.0
1734411775.2679763,-44.921875,83.0078125,-16.11328125,-52.734375,0.0
1734411775.2718825,-30.76171875,80.56640625,-11.23046875,-43.9453125,0.0
1734411775.2738595,-31.25,72.75390625,-3.41796875,-43.45703125,0.0
1734411775.2777655,-45.41015625,68.359375,-1.953125,-46.38671875,0.0
1734411775.2816715,-51.26953125,65.91796875,0.9765625,-49.8046875,0.0
1734411775.2855778,-36.62109375,62.98828125,2.9296875,-47.36328125,0.0
1734411775.2894838,-32.71484375,65.4296875,2.44140625,-28.3203125,0.0
1734411775.2933898,-44.921875,64.453125,1.46484375,-26.85546875,0.0
1734411775.2972958,-47.8515625,55.17578125,-2.9296875,-42.96875,0.0
1734411775.301202,-44.43359375,51.7578125,-6.34765625,-39.55078125,0.0
1734411775.305108,-42.96875,62.5,-7.32421875,-34.1796875,0.0
1734411775.309014,-39.55078125,65.91796875,-3.41796875,-41.50390625,0.0
1734411775.31292,-40.0390625,68.359375,-5.859375,-49.8046875,0.0
1734411775.316826,-43.45703125,84.9609375,-11.71875,-49.31640625,0.0
1734411775.3428297,-38.57421875,98.6328125,-7.8125,-39.0625,0.0
1734411775.346736,-38.0859375,100.5859375,-2.9296875,-32.2265625,0.0
1734411775.350642,-37.59765625,94.23828125,-5.859375,-42.48046875,0.0
1734411775.354548,-36.62109375,91.30859375,-8.30078125,-43.9453125,0.0
1734411775.3584542,-43.9453125,84.47265625,-13.18359375,-43.9453125,0.0
1734411775.3623602,-35.15625,81.54296875,-14.6484375,-38.0859375,0.0
1734411775.3662663,-28.80859375,77.63671875,-14.6484375,-31.25,0.0
1734411775.3701725,-48.33984375,71.77734375,-9.765625,-42.96875,0.0
1734411775.3740785,-60.546875,69.82421875,-2.44140625,-58.10546875,0.0
1734411775.3779845,-55.6640625,64.453125,-3.90625,-60.05859375,0.0
1734411775.3818905,-56.15234375,68.359375,-7.8125,-57.12890625,0.0
1734411775.3857968,-59.5703125,66.89453125,-10.7421875,-58.10546875,0.0
1734411775.3688986,-60.546875,52.24609375,-8.7890625,-64.453125,0.0
1734411775.3728046,-52.734375,50.29296875,-10.7421875,-55.6640625,0.0
1734411775.3767107,-50.78125,52.734375,-15.13671875,-52.24609375,0.0
1734411775.3806167,-52.24609375,50.78125,-13.18359375,-50.29296875,0.0
1734411775.384523,-42.96875,53.7109375,-8.7890625,-41.015625,0.0
1734411775.388429,-37.59765625,50.78125,-11.23046875,-35.64453125,0.0
1734411775.392335,-40.0390625,46.38671875,-12.20703125,-36.62109375,0.0
1734411775.396241,-34.66796875,51.26953125,-12.20703125,-40.52734375,0.0
1734411775.400147,-42.96875,54.6875,-12.6953125,-51.7578125,0.0
1734411775.4040532,-58.59375,48.828125,-18.5546875,-56.15234375,0.0
1734411775.4079592,-46.38671875,42.48046875,-17.578125,-44.43359375,0.0
1734411775.4118652,-31.73828125,33.203125,-16.11328125,-37.59765625,0.0
1734411775.410372,-32.71484375,29.78515625,-21.97265625,-38.57421875,0.0
1734411775.414278,-39.0625,35.15625,-20.01953125,-37.59765625,0.0
1734411775.418184,-44.43359375,34.66796875,-18.06640625,-34.1796875,0.0
1734411775.4220903,-44.921875,38.0859375,-17.578125,-33.203125,0.0
1734411775.4259963,-34.1796875,41.50390625,-12.6953125,-25.87890625,0.0
1734411775.4299023,-27.83203125,38.0859375,-18.5546875,-15.625,0.0
1734411775.4338083,-28.3203125,29.78515625,-23.92578125,-16.6015625,0.0
1734411775.4377143,-36.1328125,24.4140625,-20.5078125,-31.73828125,0.0
1734411775.4416206,-34.1796875,24.4140625,-20.01953125,-37.59765625,0.0
1734411775.4455266,-17.578125,25.87890625,-21.97265625,-35.15625,0.0
1734411775.4494326,-16.11328125,29.78515625,-19.53125,-38.57421875,0.0
1734411775.4533386,-23.92578125,22.4609375,-22.94921875,-40.0390625,0.0
1734411775.4782977,-20.99609375,10.7421875,-27.34375,-41.9921875,0.0
1734411775.482204,-10.7421875,12.6953125,-18.06640625,-31.73828125,0.0
1734411775.48611,-9.27734375,20.5078125,-17.578125,-27.83203125,0.0
1734411775.490016,-8.30078125,25.390625,-27.83203125,-46.875,0.0
1734411775.493922,-6.34765625,26.3671875,-24.4140625,-40.52734375,0.0
1734411775.4978282,-13.671875,28.3203125,-16.6015625,-25.390625,0.0
1734411775.5017343,-24.4140625,30.2734375,-11.23046875,-22.94921875,0.0
1734411775.5056403,-26.3671875,25.390625,-9.765625,-30.76171875,0.0
1734411775.5095463,-22.4609375,19.04296875,-11.71875,-42.96875,0.0
1734411775.5134525,-20.5078125,15.625,-10.25390625,-31.73828125,0.0
1734411775.5173585,-32.2265625,10.7421875,-19.04296875,-31.25,0.0
1734411775.5212646,-30.2734375,14.6484375,-22.94921875,-40.52734375,0.0
1734411775.516111,-31.25,12.6953125,-17.578125,-34.1796875,0.0
1734411775.5200171,-49.8046875,8.7890625,-20.5078125,-37.59765625,0.0
1734411775.5239232,-48.33984375,20.01953125,-16.6015625,-39.0625,0.0
1734411775.5278292,-35.64453125,24.4140625,-4.8828125,-24.4140625,0.0
1734411775.5317352,-29.296875,26.3671875,-3.41796875,-21.97265625,0.0
1734411775.5356414,-33.69140625,17.578125,-12.20703125,-30.2734375,0.0
1734411775.5395474,-34.66796875,7.8125,-19.53125,-38.57421875,0.0
1734411775.5434535,-35.64453125,11.71875,-22.94921875,-40.0390625,0.0
1734411775.5473595,-44.43359375,6.34765625,-29.296875,-43.9453125,0.0
1734411775.5512655,-46.38671875,10.25390625,-32.2265625,-45.8984375,0.0
1734411775.5551717,-35.15625,20.01953125,-22.94921875,-37.59765625,0.0
1734411775.5590777,-34.1796875,23.4375,-18.5546875,-27.83203125,0.0
1734411775.571632,-31.25,21.484375,-19.53125,-12.6953125,0.0
1734411775.575538,-31.25,16.6015625,-20.99609375,-11.71875,0.0
1734411775.579444,-32.71484375,19.53125,-23.92578125,-26.3671875,0.0
1734411775.5833502,-23.92578125,20.01953125,-29.296875,-30.2734375,0.0
1734411775.5872562,-25.87890625,19.04296875,-27.83203125,-31.25,0.0
1734411775.5911622,-27.34375,15.625,-27.83203125,-31.73828125,0.0
1734411775.5950682,-25.390625,19.04296875,-29.296875,-27.83203125,0.0
1734411775.5989745,-32.2265625,25.390625,-21.97265625,-20.99609375,0.0
1734411775.6028805,-31.25,23.4375,-20.5078125,-10.7421875,0.0
1734411775.6067865,-20.5078125,20.01953125,-27.83203125,-12.6953125,0.0
1734411775.6106925,-21.97265625,14.6484375,-33.69140625,-19.53125,0.0
1734411775.6145988,-31.25,13.18359375,-32.71484375,-28.80859375,0.0
1734411775.6067572,-33.203125,14.6484375,-30.2734375,-34.66796875,0.0
1734411775.6106632,-34.1796875,17.08984375,-27.83203125,-37.59765625,0.0
1734411775.6145692,-24.90234375,18.06640625,-27.34375,-37.109375,0.0
1734411775.6184754,-20.01953125,14.6484375,-28.3203125,-31.25,0.0
1734411775.6223814,-21.97265625,12.6953125,-30.76171875,-30.76171875,0.0
1734411775.6262875,-24.4140625,13.18359375,-32.2265625,-33.69140625,0.0
1734411775.6301935,-25.390625,8.7890625,-31.73828125,-31.25,0.0
1734411775.6340997,-21.97265625,2.9296875,-32.2265625,-23.4375,0.0
1734411775.6380057,-31.25,5.37109375,-28.3203125,-34.1796875,0.0
1734411775.6419117,-27.83203125,10.7421875,-21.97265625,-34.66796875,0.0
1734411775.6458178,-24.90234375,7.8125,-17.08984375,-21.484375,0.0
1734411775.6497238,-28.80859375,1.953125,-19.53125,-22.94921875,0.0
1734411775.649831,-27.83203125,6.8359375,-17.08984375,-25.87890625,0.0
1734411775.6537373,-19.04296875,15.625,-15.13671875,-32.71484375,0.0
1734411775.6576433,-23.92578125,12.6953125,-13.671875,-24.4140625,0.0
1734411775.6615493,-40.0390625,17.08984375,-16.11328125,-19.53125,0.0
1734411775.6654553,-26.85546875,21.97265625,-19.53125,-19.53125,0.0
1734411775.6693614,-6.34765625,33.69140625,-10.7421875,-17.578125,0.0
1734411775.6732676,-10.25390625,59.5703125,-6.8359375,-24.90234375,0.0
1734411775.6771736,-10.25390625,50.29296875,-6.34765625,-19.53125,0.0
1734411775.6810796,-9.27734375,32.71484375,-6.34765625,-20.99609375,0.0
1734411775.6849856,-21.97265625,39.55078125,-9.27734375,-20.99609375,0.0
1734411775.688892,-14.16015625,37.109375,-8.7890625,-13.18359375,0.0
1734411775.692798,-8.30078125,26.85546875,-11.23046875,-12.6953125,0.0
1734411775.694185,-21.484375,22.4609375,-18.5546875,-29.296875,0.0
1734411775.6980913,-22.4609375,21.484375,-19.53125,-33.69140625,0.0
1734411775.7019973,-21.97265625,22.94921875,-18.06640625,-31.25,0.0
1734411775.7059033,-19.53125,30.76171875,-15.13671875,-38.0859375,0.0
1734411775.7098093,-23.4375,30.2734375,-8.30078125,-30.2734375,0.0
1734411775.7137156,-26.85546875,26.85546875,-4.8828125,-22.94921875,0.0
1734411775.7176216,-20.01953125,20.01953125,-9.27734375,-14.16015625,0.0
1734411775.7215276,-23.4375,9.27734375,-12.20703125,-8.30078125,0.0
1734411775.7254336,-30.76171875,11.71875,-7.8125,-0.48828125,0.0
1734411775.7293396,-18.06640625,18.06640625,-1.953125,3.41796875,0.0
1734411775.7332458,-15.13671875,20.01953125,-2.9296875,-21.484375,0.0
1734411775.7371519,-32.2265625,11.71875,-8.30078125,-32.71484375,0.0
1734411775.7388637,-32.2265625,13.18359375,-10.25390625,-31.25,0.0
1734411775.7427697,-29.296875,8.30078125,-21.97265625,-31.25,0.0
1734411775.7466757,-27.34375,3.41796875,-27.83203125,-29.78515625,0.0
1734411775.750582,-19.53125,10.7421875,-20.99609375,-19.04296875,0.0
1734411775.754488,-22.4609375,15.625,-16.6015625,-8.7890625,0.0
1734411775.758394,-37.59765625,3.41796875,-18.06640625,-24.4140625,0.0
1734411775.7623,-32.71484375,-4.39453125,-19.04296875,-31.25,0.0
1734411775.766206,-27.34375,1.953125,-15.625,-31.25,0.0
1734411775.7701123,-22.4609375,2.9296875,-14.6484375,-33.203125,0.0
1734411775.7740183,-18.06640625,3.90625,-17.08984375,-25.87890625,0.0
1734411775.7779243,-22.4609375,1.46484375,-16.6015625,-22.94921875,0.0
1734411775.7818303,-21.97265625,-0.48828125,-17.08984375,-5.859375,0.0
1734411775.795668,-16.11328125,-5.859375,-21.97265625,-12.20703125,0.0
1734411775.799574,-12.6953125,-4.8828125,-22.4609375,-25.87890625,0.0
1734411775.8034801,-24.4140625,6.34765625,-20.99609375,-30.2734375,0.0
1734411775.8073862,-36.1328125,0.0,-23.4375,-27.34375,0.0
1734411775.8112922,-36.1328125,-5.37109375,-18.06640625,-38.0859375,0.0
1734411775.8151982,-33.203125,4.8828125,-14.6484375,-40.0390625,0.0
1734411775.8191044,-32.2265625,9.27734375,-16.6015625,-26.85546875,0.0
1734411775.8230104,-36.1328125,6.8359375,-17.08984375,-33.203125,0.0
1734411775.8269165,-33.69140625,0.48828125,-13.18359375,-40.52734375,0.0
1734411775.8308225,-29.78515625,-3.41796875,-8.30078125,-28.80859375,0.0
1734411775.8347287,-31.25,4.39453125,-4.39453125,-19.53125,0.0
1734411775.8386347,-21.97265625,10.7421875,0.48828125,-27.34375,0.0
1734411775.855142,-26.3671875,11.71875,-1.953125,-26.85546875,0.0
1734411775.8590484,-29.78515625,11.23046875,-2.44140625,-16.6015625,0.0
1734411775.8629544,-28.3203125,9.27734375,-4.39453125,-23.4375,0.0
1734411775.8668604,-30.2734375,10.7421875,-12.20703125,-33.203125,0.0
1734411775.8707666,-12.20703125,12.20703125,-13.18359375,-17.578125,0.0
1734411775.8746727,-10.25390625,6.34765625,-12.6953125,-10.7421875,0.0
1734411775.8785787,-27.34375,4.39453125,-6.8359375,-23.4375,0.0
1734411775.8824847,-33.203125,8.30078125,-3.41796875,-40.52734375,0.0
1734411775.886391,-35.64453125,10.7421875,-14.6484375,-41.015625,0.0
1734411775.890297,-30.2734375,12.20703125,-17.08984375,-25.87890625,0.0
1734411775.894203,-39.55078125,18.5546875,-13.18359375,-23.4375,0.0
1734411775.898109,-51.26953125,20.5078125,-7.8125,-36.1328125,0.0
1734411775.8906422,-47.36328125,17.578125,-6.34765625,-40.52734375,0.0
1734411775.8945482,-40.0390625,16.6015625,-15.625,-36.62109375,0.0
1734411775.8984542,-35.64453125,19.04296875,-16.6015625,-36.1328125,0.0
1734411775.9023602,-37.59765625,20.5078125,-15.13671875,-44.43359375,0.0
1734411775.9062662,-50.29296875,17.08984375,-17.08984375,-53.7109375,0.0
1734411775.9101725,-47.8515625,14.6484375,-18.5546875,-45.8984375,0.0
1734411775.9140785,-35.15625,8.7890625,-22.94921875,-38.57421875,0.0
1734411775.9179845,-26.85546875,5.37109375,-15.13671875,-37.109375,0.0
1734411775.9218905,-29.78515625,4.39453125,-8.30078125,-36.62109375,0.0
1734411775.9257967,-41.50390625,4.8828125,-8.7890625,-35.15625,0.0
1734411775.9297028,-41.9921875,3.90625,-10.25390625,-33.69140625,0.0
1734411775.9336088,-41.50390625,6.34765625,-11.71875,-39.0625,0.0
1734411775.9350784,-38.57421875,13.18359375,-7.32421875,-27.34375,0.0
1734411775.9389846,-38.0859375,12.20703125,-7.32421875,-22.94921875,0.0
1734411775.9428906,-42.96875,11.23046875,-11.71875,-37.59765625,0.0
1734411775.9467967,-38.0859375,13.18359375,-14.6484375,-35.64453125,0.0
1734411775.9507027,-27.34375,16.6015625,-9.27734375,-21.97265625,0.0
1734411775.954609,-14.16015625,17.578125,-4.8828125,-22.4609375,0.0
1734411775.958515,-8.7890625,24.4140625,-3.41796875,-21.97265625,0.0
1734411775.962421,-16.11328125,18.5546875,-4.39453125,-16.11328125,0.0
1734411775.966327,-16.6015625,14.6484375,-13.671875,-18.5546875,0.0
1734411775.970233,-23.92578125,28.80859375,-21.97265625,-19.53125,0.0
1734411775.9741392,-25.87890625,31.73828125,-27.34375,-30.76171875,0.0
1734411775.9780452,-24.90234375,17.578125,-32.2265625,-35.15625,0.0
1734411775.9794888,-21.97265625,10.7421875,-32.71484375,-32.71484375,0.0
1734411775.9833949,-26.85546875,12.6953125,-26.85546875,-44.921875,0.0
1734411775.987301,-43.9453125,15.625,-16.6015625,-51.7578125,0.0
1734411775.9912071,-40.52734375,19.04296875,-16.6015625,-48.828125,0.0
1734411775.9951131,-37.109375,14.6484375,-17.578125,-41.50390625,0.0
1734411775.9990191,-34.1796875,3.90625,-15.625,-36.62109375,0.0
1734411776.0029252,-41.50390625,7.8125,-20.01953125,-46.875,0.0
1734411776.0068314,-40.0390625,9.765625,-24.90234375,-40.0390625,0.0
1734411776.0107374,-25.390625,-1.953125,-28.80859375,-20.01953125,0.0
1734411776.0146434,-28.80859375,-3.90625,-26.85546875,-23.92578125,0.0
1734411776.0185494,-45.8984375,-6.34765625,-34.1796875,-33.69140625,0.0
1734411776.0224557,-64.94140625,-8.7890625,-47.36328125,-52.24609375,0.0
1734411776.0356212,-70.80078125,-16.11328125,-52.24609375,-63.96484375,0.0
1734411776.0395272,-68.359375,-23.4375,-56.15234375,-70.80078125,0.0
1734411776.0434334,-52.734375,-22.4609375,-57.6171875,-57.12890625,0.0
1734411776.0473394,-49.8046875,-20.01953125,-54.19921875,-41.50390625,0.0
1734411776.0512455,-59.5703125,-19.04296875,-46.875,-40.52734375,0.0
1734411776.0551515,-55.17578125,-19.04296875,-46.38671875,-48.33984375,0.0
1734411776.0590577,-44.43359375,-18.5546875,-53.22265625,-56.640625,0.0
1734411776.0629637,-41.015625,-19.53125,-58.10546875,-42.48046875,0.0
1734411776.0668697,-48.33984375,-11.71875,-58.59375,-40.0390625,0.0
1734411776.0707757,-53.22265625,-3.90625,-60.546875,-59.5703125,0.0
1734411776.074682,-56.15234375,-7.32421875,-63.96484375,-65.4296875,0.0
1734411776.078588,-51.7578125,-4.39453125,-62.01171875,-65.4296875,0.0
1734411776.070996,-41.50390625,-8.7890625,-55.6640625,-63.96484375,0.0
1734411776.074902,-41.50390625,-10.25390625,-56.640625,-61.5234375,0.0
1734411776.078808,-53.7109375,-17.08984375,-62.5,-71.77734375,0.0
1734411776.0827143,-46.38671875,-27.83203125,-65.4296875,-70.3125,0.0
1734411776.0866203,-48.33984375,-25.87890625,-67.3828125,-65.4296875,0.0
1734411776.0905263,-59.08203125,-32.71484375,-65.4296875,-73.2421875,0.0
1734411776.0944324,-62.98828125,-32.71484375,-63.4765625,-76.66015625,0.0
1734411776.0983384,-67.87109375,-20.01953125,-55.6640625,-65.4296875,0.0
1734411776.1022446,-66.89453125,-19.04296875,-54.19921875,-54.19921875,0.0
1734411776.1061506,-60.546875,-26.85546875,-57.12890625,-57.6171875,0.0
1734411776.1100566,-54.6875,-30.76171875,-53.22265625,-41.015625,0.0
1734411776.1139627,-56.15234375,-29.296875,-54.6875,-39.0625,0.0
1734411776.114764,-61.5234375,-26.3671875,-56.15234375,-59.5703125,0.0
1734411776.11867,-60.546875,-28.80859375,-55.6640625,-52.734375,0.0
1734411776.122576,-55.17578125,-23.92578125,-57.12890625,-48.33984375,0.0
1734411776.126482,-47.8515625,-23.4375,-56.15234375,-48.33984375,0.0
1734411776.130388,-48.33984375,-26.3671875,-56.15234375,-44.921875,0.0
1734411776.1342943,-53.7109375,-28.3203125,-55.6640625,-56.640625,0.0
1734411776.1382003,-59.5703125,-37.109375,-62.98828125,-52.24609375,0.0
1734411776.1421063,-53.22265625,-39.0625,-67.87109375,-51.7578125,0.0
1734411776.1460123,-50.78125,-37.109375,-63.4765625,-59.5703125,0.0
1734411776.1499183,-58.59375,-41.50390625,-62.5,-59.5703125,0.0
1734411776.1538246,-62.5,-40.52734375,-67.3828125,-69.82421875,0.0
1734411776.1577306,-67.87109375,-32.71484375,-72.75390625,-66.89453125,0.0
1734411776.159342,-59.08203125,-32.71484375,-78.125,-56.15234375,0.0
1734411776.163248,-52.24609375,-27.34375,-77.1484375,-56.640625,0.0
1734411776.167154,-55.6640625,-23.4375,-67.87109375,-65.4296875,0.0
1734411776.17106,-52.24609375,-24.90234375,-69.3359375,-64.94140625,0.0
1734411776.1749663,-49.31640625,-30.2734375,-72.265625,-52.734375,0.0
1734411776.1788723,-52.734375,-34.66796875,-64.94140625,-44.43359375,0.0
1734411776.1827784,-53.22265625,-23.92578125,-56.640625,-45.8984375,0.0
1734411776.1866844,-54.19921875,-17.08984375,-55.6640625,-52.24609375,0.0
1734411776.1905904,-56.15234375,-16.11328125,-62.5,-49.8046875,0.0
1734411776.1944966,-64.453125,-23.92578125,-70.80078125,-51.7578125,0.0
1734411776.1984026,-61.03515625,-29.296875,-67.3828125,-58.59375,0.0
1734411776.2023087,-50.29296875,-25.87890625,-62.98828125,-48.828125,0.0
1734411776.2157435,-45.8984375,-27.34375,-60.546875,-46.875,0.0
1734411776.2196496,-45.41015625,-28.80859375,-62.98828125,-54.19921875,0.0
1734411776.2235556,-48.33984375,-21.97265625,-62.01171875,-47.8515625,0.0
1734411776.2274616,-42.96875,-15.13671875,-56.640625,-36.62109375,0.0
1734411776.2313678,-34.1796875,-11.71875,-54.6875,-26.3671875,0.0
1734411776.2352738,-30.2734375,-23.92578125,-54.6875,-17.578125,0.0
1734411776.2391798,-24.4140625,-31.73828125,-47.8515625,-24.90234375,0.0
1734411776.2430859,-25.87890625,-23.4375,-42.96875,-32.71484375,0.0
1734411776.246992,-29.78515625,-24.4140625,-48.33984375,-34.1796875,0.0
1734411776.2508981,-22.94921875,-26.85546875,-50.29296875,-32.71484375,0.0
1734411776.2548041,-31.73828125,-18.5546875,-46.38671875,-29.296875,0.0
1734411776.2587101,-38.57421875,-14.6484375,-44.921875,-39.0625,0.0
1734411776.2754216,-41.50390625,-13.671875,-44.921875,-37.59765625,0.0
1734411776.2793276,-50.78125,-8.7890625,-41.9921875,-37.59765625,0.0
1734411776.2832336,-45.8984375,-0.48828125,-41.015625,-35.15625,0.0
1734411776.28714,-33.69140625,-0.9765625,-34.66796875,-30.2734375,0.0
1734411776.291046,-29.78515625,-15.13671875,-24.4140625,-33.203125,0.0
1734411776.294952,-34.66796875,-15.13671875,-23.4375,-36.1328125,0.0
1734411776.298858,-37.59765625,-12.20703125,-33.69140625,-43.45703125,0.0
1734411776.3027642,-29.78515625,-17.08984375,-31.73828125,-37.109375,0.0
1734411776.3066702,-26.85546875,-19.53125,-27.83203125,-22.4609375,0.0
1734411776.3105762,-26.85546875,-15.625,-31.25,-20.01953125,0.0
1734411776.3144822,-32.2265625,-5.37109375,-34.1796875,-29.78515625,0.0
1734411776.3183885,-38.0859375,-9.27734375,-36.1328125,-23.4375,0.0
1734411776.3113844,-36.1328125,-14.16015625,-29.296875,-30.76171875,0.0
1734411776.3152905,-25.390625,-12.6953125,-30.2734375,-42.96875,0.0
1734411776.3191965,-16.6015625,-7.32421875,-35.15625,-29.296875,0.0
1734411776.3231027,-18.5546875,-12.6953125,-37.109375,-35.64453125,0.0
1734411776.3270087,-22.94921875,-10.7421875,-32.2265625,-40.52734375,0.0
1734411776.3309147,-24.4140625,-4.39453125,-33.69140625,-32.2265625,0.0
1734411776.3348207,-18.5546875,-11.23046875,-41.015625,-27.83203125,0.0
1734411776.338727,-13.671875,-8.7890625,-37.109375,-21.97265625,0.0
1734411776.342633,-27.83203125,-2.9296875,-34.66796875,-31.25,0.0
1734411776.346539,-32.2265625,5.37109375,-38.0859375,-39.0625,0.0
1734411776.350445,-33.203125,3.41796875,-45.8984375,-37.59765625,0.0
1734411776.3543513,-38.0859375,-7.8125,-49.8046875,-36.1328125,0.0
1734411776.354041,-29.296875,1.46484375,-42.48046875,-32.71484375,0.0
1734411776.357947,-34.1796875,8.7890625,-41.50390625,-43.9453125,0.0
1734411776.3618531,-41.50390625,2.9296875,-45.41015625,-51.7578125,0.0
1734411776.3657591,-35.64453125,2.44140625,-42.48046875,-50.78125,0.0
1734411776.3696654,-23.92578125,10.7421875,-32.71484375,-38.0859375,0.0
1734411776.3735714,-25.390625,11.71875,-30.2734375,-17.08984375,0.0
1734411776.3774774,-20.99609375,4.39453125,-37.109375,-29.296875,0.0
1734411776.3813834,-21.97265625,-2.9296875,-37.59765625,-37.109375,0.0
1734411776.3852897,-29.296875,7.32421875,-37.109375,-26.85546875,0.0
1734411776.3891957,-31.25,19.53125,-37.59765625,-33.203125,0.0
1734411776.3931017,-34.1796875,12.20703125,-43.45703125,-30.2734375,0.0
1734411776.3970077,-35.64453125,12.20703125,-45.41015625,-31.25,0.0
1734411776.3991237,-39.0625,20.99609375,-44.921875,-33.69140625,0.0
1734411776.4030297,-43.45703125,23.92578125,-41.9921875,-32.71484375,0.0
1734411776.406936,-40.52734375,26.3671875,-39.55078125,-38.57421875,0.0
1734411776.410842,-32.2265625,29.78515625,-39.55078125,-37.109375,0.0
1734411776.414748,-39.0625,41.9921875,-37.109375,-26.3671875,0.0
1734411776.418654,-47.36328125,39.0625,-37.59765625,-32.2265625,0.0
1734411776.4225602,-47.36328125,23.4375,-41.50390625,-27.83203125,0.0
1734411776.4264662,-35.15625,24.4140625,-37.109375,-9.765625,0.0
1734411776.4303722,-27.83203125,32.71484375,-27.83203125,-16.11328125,0.0
1734411776.4342782,-26.85546875,34.1796875,-28.3203125,-37.59765625,0.0
1734411776.4381843,-14.16015625,31.73828125,-32.2265625,-37.109375,0.0
1734411776.4420905,-15.13671875,38.57421875,-33.203125,-20.5078125,0.0
1734411776.443688,-24.4140625,37.109375,-36.1328125,-21.97265625,0.0
1734411776.447594,-18.06640625,30.2734375,-37.109375,-19.53125,0.0
1734411776.4515002,-14.16015625,31.25,-36.1328125,-10.7421875,0.0
1734411776.4554062,-20.99609375,32.71484375,-31.73828125,-26.3671875,0.0
1734411776.4593122,-19.53125,26.3671875,-32.2265625,-26.3671875,0.0
1734411776.4632182,-14.16015625,21.484375,-30.76171875,-23.4375,0.0
1734411776.4671245,-8.7890625,33.69140625,-27.83203125,-25.390625,0.0
1734411776.4710305,-11.71875,44.921875,-24.90234375,-19.04296875,0.0
1734411776.4749365,-28.80859375,48.828125,-21.97265625,-20.99609375,0.0
1734411776.4788425,-35.15625,42.48046875,-21.97265625,-12.6953125,0.0
1734411776.4827485,-30.76171875,41.9921875,-20.5078125,-13.671875,0.0
1734411776.4866548,-31.73828125,43.45703125,-21.97265625,-24.90234375,0.0
1734411776.5132756,-35.15625,37.59765625,-26.3671875,-20.01953125,0.0
1734411776.5171819,-26.85546875,35.15625,-27.34375,-13.671875,0.0
1734411776.521088,-26.3671875,40.0390625,-31.73828125,-28.80859375,0.0
1734411776.524994,-26.3671875,48.828125,-34.66796875,-33.203125,0.0
1734411776.5289001,-21.97265625,41.015625,-32.71484375,-29.78515625,0.0
1734411776.5328062,-15.13671875,21.97265625,-36.1328125,-35.64453125,0.0
1734411776.5367122,-26.3671875,13.671875,-39.0625,-31.25,0.0
1734411776.5406182,-44.43359375,22.94921875,-38.0859375,-29.78515625,0.0
1734411776.5445244,-39.0625,24.90234375,-39.55078125,-41.015625,0.0
1734411776.5484304,-33.69140625,15.625,-38.57421875,-38.57421875,0.0
1734411776.5523365,-27.83203125,17.578125,-35.64453125,-38.0859375,0.0
1734411776.5562427,-22.94921875,19.04296875,-34.66796875,-24.4140625,0.0
1734411776.5395212,-21.484375,22.4609375,-34.1796875,-18.5546875,0.0
1734411776.5434272,-27.34375,22.4609375,-36.62109375,-37.59765625,0.0
1734411776.5473335,-20.01953125,18.06640625,-40.0390625,-32.71484375,0.0
1734411776.5512395,-11.71875,31.25,-35.64453125,-28.80859375,0.0
1734411776.5551455,-17.578125,32.71484375,-34.1796875,-22.94921875,0.0
1734411776.5590515,-28.80859375,13.18359375,-37.59765625,-20.99609375,0.0
1734411776.5629578,-31.73828125,10.7421875,-38.57421875,-33.69140625,0.0
1734411776.5668638,-34.66796875,23.92578125,-38.57421875,-40.0390625,0.0
1734411776.5707698,-29.78515625,19.53125,-31.73828125,-28.3203125,0.0
1734411776.5746758,-16.6015625,13.671875,-26.3671875,-19.04296875,0.0
1734411776.5785818,-25.87890625,20.5078125,-28.3203125,-28.3203125,0.0
1734411776.582488,-35.64453125,15.13671875,-28.3203125,-25.87890625,0.0
1734411776.6284435,-29.78515625,12.20703125,-17.578125,-22.4609375,0.0
1734411776.6323495,-20.99609375,13.671875,-16.11328125,-15.625,0.0
1734411776.6362557,-24.90234375,18.5546875,-23.92578125,-17.578125,0.0
1734411776.6401618,-30.76171875,19.04296875,-21.97265625,-29.78515625,0.0
1734411776.644068,-37.109375,9.27734375,-24.4140625,-35.64453125,0.0
1734411776.647974,-51.7578125,1.46484375,-33.69140625,-33.203125,0.0
1734411776.65188,-38.57421875,0.9765625,-30.76171875,-28.3203125,0.0
1734411776.6557863,-27.83203125,6.34765625,-25.390625,-39.0625,0.0
1734411776.6596923,-43.45703125,8.7890625,-28.3203125,-49.8046875,0.0
1734411776.6635983,-56.15234375,13.18359375,-36.1328125,-50.78125,0.0
1734411776.6675045,-46.38671875,11.23046875,-38.0859375,-54.6875,0.0
1734411776.6714106,-30.76171875,3.90625,-40.52734375,-52.734375,0.0
1734411776.647494,-29.78515625,6.8359375,-38.0859375,-48.828125,0.0
1734411776.6514,-44.921875,9.27734375,-31.73828125,-51.7578125,0.0
1734411776.655306,-46.38671875,6.34765625,-35.64453125,-45.41015625,0.0
1734411776.6592124,-30.76171875,21.484375,-30.76171875,-36.1328125,0.0
1734411776.6631184,-22.94921875,35.64453125,-24.4140625,-24.90234375,0.0
1734411776.6670244,-21.484375,34.66796875,-30.76171875,-20.99609375,0.0
1734411776.6709304,-36.1328125,41.50390625,-35.64453125,-27.34375,0.0
1734411776.6748366,-36.1328125,30.2734375,-36.1328125,-24.4140625,0.0
1734411776.6787426,-35.64453125,14.16015625,-43.45703125,-26.3671875,0.0
1734411776.6826487,-41.015625,19.04296875,-45.8984375,-38.0859375,0.0
1734411776.6865547,-40.52734375,15.13671875,-41.9921875,-51.7578125,0.0
1734411776.690461,-26.3671875,4.8828125,-32.2265625,-41.50390625,0.0
1734411776.6850886,-23.92578125,2.9296875,-27.34375,-34.66796875,0.0
1734411776.6889946,-33.69140625,3.41796875,-37.59765625,-42.96875,0.0
1734411776.6929007,-30.2734375,4.8828125,-41.50390625,-47.36328125,0.0
1734411776.696807,-28.3203125,5.37109375,-40.0390625,-49.8046875,0.0
1734411776.700713,-30.76171875,-9.765625,-40.0390625,-49.31640625,0.0
1734411776.704619,-31.25,-21.484375,-37.109375,-45.41015625,0.0
1734411776.708525,-27.34375,-19.04296875,-35.64453125,-49.31640625,0.0
1734411776.7124312,-22.94921875,-16.6015625,-34.1796875,-54.19921875,0.0
1734411776.7163372,-23.4375,-24.90234375,-38.57421875,-47.8515625,0.0
1734411776.7202432,-32.2265625,-18.5546875,-40.0390625,-48.828125,0.0
1734411776.7241492,-39.0625,-4.8828125,-35.15625,-51.26953125,0.0
1734411776.7280555,-33.69140625,-9.765625,-31.25,-41.50390625,0.0
1734411776.7416058,-20.01953125,0.0,-29.78515625,-28.80859375,0.0
1734411776.7455118,-22.4609375,2.9296875,-28.3203125,-27.34375,0.0
1734411776.7494178,-35.64453125,-11.23046875,-24.90234375,-30.76171875,0.0
1734411776.7533238,-39.0625,-8.30078125,-25.87890625,-27.34375,0.0
1734411776.75723,-35.64453125,-7.32421875,-28.80859375,-20.5078125,0.0
1734411776.761136,-30.2734375,-11.23046875,-24.4140625,-13.18359375,0.0
1734411776.765042,-26.3671875,-0.48828125,-25.390625,-19.04296875,0.0
1734411776.768948,-25.390625,-0.9765625,-26.85546875,-20.99609375,0.0
1734411776.7728543,-34.1796875,-7.32421875,-20.99609375,-23.92578125,0.0
1734411776.7767603,-42.96875,-5.859375,-17.578125,-38.0859375,0.0
1734411776.7806664,-45.41015625,-22.4609375,-30.2734375,-41.9921875,0.0
1734411776.7845726,-46.875,-25.390625,-44.921875,-49.8046875,0.0
1734411776.776222,-49.8046875,-16.11328125,-44.43359375,-54.19921875,0.0
1734411776.780128,-55.17578125,-15.625,-43.9453125,-52.24609375,0.0
1734411776.784034,-59.08203125,-24.90234375,-46.38671875,-59.08203125,0.0
1734411776.78794,-53.7109375,-23.4375,-37.109375,-59.08203125,0.0
1734411776.7918463,-43.45703125,-14.6484375,-30.2734375,-48.33984375,0.0
1734411776.7957523,-49.8046875,-15.625,-38.57421875,-49.8046875,0.0
1734411776.7996583,-59.5703125,-14.16015625,-41.50390625,-44.43359375,0.0
1734411776.8035643,-51.7578125,0.0,-33.69140625,-38.57421875,0.0
1734411776.8074706,-45.41015625,5.37109375,-35.15625,-50.78125,0.0
1734411776.8113766,-48.33984375,1.46484375,-41.50390625,-63.4765625,0.0
1734411776.8152826,-52.734375,-5.37109375,-47.36328125,-65.4296875,0.0
1734411776.8191886,-49.31640625,-9.27734375,-38.57421875,-49.31640625,0.0
1734411776.818727,-53.22265625,0.9765625,-23.92578125,-41.015625,0.0
1734411776.8226333,-70.3125,-1.953125,-29.78515625,-56.15234375,0.0
1734411776.8265393,-69.3359375,-2.44140625,-33.203125,-60.546875,0.0
1734411776.8304453,-51.26953125,5.859375,-36.1328125,-54.6875,0.0
1734411776.8343513,-48.33984375,5.37109375,-43.45703125,-51.26953125,0.0
1734411776.8382576,-56.640625,4.39453125,-37.109375,-44.921875,0.0
1734411776.8421636,-55.17578125,6.34765625,-32.71484375,-46.38671875,0.0
1734411776.8460696,-49.8046875,6.34765625,-31.25,-45.8984375,0.0
1734411776.8499756,-43.9453125,19.04296875,-25.87890625,-47.36328125,0.0
1734411776.8538816,-40.52734375,19.04296875,-24.4140625,-38.57421875,0.0
1734411776.8577878,-45.8984375,8.7890625,-23.4375,-33.203125,0.0
1734411776.8616939,-46.38671875,15.625,-15.13671875,-43.9453125,0.0
1734411776.8647714,-34.1796875,24.4140625,-13.671875,-40.52734375,0.0
1734411776.8686774,-27.83203125,15.13671875,-20.99609375,-45.8984375,0.0
1734411776.8725834,-30.2734375,7.8125,-25.390625,-48.33984375,0.0
1734411776.8764894,-31.73828125,20.01953125,-20.99609375,-40.52734375,0.0
1734411776.8803954,-24.4140625,20.99609375,-14.6484375,-30.2734375,0.0
1734411776.8843017,-17.08984375,12.6953125,-21.97265625,-26.3671875,0.0
1734411776.8882077,-18.06640625,16.6015625,-31.25,-29.296875,0.0
1734411776.8921137,-23.4375,24.4140625,-28.3203125,-29.296875,0.0
1734411776.8960197,-20.99609375,15.13671875,-22.4609375,-32.71484375,0.0
1734411776.8999257,-26.3671875,0.9765625,-23.92578125,-31.25,0.0
1734411776.903832,-31.25,3.90625,-19.04296875,-29.78515625,0.0
1734411776.907738,-25.390625,12.20703125,-15.13671875,-33.69140625,0.0
1734411776.9089332,-28.3203125,11.71875,-17.578125,-40.52734375,0.0
1734411776.9128392,-33.69140625,8.30078125,-13.671875,-31.73828125,0.0
1734411776.9167452,-38.0859375,11.23046875,-8.30078125,-24.90234375,0.0
1734411776.9206514,-34.66796875,15.13671875,-13.671875,-36.1328125,0.0
1734411776.9245574,-38.0859375,11.23046875,-19.04296875,-44.921875,0.0
1734411776.9284635,-40.52734375,0.0,-27.34375,-53.22265625,0.0
1734411776.9323695,-36.1328125,0.48828125,-28.80859375,-51.26953125,0.0
1734411776.9362755,-42.48046875,4.8828125,-31.73828125,-55.6640625,0.0
1734411776.9401817,-38.0859375,1.953125,-36.62109375,-53.7109375,0.0
1734411776.9440877,-27.83203125,-3.90625,-30.76171875,-44.921875,0.0
1734411776.9479938,-32.2265625,-5.37109375,-28.3203125,-34.1796875,0.0
1734411776.9518998,-37.59765625,2.9296875,-26.3671875,-25.390625,0.0
1734411776.978534,-32.71484375,4.8828125,-25.87890625,-33.69140625,0.0
1734411776.98244,-18.06640625,5.37109375,-33.203125,-35.15625,0.0
1734411776.9863462,-21.484375,5.859375,-33.203125,-37.59765625,0.0
1734411776.9902523,-31.25,4.8828125,-25.87890625,-34.1796875,0.0
1734411776.9941583,-22.94921875,7.8125,-20.01953125,-19.53125,0.0
1734411776.9980645,-30.76171875,-1.46484375,-19.53125,-21.97265625,0.0
1734411777.0019705,-38.0859375,1.46484375,-18.5546875,-33.203125,0.0
1734411777.0058765,-29.78515625,2.9296875,-18.5546875,-37.59765625,0.0
1734411777.0097826,-25.390625,-10.25390625,-20.01953125,-36.62109375,0.0
1734411777.0136888,-14.6484375,5.859375,-7.32421875,-21.97265625,0.0
1734411777.0175948,-9.765625,28.3203125,4.8828125,-12.20703125,0.0
1734411777.0215008,-7.8125,34.66796875,5.859375,-13.671875,0.0
1734411777.0158088,3.41796875,30.76171875,8.30078125,1.953125,0.0
1734411777.0197148,7.32421875,30.2734375,16.11328125,11.23046875,0.0
1734411777.0236208,7.8125,38.0859375,17.08984375,-0.9765625,0.0
1734411777.0275269,7.8125,38.57421875,15.13671875,0.9765625,0.0
1734411777.031433,8.30078125,39.0625,12.6953125,7.32421875,0.0
1734411777.035339,13.671875,41.015625,8.7890625,4.8828125,0.0
1734411777.0392451,12.6953125,45.8984375,17.578125,8.7890625,0.0
1734411777.0431511,4.8828125,55.17578125,24.4140625,14.16015625,0.0
1734411777.0470574,-2.9296875,42.48046875,22.4609375,3.41796875,0.0
1734411777.0509634,-6.8359375,27.34375,19.04296875,-4.8828125,0.0
1734411777.0548694,-2.9296875,26.3671875,19.04296875,-5.37109375,0.0
1734411777.0587754,10.7421875,17.578125,16.11328125,-3.90625,0.0
1734411777.0593472,11.71875,12.6953125,6.8359375,-2.44140625,0.0
1734411777.0632532,-17.08984375,18.5546875,5.37109375,0.9765625,0.0
1734411777.0671594,-32.71484375,19.53125,7.8125,-8.30078125,0.0
1734411777.0710654,-26.3671875,17.08984375,7.32421875,-15.625,0.0
1734411777.0749714,-23.92578125,16.6015625,-0.9765625,-15.13671875,0.0
1734411777.0788774,-18.06640625,15.13671875,-1.46484375,-15.13671875,0.0
1734411777.0827837,-20.5078125,3.41796875,3.41796875,-14.16015625,0.0
1734411777.0866897,-24.90234375,0.9765625,4.39453125,-13.671875,0.0
1734411777.0905957,-14.16015625,13.18359375,11.23046875,-0.9765625,0.0
1734411777.0945017,-11.71875,16.6015625,11.71875,0.9765625,0.0
1734411777.098408,-11.23046875,14.16015625,4.39453125,-6.8359375,0.0
1734411777.102314,-6.8359375,17.578125,2.9296875,-0.9765625,0.0
1734411777.1039448,-5.859375,19.53125,4.8828125,7.32421875,0.0
1734411777.1078508,-9.765625,17.578125,3.41796875,-6.34765625,0.0
1734411777.1117568,-15.625,8.7890625,2.9296875,-13.671875,0.0
1734411777.1156628,-18.06640625,2.44140625,5.859375,-17.08984375,0.0
1734411777.119569,-28.80859375,0.48828125,1.46484375,-29.78515625,0.0
1734411777.123475,-16.11328125,13.18359375,4.39453125,-16.6015625,0.0
1734411777.127381,-1.46484375,17.08984375,13.18359375,-9.765625,0.0
1734411777.131287,0.48828125,3.90625,14.16015625,-6.34765625,0.0
1734411777.135193,-3.90625,2.44140625,8.30078125,-1.46484375,0.0
1734411777.1390994,-22.94921875,8.30078125,2.9296875,-21.97265625,0.0
1734411777.1430054,-31.73828125,7.32421875,5.37109375,-27.83203125,0.0
1734411777.1469114,-17.578125,3.90625,5.859375,-22.94921875,0.0
1734411777.1489434,-12.6953125,3.90625,11.23046875,-19.53125,0.0
1734411777.1528494,-34.66796875,3.41796875,14.16015625,-8.30078125,0.0
1734411777.1567554,-40.52734375,-5.37109375,0.48828125,-22.4609375,0.0
1734411777.1606615,-46.875,-11.23046875,-5.859375,-48.828125,0.0
1734411777.1645677,-48.828125,-12.20703125,-0.48828125,-50.78125,0.0
1734411777.1684737,-36.62109375,-10.25390625,-3.90625,-48.33984375,0.0
1734411777.1723797,-41.50390625,-0.9765625,-6.34765625,-51.7578125,0.0
1734411777.1762857,-42.48046875,0.0,0.48828125,-37.109375,0.0
1734411777.1801918,-37.59765625,-3.90625,2.44140625,-29.296875,0.0
1734411777.184098,-21.97265625,4.8828125,4.39453125,-13.671875,0.0
1734411777.188004,-13.18359375,7.8125,-0.9765625,-11.71875,0.0
1734411777.19191,-45.8984375,-2.44140625,-6.8359375,-51.26953125,0.0
1734411777.1939654,-55.17578125,-3.41796875,-5.37109375,-52.24609375,0.0
1734411777.1978714,-35.64453125,7.8125,-11.23046875,-34.66796875,0.0
1734411777.2017775,-37.59765625,7.8125,-14.16015625,-38.0859375,0.0
1734411777.2056835,-46.38671875,6.34765625,-6.8359375,-48.828125,0.0
1734411777.2095897,-55.17578125,5.859375,4.8828125,-58.59375,0.0
1734411777.2134957,-72.265625,-0.48828125,10.7421875,-62.5,0.0
1734411777.2174017,-76.171875,-12.20703125,12.20703125,-54.19921875,0.0
1734411777.2213078,-77.1484375,-19.53125,1.953125,-58.59375,0.0
1734411777.2252138,-67.3828125,-4.8828125,-6.34765625,-55.17578125,0.0
1734411777.22912,-52.24609375,-2.9296875,-6.8359375,-42.48046875,0.0
1734411777.233026,-42.96875,-8.7890625,-4.8828125,-46.38671875,0.0
1734411777.236932,-44.921875,-6.34765625,-0.9765625,-37.109375,0.0
1734411777.2387393,-64.94140625,-1.46484375,-4.8828125,-35.64453125,0.0
1734411777.2426453,-64.453125,-9.27734375,-9.27734375,-55.17578125,0.0
1734411777.2465513,-47.36328125,-14.16015625,-3.90625,-58.59375,0.0
1734411777.2504575,-50.78125,-4.39453125,2.44140625,-60.546875,0.0
1734411777.2543635,-66.89453125,8.30078125,-8.30078125,-63.4765625,0.0
1734411777.2582695,-54.19921875,6.34765625,-13.671875,-48.33984375,0.0
1734411777.2621756,-45.41015625,-5.37109375,-9.765625,-41.9921875,0.0
1734411777.2660816,-43.45703125,-2.44140625,-17.08984375,-40.0390625,0.0
1734411777.2699878,-33.69140625,-0.48828125,-18.06640625,-32.71484375,0.0
1734411777.2738938,-37.59765625,-8.30078125,-16.11328125,-38.0859375,0.0
1734411777.2777998,-44.921875,-9.765625,-11.23046875,-49.31640625,0.0
1734411777.2817059,-44.921875,-1.953125,-9.765625,-58.10546875,0.0
1734411777.2837787,-35.64453125,-0.9765625,-17.578125,-56.15234375,0.0
1734411777.2876847,-34.1796875,-7.32421875,-20.01953125,-34.1796875,0.0
1734411777.291591,-37.109375,-2.9296875,-20.01953125,-30.2734375,0.0
1734411777.295497,-44.43359375,8.30078125,-17.578125,-44.43359375,0.0
1734411777.299403,-51.7578125,-7.32421875,-21.484375,-49.8046875,0.0
1734411777.303309,-47.8515625,-21.484375,-20.01953125,-49.31640625,0.0
1734411777.307215,-50.78125,-10.7421875,-13.18359375,-59.5703125,0.0
1734411777.3111212,-49.8046875,-4.39453125,-19.53125,-61.03515625,0.0
1734411777.3150272,-33.69140625,-6.8359375,-24.4140625,-38.57421875,0.0
1734411777.3189332,-32.71484375,-10.25390625,-21.484375,-23.4375,0.0
1734411777.3228393,-35.15625,-11.71875,-24.4140625,-41.015625,0.0
1734411777.3267453,-20.5078125,-3.41796875,-27.83203125,-44.43359375,0.0
1734411777.3415515,2.9296875,2.9296875,-29.78515625,-33.203125,0.0
1734411777.3454576,-6.8359375,2.9296875,-30.2734375,-31.25,0.0
1734411777.3493636,-27.83203125,-7.8125,-30.76171875,-31.73828125,0.0
1734411777.3532696,-18.06640625,-10.25390625,-30.2734375,-40.0390625,0.0
1734411777.3571758,-12.20703125,-3.90625,-30.2734375,-34.1796875,0.0
1734411777.3610818,-9.27734375,0.0,-35.15625,-32.2265625,0.0
1734411777.3649879,-12.20703125,-0.9765625,-34.66796875,-29.296875,0.0
1734411777.3688939,-17.578125,-4.39453125,-30.76171875,-21.97265625,0.0
1734411777.3728,-17.08984375,-4.8828125,-30.2734375,-22.94921875,0.0
1734411777.3767061,-17.578125,0.9765625,-30.76171875,-16.6015625,0.0
1734411777.3806121,-19.04296875,0.0,-28.3203125,-10.7421875,0.0
1734411777.3845181,-25.87890625,-15.13671875,-25.390625,-16.6015625,0.0
1734411777.4147875,-23.92578125,-23.92578125,-30.2734375,-20.01953125,0.0
1734411777.4186938,-10.25390625,-20.01953125,-30.2734375,-16.6015625,0.0
1734411777.4225998,-9.27734375,-15.625,-22.94921875,-20.01953125,0.0
1734411777.4265058,-23.92578125,-19.04296875,-26.85546875,-25.390625,0.0
1734411777.430412,-27.34375,-24.90234375,-22.94921875,-17.578125,0.0
1734411777.434318,-29.78515625,-22.4609375,-22.94921875,-20.01953125,0.0
1734411777.438224,-38.57421875,-18.06640625,-29.78515625,-29.296875,0.0
1734411777.4421303,-37.59765625,-10.7421875,-25.87890625,-33.69140625,0.0
1734411777.4460363,-25.87890625,-21.484375,-24.90234375,-22.4609375,0.0
1734411777.4499424,-27.34375,-31.25,-25.87890625,-2.9296875,0.0
1734411777.4538486,-36.62109375,-21.484375,-21.97265625,-13.18359375,0.0
1734411777.4577546,-33.69140625,-29.296875,-22.4609375,-31.25,0.0
1734411777.4634593,-29.296875,-30.2734375,-25.87890625,-27.83203125,0.0
1734411777.4673655,-23.92578125,-20.5078125,-24.90234375,-23.4375,0.0
1734411777.4712715,-36.1328125,-21.97265625,-24.4140625,-39.55078125,0.0
1734411777.4751775,-32.71484375,-20.99609375,-25.390625,-39.55078125,0.0
1734411777.4790838,-25.390625,-23.92578125,-20.5078125,-35.15625,0.0
1734411777.4829898,-30.76171875,-23.4375,-17.08984375,-43.45703125,0.0
1734411777.4868958,-33.203125,-13.18359375,-20.99609375,-38.0859375,0.0
1734411777.490802,-28.3203125,-10.25390625,-23.92578125,-27.83203125,0.0
1734411777.494708,-18.5546875,-13.671875,-18.5546875,-16.11328125,0.0
1734411777.498614,-9.27734375,-7.8125,-10.7421875,-2.44140625,0.0
1734411777.5025203,-3.41796875,-5.859375,-3.90625,-9.27734375,0.0
1734411777.5064263,-14.6484375,-10.25390625,-4.8828125,-23.4375,0.0
1734411777.4846816,-24.4140625,-13.671875,-13.18359375,-34.66796875,0.0
1734411777.4885879,-38.57421875,-17.08984375,-17.578125,-41.9921875,0.0
1734411777.4924939,-43.9453125,-21.484375,-15.13671875,-35.15625,0.0
1734411777.4963999,-35.64453125,-25.390625,-14.6484375,-32.2265625,0.0
1734411777.500306,-29.78515625,-16.6015625,-15.13671875,-15.625,0.0
1734411777.5042121,-16.11328125,-8.30078125,-4.8828125,-14.6484375,0.0
1734411777.5081182,-20.01953125,-19.53125,0.9765625,-36.62109375,0.0
1734411777.5120242,-27.34375,-24.90234375,-7.8125,-42.48046875,0.0
1734411777.5159302,-23.4375,-17.08984375,-9.765625,-36.1328125,0.0
1734411777.5198364,-20.5078125,-13.671875,-7.8125,-32.71484375,0.0
1734411777.5237424,-21.97265625,-13.18359375,-11.23046875,-31.73828125,0.0
1734411777.5276484,-28.80859375,-15.625,-8.7890625,-31.73828125,0.0
1734411777.5249257,-2.9296875,-10.25390625,-1.953125,-2.44140625,0.0
1734411777.528832,29.296875,-2.9296875,0.9765625,25.390625,0.0
1734411777.532738,-6.8359375,2.9296875,-6.8359375,-11.23046875,0.0
1734411777.536644,-36.62109375,5.37109375,-10.7421875,-35.15625,0.0
1734411777.54055,-28.3203125,7.32421875,-6.34765625,-31.73828125,0.0
1734411777.544456,-43.9453125,11.71875,-7.8125,-60.05859375,0.0
1734411777.5483623,-51.26953125,17.578125,-15.13671875,-81.54296875,0.0
1734411777.5522683,-26.85546875,19.04296875,-21.484375,-52.734375,0.0
1734411777.5561743,-31.73828125,23.92578125,-23.92578125,-32.2265625,0.0
1734411777.5600803,-41.50390625,29.296875,-28.3203125,-66.40625,0.0
1734411777.5639863,-37.59765625,25.390625,-30.2734375,-89.84375,0.0
1734411777.5678926,-25.390625,30.2734375,-27.83203125,-67.3828125,0.0
1734411777.581329,-16.6015625,32.71484375,-33.69140625,-65.4296875,0.0
1734411777.5852354,-35.15625,19.53125,-37.59765625,-89.35546875,0.0
1734411777.5891414,-37.59765625,13.671875,-35.64453125,-81.0546875,0.0
1734411777.5930474,-24.4140625,21.484375,-34.1796875,-56.640625,0.0
1734411777.5969534,-7.32421875,33.203125,-31.73828125,-43.45703125,0.0
1734411777.6008596,-0.9765625,37.109375,-29.296875,-52.24609375,0.0
1734411777.6047657,-14.16015625,37.59765625,-33.69140625,-53.22265625,0.0
1734411777.6086717,-10.25390625,43.45703125,-35.15625,-35.15625,0.0
1734411777.6125777,-6.34765625,43.45703125,-35.15625,-39.0625,0.0
1734411777.616484,-0.48828125,40.52734375,-41.50390625,-44.921875,0.0
1734411777.62039,5.37109375,40.0390625,-41.015625,-35.64453125,0.0
1734411777.624296,-11.71875,32.71484375,-33.69140625,-44.921875,0.0
1734411777.616553,-24.90234375,33.203125,-31.25,-54.19921875,0.0
1734411777.620459,-28.80859375,32.2265625,-31.25,-46.38671875,0.0
1734411777.6243653,-26.3671875,27.83203125,-36.62109375,-51.7578125,0.0
1734411777.6282713,-17.578125,30.2734375,-43.45703125,-62.5,0.0
1734411777.6321774,-18.06640625,28.80859375,-43.9453125,-62.5,0.0
1734411777.6360834,-24.4140625,25.390625,-42.48046875,-55.6640625,0.0
1734411777.6399894,-22.4609375,30.76171875,-39.55078125,-54.6875,0.0
1734411777.6438956,-19.04296875,34.1796875,-39.55078125,-45.41015625,0.0
1734411777.6478016,-18.5546875,36.1328125,-38.57421875,-33.203125,0.0
1734411777.6517076,-16.11328125,45.41015625,-38.57421875,-40.52734375,0.0
1734411777.6556137,-6.34765625,41.015625,-46.875,-34.66796875,0.0
1734411777.6595197,14.16015625,33.203125,-40.0390625,-15.625,0.0
1734411777.6592376,17.578125,27.34375,-29.296875,-8.30078125,0.0
1734411777.6631436,-11.23046875,22.94921875,-26.85546875,-24.4140625,0.0
1734411777.66705,-33.203125,21.97265625,-26.3671875,-44.921875,0.0
1734411777.670956,-47.36328125,23.4375,-33.203125,-62.98828125,0.0
1734411777.674862,-49.8046875,25.87890625,-39.55078125,-59.5703125,0.0
1734411777.678768,-24.4140625,20.01953125,-43.9453125,-41.015625,0.0
1734411777.682674,-3.41796875,24.90234375,-42.96875,-39.55078125,0.0
1734411777.6865802,-8.30078125,38.57421875,-38.57421875,-40.52734375,0.0
1734411777.6904862,-30.76171875,40.0390625,-40.52734375,-31.25,0.0
1734411777.6943922,-40.0390625,33.69140625,-40.52734375,-37.59765625,0.0
1734411777.6982982,-35.64453125,33.203125,-34.66796875,-52.734375,0.0
1734411777.7022042,-9.765625,48.33984375,-33.203125,-39.55078125,0.0
1734411777.7152824,4.8828125,42.48046875,-41.015625,-31.25,0.0
1734411777.7191887,5.37109375,28.80859375,-40.52734375,-31.73828125,0.0
1734411777.7230947,-5.37109375,32.71484375,-31.73828125,-27.83203125,0.0
1734411777.7270007,-16.11328125,35.64453125,-33.69140625,-20.01953125,0.0
1734411777.7309067,-1.953125,41.015625,-32.71484375,-14.6484375,0.0
1734411777.734813,12.20703125,44.43359375,-31.73828125,-18.5546875,0.0
1734411777.738719,7.8125,44.43359375,-43.45703125,-22.4609375,0.0
1734411777.742625,8.30078125,48.33984375,-43.45703125,-21.484375,0.0
1734411777.746531,17.08984375,51.26953125,-37.59765625,-2.9296875,0.0
1734411777.750437,31.25,52.24609375,-47.36328125,6.34765625,0.0
1734411777.7543433,37.59765625,54.19921875,-51.26953125,-3.90625,0.0
1734411777.7582493,22.94921875,49.31640625,-50.29296875,-4.39453125,0.0
1734411777.7629285,33.203125,43.45703125,-53.7109375,14.6484375,0.0
1734411777.7668345,47.36328125,46.38671875,-52.24609375,30.2734375,0.0
1734411777.7707407,37.59765625,43.45703125,-53.7109375,9.27734375,0.0
1734411777.7746468,34.66796875,38.57421875,-51.26953125,-5.859375,0.0
1734411777.7785528,51.7578125,39.0625,-44.43359375,14.6484375,0.0
1734411777.7824588,62.01171875,41.015625,-46.875,30.76171875,0.0
1734411777.786365,49.8046875,48.828125,-48.828125,17.578125,0.0
1734411777.790271,47.36328125,53.7109375,-47.36328125,29.296875,0.0
1734411777.794177,51.26953125,44.921875,-51.26953125,39.0625,0.0
1734411777.798083,47.36328125,49.8046875,-55.17578125,21.97265625,0.0
1734411777.801989,42.96875,52.24609375,-48.828125,16.11328125,0.0
1734411777.8058953,59.5703125,36.1328125,-51.7578125,37.59765625,0.0
1734411777.8090067,73.2421875,29.296875,-62.01171875,58.10546875,0.0
1734411777.8129127,62.5,32.2265625,-59.08203125,43.9453125,0.0
1734411777.8168187,40.0390625,38.0859375,-54.6875,22.4609375,0.0
1734411777.8207247,24.4140625,46.875,-56.15234375,13.18359375,0.0
1734411777.8246307,15.13671875,58.10546875,-58.59375,9.27734375,0.0
1734411777.828537,36.1328125,59.5703125,-62.98828125,26.85546875,0.0
1734411777.832443,60.546875,40.52734375,-68.359375,57.12890625,0.0
1734411777.836349,60.05859375,32.2265625,-72.75390625,42.48046875,0.0
1734411777.840255,50.78125,32.2265625,-68.84765625,29.78515625,0.0
1734411777.8441613,32.71484375,22.4609375,-66.40625,21.97265625,0.0
1734411777.8480673,31.25,23.92578125,-69.82421875,15.13671875,0.0
1734411777.8519733,41.50390625,23.4375,-62.01171875,39.0625,0.0
1734411777.853628,47.8515625,21.97265625,-63.96484375,40.0390625,0.0
1734411777.8575342,44.921875,30.76171875,-71.2890625,22.4609375,0.0
1734411777.8614402,30.76171875,33.69140625,-78.61328125,18.06640625,0.0
1734411777.8653462,18.06640625,42.48046875,-81.54296875,19.04296875,0.0
1734411777.8692522,19.53125,46.875,-81.54296875,23.4375,0.0
1734411777.8731582,27.83203125,28.3203125,-79.58984375,18.5546875,0.0
1734411777.8770645,32.2265625,27.83203125,-76.66015625,10.7421875,0.0
1734411777.8809705,25.390625,31.25,-88.8671875,19.04296875,0.0
1734411777.8848765,17.578125,30.2734375,-96.19140625,16.11328125,0.0
1734411777.8887825,6.8359375,30.76171875,-97.65625,0.48828125,0.0
1734411777.8926888,-1.953125,18.5546875,-102.05078125,-2.9296875,0.0
1734411777.8965948,-1.953125,15.13671875,-108.3984375,-10.7421875,0.0
1734411777.8989952,15.625,31.73828125,-115.72265625,1.46484375,0.0
1734411777.9029012,52.734375,40.52734375,-120.60546875,28.80859375,0.0
1734411777.9068072,53.22265625,18.06640625,-107.91015625,33.69140625,0.0
1734411777.9107132,10.7421875,-1.953125,-89.84375,-0.9765625,0.0
1734411777.9146194,-27.83203125,-4.39453125,-100.09765625,-29.78515625,0.0
1734411777.9185255,-38.0859375,-5.859375,-106.93359375,-26.3671875,0.0
1734411777.9224315,-33.69140625,-7.8125,-103.515625,-24.4140625,0.0
1734411777.9263375,-39.55078125,-12.6953125,-107.421875,-23.92578125,0.0
1734411777.9302435,-57.12890625,-10.7421875,-109.375,-38.57421875,0.0
1734411777.9341497,-63.4765625,-9.765625,-106.4453125,-50.29296875,0.0
1734411777.9380558,-54.6875,-12.6953125,-105.95703125,-31.73828125,0.0
1734411777.9419618,-69.3359375,-24.90234375,-107.91015625,-28.80859375,0.0
1734411777.9439645,-71.77734375,-37.109375,-110.3515625,-39.0625,0.0
1734411777.9478705,-54.19921875,-36.1328125,-118.1640625,-25.390625,0.0
1734411777.9517765,-44.921875,-42.96875,-125.0,-6.8359375,0.0
1734411777.9556825,-54.6875,-51.26953125,-120.60546875,-22.4609375,0.0
1734411777.9595888,-80.56640625,-60.05859375,-125.0,-38.57421875,0.0
1734411777.9634948,-87.40234375,-65.4296875,-133.30078125,-55.17578125,0.0
1734411777.9674008,-68.84765625,-62.5,-130.859375,-47.8515625,0.0
1734411777.9713068,-59.5703125,-61.03515625,-127.44140625,-18.5546875,0.0
1734411777.975213,-78.125,-53.22265625,-134.27734375,-37.59765625,0.0
1734411777.979119,-65.91796875,-53.22265625,-145.5078125,-43.9453125,0.0
1734411777.983025,-55.6640625,-63.96484375,-141.11328125,-25.390625,0.0
1734411777.986931,-72.75390625,-69.3359375,-138.18359375,-40.52734375,0.0
1734411777.9889638,-71.77734375,-73.2421875,-146.97265625,-62.98828125,0.0
1734411777.9928699,-66.89453125,-79.58984375,-152.34375,-44.921875,0.0
1734411777.9967759,-56.640625,-71.77734375,-145.99609375,-14.16015625,0.0
1734411778.0006819,-40.0390625,-65.4296875,-136.71875,-0.9765625,0.0
1734411778.004588,-28.3203125,-74.21875,-139.16015625,-5.37109375,0.0
1734411778.0084941,-15.13671875,-81.54296875,-141.6015625,-0.9765625,0.0
1734411778.0124002,-14.6484375,-87.40234375,-147.94921875,3.41796875,0.0
1734411778.0163062,-28.80859375,-87.40234375,-153.3203125,-5.37109375,0.0
1734411778.0202122,-35.15625,-92.7734375,-158.69140625,-20.01953125,0.0
1734411778.0241182,-15.13671875,-94.23828125,-160.15625,-4.39453125,0.0
1734411778.0280244,8.7890625,-95.703125,-160.64453125,26.85546875,0.0
1734411778.0319304,8.7890625,-101.07421875,-168.9453125,21.97265625,0.0
1734411778.047127,-13.18359375,-98.6328125,-174.8046875,3.90625,0.0
1734411778.051033,-13.18359375,-99.609375,-178.7109375,7.8125,0.0
1734411778.054939,11.23046875,-97.16796875,-180.17578125,23.92578125,0.0
1734411778.058845,3.41796875,-96.6796875,-187.01171875,25.87890625,0.0
1734411778.0627513,2.44140625,-94.23828125,-187.5,35.64453125,0.0
1734411778.0666573,13.671875,-94.7265625,-187.98828125,43.9453125,0.0
1734411778.0705633,12.6953125,-97.65625,-192.3828125,46.38671875,0.0
1734411778.0744693,18.06640625,-92.7734375,-193.359375,40.52734375,0.0
1734411778.0783756,28.80859375,-100.5859375,-200.68359375,29.78515625,0.0
1734411778.0822816,22.94921875,-110.83984375,-202.1484375,34.1796875,0.0
1734411778.0861876,18.5546875,-107.421875,-202.63671875,35.15625,0.0
1734411778.0900936,26.3671875,-98.6328125,-200.1953125,46.38671875,0.0
1734411778.0938673,45.41015625,-95.703125,-195.80078125,59.08203125,0.0
1734411778.0977733,58.59375,-98.14453125,-203.61328125,72.265625,0.0
1734411778.1016796,72.265625,-90.8203125,-207.03125,83.49609375,0.0
1734411778.1055856,68.359375,-91.796875,-201.66015625,84.47265625,0.0
1734411778.1094916,46.38671875,-107.421875,-204.58984375,87.40234375,0.0
1734411778.1133976,53.7109375,-116.69921875,-207.51953125,83.0078125,0.0
1734411778.1173038,68.84765625,-112.3046875,-202.63671875,72.75390625,0.0
1734411778.1212099,66.40625,-111.328125,-205.078125,76.171875,0.0
1734411778.1251159,69.3359375,-108.88671875,-217.28515625,76.171875,0.0
1734411778.129022,70.80078125,-106.93359375,-223.6328125,74.70703125,0.0
1734411778.1329281,63.96484375,-106.4453125,-221.6796875,76.171875,0.0
1734411778.1368341,70.80078125,-111.328125,-224.12109375,79.1015625,0.0
1734411778.1398327,69.82421875,-124.51171875,-225.5859375,74.70703125,0.0
1734411778.1437387,64.94140625,-128.41796875,-223.14453125,62.98828125,0.0
1734411778.1476448,59.5703125,-124.0234375,-214.35546875,61.5234375,0.0
1734411778.151551,56.15234375,-121.58203125,-215.33203125,63.4765625,0.0
1734411778.155457,62.98828125,-125.0,-230.46875,68.84765625,0.0
1734411778.159363,76.66015625,-129.8828125,-234.375,76.66015625,0.0
1734411778.163269,75.1953125,-129.39453125,-230.46875,87.40234375,0.0
1734411778.1671753,68.359375,-128.41796875,-230.46875,85.44921875,0.0
1734411778.1710813,83.0078125,-131.34765625,-229.00390625,86.9140625,0.0
1734411778.1749873,90.8203125,-125.48828125,-224.609375,86.9140625,0.0
1734411778.1788933,84.9609375,-121.09375,-223.6328125,73.73046875,0.0
1734411778.1827996,78.125,-130.37109375,-227.05078125,71.77734375,0.0
1734411778.1843262,71.2890625,-134.27734375,-227.05078125,69.3359375,0.0
1734411778.1882322,84.47265625,-132.32421875,-224.609375,72.75390625,0.0
1734411778.1921382,88.8671875,-133.7890625,-213.37890625,79.58984375,0.0
1734411778.1960442,79.1015625,-133.30078125,-213.8671875,82.03125,0.0
1734411778.1999505,76.66015625,-137.20703125,-235.83984375,85.9375,0.0
1734411778.2038565,75.1953125,-139.16015625,-230.95703125,93.26171875,0.0
1734411778.2077625,73.2421875,-128.41796875,-209.9609375,87.890625,0.0
1734411778.2116685,69.3359375,-130.37109375,-195.80078125,80.078125,0.0
1734411778.2155747,72.75390625,-125.0,-183.59375,78.125,0.0
1734411778.2194808,78.61328125,-113.28125,-178.22265625,84.47265625,0.0
1734411778.2233868,79.58984375,-116.69921875,-183.59375,83.984375,0.0
1734411778.2272928,75.1953125,-117.1875,-183.10546875,77.63671875,0.0
1734411778.229007,83.984375,-123.046875,-170.41015625,86.9140625,0.0
1734411778.232913,98.6328125,-116.69921875,-164.55078125,89.84375,0.0
1734411778.236819,86.42578125,-105.95703125,-171.875,86.9140625,0.0
1734411778.2407253,66.40625,-103.515625,-172.36328125,89.84375,0.0
1734411778.2446313,68.359375,-96.19140625,-159.1796875,84.9609375,0.0
1734411778.2485373,85.9375,-82.51953125,-148.92578125,76.66015625,0.0
1734411778.2524433,107.91015625,-76.66015625,-140.625,80.078125,0.0
1734411778.2563496,112.3046875,-88.37890625,-140.625,90.8203125,0.0
1734411778.2602556,90.8203125,-84.47265625,-136.23046875,89.84375,0.0
1734411778.2641616,67.87109375,-67.87109375,-131.8359375,69.3359375,0.0
1734411778.2680676,61.03515625,-70.80078125,-120.60546875,58.59375,0.0
1734411778.2719736,67.3828125,-78.61328125,-115.72265625,58.10546875,0.0
1734411778.2739463,68.84765625,-75.68359375,-124.51171875,57.12890625,0.0
1734411778.2778523,60.05859375,-75.68359375,-106.4453125,51.26953125,0.0
1734411778.2817585,61.5234375,-82.03125,-90.33203125,51.7578125,0.0
1734411778.2856646,74.70703125,-68.359375,-69.3359375,69.3359375,0.0
1734411778.2895706,99.12109375,-56.15234375,-16.6015625,95.21484375,0.0
1734411778.2934766,96.6796875,-72.75390625,4.39453125,94.7265625,0.0
1734411778.2973828,67.87109375,-76.171875,4.8828125,71.77734375,0.0
1734411778.3012888,54.19921875,-69.82421875,-1.953125,71.77734375,0.0
1734411778.3051949,45.41015625,-65.4296875,-21.484375,61.5234375,0.0
1734411778.3091009,50.78125,-60.05859375,-17.578125,53.7109375,0.0
1734411778.3130069,70.80078125,-61.5234375,-3.41796875,64.453125,0.0
1734411778.3169131,77.1484375,-58.59375,-0.48828125,68.359375,0.0
1734411778.319611,75.1953125,-44.43359375,8.30078125,77.1484375,0.0
1734411778.323517,73.2421875,-45.8984375,7.32421875,78.61328125,0.0
1734411778.327423,83.984375,-54.19921875,-1.953125,78.61328125,0.0
1734411778.331329,84.9609375,-47.8515625,-6.34765625,79.1015625,0.0
