timestamps,TP9,AF7,AF8,TP10,Right AUX
1734412803.1629295,-68.359375,-67.87109375,-110.83984375,-48.33984375,0.0
1734412803.1668348,-62.01171875,-67.3828125,-113.76953125,-56.640625,0.0
1734412803.17074,-31.25,-66.40625,-120.60546875,-60.546875,0.0
1734412803.1746452,-41.015625,-61.5234375,-132.8125,-61.03515625,0.0
1734412803.1785505,-71.2890625,-62.01171875,-139.6484375,-66.89453125,0.0
1734412803.1824555,-59.5703125,-66.89453125,-144.53125,-62.5,0.0
1734412803.1863608,-42.96875,-67.3828125,-150.390625,-56.15234375,0.0
1734412803.190266,-54.6875,-73.73046875,-152.34375,-52.24609375,0.0
1734412803.1941712,-59.08203125,-67.3828125,-156.73828125,-56.640625,0.0
1734412803.1980765,-61.03515625,-62.5,-162.59765625,-59.08203125,0.0
1734412803.2019815,-72.75390625,-64.94140625,-164.0625,-51.7578125,0.0
1734412803.2059069,-50.29296875,-65.91796875,-172.36328125,-66.89453125,0.0
1734412803.209812,-29.296875,-55.17578125,-177.24609375,-66.40625,0.0
1734412803.2137172,-45.41015625,-50.29296875,-179.19921875,-49.8046875,0.0
1734412803.2176223,-46.38671875,-59.5703125,-183.10546875,-61.5234375,0.0
1734412803.2215276,-46.875,-62.98828125,-189.453125,-70.80078125,0.0
1734412803.2254329,-57.6171875,-71.77734375,-193.359375,-64.94140625,0.0
1734412803.229338,-35.15625,-70.80078125,-195.80078125,-65.91796875,0.0
1734412803.2332432,-34.1796875,-63.4765625,-192.3828125,-58.10546875,0.0
1734412803.2371485,-70.80078125,-63.4765625,-186.03515625,-56.640625,0.0
1734412803.2410536,-77.1484375,-59.5703125,-184.5703125,-66.40625,0.0
1734412803.2449589,-63.96484375,-54.6875,-179.19921875,-56.15234375,0.0
1734412803.2488642,-37.59765625,-51.7578125,-173.33984375,-56.15234375,0.0
1734412803.252774,-56.15234375,-52.734375,-171.38671875,-75.1953125,0.0
1734412803.2566793,-78.125,-48.828125,-167.48046875,-72.265625,0.0
1734412803.2605846,-68.359375,-46.38671875,-163.57421875,-66.40625,0.0
1734412803.2644897,-72.75390625,-44.43359375,-157.71484375,-70.3125,0.0
1734412803.268395,-75.68359375,-40.52734375,-151.85546875,-70.3125,0.0
1734412803.2723002,-67.3828125,-42.96875,-150.390625,-62.01171875,0.0
1734412803.2762053,-72.75390625,-46.875,-142.08984375,-57.6171875,0.0
1734412803.2801106,-78.61328125,-46.875,-137.20703125,-65.4296875,0.0
1734412803.284016,-75.1953125,-42.96875,-137.20703125,-72.75390625,0.0
1734412803.287921,-75.68359375,-39.0625,-128.41796875,-68.84765625,0.0
1734412803.2918262,-84.9609375,-41.50390625,-121.09375,-64.453125,0.0
1734412803.2957313,-81.54296875,-42.96875,-114.74609375,-55.6640625,0.0
1734412803.2996533,-85.9375,-31.73828125,-109.86328125,-62.98828125,0.0
1734412803.3035586,-89.35546875,-31.73828125,-105.46875,-72.265625,0.0
1734412803.3074636,-68.359375,-35.15625,-95.21484375,-64.94140625,0.0
1734412803.311369,-74.21875,-35.64453125,-86.9140625,-61.5234375,0.0
1734412803.3152742,-83.0078125,-35.64453125,-84.47265625,-60.05859375,0.0
1734412803.3191793,-67.87109375,-37.109375,-81.0546875,-65.4296875,0.0
1734412803.3230846,-81.0546875,-38.0859375,-77.63671875,-58.10546875,0.0
1734412803.32699,-91.796875,-40.0390625,-70.3125,-51.26953125,0.0
1734412803.330895,-73.2421875,-44.921875,-62.01171875,-69.3359375,0.0
1734412803.3348002,-83.0078125,-43.9453125,-54.6875,-74.70703125,0.0
1734412803.3387053,-88.37890625,-41.9921875,-49.8046875,-64.94140625,0.0
1734412803.3426106,-80.56640625,-42.48046875,-46.38671875,-56.640625,0.0
1734412803.3465176,-93.75,-39.55078125,-33.69140625,-68.84765625,0.0
1734412803.3504229,-90.33203125,-45.41015625,-31.25,-70.80078125,0.0
1734412803.354328,-86.42578125,-55.6640625,-31.25,-64.94140625,0.0
1734412803.3582332,-86.42578125,-51.26953125,-22.4609375,-70.3125,0.0
1734412803.3621385,-83.984375,-52.24609375,-20.5078125,-65.91796875,0.0
1734412803.3660436,-89.84375,-61.5234375,-25.87890625,-63.4765625,0.0
1734412803.3699489,-98.14453125,-60.546875,-29.296875,-78.125,0.0
1734412803.373854,-93.75,-61.5234375,-27.34375,-65.91796875,0.0
1734412803.3777592,-82.51953125,-63.4765625,-23.92578125,-61.5234375,0.0
1734412803.3816645,-94.7265625,-59.08203125,-24.90234375,-62.98828125,0.0
1734412803.3855696,-77.1484375,-56.640625,-28.3203125,-42.96875,0.0
1734412803.3894749,-80.078125,-52.734375,-32.2265625,-63.96484375,0.0
1734412803.3933797,-76.171875,-45.41015625,-38.57421875,-72.265625,0.0
1734412803.3972847,-68.84765625,-44.921875,-38.0859375,-61.03515625,0.0
1734412803.40119,-75.68359375,-46.38671875,-38.57421875,-57.6171875,0.0
1734412803.4050953,-78.125,-44.921875,-39.55078125,-41.50390625,0.0
1734412803.4090004,-69.3359375,-46.38671875,-36.1328125,-40.52734375,0.0
1734412803.4129057,-48.828125,-53.7109375,-39.0625,-45.8984375,0.0
1734412803.416811,-56.640625,-54.6875,-40.52734375,-48.828125,0.0
1734412803.420716,-66.40625,-44.43359375,-44.921875,-54.6875,0.0
1734412803.4246213,-59.5703125,-41.50390625,-51.7578125,-49.31640625,0.0
1734412803.4285266,-71.77734375,-41.9921875,-50.78125,-49.31640625,0.0
1734412803.4324317,-71.77734375,-41.015625,-52.734375,-60.546875,0.0
1734412803.436337,-62.5,-42.96875,-61.03515625,-52.734375,0.0
1734412803.4402664,-52.734375,-40.52734375,-59.08203125,-47.36328125,0.0
1734412803.4441717,-48.828125,-38.57421875,-56.640625,-43.9453125,0.0
1734412803.4480767,-1.953125,-29.296875,-70.3125,3.41796875,0.0
1734412803.451982,17.08984375,-27.83203125,-78.61328125,10.7421875,0.0
1734412803.455887,-58.59375,-48.828125,-67.3828125,-58.10546875,0.0
1734412803.4597924,-94.23828125,-53.7109375,-51.26953125,-84.47265625,0.0
1734412803.4636977,-96.19140625,-46.875,-42.48046875,-76.171875,0.0
1734412803.4676027,-67.3828125,-51.26953125,-46.875,-54.6875,0.0
1734412803.471508,-50.78125,-53.22265625,-48.33984375,-18.06640625,0.0
1734412803.4754133,-81.0546875,-59.5703125,-40.0390625,-36.62109375,0.0
1734412803.4793184,-75.68359375,-51.26953125,-48.33984375,-61.03515625,0.0
1734412803.4832237,-49.31640625,-40.52734375,-63.4765625,-42.48046875,0.0
1734412803.4871385,-60.05859375,-45.8984375,-64.453125,-26.3671875,0.0
1734412803.4910438,-58.59375,-41.015625,-62.5,-17.08984375,0.0
1734412803.494949,-32.71484375,-31.73828125,-65.4296875,-2.9296875,0.0
1734412803.4988542,-40.52734375,-35.15625,-64.453125,-8.7890625,0.0
1734412803.5027595,-44.43359375,-35.15625,-60.05859375,-12.6953125,0.0
1734412803.5066648,-45.8984375,-36.1328125,-62.01171875,-20.01953125,0.0
1734412803.5105698,-39.0625,-26.85546875,-64.94140625,-26.3671875,0.0
1734412803.514475,-20.01953125,-18.06640625,-64.94140625,-23.92578125,0.0
1734412803.5183802,-49.8046875,-25.390625,-62.98828125,-37.59765625,0.0
1734412803.5222855,-59.08203125,-18.06640625,-62.01171875,-43.45703125,0.0
1734412803.5261908,-41.50390625,-10.7421875,-59.08203125,-34.66796875,0.0
1734412803.5300958,-55.6640625,-18.06640625,-53.7109375,-33.69140625,0.0
1734412803.5340085,-61.5234375,-20.99609375,-55.17578125,-34.66796875,0.0
1734412803.5379138,-48.33984375,-14.16015625,-54.6875,-33.203125,0.0
1734412803.541819,-42.96875,-11.71875,-55.6640625,-36.1328125,0.0
1734412803.5457242,-45.41015625,-14.16015625,-52.734375,-44.43359375,0.0
1734412803.5496294,-43.45703125,-17.578125,-47.8515625,-49.8046875,0.0
1734412803.5535345,-38.57421875,-25.390625,-49.8046875,-42.48046875,0.0
1734412803.5574398,-47.36328125,-22.4609375,-55.6640625,-30.76171875,0.0
1734412803.561345,-41.9921875,-17.578125,-57.12890625,-41.015625,0.0
1734412803.5652502,-29.78515625,-24.90234375,-47.8515625,-30.2734375,0.0
1734412803.5691555,-51.7578125,-21.97265625,-37.59765625,-26.85546875,0.0
1734412803.5730608,-59.5703125,-15.13671875,-35.15625,-37.109375,0.0
1734412803.5769658,-43.9453125,-21.484375,-35.15625,-37.109375,0.0
1734412803.58088,-37.59765625,-23.4375,-32.2265625,-30.2734375,0.0
1734412803.5847852,-40.0390625,-22.4609375,-32.2265625,-17.578125,0.0
1734412803.5886903,-48.33984375,-21.484375,-23.92578125,-33.69140625,0.0
1734412803.5925956,-42.96875,-22.4609375,-17.08984375,-34.1796875,0.0
1734412803.5965009,-37.109375,-19.04296875,-18.5546875,-23.4375,0.0
1734412803.600406,-30.2734375,-18.06640625,-16.11328125,-23.4375,0.0
1734412803.6043112,-19.04296875,-18.5546875,-11.23046875,-14.16015625,0.0
1734412803.6082165,-21.97265625,-10.7421875,-8.7890625,-24.4140625,0.0
1734412803.6121216,-31.73828125,-3.41796875,-13.671875,-40.52734375,0.0
1734412803.6160269,-8.7890625,-0.9765625,-19.04296875,-29.78515625,0.0
1734412803.6199322,-0.9765625,-5.859375,-22.4609375,-10.7421875,0.0
1734412803.6238372,-9.27734375,-15.13671875,-20.99609375,-2.9296875,0.0
1734412803.6277485,-16.6015625,-14.6484375,-20.01953125,-14.16015625,0.0
1734412803.6316538,-39.0625,-15.625,-19.53125,-16.6015625,0.0
1734412803.6355588,-12.20703125,-20.99609375,-12.6953125,-7.8125,0.0
1734412803.6394641,15.13671875,-20.5078125,-5.859375,5.859375,0.0
1734412803.6433694,-12.6953125,-9.765625,-4.8828125,1.46484375,0.0
1734412803.6472745,-22.4609375,-9.27734375,-7.32421875,-4.8828125,0.0
1734412803.6511798,-2.9296875,-20.99609375,-4.8828125,-1.46484375,0.0
1734412803.655085,-9.765625,-24.90234375,-4.39453125,8.7890625,0.0
1734412803.6589901,-15.13671875,-16.6015625,3.41796875,-0.48828125,0.0
1734412803.6628954,-16.11328125,-14.16015625,11.23046875,-15.13671875,0.0
1734412803.6668007,-25.87890625,-17.08984375,14.6484375,-8.7890625,0.0
1734412803.6707058,-22.94921875,-18.06640625,16.11328125,-11.23046875,0.0
1734412803.674615,-29.296875,-24.90234375,12.6953125,-17.578125,0.0
1734412803.6785202,-30.76171875,-30.2734375,5.859375,-18.06640625,0.0
1734412803.6824255,-29.78515625,-29.78515625,-0.9765625,-23.4375,0.0
1734412803.6863306,-31.73828125,-29.296875,1.953125,-19.04296875,0.0
1734412803.6902359,-28.3203125,-29.78515625,2.9296875,-13.18359375,0.0
1734412803.6941411,-26.85546875,-28.80859375,4.8828125,-24.4140625,0.0
1734412803.6980462,-17.578125,-27.83203125,15.625,-11.71875,0.0
1734412803.7019515,-23.92578125,-24.90234375,25.87890625,-8.30078125,0.0
1734412803.7058568,-41.50390625,-25.87890625,25.87890625,-22.94921875,0.0
1734412803.7097619,-38.0859375,-29.78515625,19.04296875,-13.18359375,0.0
1734412803.7136672,-36.62109375,-31.25,14.16015625,-19.04296875,0.0
1734412803.7175725,-37.59765625,-25.390625,13.671875,-25.390625,0.0
1734412803.7214806,-46.875,-23.4375,15.13671875,-31.73828125,0.0
1734412803.725386,-51.26953125,-34.66796875,11.71875,-37.109375,0.0
1734412803.7292912,-53.7109375,-35.15625,7.32421875,-32.2265625,0.0
1734412803.7331963,-54.6875,-21.484375,12.20703125,-32.71484375,0.0
1734412803.7371016,-44.43359375,-21.484375,16.11328125,-40.52734375,0.0
1734412803.7410066,-52.24609375,-30.76171875,11.23046875,-29.296875,0.0
1734412803.744912,-64.453125,-28.80859375,12.20703125,-14.16015625,0.0
1734412803.7488172,-46.875,-16.11328125,21.484375,-26.3671875,0.0
1734412803.7527223,-59.08203125,-16.6015625,24.90234375,-38.57421875,0.0
1734412803.7566276,-61.5234375,-20.5078125,21.97265625,-37.109375,0.0
1734412803.7605329,-45.41015625,-20.5078125,24.4140625,-31.73828125,0.0
1734412803.764438,-47.8515625,-18.5546875,26.85546875,-43.45703125,0.0
1734412803.7683444,0.0,-21.97265625,20.01953125,-54.19921875,0.0
1734412803.7722497,0.0,-23.4375,20.99609375,-47.36328125,0.0
1734412803.776155,0.0,-19.53125,20.99609375,-33.203125,0.0
1734412803.78006,0.0,-21.97265625,18.06640625,-4.39453125,0.0
1734412803.7839653,0.0,-25.87890625,26.3671875,-3.90625,0.0
1734412803.7878706,0.0,-20.5078125,14.6484375,-68.359375,0.0
1734412803.7917757,0.0,-12.20703125,2.44140625,-83.0078125,0.0
1734412803.795681,0.0,-7.8125,4.8828125,-52.24609375,0.0
1734412803.799586,0.0,-5.859375,-7.8125,-35.15625,0.0
1734412803.8034914,0.0,-14.6484375,-4.39453125,-17.578125,0.0
1734412803.8073967,0.0,-22.94921875,13.18359375,-28.3203125,0.0
1734412803.8113017,0.0,-18.5546875,16.6015625,-36.62109375,0.0
1734412803.815219,-34.1796875,-12.6953125,18.06640625,-33.203125,0.0
1734412803.8191242,-37.109375,-20.99609375,22.4609375,-27.34375,0.0
1734412803.8230295,-44.43359375,-23.92578125,21.97265625,-26.3671875,0.0
1734412803.8269346,-50.78125,-26.85546875,20.99609375,-40.52734375,0.0
1734412803.8308399,-42.48046875,-34.1796875,20.99609375,-43.45703125,0.0
1734412803.834745,-42.48046875,-32.71484375,21.97265625,-39.0625,0.0
1734412803.8386502,-49.31640625,-23.4375,21.484375,-45.8984375,0.0
1734412803.8425555,-37.59765625,-17.08984375,24.4140625,-48.33984375,0.0
1734412803.8464606,-42.48046875,-27.34375,27.34375,-43.45703125,0.0
1734412803.8503659,-51.26953125,-33.203125,23.92578125,-32.71484375,0.0
1734412803.8542712,-46.875,-28.3203125,27.34375,-41.015625,0.0
1734412803.8581762,-49.8046875,-34.1796875,28.3203125,-56.640625,0.0
1734412803.8620923,-61.5234375,-39.0625,24.90234375,-59.5703125,0.0
1734412803.8659976,-53.22265625,-31.73828125,24.90234375,-56.640625,0.0
1734412803.8699028,-50.29296875,-33.69140625,21.484375,-49.8046875,0.0
1734412803.873808,-49.8046875,-39.55078125,21.97265625,-61.5234375,0.0
1734412803.8777132,-51.26953125,-39.55078125,22.94921875,-66.40625,0.0
1734412803.8816185,-66.89453125,-45.41015625,16.11328125,-61.5234375,0.0
1734412803.8855236,-59.5703125,-46.38671875,13.18359375,-51.7578125,0.0
1734412803.8894289,-56.15234375,-41.015625,14.6484375,-47.36328125,0.0
1734412803.8933342,-57.6171875,-42.96875,14.6484375,-33.69140625,0.0
1734412803.8972392,-53.22265625,-43.45703125,5.37109375,-40.52734375,0.0
1734412803.9011445,-45.41015625,-40.52734375,-0.48828125,-55.6640625,0.0
1734412803.9050498,-70.3125,-40.0390625,2.44140625,-40.52734375,0.0
1734412803.90899,-59.08203125,-42.96875,-3.41796875,-37.109375,0.0
1734412803.9128952,-51.7578125,-41.015625,-10.25390625,-36.1328125,0.0
1734412803.9168003,-53.7109375,-36.1328125,-8.7890625,-46.38671875,0.0
1734412803.9207056,-55.6640625,-30.2734375,-9.765625,-46.38671875,0.0
1734412803.9246109,-63.96484375,-29.296875,-8.7890625,-45.41015625,0.0
1734412803.928516,-56.15234375,-31.25,-5.859375,-50.29296875,0.0
1734412803.9324212,-70.3125,-30.76171875,-6.34765625,-45.41015625,0.0
1734412803.9363265,-61.5234375,-39.0625,-12.20703125,-53.7109375,0.0
1734412803.9402316,-31.73828125,-52.734375,-16.6015625,-41.015625,0.0
1734412803.9441369,-42.96875,-42.48046875,-13.671875,-33.69140625,0.0
1734412803.948042,-60.546875,-33.69140625,-19.53125,-38.57421875,0.0
1734412803.9519472,-62.5,-36.62109375,-30.76171875,-45.41015625,0.0
1734412803.95586,0.0,-27.34375,-31.73828125,-56.640625,0.0
1734412803.959765,0.0,-18.5546875,-35.64453125,-51.7578125,0.0
1734412803.9636703,0.0,-26.85546875,-52.24609375,-46.38671875,0.0
1734412803.9675756,0.0,-34.1796875,-57.6171875,-43.9453125,0.0
1734412803.9714806,0.0,-30.2734375,-50.78125,-46.875,0.0
1734412803.975386,0.0,-31.25,-39.0625,-49.8046875,0.0
1734412803.9792912,0.0,-35.15625,-36.62109375,-52.24609375,0.0
1734412803.9831963,0.0,-35.15625,-35.64453125,-45.8984375,0.0
1734412803.9871016,0.0,-33.203125,-32.2265625,-57.12890625,0.0
1734412803.9910069,0.0,-30.2734375,-40.0390625,-75.1953125,0.0
1734412803.994912,0.0,-36.62109375,-45.8984375,-70.3125,0.0
1734412803.9988172,0.0,-45.8984375,-42.48046875,-57.6171875,0.0
1734412804.002729,-68.84765625,-42.96875,-40.0390625,-54.6875,0.0
1734412804.0066342,-59.08203125,-33.203125,-29.296875,-52.734375,0.0
1734412804.0105393,-57.6171875,-32.2265625,-24.90234375,-54.19921875,0.0
1734412804.0144446,-55.6640625,-36.1328125,-25.390625,-50.29296875,0.0
1734412804.01835,-58.59375,-38.57421875,-20.5078125,-54.6875,0.0
1734412804.022255,-67.87109375,-38.0859375,-22.4609375,-51.26953125,0.0
1734412804.0261602,-64.453125,-42.48046875,-20.99609375,-37.109375,0.0
1734412804.0300653,-49.31640625,-48.828125,-10.25390625,-22.94921875,0.0
1734412804.0339706,-42.48046875,-33.69140625,-2.9296875,-20.5078125,0.0
1734412804.037876,-59.08203125,-28.3203125,0.9765625,-22.94921875,0.0
1734412804.041781,-48.828125,-33.203125,8.7890625,-25.390625,0.0
1734412804.0456862,-34.66796875,-32.71484375,13.18359375,-41.015625,0.0
1734412804.0496085,-49.8046875,-34.66796875,17.08984375,-34.1796875,0.0
1734412804.0535138,-57.12890625,-35.15625,23.92578125,-44.43359375,0.0
1734412804.0574188,-55.17578125,-33.69140625,22.4609375,-37.59765625,0.0
1734412804.0613241,-47.8515625,-31.73828125,14.16015625,-20.5078125,0.0
1734412804.0652294,-57.6171875,-27.34375,14.16015625,-33.69140625,0.0
1734412804.0691345,-49.31640625,-23.92578125,20.01953125,-36.1328125,0.0
1734412804.0730398,-28.80859375,-26.3671875,23.92578125,-23.92578125,0.0
1734412804.076945,-58.59375,-26.3671875,24.90234375,-20.5078125,0.0
1734412804.0808501,-56.640625,-24.90234375,20.5078125,-33.69140625,0.0
1734412804.0847554,-47.36328125,-30.76171875,24.4140625,-43.9453125,0.0
1734412804.0886607,-62.01171875,-31.25,37.59765625,-38.57421875,0.0
1734412804.0925658,-42.48046875,-26.85546875,42.96875,-28.80859375,0.0
1734412804.0964746,-36.1328125,-24.90234375,42.96875,-35.15625,0.0
1734412804.1003797,-48.33984375,-30.76171875,44.43359375,-36.1328125,0.0
1734412804.104285,-41.50390625,-32.71484375,44.921875,-30.76171875,0.0
1734412804.1081903,-36.1328125,-28.3203125,47.36328125,-33.69140625,0.0
1734412804.1120954,-52.734375,-35.15625,53.7109375,-51.7578125,0.0
1734412804.1160007,-59.5703125,-39.55078125,61.03515625,-55.6640625,0.0
1734412804.119906,-45.41015625,-36.1328125,61.5234375,-47.36328125,0.0
1734412804.123811,-55.17578125,-35.15625,65.91796875,-29.296875,0.0
1734412804.1277163,-51.7578125,-37.109375,71.2890625,-33.69140625,0.0
1734412804.1316216,-43.9453125,-35.64453125,72.75390625,-51.26953125,0.0
1734412804.1355267,-57.6171875,-35.15625,71.2890625,-28.3203125,0.0
1734412804.139432,-66.89453125,-34.66796875,68.84765625,-37.59765625,0.0
1734412804.1433382,-58.10546875,-38.57421875,69.3359375,-42.96875,0.0
1734412804.1472435,-30.2734375,-37.109375,62.98828125,-41.50390625,0.0
1734412804.1511488,-44.43359375,-39.0625,57.12890625,-66.89453125,0.0
1734412804.1550539,-62.01171875,-46.875,61.03515625,-61.03515625,0.0
1734412804.1589592,-50.29296875,-45.8984375,58.10546875,-52.24609375,0.0
1734412804.1628644,-49.31640625,-42.96875,52.734375,-48.828125,0.0
1734412804.1667695,-56.15234375,-42.48046875,50.29296875,-46.875,0.0
1734412804.1706748,-41.50390625,-41.015625,48.33984375,-40.52734375,0.0
1734412804.17458,-42.96875,-43.45703125,41.9921875,-31.73828125,0.0
1734412804.1784852,-72.75390625,-42.96875,33.69140625,-48.33984375,0.0
1734412804.1823905,-69.82421875,-36.62109375,30.76171875,-55.6640625,0.0
1734412804.1862957,-50.29296875,-34.1796875,34.66796875,-52.24609375,0.0
1734412804.1902122,-47.36328125,-34.1796875,34.66796875,-45.8984375,0.0
1734412804.1941175,-44.921875,-35.15625,36.1328125,-33.203125,0.0
1734412804.1980228,-34.66796875,-27.34375,28.80859375,-28.80859375,0.0
1734412804.201928,-29.78515625,-25.390625,17.578125,-37.59765625,0.0
1734412804.2058332,-47.36328125,-32.71484375,11.71875,-52.734375,0.0
1734412804.2097385,-50.78125,-32.2265625,11.71875,-52.24609375,0.0
1734412804.2136436,-38.57421875,-26.85546875,13.671875,-48.828125,0.0
1734412804.2175488,-42.48046875,-28.80859375,10.7421875,-50.29296875,0.0
1734412804.2214541,-31.25,-31.73828125,3.41796875,-44.43359375,0.0
1734412804.2253592,-19.04296875,-32.71484375,6.34765625,-30.2734375,0.0
1734412804.2292645,-29.78515625,-24.4140625,3.90625,-37.109375,0.0
1734412804.2331696,-56.15234375,-26.85546875,-5.37109375,-52.24609375,0.0
1734412804.2370849,-81.0546875,-46.875,-16.6015625,-61.5234375,0.0
1734412804.2409902,-94.23828125,-51.7578125,-21.97265625,-68.359375,0.0
1734412804.2448952,-98.6328125,-27.34375,-13.671875,-80.56640625,0.0
1734412804.2488005,-116.2109375,-29.78515625,-5.37109375,-108.3984375,0.0
1734412804.2527058,-128.90625,-43.45703125,-17.08984375,-135.7421875,0.0
1734412804.2566109,-168.9453125,-34.1796875,-13.671875,-142.578125,0.0
1734412804.2605162,-187.98828125,-21.97265625,0.48828125,-172.8515625,0.0
1734412804.2644215,-190.91796875,-39.0625,-3.90625,-197.265625,0.0
1734412804.2683265,-195.80078125,-56.15234375,3.90625,-181.640625,0.0
1734412804.2722318,-208.984375,-49.8046875,22.94921875,-165.52734375,0.0
1734412804.276137,-237.3046875,-52.24609375,31.25,-208.49609375,0.0
1734412804.2800422,-245.1171875,-61.03515625,38.0859375,-246.09375,0.0
1734412804.283968,-247.0703125,-59.5703125,48.33984375,-213.8671875,0.0
1734412804.287873,-225.09765625,-60.546875,55.17578125,-196.77734375,0.0
1734412804.2917783,-182.12890625,-59.5703125,56.640625,-185.05859375,0.0
1734412804.2956836,-178.7109375,-56.640625,49.8046875,-169.43359375,0.0
1734412804.2995887,-190.91796875,-56.15234375,38.57421875,-173.828125,0.0
1734412804.303494,-153.3203125,-52.734375,34.66796875,-147.4609375,0.0
1734412804.3073993,-108.88671875,-51.26953125,40.0390625,-111.81640625,0.0
1734412804.3113043,-109.375,-53.22265625,40.0390625,-102.05078125,0.0
1734412804.3152096,-114.74609375,-60.05859375,27.83203125,-91.30859375,0.0
1734412804.319115,-83.984375,-59.08203125,16.6015625,-70.80078125,0.0
1734412804.32302,-60.546875,-66.89453125,19.53125,-48.33984375,0.0
1734412804.3269253,-49.8046875,-71.2890625,21.97265625,-29.78515625,0.0
1734412804.330837,-26.3671875,-62.98828125,12.6953125,-27.34375,0.0
1734412804.334742,-14.6484375,-60.546875,4.39453125,-22.94921875,0.0
1734412804.3386474,5.37109375,-60.546875,-2.44140625,-8.30078125,0.0
1734412804.3425527,-2.44140625,-65.4296875,-4.39453125,0.48828125,0.0
1734412804.3464577,8.7890625,-63.4765625,-2.44140625,3.41796875,0.0
1734412804.350363,15.13671875,-52.734375,-4.39453125,14.16015625,0.0
1734412804.3542683,-10.25390625,-57.6171875,0.9765625,12.20703125,0.0
1734412804.3581734,-25.87890625,-65.91796875,-0.48828125,16.6015625,0.0
1734412804.3620787,-16.11328125,-57.12890625,-5.859375,27.83203125,0.0
1734412804.365984,-6.8359375,-53.7109375,-7.32421875,23.92578125,0.0
1734412804.369889,-15.13671875,-61.03515625,-13.671875,15.625,0.0
1734412804.3737943,5.859375,-64.94140625,-17.08984375,24.4140625,0.0
1734412804.3777072,12.20703125,-59.5703125,-13.18359375,34.66796875,0.0
1734412804.3816125,-1.46484375,-53.7109375,-10.25390625,31.73828125,0.0
1734412804.3855176,8.7890625,-53.7109375,-11.23046875,17.578125,0.0
1734412804.389423,9.765625,-58.10546875,-10.25390625,9.765625,0.0
1734412804.3933282,-12.6953125,-53.7109375,-13.18359375,10.25390625,0.0
1734412804.3972332,-16.11328125,-52.734375,-16.6015625,4.39453125,0.0
1734412804.4011385,-4.8828125,-54.19921875,-23.4375,13.18359375,0.0
1734412804.4050438,-12.6953125,-55.17578125,-23.4375,19.04296875,0.0
1734412804.408949,-5.859375,-53.7109375,-17.08984375,14.6484375,0.0
1734412804.4128542,0.48828125,-53.22265625,-27.34375,15.625,0.0
1734412804.4167595,0.48828125,-56.640625,-32.71484375,20.01953125,0.0
1734412804.4206645,-0.48828125,-56.640625,-23.4375,18.5546875,0.0
1734412804.4245741,-3.90625,-53.7109375,-23.4375,0.0,0.0
1734412804.4284794,-5.37109375,-55.6640625,-21.97265625,0.0,0.0
1734412804.4323847,8.30078125,-56.640625,-15.625,0.0,0.0
1734412804.4362898,10.7421875,-55.6640625,-19.04296875,0.0,0.0
1734412804.440195,-12.20703125,-54.6875,-23.4375,0.0,0.0
1734412804.4441004,-8.30078125,-54.19921875,-25.390625,0.0,0.0
1734412804.4480054,-3.41796875,-58.10546875,-19.53125,0.0,0.0
1734412804.4519107,-11.71875,-49.8046875,-20.01953125,0.0,0.0
1734412804.455816,-2.9296875,-40.0390625,-26.85546875,0.0,0.0
1734412804.459721,3.90625,-44.43359375,-31.73828125,0.0,0.0
1734412804.4636264,-14.6484375,-45.8984375,-31.73828125,0.0,0.0
1734412804.4675317,-17.08984375,-40.0390625,-25.390625,0.0,0.0
1734412804.4714398,-20.01953125,-40.0390625,-27.83203125,-8.30078125,0.0
1734412804.4753451,-22.4609375,-43.9453125,-37.59765625,-18.5546875,0.0
1734412804.4792502,-13.671875,-46.38671875,-35.64453125,-3.41796875,0.0
1734412804.4831555,-28.3203125,-45.8984375,-36.62109375,6.8359375,0.0
1734412804.4870608,-26.85546875,-41.015625,-37.59765625,5.859375,0.0
1734412804.4909658,-1.953125,-44.921875,-32.71484375,9.765625,0.0
1734412804.4948711,-16.11328125,-46.875,-36.1328125,11.23046875,0.0
1734412804.4987764,-30.76171875,-41.9921875,-41.015625,-4.8828125,0.0
1734412804.5026815,-26.85546875,-42.96875,-41.9921875,-1.46484375,0.0
1734412804.5065868,-18.5546875,-51.26953125,-46.38671875,0.9765625,0.0
1734412804.510492,-11.23046875,-50.78125,-48.828125,-2.44140625,0.0
1734412804.5143971,0.0,-42.96875,-46.38671875,1.953125,0.0
1734412804.518318,-2.9296875,-41.9921875,-47.8515625,0.0,0.0
1734412804.5222232,-13.671875,-46.875,-49.31640625,0.9765625,0.0
1734412804.5261285,-10.7421875,-52.24609375,-55.6640625,-15.13671875,0.0
1734412804.5300336,-16.11328125,-52.734375,-59.5703125,-19.53125,0.0
1734412804.533939,-20.01953125,-50.78125,-57.12890625,-4.8828125,0.0
1734412804.5378442,-10.7421875,-54.6875,-60.05859375,5.859375,0.0
1734412804.5417492,21.484375,-56.15234375,-60.546875,16.6015625,0.0
1734412804.5456545,19.04296875,-51.26953125,-58.10546875,9.27734375,0.0
1734412804.5495598,-39.55078125,-46.38671875,-59.5703125,-42.96875,0.0
1734412804.553465,-46.38671875,-38.0859375,-62.5,-48.828125,0.0
1734412804.5573702,-14.6484375,-41.50390625,-59.5703125,-25.390625,0.0
1734412804.5612755,-18.06640625,-52.24609375,-60.05859375,-24.90234375,0.0
1734412804.5651927,-27.83203125,-47.36328125,-58.59375,-18.5546875,0.0
1734412804.5690978,-33.203125,-47.8515625,-57.12890625,-24.4140625,0.0
1734412804.573003,-13.18359375,-54.19921875,-59.5703125,-23.4375,0.0
1734412804.5769083,-11.23046875,-55.17578125,-54.6875,-19.53125,0.0
1734412804.5808134,-34.1796875,-50.78125,-51.26953125,-10.25390625,0.0
1734412804.5847187,-15.13671875,-50.78125,-54.19921875,-4.39453125,0.0
1734412804.588624,-13.671875,-48.828125,-52.734375,-5.37109375,0.0
1734412804.592529,-26.85546875,-54.19921875,-46.875,-15.13671875,0.0
1734412804.5964344,-30.76171875,-67.3828125,-48.33984375,-12.6953125,0.0
1734412804.6003397,-40.52734375,-70.3125,-50.78125,-8.7890625,0.0
1734412804.6042447,-31.25,-61.03515625,-44.921875,-14.6484375,0.0
1734412804.60815,-30.2734375,-58.10546875,-42.48046875,-9.27734375,0.0
1734412804.6120656,0.0,-62.98828125,-39.0625,-8.7890625,0.0
1734412804.6159708,0.0,-61.5234375,-34.1796875,-13.18359375,0.0
1734412804.619876,0.0,-61.5234375,-41.9921875,-18.5546875,0.0
1734412804.6237812,0.0,-61.5234375,-49.31640625,-27.83203125,0.0
1734412804.6276865,0.0,-56.640625,-46.875,-23.4375,0.0
1734412804.6315916,0.0,-57.12890625,-42.48046875,-23.4375,0.0
1734412804.6354969,0.0,-56.15234375,-45.41015625,-32.2265625,0.0
1734412804.6394022,0.0,-55.6640625,-45.41015625,-22.4609375,0.0
1734412804.6433072,0.0,-59.5703125,-44.43359375,-18.06640625,0.0
1734412804.6472125,0.0,-57.12890625,-41.50390625,-8.7890625,0.0
1734412804.6511178,0.0,-52.24609375,-37.59765625,-11.71875,0.0
1734412804.6550229,0.0,-50.78125,-32.2265625,-17.08984375,0.0
1734412804.6589367,-26.3671875,-54.6875,-29.78515625,-16.11328125,0.0
1734412804.6628418,-24.90234375,-62.98828125,-27.83203125,-8.30078125,0.0
1734412804.666747,-22.94921875,-70.3125,-26.85546875,-9.765625,0.0
1734412804.6706524,-26.3671875,-72.75390625,-26.3671875,-15.625,0.0
1734412804.6745574,-13.671875,-75.68359375,-25.87890625,-9.765625,0.0
1734412804.6784627,-21.97265625,-73.2421875,-27.83203125,-11.23046875,0.0
1734412804.682368,-44.43359375,-72.265625,-21.484375,-14.6484375,0.0
1734412804.686273,-39.0625,-76.171875,-12.6953125,-15.13671875,0.0
1734412804.6901784,-30.2734375,-79.58984375,-17.578125,-14.16015625,0.0
1734412804.6940837,-36.1328125,-76.171875,-16.6015625,-17.08984375,0.0
1734412804.6979887,-33.203125,-74.21875,-18.06640625,-24.90234375,0.0
1734412804.701894,-41.015625,-80.56640625,-22.4609375,-17.08984375,0.0
1734412804.7058077,-50.78125,-81.0546875,-20.01953125,-20.5078125,0.0
1734412804.709713,-37.109375,-77.63671875,-22.4609375,-29.78515625,0.0
1734412804.713618,-41.9921875,-78.125,-23.92578125,-28.3203125,0.0
1734412804.7175233,-36.62109375,-78.61328125,-21.97265625,-19.04296875,0.0
1734412804.7214286,-22.94921875,-74.21875,-19.04296875,-15.625,0.0
1734412804.7253337,-20.99609375,-79.58984375,-15.13671875,-25.87890625,0.0
1734412804.729239,-35.15625,-83.0078125,-20.01953125,-32.71484375,0.0
1734412804.7331443,-31.73828125,-75.68359375,-16.11328125,-18.06640625,0.0
1734412804.7370493,-34.66796875,-77.63671875,-3.90625,-25.87890625,0.0
1734412804.7409546,-41.50390625,-78.61328125,-10.25390625,-33.203125,0.0
1734412804.74486,-32.71484375,-74.21875,-20.5078125,-30.76171875,0.0
1734412804.748765,-8.7890625,-74.21875,-24.4140625,-32.2265625,0.0
1734412804.752676,0.0,-74.70703125,-17.578125,-20.99609375,0.0
1734412804.756581,0.0,-71.77734375,-12.6953125,-12.20703125,0.0
1734412804.7604864,0.0,-72.265625,-14.16015625,-18.06640625,0.0
1734412804.7643917,0.0,-81.54296875,-17.578125,-33.69140625,0.0
1734412804.7682967,0.0,-83.984375,-16.11328125,-28.80859375,0.0
1734412804.772202,0.0,-79.1015625,-11.71875,-24.90234375,0.0
1734412804.7761073,0.0,-78.125,-8.7890625,-35.64453125,0.0
1734412804.7800124,0.0,-76.171875,-14.16015625,-17.08984375,0.0
1734412804.7839177,0.0,-71.2890625,-15.13671875,-14.6484375,0.0
1734412804.787823,0.0,-71.2890625,-7.8125,-19.53125,0.0
1734412804.791728,0.0,-76.66015625,1.46484375,-14.16015625,0.0
1734412804.7956333,0.0,-77.1484375,2.44140625,-12.20703125,0.0
1734412804.7995439,-24.90234375,-74.70703125,-4.39453125,-13.18359375,0.0
1734412804.803449,-34.1796875,-79.58984375,-7.8125,-21.484375,0.0
1734412804.8073542,-32.2265625,-80.56640625,-4.39453125,-22.4609375,0.0
1734412804.8112595,-31.25,-72.265625,-0.9765625,-27.83203125,0.0
1734412804.8151646,-34.66796875,-66.89453125,-6.34765625,-30.2734375,0.0
1734412804.8190699,-23.4375,-69.3359375,-7.8125,-14.6484375,0.0
1734412804.8229752,-1.46484375,-64.94140625,-5.37109375,-8.30078125,0.0
1734412804.8268802,11.71875,-56.15234375,-5.859375,-8.30078125,0.0
1734412804.8307855,-21.97265625,-57.6171875,-8.30078125,-28.3203125,0.0
1734412804.8346908,-39.0625,-59.5703125,-7.8125,-27.34375,0.0
1734412804.8385959,-10.25390625,-61.03515625,-8.7890625,-1.953125,0.0
1734412804.8425012,-15.625,-64.94140625,-10.7421875,-9.27734375,0.0
1734412804.8464086,0.0,-66.40625,-11.71875,-7.8125,0.0
1734412804.850314,0.0,-71.77734375,-18.5546875,-14.16015625,0.0
1734412804.854219,0.0,-78.61328125,-24.4140625,-36.1328125,0.0
1734412804.8581243,0.0,-75.68359375,-19.53125,-41.50390625,0.0
1734412804.8620296,0.0,-77.1484375,-21.484375,-28.3203125,0.0
1734412804.8659346,0.0,-85.9375,-24.4140625,-21.97265625,0.0
1734412804.86984,0.0,-86.9140625,-21.97265625,-29.78515625,0.0
1734412804.8737452,0.0,-77.63671875,-20.01953125,-41.9921875,0.0
1734412804.8776503,0.0,-83.984375,-19.53125,-42.48046875,0.0
1734412804.8815556,0.0,-85.44921875,-20.5078125,-35.15625,0.0
1734412804.8854609,0.0,-76.171875,-19.53125,-36.62109375,0.0
1734412804.889366,0.0,-82.03125,-18.06640625,-41.015625,0.0
1734412804.8932736,-23.4375,-82.03125,-17.08984375,-23.92578125,0.0
1734412804.897179,-17.08984375,-79.58984375,-12.6953125,-24.4140625,0.0
1734412804.901084,-27.83203125,-81.54296875,-14.16015625,-30.76171875,0.0
1734412804.9049892,-20.99609375,-85.44921875,-14.16015625,-20.5078125,0.0
1734412804.9088945,-23.92578125,-85.44921875,-20.5078125,-33.69140625,0.0
1734412804.9127996,-37.59765625,-88.37890625,-24.4140625,-32.71484375,0.0
1734412804.916705,-52.24609375,-94.23828125,-17.08984375,-29.78515625,0.0
1734412804.9206102,-39.55078125,-88.37890625,-20.01953125,-30.2734375,0.0
1734412804.9245152,-21.97265625,-80.078125,-19.53125,-27.34375,0.0
1734412804.9284205,-27.83203125,-80.56640625,-13.671875,-27.34375,0.0
1734412804.9323258,-29.296875,-83.0078125,-10.7421875,-23.92578125,0.0
1734412804.936231,-36.62109375,-81.54296875,-11.23046875,-26.3671875,0.0
1734412804.9401608,-40.0390625,-78.61328125,-5.859375,-17.08984375,0.0
1734412804.944066,-22.94921875,-85.44921875,-3.41796875,-17.08984375,0.0
1734412804.947971,-16.11328125,-86.9140625,-5.859375,-12.20703125,0.0
1734412804.9518764,-32.2265625,-84.47265625,-4.8828125,-10.7421875,0.0
1734412804.9557817,-25.390625,-80.56640625,-2.9296875,-6.34765625,0.0
1734412804.9596868,-17.08984375,-83.984375,-5.859375,-8.7890625,0.0
1734412804.963592,-41.9921875,-81.0546875,-6.34765625,-18.06640625,0.0
1734412804.9674973,-44.921875,-75.68359375,-9.765625,-14.6484375,0.0
1734412804.9714026,-23.92578125,-78.125,-12.6953125,-24.4140625,0.0
1734412804.9753077,-11.71875,-78.61328125,-9.27734375,-21.484375,0.0
1734412804.979213,-12.20703125,-72.265625,-9.765625,-18.5546875,0.0
1734412804.9831183,-11.71875,-68.84765625,-13.671875,-27.34375,0.0
1734412804.9870467,0.0,-76.66015625,-10.25390625,0.0,0.0
1734412804.990952,0.0,-83.49609375,-7.32421875,0.0,0.0
1734412804.994857,0.0,-84.9609375,-10.25390625,0.0,0.0
1734412804.9987624,0.0,-81.54296875,-13.671875,0.0,0.0
1734412805.0026677,0.0,-80.56640625,-14.6484375,0.0,0.0
1734412805.0065727,0.0,-81.54296875,-14.6484375,0.0,0.0
1734412805.010478,0.0,-77.1484375,-14.16015625,0.0,0.0
1734412805.0143833,0.0,-78.125,-17.08984375,0.0,0.0
1734412805.0182884,0.0,-82.51953125,-17.08984375,0.0,0.0
1734412805.0221937,0.0,-73.73046875,-16.6015625,0.0,0.0
1734412805.026099,0.0,-67.3828125,-19.53125,0.0,0.0
1734412805.0300043,0.0,-75.68359375,-19.53125,0.0,0.0
1734412805.033918,-16.6015625,-72.75390625,-20.99609375,-25.390625,0.0
1734412805.037823,-23.4375,-66.89453125,-22.94921875,-26.3671875,0.0
1734412805.0417283,-38.0859375,-67.3828125,-28.3203125,-28.3203125,0.0
1734412805.0456336,-24.90234375,-72.75390625,-31.73828125,-19.53125,0.0
1734412805.0495386,-8.7890625,-78.61328125,-38.0859375,-17.578125,0.0
1734412805.053444,-32.71484375,-82.03125,-41.015625,-23.92578125,0.0
1734412805.0573492,-20.99609375,-81.0546875,-38.57421875,-30.76171875,0.0
1734412805.0612543,-17.08984375,-75.68359375,-43.9453125,-24.4140625,0.0
1734412805.0651596,-49.8046875,-77.1484375,-39.0625,-30.76171875,0.0
1734412805.0690649,-32.71484375,-78.125,-33.69140625,-39.0625,0.0
1734412805.07297,-24.90234375,-79.1015625,-32.71484375,-31.73828125,0.0
1734412805.0768752,-36.62109375,-77.63671875,-32.71484375,-22.94921875,0.0
1734412805.0807881,0.0,-79.58984375,-34.66796875,-23.92578125,0.0
1734412805.0846934,0.0,-76.66015625,-38.0859375,-34.66796875,0.0
1734412805.0885987,0.0,-76.66015625,-38.57421875,-34.1796875,0.0
1734412805.0925038,0.0,-80.56640625,-37.109375,-20.5078125,0.0
1734412805.096409,0.0,-74.21875,-31.73828125,-25.390625,0.0
1734412805.1003144,0.0,-72.75390625,-33.203125,-39.55078125,0.0
1734412805.1042194,0.0,-74.70703125,-34.1796875,-38.0859375,0.0
1734412805.1081247,0.0,-75.1953125,-35.15625,-28.80859375,0.0
1734412805.11203,0.0,-80.078125,-36.62109375,-26.85546875,0.0
1734412805.115935,0.0,-79.58984375,-36.62109375,-45.8984375,0.0
1734412805.1198404,0.0,-77.1484375,-34.1796875,-42.48046875,0.0
1734412805.1237457,0.0,-76.171875,-29.78515625,-24.4140625,0.0
1734412805.1276567,-54.6875,-74.70703125,-23.4375,-19.04296875,0.0
1734412805.1315618,-46.38671875,-68.84765625,-19.53125,-29.78515625,0.0
1734412805.135467,-18.06640625,-66.40625,-18.5546875,-28.80859375,0.0
1734412805.1393723,-13.671875,-71.77734375,-16.11328125,-8.30078125,0.0
1734412805.1432774,-40.0390625,-71.2890625,-14.16015625,-17.08984375,0.0
1734412805.1471827,-29.296875,-70.3125,-22.94921875,-34.1796875,0.0
1734412805.151088,1.953125,-68.359375,-24.90234375,-28.3203125,0.0
1734412805.154993,-36.1328125,-70.3125,-16.11328125,-20.99609375,0.0
1734412805.1588984,-49.8046875,-67.3828125,-14.16015625,-25.87890625,0.0
1734412805.1628036,-43.45703125,-62.5,-14.16015625,-34.1796875,0.0
1734412805.1667087,-44.43359375,-62.98828125,-10.7421875,-37.59765625,0.0
1734412805.170614,-54.6875,-59.5703125,-4.8828125,-47.8515625,0.0
1734412805.1745236,-52.734375,-64.453125,-5.859375,-40.52734375,0.0
1734412805.178429,-30.76171875,-74.70703125,-0.48828125,-21.484375,0.0
1734412805.182334,-39.0625,-73.73046875,2.9296875,-27.34375,0.0
1734412805.1862392,-40.0390625,-64.94140625,6.34765625,-27.34375,0.0
1734412805.1901445,-45.41015625,-65.91796875,17.578125,-21.97265625,0.0
1734412805.1940496,-31.73828125,-65.4296875,19.04296875,-35.15625,0.0
1734412805.197955,-26.3671875,-65.4296875,5.859375,-44.921875,0.0
1734412805.2018602,-63.4765625,-74.21875,14.16015625,-44.921875,0.0
1734412805.2057652,-81.54296875,-73.73046875,17.08984375,-70.80078125,0.0
1734412805.2096705,-82.03125,-78.61328125,9.27734375,-76.171875,0.0
1734412805.2135758,-53.7109375,-78.125,13.671875,-57.6171875,0.0
1734412805.217481,-70.80078125,-71.2890625,29.296875,-75.1953125,0.0
1734412805.221404,-138.671875,-67.87109375,43.45703125,-124.51171875,0.0
1734412805.2253094,-151.85546875,-76.171875,45.41015625,-140.625,0.0
1734412805.2292147,-132.32421875,-85.9375,46.875,-143.06640625,0.0
1734412805.2331197,-128.90625,-84.9609375,49.31640625,-163.0859375,0.0
1734412805.237025,-148.4375,-78.125,59.08203125,-179.6875,0.0
1734412805.2409303,-179.19921875,-70.80078125,79.58984375,-171.875,0.0
1734412805.2448356,-170.41015625,-64.453125,98.14453125,-180.17578125,0.0
1734412805.2487407,-152.83203125,-55.17578125,96.6796875,-196.77734375,0.0
1734412805.252646,-171.875,-72.265625,85.9375,-192.87109375,0.0
1734412805.2565513,-169.921875,-87.40234375,84.9609375,-178.7109375,0.0
1734412805.2604563,-156.25,-88.8671875,82.51953125,-192.87109375,0.0
1734412805.2643616,-171.875,-94.23828125,99.12109375,-199.70703125,0.0
1734412805.268281,-166.9921875,-88.37890625,113.76953125,-194.3359375,0.0
1734412805.2721863,-188.4765625,-87.40234375,100.09765625,-210.9375,0.0
1734412805.2760913,-171.38671875,-88.37890625,93.26171875,-209.47265625,0.0
1734412805.2799966,-148.4375,-84.47265625,98.6328125,-192.87109375,0.0
1734412805.283902,-143.5546875,-84.47265625,100.09765625,-192.87109375,0.0
1734412805.2878072,-141.11328125,-85.9375,97.65625,-192.3828125,0.0
1734412805.2917123,-110.3515625,-84.9609375,94.7265625,-191.89453125,0.0
1734412805.2956176,-101.07421875,-79.1015625,94.23828125,-199.21875,0.0
1734412805.2995229,-133.30078125,-79.1015625,87.40234375,-198.2421875,0.0
1734412805.303428,-97.65625,-79.1015625,71.2890625,-163.57421875,0.0
1734412805.3073332,-90.33203125,-72.265625,69.3359375,-143.5546875,0.0
1734412805.3112385,-100.5859375,-67.3828125,69.3359375,-158.203125,0.0
1734412805.3151555,-83.49609375,-67.87109375,61.5234375,-159.66796875,0.0
1734412805.3190608,-66.89453125,-74.21875,57.12890625,-158.203125,0.0
1734412805.322966,-78.125,-72.75390625,50.29296875,-165.0390625,0.0
1734412805.3268712,-82.51953125,-64.453125,48.33984375,-152.83203125,0.0
1734412805.3307765,-22.94921875,-62.01171875,42.96875,-145.99609375,0.0
1734412805.3346817,-6.8359375,-62.01171875,37.109375,-116.69921875,0.0
1734412805.3385868,-57.12890625,-49.8046875,32.71484375,-110.83984375,0.0
1734412805.342492,-42.96875,-41.015625,28.3203125,-110.83984375,0.0
1734412805.3463974,-3.90625,-44.921875,25.87890625,-99.609375,0.0
1734412805.3503025,-17.08984375,-42.48046875,18.5546875,-102.05078125,0.0
1734412805.3542078,-23.92578125,-28.80859375,10.25390625,-124.0234375,0.0
1734412805.358113,19.04296875,-19.53125,-1.953125,-118.1640625,0.0
1734412805.3620427,16.6015625,-17.578125,1.46484375,-96.6796875,0.0
1734412805.365948,9.27734375,-13.671875,1.953125,-79.1015625,0.0
1734412805.369853,39.0625,-11.23046875,-3.90625,-74.21875,0.0
1734412805.3737583,5.37109375,-16.11328125,-12.20703125,-97.65625,0.0
1734412805.3776636,27.83203125,-21.484375,-16.11328125,-87.40234375,0.0
1734412805.3815687,88.37890625,-13.671875,-20.5078125,-60.546875,0.0
1734412805.385474,30.76171875,-10.7421875,-35.15625,-52.24609375,0.0
1734412805.3893793,12.20703125,-14.6484375,-39.0625,-43.9453125,0.0
1734412805.3932846,69.82421875,-11.23046875,-40.0390625,-7.8125,0.0
1734412805.3971896,74.70703125,-12.20703125,-40.52734375,-1.953125,0.0
1734412805.401095,73.73046875,-13.18359375,-34.66796875,-23.92578125,0.0
1734412805.4050002,75.68359375,-14.16015625,-37.59765625,-4.39453125,0.0
1734412805.4089143,89.35546875,-20.01953125,-37.59765625,7.32421875,0.0
1734412805.4128194,44.43359375,-28.3203125,-27.34375,-14.6484375,0.0
1734412805.4167247,11.23046875,-38.0859375,-31.25,-16.11328125,0.0
1734412805.42063,52.24609375,-42.48046875,-37.109375,-5.37109375,0.0
1734412805.424535,45.41015625,-47.8515625,-35.15625,-2.44140625,0.0
1734412805.4284403,26.3671875,-53.22265625,-25.87890625,8.30078125,0.0
1734412805.4323456,38.0859375,-61.03515625,-17.08984375,26.85546875,0.0
1734412805.4362507,32.2265625,-73.2421875,-10.25390625,30.2734375,0.0
1734412805.440156,35.64453125,-72.265625,-7.8125,22.94921875,0.0
1734412805.4440613,53.7109375,-63.4765625,-15.13671875,23.92578125,0.0
1734412805.4479663,29.78515625,-66.40625,-7.32421875,26.85546875,0.0
1734412805.4518716,32.2265625,-67.3828125,-7.32421875,22.94921875,0.0
1734412805.455817,22.94921875,-62.98828125,-13.671875,0.0,0.0
1734412805.4597223,27.83203125,-55.6640625,-12.20703125,0.0,0.0
1734412805.4636276,53.22265625,-54.6875,-19.53125,0.0,0.0
1734412805.4675329,59.08203125,-53.22265625,-22.4609375,0.0,0.0
1734412805.471438,48.33984375,-47.8515625,-28.80859375,0.0,0.0
1734412805.4753432,57.6171875,-52.734375,-35.64453125,0.0,0.0
1734412805.4792485,76.171875,-49.8046875,-33.69140625,0.0,0.0
1734412805.4831536,21.97265625,-42.96875,-40.52734375,0.0,0.0
1734412805.4870589,5.859375,-28.3203125,-58.10546875,0.0,0.0
1734412805.4909642,40.52734375,-15.625,-48.828125,0.0,0.0
1734412805.4948692,86.9140625,-28.3203125,-30.2734375,0.0,0.0
1734412805.4987745,63.96484375,-30.76171875,-36.62109375,0.0,0.0
1734412805.5026896,0.0,-20.5078125,-40.0390625,67.3828125,0.0
1734412805.506595,0.0,-6.8359375,-38.57421875,66.40625,0.0
1734412805.5105,0.0,-0.9765625,-42.96875,66.40625,0.0
1734412805.5144053,0.0,-1.46484375,-43.45703125,66.40625,0.0
1734412805.5183105,0.0,4.39453125,-45.41015625,60.05859375,0.0
1734412805.5222158,0.0,7.32421875,-51.26953125,56.640625,0.0
1734412805.526121,0.0,6.34765625,-51.26953125,45.8984375,0.0
1734412805.5300262,0.0,12.20703125,-52.734375,34.1796875,0.0
1734412805.5339315,0.0,17.578125,-57.12890625,38.57421875,0.0
1734412805.5378366,0.0,23.4375,-63.96484375,51.7578125,0.0
1734412805.5417418,0.0,28.80859375,-70.80078125,41.50390625,0.0
1734412805.5456471,0.0,24.90234375,-83.984375,60.546875,0.0
1734412805.549556,45.41015625,48.828125,-97.16796875,60.546875,0.0
1734412805.5534613,57.12890625,51.7578125,-99.609375,48.33984375,0.0
1734412805.5573666,77.1484375,35.15625,-104.00390625,40.52734375,0.0
1734412805.5612717,65.4296875,46.875,-113.28125,26.85546875,0.0
1734412805.565177,53.22265625,39.0625,-123.53515625,16.6015625,0.0
1734412805.5690823,84.9609375,38.0859375,-129.8828125,27.83203125,0.0
1734412805.5729873,85.44921875,39.0625,-130.859375,37.59765625,0.0
1734412805.5768926,83.984375,36.1328125,-145.5078125,34.1796875,0.0
1734412805.580798,85.44921875,45.8984375,-178.7109375,14.16015625,0.0
1734412805.5847032,55.17578125,52.24609375,-208.0078125,19.53125,0.0
1734412805.5886083,50.78125,51.7578125,-231.4453125,43.45703125,0.0
1734412805.5925136,72.75390625,64.453125,-250.9765625,31.25,0.0
1734412805.596421,63.96484375,71.77734375,-268.5546875,5.859375,0.0
1734412805.600326,65.91796875,59.5703125,-288.57421875,15.625,0.0
1734412805.6042314,50.78125,51.26953125,-322.265625,27.83203125,0.0
1734412805.6081367,54.6875,56.640625,-372.0703125,10.25390625,0.0
1734412805.6120417,62.5,62.98828125,-392.08984375,-9.765625,0.0
1734412805.615947,59.08203125,64.94140625,-408.203125,-5.37109375,0.0
1734412805.6198523,74.70703125,72.265625,-441.40625,9.27734375,0.0
1734412805.6237574,71.2890625,77.1484375,-461.42578125,25.87890625,0.0
1734412805.6276627,61.5234375,82.03125,-483.3984375,14.6484375,0.0
1734412805.631568,59.08203125,84.9609375,-489.74609375,0.9765625,0.0
1734412805.6354733,48.33984375,85.9375,-489.2578125,17.08984375,0.0
1734412805.6393783,60.546875,90.8203125,-491.2109375,17.08984375,0.0
1734412805.6432843,100.09765625,98.6328125,-474.609375,8.7890625,0.0
1734412805.6471896,95.21484375,106.4453125,-458.0078125,11.23046875,0.0
1734412805.651095,51.26953125,120.1171875,-446.2890625,-20.99609375,0.0
1734412805.655,38.57421875,122.0703125,-433.59375,-26.85546875,0.0
1734412805.6589053,46.875,127.44140625,-424.8046875,-1.953125,0.0
1734412805.6628106,61.5234375,118.65234375,-399.90234375,11.71875,0.0
1734412805.6667156,41.50390625,114.2578125,-368.1640625,9.765625,0.0
1734412805.670621,35.15625,124.51171875,-359.375,-12.6953125,0.0
1734412805.6745262,78.125,140.625,-356.93359375,-14.6484375,0.0
1734412805.6784315,66.89453125,148.92578125,-340.33203125,-6.34765625,0.0
1734412805.6823366,20.01953125,159.1796875,-319.82421875,-11.71875,0.0
1734412805.6862419,28.80859375,162.109375,-308.10546875,5.859375,0.0
1734412805.6901722,34.1796875,139.6484375,-307.6171875,7.8125,0.0
1734412805.6940775,22.4609375,124.51171875,-298.33984375,7.32421875,0.0
1734412805.6979828,24.90234375,112.79296875,-281.25,-1.46484375,0.0
1734412805.7018878,43.45703125,115.72265625,-270.99609375,-4.39453125,0.0
1734412805.7057931,32.2265625,122.0703125,-264.16015625,3.41796875,0.0
1734412805.7096984,44.921875,121.58203125,-254.8828125,10.25390625,0.0
1734412805.7136035,37.109375,177.24609375,-250.9765625,18.06640625,0.0
1734412805.7175088,15.625,219.7265625,-228.02734375,-6.34765625,0.0
1734412805.721414,33.203125,211.42578125,-210.9375,-35.15625,0.0
1734412805.7253191,29.296875,205.078125,-210.44921875,-27.34375,0.0
1734412805.7292244,25.390625,211.9140625,-213.8671875,1.46484375,0.0
1734412805.7331297,45.8984375,219.7265625,-222.65625,-9.765625,0.0
1734412805.7370458,41.50390625,191.89453125,-214.35546875,-46.875,0.0
1734412805.740951,48.828125,172.8515625,-216.30859375,-43.9453125,0.0
1734412805.744856,26.3671875,175.29296875,-213.8671875,-6.8359375,0.0
1734412805.7487614,17.08984375,175.78125,-218.75,-18.5546875,0.0
1734412805.7526667,55.6640625,176.26953125,-225.09765625,-36.1328125,0.0
1734412805.7565718,44.43359375,182.12890625,-220.703125,-37.109375,0.0
1734412805.760477,41.50390625,200.1953125,-233.88671875,-44.43359375,0.0
1734412805.7643824,20.5078125,187.01171875,-221.6796875,-12.20703125,0.0
1734412805.7682874,11.23046875,179.19921875,-211.9140625,-39.0625,0.0
1734412805.7721927,36.62109375,189.94140625,-210.44921875,-19.53125,0.0
1734412805.776098,45.41015625,187.98828125,-197.75390625,-9.27734375,0.0
1734412805.780003,66.89453125,194.82421875,-211.9140625,-24.90234375,0.0
1734412805.7839177,35.64453125,203.125,-205.56640625,-56.640625,0.0
1734412805.787823,34.66796875,201.66015625,-190.91796875,-34.1796875,0.0
1734412805.7917283,47.8515625,209.9609375,-197.75390625,-27.83203125,0.0
1734412805.7956333,83.0078125,226.5625,-189.94140625,-49.8046875,0.0
1734412805.7995386,66.40625,229.98046875,-167.96875,-57.12890625,0.0
1734412805.803444,62.5,233.88671875,-141.6015625,-55.17578125,0.0
1734412805.807349,62.01171875,227.05078125,-132.8125,-55.17578125,0.0
1734412805.8112543,-9.27734375,250.0,-142.578125,-69.82421875,0.0
1734412805.8151596,7.8125,316.40625,-141.6015625,-73.73046875,0.0
1734412805.8190646,23.4375,375.48828125,-141.6015625,-94.7265625,0.0
1734412805.82297,4.8828125,385.25390625,-138.671875,-134.27734375,0.0
1734412805.8268752,24.4140625,386.71875,-122.0703125,-137.6953125,0.0
1734412805.8307898,0.0,388.671875,-107.91015625,0.0,0.0
1734412805.8346949,0.0,386.23046875,-101.07421875,0.0,0.0
1734412805.8386002,0.0,388.18359375,-96.19140625,0.0,0.0
1734412805.8425055,0.0,380.859375,-90.8203125,0.0,0.0
1734412805.8464105,0.0,381.34765625,-86.9140625,0.0,0.0
1734412805.8503158,0.0,387.20703125,-74.70703125,0.0,0.0
1734412805.854221,0.0,410.64453125,-63.96484375,0.0,0.0
1734412805.8581262,0.0,406.73828125,-55.17578125,0.0,0.0
1734412805.8620315,0.0,408.203125,-57.6171875,0.0,0.0
1734412805.8659368,0.0,422.36328125,-56.640625,0.0,0.0
1734412805.8698418,0.0,412.59765625,-49.31640625,0.0,0.0
1734412805.873747,0.0,414.55078125,-43.45703125,0.0,0.0
1734412805.8776577,-5.37109375,426.26953125,-36.62109375,-129.39453125,0.0
1734412805.881563,-27.83203125,423.828125,-35.64453125,-140.13671875,0.0
1734412805.8854682,-20.99609375,410.15625,-31.25,-143.5546875,0.0
1734412805.8893733,-20.99609375,408.69140625,-39.55078125,-156.73828125,0.0
1734412805.8932786,-56.15234375,427.24609375,-21.97265625,-200.1953125,0.0
1734412805.897184,-42.96875,425.29296875,2.9296875,-212.890625,0.0
1734412805.901089,-87.40234375,421.875,-0.9765625,-197.265625,0.0
1734412805.9049942,-86.9140625,430.6640625,-10.7421875,-203.125,0.0
1734412805.9088995,-40.0390625,434.5703125,-21.97265625,-212.40234375,0.0
1734412805.9128046,-33.69140625,413.57421875,-7.8125,-208.49609375,0.0
1734412805.91671,-73.2421875,378.90625,3.41796875,-198.73046875,0.0
1734412805.9206152,-62.98828125,367.67578125,-0.9765625,-214.35546875,0.0
1734412805.9245498,-17.578125,360.3515625,5.37109375,-193.359375,0.0
1734412805.928455,-49.31640625,342.7734375,7.8125,-179.6875,0.0
1734412805.9323602,-21.97265625,334.47265625,5.37109375,-192.3828125,0.0
1734412805.9362655,10.25390625,337.40234375,5.37109375,-166.9921875,0.0
1734412805.9401708,18.06640625,345.703125,-3.41796875,-121.58203125,0.0
1734412805.9440758,43.45703125,349.12109375,8.30078125,-103.02734375,0.0
1734412805.947981,53.7109375,349.12109375,13.18359375,-100.5859375,0.0
1734412805.9518864,60.546875,351.07421875,15.625,-58.59375,0.0
1734412805.9557915,76.66015625,348.6328125,21.484375,-63.4765625,0.0
1734412805.9596968,118.1640625,328.61328125,22.94921875,-64.94140625,0.0
1734412805.963602,114.74609375,326.171875,27.83203125,-21.97265625,0.0
1734412805.9675074,96.6796875,333.984375,30.76171875,-8.30078125,0.0
1734412805.9714158,109.86328125,327.63671875,24.4140625,-24.90234375,0.0
1734412805.975321,98.14453125,316.89453125,19.53125,-23.92578125,0.0
1734412805.9792264,118.65234375,310.546875,23.4375,-7.32421875,0.0
1734412805.9831314,139.6484375,316.89453125,32.2265625,6.34765625,0.0
1734412805.9870367,110.3515625,314.94140625,38.57421875,23.4375,0.0
1734412805.990942,130.859375,316.40625,41.015625,21.484375,0.0
1734412805.9948473,148.4375,339.84375,40.0390625,31.73828125,0.0
1734412805.9987524,116.2109375,346.19140625,42.96875,27.34375,0.0
1734412806.0026577,127.9296875,318.359375,41.015625,-1.46484375,0.0
1734412806.006563,137.6953125,291.50390625,34.1796875,18.5546875,0.0
1734412806.010468,106.93359375,287.59765625,23.4375,37.59765625,0.0
1734412806.0143733,133.30078125,288.57421875,21.484375,20.01953125,0.0
1734412806.018292,147.4609375,277.83203125,23.92578125,37.109375,0.0
1734412806.0221972,141.11328125,270.01953125,18.5546875,58.59375,0.0
1734412806.0261025,148.4375,279.296875,5.37109375,62.01171875,0.0
1734412806.0300076,130.859375,262.6953125,8.30078125,59.08203125,0.0
1734412806.033913,133.7890625,364.74609375,30.2734375,41.015625,0.0
1734412806.0378182,122.0703125,585.9375,36.1328125,16.11328125,0.0
1734412806.0417235,130.859375,633.7890625,45.8984375,20.5078125,0.0
1734412806.0456285,120.60546875,591.796875,49.8046875,28.80859375,0.0
1734412806.0495338,149.4140625,589.84375,27.34375,18.06640625,0.0
1734412806.0534391,182.6171875,550.78125,36.1328125,12.20703125,0.0
1734412806.0573442,112.79296875,461.9140625,33.203125,3.41796875,0.0
1734412806.0612495,172.8515625,364.74609375,35.64453125,21.97265625,0.0
1734412806.065167,188.96484375,265.625,60.546875,23.4375,0.0
1734412806.0690722,139.6484375,206.0546875,53.22265625,-7.32421875,0.0
1734412806.0729773,166.9921875,187.01171875,40.52734375,33.203125,0.0
1734412806.0768826,172.8515625,158.69140625,43.45703125,33.69140625,0.0
1734412806.080788,151.3671875,124.0234375,49.8046875,20.5078125,0.0
1734412806.084693,140.625,119.62890625,40.0390625,41.9921875,0.0
1734412806.0885983,179.6875,163.0859375,44.43359375,52.734375,0.0
1734412806.0925035,154.78515625,189.94140625,49.31640625,16.11328125,0.0
1734412806.0964088,125.9765625,183.10546875,29.78515625,4.8828125,0.0
1734412806.100314,133.7890625,167.48046875,24.4140625,15.13671875,0.0
1734412806.1042192,126.953125,161.62109375,25.390625,-18.5546875,0.0
1734412806.1081245,118.1640625,145.99609375,16.11328125,-7.8125,0.0
1734412806.1120403,89.84375,127.9296875,17.08984375,-11.71875,0.0
1734412806.1159456,96.6796875,154.296875,6.34765625,-44.921875,0.0
1734412806.1198509,82.51953125,163.0859375,-19.53125,-60.05859375,0.0
1734412806.123756,44.921875,142.578125,-16.11328125,-75.1953125,0.0
1734412806.1276612,27.34375,152.34375,0.9765625,-104.98046875,0.0
1734412806.1315665,0.48828125,166.015625,0.9765625,-138.18359375,0.0
1734412806.1354716,-3.90625,163.57421875,-4.8828125,-152.83203125,0.0
1734412806.1393769,-11.71875,177.24609375,-1.46484375,-156.73828125,0.0
1734412806.1432822,-69.3359375,191.40625,-19.53125,-205.56640625,0.0
1734412806.1471875,-116.69921875,203.125,-36.62109375,-261.23046875,0.0
1734412806.1510925,-106.4453125,206.54296875,-18.06640625,-242.67578125,0.0
1734412806.1549978,-86.42578125,194.82421875,-2.44140625,-239.2578125,0.0
1734412806.1589248,-94.23828125,186.03515625,-6.8359375,-229.00390625,0.0
1734412806.16283,-90.33203125,182.6171875,0.0,-223.14453125,0.0
1734412806.1667354,-95.703125,208.0078125,0.9765625,-246.58203125,0.0
1734412806.1706407,-101.5625,230.95703125,-2.44140625,-276.3671875,0.0
1734412806.1745458,-74.21875,222.16796875,-9.765625,-264.16015625,0.0
1734412806.178451,-56.640625,233.88671875,-22.94921875,-218.75,0.0
1734412806.1823564,-32.71484375,251.46484375,-27.83203125,-187.5,0.0
1734412806.1862614,2.9296875,240.72265625,-35.64453125,-167.96875,0.0
1734412806.1901667,-19.53125,218.75,-39.55078125,-175.78125,0.0
1734412806.194072,20.5078125,204.1015625,-70.80078125,-146.484375,0.0
1734412806.1979773,104.4921875,208.0078125,-104.4921875,-51.7578125,0.0
1734412806.2018824,86.42578125,215.33203125,-71.77734375,-42.48046875,0.0
1734412806.205794,61.5234375,263.671875,-66.89453125,-88.8671875,0.0
1734412806.2096994,74.21875,313.96484375,-91.796875,-98.14453125,0.0
1734412806.2136045,89.84375,307.6171875,-91.796875,-88.8671875,0.0
1734412806.2175097,52.24609375,277.34375,-72.75390625,-81.54296875,0.0
1734412806.221415,62.5,266.11328125,-60.546875,-62.5,0.0
1734412806.2253203,104.98046875,258.30078125,-56.15234375,-26.3671875,0.0
1734412806.2292254,137.20703125,235.83984375,-50.78125,-0.9765625,0.0
1734412806.2331307,174.31640625,213.37890625,-51.7578125,15.13671875,0.0
1734412806.237036,159.1796875,187.5,-45.41015625,18.5546875,0.0
1734412806.240941,167.96875,160.64453125,-44.921875,32.71484375,0.0
1734412806.2448463,203.125,152.34375,-53.7109375,60.05859375,0.0
1734412806.2487516,187.98828125,140.13671875,-55.6640625,62.98828125,0.0
1734412806.2526615,180.6640625,146.484375,-32.71484375,61.5234375,0.0
1734412806.2565668,215.33203125,144.04296875,-24.90234375,75.68359375,0.0
1734412806.260472,218.26171875,130.37109375,-50.78125,79.1015625,0.0
1734412806.264377,188.4765625,122.0703125,-72.265625,66.89453125,0.0
1734412806.2682824,209.47265625,112.79296875,-76.66015625,56.15234375,0.0
1734412806.2721877,205.56640625,103.515625,-71.77734375,62.5,0.0
1734412806.2760928,192.3828125,96.6796875,-86.9140625,74.21875,0.0
1734412806.279998,202.1484375,88.37890625,-94.23828125,75.1953125,0.0
1734412806.2839034,223.14453125,96.6796875,-85.9375,67.87109375,0.0
1734412806.2878084,215.8203125,101.5625,-96.19140625,50.29296875,0.0
1734412806.2917137,226.5625,97.65625,-100.5859375,33.69140625,0.0
1734412806.295619,219.7265625,113.76953125,-91.30859375,53.22265625,0.0
1734412806.299528,184.5703125,121.09375,-74.70703125,57.12890625,0.0
1734412806.303433,198.73046875,129.39453125,-81.0546875,42.48046875,0.0
1734412806.3073382,205.56640625,147.4609375,-87.890625,45.8984375,0.0
1734412806.3112435,191.89453125,154.78515625,-83.984375,64.94140625,0.0
1734412806.3151486,197.265625,151.85546875,-86.42578125,76.66015625,0.0
1734412806.319054,205.56640625,156.25,-86.9140625,69.3359375,0.0
1734412806.3229592,188.96484375,169.43359375,-92.7734375,66.89453125,0.0
1734412806.3268645,184.5703125,178.7109375,-105.46875,51.26953125,0.0
1734412806.3307695,197.265625,177.24609375,-99.609375,60.546875,0.0
1734412806.3346748,207.51953125,164.0625,-100.5859375,44.921875,0.0
1734412806.3385801,205.56640625,160.64453125,-109.375,43.45703125,0.0
1734412806.3424852,223.6328125,167.48046875,-105.46875,48.33984375,0.0
1734412806.3463922,210.44921875,173.33984375,-103.02734375,30.2734375,0.0
1734412806.3502975,183.59375,189.94140625,-110.83984375,41.015625,0.0
1734412806.3542025,207.51953125,206.54296875,-115.72265625,55.17578125,0.0
1734412806.3581078,206.0546875,240.234375,-115.234375,38.0859375,0.0
1734412806.362013,169.43359375,283.69140625,-117.67578125,35.15625,0.0
1734412806.3659182,177.24609375,300.29296875,-118.1640625,40.52734375,0.0
1734412806.3698235,180.17578125,317.3828125,-121.58203125,31.73828125,0.0
1734412806.3737288,189.94140625,333.984375,-121.09375,42.96875,0.0
1734412806.377634,196.2890625,327.1484375,-109.375,53.7109375,0.0
1734412806.381539,183.10546875,331.54296875,-118.1640625,26.3671875,0.0
1734412806.3854444,189.453125,336.42578125,-127.44140625,24.90234375,0.0
1734412806.3893497,185.05859375,343.26171875,-124.51171875,29.78515625,0.0
1734412806.3932557,181.640625,344.7265625,-128.90625,6.34765625,0.0
1734412806.397161,193.84765625,336.42578125,-127.44140625,5.859375,0.0
1734412806.401066,165.52734375,332.51953125,-115.72265625,9.27734375,0.0
1734412806.4049714,161.1328125,342.7734375,-122.55859375,11.23046875,0.0
1734412806.4088767,176.26953125,367.67578125,-127.44140625,19.04296875,0.0
1734412806.4127817,187.5,385.7421875,-121.58203125,17.578125,0.0
1734412806.416687,180.17578125,394.53125,-112.79296875,23.92578125,0.0
1734412806.4205923,166.015625,393.5546875,-112.3046875,10.25390625,0.0
1734412806.4244974,160.64453125,387.20703125,-108.88671875,3.41796875,0.0
1734412806.4284027,132.32421875,390.625,-98.6328125,6.34765625,0.0
1734412806.432308,147.4609375,398.4375,-85.44921875,-3.41796875,0.0
1734412806.4362133,207.51953125,408.69140625,-61.03515625,-0.48828125,0.0
1734412806.4401302,146.97265625,404.296875,-49.8046875,-22.94921875,0.0
1734412806.4440353,125.0,386.23046875,-39.55078125,-25.390625,0.0
1734412806.4479406,143.06640625,372.0703125,-28.3203125,-6.34765625,0.0
1734412806.451846,124.51171875,355.95703125,-31.73828125,-2.9296875,0.0
1734412806.455751,150.87890625,340.33203125,-33.69140625,-10.7421875,0.0
1734412806.4596562,148.4375,337.890625,-22.94921875,0.48828125,0.0
1734412806.4635615,127.44140625,352.5390625,-10.25390625,-6.34765625,0.0
1734412806.4674668,146.484375,359.375,-12.6953125,-13.18359375,0.0
1734412806.471372,133.30078125,366.2109375,-27.34375,-16.11328125,0.0
1734412806.4752772,136.23046875,377.9296875,-38.0859375,-13.671875,0.0
1734412806.4791825,130.859375,375.0,-35.64453125,-7.32421875,0.0
1734412806.4830875,127.9296875,410.64453125,-46.38671875,-14.6484375,0.0
1734412806.4870155,136.71875,458.984375,-45.41015625,0.48828125,0.0
1734412806.4909208,128.90625,462.40234375,-47.8515625,10.7421875,0.0
1734412806.4948258,132.8125,466.796875,-69.82421875,7.8125,0.0
1734412806.4987311,133.7890625,467.7734375,-106.4453125,-8.7890625,0.0
1734412806.5026364,136.71875,457.51953125,-138.671875,-17.08984375,0.0
1734412806.5065417,121.09375,437.98828125,-156.73828125,2.44140625,0.0
1734412806.5104468,99.609375,430.6640625,-196.77734375,-9.765625,0.0
1734412806.514352,111.328125,431.15234375,-220.703125,-32.2265625,0.0
1734412806.5182574,126.46484375,402.83203125,-217.7734375,-21.484375,0.0
1734412806.5221624,127.9296875,403.3203125,-234.86328125,-20.5078125,0.0
1734412806.5260677,110.83984375,403.3203125,-230.46875,-16.11328125,0.0
1734412806.529973,113.76953125,387.6953125,-226.5625,-16.11328125,0.0
1734412806.5338874,145.01953125,407.71484375,-233.88671875,-28.80859375,0.0
1734412806.5377927,130.37109375,414.55078125,-225.09765625,-31.25,0.0
1734412806.5416977,106.93359375,407.71484375,-218.75,-30.2734375,0.0
1734412806.545603,119.62890625,410.64453125,-224.12109375,-26.3671875,0.0
1734412806.5495083,114.2578125,412.109375,-233.3984375,-33.203125,0.0
1734412806.5534136,124.0234375,408.203125,-235.83984375,-13.18359375,0.0
1734412806.5573187,169.43359375,399.4140625,-235.83984375,24.90234375,0.0
1734412806.561224,139.16015625,378.41796875,-243.65234375,-6.34765625,0.0
1734412806.5651293,61.5234375,360.83984375,-248.53515625,-78.61328125,0.0
1734412806.5690343,31.73828125,352.05078125,-247.55859375,-86.9140625,0.0
1734412806.5729396,61.03515625,339.35546875,-251.953125,-89.35546875,0.0
1734412806.576845,61.03515625,323.73046875,-252.9296875,-80.56640625,0.0
1734412806.5807567,20.5078125,317.3828125,-250.9765625,-77.1484375,0.0
1734412806.5846617,-5.37109375,320.3125,-269.53125,-116.2109375,0.0
1734412806.588567,24.4140625,314.94140625,-283.69140625,-133.7890625,0.0
1734412806.5924723,20.5078125,295.8984375,-270.99609375,-109.86328125,0.0
1734412806.5963776,31.25,295.8984375,-276.85546875,-85.44921875,0.0
1734412806.6002827,89.35546875,288.57421875,-281.25,-83.984375,0.0
1734412806.604188,54.6875,278.3203125,-279.78515625,-80.56640625,0.0
1734412806.6080933,21.484375,279.78515625,-278.3203125,-82.51953125,0.0
1734412806.6119983,67.3828125,266.6015625,-272.4609375,-68.359375,0.0
1734412806.6159036,76.66015625,264.16015625,-265.625,-57.12890625,0.0
1734412806.619809,67.3828125,268.5546875,-267.08984375,-60.546875,0.0
1734412806.6237142,78.125,259.27734375,-274.90234375,-53.7109375,0.0
1734412806.627662,94.23828125,261.71875,-268.5546875,-56.640625,0.0
1734412806.6315672,83.984375,260.7421875,-259.765625,-42.48046875,0.0
1734412806.6354723,72.265625,248.046875,-261.71875,-34.1796875,0.0
1734412806.6393776,74.21875,247.55859375,-269.04296875,-63.4765625,0.0
1734412806.643283,94.23828125,253.41796875,-267.578125,-66.89453125,0.0
1734412806.6471882,104.98046875,250.0,-267.578125,-68.359375,0.0
1734412806.6510932,102.05078125,249.51171875,-261.23046875,-64.453125,0.0
1734412806.6549985,84.47265625,249.0234375,-240.234375,-47.36328125,0.0
1734412806.6589038,82.03125,249.0234375,-228.515625,-50.78125,0.0
1734412806.662809,104.4921875,253.90625,-218.26171875,-41.015625,0.0
1734412806.6667142,83.49609375,248.53515625,-211.42578125,-38.0859375,0.0
1734412806.6706195,78.61328125,246.09375,-212.890625,-44.921875,0.0
1734412806.6745293,88.8671875,250.9765625,-224.609375,-46.38671875,0.0
1734412806.6784346,104.4921875,250.9765625,-217.28515625,-40.52734375,0.0
1734412806.6823397,99.609375,248.046875,-207.03125,-25.390625,0.0
1734412806.686245,82.03125,243.65234375,-209.47265625,-41.9921875,0.0
1734412806.6901503,67.87109375,239.2578125,-209.9609375,-47.8515625,0.0
1734412806.6940556,75.1953125,226.07421875,-213.37890625,-28.3203125,0.0
1734412806.6979606,104.98046875,212.890625,-222.16796875,-30.76171875,0.0
1734412806.701866,89.35546875,216.796875,-229.98046875,-51.7578125,0.0
1734412806.7057712,106.4453125,215.33203125,-229.4921875,-43.45703125,0.0
1734412806.7096763,100.5859375,216.30859375,-220.703125,-24.4140625,0.0
1734412806.7135816,98.6328125,220.21484375,-208.984375,-16.11328125,0.0
1734412806.7174869,106.4453125,216.30859375,-204.58984375,-34.1796875,0.0
1734412806.721393,82.03125,213.37890625,-198.2421875,-45.8984375,0.0
1734412806.7252984,84.47265625,213.8671875,-191.40625,-52.24609375,0.0
1734412806.7292037,77.1484375,213.37890625,-186.5234375,-59.08203125,0.0
1734412806.7331088,85.44921875,204.1015625,-170.8984375,-52.24609375,0.0
1734412806.737014,99.609375,211.9140625,-161.62109375,-30.76171875,0.0
1734412806.7409194,90.33203125,256.8359375,-168.45703125,-25.390625,0.0
1734412806.7448244,98.6328125,265.625,-169.921875,-27.83203125,0.0
1734412806.7487297,74.21875,253.90625,-159.66796875,-13.671875,0.0
1734412806.752635,70.3125,252.44140625,-153.80859375,-35.15625,0.0
1734412806.7565403,82.51953125,242.67578125,-157.71484375,-57.6171875,0.0
1734412806.7604454,83.49609375,229.4921875,-153.3203125,-45.8984375,0.0
1734412806.7643507,74.70703125,217.28515625,-147.4609375,-48.33984375,0.0
1734412806.7682683,63.96484375,214.35546875,-145.01953125,-60.05859375,0.0
1734412806.7721736,73.2421875,203.61328125,-135.25390625,-36.62109375,0.0
1734412806.7760787,90.33203125,192.87109375,-129.8828125,-31.25,0.0
1734412806.779984,83.49609375,198.73046875,-139.16015625,-43.9453125,0.0
1734412806.7838893,90.8203125,192.87109375,-134.27734375,-31.25,0.0
1734412806.7877946,95.703125,183.10546875,-141.11328125,-32.2265625,0.0
1734412806.7916996,83.49609375,181.640625,-156.25,-26.3671875,0.0
1734412806.795605,88.8671875,181.15234375,-159.1796875,-18.5546875,0.0
1734412806.7995102,83.0078125,172.36328125,-165.52734375,-26.3671875,0.0
1734412806.8034153,69.82421875,180.6640625,-167.96875,-24.4140625,0.0
1734412806.8073206,102.05078125,208.49609375,-175.29296875,-34.66796875,0.0
1734412806.811226,99.12109375,216.796875,-178.7109375,-18.5546875,0.0
1734412806.8151524,65.4296875,213.37890625,-170.41015625,-25.390625,0.0
1734412806.8190577,84.47265625,214.35546875,-180.17578125,-39.55078125,0.0
1734412806.8229628,101.5625,211.42578125,-177.24609375,-35.15625,0.0
1734412806.826868,83.0078125,200.1953125,-158.203125,-14.6484375,0.0
1734412806.8307734,84.47265625,196.77734375,-159.66796875,-20.01953125,0.0
1734412806.8346786,77.1484375,192.3828125,-169.921875,-35.64453125,0.0
1734412806.8385837,75.68359375,194.82421875,-166.9921875,-27.34375,0.0
1734412806.842489,78.61328125,202.1484375,-160.15625,-35.15625,0.0
1734412806.8463943,60.05859375,192.87109375,-166.9921875,-40.0390625,0.0
1734412806.8502994,63.96484375,182.12890625,-174.31640625,-32.71484375,0.0
1734412806.8542047,87.890625,183.10546875,-172.36328125,-30.2734375,0.0
1734412806.85811,77.1484375,181.15234375,-173.33984375,-37.59765625,0.0
1734412806.8620505,66.40625,166.9921875,-171.38671875,-29.78515625,0.0
1734412806.8659558,89.84375,157.71484375,-158.203125,-16.11328125,0.0
1734412806.869861,96.6796875,160.64453125,-154.296875,-15.625,0.0
1734412806.8737662,66.40625,149.4140625,-158.203125,-17.578125,0.0
1734412806.8776715,66.89453125,140.625,-156.25,-21.484375,0.0
1734412806.8815768,62.5,138.671875,-150.87890625,-19.53125,0.0
1734412806.8854818,69.3359375,123.046875,-149.4140625,-33.69140625,0.0
1734412806.8893871,90.33203125,116.2109375,-152.34375,-38.0859375,0.0
1734412806.8932924,84.47265625,106.93359375,-163.0859375,-30.2734375,0.0
1734412806.8971977,54.6875,104.4921875,-171.38671875,-31.73828125,0.0
1734412806.9011028,64.94140625,121.58203125,-172.8515625,-32.2265625,0.0
1734412806.905008,73.73046875,118.65234375,-171.38671875,-41.015625,0.0
1734412806.9089217,57.12890625,110.83984375,-167.96875,-55.17578125,0.0
1734412806.9128268,50.29296875,117.67578125,-158.69140625,-41.9921875,0.0
1734412806.916732,44.43359375,119.62890625,-150.390625,-27.83203125,0.0
1734412806.9206374,69.82421875,108.88671875,-151.85546875,-49.8046875,0.0
1734412806.9245427,86.9140625,99.12109375,-160.64453125,-39.0625,0.0
1734412806.9284477,56.640625,89.84375,-162.109375,-25.390625,0.0
1734412806.932353,55.6640625,81.54296875,-187.01171875,-41.9921875,0.0
1734412806.9362583,68.359375,83.49609375,-206.54296875,-26.85546875,0.0
1734412806.9401636,58.59375,79.58984375,-197.265625,-22.4609375,0.0
1734412806.9440687,43.45703125,84.9609375,-192.87109375,-48.33984375,0.0
1734412806.947974,32.71484375,83.0078125,-199.70703125,-64.94140625,0.0
1734412806.9518793,14.6484375,62.01171875,-206.0546875,-70.80078125,0.0
1734412806.9557908,0.9765625,55.6640625,-217.28515625,-83.49609375,0.0
1734412806.959696,-13.18359375,48.33984375,-210.9375,-101.07421875,0.0
1734412806.9636014,-41.50390625,57.12890625,-188.96484375,-116.69921875,0.0
1734412806.9675066,-61.03515625,62.01171875,-194.82421875,-141.6015625,0.0
1734412806.9714117,-77.63671875,46.875,-190.91796875,-149.4140625,0.0
1734412806.975317,-76.66015625,43.9453125,-180.17578125,-160.64453125,0.0
1734412806.9792223,-85.9375,51.7578125,-169.43359375,-181.15234375,0.0
1734412806.9831274,-153.80859375,44.43359375,-157.71484375,-224.609375,0.0
1734412806.9870327,-184.5703125,31.25,-146.97265625,-263.18359375,0.0
1734412806.990938,-177.734375,35.15625,-119.62890625,-272.94921875,0.0
1734412806.9948432,-192.3828125,30.2734375,-104.98046875,-294.921875,0.0
1734412806.9987483,-173.828125,20.99609375,-96.6796875,-292.48046875,0.0
1734412807.0026588,-174.8046875,14.16015625,-79.58984375,-287.59765625,0.0
1734412807.006564,-207.03125,5.859375,-69.3359375,-289.55078125,0.0
1734412807.0104692,-163.57421875,5.37109375,-58.59375,-261.23046875,0.0
1734412807.0143745,-133.7890625,7.32421875,-38.0859375,-240.72265625,0.0
1734412807.0182798,-128.90625,9.765625,-31.25,-229.98046875,0.0
1734412807.0221848,-125.9765625,7.8125,-37.109375,-206.0546875,0.0
1734412807.0260901,-77.1484375,3.41796875,-21.484375,-157.71484375,0.0
1734412807.0299954,-29.296875,-5.859375,-1.46484375,-121.09375,0.0
1734412807.0339005,-15.625,-14.16015625,4.39453125,-138.671875,0.0
1734412807.0378058,-40.52734375,-24.90234375,12.20703125,-138.671875,0.0
1734412807.041711,-21.484375,-34.1796875,11.71875,-108.3984375,0.0
1734412807.0456164,18.06640625,-39.55078125,14.6484375,-77.63671875,0.0
1734412807.0495255,20.01953125,-45.8984375,22.94921875,-41.9921875,0.0
1734412807.0534308,30.76171875,-37.109375,25.390625,-16.11328125,0.0
1734412807.0573359,53.7109375,-37.59765625,29.296875,5.859375,0.0
1734412807.0612411,63.96484375,-48.33984375,40.0390625,10.7421875,0.0
1734412807.0651464,61.03515625,-51.26953125,46.875,11.23046875,0.0
1734412807.0690517,81.54296875,-54.19921875,53.7109375,9.27734375,0.0
1734412807.0729568,93.75,-53.7109375,57.12890625,3.41796875,0.0
1734412807.076862,86.42578125,-48.828125,48.33984375,18.5546875,0.0
1734412807.0807674,115.72265625,-43.45703125,43.45703125,30.2734375,0.0
1734412807.0846725,125.9765625,-44.921875,48.33984375,46.875,0.0
1734412807.0885777,101.07421875,-43.45703125,55.17578125,45.8984375,0.0
1734412807.092483,94.23828125,-39.0625,54.6875,41.50390625,0.0
1734412807.0963898,99.12109375,-35.15625,47.36328125,60.546875,0.0
1734412807.1002948,104.98046875,-33.69140625,42.96875,56.640625,0.0
1734412807.1042001,104.4921875,-30.76171875,35.15625,42.96875,0.0
1734412807.1081054,104.98046875,-19.04296875,29.296875,37.59765625,0.0
1734412807.1120107,100.09765625,-14.16015625,29.296875,35.15625,0.0
1734412807.1159158,116.69921875,-11.71875,31.73828125,43.45703125,0.0
1734412807.119821,124.51171875,-12.20703125,34.66796875,48.33984375,0.0
1734412807.1237264,119.140625,-0.48828125,40.52734375,58.59375,0.0
1734412807.1276314,108.3984375,16.6015625,47.36328125,66.89453125,0.0
1734412807.1315367,110.3515625,19.04296875,49.8046875,43.9453125,0.0
1734412807.135442,95.703125,17.578125,53.7109375,42.48046875,0.0
1734412807.1393473,77.1484375,22.94921875,54.19921875,51.26953125,0.0
1734412807.1432526,86.42578125,25.390625,46.875,35.15625,0.0
1734412807.147158,91.796875,24.90234375,43.9453125,35.15625,0.0
1734412807.1510632,94.23828125,26.3671875,51.7578125,58.59375,0.0
1734412807.1549683,83.984375,22.4609375,53.7109375,48.828125,0.0
1734412807.1588736,89.35546875,20.01953125,58.10546875,47.36328125,0.0
1734412807.1627789,96.6796875,24.4140625,53.7109375,42.48046875,0.0
1734412807.1666842,83.49609375,21.97265625,44.43359375,22.4609375,0.0
1734412807.1705892,70.80078125,22.94921875,51.26953125,6.8359375,0.0
1734412807.1744945,73.2421875,24.4140625,57.6171875,17.578125,0.0
1734412807.1783998,75.68359375,18.06640625,57.12890625,30.76171875,0.0
1734412807.182305,73.2421875,20.5078125,49.8046875,20.5078125,0.0
1734412807.1862102,58.59375,23.92578125,48.33984375,20.01953125,0.0
1734412807.1901271,47.36328125,18.5546875,49.8046875,25.390625,0.0
1734412807.1940324,62.01171875,12.6953125,50.78125,38.57421875,0.0
1734412807.1979377,54.19921875,18.5546875,61.5234375,20.01953125,0.0
1734412807.2018428,52.24609375,19.04296875,69.3359375,7.32421875,0.0
1734412807.205748,50.78125,12.20703125,72.265625,11.23046875,0.0
1734412807.2096534,41.50390625,6.34765625,75.68359375,-2.9296875,0.0
1734412807.2135587,51.7578125,9.765625,88.8671875,5.859375,0.0
1734412807.2174637,35.15625,12.20703125,101.5625,1.46484375,0.0
1734412807.221369,20.99609375,3.90625,100.09765625,-19.04296875,0.0
1734412807.2252743,32.2265625,-0.48828125,105.46875,-11.23046875,0.0
1734412807.2291796,37.59765625,5.859375,119.140625,-14.16015625,0.0
1734412807.2330847,26.85546875,9.27734375,125.9765625,-14.6484375,0.0
1734412807.237,41.9921875,7.32421875,133.7890625,-8.7890625,0.0
1734412807.2409053,30.2734375,3.41796875,140.13671875,-8.7890625,0.0
1734412807.2448106,1.953125,2.9296875,147.94921875,-13.18359375,0.0
1734412807.2487156,16.11328125,4.8828125,161.1328125,-10.7421875,0.0
1734412807.252621,34.1796875,6.34765625,168.9453125,-5.859375,0.0
1734412807.2565262,-4.39453125,-8.30078125,169.43359375,-33.203125,0.0
1734412807.2604313,-32.2265625,-13.18359375,187.01171875,-26.3671875,0.0
1734412807.2643366,-32.71484375,-6.34765625,214.84375,-40.0390625,0.0
1734412807.268242,-19.53125,-23.4375,224.609375,-64.94140625,0.0
1734412807.2721472,-25.390625,-36.1328125,241.2109375,-23.92578125,0.0
1734412807.2760522,-70.80078125,-33.69140625,270.01953125,-61.03515625,0.0
1734412807.2799575,-113.76953125,-28.80859375,288.0859375,-126.953125,0.0
1734412807.2838712,-125.9765625,-19.04296875,303.7109375,-141.6015625,0.0
1734412807.2877765,-146.97265625,-23.92578125,312.01171875,-169.43359375,0.0
1734412807.2916818,-166.015625,-25.390625,313.96484375,-190.4296875,0.0
1734412807.295587,-174.8046875,-18.06640625,315.4296875,-189.453125,0.0
1734412807.2994921,-160.15625,-19.04296875,319.3359375,-198.2421875,0.0
1734412807.3033974,-177.734375,-27.83203125,324.70703125,-233.88671875,0.0
1734412807.3073027,-195.80078125,-35.64453125,331.0546875,-228.515625,0.0
1734412807.311208,-204.1015625,-38.57421875,338.8671875,-208.49609375,0.0
1734412807.315113,-232.91015625,-52.734375,342.7734375,-224.609375,0.0
1734412807.3190184,-204.58984375,-56.640625,353.02734375,-209.47265625,0.0
1734412807.3229237,-185.546875,-48.828125,360.3515625,-190.91796875,0.0
1734412807.3268287,-208.984375,-54.6875,352.05078125,-207.51953125,0.0
1734412807.3307402,-208.49609375,-57.12890625,344.7265625,-210.9375,0.0
1734412807.3346455,-192.3828125,-57.12890625,338.37890625,-200.68359375,0.0
1734412807.3385508,-164.55078125,-62.01171875,324.21875,-193.84765625,0.0
1734412807.3424559,-143.06640625,-64.94140625,308.10546875,-172.36328125,0.0
1734412807.3463612,-169.921875,-69.3359375,295.8984375,-166.50390625,0.0
1734412807.3502665,-171.38671875,-72.75390625,273.4375,-169.921875,0.0
1734412807.3541718,-131.8359375,-72.75390625,253.90625,-129.8828125,0.0
1734412807.3580768,-93.26171875,-78.125,250.0,-87.890625,0.0
1734412807.361982,-90.8203125,-87.890625,241.69921875,-81.0546875,0.0
1734412807.3658874,-92.7734375,-88.37890625,224.12109375,-83.49609375,0.0
1734412807.3697927,-73.2421875,-96.19140625,206.54296875,-61.03515625,0.0
1734412807.3736978,-36.1328125,-97.65625,193.84765625,-20.99609375,0.0
1734412807.3776202,-31.25,-98.6328125,187.01171875,-2.9296875,0.0
1734412807.3815255,-36.1328125,-107.421875,177.24609375,7.8125,0.0
1734412807.3854306,-1.953125,-106.93359375,165.0390625,28.80859375,0.0
1734412807.3893359,15.625,-96.6796875,149.4140625,32.71484375,0.0
1734412807.3932412,6.34765625,-88.37890625,130.859375,35.15625,0.0
1734412807.3971465,24.90234375,-91.796875,123.046875,52.24609375,0.0
1734412807.4010515,2.44140625,-104.98046875,113.76953125,41.015625,0.0
1734412807.4049568,-1.46484375,-102.5390625,96.19140625,32.71484375,0.0
1734412807.408862,21.97265625,-93.26171875,88.37890625,62.5,0.0
1734412807.4127674,13.18359375,-98.6328125,91.30859375,83.0078125,0.0
1734412807.4166725,28.3203125,-98.14453125,87.40234375,85.9375,0.0
1734412807.4205778,41.50390625,-117.67578125,70.3125,90.8203125,0.0
1734412807.4244862,33.69140625,-126.953125,60.546875,109.375,0.0
1734412807.4283915,39.55078125,-105.95703125,66.40625,119.62890625,0.0
1734412807.4322965,17.08984375,-102.5390625,63.4765625,104.00390625,0.0
1734412807.4362018,-6.8359375,-101.07421875,44.921875,68.84765625,0.0
1734412807.440107,3.41796875,-94.7265625,32.2265625,51.7578125,0.0
1734412807.4440124,-8.30078125,-89.84375,24.90234375,37.109375,0.0
1734412807.4479175,-8.7890625,-87.40234375,28.80859375,42.96875,0.0
1734412807.4518228,-2.44140625,-91.796875,31.25,53.7109375,0.0
1734412807.455728,0.48828125,-88.8671875,14.6484375,54.19921875,0.0
1734412807.459633,3.41796875,-78.61328125,11.23046875,60.546875,0.0
1734412807.4635384,9.27734375,-77.1484375,13.18359375,60.05859375,0.0
1734412807.4674437,-5.37109375,-65.91796875,2.44140625,80.078125,0.0
1734412807.471352,1.953125,-50.78125,5.859375,99.12109375,0.0
1734412807.4752574,-0.48828125,-66.89453125,6.8359375,60.546875,0.0
1734412807.4791625,0.0,-65.4296875,-3.41796875,48.33984375,0.0
1734412807.4830678,3.41796875,-38.0859375,-13.671875,53.7109375,0.0
1734412807.486973,-21.484375,-40.0390625,-24.90234375,13.671875,0.0
1734412807.4908783,-35.64453125,-42.96875,-32.2265625,4.39453125,0.0
1734412807.4947834,-41.50390625,-44.43359375,-32.71484375,22.4609375,0.0
1734412807.4986887,-25.87890625,-32.71484375,-20.5078125,25.87890625,0.0
1734412807.502594,-48.33984375,-32.71484375,-30.76171875,-2.44140625,0.0
1734412807.5064993,-59.08203125,-43.9453125,-52.734375,-6.8359375,0.0
1734412807.5104043,-30.2734375,-43.45703125,-53.22265625,4.8828125,0.0
1734412807.5143096,-80.56640625,-48.828125,-50.29296875,-11.71875,0.0
1734412807.518216,0.0,-39.0625,-55.6640625,-20.99609375,0.0
1734412807.5221212,0.0,-40.0390625,-60.546875,-20.99609375,0.0
1734412807.5260265,0.0,-45.41015625,-58.59375,-29.296875,0.0
1734412807.5299318,0.0,-39.0625,-67.3828125,-39.0625,0.0
1734412807.5338368,0.0,-41.50390625,-62.98828125,-68.359375,0.0
1734412807.5377421,0.0,-42.96875,-39.0625,-109.86328125,0.0
1734412807.5416474,0.0,-42.96875,-19.04296875,-120.60546875,0.0
1734412807.5455525,0.0,-34.1796875,0.0,-112.3046875,0.0
1734412807.5494578,0.0,-24.90234375,1.46484375,-119.140625,0.0
1734412807.553363,0.0,-29.296875,-8.7890625,-148.4375,0.0
1734412807.5572684,0.0,-41.50390625,-7.8125,-171.38671875,0.0
1734412807.5611734,0.0,-51.26953125,10.25390625,-158.203125,0.0
1734412807.5651155,-228.02734375,-48.828125,18.5546875,-148.92578125,0.0
1734412807.5690207,-224.12109375,-44.43359375,14.6484375,-167.48046875,0.0
1734412807.572926,-230.46875,-53.7109375,19.53125,-165.0390625,0.0
1734412807.576831,-242.67578125,-59.5703125,14.16015625,-160.64453125,0.0
1734412807.5807364,-232.421875,-55.6640625,12.6953125,-148.92578125,0.0
1734412807.5846417,-207.51953125,-57.12890625,20.99609375,-130.859375,0.0
1734412807.588547,-195.80078125,-52.24609375,21.97265625,-127.44140625,0.0
1734412807.592452,-188.4765625,-50.78125,22.94921875,-125.0,0.0
1734412807.5963573,-201.66015625,-57.6171875,20.99609375,-139.6484375,0.0
1734412807.6002626,-223.6328125,-60.05859375,4.8828125,-156.73828125,0.0
1734412807.604168,-189.453125,-54.19921875,-11.23046875,-126.953125,0.0
1734412807.608073,-155.76171875,-54.19921875,-14.6484375,-91.796875,0.0
1734412807.6119883,-164.0625,-62.98828125,-2.9296875,-96.19140625,0.0
1734412807.6158936,-191.40625,-68.359375,-0.48828125,-122.0703125,0.0
1734412807.619799,-205.078125,-71.2890625,-13.18359375,-120.60546875,0.0
1734412807.623704,-171.38671875,-65.91796875,-13.18359375,-96.19140625,0.0
1734412807.6276093,-161.1328125,-58.59375,-20.01953125,-98.14453125,0.0
1734412807.6315145,-174.31640625,-60.546875,-32.71484375,-98.14453125,0.0
1734412807.6354196,-161.62109375,-58.59375,-30.2734375,-68.359375,0.0
1734412807.639325,-158.203125,-47.36328125,-41.9921875,-80.56640625,0.0
1734412807.6432302,-145.01953125,-37.109375,-73.2421875,-86.9140625,0.0
1734412807.6471355,-132.8125,-41.50390625,-87.40234375,-62.98828125,0.0
1734412807.6510406,-115.234375,-46.38671875,-113.28125,-45.41015625,0.0
1734412807.6549459,-110.3515625,-43.45703125,-170.41015625,-46.875,0.0
1734412807.6588597,-128.41796875,-49.8046875,-235.3515625,-49.31640625,0.0
1734412807.662765,-121.09375,-56.640625,-294.921875,-22.4609375,0.0
1734412807.6666703,-104.4921875,-52.734375,-335.44921875,-20.5078125,0.0
1734412807.6705754,-101.5625,-47.36328125,-369.62890625,-15.625,0.0
1734412807.6744807,-62.5,-51.7578125,-399.4140625,20.5078125,0.0
1734412807.678386,-41.015625,-48.33984375,-435.05859375,45.8984375,0.0
1734412807.6822913,-74.21875,-43.45703125,-475.09765625,24.4140625,0.0
1734412807.6861963,-78.125,-52.24609375,-502.44140625,-5.37109375,0.0
1734412807.6901016,-57.6171875,-55.17578125,-520.99609375,7.8125,0.0
1734412807.694007,-36.1328125,-47.36328125,-522.94921875,17.08984375,0.0
1734412807.6979122,-45.8984375,-46.38671875,-520.5078125,20.5078125,0.0
1734412807.7018173,-25.87890625,-51.26953125,-531.73828125,43.9453125,0.0
1734412807.7057416,-21.484375,-46.38671875,-544.43359375,70.80078125,0.0
1734412807.7096467,-27.83203125,-42.96875,-561.5234375,78.61328125,0.0
1734412807.713552,1.46484375,-47.36328125,-571.2890625,80.56640625,0.0
1734412807.7174573,-14.6484375,-53.7109375,-571.2890625,83.49609375,0.0
1734412807.7213624,-21.97265625,-60.546875,-568.84765625,97.16796875,0.0
1734412807.7252676,8.30078125,-65.4296875,-558.59375,117.67578125,0.0
1734412807.729173,15.625,-62.01171875,-571.77734375,107.91015625,0.0
1734412807.7330782,2.9296875,-58.59375,-596.6796875,102.05078125,0.0
1734412807.7369833,-6.34765625,-59.5703125,-592.7734375,117.1875,0.0
1734412807.7408886,-30.2734375,-56.15234375,-574.21875,91.30859375,0.0
1734412807.744794,-31.73828125,-50.29296875,-552.734375,69.82421875,0.0
1734412807.7486992,-34.66796875,-43.45703125,-535.15625,72.265625,0.0
1734412807.752609,-53.22265625,-40.0390625,-524.90234375,62.01171875,0.0
1734412807.7565143,-45.41015625,-45.8984375,-534.66796875,41.9921875,0.0
1734412807.7604196,-35.15625,-46.875,-552.734375,39.0625,0.0
1734412807.7643247,-22.4609375,-44.921875,-546.875,51.26953125,0.0
1734412807.76823,-17.08984375,-47.36328125,-520.99609375,37.59765625,0.0
1734412807.7721353,-28.80859375,-49.8046875,-490.72265625,34.66796875,0.0
1734412807.7760406,-12.20703125,-44.921875,-479.98046875,39.55078125,0.0
1734412807.7799456,-9.27734375,-40.0390625,-473.14453125,51.26953125,0.0
1734412807.783851,-18.06640625,-39.0625,-452.63671875,54.6875,0.0
1734412807.7877562,-21.97265625,-37.109375,-438.4765625,47.36328125,0.0
1734412807.7916615,-14.16015625,-33.203125,-419.921875,61.5234375,0.0
1734412807.7955666,-9.765625,-37.59765625,-392.08984375,64.94140625,0.0
1734412807.7994757,-4.39453125,-23.92578125,-371.09375,48.828125,0.0
1734412807.803381,-43.9453125,-16.11328125,-345.703125,46.875,0.0
1734412807.8072863,-48.828125,-19.04296875,-316.89453125,43.9453125,0.0
1734412807.8111913,-41.50390625,-13.671875,-294.921875,52.24609375,0.0
1734412807.8150966,-48.33984375,-13.18359375,-275.390625,45.8984375,0.0
1734412807.819002,-33.203125,-15.13671875,-269.53125,14.16015625,0.0
1734412807.8229072,-44.921875,-20.01953125,-263.18359375,25.87890625,0.0
1734412807.8268123,-69.3359375,-20.5078125,-244.140625,38.0859375,0.0
1734412807.8307176,-70.80078125,-16.6015625,-224.12109375,20.5078125,0.0
1734412807.8346229,-47.8515625,-18.5546875,-207.03125,24.4140625,0.0
1734412807.8385282,-58.10546875,-21.97265625,-197.265625,25.87890625,0.0
1734412807.8424332,-43.45703125,-20.5078125,-201.66015625,25.390625,0.0
1734412807.8463404,-17.08984375,-14.16015625,-200.68359375,15.625,0.0
1734412807.8502457,-43.45703125,-14.6484375,-195.80078125,9.27734375,0.0
1734412807.8541508,-52.24609375,-18.5546875,-188.96484375,28.3203125,0.0
1734412807.858056,-33.69140625,-6.34765625,-182.6171875,27.83203125,0.0
1734412807.8619614,-38.57421875,-1.46484375,-175.78125,10.25390625,0.0
1734412807.8658667,-38.0859375,-8.7890625,-163.57421875,9.27734375,0.0
1734412807.8697717,-32.2265625,-12.20703125,-160.15625,11.71875,0.0
1734412807.873677,-60.05859375,-14.6484375,-157.71484375,8.30078125,0.0
1734412807.8775823,-62.01171875,-12.6953125,-152.83203125,9.765625,0.0
1734412807.8814876,-47.8515625,-14.16015625,-154.78515625,10.7421875,0.0
1734412807.8853927,-50.78125,-17.578125,-156.73828125,4.39453125,0.0
1734412807.889298,-64.453125,-10.7421875,-150.87890625,28.3203125,0.0
1734412807.8932037,-70.3125,-9.765625,-147.4609375,55.17578125,0.0
1734412807.897109,-43.45703125,-11.23046875,-150.87890625,19.04296875,0.0
1734412807.9010143,-51.26953125,-5.37109375,-160.64453125,15.13671875,0.0
1734412807.9049194,-79.58984375,-4.8828125,-167.96875,26.85546875,0.0
1734412807.9088247,-78.125,-8.30078125,-162.59765625,-1.46484375,0.0
1734412807.91273,-70.3125,-8.30078125,-159.1796875,-3.41796875,0.0
1734412807.9166353,-62.01171875,-0.48828125,-169.921875,8.30078125,0.0
1734412807.9205403,-63.96484375,1.953125,-177.24609375,-5.859375,0.0
1734412807.9244456,-54.19921875,-1.953125,-178.22265625,8.7890625,0.0
1734412807.928351,-42.96875,6.8359375,-179.19921875,22.94921875,0.0
1734412807.9322562,-55.6640625,16.6015625,-176.26953125,4.39453125,0.0
1734412807.9361613,-64.453125,24.90234375,-174.8046875,-11.71875,0.0
1734412807.9400783,-53.7109375,27.34375,-169.43359375,-1.46484375,0.0
1734412807.9439836,-60.546875,20.01953125,-165.0390625,1.46484375,0.0
1734412807.9478886,-59.5703125,20.01953125,-163.0859375,7.8125,0.0
1734412807.951794,-62.5,19.53125,-149.4140625,9.27734375,0.0
1734412807.9556992,-54.6875,21.484375,-146.484375,-0.48828125,0.0
1734412807.9596045,-51.7578125,21.484375,-144.53125,-10.7421875,0.0
1734412807.9635096,-54.19921875,18.06640625,-139.16015625,-22.94921875,0.0
1734412807.9674149,-51.7578125,16.11328125,-136.71875,-12.20703125,0.0
1734412807.9713202,-55.17578125,18.5546875,-137.6953125,-5.37109375,0.0
1734412807.9752254,-36.1328125,15.625,-136.71875,-7.8125,0.0
1734412807.9791305,-56.640625,15.625,-130.859375,-16.11328125,0.0
1734412807.9830358,-80.078125,15.625,-123.53515625,-22.94921875,0.0
1734412807.9869504,-59.08203125,9.765625,-120.60546875,-13.18359375,0.0
1734412807.9908557,-60.546875,5.37109375,-113.76953125,-4.39453125,0.0
1734412807.9947608,-67.87109375,2.9296875,-104.00390625,-14.6484375,0.0
1734412807.998666,-72.75390625,0.48828125,-97.16796875,-17.578125,0.0
1734412808.0025713,-58.59375,-5.859375,-88.37890625,-7.8125,0.0
1734412808.0064766,-56.15234375,-16.6015625,-84.9609375,-24.4140625,0.0
1734412808.0103817,-67.3828125,-20.99609375,-78.125,-46.875,0.0
1734412808.014287,-78.125,-19.04296875,-65.4296875,-23.4375,0.0
1734412808.0181923,-77.63671875,-18.06640625,-59.08203125,-8.30078125,0.0
1734412808.0220976,-56.640625,-9.765625,-49.31640625,-9.765625,0.0
1734412808.0260026,-63.96484375,-1.46484375,-38.57421875,-18.5546875,0.0
1734412808.029908,-58.10546875,-6.8359375,-36.62109375,-28.3203125,0.0
1734412808.0338213,-49.31640625,-8.7890625,-30.2734375,-14.16015625,0.0
1734412808.0377266,-28.80859375,-4.8828125,-24.90234375,9.27734375,0.0
1734412808.0416317,-12.6953125,-11.23046875,-17.578125,22.4609375,0.0
1734412808.045537,-53.22265625,-22.94921875,-3.41796875,-12.6953125,0.0
1734412808.0494423,-78.61328125,-37.59765625,7.8125,-34.66796875,0.0
1734412808.0533476,-62.01171875,-42.48046875,12.6953125,-8.7890625,0.0
1734412808.0572526,-43.45703125,-42.96875,20.5078125,29.78515625,0.0
1734412808.061158,-64.453125,-62.5,28.80859375,11.71875,0.0
1734412808.0650632,-45.8984375,-82.03125,38.0859375,21.97265625,0.0
1734412808.0689685,-60.546875,-81.0546875,52.734375,35.15625,0.0
1734412808.0728736,-67.3828125,-88.37890625,56.640625,52.734375,0.0
1734412808.076779,-32.71484375,-96.6796875,62.98828125,91.30859375,0.0
1734412808.0806906,-46.38671875,-95.703125,70.3125,59.5703125,0.0
1734412808.084596,-33.203125,-101.07421875,70.3125,41.50390625,0.0
1734412808.088501,-18.06640625,-113.28125,67.87109375,36.1328125,0.0
1734412808.0924063,-20.5078125,-123.53515625,70.3125,48.33984375,0.0
1734412808.0963116,-16.11328125,-125.48828125,73.2421875,66.89453125,0.0
1734412808.1002166,-15.13671875,-126.953125,73.2421875,70.80078125,0.0
1734412808.104122,-10.25390625,-130.37109375,74.70703125,55.17578125,0.0
1734412808.1080272,-18.5546875,-137.20703125,70.3125,55.6640625,0.0
1734412808.1119325,-15.13671875,-136.71875,73.73046875,84.9609375,0.0
1734412808.1158376,1.953125,-136.23046875,83.0078125,83.984375,0.0
1734412808.1197429,0.48828125,-148.92578125,79.1015625,83.0078125,0.0
1734412808.1236482,-9.765625,-160.15625,73.73046875,77.63671875,0.0
1734412808.1275582,-7.32421875,-155.76171875,78.125,63.4765625,0.0
1734412808.1314633,-7.8125,-150.87890625,80.078125,71.2890625,0.0
1734412808.1353686,-7.32421875,-159.1796875,87.40234375,83.0078125,0.0
1734412808.139274,-9.27734375,-166.50390625,89.84375,82.03125,0.0
1734412808.1431792,-9.27734375,-141.11328125,86.42578125,75.1953125,0.0
1734412808.1470842,11.71875,-128.41796875,82.51953125,75.68359375,0.0
1734412808.1509895,19.04296875,-165.0390625,76.66015625,67.3828125,0.0
1734412808.1548948,20.01953125,-179.6875,81.54296875,99.609375,0.0
1734412808.1588001,11.71875,-158.203125,72.75390625,87.40234375,0.0
1734412808.1627052,9.765625,-149.90234375,72.75390625,62.98828125,0.0
1734412808.1666105,-2.44140625,-159.1796875,71.2890625,83.49609375,0.0
1734412808.1705158,4.8828125,-153.80859375,58.59375,72.265625,0.0
1734412808.1744366,16.11328125,-151.85546875,54.6875,55.6640625,0.0
1734412808.1783419,45.8984375,-157.71484375,52.734375,78.61328125,0.0
1734412808.1822472,54.6875,-151.3671875,56.15234375,83.984375,0.0
1734412808.1861525,15.625,-151.85546875,70.3125,85.9375,0.0
1734412808.1900575,37.59765625,-106.93359375,141.11328125,111.328125,0.0
1734412808.1939628,35.64453125,-105.95703125,151.85546875,103.515625,0.0
1734412808.197868,-6.34765625,-165.0390625,63.4765625,65.4296875,0.0
1734412808.2017734,24.4140625,-148.92578125,86.42578125,98.6328125,0.0
1734412808.2056785,66.40625,-94.7265625,183.10546875,131.8359375,0.0
1734412808.2095838,16.11328125,-46.38671875,169.921875,83.0078125,0.0
1734412808.213489,-7.8125,-97.16796875,108.3984375,59.08203125,0.0
1734412808.2173944,22.4609375,-273.92578125,90.8203125,64.94140625,0.0
1734412808.2213142,34.66796875,-343.26171875,110.3515625,62.98828125,0.0
1734412808.2252192,45.8984375,-316.89453125,291.015625,95.21484375,0.0
1734412808.2291245,28.3203125,-403.3203125,552.734375,93.75,0.0
1734412808.2330298,0.0,-421.875,604.00390625,57.12890625,0.0
1734412808.236935,-4.8828125,-449.21875,599.12109375,56.640625,0.0
1734412808.2408402,-13.671875,-708.49609375,614.74609375,38.0859375,0.0
1734412808.2447455,-28.3203125,-960.44921875,592.28515625,50.29296875,0.0
1734412808.2486508,-12.6953125,-1000.0,666.50390625,58.10546875,0.0
1734412808.2525558,20.99609375,-993.1640625,886.71875,60.05859375,0.0
1734412808.2564611,12.6953125,-1000.0,822.75390625,62.01171875,0.0
1734412808.2603664,-0.9765625,-1000.0,373.53515625,36.62109375,0.0
1734412808.2642717,28.3203125,-1000.0,100.5859375,21.97265625,0.0
1734412808.2681775,0.0,-1000.0,229.4921875,59.08203125,0.0
1734412808.2720828,0.0,-1000.0,677.734375,32.2265625,0.0
1734412808.275988,0.0,-1000.0,972.65625,-1.953125,0.0
1734412808.2798932,0.0,-1000.0,960.9375,38.57421875,0.0
1734412808.2837985,0.0,-1000.0,964.84375,59.5703125,0.0
1734412808.2877038,0.0,-1000.0,971.19140625,89.35546875,0.0
1734412808.291609,0.0,-1000.0,969.23828125,142.578125,0.0
1734412808.295514,0.0,-1000.0,969.23828125,130.859375,0.0
1734412808.2994194,0.0,-1000.0,969.7265625,88.8671875,0.0
1734412808.3033247,0.0,-1000.0,969.23828125,103.515625,0.0
1734412808.30723,0.0,-986.81640625,969.23828125,139.16015625,0.0
1734412808.311135,0.0,-979.4921875,969.23828125,144.04296875,0.0
1734412808.3150523,133.7890625,-996.58203125,969.7265625,153.3203125,0.0
1734412808.3189576,167.96875,-1000.0,969.23828125,189.453125,0.0
1734412808.3228629,171.875,-602.05078125,969.23828125,181.15234375,0.0
1734412808.326768,143.06640625,-117.67578125,969.23828125,175.29296875,0.0
1734412808.3306732,134.765625,150.390625,969.23828125,181.640625,0.0
1734412808.3345785,136.23046875,592.28515625,971.19140625,161.62109375,0.0
1734412808.3384838,153.3203125,747.55859375,964.35546875,166.9921875,0.0
1734412808.3423889,183.10546875,571.2890625,964.84375,202.1484375,0.0
1734412808.3462942,189.453125,722.16796875,965.8203125,206.0546875,0.0
1734412808.3501995,187.98828125,952.63671875,705.56640625,219.23828125,0.0
1734412808.3541048,186.5234375,969.7265625,255.859375,200.1953125,0.0
1734412808.3580098,166.50390625,963.8671875,-44.921875,151.85546875,0.0
1734412808.3619251,145.5078125,970.703125,-327.63671875,139.6484375,0.0
1734412808.3658302,133.30078125,969.7265625,-620.60546875,117.67578125,0.0
1734412808.3697355,117.1875,972.16796875,-680.17578125,103.515625,0.0
1734412808.3736408,85.44921875,955.078125,-709.9609375,70.3125,0.0
1734412808.377546,50.78125,979.4921875,-779.296875,45.41015625,0.0
1734412808.3814511,58.59375,875.0,-841.796875,63.96484375,0.0
1734412808.3853564,59.5703125,370.60546875,-877.44140625,60.546875,0.0
1734412808.3892617,37.59765625,-113.76953125,-858.88671875,4.8828125,0.0
1734412808.393167,29.78515625,-418.45703125,-881.8359375,-14.6484375,0.0
1734412808.397072,35.64453125,-695.80078125,-942.87109375,19.04296875,0.0
1734412808.4009774,5.859375,-932.6171875,-992.1875,10.7421875,0.0
1734412808.4048827,-21.97265625,-883.30078125,-1000.0,-3.41796875,0.0
1734412808.4088087,7.8125,-569.82421875,-999.0234375,19.53125,0.0
1734412808.412714,4.39453125,-534.1796875,-1000.0,26.3671875,0.0
1734412808.4166193,3.41796875,-650.87890625,-1000.0,15.625,0.0
1734412808.4205244,6.34765625,-751.953125,-1000.0,7.8125,0.0
1734412808.4244297,-9.765625,-880.859375,-1000.0,14.16015625,0.0
1734412808.428335,9.27734375,-987.79296875,-1000.0,44.43359375,0.0
1734412808.4322402,-3.41796875,-1000.0,-1000.0,28.80859375,0.0
1734412808.4361455,10.7421875,-997.0703125,-1000.0,17.578125,0.0
1734412808.4400506,30.76171875,-1000.0,-1000.0,5.37109375,0.0
1734412808.443956,-36.1328125,-1000.0,-1000.0,-43.9453125,0.0
1734412808.4478612,-59.5703125,-1000.0,-1000.0,-43.9453125,0.0
1734412808.4517665,-27.34375,-1000.0,-1000.0,-27.34375,0.0
1734412808.4556785,-25.87890625,-1000.0,-1000.0,-20.5078125,0.0
1734412808.4595838,-37.109375,-1000.0,-1000.0,-8.30078125,0.0
1734412808.463489,-69.3359375,-1000.0,-1000.0,-17.08984375,0.0
1734412808.4673944,-83.0078125,-1000.0,-1000.0,-27.83203125,0.0
1734412808.4712994,-79.1015625,-1000.0,-1000.0,-39.0625,0.0
1734412808.4752047,-104.00390625,-1000.0,-1000.0,-51.26953125,0.0
1734412808.47911,-118.1640625,-1000.0,-1000.0,-84.9609375,0.0
1734412808.4830153,-107.91015625,-1000.0,-999.51171875,-86.9140625,0.0
1734412808.4869204,-110.3515625,-989.74609375,-999.51171875,-75.68359375,0.0
1734412808.4908257,-130.859375,-1000.0,-994.62890625,-96.6796875,0.0
1734412808.494731,-129.8828125,-848.14453125,-938.4765625,-90.8203125,0.0
1734412808.4986362,-140.13671875,-548.33984375,-804.6875,-75.1953125,0.0
1734412808.502546,-181.15234375,-445.80078125,-630.37109375,-108.88671875,0.0
1734412808.5064514,-171.875,-283.203125,-578.125,-138.671875,0.0
1734412808.5103567,-141.11328125,-1.953125,-627.9296875,-114.2578125,0.0
1734412808.514262,-125.48828125,38.0859375,-570.3125,-68.84765625,0.0
1734412808.518167,-140.625,-497.55859375,-518.5546875,-76.171875,0.0
1734412808.5220723,-145.5078125,-977.05078125,-462.40234375,-116.69921875,0.0
1734412808.5259776,-160.64453125,-997.55859375,-190.4296875,-97.16796875,0.0
1734412808.529883,-163.57421875,-989.74609375,-50.78125,-96.6796875,0.0
1734412808.533788,-140.625,-1000.0,-199.21875,-108.88671875,0.0
1734412808.5376933,-151.85546875,-1000.0,-378.90625,-121.58203125,0.0
1734412808.5415986,-167.48046875,-1000.0,-440.4296875,-117.1875,0.0
1734412808.5455039,-170.41015625,-1000.0,-747.55859375,-114.2578125,0.0
1734412808.5494125,-197.75390625,-1000.0,-1000.0,-131.8359375,0.0
1734412808.5533178,-213.37890625,-1000.0,-963.37890625,-129.8828125,0.0
1734412808.557223,-222.65625,-1000.0,-773.4375,-127.44140625,0.0
1734412808.5611284,-226.07421875,-1000.0,-555.17578125,-128.41796875,0.0
1734412808.5650334,-224.12109375,-995.60546875,-312.01171875,-144.04296875,0.0
1734412808.5689387,-217.7734375,-1000.0,-77.1484375,-146.97265625,0.0
1734412808.572844,-208.49609375,-983.3984375,-108.3984375,-112.3046875,0.0
1734412808.5767493,-213.8671875,-845.21484375,-135.7421875,-118.65234375,0.0
1734412808.5806544,-237.79296875,-726.07421875,17.08984375,-134.27734375,0.0
1734412808.5845597,-211.9140625,-600.5859375,257.8125,-123.53515625,0.0
1734412808.588465,-200.1953125,-446.77734375,519.04296875,-129.39453125,0.0
1734412808.5923703,-226.07421875,-377.9296875,741.2109375,-125.0,0.0
1734412808.5962775,-216.796875,-388.18359375,933.59375,-131.8359375,0.0
1734412808.6001825,-195.80078125,-384.27734375,974.609375,-138.671875,0.0
1734412808.6040878,-207.51953125,-372.55859375,963.8671875,-119.140625,0.0
1734412808.6079931,-213.37890625,-404.296875,970.703125,-121.09375,0.0
1734412808.6118984,-194.3359375,-503.41796875,969.23828125,-129.39453125,0.0
1734412808.6158035,-191.40625,-627.9296875,969.23828125,-132.8125,0.0
1734412808.6197088,-191.40625,-705.56640625,969.7265625,-117.1875,0.0
1734412808.623614,-195.3125,-690.4296875,969.23828125,-119.62890625,0.0
1734412808.6275194,-200.68359375,-625.9765625,969.23828125,-135.7421875,0.0
1734412808.6314247,-189.453125,-665.0390625,969.23828125,-114.74609375,0.0
1734412808.6353297,-181.15234375,-719.7265625,969.23828125,-98.14453125,0.0
1734412808.639235,-185.05859375,-785.15625,969.23828125,-128.90625,0.0
1734412808.643166,-203.125,-916.9921875,969.23828125,-134.27734375,0.0
1734412808.6470714,-199.70703125,-986.328125,969.23828125,-119.62890625,0.0
1734412808.6509767,-185.05859375,-970.703125,969.23828125,-132.32421875,0.0
1734412808.654882,-181.640625,-985.83984375,969.23828125,-107.421875,0.0
1734412808.658787,-191.89453125,-1000.0,971.6796875,-109.375,0.0
1734412808.6626923,-212.890625,-984.375,962.40234375,-121.09375,0.0
1734412808.6665976,-207.03125,-979.98046875,973.14453125,-103.02734375,0.0
1734412808.670503,-197.75390625,-998.046875,954.58984375,-110.3515625,0.0
1734412808.674408,-202.63671875,-1000.0,720.21484375,-121.58203125,0.0
1734412808.6783133,-187.98828125,-1000.0,520.01953125,-119.62890625,0.0
1734412808.6822186,-184.5703125,-999.51171875,383.30078125,-105.95703125,0.0
1734412808.6861238,-183.59375,-998.046875,96.19140625,-98.6328125,0.0
1734412808.6900403,-192.3828125,-999.51171875,-195.80078125,-92.7734375,0.0
1734412808.6939454,-204.58984375,-934.08203125,-340.8203125,-89.35546875,0.0
1734412808.6978507,-174.8046875,-782.71484375,-356.4453125,-76.171875,0.0
1734412808.701756,-135.7421875,-699.70703125,-317.3828125,-54.6875,0.0
1734412808.7056613,-136.71875,-743.1640625,-228.02734375,-72.75390625,0.0
1734412808.7095664,-194.82421875,-757.32421875,-236.81640625,-106.93359375,0.0
1734412808.7134717,-205.078125,-686.5234375,-514.16015625,-115.234375,0.0
1734412808.717377,-193.359375,-590.8203125,-651.3671875,-104.4921875,0.0
1734412808.7212822,-214.35546875,-523.4375,-573.2421875,-101.5625,0.0
1734412808.7251873,-196.77734375,-453.61328125,-450.68359375,-105.46875,0.0
1734412808.7290926,-198.2421875,-350.5859375,-296.875,-111.81640625,0.0
1734412808.732998,-240.72265625,-298.828125,-184.5703125,-116.69921875,0.0
1734412808.7369137,-240.234375,-260.25390625,-144.53125,-125.48828125,0.0
1734412808.740819,-216.796875,-202.63671875,-113.76953125,-119.62890625,0.0
1734412808.744724,-227.05078125,-145.01953125,-94.23828125,-114.74609375,0.0
1734412808.7486293,-248.53515625,-72.75390625,-83.984375,-161.1328125,0.0
1734412808.7525346,-246.58203125,-5.37109375,-60.546875,-210.44921875,0.0
1734412808.75644,-259.765625,42.48046875,15.13671875,-218.26171875,0.0
1734412808.760345,-263.18359375,117.67578125,37.109375,-212.40234375,0.0
1734412808.7642503,-265.13671875,161.1328125,16.11328125,-225.09765625,0.0
1734412808.7681556,-266.11328125,82.51953125,92.7734375,-218.26171875,0.0
1734412808.7720609,-259.27734375,-8.30078125,134.765625,-195.3125,0.0
1734412808.775966,-247.55859375,-34.1796875,89.35546875,-206.54296875,0.0
1734412808.7798712,-248.046875,-6.8359375,98.6328125,-208.0078125,0.0
1734412808.7837844,-258.7890625,58.59375,144.04296875,-215.8203125,0.0
1734412808.7876897,-250.0,87.890625,160.64453125,-220.703125,0.0
1734412808.791595,-240.234375,75.68359375,200.68359375,-218.26171875,0.0
1734412808.7955003,-253.90625,88.8671875,189.94140625,-246.58203125,0.0
1734412808.7994053,-257.32421875,92.7734375,146.97265625,-251.953125,0.0
1734412808.8033106,-248.53515625,77.1484375,160.15625,-233.88671875,0.0
1734412808.807216,-253.41796875,115.234375,197.265625,-236.328125,0.0
1734412808.8111212,-253.41796875,157.71484375,205.56640625,-237.3046875,0.0
1734412808.8150263,-240.234375,145.5078125,189.94140625,-241.69921875,0.0
1734412808.8189316,-258.30078125,132.8125,187.5,-232.421875,0.0
1734412808.8228369,-251.46484375,100.5859375,208.984375,-204.58984375,0.0
1734412808.8267422,-231.93359375,-7.8125,246.09375,-204.58984375,0.0
1734412808.8306544,0.0,-94.23828125,0.0,-197.265625,0.0
1734412808.8345597,0.0,-117.67578125,0.0,-190.4296875,0.0
1734412808.838465,0.0,-88.37890625,0.0,-195.3125,0.0
1734412808.84237,0.0,-61.5234375,0.0,-200.68359375,0.0
1734412808.8462753,0.0,-92.7734375,0.0,-191.40625,0.0
1734412808.8501806,0.0,-150.87890625,0.0,-172.8515625,0.0
1734412808.854086,0.0,-201.66015625,0.0,-154.78515625,0.0
1734412808.857991,0.0,-256.8359375,0.0,-169.921875,0.0
1734412808.8618963,0.0,-287.109375,0.0,-160.64453125,0.0
1734412808.8658016,0.0,-296.38671875,0.0,-147.4609375,0.0
1734412808.8697069,0.0,-316.40625,0.0,-147.94921875,0.0
1734412808.873612,0.0,-293.45703125,0.0,-136.71875,0.0
1734412808.8775344,-183.59375,-230.46875,257.32421875,-139.16015625,0.0
1734412808.8814397,-183.10546875,-189.94140625,309.08203125,-139.6484375,0.0
1734412808.8853447,-179.6875,-167.48046875,344.7265625,-137.6953125,0.0
1734412808.88925,-175.78125,-164.55078125,389.6484375,-120.60546875,0.0
1734412808.8931553,-184.08203125,-179.6875,401.85546875,-113.76953125,0.0
1734412808.8970606,-162.59765625,-166.9921875,364.2578125,-126.953125,0.0
1734412808.9009657,-150.390625,-154.296875,346.6796875,-126.953125,0.0
1734412808.904871,-160.64453125,-149.4140625,349.12109375,-118.65234375,0.0
1734412808.9087763,-161.62109375,-139.6484375,324.70703125,-112.3046875,0.0
1734412808.9126816,-161.1328125,-150.390625,280.76171875,-109.86328125,0.0
1734412808.9165866,-165.52734375,-145.5078125,250.0,-85.9375,0.0
1734412808.920492,-175.78125,-161.1328125,235.3515625,-65.4296875,0.0
1734412808.9244008,-166.9921875,-144.04296875,212.890625,-56.640625,0.0
1734412808.928306,-146.484375,-82.03125,194.82421875,-61.5234375,0.0
1734412808.9322112,-142.578125,-100.09765625,179.19921875,-55.6640625,0.0
1734412808.9361165,-144.04296875,-136.23046875,168.45703125,-40.0390625,0.0
1734412808.9400218,-133.30078125,-85.44921875,158.69140625,-56.640625,0.0
1734412808.943927,-147.4609375,-29.296875,150.390625,-59.08203125,0.0
1734412808.9478323,-136.23046875,25.390625,138.18359375,-18.06640625,0.0
1734412808.9517374,-86.42578125,72.75390625,126.953125,5.859375,0.0
1734412808.9556427,-104.00390625,77.1484375,121.09375,-37.59765625,0.0
1734412808.959548,-169.921875,107.91015625,101.5625,-126.953125,0.0
1734412808.9634533,-189.453125,171.38671875,77.63671875,-143.5546875,0.0
1734412808.9673584,-193.84765625,244.140625,68.84765625,-101.5625,0.0
1734412808.9712658,-212.890625,279.78515625,63.4765625,-140.625,0.0
1734412808.9751709,-196.2890625,279.296875,67.3828125,-158.203125,0.0
1734412808.9790761,-224.609375,295.41015625,69.3359375,-169.921875,0.0
1734412808.9829814,-266.11328125,318.84765625,57.6171875,-218.75,0.0
1734412808.9868867,-252.44140625,333.49609375,32.71484375,-183.59375,0.0
1734412808.990792,-227.5390625,340.8203125,-9.27734375,-146.97265625,0.0
1734412808.994697,-230.46875,353.515625,-38.57421875,-166.015625,0.0
1734412808.9986024,-216.796875,397.94921875,-57.6171875,-153.80859375,0.0
1734412809.0025077,-206.0546875,442.87109375,-72.265625,-133.30078125,0.0
1734412809.006413,-222.65625,471.19140625,-80.56640625,-127.9296875,0.0
1734412809.010318,-220.21484375,529.296875,-95.21484375,-100.09765625,0.0
1734412809.0142233,-205.078125,587.40234375,-114.2578125,-83.49609375,0.0
1734412809.0181282,-188.4765625,583.984375,-134.27734375,-103.515625,0.0
1734412809.0220335,-184.5703125,567.87109375,-156.73828125,-109.86328125,0.0
1734412809.0259387,-171.875,536.62109375,-182.6171875,-74.70703125,0.0
1734412809.029844,-176.26953125,484.375,-202.1484375,-47.8515625,0.0
1734412809.033749,-195.3125,461.42578125,-227.05078125,-46.875,0.0
1734412809.0376544,-161.62109375,487.79296875,-247.0703125,-41.015625,0.0
1734412809.0415597,-148.92578125,509.27734375,-231.4453125,8.7890625,0.0
1734412809.045465,-144.53125,513.671875,-217.28515625,-10.25390625,0.0
1734412809.04937,-122.55859375,500.48828125,-214.35546875,-119.140625,0.0
1734412809.0532753,-116.69921875,500.48828125,-204.1015625,-132.8125,0.0
1734412809.0571806,-122.55859375,493.65234375,-214.84375,-101.07421875,0.0
1734412809.061086,-117.1875,453.61328125,-241.69921875,-69.3359375,0.0
1734412809.0650027,-131.34765625,435.05859375,-247.55859375,-80.56640625,0.0
1734412809.068908,-136.71875,437.5,-237.79296875,-71.77734375,0.0
1734412809.0728133,-126.46484375,398.92578125,-236.328125,-57.6171875,0.0
1734412809.0767186,-123.53515625,344.23828125,-245.60546875,-73.2421875,0.0
1734412809.0806236,-133.7890625,315.4296875,-264.16015625,-87.890625,0.0
1734412809.084529,-145.01953125,318.359375,-272.94921875,-75.68359375,0.0
1734412809.0884342,-143.5546875,334.9609375,-287.59765625,-63.96484375,0.0
1734412809.0923395,-139.6484375,343.75,-361.328125,-62.01171875,0.0
1734412809.0962446,-135.7421875,414.55078125,-400.390625,-59.08203125,0.0
1734412809.1001499,-132.32421875,479.00390625,-380.859375,-53.7109375,0.0
1734412809.1040552,-129.8828125,473.14453125,-350.09765625,-52.24609375,0.0
1734412809.1079605,-123.046875,455.56640625,-324.21875,-46.38671875,0.0
1734412809.111888,-138.18359375,449.21875,-302.734375,-35.64453125,0.0
1734412809.1157932,-128.90625,446.2890625,-266.6015625,-34.1796875,0.0
1734412809.1196985,-120.60546875,435.05859375,-236.328125,-29.78515625,0.0
1734412809.1236038,-132.32421875,416.9921875,-224.609375,-47.8515625,0.0
1734412809.1275089,-127.44140625,443.84765625,-208.0078125,-52.24609375,0.0
1734412809.1314142,-125.0,525.390625,-201.171875,-50.78125,0.0
1734412809.1353195,-122.55859375,552.734375,-203.61328125,-44.43359375,0.0
1734412809.1392248,-111.81640625,518.5546875,-202.63671875,-49.8046875,0.0
1734412809.14313,-117.1875,484.375,-209.9609375,-58.59375,0.0
1734412809.1470351,-126.953125,446.2890625,-212.40234375,-30.76171875,0.0
1734412809.1509404,-119.62890625,415.0390625,-231.93359375,-41.9921875,0.0
1734412809.1548457,-124.51171875,407.71484375,-255.859375,-59.08203125,0.0
1734412809.1587589,-116.69921875,408.69140625,-249.51171875,-51.26953125,0.0
1734412809.162664,-120.1171875,403.3203125,-241.2109375,-57.6171875,0.0
1734412809.1665692,-96.19140625,393.5546875,-230.46875,-37.59765625,0.0
1734412809.1704745,-62.01171875,398.4375,-208.984375,5.859375,0.0
1734412809.1743798,-91.796875,398.4375,-179.6875,-14.6484375,0.0
1734412809.1782851,-145.99609375,369.62890625,-141.6015625,-64.453125,0.0
1734412809.1821902,-155.2734375,344.23828125,-125.48828125,-65.4296875,0.0
1734412809.1860955,-114.2578125,322.265625,-118.65234375,-14.16015625,0.0
1734412809.1900008,-84.47265625,299.8046875,-106.93359375,0.9765625,0.0
1734412809.193906,-123.53515625,270.5078125,-115.72265625,-47.8515625,0.0
1734412809.1978111,-136.23046875,239.2578125,-112.79296875,-57.12890625,0.0
1734412809.2017164,-104.00390625,226.07421875,-103.515625,-27.83203125,0.0
1734412809.2056284,-106.93359375,210.44921875,-104.00390625,-14.16015625,0.0
1734412809.2095337,-110.3515625,212.890625,-86.42578125,-14.6484375,0.0
1734412809.213439,-99.609375,208.0078125,-69.82421875,-13.671875,0.0
1734412809.2173443,-97.65625,199.21875,-62.98828125,-22.94921875,0.0
1734412809.2212493,-107.91015625,187.01171875,-54.6875,-13.671875,0.0
1734412809.2251546,-103.515625,162.109375,-42.96875,2.9296875,0.0
1734412809.22906,-102.5390625,149.90234375,-37.59765625,-22.94921875,0.0
1734412809.2329652,-103.515625,177.734375,-25.390625,-21.484375,0.0
1734412809.2368703,-89.35546875,274.4140625,-4.8828125,-11.23046875,0.0
1734412809.2407756,-83.49609375,377.44140625,-2.44140625,-39.55078125,0.0
1734412809.244681,-85.9375,435.05859375,-12.20703125,-31.73828125,0.0
1734412809.2485862,-91.30859375,542.96875,-20.99609375,-20.5078125,0.0
1734412809.2524962,-86.9140625,680.6640625,-31.73828125,-30.2734375,0.0
1734412809.2564015,-87.890625,735.3515625,-27.34375,-27.83203125,0.0
1734412809.2603068,-94.23828125,724.12109375,-26.3671875,-29.296875,0.0
1734412809.2642121,-85.9375,694.3359375,-37.109375,-27.83203125,0.0
1734412809.2681172,-93.75,680.17578125,-43.45703125,-34.66796875,0.0
1734412809.2720225,-104.98046875,660.64453125,-54.19921875,-38.0859375,0.0
1734412809.2759278,-96.6796875,629.8828125,-64.453125,-30.76171875,0.0
1734412809.279833,-102.5390625,599.12109375,-66.89453125,-19.53125,0.0
1734412809.2837381,-102.5390625,583.49609375,-63.4765625,-20.01953125,0.0
1734412809.2876434,-96.19140625,582.51953125,-61.03515625,-21.97265625,0.0
1734412809.2915487,-100.09765625,564.94140625,-68.84765625,-11.71875,0.0
1734412809.295454,-96.6796875,532.71484375,-74.21875,-19.53125,0.0
1734412809.299363,-77.1484375,515.13671875,-76.171875,-22.4609375,0.0
1734412809.3032682,-82.51953125,502.44140625,-83.49609375,-26.85546875,0.0
1734412809.3071735,-90.8203125,485.83984375,-86.9140625,-36.62109375,0.0
1734412809.3110785,-89.84375,468.75,-84.47265625,-36.1328125,0.0
1734412809.3149838,-95.703125,444.3359375,-88.8671875,-32.71484375,0.0
1734412809.3188891,-96.19140625,416.015625,-104.98046875,-39.55078125,0.0
1734412809.3227944,-92.28515625,387.20703125,-127.9296875,-23.92578125,0.0
1734412809.3266995,-86.42578125,369.140625,-132.32421875,-3.41796875,0.0
1734412809.3306048,-97.16796875,359.86328125,-131.8359375,-6.34765625,0.0
1734412809.33451,-89.35546875,380.859375,-130.859375,-11.23046875,0.0
1734412809.3384154,-89.35546875,390.625,-122.0703125,-31.73828125,0.0
1734412809.3423207,-88.37890625,362.3046875,-115.72265625,-32.2265625,0.0
1734412809.3462532,-86.9140625,387.6953125,-109.86328125,-39.0625,0.0
1734412809.3501585,-91.796875,409.1796875,-104.98046875,-45.41015625,0.0
1734412809.3540635,-93.26171875,376.953125,-97.65625,-27.34375,0.0
1734412809.3579688,-83.49609375,343.75,-86.42578125,-24.90234375,0.0
1734412809.361874,-93.75,312.98828125,-80.078125,-45.8984375,0.0
1734412809.3657794,-98.6328125,292.96875,-66.40625,-53.22265625,0.0
1734412809.3696845,-88.37890625,282.71484375,-57.6171875,-47.36328125,0.0
1734412809.3735898,-103.02734375,270.01953125,-90.8203125,-51.7578125,0.0
1734412809.377495,-99.12109375,240.72265625,-95.21484375,-53.22265625,0.0
1734412809.3814003,-95.703125,214.84375,-73.2421875,-50.29296875,0.0
1734412809.3853056,-95.703125,218.75,-65.4296875,-44.921875,0.0
1734412809.3892107,-94.7265625,224.12109375,-52.734375,-36.1328125,0.0
1734412809.3931165,-85.44921875,196.2890625,-47.36328125,-46.38671875,0.0
1734412809.3970218,-83.49609375,145.5078125,-43.9453125,-53.22265625,0.0
1734412809.400927,-83.49609375,93.26171875,-31.73828125,-40.52734375,0.0
1734412809.4048324,-92.28515625,51.26953125,-19.04296875,-46.875,0.0
1734412809.4087374,-88.8671875,9.765625,-14.16015625,-44.921875,0.0
1734412809.4126427,-69.3359375,-33.203125,-14.6484375,-30.76171875,0.0
1734412809.416548,-73.73046875,-80.078125,-33.69140625,-43.9453125,0.0
1734412809.4204533,-97.16796875,-141.11328125,-61.03515625,-56.640625,0.0
1734412809.4243586,-91.30859375,-146.97265625,-71.2890625,-37.59765625,0.0
1734412809.4282637,-82.03125,-100.5859375,-70.3125,-41.50390625,0.0
1734412809.432169,-79.58984375,-70.3125,-68.359375,-56.15234375,0.0
1734412809.4360743,-82.03125,-49.31640625,-71.2890625,-60.546875,0.0
1734412809.4400034,-81.0546875,-32.71484375,-66.89453125,-47.8515625,0.0
1734412809.4439087,-88.37890625,-20.01953125,-58.10546875,-22.4609375,0.0
1734412809.447814,-95.21484375,-3.41796875,-53.7109375,-23.92578125,0.0
1734412809.451719,-93.26171875,10.25390625,-49.8046875,-32.2265625,0.0
1734412809.4556243,-80.078125,29.296875,-55.6640625,-36.62109375,0.0
1734412809.4595296,-67.3828125,31.73828125,-68.84765625,-22.94921875,0.0
1734412809.463435,-71.2890625,1.953125,-80.078125,-45.41015625,0.0
1734412809.46734,-75.68359375,-15.13671875,-73.73046875,-56.640625,0.0
1734412809.4712453,-77.1484375,-24.90234375,-67.87109375,-33.203125,0.0
1734412809.4751506,-83.0078125,-29.296875,-65.4296875,-39.55078125,0.0
1734412809.479056,-78.61328125,-7.32421875,-59.5703125,-42.48046875,0.0
1734412809.482961,-75.1953125,-7.8125,-60.546875,-35.15625,0.0
1734412809.486876,-67.87109375,-22.4609375,-66.40625,-35.15625,0.0
1734412809.4907813,-82.51953125,-23.4375,-68.84765625,-32.2265625,0.0
1734412809.4946866,-89.84375,-12.6953125,-63.4765625,-21.97265625,0.0
1734412809.498592,-81.54296875,-2.9296875,-59.08203125,-11.71875,0.0
1734412809.502497,-73.2421875,2.9296875,-49.31640625,-15.13671875,0.0
1734412809.5064023,-57.12890625,11.71875,-36.1328125,-29.296875,0.0
1734412809.5103076,-68.84765625,8.30078125,-22.4609375,-39.55078125,0.0
1734412809.5142128,-85.9375,13.671875,-1.953125,-41.015625,0.0
1734412809.5181181,-83.0078125,29.78515625,3.90625,-45.8984375,0.0
1734412809.5220232,-75.68359375,30.2734375,8.30078125,-46.875,0.0
1734412809.5259285,-83.984375,22.94921875,17.08984375,-40.52734375,0.0
1734412809.5298338,-79.58984375,35.15625,24.4140625,-34.1796875,0.0
1734412809.5337472,-61.5234375,54.19921875,38.57421875,-27.83203125,0.0
1734412809.5376525,-62.98828125,60.05859375,58.59375,-38.0859375,0.0
1734412809.5415578,-85.9375,52.734375,60.05859375,-41.9921875,0.0
1734412809.545463,-83.0078125,41.015625,48.828125,-25.390625,0.0
1734412809.5493684,-78.125,26.85546875,39.0625,-44.921875,0.0
1734412809.5532734,-92.28515625,22.94921875,33.69140625,-76.66015625,0.0
1734412809.5571787,-85.9375,28.3203125,24.90234375,-63.96484375,0.0
1734412809.561084,-83.49609375,40.0390625,-10.7421875,-36.62109375,0.0
1734412809.5649893,-79.58984375,67.3828125,-39.55078125,-27.34375,0.0
1734412809.5688944,-87.890625,77.63671875,-43.9453125,-35.64453125,0.0
1734412809.5727997,-86.42578125,89.35546875,-59.5703125,-47.36328125,0.0
1734412809.576705,-73.2421875,125.48828125,-50.29296875,-25.87890625,0.0
1734412809.5806415,-68.359375,132.8125,-38.57421875,-20.99609375,0.0
1734412809.5845468,-57.12890625,109.86328125,-62.01171875,-28.80859375,0.0
1734412809.588452,-76.66015625,92.7734375,-65.91796875,-37.109375,0.0
1734412809.5923574,-87.890625,115.72265625,-65.4296875,-57.6171875,0.0
1734412809.5962625,-86.42578125,196.2890625,-9.27734375,-41.50390625,0.0
1734412809.6001678,-81.0546875,221.19140625,-24.4140625,-20.01953125,0.0
1734412809.604073,-80.078125,138.18359375,-142.08984375,-21.97265625,0.0
1734412809.6079783,-96.19140625,82.03125,-164.0625,-45.41015625,0.0
1734412809.6118836,-96.19140625,86.9140625,-141.6015625,-40.0390625,0.0
1734412809.6157887,-90.8203125,103.515625,-141.11328125,-29.78515625,0.0
1734412809.619694,-92.28515625,98.6328125,-159.66796875,-34.66796875,0.0
1734412809.6235993,-104.4921875,73.2421875,-166.015625,-60.546875,0.0
1734412809.6275094,-102.5390625,57.6171875,-168.9453125,-62.98828125,0.0
1734412809.6314147,-113.28125,32.71484375,-183.59375,-42.96875,0.0
1734412809.6353197,-112.3046875,-13.671875,-194.3359375,-36.62109375,0.0
1734412809.639225,-100.09765625,-40.52734375,-210.9375,-37.109375,0.0
1734412809.6431303,-89.35546875,-41.50390625,-222.16796875,-23.92578125,0.0
1734412809.6470356,-84.47265625,-63.4765625,-231.4453125,-42.48046875,0.0
1734412809.6509407,-99.609375,-83.984375,-242.1875,-57.12890625,0.0
1734412809.654846,-98.6328125,-102.05078125,-249.51171875,-53.7109375,0.0
1734412809.6587512,-100.5859375,-120.60546875,-244.140625,-43.45703125,0.0
1734412809.6626565,-96.6796875,-141.11328125,-227.05078125,-28.80859375,0.0
1734412809.6665618,-83.984375,-162.109375,-210.9375,-31.73828125,0.0
1734412809.670467,-83.49609375,-167.96875,-193.359375,-41.9921875,0.0
1734412809.674376,-84.47265625,-170.41015625,-183.59375,-50.78125,0.0
1734412809.678281,-111.81640625,-163.57421875,-171.875,-31.25,0.0
1734412809.6821864,-97.16796875,-150.390625,-147.94921875,-21.97265625,0.0
1734412809.6860917,-79.58984375,-144.53125,-128.90625,-24.90234375,0.0
1734412809.689997,-84.9609375,-134.27734375,-115.72265625,-24.90234375,0.0
1734412809.693902,-69.82421875,-133.7890625,-100.5859375,-6.34765625,0.0
1734412809.6978073,-64.453125,-136.23046875,-92.28515625,0.0,0.0
1734412809.7017126,-61.03515625,-140.13671875,-74.21875,-22.94921875,0.0
1734412809.705618,-73.2421875,-143.5546875,-54.6875,-38.57421875,0.0
1734412809.7095232,-89.35546875,-134.765625,-46.38671875,-43.45703125,0.0
1734412809.7134283,-83.0078125,-113.28125,-33.69140625,-41.9921875,0.0
1734412809.7173336,-87.890625,-91.796875,-33.69140625,-42.96875,0.0
1734412809.721253,-81.0546875,-74.70703125,-40.0390625,-45.41015625,0.0
1734412809.7251582,-82.03125,-68.359375,-34.66796875,-42.48046875,0.0
1734412809.7290635,-108.3984375,-62.01171875,-32.71484375,-44.921875,0.0
1734412809.7329688,-127.44140625,-47.36328125,-33.69140625,-49.8046875,0.0
1734412809.7368739,-103.02734375,-37.59765625,-36.1328125,-47.36328125,0.0
1734412809.7407792,-84.47265625,-32.2265625,-31.25,-41.9921875,0.0
1734412809.7446845,-100.5859375,-30.76171875,-25.87890625,-41.015625,0.0
1734412809.7485898,-119.62890625,18.5546875,-27.34375,-54.19921875,0.0
1734412809.7524948,-104.98046875,68.359375,-25.390625,-52.24609375,0.0
1734412809.7564,-84.47265625,73.2421875,-20.99609375,-20.01953125,0.0
1734412809.7603054,-89.35546875,76.66015625,-21.484375,-39.55078125,0.0
1734412809.7642107,-96.19140625,88.37890625,-20.5078125,-49.31640625,0.0
1734412809.768129,-100.09765625,99.609375,-19.53125,-41.9921875,0.0
1734412809.7720344,-104.98046875,105.46875,-25.390625,-56.640625,0.0
1734412809.7759397,-102.05078125,109.86328125,-42.96875,-62.98828125,0.0
1734412809.779845,-93.26171875,111.81640625,-53.22265625,-71.77734375,0.0
1734412809.7837503,-84.9609375,121.09375,-52.734375,-65.91796875,0.0
1734412809.7876554,-91.796875,130.859375,-76.66015625,-52.734375,0.0
1734412809.7915606,-101.07421875,154.78515625,-83.49609375,-47.8515625,0.0
1734412809.795466,-90.33203125,176.7578125,-67.3828125,-42.96875,0.0
1734412809.7993712,-82.03125,191.89453125,-63.96484375,-37.109375,0.0
1734412809.8032763,-78.125,201.171875,-61.03515625,-9.765625,0.0
1734412809.8071816,-80.56640625,201.171875,-65.4296875,-27.34375,0.0
1734412809.811087,-79.58984375,211.9140625,-82.51953125,-62.5,0.0
1734412809.8150177,-87.40234375,210.9375,-90.33203125,-70.3125,0.0
1734412809.818923,-129.39453125,188.96484375,-87.40234375,-83.0078125,0.0
1734412809.8228283,-122.0703125,192.3828125,-86.42578125,-70.80078125,0.0
1734412809.8267336,-84.47265625,216.796875,-79.58984375,-63.96484375,0.0
1734412809.830639,-103.02734375,241.69921875,-62.5,-58.10546875,0.0
1734412809.834544,-93.75,250.0,-64.453125,-49.8046875,0.0
1734412809.8384492,-86.42578125,252.9296875,-68.84765625,-71.2890625,0.0
1734412809.8423545,-103.515625,265.13671875,-54.19921875,-61.5234375,0.0
1734412809.8462598,-123.046875,283.203125,-41.015625,-49.31640625,0.0
1734412809.850165,-115.234375,284.1796875,-36.62109375,-50.29296875,0.0
1734412809.8540702,-110.3515625,284.66796875,-38.57421875,-46.38671875,0.0
1734412809.8579755,-114.74609375,274.90234375,-31.25,-44.43359375,0.0
1734412809.8619046,-107.421875,263.671875,-26.85546875,-37.109375,0.0
1734412809.86581,-91.30859375,266.6015625,-31.73828125,-39.55078125,0.0
1734412809.869715,-82.03125,260.7421875,-40.52734375,-56.15234375,0.0
1734412809.8736203,-99.12109375,243.65234375,-54.6875,-53.22265625,0.0
1734412809.8775256,-98.6328125,230.46875,-62.98828125,-52.24609375,0.0
1734412809.8814309,-97.65625,229.4921875,-63.4765625,-43.9453125,0.0
1734412809.8853362,-97.16796875,232.421875,-63.4765625,-28.3203125,0.0
1734412809.8892412,-92.28515625,229.00390625,-62.5,-48.33984375,0.0
1734412809.8931465,-96.6796875,230.95703125,-55.17578125,-52.734375,0.0
1734412809.8970518,-94.23828125,231.4453125,-47.8515625,-34.1796875,0.0
1734412809.900957,-98.6328125,225.5859375,-49.31640625,-35.64453125,0.0
1734412809.9048622,-91.30859375,228.515625,-45.41015625,-41.50390625,0.0
1734412809.908777,-95.703125,236.81640625,-41.015625,-42.96875,0.0
1734412809.9126823,-100.5859375,246.58203125,-38.57421875,-47.8515625,0.0
1734412809.9165876,-85.9375,263.671875,-31.25,-65.91796875,0.0
1734412809.920493,-90.33203125,292.48046875,-31.25,-59.08203125,0.0
