timestamps,TP9,AF7,AF8,TP10,Right AUX
1734412314.0781887,754.8828125,76.66015625,50.29296875,-1000.0,0.0
1734412314.0820832,375.48828125,-418.45703125,254.39453125,-1000.0,0.0
1734412314.0859776,-1000.0,-1000.0,-379.8828125,-1000.0,0.0
1734412314.0898721,-983.3984375,-971.6796875,-758.7890625,-1000.0,0.0
1734412314.0937665,-1000.0,-1000.0,-574.21875,-1000.0,0.0
1734412314.097661,426.7578125,-756.34765625,-68.359375,-1000.0,0.0
1734412314.1015556,543.9453125,-765.625,193.359375,-1000.0,0.0
1734412314.10545,-1000.0,-1000.0,-486.328125,-1000.0,0.0
1734412314.1093445,-963.37890625,-996.09375,-886.23046875,-1000.0,0.0
1734412314.1132388,-1000.0,-995.60546875,-513.671875,-1000.0,0.0
1734412314.1171334,80.078125,-1000.0,-107.421875,-1000.0,0.0
1734412314.1211655,665.0390625,-1000.0,197.265625,-1000.0,0.0
1734412314.12506,-920.8984375,-1000.0,-236.328125,-1000.0,0.0
1734412314.1289546,-990.234375,-1000.0,-717.7734375,-1000.0,0.0
1734412314.132849,-1000.0,-1000.0,-627.9296875,-1000.0,0.0
1734412314.1367435,-148.4375,-1000.0,-211.9140625,-1000.0,0.0
1734412314.140638,863.28125,-1000.0,192.87109375,-1000.0,0.0
1734412314.1445327,-642.08984375,-1000.0,-215.8203125,-1000.0,0.0
1734412314.148427,-1000.0,-1000.0,-769.04296875,-1000.0,0.0
1734412314.1523216,-1000.0,-1000.0,-756.8359375,-1000.0,0.0
1734412314.1562161,-246.09375,-1000.0,-179.19921875,-1000.0,0.0
1734412314.1601105,-866.69921875,-1000.0,348.14453125,-1000.0,0.0
1734412314.164005,-145.99609375,-1000.0,-107.91015625,-1000.0,0.0
1734412314.1680262,-1000.0,-1000.0,-731.4453125,-1000.0,0.0
1734412314.1719208,-1000.0,-1000.0,-568.359375,-1000.0,0.0
1734412314.1758153,-267.08984375,-1000.0,-101.07421875,-1000.0,0.0
1734412314.1797097,-823.2421875,-1000.0,270.99609375,-1000.0,0.0
1734412314.1836042,167.48046875,-1000.0,49.8046875,-1000.0,0.0
1734412314.1874988,-1000.0,-1000.0,-522.4609375,-1000.0,0.0
1734412314.1913934,-1000.0,-1000.0,-566.89453125,-1000.0,0.0
1734412314.195288,-45.41015625,-1000.0,-358.3984375,-1000.0,0.0
1734412314.1991823,-889.16015625,-1000.0,94.23828125,-1000.0,0.0
1734412314.2030768,863.76953125,-1000.0,427.734375,-1000.0,0.0
1734412314.2069714,-660.64453125,-1000.0,-115.72265625,-1000.0,0.0
1734412314.210866,-778.80859375,-1000.0,-366.69921875,-1000.0,0.0
1734412314.2148767,841.30859375,-1000.0,197.265625,-1000.0,0.0
1734412314.2187712,956.0546875,-1000.0,610.3515625,-1000.0,0.0
1734412314.2226658,-898.4375,-1000.0,491.2109375,-1000.0,0.0
1734412314.22656,283.203125,-1000.0,138.671875,-1000.0,0.0
1734412314.2304547,-225.5859375,-1000.0,102.5390625,-1000.0,0.0
1734412314.2343493,-990.72265625,-1000.0,340.8203125,-1000.0,0.0
1734412314.2382438,959.47265625,-1000.0,549.8046875,-1000.0,0.0
1734412314.2421384,-978.515625,-1000.0,478.515625,-1000.0,0.0
1734412314.246033,725.09765625,-1000.0,202.1484375,-1000.0,0.0
1734412314.2499275,276.3671875,-1000.0,129.39453125,-1000.0,0.0
1734412314.253822,910.64453125,-1000.0,289.0625,-1000.0,0.0
1734412314.2577164,955.56640625,-1000.0,500.9765625,-1000.0,0.0
1734412314.2617145,-925.29296875,-1000.0,602.05078125,-1000.0,0.0
1734412314.265609,288.0859375,-1000.0,219.23828125,-1000.0,0.0
1734412314.2695036,-1000.0,-1000.0,-294.43359375,-1000.0,0.0
1734412314.2733982,-175.78125,-1000.0,-20.01953125,-1000.0,0.0
1734412314.2772927,-968.75,-1000.0,410.15625,-1000.0,0.0
1734412314.281187,-951.171875,-1000.0,456.0546875,-1000.0,0.0
1734412314.2850816,88.37890625,-1000.0,-156.25,-1000.0,0.0
1734412314.2889762,-1000.0,-1000.0,-770.01953125,-1000.0,0.0
1734412314.2928708,-706.0546875,-1000.0,-419.921875,-1000.0,0.0
1734412314.2967653,755.37109375,-1000.0,102.05078125,-1000.0,0.0
1734412314.30066,-965.33203125,-1000.0,374.51171875,-1000.0,0.0
1734412314.3045545,-362.79296875,-1000.0,-77.63671875,-1000.0,0.0
1734412314.3085353,-1000.0,-1000.0,-626.953125,-1000.0,0.0
1734412314.31243,-937.01171875,-1000.0,-483.3984375,-1000.0,0.0
1734412314.3163245,246.09375,-1000.0,10.25390625,-1000.0,0.0
1734412314.320219,-778.3203125,-1000.0,472.65625,-1000.0,0.0
1734412314.3241136,127.44140625,-1000.0,147.94921875,-1000.0,0.0
1734412314.3280082,-1000.0,-1000.0,-569.3359375,-929.6875,0.0
1734412314.3319027,-950.1953125,-1000.0,-575.1953125,-1000.0,0.0
1734412314.3357973,325.68359375,-1000.0,109.86328125,-237.3046875,0.0
1734412314.3396919,-776.85546875,-1000.0,541.015625,218.26171875,0.0
1734412314.3435864,141.11328125,-1000.0,101.5625,-1000.0,0.0
1734412314.347481,-1000.0,-996.09375,-555.6640625,-995.60546875,0.0
1734412314.3513756,-1000.0,-1000.0,-452.1484375,-1000.0,0.0
1734412314.3553522,28.3203125,-973.6328125,132.8125,-15.625,0.0
1734412314.3592467,-771.484375,-942.87109375,417.48046875,-787.59765625,0.0
1734412314.3631413,208.49609375,-1000.0,210.9375,174.8046875,0.0
1734412314.3670359,-995.60546875,-997.55859375,-297.8515625,-1000.0,0.0
1734412314.3709304,-1000.0,-998.046875,-491.2109375,-679.19921875,0.0
1734412314.374825,-206.0546875,-1000.0,-154.78515625,711.9140625,0.0
1734412314.3787196,-818.359375,-751.953125,270.5078125,-957.03125,0.0
1734412314.3826141,334.9609375,-790.0390625,344.23828125,962.890625,0.0
1734412314.386509,-964.84375,-1000.0,-240.234375,-460.44921875,0.0
1734412314.3904035,-1000.0,-1000.0,-601.5625,-474.12109375,0.0
1734412314.394298,-246.58203125,-887.20703125,-25.87890625,-956.0546875,0.0
1734412314.3981926,-832.03125,-14.16015625,479.98046875,905.76171875,0.0
1734412314.4022472,250.48828125,-248.53515625,312.98828125,-865.72265625,0.0
1734412314.4061418,-1000.0,-1000.0,-313.4765625,11.71875,0.0
1734412314.4100363,-1000.0,-1000.0,-613.28125,-570.80078125,0.0
1734412314.4139311,-786.1328125,-890.625,-151.85546875,930.6640625,0.0
1734412314.4178257,647.94921875,-194.3359375,257.32421875,956.54296875,0.0
1734412314.4217203,101.07421875,-461.42578125,122.55859375,-905.76171875,0.0
1734412314.4256148,-1000.0,-1000.0,-404.296875,113.76953125,0.0
1734412314.4295094,-955.56640625,-937.5,-690.91796875,-1000.0,0.0
1734412314.4334042,-1000.0,-1000.0,-514.16015625,450.68359375,0.0
1734412314.4372988,-708.49609375,-407.71484375,-88.8671875,-948.2421875,0.0
1734412314.4411933,-688.96484375,267.578125,297.36328125,-964.84375,0.0
1734412314.445088,-1000.0,-655.76171875,-231.93359375,161.62109375,0.0
1734412314.4491277,-989.2578125,-1000.0,-883.30078125,-1000.0,0.0
1734412314.4530222,-997.55859375,-947.75390625,-698.73046875,-99.12109375,0.0
1734412314.4569168,-1000.0,61.5234375,-14.16015625,-967.7734375,0.0
1734412314.4608114,-1000.0,744.62890625,242.1875,-937.98828125,0.0
1734412314.4647062,-1000.0,-428.22265625,-394.53125,123.046875,0.0
1734412314.4686007,-1000.0,-1000.0,-879.8828125,-1000.0,0.0
1734412314.4724953,-1000.0,-1000.0,-698.2421875,-193.84765625,0.0
1734412314.4763901,-1000.0,-62.5,-270.01953125,-993.65234375,0.0
1734412314.4802847,-1000.0,582.03125,-125.48828125,-929.6875,0.0
1734412314.4841793,-1000.0,-486.81640625,-530.2734375,139.16015625,0.0
1734412314.488074,-1000.0,-990.72265625,-781.73828125,-1000.0,0.0
1734412314.4919686,-1000.0,-999.51171875,-732.421875,-343.26171875,0.0
1734412314.4959989,-1000.0,-46.875,-340.8203125,949.21875,0.0
1734412314.4998934,-1000.0,-920.8984375,194.3359375,-911.1328125,0.0
1734412314.503788,-1000.0,619.62890625,-82.51953125,111.328125,0.0
1734412314.5076828,-1000.0,-656.25,-821.2890625,-1000.0,0.0
1734412314.5115774,-1000.0,-920.41015625,-770.5078125,-773.4375,0.0
1734412314.5154722,-1000.0,259.765625,-468.26171875,583.49609375,0.0
1734412314.5193667,-1000.0,-932.12890625,25.87890625,-818.84765625,0.0
1734412314.5232615,-1000.0,807.6171875,-140.625,14.6484375,0.0
1734412314.527156,-1000.0,-478.515625,-865.234375,-1000.0,0.0
1734412314.5310507,-1000.0,-610.3515625,-757.8125,-1000.0,0.0
1734412314.5349455,-1000.0,670.41015625,-360.3515625,-5.37109375,0.0
1734412314.53884,-1000.0,980.46875,58.59375,-886.71875,0.0
1734412314.5428572,-1000.0,992.67578125,-12.6953125,-257.32421875,0.0
1734412314.5467517,-1000.0,268.06640625,-619.140625,-1000.0,0.0
1734412314.5506465,-1000.0,-606.93359375,-803.22265625,-1000.0,0.0
1734412314.554541,-1000.0,229.98046875,-501.953125,-201.66015625,0.0
1734412314.558436,-1000.0,-991.69921875,5.37109375,889.6484375,0.0
1734412314.5623305,-1000.0,943.359375,0.9765625,-566.40625,0.0
1734412314.5662253,-1000.0,-43.9453125,-660.64453125,-1000.0,0.0
1734412314.5701199,-1000.0,-1000.0,-981.4453125,-1000.0,0.0
1734412314.5740147,-1000.0,-304.6875,-717.7734375,-586.42578125,0.0
1734412314.5779092,-1000.0,979.00390625,-28.80859375,731.93359375,0.0
1734412314.581804,-1000.0,979.4921875,43.45703125,-404.296875,0.0
1734412314.5856986,-1000.0,75.68359375,-614.74609375,-1000.0,0.0
1734412314.5897105,-1000.0,-1000.0,-848.6328125,-1000.0,0.0
1734412314.5936053,-1000.0,-206.0546875,-543.45703125,-595.703125,0.0
1734412314.5974998,-1000.0,920.41015625,-100.5859375,-976.07421875,0.0
1734412314.6013947,-1000.0,-961.9140625,108.88671875,216.30859375,0.0
1734412314.6052892,-1000.0,459.9609375,-384.27734375,-1000.0,0.0
1734412314.609184,-951.66015625,-893.5546875,-861.81640625,-1000.0,0.0
1734412314.6130788,-1000.0,-645.99609375,-653.80859375,-230.95703125,0.0
1734412314.6169734,-745.1171875,586.42578125,-331.54296875,-999.0234375,0.0
1734412314.6208682,-284.1796875,-972.16796875,201.66015625,-959.47265625,0.0
1734412314.6247628,-949.70703125,706.54296875,-60.05859375,-97.65625,0.0
1734412314.6286576,-978.515625,-591.796875,-802.734375,-1000.0,0.0
1734412314.6325521,-1000.0,-592.7734375,-635.7421875,-83.49609375,0.0
1734412314.63655,-207.03125,761.71875,29.78515625,-998.53515625,0.0
1734412314.6404445,992.1875,-919.43359375,386.71875,-955.56640625,0.0
1734412314.6443393,-437.01171875,584.9609375,-57.12890625,740.234375,0.0
1734412314.6482341,-1000.0,-440.4296875,-579.1015625,-319.82421875,0.0
1734412314.6521287,-1000.0,-382.32421875,-478.02734375,501.953125,0.0
1734412314.6560235,-273.92578125,656.73828125,-5.859375,-875.48828125,0.0
1734412314.6599183,-817.87109375,991.69921875,257.32421875,898.4375,0.0
1734412314.6638129,163.57421875,696.77734375,4.8828125,981.4453125,0.0
1734412314.6677077,-1000.0,-58.59375,-355.95703125,969.7265625,0.0
1734412314.6716025,-1000.0,-351.07421875,-445.80078125,969.7265625,0.0
1734412314.675497,-241.2109375,537.109375,43.9453125,969.7265625,0.0
1734412314.6793919,-822.265625,-993.1640625,497.55859375,969.7265625,0.0
1734412314.683371,290.0390625,940.91796875,366.2109375,969.7265625,0.0
1734412314.6872659,-989.2578125,-102.5390625,-243.65234375,969.23828125,0.0
1734412314.6911607,-1000.0,-985.3515625,-490.234375,969.7265625,0.0
1734412314.6950555,-255.859375,171.875,82.03125,970.21484375,0.0
1734412314.69895,-848.6328125,-907.71484375,479.4921875,970.21484375,0.0
1734412314.7028449,508.7890625,760.25390625,290.52734375,969.7265625,0.0
1734412314.7067397,-871.09375,-480.95703125,-373.046875,969.7265625,0.0
1734412314.7106342,-1000.0,-1000.0,-546.875,969.7265625,0.0
1734412314.714529,-198.73046875,151.85546875,81.54296875,969.7265625,0.0
1734412314.7184238,-976.07421875,998.53515625,450.68359375,969.7265625,0.0
1734412314.7223186,976.5625,997.55859375,443.359375,969.7265625,0.0
1734412314.7262132,-256.8359375,288.57421875,-24.4140625,970.21484375,0.0
1734412314.7301846,-1000.0,-770.5078125,-399.90234375,970.21484375,0.0
1734412314.7340794,-156.73828125,-78.61328125,4.8828125,970.21484375,0.0
1734412314.7379742,975.09765625,903.3203125,435.05859375,969.7265625,0.0
1734412314.741869,-909.66796875,-954.58984375,565.4296875,969.7265625,0.0
1734412314.7457635,215.8203125,535.15625,178.22265625,969.7265625,0.0
1734412314.7496583,-1000.0,-869.140625,-491.2109375,969.7265625,0.0
1734412314.7535532,-192.3828125,-424.31640625,-195.3125,969.7265625,0.0
1734412314.757448,-999.0234375,928.7109375,515.13671875,969.7265625,0.0
1734412314.7613428,-916.015625,-942.87109375,568.359375,969.7265625,0.0
1734412314.7652373,306.15234375,469.7265625,173.828125,969.7265625,0.0
1734412314.7691321,-1000.0,-585.9375,-218.26171875,969.7265625,0.0
1734412314.773027,-207.51953125,-122.55859375,125.9765625,969.7265625,0.0
1734412314.7770777,-998.046875,889.16015625,502.9296875,969.7265625,0.0
1734412314.7809725,-932.12890625,-959.47265625,571.2890625,969.7265625,0.0
1734412314.7848673,424.8046875,567.3828125,316.40625,969.7265625,0.0
1734412314.788762,-1000.0,-666.50390625,-209.47265625,969.7265625,0.0
1734412314.792657,-481.93359375,-877.9296875,-106.4453125,969.7265625,0.0
1734412314.7965517,903.80859375,235.3515625,307.12890625,969.7265625,0.0
1734412314.8004465,-886.71875,-917.48046875,531.25,969.7265625,0.0
1734412314.804341,327.1484375,528.3203125,347.16796875,969.7265625,0.0
1734412314.808236,-1000.0,-758.30078125,-354.4921875,969.7265625,0.0
1734412314.8121307,-962.890625,-960.44921875,-471.19140625,969.7265625,0.0
1734412314.8160255,354.00390625,200.68359375,214.84375,968.26171875,0.0
1734412314.8199203,-780.2734375,-860.3515625,540.52734375,971.19140625,0.0
1734412314.8239582,215.8203125,328.61328125,166.015625,970.703125,0.0
1734412314.827853,-975.09765625,-899.90234375,-413.57421875,937.98828125,0.0
1734412314.8317478,-1000.0,-1000.0,-393.06640625,958.49609375,0.0
1734412314.8356426,-186.03515625,-114.2578125,136.71875,963.37890625,0.0
1734412314.8395374,-813.4765625,997.55859375,419.921875,927.734375,0.0
1734412314.8434322,264.16015625,356.93359375,174.31640625,-862.79296875,0.0
1734412314.847327,-989.2578125,-797.8515625,-416.50390625,-99.609375,0.0
1734412314.8512218,-1000.0,-1000.0,-561.03515625,-199.21875,0.0
1734412314.8551166,-304.19921875,-775.87890625,-339.84375,-940.91796875,0.0
1734412314.8590114,-848.14453125,319.3359375,83.984375,970.703125,0.0
1734412314.8629062,281.73828125,835.9375,375.48828125,960.9375,0.0
1734412314.866801,-987.79296875,-406.25,-295.41015625,-542.96875,0.0
1734412314.8709254,-1000.0,-1000.0,-635.25390625,-451.171875,0.0
1734412314.8748202,-491.69921875,-407.2265625,-101.5625,-974.12109375,0.0
1734412314.878715,-937.98828125,852.05078125,338.8671875,950.68359375,0.0
1734412314.8826098,477.05078125,811.5234375,290.0390625,-961.9140625,0.0
1734412314.886505,-922.36328125,-419.43359375,-280.2734375,-360.3515625,0.0
1734412314.8903997,-1000.0,-1000.0,-688.96484375,-548.828125,0.0
1734412314.8942945,-468.26171875,-534.1796875,-264.6484375,-990.234375,0.0
1734412314.8981893,888.18359375,758.30078125,316.89453125,922.8515625,0.0
1734412314.902084,-937.01171875,822.75390625,371.58203125,-868.65234375,0.0
1734412314.905979,-171.38671875,-8.7890625,-56.640625,69.3359375,0.0
1734412314.909874,-1000.0,-949.21875,-488.28125,-375.0,0.0
1734412314.9137688,-338.37890625,-663.0859375,-271.97265625,-976.5625,0.0
1734412314.9177861,909.1796875,606.4453125,305.17578125,996.09375,0.0
1734412314.921681,-887.20703125,-895.01953125,561.03515625,928.7109375,0.0
1734412314.9255757,211.9140625,447.265625,150.87890625,978.515625,0.0
1734412314.9294705,-1000.0,-834.9609375,-383.7890625,967.28515625,0.0
1734412314.9333656,-367.1875,-605.95703125,-115.72265625,969.7265625,0.0
1734412314.9372604,936.03515625,607.91015625,366.2109375,970.21484375,0.0
1734412314.9411552,-900.390625,-883.30078125,541.9921875,969.23828125,0.0
1734412314.94505,251.953125,164.0625,60.546875,969.7265625,0.0
1734412314.948945,-1000.0,-1000.0,-514.6484375,969.7265625,0.0
1734412314.9528399,-533.203125,-740.72265625,-121.09375,969.7265625,0.0
1734412314.9567347,836.42578125,519.53125,397.4609375,969.7265625,0.0
1734412314.9606295,-872.55859375,896.97265625,406.25,969.7265625,0.0
1734412314.9646401,422.36328125,231.4453125,166.50390625,969.7265625,0.0
1734412314.968535,-1000.0,-641.6015625,-235.83984375,969.7265625,0.0
1734412314.9724298,-898.4375,-1000.0,-332.51953125,970.21484375,0.0
1734412314.9763248,497.55859375,23.4375,203.125,970.21484375,0.0
1734412314.9802196,-868.1640625,-930.6640625,542.48046875,969.7265625,0.0
1734412314.9841144,419.921875,403.80859375,248.046875,969.7265625,0.0
1734412314.9880095,-888.18359375,-830.078125,-392.08984375,969.7265625,0.0
1734412314.9919043,-1000.0,-957.51953125,-486.328125,969.7265625,0.0
1734412314.995799,233.3984375,134.765625,159.1796875,965.8203125,0.0
1734412314.999694,-823.2421875,-921.38671875,526.3671875,963.37890625,0.0
1734412315.003589,521.97265625,527.83203125,289.55078125,-992.67578125,0.0
1734412315.007484,-802.734375,-719.23828125,-324.70703125,729.00390625,0.0
1734412315.0114763,-1000.0,-1000.0,-447.265625,763.18359375,0.0
1734412315.0153713,-216.796875,-288.0859375,77.63671875,-990.234375,0.0
1734412315.0192661,-881.34765625,922.8515625,408.203125,902.83203125,0.0
1734412315.0231612,660.64453125,731.93359375,328.61328125,-839.84375,0.0
1734412315.027056,-712.40234375,-471.19140625,-186.03515625,-52.734375,0.0
1734412315.0309508,-1000.0,-1000.0,-583.984375,-306.640625,0.0
1734412315.0348458,-294.921875,-968.75,-396.97265625,-956.54296875,0.0
1734412315.0387406,-947.75390625,87.40234375,71.77734375,946.77734375,0.0
1734412315.0426357,794.921875,935.05859375,452.63671875,-949.70703125,0.0
1734412315.0465305,-552.24609375,-265.625,-163.0859375,-304.6875,0.0
1734412315.0504253,-1000.0,-1000.0,-665.0390625,-814.94140625,0.0
1734412315.0543203,-481.4453125,-681.640625,-185.05859375,750.0,0.0
1734412315.0583026,901.3671875,561.03515625,351.07421875,-949.70703125,0.0
1734412315.0621974,-996.09375,915.0390625,406.73828125,916.015625,0.0
1734412315.0660925,-306.640625,-337.40234375,-157.2265625,-305.6640625,0.0
1734412315.0699873,-1000.0,-1000.0,-596.19140625,-1000.0,0.0
1734412315.0738823,-703.125,-806.15234375,-290.0390625,129.39453125,0.0
1734412315.0777771,638.18359375,330.078125,192.87109375,-900.87890625,0.0
1734412315.0816722,-844.23828125,736.81640625,315.4296875,917.96875,0.0
1734412315.085567,-85.44921875,-289.0625,-103.02734375,-270.01953125,0.0
1734412315.089462,-1000.0,-995.1171875,-544.921875,-1000.0,0.0
1734412315.0933568,-991.2109375,-1000.0,-443.359375,-139.16015625,0.0
1734412315.097252,203.125,61.5234375,95.703125,-961.42578125,0.0
1734412315.1011467,-769.53125,-858.88671875,516.11328125,989.74609375,0.0
1734412315.1051233,59.5703125,218.75,122.0703125,-191.40625,0.0
1734412315.109018,-1000.0,-979.4921875,-557.12890625,-1000.0,0.0
1734412315.1129131,-1000.0,-980.95703125,-491.69921875,-194.3359375,0.0
1734412315.116808,-114.2578125,20.99609375,79.58984375,-965.33203125,0.0
1734412315.120703,-796.38671875,-878.41796875,509.765625,969.23828125,0.0
1734412315.1245978,117.67578125,132.32421875,-18.5546875,-211.42578125,0.0
1734412315.1284928,-1000.0,-1000.0,-758.7890625,-1000.0,0.0
1734412315.1323876,-1000.0,-1000.0,-623.53515625,-562.01171875,0.0
1734412315.1362827,-257.32421875,-164.55078125,-65.4296875,863.76953125,0.0
1734412315.1401777,-827.1484375,-976.5625,379.39453125,981.4453125,0.0
1734412315.1440725,161.62109375,524.4140625,121.09375,-401.3671875,0.0
1734412315.1479676,-1000.0,-628.41796875,-431.640625,-1000.0,0.0
1734412315.1520166,-1000.0,-1000.0,-629.8828125,-1000.0,0.0
1734412315.1559117,-357.91015625,-395.01953125,-177.24609375,264.6484375,0.0
1734412315.1598067,-865.234375,950.1953125,391.11328125,962.40234375,0.0
1734412315.1637015,175.29296875,697.265625,242.67578125,-572.75390625,0.0
1734412315.1675966,-1000.0,-533.69140625,-453.125,-1000.0,0.0
1734412315.1714916,-1000.0,-1000.0,-738.28125,-1000.0,0.0
1734412315.1753864,-831.54296875,-606.93359375,-365.234375,-69.82421875,0.0
1734412315.1792815,751.46484375,731.4453125,254.8828125,895.5078125,0.0
1734412315.1831763,282.2265625,728.515625,201.171875,-618.65234375,0.0
1734412315.1870713,-1000.0,-609.86328125,-549.8046875,-1000.0,0.0
1734412315.1909664,-908.69140625,-1000.0,-710.9375,-1000.0,0.0
1734412315.1948612,-1000.0,-558.59375,-395.99609375,-233.3984375,0.0
1734412315.198898,-79.1015625,645.5078125,48.828125,775.390625,0.0
1734412315.2027931,262.20703125,-991.69921875,227.5390625,-695.80078125,0.0
1734412315.2066882,-1000.0,-75.68359375,-275.390625,-1000.0,0.0
1734412315.2105832,-937.98828125,-1000.0,-747.0703125,-1000.0,0.0
1734412315.214478,-1000.0,-838.8671875,-591.796875,-680.6640625,0.0
1734412315.218373,-294.921875,325.1953125,-91.796875,569.3359375,0.0
1734412315.222268,196.77734375,-922.36328125,206.54296875,-455.078125,0.0
1734412315.2261631,-1000.0,118.1640625,-331.54296875,-1000.0,0.0
1734412315.230058,-955.078125,-1000.0,-893.06640625,-1000.0,0.0
1734412315.233953,-1000.0,-629.39453125,-729.4921875,-849.12109375,0.0
1734412315.237848,-135.25390625,646.97265625,-15.625,666.015625,0.0
1734412315.241743,694.3359375,-938.4765625,378.41796875,-16.6015625,0.0
1734412315.2457743,-823.73046875,659.1796875,-127.44140625,-1000.0,0.0
1734412315.2496693,-1000.0,-264.6484375,-645.99609375,-986.81640625,0.0
1734412315.2535644,-1000.0,-63.4765625,-468.26171875,-926.7578125,0.0
1734412315.2574592,-272.4609375,912.109375,27.83203125,632.8125,0.0
1734412315.2613542,-851.5625,-997.55859375,417.48046875,248.53515625,0.0
1734412315.2652493,-71.77734375,893.5546875,-8.7890625,-1000.0,0.0
1734412315.2691443,-1000.0,276.3671875,-617.1875,-976.5625,0.0
1734412315.2730393,-1000.0,237.79296875,-532.2265625,-1000.0,0.0
1734412315.2769344,-272.94921875,907.71484375,-245.60546875,448.2421875,0.0
1734412315.2808294,-822.75390625,958.49609375,368.65234375,328.61328125,0.0
1734412315.2847242,171.875,-974.609375,304.6875,-1000.0,0.0
1734412315.2886193,-1000.0,639.16015625,-443.84765625,-958.984375,0.0
1734412315.2926326,-1000.0,449.21875,-611.81640625,-1000.0,0.0
1734412315.2965276,-265.625,978.515625,-16.11328125,294.921875,0.0
1734412315.3004227,-832.03125,968.26171875,522.4609375,683.10546875,0.0
1734412315.3043177,385.25390625,973.14453125,280.2734375,-867.67578125,0.0
1734412315.3082128,-949.21875,870.60546875,-321.2890625,-1000.0,0.0
1734412315.3121078,-1000.0,644.04296875,-515.13671875,-960.44921875,0.0
1734412315.3160026,-209.47265625,895.01953125,-15.13671875,214.84375,0.0
1734412315.3198977,-970.703125,997.0703125,362.79296875,-787.109375,0.0
1734412315.3237927,968.75,958.984375,333.984375,68.84765625,0.0
1734412315.3276877,-275.390625,954.1015625,12.6953125,-1000.0,0.0
1734412315.3315828,-1000.0,836.42578125,-415.0390625,-893.5546875,0.0
1734412315.3354778,-160.15625,913.0859375,-6.34765625,376.46484375,0.0
1734412315.3394866,980.46875,964.35546875,536.62109375,-793.45703125,0.0
1734412315.3433816,-916.015625,998.53515625,539.0625,301.26953125,0.0
1734412315.3472767,149.90234375,860.83984375,65.4296875,-1000.0,0.0
1734412315.3511717,-1000.0,348.14453125,-404.296875,-822.265625,0.0
1734412315.355067,-192.87109375,630.859375,-38.57421875,556.15234375,0.0
1734412315.358962,999.51171875,-995.60546875,464.84375,-889.6484375,0.0
1734412315.362857,-916.9921875,-986.328125,505.37109375,762.6953125,0.0
1734412315.3667521,223.14453125,507.8125,-48.828125,-608.88671875,0.0
1734412315.3706472,-1000.0,22.94921875,-443.359375,-1000.0,0.0
1734412315.3745422,-241.69921875,606.4453125,-17.578125,392.08984375,0.0
1734412315.3784373,981.4453125,992.67578125,432.6171875,-945.80078125,0.0
1734412315.3823323,-911.62109375,960.9375,541.9921875,-992.1875,0.0
1734412315.3864148,362.3046875,930.6640625,253.41796875,-159.66796875,0.0
1734412315.3903098,-1000.0,266.6015625,-268.5546875,-1000.0,0.0
1734412315.3942049,-265.625,247.55859375,-186.03515625,328.61328125,0.0
1734412315.3981001,-955.078125,932.6171875,372.55859375,-976.07421875,0.0
1734412315.4019952,919.43359375,975.09765625,620.60546875,-892.578125,0.0
1734412315.4058902,-909.66796875,940.4296875,327.1484375,101.07421875,0.0
1734412315.4097853,-242.1875,-229.00390625,-382.32421875,-813.96484375,0.0
1734412315.4136803,-338.37890625,-393.5546875,-282.2265625,699.70703125,0.0
1734412315.4175754,-906.73828125,957.51953125,516.6015625,-924.8046875,0.0
1734412315.4214704,958.984375,983.88671875,738.76953125,907.2265625,0.0
1734412315.4253657,940.91796875,981.4453125,510.7421875,975.09765625,0.0
1734412315.4292607,975.5859375,645.99609375,183.59375,908.203125,0.0
1734412315.43324,969.23828125,516.11328125,273.4375,957.03125,0.0
1734412315.437135,969.23828125,984.375,579.1015625,977.05078125,0.0
1734412315.44103,969.23828125,946.2890625,745.1171875,965.33203125,0.0
1734412315.4449253,969.23828125,-971.19140625,650.390625,971.19140625,0.0
1734412315.4488204,969.23828125,622.0703125,342.7734375,969.7265625,0.0
1734412315.4527154,969.23828125,87.890625,276.85546875,969.23828125,0.0
1734412315.4566104,969.23828125,672.36328125,561.5234375,969.7265625,0.0
1734412315.4605055,969.23828125,962.890625,806.640625,969.7265625,0.0
1734412315.4644008,968.75,-944.82421875,748.046875,969.7265625,0.0
1734412315.4682958,969.23828125,526.85546875,391.11328125,969.7265625,0.0
1734412315.4721909,969.23828125,-566.89453125,256.8359375,969.7265625,0.0
1734412315.476086,968.75,306.640625,616.2109375,969.7265625,0.0
1734412315.4800613,969.23828125,-920.8984375,834.9609375,969.7265625,0.0
1734412315.4839563,969.23828125,905.76171875,699.70703125,969.7265625,0.0
1734412315.4878514,969.23828125,422.8515625,430.6640625,969.7265625,0.0
1734412315.4917464,969.23828125,-291.9921875,377.9296875,969.7265625,0.0
1734412315.4956417,969.23828125,338.37890625,582.03125,970.21484375,0.0
1734412315.4995368,969.23828125,-980.95703125,685.05859375,969.7265625,0.0
1734412315.5034318,969.23828125,958.49609375,673.33984375,969.7265625,0.0
1734412315.5073268,969.23828125,259.765625,461.9140625,969.7265625,0.0
1734412315.5112221,969.23828125,-816.40625,296.38671875,969.7265625,0.0
1734412315.5151172,969.23828125,-516.6015625,408.203125,969.7265625,0.0
1734412315.5190122,969.23828125,675.29296875,664.0625,969.7265625,0.0
1734412315.5229073,969.23828125,-905.2734375,770.99609375,969.7265625,0.0
1734412315.5269625,969.23828125,161.1328125,407.71484375,969.7265625,0.0
1734412315.5308576,969.23828125,-1000.0,74.70703125,970.21484375,0.0
1734412315.5347528,969.7265625,-696.2890625,289.55078125,969.7265625,0.0
1734412315.538648,964.84375,630.859375,635.7421875,969.23828125,0.0
1734412315.5425432,914.55078125,973.14453125,672.8515625,969.7265625,0.0
1734412315.5464382,-840.33203125,-240.234375,285.15625,969.7265625,0.0
1734412315.5503333,-10.25390625,-1000.0,-108.88671875,969.7265625,0.0
1734412315.5542285,-243.1640625,-840.33203125,142.08984375,974.609375,0.0
1734412315.5581236,-987.79296875,164.55078125,498.046875,894.53125,0.0
1734412315.5620186,-957.51953125,834.9609375,567.87109375,-858.3984375,0.0
1734412315.565914,725.09765625,-48.828125,340.8203125,268.5546875,0.0
1734412315.569809,-859.375,-971.6796875,-157.71484375,-1000.0,0.0
1734412315.5738447,-642.578125,-1000.0,-287.109375,267.578125,0.0
1734412315.5777397,846.19140625,-216.796875,220.703125,-934.5703125,0.0
1734412315.581635,-875.0,-972.65625,620.60546875,-962.890625,0.0
1734412315.58553,462.890625,78.125,291.9921875,227.05078125,0.0
1734412315.5894253,-924.31640625,-1000.0,-324.21875,-1000.0,0.0
1734412315.5933204,-1000.0,-1000.0,-453.125,-201.171875,0.0
1734412315.5972157,246.09375,-488.76953125,43.45703125,-993.1640625,0.0
1734412315.6011107,-783.203125,713.37890625,554.19921875,-922.8515625,0.0
1734412315.605006,361.81640625,-4.39453125,95.703125,190.4296875,0.0
1734412315.608901,-925.78125,-1000.0,-576.171875,-1000.0,0.0
1734412315.6127963,-1000.0,-1000.0,-354.4921875,-297.8515625,0.0
1734412315.6166914,-88.8671875,-336.9140625,156.25,965.8203125,0.0
1734412315.6207156,-856.4453125,902.34375,515.13671875,-908.69140625,0.0
1734412315.624611,675.78125,562.01171875,381.34765625,217.28515625,0.0
1734412315.628506,-674.31640625,-672.36328125,-148.92578125,-1000.0,0.0
1734412315.6324012,-1000.0,-1000.0,-437.5,-433.10546875,0.0
1734412315.6362963,-141.11328125,-491.2109375,28.3203125,890.625,0.0
1734412315.6401916,997.55859375,811.03515625,506.34765625,-884.765625,0.0
1734412315.6440868,-938.4765625,755.37109375,512.20703125,465.8203125,0.0
1734412315.647982,-49.31640625,-449.70703125,-56.15234375,-1000.0,0.0
1734412315.6518772,-1000.0,-1000.0,-488.28125,-314.94140625,0.0
1734412315.6557722,-21.484375,-133.7890625,193.84765625,-934.08203125,0.0
1734412315.6596675,998.53515625,-994.140625,667.96875,893.5546875,0.0
1734412315.6635625,-891.6015625,869.140625,532.2265625,-874.51171875,0.0
1734412315.6675785,353.02734375,-68.359375,210.9375,118.65234375,0.0
1734412315.6714737,-949.21875,-993.1640625,112.3046875,-156.25,0.0
1734412315.6753688,353.02734375,-221.19140625,393.5546875,-927.24609375,0.0
1734412315.679264,-864.74609375,953.125,613.76953125,969.7265625,0.0
1734412315.6831594,891.11328125,979.00390625,659.66796875,942.87109375,0.0
1734412315.6870544,980.95703125,61.5234375,348.14453125,974.12109375,0.0
1734412315.6909497,933.10546875,-988.28125,121.09375,969.7265625,0.0
1734412315.694845,942.3828125,-823.73046875,235.3515625,970.21484375,0.0
1734412315.69874,976.5625,284.66796875,542.48046875,969.7265625,0.0
1734412315.7026353,966.30859375,-882.8125,778.80859375,969.7265625,0.0
1734412315.7065306,969.7265625,484.375,482.91015625,970.21484375,0.0
1734412315.7104256,969.23828125,-871.58203125,176.26953125,969.7265625,0.0
1734412315.7144318,968.75,-728.515625,319.82421875,969.7265625,0.0
1734412315.7183268,979.4921875,584.47265625,669.43359375,969.7265625,0.0
1734412315.722222,898.4375,-932.6171875,745.1171875,969.7265625,0.0
1734412315.7261174,-842.7734375,128.41796875,451.171875,969.7265625,0.0
1734412315.7300127,301.26953125,-932.6171875,149.4140625,970.21484375,0.0
1734412315.7339077,-145.5078125,-1000.0,188.96484375,970.703125,0.0
1734412315.737803,988.76953125,-151.3671875,470.703125,963.37890625,0.0
1734412315.7416983,969.23828125,573.73046875,548.828125,977.5390625,0.0
1734412315.7455935,-956.0546875,-228.02734375,358.3984375,966.30859375,0.0
1734412315.7494886,-270.99609375,-931.15234375,40.52734375,852.5390625,0.0
1734412315.7533839,-935.05859375,-1000.0,-67.87109375,935.05859375,0.0
1734412315.7572792,574.70703125,-540.52734375,279.296875,920.8984375,0.0
1734412315.7612758,-809.08203125,604.00390625,619.140625,-905.76171875,0.0
1734412315.765171,453.125,-102.05078125,369.140625,340.8203125,0.0
1734412315.7690663,-837.40234375,-1000.0,-322.265625,-1000.0,0.0
1734412315.7729616,-1000.0,-1000.0,-518.5546875,-325.68359375,0.0
1734412315.7768567,-229.00390625,-821.2890625,-3.90625,-997.55859375,0.0
1734412315.780752,-835.9375,-330.56640625,468.26171875,-934.08203125,0.0
1734412315.7846472,160.15625,-652.83203125,3.41796875,-87.890625,0.0
1734412315.7885425,-1000.0,-1000.0,-757.32421875,-1000.0,0.0
1734412315.7924378,-1000.0,-977.05078125,-618.1640625,-1000.0,0.0
1734412315.7963328,-800.78125,-1000.0,-291.9921875,4.8828125,0.0
1734412315.800228,780.76171875,-689.453125,208.984375,431.640625,0.0
1734412315.8041234,247.0703125,-670.41015625,176.7578125,-1000.0,0.0
1734412315.8081033,-1000.0,-1000.0,-510.25390625,-1000.0,0.0
1734412315.8119986,-918.45703125,-995.60546875,-768.06640625,-988.28125,0.0
1734412315.815894,-1000.0,-1000.0,-500.48828125,-927.24609375,0.0
1734412315.8197892,66.40625,-514.6484375,133.7890625,-790.0390625,0.0
1734412315.8236845,289.55078125,-496.58203125,161.1328125,-1000.0,0.0
1734412315.8275797,-1000.0,-1000.0,-574.21875,-977.5390625,0.0
1734412315.8314748,-949.21875,-985.83984375,-875.48828125,-1000.0,0.0
1734412315.83537,-1000.0,-1000.0,-538.57421875,-876.46484375,0.0
1734412315.8392653,138.671875,-216.796875,171.875,-433.10546875,0.0
1734412315.8431606,542.96875,16.6015625,257.32421875,-907.2265625,0.0
1734412315.847056,-973.14453125,-933.10546875,-397.94921875,-988.76953125,0.0
1734412315.8509512,-1000.0,-1000.0,-673.828125,-1000.0,0.0
1734412315.8549242,-940.4296875,-966.796875,-378.90625,-492.67578125,0.0
1734412315.8588195,294.921875,-258.30078125,115.72265625,-917.96875,0.0
1734412315.8627148,-799.8046875,578.125,419.43359375,138.18359375,0.0
1734412315.86661,-9.27734375,-277.83203125,17.578125,-1000.0,0.0
1734412315.8705053,-1000.0,-1000.0,-496.09375,-1000.0,0.0
1734412315.8744006,-796.38671875,-1000.0,-465.8203125,-240.72265625,0.0
1734412315.878296,506.34765625,-282.71484375,2.44140625,-938.4765625,0.0
1734412315.8821912,-807.12890625,-967.7734375,551.7578125,887.6953125,0.0
1734412315.8860865,298.33984375,244.140625,234.86328125,-397.4609375,0.0
1734412315.8899817,-1000.0,-1000.0,-406.73828125,-1000.0,0.0
1734412315.893877,-632.8125,-913.0859375,-201.66015625,-145.01953125,0.0
1734412315.897772,772.94921875,225.5859375,375.48828125,979.00390625,0.0
1734412315.901829,-909.66796875,-892.578125,576.171875,-915.52734375,0.0
1734412315.9057243,718.26171875,331.0546875,327.63671875,177.24609375,0.0
1734412315.9096196,-782.2265625,-852.05078125,-194.3359375,-1000.0,0.0
1734412315.9135149,-816.89453125,-974.609375,-185.05859375,-195.3125,0.0
1734412315.9174101,717.7734375,142.578125,284.1796875,-999.0234375,0.0
1734412315.9213054,-959.9609375,-959.47265625,502.44140625,-916.9921875,0.0
1734412315.9252007,930.17578125,727.5390625,348.6328125,239.74609375,0.0
1734412315.929096,-299.31640625,-208.49609375,-89.84375,-1000.0,0.0
1734412315.9329913,-1000.0,-868.65234375,-380.37109375,-260.25390625,0.0
1734412315.9368865,156.25,6.34765625,5.37109375,987.79296875,0.0
1734412315.9407818,-896.484375,991.69921875,568.359375,-920.41015625,0.0
1734412315.944677,913.57421875,-987.3046875,448.2421875,208.0078125,0.0
1734412315.9487135,-286.1328125,64.453125,-220.21484375,-1000.0,0.0
1734412315.9526088,-1000.0,-614.2578125,-530.76171875,-765.13671875,0.0
1734412315.956504,-197.265625,479.98046875,51.26953125,612.3046875,0.0
1734412315.9603994,-892.08984375,-949.21875,526.85546875,-822.265625,0.0
1734412315.964295,753.41796875,860.3515625,243.1640625,21.484375,0.0
1734412315.9681902,-598.14453125,187.01171875,-406.73828125,-1000.0,0.0
1734412315.9720855,-1000.0,-393.5546875,-592.7734375,-1000.0,0.0
1734412315.9759808,-378.41796875,387.20703125,-251.46484375,-31.25,0.0
1734412315.979876,-959.9609375,-964.35546875,140.13671875,821.77734375,0.0
1734412315.9837713,737.79296875,949.21875,223.6328125,-660.15625,0.0
1734412315.9876666,-670.8984375,932.6171875,-147.94921875,-1000.0,0.0
1734412315.991562,-1000.0,780.2734375,-610.3515625,-975.09765625,0.0
1734412315.995593,-816.40625,868.65234375,-405.2734375,-913.0859375,0.0
1734412315.9994884,692.87109375,983.3984375,239.2578125,-677.24609375,0.0
1734412316.0033836,727.05078125,979.98046875,399.90234375,-969.23828125,0.0
1734412316.007279,-857.421875,887.6953125,-237.79296875,-1000.0,0.0
1734412316.0111742,-1000.0,778.3203125,-676.7578125,-982.421875,0.0
1734412316.0150697,-1000.0,945.3125,-493.65234375,-1000.0,0.0
1734412316.018965,131.8359375,984.86328125,97.65625,-1000.0,0.0
1734412316.0228603,-914.0625,960.44921875,409.66796875,-1000.0,0.0
1734412316.0267556,-391.11328125,971.6796875,-223.14453125,-1000.0,0.0
1734412316.0306509,-1000.0,969.7265625,-632.8125,-1000.0,0.0
1734412316.0345464,-998.046875,970.21484375,-336.9140625,-1000.0,0.0
1734412316.0384417,110.83984375,969.7265625,164.55078125,-1000.0,0.0
1734412316.0424542,-773.4375,969.7265625,477.5390625,-1000.0,0.0
1734412316.0463498,190.4296875,970.21484375,200.68359375,-951.171875,0.0
1734412316.050245,-1000.0,970.21484375,-325.68359375,-1000.0,0.0
1734412316.0541403,-751.46484375,970.21484375,-282.71484375,-950.1953125,0.0
1734412316.0580356,645.5078125,969.7265625,283.69140625,547.8515625,0.0
1734412316.0619311,-952.63671875,969.7265625,600.09765625,613.76953125,0.0
1734412316.0658264,989.74609375,969.7265625,397.4609375,-843.75,0.0
1734412316.0697217,-423.828125,970.21484375,-242.1875,-1000.0,0.0
1734412316.0736172,-456.0546875,970.21484375,-219.23828125,-175.78125,0.0
1734412316.0775125,-937.5,969.7265625,520.99609375,947.75390625,0.0
1734412316.0814078,963.8671875,969.7265625,704.58984375,-899.4140625,0.0
1734412316.0853033,940.4296875,969.7265625,558.10546875,402.34375,0.0
1734412316.0893133,969.7265625,970.21484375,272.4609375,-1000.0,0.0
1734412316.0932086,898.4375,969.7265625,269.04296875,-39.0625,0.0
1734412316.0971038,955.56640625,969.7265625,496.09375,-885.25390625,0.0
1734412316.1009994,978.02734375,969.7265625,687.5,911.1328125,0.0
1734412316.1048946,964.35546875,969.7265625,641.6015625,-985.83984375,0.0
1734412316.1087902,970.703125,969.7265625,302.24609375,523.92578125,0.0
1734412316.1126854,969.23828125,969.7265625,192.87109375,611.328125,0.0
1734412316.1165807,970.703125,969.7265625,369.62890625,-947.75390625,0.0
1734412316.1204762,947.75390625,969.7265625,677.24609375,900.390625,0.0
1734412316.1243715,986.328125,969.7265625,719.23828125,-879.39453125,0.0
1734412316.1282668,994.62890625,969.7265625,245.60546875,273.92578125,0.0
1734412316.1321623,405.2734375,969.7265625,80.078125,101.5625,0.0
1734412316.1361597,683.10546875,970.21484375,416.015625,-954.58984375,0.0
1734412316.1400552,996.09375,969.7265625,635.25390625,919.43359375,0.0
1734412316.1439505,-937.01171875,969.7265625,542.96875,-893.06640625,0.0
1734412316.1478457,468.26171875,970.21484375,212.890625,-187.5,0.0
1734412316.1517413,-1000.0,970.21484375,18.5546875,-719.23828125,0.0
1734412316.1556365,-223.14453125,969.7265625,190.91796875,784.1796875,0.0
1734412316.159532,-974.12109375,969.7265625,345.703125,-876.46484375,0.0
1734412316.1634274,-937.98828125,969.7265625,402.83203125,624.0234375,0.0
1734412316.1673229,234.86328125,969.7265625,225.5859375,-666.015625,0.0
1734412316.1712182,-1000.0,969.7265625,-301.7578125,-1000.0,0.0
1734412316.1751134,-593.75,969.7265625,-307.12890625,-179.19921875,0.0
1734412316.179009,809.5703125,968.26171875,233.88671875,-822.265625,0.0
1734412316.1829953,-854.00390625,972.65625,532.2265625,203.61328125,0.0
1734412316.1868908,49.31640625,959.9609375,-12.6953125,-1000.0,0.0
1734412316.1907861,-1000.0,942.3828125,-580.078125,-1000.0,0.0
1734412316.1946816,-1000.0,961.9140625,-401.85546875,-829.1015625,0.0
1734412316.198577,-39.0625,972.16796875,84.47265625,621.58203125,0.0
1734412316.2024724,-843.75,985.3515625,344.7265625,-20.5078125,0.0
1734412316.2063677,-209.47265625,807.6171875,-204.1015625,-1000.0,0.0
1734412316.2102633,-1000.0,838.8671875,-666.9921875,-939.453125,0.0
1734412316.2141585,-1000.0,993.65234375,-518.06640625,-994.140625,0.0
1734412316.218054,-270.99609375,955.56640625,-126.953125,-1000.0,0.0
1734412316.2219493,-893.5546875,968.75,318.84765625,-1000.0,0.0
1734412316.2258449,-186.03515625,973.14453125,-2.44140625,-1000.0,0.0
1734412316.2298207,-1000.0,687.01171875,-616.69921875,-1000.0,0.0
1734412316.233716,-1000.0,616.2109375,-667.96875,-1000.0,0.0
1734412316.2376115,-480.46875,918.45703125,-224.12109375,-1000.0,0.0
1734412316.2415068,-924.8046875,992.67578125,375.9765625,-1000.0,0.0
1734412316.2454023,89.84375,917.96875,12.20703125,-1000.0,0.0
1734412316.2492979,-1000.0,213.37890625,-698.73046875,-1000.0,0.0
1734412316.2531931,-1000.0,193.359375,-674.31640625,-1000.0,0.0
1734412316.2570887,-343.26171875,920.41015625,-347.16796875,-1000.0,0.0
1734412316.260984,-901.85546875,-966.30859375,258.30078125,-1000.0,0.0
1734412316.2648795,220.703125,710.9375,27.34375,-1000.0,0.0
1734412316.2687747,-1000.0,264.6484375,-639.16015625,-920.8984375,0.0
1734412316.2726703,-1000.0,394.53125,-514.16015625,-1000.0,0.0
1734412316.2767165,-238.28125,825.68359375,-90.8203125,-196.77734375,0.0
1734412316.280612,-949.70703125,985.83984375,379.39453125,483.3984375,0.0
1734412316.2845075,916.015625,948.2421875,382.32421875,-935.546875,0.0
1734412316.2884028,-369.62890625,442.87109375,-107.91015625,-1000.0,0.0
1734412316.2922983,-1000.0,-116.69921875,-488.28125,-1000.0,0.0
1734412316.2961938,-155.2734375,384.765625,-130.859375,-189.94140625,0.0
1734412316.3000891,972.65625,991.2109375,424.8046875,-803.22265625,0.0
1734412316.3039846,-911.1328125,957.03125,526.85546875,192.87109375,0.0
1734412316.3078802,198.73046875,142.578125,-76.171875,-1000.0,0.0
1734412316.3117754,-1000.0,-555.6640625,-526.3671875,-1000.0,0.0
1734412316.315671,-191.89453125,343.75,53.7109375,185.05859375,0.0
1734412316.3195665,995.1171875,-949.70703125,545.41015625,-869.140625,0.0
1734412316.3236003,-916.9921875,846.6796875,496.58203125,803.7109375,0.0
1734412316.3274958,374.0234375,262.20703125,166.9921875,-541.015625,0.0
1734412316.3313913,-1000.0,-301.26953125,-200.68359375,-1000.0,0.0
1734412316.3352866,-215.33203125,171.38671875,38.0859375,308.59375,0.0
1734412316.3391821,-992.1875,921.38671875,409.1796875,-967.28515625,0.0
1734412316.3430777,-946.77734375,970.21484375,461.9140625,-940.91796875,0.0
1734412316.3469732,584.9609375,311.5234375,187.98828125,67.3828125,0.0
1734412316.3508685,-1000.0,-451.66015625,-264.6484375,-1000.0,0.0
1734412316.354764,-334.47265625,-352.5390625,-365.234375,235.83984375,0.0
1734412316.3586595,996.58203125,473.6328125,79.1015625,-948.2421875,0.0
1734412316.362555,-957.03125,-952.63671875,612.79296875,-953.61328125,0.0
1734412316.3664503,636.23046875,342.28515625,239.2578125,207.03125,0.0
1734412316.3704755,-937.01171875,-541.015625,-338.8671875,-1000.0,0.0
1734412316.374371,-674.31640625,-239.2578125,-177.24609375,-142.578125,0.0
1734412316.3782663,804.6875,681.15234375,324.70703125,-978.02734375,0.0
1734412316.3821619,-884.27734375,986.328125,516.6015625,-929.19921875,0.0
1734412316.3860574,569.82421875,333.0078125,233.88671875,168.45703125,0.0
1734412316.389953,-796.875,-622.55859375,-344.23828125,-1000.0,0.0
1734412316.3938484,-1000.0,-668.45703125,-476.5625,-218.26171875,0.0
1734412316.397744,130.37109375,318.84765625,-0.48828125,-995.60546875,0.0
1734412316.4016395,-815.91796875,889.6484375,376.46484375,-934.08203125,0.0
1734412316.4055347,580.56640625,567.87109375,268.5546875,131.8359375,0.0
1734412316.4094303,-743.65234375,-242.1875,-187.5,-1000.0,0.0
1734412316.4133258,-1000.0,-654.296875,-507.32421875,-496.58203125,0.0
1734412316.417343,-192.3828125,171.875,-91.796875,860.3515625,0.0
1734412316.4212384,-890.13671875,-933.10546875,500.9765625,-880.859375,0.0
1734412316.425134,710.9375,521.97265625,286.62109375,117.67578125,0.0
1734412316.4290295,-678.7109375,-600.5859375,-317.3828125,-1000.0,0.0
1734412316.432925,-1000.0,-738.76953125,-486.81640625,-760.25390625,0.0
1734412316.4368203,-114.2578125,76.171875,-161.1328125,600.5859375,0.0
1734412316.4407158,-952.1484375,945.80078125,363.76953125,-814.453125,0.0
1734412316.4446113,875.0,475.09765625,155.76171875,154.296875,0.0
1734412316.4485068,-428.7109375,-550.78125,-467.28515625,-1000.0,0.0
1734412316.4524024,-1000.0,-540.0390625,-446.77734375,-956.54296875,0.0
1734412316.4562979,-187.01171875,111.81640625,-41.50390625,291.9921875,0.0
1734412316.4601934,976.5625,894.04296875,399.90234375,-783.69140625,0.0
1734412316.4642012,-926.7578125,818.359375,461.42578125,290.0390625,0.0
1734412316.4680967,61.03515625,-63.96484375,22.94921875,-1000.0,0.0
1734412316.4719923,-1000.0,-767.578125,-469.23828125,-1000.0,0.0
1734412316.4758878,-266.6015625,-251.46484375,-137.6953125,213.37890625,0.0
1734412316.4797833,961.42578125,826.66015625,378.41796875,-837.40234375,0.0
1734412316.4836788,-905.2734375,832.03125,462.890625,669.43359375,0.0
1734412316.4875743,225.09765625,-165.0390625,-42.48046875,-683.59375,0.0
1734412316.4914699,-1000.0,-908.69140625,-598.14453125,-1000.0,0.0
1734412316.4953654,-352.5390625,-134.765625,-103.02734375,180.17578125,0.0
1734412316.499261,938.96484375,926.26953125,461.42578125,-951.66015625,0.0
1734412316.5031564,-899.90234375,810.546875,484.86328125,-970.703125,0.0
1734412316.507052,326.171875,4.8828125,179.19921875,-59.5703125,0.0
1734412316.5110428,-1000.0,-620.60546875,-281.25,-1000.0,0.0
1734412316.5149384,-447.75390625,-332.51953125,-111.81640625,138.671875,0.0
1734412316.5188339,902.34375,514.6484375,296.875,-964.35546875,0.0
1734412316.5227294,-911.62109375,936.5234375,508.7890625,-926.7578125,0.0
1734412316.526625,563.96484375,268.5546875,310.546875,194.82421875,0.0
1734412316.5305204,-983.3984375,-747.55859375,-304.19921875,-1000.0,0.0
1734412316.534416,-690.4296875,-713.8671875,-382.32421875,105.95703125,0.0
1734412316.5383115,796.38671875,351.5625,176.26953125,-957.03125,0.0
1734412316.542207,-947.75390625,-984.375,590.8203125,-934.08203125,0.0
1734412316.5461025,846.19140625,316.40625,308.10546875,349.12109375,0.0
1734412316.549998,-601.07421875,-757.8125,-383.7890625,-1000.0,0.0
1734412316.5538936,-877.44140625,-588.37890625,-350.09765625,25.87890625,0.0
1734412316.5578728,690.91796875,558.59375,328.125,-946.77734375,0.0
1734412316.5617683,-975.5859375,997.0703125,555.17578125,-975.5859375,0.0
1734412316.5656638,999.51171875,382.8125,362.3046875,628.90625,0.0
1734412316.5695593,-178.7109375,-450.68359375,-93.26171875,-958.984375,0.0
1734412316.5734549,-1000.0,-582.51953125,-298.33984375,-183.59375,0.0
1734412316.5773506,261.71875,117.67578125,108.88671875,-945.80078125,0.0
1734412316.5812461,-928.22265625,708.0078125,394.53125,-995.1171875,0.0
1734412316.5851417,-998.53515625,546.875,375.48828125,754.8828125,0.0
1734412316.5890372,-66.89453125,-199.21875,-18.06640625,-828.61328125,0.0
1734412316.5929327,-1000.0,-676.26953125,-433.59375,-306.640625,0.0
1734412316.5968282,-116.2109375,58.59375,-29.296875,-967.28515625,0.0
1734412316.6007237,-970.703125,977.5390625,489.2578125,-984.375,0.0
1734412316.6046925,-957.51953125,644.04296875,401.85546875,736.328125,0.0
1734412316.608588,-54.6875,-395.01953125,-187.01171875,-843.26171875,0.0
1734412316.6124837,-1000.0,-678.22265625,-514.6484375,-578.125,0.0
1734412316.6163793,-183.59375,196.77734375,-17.08984375,902.34375,0.0
1734412316.6202748,-990.234375,-979.00390625,495.60546875,-947.265625,0.0
1734412316.6241703,-951.171875,623.046875,252.44140625,746.58203125,0.0
1734412316.6280658,-14.6484375,-297.36328125,-393.06640625,-686.5234375,0.0
1734412316.6319613,-1000.0,-479.4921875,-563.4765625,-980.95703125,0.0
1734412316.635857,-388.671875,315.4296875,-128.90625,482.91015625,0.0
1734412316.6397526,914.55078125,964.35546875,247.0703125,-888.671875,0.0
1734412316.6436481,-902.83203125,979.4921875,372.0703125,793.9453125,0.0
1734412316.6475437,74.70703125,615.234375,-9.27734375,-517.578125,0.0
1734412316.6515992,-1000.0,136.71875,0.0,-1000.0,0.0
1734412316.655495,-683.59375,583.984375,0.0,229.98046875,0.0
1734412316.6593904,680.17578125,983.3984375,0.0,-949.21875,0.0
1734412316.663286,-829.1015625,998.53515625,0.0,-968.26171875,0.0
1734412316.6671815,113.76953125,779.78515625,0.0,-58.10546875,0.0
1734412316.6710773,-1000.0,28.80859375,0.0,-1000.0,0.0
1734412316.6749728,-1000.0,308.10546875,0.0,194.82421875,0.0
1734412316.6788683,191.40625,-993.65234375,0.0,-964.84375,0.0
1734412316.682764,-768.06640625,949.70703125,0.0,-919.921875,0.0
1734412316.6866596,105.46875,293.9453125,0.0,188.96484375,0.0
1734412316.690555,-1000.0,-368.65234375,0.0,-1000.0,0.0
1734412316.6944506,-1000.0,-214.84375,0.0,236.81640625,0.0
1734412316.6984894,-190.4296875,463.37890625,-72.75390625,-953.125,0.0
1734412316.7023852,-810.546875,933.59375,375.0,-954.1015625,0.0
1734412316.7062807,162.109375,420.41015625,171.38671875,602.05078125,0.0
1734412316.7101765,-1000.0,-468.75,-466.796875,-663.57421875,0.0
1734412316.714072,-1000.0,-646.97265625,-579.58984375,402.83203125,0.0
1734412316.7179675,-256.8359375,95.703125,-181.640625,-860.83984375,0.0
1734412316.7218633,-827.1484375,837.890625,335.9375,891.6015625,0.0
1734412316.7257588,187.98828125,393.5546875,195.3125,979.00390625,0.0
1734412316.7296543,-1000.0,-684.08203125,-567.3828125,970.21484375,0.0
1734412316.73355,-1000.0,-753.41796875,-698.2421875,969.7265625,0.0
1734412316.7374456,-423.33984375,317.87109375,-21.97265625,969.7265625,0.0
1734412316.7413414,-893.5546875,932.12890625,430.6640625,969.7265625,0.0
1734412316.7455366,347.65625,509.27734375,304.19921875,970.21484375,0.0
1734412316.7494323,-982.421875,-291.015625,-247.55859375,970.21484375,0.0
1734412316.753328,-1000.0,-478.515625,-482.421875,969.7265625,0.0
1734412316.7572236,-732.421875,88.37890625,-101.07421875,969.7265625,0.0
1734412316.7611194,849.609375,808.10546875,364.2578125,969.7265625,0.0
1734412316.765015,581.0546875,618.1640625,352.05078125,969.7265625,0.0
1734412316.7689106,-943.359375,-192.3828125,-149.90234375,970.21484375,0.0
1734412316.7728062,-1000.0,-581.54296875,-480.95703125,970.21484375,0.0
1734412316.776702,-1000.0,-280.76171875,-340.33203125,969.7265625,0.0
1734412316.7805977,336.42578125,707.03125,237.3046875,969.7265625,0.0
1734412316.7844932,912.59765625,880.859375,525.87890625,969.7265625,0.0
1734412316.788389,-683.59375,-49.8046875,-60.05859375,970.21484375,0.0
1734412316.7924004,-1000.0,-605.95703125,-555.17578125,969.7265625,0.0
1734412316.796296,-1000.0,-134.27734375,-141.6015625,969.23828125,0.0
1734412316.8001916,-98.6328125,638.18359375,350.5859375,969.7265625,0.0
1734412316.8040874,975.09765625,629.39453125,402.83203125,969.7265625,0.0
1734412316.807983,-514.6484375,-128.90625,-6.34765625,969.7265625,0.0
1734412316.8118787,-1000.0,-711.42578125,-504.39453125,969.7265625,0.0
1734412316.8157744,-1000.0,-535.15625,-457.03125,970.21484375,0.0
1734412316.81967,-244.62890625,216.796875,-31.73828125,969.7265625,0.0
1734412316.8235657,-966.30859375,644.04296875,384.765625,969.7265625,0.0
1734412316.8274615,-362.3046875,107.421875,145.5078125,969.7265625,0.0
1734412316.831357,-1000.0,-682.6171875,-485.83984375,969.7265625,0.0
1734412316.8352528,-1000.0,-691.89453125,-542.48046875,969.7265625,0.0
1734412316.839336,-591.30859375,130.37109375,-21.97265625,970.21484375,0.0
1734412316.8432317,900.87890625,614.74609375,441.89453125,969.7265625,0.0
1734412316.8471274,-177.24609375,70.3125,111.81640625,969.7265625,0.0
1734412316.8510232,-1000.0,-824.70703125,-634.27734375,969.7265625,0.0
1734412316.8549187,-931.15234375,-683.59375,-594.7265625,969.7265625,0.0
1734412316.8588145,-1000.0,181.640625,-116.69921875,969.7265625,0.0
1734412316.8627102,213.8671875,549.8046875,297.8515625,969.7265625,0.0
1734412316.866606,-59.08203125,-2.44140625,-2.44140625,969.7265625,0.0
1734412316.8705018,-1000.0,-561.03515625,-540.52734375,970.21484375,0.0
1734412316.8743973,-895.99609375,-509.27734375,-471.6796875,969.7265625,0.0
1734412316.878293,-1000.0,-81.54296875,-255.37109375,969.7265625,0.0
1734412316.8821888,-54.19921875,537.109375,263.18359375,969.7265625,0.0
1734412316.8862638,107.91015625,305.17578125,295.8984375,970.21484375,0.0
1734412316.8901596,-1000.0,-570.80078125,-340.8203125,970.21484375,0.0
1734412316.8940551,-924.8046875,-986.81640625,-617.67578125,970.21484375,0.0
1734412316.897951,-1000.0,-512.20703125,-309.5703125,969.7265625,0.0
1734412316.9018466,-86.9140625,212.40234375,281.73828125,969.7265625,0.0
1734412316.9057424,232.421875,-30.2734375,231.93359375,969.7265625,0.0
1734412316.9096382,-1000.0,-760.25390625,-412.59765625,969.7265625,0.0
1734412316.913534,-942.3828125,-994.140625,-613.76953125,970.21484375,0.0
1734412316.9174297,-1000.0,-511.23046875,-294.921875,970.703125,0.0
1734412316.9213254,-86.9140625,257.32421875,304.6875,913.57421875,0.0
1734412316.9252212,294.921875,-46.38671875,163.0859375,-842.7734375,0.0
1734412316.929117,-1000.0,-735.83984375,-494.62890625,100.5859375,0.0
1734412316.933099,-940.91796875,-823.2421875,-499.51171875,-141.11328125,0.0
1734412316.9369948,-1000.0,-606.93359375,-329.1015625,-919.921875,0.0
1734412316.9408906,-172.8515625,130.859375,160.15625,903.3203125,0.0
1734412316.9447863,888.18359375,369.62890625,481.93359375,-854.4921875,0.0
1734412316.948682,-600.09765625,-321.2890625,-25.87890625,44.43359375,0.0
1734412316.9525778,-1000.0,-950.68359375,-574.21875,-292.96875,0.0
1734412316.9564736,-1000.0,-633.7890625,-361.81640625,-937.98828125,0.0
1734412316.9603693,-280.2734375,264.16015625,165.0390625,911.62109375,0.0
1734412316.964265,-831.0546875,623.046875,526.3671875,-860.3515625,0.0
1734412316.9681606,66.40625,-35.15625,117.67578125,107.91015625,0.0
1734412316.9720564,-1000.0,-796.875,-534.66796875,-307.6171875,0.0
1734412316.9759521,-1000.0,-448.73046875,-291.015625,-952.63671875,0.0
1734412316.9799254,-224.12109375,417.96875,300.29296875,916.015625,0.0
1734412316.9838212,-814.94140625,641.6015625,497.0703125,-882.32421875,0.0
1734412316.987717,296.875,96.19140625,254.39453125,360.3515625,0.0
1734412316.9916127,-998.53515625,-431.640625,-136.23046875,-230.95703125,0.0
1734412316.9955084,-1000.0,-496.09375,-235.3515625,959.9609375,0.0
1734412316.9994042,-70.80078125,-15.625,81.54296875,-982.421875,0.0
1734412317.0033,-974.609375,527.83203125,428.7109375,928.22265625,0.0
1734412317.0071957,-949.21875,333.0078125,420.41015625,969.23828125,0.0
1734412317.0110915,-96.19140625,-304.19921875,102.05078125,904.78515625,0.0
1734412317.0149872,-1000.0,-592.7734375,-169.43359375,958.49609375,0.0
1734412317.018883,159.66796875,35.64453125,190.91796875,977.05078125,0.0
1734412317.0227787,-952.63671875,812.98828125,670.41015625,964.84375,0.0
1734412317.0268242,0.0,485.3515625,517.578125,971.19140625,0.0
1734412317.03072,0.0,-254.39453125,240.72265625,969.7265625,0.0
1734412317.034616,0.0,-431.15234375,210.44921875,969.7265625,0.0
1734412317.0385118,0.0,143.5546875,455.078125,969.7265625,0.0
1734412317.0424075,0.0,762.20703125,686.03515625,969.7265625,0.0
1734412317.0463033,0.0,409.66796875,559.08203125,969.7265625,0.0
1734412317.050199,0.0,-173.33984375,346.19140625,969.7265625,0.0
1734412317.0540948,0.0,-325.1953125,329.58984375,969.7265625,0.0
1734412317.0579906,0.0,21.484375,488.76953125,969.7265625,0.0
1734412317.0618863,0.0,707.03125,701.66015625,969.7265625,0.0
1734412317.065782,0.0,737.79296875,734.375,969.7265625,0.0
1734412317.069678,0.0,106.4453125,551.26953125,969.7265625,0.0
1734412317.0737097,969.23828125,-430.17578125,361.81640625,969.7265625,0.0
1734412317.0776055,969.23828125,-179.19921875,452.63671875,969.7265625,0.0
1734412317.0815012,969.23828125,781.25,767.08984375,969.7265625,0.0
1734412317.0853972,969.23828125,852.5390625,837.890625,969.7265625,0.0
1734412317.089293,969.23828125,62.01171875,535.15625,969.7265625,0.0
1734412317.0931888,969.23828125,-448.73046875,351.07421875,969.7265625,0.0
1734412317.0970845,968.75,-90.33203125,537.109375,969.7265625,0.0
1734412317.1009803,968.75,706.54296875,769.53125,969.7265625,0.0
1734412317.1048763,969.23828125,688.96484375,752.9296875,969.7265625,0.0
1734412317.108772,968.75,125.48828125,589.84375,969.7265625,0.0
1734412317.1126678,969.23828125,-211.9140625,525.87890625,969.7265625,0.0
1734412317.1165636,968.75,-141.6015625,578.61328125,969.7265625,0.0
1734412317.120587,968.75,369.140625,680.17578125,969.7265625,0.0
1734412317.1244829,969.23828125,690.4296875,794.921875,969.7265625,0.0
1734412317.1283789,969.23828125,260.7421875,657.71484375,969.7265625,0.0
1734412317.1322746,969.23828125,-395.01953125,417.96875,969.7265625,0.0
1734412317.1361704,968.75,-336.9140625,469.23828125,969.7265625,0.0
1734412317.1400661,969.23828125,295.41015625,639.16015625,969.7265625,0.0
1734412317.1439621,969.23828125,646.97265625,768.06640625,969.7265625,0.0
1734412317.147858,969.23828125,119.62890625,562.5,969.7265625,0.0
1734412317.1517537,969.23828125,-593.75,185.05859375,970.21484375,0.0
1734412317.1556497,969.23828125,-407.2265625,291.015625,974.609375,0.0
1734412317.1595454,969.23828125,359.375,612.79296875,895.01953125,0.0
1734412317.1634412,968.75,614.74609375,752.9296875,-859.86328125,0.0
1734412317.1674528,969.7265625,147.94921875,563.4765625,269.53125,0.0
1734412317.1713486,968.75,-388.18359375,240.234375,-1000.0,0.0
1734412317.1752443,963.37890625,-500.0,206.54296875,238.28125,0.0
1734412317.1791403,981.4453125,-1.46484375,365.72265625,-914.55078125,0.0
1734412317.183036,903.3203125,533.203125,589.35546875,-987.3046875,0.0
1734412317.1869318,-930.17578125,168.45703125,457.03125,82.51953125,0.0
1734412317.1908278,764.16015625,-470.703125,-39.55078125,-1000.0,0.0
1734412317.1947236,-659.66796875,-753.90625,-463.37890625,-347.65625,0.0
1734412317.1986196,184.08203125,-205.078125,-111.81640625,-886.71875,0.0
1734412317.2025154,-900.390625,713.8671875,580.56640625,634.765625,0.0
1734412317.2064111,-968.26171875,359.375,426.7578125,-814.453125,0.0
1734412317.2103071,254.8828125,-417.96875,-150.87890625,-1000.0,0.0
1734412317.2143898,-1000.0,-591.796875,-440.4296875,-1000.0,0.0
1734412317.2182856,-214.84375,-111.328125,-43.45703125,-13.671875,0.0
1734412317.2221816,-976.5625,459.9609375,398.4375,278.3203125,0.0
1734412317.2260773,-951.171875,283.203125,318.359375,-1000.0,0.0
1734412317.2299733,41.015625,-322.265625,-221.6796875,-1000.0,0.0
1734412317.233869,-1000.0,-708.49609375,-646.484375,-968.26171875,0.0
1734412317.237765,-569.3359375,-308.10546875,-415.0390625,-1000.0,0.0
1734412317.2416608,829.58984375,302.24609375,-92.7734375,-1000.0,0.0
1734412317.2455568,-884.27734375,412.109375,177.24609375,-1000.0,0.0
1734412317.2494526,-125.9765625,-27.34375,-127.44140625,-1000.0,0.0
1734412317.2533486,-1000.0,-580.078125,-680.6640625,-1000.0,0.0
1734412317.2572443,-1000.0,-358.88671875,-596.19140625,-1000.0,0.0
1734412317.261232,136.23046875,476.07421875,33.203125,-1000.0,0.0
1734412317.265128,-836.9140625,622.55859375,375.9765625,-1000.0,0.0
1734412317.2690237,-260.7421875,-97.65625,-240.234375,-1000.0,0.0
1734412317.2729197,-1000.0,-522.4609375,-693.359375,-1000.0,0.0
1734412317.2768154,-1000.0,-214.84375,-518.06640625,-1000.0,0.0
1734412317.2807114,-225.5859375,393.06640625,-62.5,-1000.0,0.0
1734412317.2846072,-919.921875,458.0078125,99.12109375,-1000.0,0.0
1734412317.2885032,-293.45703125,-0.9765625,-434.5703125,-1000.0,0.0
1734412317.2923992,-1000.0,-341.30859375,-720.21484375,-1000.0,0.0
1734412317.296295,-1000.0,-212.40234375,-561.03515625,-1000.0,0.0
1734412317.300191,-688.96484375,208.49609375,-464.84375,-1000.0,0.0
1734412317.3040867,799.31640625,534.66796875,-99.609375,-1000.0,0.0
1734412317.3080626,-195.80078125,327.1484375,-110.3515625,-1000.0,0.0
1734412317.3119586,-1000.0,-327.1484375,-730.46875,-1000.0,0.0
1734412317.3158543,-985.3515625,-395.5078125,-771.484375,-1000.0,0.0
1734412317.3197503,-922.36328125,323.2421875,-383.7890625,-1000.0,0.0
1734412317.3236463,583.49609375,787.109375,187.5,-1000.0,0.0
1734412317.327542,-1.46484375,236.81640625,-182.12890625,-1000.0,0.0
1734412317.331438,-1000.0,-457.51953125,-838.8671875,-1000.0,0.0
1734412317.3353338,-949.70703125,-297.8515625,-723.6328125,-1000.0,0.0
1734412317.3392298,-1000.0,432.12890625,-342.7734375,-1000.0,0.0
1734412317.3431258,440.4296875,775.87890625,162.109375,-1000.0,0.0
1734412317.3470216,256.8359375,397.4609375,-51.26953125,-1000.0,0.0
1734412317.3509176,-1000.0,-143.06640625,-677.24609375,-1000.0,0.0
1734412317.3548865,-944.82421875,-266.6015625,-679.19921875,-1000.0,0.0
1734412317.3587825,-1000.0,151.85546875,-516.6015625,-1000.0,0.0
1734412317.3626783,225.09765625,698.2421875,-18.06640625,-1000.0,0.0
1734412317.3665743,310.546875,552.24609375,114.2578125,-1000.0,0.0
1734412317.3704703,-1000.0,-103.02734375,-575.1953125,-1000.0,0.0
1734412317.374366,-930.6640625,-507.8125,-866.2109375,-1000.0,0.0
1734412317.378262,-1000.0,-42.48046875,-656.25,-1000.0,0.0
1734412317.382158,-7.8125,735.3515625,-20.99609375,-1000.0,0.0
1734412317.3860538,351.5625,570.80078125,9.765625,-1000.0,0.0
1734412317.3899498,-1000.0,-136.23046875,-652.34375,-1000.0,0.0
1734412317.3938458,-945.80078125,-331.54296875,-752.9296875,-1000.0,0.0
1734412317.3977416,-1000.0,168.9453125,-490.234375,-1000.0,0.0
1734412317.401783,-56.15234375,706.0546875,8.30078125,-1000.0,0.0
1734412317.405679,622.0703125,622.0703125,178.7109375,-1000.0,0.0
1734412317.409575,-918.9453125,80.56640625,-395.5078125,-1000.0,0.0
1734412317.4134707,-1000.0,-273.92578125,-704.58984375,-1000.0,0.0
1734412317.4173667,-1000.0,-54.19921875,-545.41015625,-1000.0,0.0
1734412317.4212627,-212.40234375,513.671875,-176.7578125,-1000.0,0.0
1734412317.4251587,-970.703125,667.48046875,158.203125,-1000.0,0.0
1734412317.4290545,-387.6953125,197.265625,-270.99609375,-1000.0,0.0
1734412317.4329505,-1000.0,-360.83984375,-795.8984375,-1000.0,0.0
1734412317.4368465,-1000.0,-220.21484375,-706.54296875,-1000.0,0.0
1734412317.4407425,-257.8125,593.26171875,-133.7890625,-1000.0,0.0
1734412317.4446383,-829.58984375,806.640625,305.17578125,-1000.0,0.0
1734412317.4486709,40.52734375,188.4765625,-223.14453125,-998.53515625,0.0
1734412317.4525666,-1000.0,-325.1953125,-788.57421875,-1000.0,0.0
1734412317.4564626,-1000.0,-99.12109375,-583.49609375,-1000.0,0.0
1734412317.4603586,-234.375,539.55078125,-82.51953125,-964.84375,0.0
1734412317.4642546,-816.40625,713.37890625,249.51171875,-998.53515625,0.0
1734412317.4681506,188.4765625,213.8671875,-184.08203125,-958.0078125,0.0
1734412317.4720466,-1000.0,-259.765625,-686.5234375,-1000.0,0.0
1734412317.4759424,-1000.0,-162.59765625,-586.42578125,-955.078125,0.0
1734412317.4798384,-204.58984375,310.05859375,-381.34765625,598.6328125,0.0
1734412317.4837344,-859.375,719.7265625,80.56640625,226.5625,0.0
1734412317.4876304,637.20703125,602.5390625,253.90625,-1000.0,0.0
1734412317.4915264,-745.1171875,-62.01171875,-414.55078125,-1000.0,0.0
1734412317.495635,0.0,-216.30859375,-559.08203125,-595.21484375,0.0
1734412317.499531,0.0,423.828125,23.92578125,946.2890625,0.0
1734412317.503427,0.0,951.66015625,530.2734375,731.4453125,0.0
1734412317.507323,0.0,550.78125,299.31640625,-785.15625,0.0
1734412317.511219,0.0,-95.21484375,-296.38671875,-1000.0,0.0
1734412317.515115,0.0,-230.46875,-485.3515625,-42.48046875,0.0
1734412317.519011,0.0,319.82421875,0.0,884.765625,0.0
1734412317.522907,0.0,890.625,520.99609375,-895.5078125,0.0
1734412317.526803,0.0,525.87890625,330.078125,169.43359375,0.0
1734412317.530699,0.0,87.890625,-28.3203125,-1000.0,0.0
1734412317.534595,0.0,-28.3203125,-175.78125,-265.13671875,0.0
1734412317.538491,0.0,231.4453125,121.58203125,962.40234375,0.0
1734412317.5424967,-895.99609375,814.94140625,531.25,-907.2265625,0.0
1734412317.5463927,895.99609375,791.50390625,557.6171875,444.82421875,0.0
1734412317.5502887,-898.92578125,160.15625,247.0703125,-1000.0,0.0
1734412317.5541847,-162.59765625,-251.46484375,-114.74609375,-244.62890625,0.0
1734412317.5580807,-116.2109375,109.86328125,122.55859375,-935.05859375,0.0
1734412317.5619767,-870.1171875,756.34765625,567.87109375,913.0859375,0.0
1734412317.5658727,892.578125,703.61328125,596.6796875,-914.55078125,0.0
1734412317.5697687,-881.34765625,90.8203125,185.546875,-245.1171875,0.0
1734412317.5736647,129.8828125,-176.7578125,3.41796875,-338.37890625,0.0
1734412317.5775607,53.22265625,204.58984375,356.93359375,-910.15625,0.0
1734412317.5814567,-885.25390625,802.24609375,631.34765625,898.4375,0.0
1734412317.5853527,895.5078125,629.8828125,562.98828125,-858.88671875,0.0
1734412317.5893493,-897.4609375,97.16796875,305.6640625,37.109375,0.0
1734412317.5932455,404.296875,-51.7578125,236.328125,-299.8046875,0.0
1734412317.5971415,198.73046875,59.08203125,326.171875,-944.82421875,0.0
1734412317.6010375,-930.17578125,649.90234375,566.89453125,926.26953125,0.0
1734412317.6049335,899.4140625,814.94140625,679.19921875,-913.57421875,0.0
1734412317.6088295,-888.18359375,197.265625,374.51171875,31.25,0.0
1734412317.6127255,474.609375,-264.6484375,112.79296875,-363.28125,0.0
1734412317.6166215,0.48828125,-172.36328125,155.76171875,-990.72265625,0.0
1734412317.6205175,997.0703125,591.30859375,504.39453125,921.875,0.0
1734412317.6244135,938.96484375,948.73046875,775.390625,-872.0703125,0.0
1734412317.6283095,-908.203125,297.36328125,455.078125,159.1796875,0.0
1734412317.6322057,493.1640625,-240.72265625,156.25,-790.52734375,0.0
1734412317.6361938,-15.13671875,-67.87109375,299.31640625,699.70703125,0.0
1734412317.6400898,986.81640625,508.7890625,541.50390625,-983.88671875,0.0
1734412317.6439857,922.8515625,738.76953125,646.484375,-946.2890625,0.0
1734412317.6478817,-869.62890625,335.44921875,486.328125,241.2109375,0.0
1734412317.651778,344.7265625,-148.92578125,170.8984375,-1000.0,0.0
1734412317.655674,-552.24609375,-213.8671875,118.1640625,39.0625,0.0
1734412317.65957,818.359375,180.6640625,289.55078125,-949.21875,0.0
1734412317.663466,994.140625,609.375,504.39453125,-944.82421875,0.0
1734412317.667362,-932.6171875,556.640625,537.59765625,231.93359375,0.0
1734412317.671258,354.00390625,-39.55078125,204.58984375,-1000.0,0.0
1734412317.6751542,-1000.0,-247.0703125,32.2265625,-203.61328125,0.0
1734412317.6790502,233.3984375,292.96875,335.44921875,-992.1875,0.0
1734412317.683028,-923.828125,824.21875,650.390625,-929.6875,0.0
1734412317.686924,-962.890625,502.9296875,519.53125,196.77734375,0.0
1734412317.69082,248.53515625,-114.74609375,-11.23046875,-1000.0,0.0
1734412317.694716,-1000.0,-193.359375,-91.30859375,-445.3125,0.0
1734412317.698612,-150.390625,231.4453125,335.44921875,900.390625,0.0
1734412317.7025082,-982.421875,670.41015625,537.59765625,-886.23046875,0.0
1734412317.7064042,-923.33984375,403.80859375,375.9765625,152.34375,0.0
1734412317.7103002,228.02734375,-41.015625,12.20703125,-1000.0,0.0
1734412317.7141962,-1000.0,-160.15625,-197.75390625,-855.95703125,0.0
1734412317.7180924,-202.63671875,68.359375,85.9375,468.75,0.0
1734412317.7219884,-995.1171875,628.41796875,498.53515625,-793.9453125,0.0
1734412317.7258844,-927.734375,645.99609375,544.43359375,116.2109375,0.0
1734412317.7299387,235.3515625,45.41015625,166.9921875,-1000.0,0.0
1734412317.7338347,-1000.0,-388.18359375,-416.50390625,-1000.0,0.0
1734412317.7377307,-478.515625,-55.17578125,-170.41015625,-3.90625,0.0
1734412317.741627,885.25390625,650.87890625,452.1484375,-780.76171875,0.0
1734412317.745523,-879.39453125,651.3671875,553.7109375,115.72265625,0.0
1734412317.749419,192.87109375,-108.88671875,-81.0546875,-1000.0,0.0
1734412317.753315,-1000.0,-512.20703125,-668.45703125,-1000.0,0.0
1734412317.7572112,-842.7734375,-31.73828125,-262.6953125,-237.3046875,0.0
1734412317.7611072,503.90625,590.8203125,300.29296875,-823.73046875,0.0
1734412317.7650032,-796.38671875,625.48828125,505.859375,143.06640625,0.0
1734412317.7688994,139.16015625,132.32421875,122.55859375,-1000.0,0.0
1734412317.7727954,-1000.0,-259.27734375,-383.7890625,-1000.0,0.0
1734412317.7768369,-1000.0,-157.71484375,-330.56640625,-291.015625,0.0
1734412317.7807329,11.23046875,398.92578125,166.9921875,-838.8671875,0.0
1734412317.784629,-774.4140625,672.8515625,521.97265625,155.2734375,0.0
1734412317.788525,138.671875,205.56640625,173.828125,-1000.0,0.0
1734412317.7924213,-1000.0,-348.6328125,-457.51953125,-1000.0,0.0
1734412317.7963173,-1000.0,-331.54296875,-520.5078125,-537.59765625,0.0
1734412317.8002133,-248.53515625,289.0625,-15.13671875,-955.56640625,0.0
1734412317.8041096,-825.68359375,724.12109375,516.6015625,211.9140625,0.0
1734412317.8080056,176.7578125,226.07421875,149.4140625,-1000.0,0.0
1734412317.8119018,-1000.0,-387.6953125,-560.05859375,-1000.0,0.0
1734412317.8157978,-1000.0,-220.703125,-501.953125,-947.265625,0.0
1734412317.8196938,-318.84765625,349.12109375,-10.25390625,583.49609375,0.0
1734412317.8237238,-849.609375,593.75,388.671875,301.26953125,0.0
1734412317.82762,201.171875,211.42578125,116.2109375,-1000.0,0.0
1734412317.831516,-1000.0,-166.50390625,-440.4296875,-925.29296875,0.0
1734412317.8354123,-1000.0,-241.2109375,-538.57421875,-1000.0,0.0
1734412317.8393083,-753.41796875,104.00390625,-328.61328125,45.41015625,0.0
1734412317.8432045,851.5625,555.17578125,163.57421875,287.59765625,0.0
1734412317.8471005,318.359375,358.88671875,144.53125,-1000.0,0.0
1734412317.8509967,-1000.0,-183.10546875,-518.06640625,-934.08203125,0.0
1734412317.8548927,-952.1484375,-461.9140625,-789.55078125,-1000.0,0.0
1734412317.858789,-1000.0,-19.53125,-535.15625,-230.46875,0.0
1734412317.862685,268.06640625,719.23828125,224.12109375,181.15234375,0.0
1734412317.8665812,410.64453125,440.4296875,163.57421875,-1000.0,0.0
1734412317.8706028,-1000.0,-121.09375,-545.8984375,-1000.0,0.0
1734412317.874499,-934.08203125,-273.4375,-698.73046875,-963.8671875,0.0
1734412317.878395,-1000.0,47.36328125,-486.328125,-1000.0,0.0
1734412317.8822913,-83.984375,555.6640625,1.46484375,-1000.0,0.0
1734412317.8861876,395.5078125,418.9453125,87.40234375,-1000.0,0.0
1734412317.8900836,-1000.0,-163.0859375,-581.0546875,-1000.0,0.0
1734412317.8939798,-949.70703125,-349.609375,-804.19921875,-1000.0,0.0
1734412317.8978758,-1000.0,-60.546875,-585.9375,-1000.0,0.0
1734412317.901772,-286.62109375,375.48828125,-326.171875,-1000.0,0.0
1734412317.9056683,453.125,583.0078125,83.984375,-1000.0,0.0
1734412317.9095643,-943.359375,133.30078125,-284.1796875,-1000.0,0.0
1734412317.9134605,-995.60546875,-398.92578125,-872.55859375,-1000.0,0.0
1734412317.9174683,-1000.0,-151.3671875,-692.87109375,-1000.0,0.0
1734412317.9213645,-316.89453125,527.34375,-90.33203125,-1000.0,0.0
1734412317.9252608,934.08203125,646.97265625,284.1796875,-1000.0,0.0
1734412317.9291568,-448.2421875,68.359375,-232.91015625,-985.3515625,0.0
1734412317.933053,-1000.0,-344.23828125,-766.11328125,-1000.0,0.0
1734412317.9369493,-1000.0,-192.87109375,-710.9375,-1000.0,0.0
1734412317.9408453,-363.28125,375.48828125,-300.78125,-626.46484375,0.0
1734412317.9447415,-861.81640625,545.41015625,33.203125,-819.3359375,0.0
1734412317.9486375,79.1015625,158.69140625,-312.01171875,-1000.0,0.0
1734412317.9525337,-1000.0,-153.80859375,-630.37109375,-990.72265625,0.0
1734412317.95643,-1000.0,-154.296875,-581.54296875,-1000.0,0.0
1734412317.960326,-307.12890625,262.6953125,-352.5390625,461.9140625,0.0
1734412317.9643202,-837.890625,700.1953125,260.7421875,226.07421875,0.0
1734412317.9682162,273.4375,411.1328125,157.2265625,-1000.0,0.0
1734412317.9721124,-1000.0,-225.09765625,-569.3359375,-1000.0,0.0
1734412317.9760087,-1000.0,-203.61328125,-579.58984375,-714.35546875,0.0
1734412317.979905,-230.46875,342.7734375,-75.1953125,801.7578125,0.0
1734412317.983801,-939.453125,704.58984375,423.33984375,793.9453125,0.0
1734412317.9876971,881.34765625,406.73828125,228.02734375,-639.6484375,0.0
1734412317.9915934,-424.8046875,-188.4765625,-404.296875,-1000.0,0.0
1734412317.9954894,-1000.0,-168.45703125,-455.56640625,-341.30859375,0.0
1734412317.9993856,-153.3203125,385.25390625,67.87109375,893.06640625,0.0
1734412318.0032818,969.23828125,753.41796875,503.90625,-879.8828125,0.0
1734412318.007178,-908.203125,515.625,442.87109375,192.87109375,0.0
1734412318.0111685,218.26171875,64.94140625,12.6953125,-1000.0,0.0
1734412318.0150647,-1000.0,-101.5625,-220.21484375,-229.00390625,0.0
1734412318.018961,-169.43359375,183.59375,112.79296875,993.1640625,0.0
1734412318.022857,-955.56640625,753.41796875,520.99609375,-973.6328125,0.0
1734412318.0267532,937.98828125,680.6640625,552.734375,770.5078125,0.0
1734412318.0306494,-960.44921875,68.359375,207.51953125,-796.875,0.0
1734412318.0345457,-371.09375,-303.7109375,-297.8515625,-299.31640625,0.0
1734412318.0384417,-267.578125,26.85546875,-85.9375,-894.53125,0.0
1734412318.042338,-885.25390625,847.65625,615.72265625,881.8359375,0.0
1734412318.0462341,931.15234375,820.3125,682.6171875,-865.72265625,0.0
1734412318.0501304,-994.62890625,212.40234375,373.046875,88.8671875,0.0
1734412318.0540264,626.46484375,-62.01171875,180.6640625,-187.5,0.0
1734412318.058005,663.0859375,218.75,373.046875,-926.26953125,0.0
1734412318.0619013,-962.40234375,738.28125,655.76171875,969.23828125,0.0
1734412318.0657976,949.70703125,757.8125,709.9609375,943.84765625,0.0
1734412318.0696936,969.7265625,297.8515625,483.3984375,967.7734375,0.0
1734412318.0735898,968.75,-86.42578125,274.4140625,960.9375,0.0
1734412318.077486,969.23828125,46.875,349.609375,971.19140625,0.0
1734412318.0813823,969.23828125,526.85546875,519.04296875,969.7265625,0.0
1734412318.0852785,969.23828125,802.24609375,745.60546875,969.7265625,0.0
1734412318.0891747,969.23828125,378.41796875,569.3359375,969.7265625,0.0
1734412318.0930707,969.23828125,-168.45703125,258.7890625,969.7265625,0.0
1734412318.096967,969.23828125,27.83203125,405.76171875,975.09765625,0.0
1734412318.1008632,969.23828125,673.33984375,697.75390625,944.82421875,0.0
1734412318.1048324,969.23828125,846.6796875,840.33203125,-981.4453125,0.0
1734412318.1087286,969.23828125,254.8828125,540.52734375,861.81640625,0.0
1734412318.112625,969.23828125,-192.3828125,294.43359375,602.05078125,0.0
1734412318.1165211,969.23828125,-8.7890625,443.84765625,943.84765625,0.0
1734412318.1204174,969.23828125,506.8359375,669.43359375,922.8515625,0.0
1734412318.1243136,969.23828125,596.6796875,718.26171875,-899.90234375,0.0
1734412318.1282098,969.23828125,164.55078125,517.578125,494.140625,0.0
1734412318.132106,969.23828125,-84.9609375,356.4453125,-977.5390625,0.0
1734412318.136002,968.75,-49.31640625,383.30078125,130.37109375,0.0
1734412318.1398983,969.23828125,356.93359375,580.56640625,-878.90625,0.0
1734412318.1437945,969.23828125,681.15234375,734.86328125,924.8046875,0.0
1734412318.1476908,969.23828125,288.0859375,561.5234375,60.05859375,0.0
1734412318.1517284,969.23828125,-227.5390625,269.53125,-1000.0,0.0
1734412318.1556246,969.23828125,-211.9140625,261.23046875,-363.28125,0.0
1734412318.1595209,969.23828125,322.265625,531.73828125,-997.0703125,0.0
1734412318.163417,969.23828125,704.58984375,742.1875,-997.55859375,0.0
1734412318.1673133,969.23828125,303.7109375,590.33203125,-297.36328125,0.0
1734412318.1712096,969.23828125,-306.640625,129.8828125,-1000.0,0.0
1734412318.1751058,969.23828125,-290.52734375,108.3984375,-1000.0,0.0
1734412318.179002,969.23828125,261.23046875,479.4921875,-7.32421875,0.0
1734412318.1828983,965.8203125,597.65625,637.6953125,390.13671875,0.0
1734412318.1867945,972.65625,292.96875,535.64453125,-1000.0,0.0
1734412318.1906908,970.703125,-139.16015625,247.0703125,-1000.0,0.0
1734412318.194587,898.4375,-246.09375,125.0,-958.984375,0.0
1734412318.1986167,943.84765625,20.01953125,303.22265625,-1000.0,0.0
1734412318.202513,957.03125,432.12890625,499.51171875,-1000.0,0.0
1734412318.2064092,964.84375,441.89453125,596.19140625,-1000.0,0.0
1734412318.2103055,-944.3359375,-145.01953125,202.63671875,-1000.0,0.0
1734412318.2142017,-99.12109375,-429.19921875,-272.4609375,-1000.0,0.0
1734412318.218098,162.109375,-34.1796875,34.66796875,-1000.0,0.0
1734412318.2219942,-928.7109375,510.25390625,498.53515625,-1000.0,0.0
1734412318.2258904,-969.7265625,443.84765625,606.93359375,-1000.0,0.0
1734412318.2297866,629.39453125,-225.09765625,14.16015625,-1000.0,0.0
1734412318.2336829,-999.0234375,-475.09765625,-503.90625,-1000.0,0.0
1734412318.237579,-235.83984375,67.3828125,106.93359375,-1000.0,0.0
1734412318.2414756,-967.7734375,516.11328125,514.16015625,-1000.0,0.0
1734412318.2454963,-956.54296875,446.2890625,548.828125,-1000.0,0.0
1734412318.2493925,609.375,-17.08984375,236.81640625,-1000.0,0.0
1734412318.2532887,-994.140625,-345.703125,-259.27734375,-1000.0,0.0
1734412318.257185,-297.8515625,-154.296875,-119.140625,-1000.0,0.0
1734412318.2610812,-988.76953125,340.33203125,328.61328125,-1000.0,0.0
1734412318.2649777,-950.68359375,435.05859375,494.140625,-1000.0,0.0
1734412318.268874,571.77734375,-12.6953125,154.296875,-1000.0,0.0
1734412318.2727702,-1000.0,-394.53125,-396.97265625,-1000.0,0.0
1734412318.2766664,-625.48828125,-291.015625,-392.578125,-1000.0,0.0
1734412318.2805626,833.984375,386.71875,198.73046875,-1000.0,0.0
1734412318.2844589,-894.04296875,615.72265625,581.0546875,-1000.0,0.0
1734412318.288355,577.63671875,15.625,171.875,-1000.0,0.0
1734412318.2923653,-873.53515625,-364.2578125,-396.97265625,-1000.0,0.0
1734412318.2962615,-958.0078125,-181.15234375,-273.4375,-1000.0,0.0
1734412318.300158,444.82421875,314.453125,242.67578125,-1000.0,0.0
1734412318.3040543,-801.26953125,467.7734375,473.14453125,-1000.0,0.0
1734412318.3079505,397.94921875,47.36328125,210.44921875,-1000.0,0.0
1734412318.3118467,-880.859375,-374.0234375,-375.0,-1000.0,0.0
1734412318.315743,-1000.0,-326.66015625,-531.73828125,-1000.0,0.0
1734412318.3196394,-220.703125,68.359375,-238.28125,-1000.0,0.0
1734412318.3235357,-837.890625,469.23828125,278.3203125,-1000.0,0.0
1734412318.327432,440.4296875,248.046875,299.31640625,-1000.0,0.0
1734412318.3313282,-914.55078125,-295.41015625,-346.19140625,-1000.0,0.0
1734412318.3352244,-1000.0,-448.73046875,-662.59765625,-1000.0,0.0
1734412318.3392184,-251.953125,58.59375,-209.9609375,-1000.0,0.0
1734412318.3431146,-850.09765625,622.0703125,448.73046875,-1000.0,0.0
1734412318.3470109,472.16796875,271.484375,269.53125,-1000.0,0.0
1734412318.3509073,-909.66796875,-294.43359375,-345.21484375,-1000.0,0.0
1734412318.3548036,-1000.0,-356.93359375,-562.98828125,-1000.0,0.0
1734412318.3586998,-345.21484375,45.41015625,-293.9453125,-1000.0,0.0
1734412318.362596,959.9609375,478.02734375,239.2578125,-1000.0,0.0
1734412318.3664925,895.5078125,264.16015625,257.8125,-1000.0,0.0
1734412318.3703887,-447.75390625,-141.11328125,-211.9140625,-994.62890625,0.0
1734412318.374285,-1000.0,-244.140625,-455.56640625,-1000.0,0.0
1734412318.3781812,-480.95703125,-11.71875,-301.7578125,-982.421875,0.0
1734412318.3820777,853.515625,481.4453125,223.6328125,-916.50390625,0.0
1734412318.386068,-897.4609375,444.82421875,469.23828125,-998.53515625,0.0
1734412318.3899643,-36.62109375,-88.37890625,-26.3671875,-954.1015625,0.0
1734412318.3938608,-1000.0,-402.34375,-571.2890625,-1000.0,0.0
1734412318.397757,-543.9453125,-62.01171875,-266.11328125,-876.953125,0.0
1734412318.4016533,797.8515625,489.2578125,320.3125,270.5078125,0.0
1734412318.4055498,-856.4453125,438.96484375,497.0703125,-425.78125,0.0
1734412318.409446,200.68359375,-168.45703125,-63.96484375,-1000.0,0.0
1734412318.4133422,-1000.0,-475.09765625,-638.18359375,-1000.0,0.0
1734412318.4172387,-574.70703125,45.41015625,-91.30859375,-840.33203125,0.0
1734412318.421135,794.921875,537.109375,429.6875,757.32421875,0.0
1734412318.4250312,-862.79296875,550.78125,568.359375,195.3125,0.0
1734412318.4289277,415.52734375,118.1640625,346.19140625,-1000.0,0.0
1734412318.432904,-1000.0,-258.30078125,-90.8203125,-1000.0,0.0
1734412318.4368002,-615.234375,-134.27734375,-60.05859375,-892.578125,0.0
1734412318.4406967,807.6171875,378.41796875,365.72265625,672.36328125,0.0
1734412318.444593,-878.41796875,577.63671875,619.62890625,346.6796875,0.0
1734412318.4484892,523.4375,69.82421875,353.02734375,-1000.0,0.0
1734412318.4523857,-910.15625,-388.671875,-245.60546875,-980.95703125,0.0
1734412318.456282,-971.6796875,-333.984375,-422.8515625,-1000.0,0.0
1734412318.4601781,401.85546875,310.546875,153.80859375,414.0625,0.0
1734412318.4640746,-808.59375,683.59375,643.06640625,498.046875,0.0
1734412318.4679708,479.00390625,124.51171875,327.63671875,-1000.0,0.0
1734412318.471867,-821.2890625,-388.671875,-288.57421875,-955.078125,0.0
1734412318.4757636,-1000.0,-268.06640625,-391.11328125,-1000.0,0.0
1734412318.4797294,-218.26171875,221.6796875,81.54296875,20.01953125,0.0
1734412318.483626,-836.42578125,472.65625,444.82421875,460.44921875,0.0
1734412318.4875221,401.3671875,135.25390625,286.1328125,-1000.0,0.0
1734412318.4914184,-929.19921875,-286.1328125,-226.5625,-958.49609375,0.0
1734412318.4953148,-1000.0,-358.3984375,-489.2578125,-1000.0,0.0
1734412318.499211,-354.4921875,-85.44921875,-439.453125,-123.53515625,0.0
1734412318.5031075,-877.44140625,323.2421875,1.46484375,551.7578125,0.0
1734412318.5070038,353.515625,271.97265625,278.80859375,-940.4296875,0.0
1734412318.5109,-980.46875,-298.33984375,-403.80859375,-985.83984375,0.0
1734412318.5147965,-1000.0,-457.03125,-725.09765625,-1000.0,0.0
1734412318.5186927,-845.21484375,28.3203125,-341.30859375,-265.13671875,0.0
1734412318.5225892,720.21484375,522.4609375,224.609375,748.046875,0.0
1734412318.5266318,453.125,330.56640625,306.640625,-690.91796875,0.0
1734412318.5305283,-1000.0,-227.05078125,-337.40234375,-1000.0,0.0
1734412318.5344245,-933.10546875,-425.78125,-687.98828125,-1000.0,0.0
1734412318.538321,-1000.0,-87.890625,-459.9609375,-410.15625,0.0
1734412318.5422173,-42.96875,372.0703125,15.13671875,-922.36328125,0.0
1734412318.5461137,458.0078125,290.52734375,229.4921875,-30.2734375,0.0
1734412318.55001,-1000.0,-164.0625,-290.52734375,-1000.0,0.0
1734412318.5539064,-957.51953125,-410.15625,-680.17578125,-1000.0,0.0
1734412318.5578027,-1000.0,-232.91015625,-572.265625,-386.23046875,0.0
1734412318.5616992,-250.48828125,249.51171875,-242.1875,-869.140625,0.0
1734412318.5655954,462.40234375,431.640625,241.69921875,219.23828125,0.0
1734412318.5694919,-962.40234375,-26.3671875,-66.40625,-1000.0,0.0
1734412318.573522,-991.2109375,-519.53125,-740.234375,-1000.0,0.0
1734412318.5774186,-1000.0,-354.98046875,-668.9453125,-400.390625,0.0
1734412318.5813148,-644.53125,276.3671875,-55.17578125,-911.1328125,0.0
1734412318.5852113,469.7265625,464.35546875,451.66015625,568.84765625,0.0
1734412318.5891078,-632.32421875,-62.5,10.7421875,-829.1015625,0.0
1734412318.593004,-1000.0,-566.40625,-679.6875,-1000.0,0.0
1734412318.5969005,-949.21875,-435.05859375,-632.32421875,-327.1484375,0.0
1734412318.6007967,-1000.0,128.90625,-192.3828125,952.63671875,0.0
1734412318.6046932,-21.97265625,334.9609375,208.984375,-968.75,0.0
1734412318.6085894,-422.36328125,-28.3203125,35.64453125,-149.4140625,0.0
1734412318.612486,-1000.0,-327.63671875,-389.16015625,-1000.0,0.0
1734412318.6163824,-905.76171875,-408.69140625,-597.16796875,-290.52734375,0.0
1734412318.620401,-1000.0,48.828125,-288.57421875,933.10546875,0.0
1734412318.6242974,-93.26171875,482.91015625,320.3125,-894.04296875,0.0
1734412318.6281936,-93.26171875,190.91796875,302.734375,208.984375,0.0
1734412318.63209,-1000.0,-333.49609375,-329.1015625,-1000.0,0.0
1734412318.6359863,-907.71484375,-513.18359375,-658.203125,-302.24609375,0.0
1734412318.6398828,-1000.0,-94.23828125,-395.99609375,952.1484375,0.0
1734412318.6437793,-81.54296875,507.32421875,304.19921875,-907.71484375,0.0
1734412318.6476755,194.82421875,320.3125,373.046875,453.125,0.0
1734412318.651572,-1000.0,-400.390625,-358.3984375,-1000.0,0.0
1734412318.6554685,-937.5,-456.0546875,-602.5390625,-321.77734375,0.0
1734412318.6593647,-1000.0,28.80859375,-257.8125,-973.6328125,0.0
1734412318.6632612,-79.58984375,453.125,291.9921875,947.75390625,0.0
1734412318.6672697,285.64453125,365.72265625,458.984375,-977.5390625,0.0
1734412318.6711662,-1000.0,-117.67578125,-40.52734375,-379.8828125,0.0
1734412318.6750627,-940.4296875,-424.8046875,-504.8828125,-359.375,0.0
1734412318.678959,-1000.0,-161.1328125,-386.71875,-910.64453125,0.0
1734412318.6828554,-82.51953125,434.08203125,190.91796875,896.484375,0.0
1734412318.6867518,550.29296875,454.1015625,483.88671875,-860.83984375,0.0
1734412318.690648,-964.35546875,-105.95703125,-26.3671875,27.34375,0.0
1734412318.6945446,-985.3515625,-592.28515625,-675.29296875,-310.05859375,0.0
1734412318.698441,-1000.0,-320.3125,-582.03125,-937.98828125,0.0
1734412318.7023375,-172.8515625,517.578125,224.12109375,907.2265625,0.0
1734412318.7062337,864.74609375,548.33984375,544.43359375,-857.91015625,0.0
1734412318.7101302,-630.859375,-61.03515625,38.57421875,139.6484375,0.0
1734412318.7141263,-1000.0,-423.828125,-501.953125,-375.48828125,0.0
1734412318.7180228,-1000.0,-237.79296875,-416.015625,-996.09375,0.0
1734412318.7219193,-256.8359375,318.359375,127.44140625,929.19921875,0.0
1734412318.7258158,-875.9765625,525.390625,536.62109375,-883.7890625,0.0
1734412318.7297122,-183.10546875,43.9453125,192.87109375,281.25,0.0
1734412318.7336085,-1000.0,-527.83203125,-503.41796875,-522.4609375,0.0
1734412318.737505,-1000.0,-425.78125,-571.2890625,826.66015625,0.0
1734412318.7414014,-603.515625,98.6328125,-262.20703125,983.88671875,0.0
1734412318.745298,959.9609375,504.39453125,330.56640625,-922.36328125,0.0
1734412318.7491944,-49.8046875,212.40234375,317.87109375,313.96484375,0.0
1734412318.7530906,-1000.0,-451.66015625,-460.9375,-1000.0,0.0
1734412318.756987,-972.16796875,-475.09765625,-660.64453125,270.99609375,0.0
1734412318.7609773,-981.93359375,160.64453125,-88.37890625,-937.01171875,0.0
1734412318.7648735,506.8359375,565.91796875,523.4375,-960.44921875,0.0
1734412318.76877,90.33203125,105.46875,143.5546875,291.50390625,0.0
1734412318.7726665,-1000.0,-435.546875,-559.08203125,-1000.0,0.0
1734412318.776563,-905.2734375,-457.03125,-624.51171875,-192.87109375,0.0
1734412318.7804594,-1000.0,-18.5546875,-379.8828125,-988.28125,0.0
1734412318.7843559,3.90625,376.46484375,117.1875,-924.8046875,0.0
1734412318.788252,122.55859375,132.32421875,122.55859375,244.62890625,0.0
1734412318.7921486,-1000.0,-212.890625,-341.30859375,-1000.0,0.0
1734412318.796045,-932.12890625,-397.94921875,-618.1640625,-339.84375,0.0
1734412318.7999415,-1000.0,-63.4765625,-403.80859375,954.58984375,0.0
1734412318.803838,48.828125,469.23828125,227.5390625,-906.73828125,0.0
1734412318.8078117,288.0859375,331.0546875,369.140625,194.82421875,0.0
1734412318.8117082,-1000.0,-318.359375,-310.546875,-1000.0,0.0
1734412318.8156047,-937.5,-609.86328125,-725.5859375,-787.109375,0.0
1734412318.8195012,-1000.0,-174.31640625,-465.33203125,598.14453125,0.0
1734412318.8233976,-123.53515625,385.25390625,151.85546875,-868.65234375,0.0
1734412318.8272939,224.609375,212.890625,227.5390625,27.34375,0.0
1734412318.8311903,-1000.0,-452.1484375,-478.02734375,-1000.0,0.0
1734412318.8350868,-937.01171875,-586.9140625,-754.39453125,-1000.0,0.0
1734412318.8389833,-1000.0,-140.13671875,-521.484375,92.28515625,0.0
1734412318.8428798,-393.06640625,346.6796875,22.4609375,-771.97265625,0.0
1734412318.8467762,115.234375,306.15234375,299.8046875,137.6953125,0.0
1734412318.8506727,-1000.0,-205.56640625,-255.37109375,-1000.0,0.0
1734412318.854638,-964.84375,-558.10546875,-723.14453125,-1000.0,0.0
1734412318.8585346,-1000.0,-359.375,-683.59375,-187.01171875,0.0
1734412318.862431,-578.125,207.03125,-264.16015625,-811.03515625,0.0
1734412318.8663275,31.25,388.18359375,273.92578125,175.29296875,0.0
1734412318.870224,-976.5625,-103.02734375,-170.41015625,-1000.0,0.0
1734412318.8741202,-988.28125,-684.5703125,-875.0,-1000.0,0.0
1734412318.8780167,-1000.0,-522.4609375,-843.75,-253.41796875,0.0
1734412318.8819132,-668.9453125,293.45703125,-261.23046875,-826.66015625,0.0
1734412318.8858097,119.140625,513.18359375,307.12890625,194.3359375,0.0
1734412318.8897061,-873.046875,-93.26171875,-163.57421875,-1000.0,0.0
1734412318.8936026,-1000.0,-502.44140625,-766.6015625,-1000.0,0.0
1734412318.897499,-1000.0,-313.96484375,-657.2265625,-407.71484375,0.0
1734412318.9015338,-845.703125,219.23828125,-185.546875,-890.625,0.0
1734412318.9054303,390.13671875,490.234375,339.35546875,191.89453125,0.0
1734412318.9093268,-434.5703125,82.03125,-42.96875,-1000.0,0.0
1734412318.9132235,-1000.0,-398.4375,-697.265625,-1000.0,0.0
1734412318.91712,-960.9375,-349.12109375,-654.296875,-718.26171875,0.0
1734412318.9210165,-956.54296875,143.06640625,-383.30078125,918.45703125,0.0
1734412318.924913,493.65234375,468.26171875,129.39453125,274.90234375,0.0
1734412318.9288094,-27.83203125,125.9765625,5.859375,-1000.0,0.0
1734412318.9327059,-1000.0,-400.87890625,-668.45703125,-959.9609375,0.0
1734412318.9366024,-958.984375,-472.65625,-795.8984375,-1000.0,0.0
1734412318.9404988,-1000.0,144.53125,-350.5859375,342.28515625,0.0
1734412318.9443953,476.5625,631.8359375,364.74609375,336.9140625,0.0
1734412318.9484165,215.8203125,188.4765625,107.91015625,-1000.0,0.0
1734412318.952313,-1000.0,-382.8125,-635.25390625,-931.15234375,0.0
1734412318.9562094,-944.3359375,-401.3671875,-673.33984375,-1000.0,0.0
1734412318.960106,-1000.0,58.10546875,-340.33203125,22.4609375,0.0
1734412318.9640026,259.27734375,466.796875,180.17578125,381.8359375,0.0
1734412318.967899,307.12890625,197.75390625,128.90625,-1000.0,0.0
1734412318.9717956,-1000.0,-293.9453125,-493.1640625,-946.2890625,0.0
1734412318.975692,-949.21875,-392.578125,-680.17578125,-1000.0,0.0
1734412318.9795885,-1000.0,-109.375,-547.8515625,-90.8203125,0.0
1734412318.983485,220.703125,417.96875,-40.0390625,673.828125,0.0
1734412318.9873815,525.87890625,515.13671875,405.2734375,-849.12109375,0.0
1734412318.991278,-1000.0,-105.46875,-191.89453125,-1000.0,0.0
1734412318.9952943,-1000.0,-409.1796875,-651.85546875,-1000.0,0.0
1734412318.9991908,-1000.0,-29.78515625,-338.8671875,-217.7734375,0.0
1734412319.0030873,313.96484375,543.9453125,265.13671875,-916.50390625,0.0
1734412319.006984,655.2734375,433.59375,405.2734375,-239.2578125,0.0
1734412319.0108805,-967.28515625,-208.984375,-232.421875,-1000.0,0.0
1734412319.014777,-970.703125,-532.2265625,-719.7265625,-1000.0,0.0
1734412319.0186734,-1000.0,-161.62109375,-489.2578125,-260.25390625,0.0
1734412319.02257,-103.02734375,425.78125,101.07421875,-821.2890625,0.0
1734412319.0264664,513.18359375,325.1953125,269.04296875,127.9296875,0.0
1734412319.030363,-981.93359375,-73.2421875,-198.2421875,-1000.0,0.0
1734412319.0342596,-976.5625,-312.98828125,-575.1953125,-1000.0,0.0
1734412319.038156,-1000.0,-236.328125,-563.96484375,-262.20703125,0.0
1734412319.0421638,-174.31640625,286.62109375,-134.27734375,-826.171875,0.0
1734412319.0460603,680.6640625,521.484375,412.59765625,248.046875,0.0
1734412319.049957,-820.80078125,1.953125,-20.99609375,-1000.0,0.0
1734412319.0538535,-1000.0,-505.37109375,-694.3359375,-1000.0,0.0
1734412319.05775,-937.01171875,-358.88671875,-660.64453125,-275.87890625,0.0
1734412319.0616465,-1000.0,186.5234375,-262.6953125,-853.515625,0.0
1734412319.0655432,-938.4765625,418.9453125,238.28125,498.53515625,0.0
1734412319.0694396,-979.00390625,-148.4375,-237.79296875,-866.69921875,0.0
1734412319.0733361,-1000.0,-604.00390625,-904.78515625,-1000.0,0.0
1734412319.0772326,-995.60546875,-305.17578125,-703.125,-299.8046875,0.0
1734412319.0811293,-1000.0,178.7109375,-390.625,-954.1015625,0.0
1734412319.0850258,-1000.0,410.15625,101.07421875,818.359375,0.0
1734412319.0890229,-1000.0,20.99609375,-162.59765625,-515.625,0.0
1734412319.0929193,-1000.0,-455.078125,-816.89453125,-1000.0,0.0
1734412319.096816,-1000.0,-493.1640625,-855.46875,-357.91015625,0.0
1734412319.1007125,-1000.0,-2.44140625,-638.671875,932.6171875,0.0
1734412319.104609,-1000.0,471.6796875,-34.66796875,-954.1015625,0.0
1734412319.1085057,-1000.0,129.39453125,-154.296875,-117.67578125,0.0
1734412319.1124022,-1000.0,-402.83203125,-843.75,-1000.0,0.0
1734412319.1162987,-1000.0,-520.01953125,-890.13671875,-525.390625,0.0
1734412319.1201954,-1000.0,51.26953125,-604.4921875,816.89453125,0.0
1734412319.1240919,-1000.0,624.0234375,64.453125,-874.0234375,0.0
1734412319.1279883,-1000.0,228.02734375,-32.71484375,4.39453125,0.0
1734412319.1318848,-1000.0,-386.23046875,-808.59375,-1000.0,0.0
1734412319.1358736,-1000.0,-486.81640625,-863.76953125,-956.54296875,0.0
1734412319.1397703,-1000.0,-71.2890625,-636.71875,305.17578125,0.0
1734412319.1436667,-1000.0,373.046875,-298.33984375,-807.12890625,0.0
1734412319.1475632,-1000.0,218.75,-266.6015625,-80.078125,0.0
1734412319.15146,-1000.0,-291.50390625,-701.66015625,-1000.0,0.0
1734412319.1553564,-1000.0,-558.59375,-912.59765625,-1000.0,0.0
1734412319.159253,-1000.0,-265.13671875,-836.42578125,-134.765625,0.0
1734412319.1631496,-1000.0,300.78125,-476.5625,-880.859375,0.0
1734412319.167046,-1000.0,478.02734375,41.50390625,-168.9453125,0.0
1734412319.1709428,-1000.0,-28.80859375,-384.27734375,-1000.0,0.0
1734412319.1748393,-919.43359375,-410.64453125,-852.05078125,-1000.0,0.0
1734412319.1787357,-1000.0,-64.94140625,-585.9375,-263.671875,0.0
1734412319.1827111,-419.43359375,567.87109375,45.41015625,-927.24609375,0.0
1734412319.1866078,255.859375,566.89453125,371.58203125,-236.328125,0.0
1734412319.1905043,-960.9375,1.46484375,-181.15234375,-1000.0,0.0
1734412319.194401,-1000.0,-317.3828125,-660.15625,-1000.0,0.0
1734412319.1982975,-1000.0,-71.77734375,-468.26171875,-580.56640625,0.0
1734412319.202194,-257.32421875,438.96484375,42.48046875,984.86328125,0.0
1734412319.2060907,-838.8671875,459.9609375,265.13671875,22.94921875,0.0
1734412319.2099872,-11.23046875,118.65234375,-13.18359375,-1000.0,0.0
1734412319.2138839,-1000.0,-158.69140625,-383.30078125,-1000.0,0.0
1734412319.2177804,-1000.0,-161.1328125,-485.3515625,-882.32421875,0.0
1734412319.2216768,-93.75,354.98046875,-4.39453125,659.1796875,0.0
1734412319.2255735,-788.0859375,658.203125,530.76171875,157.71484375,0.0
1734412319.2295437,248.046875,223.14453125,282.2265625,-1000.0,0.0
1734412319.2334402,-1000.0,-307.12890625,-395.99609375,-939.453125,0.0
1734412319.2373369,-1000.0,-218.75,-470.21484375,-1000.0,0.0
1734412319.2412333,140.13671875,387.20703125,193.84765625,264.16015625,0.0
1734412319.24513,-861.81640625,656.73828125,630.859375,271.97265625,0.0
1734412319.2490265,797.36328125,108.3984375,167.96875,-1000.0,0.0
1734412319.252923,-625.48828125,-405.76171875,-507.8125,-940.4296875,0.0
1734412319.2568197,-1000.0,-166.015625,-352.5390625,-1000.0,0.0
1734412319.2607162,502.9296875,367.67578125,244.62890625,105.95703125,0.0
1734412319.264613,998.53515625,623.046875,587.890625,326.66015625,0.0
1734412319.2685094,-895.01953125,326.171875,443.359375,-1000.0,0.0
1734412319.272406,105.46875,-107.91015625,118.1640625,-939.453125,0.0
1734412319.2764394,-811.5234375,-228.515625,-21.484375,-1000.0,0.0
1734412319.280336,712.40234375,181.640625,303.22265625,-0.9765625,0.0
1734412319.2842326,-940.4296875,660.64453125,636.71875,485.3515625,0.0
1734412319.288129,923.828125,407.2265625,583.49609375,-1000.0,0.0
1734412319.2920258,972.16796875,-166.015625,173.828125,-968.75,0.0
1734412319.2959223,601.5625,-337.40234375,-214.35546875,-1000.0,0.0
1734412319.299819,843.26171875,154.296875,202.1484375,-104.98046875,0.0
1734412319.3037155,-973.6328125,651.85546875,656.73828125,774.4140625,0.0
1734412319.3076122,941.40625,352.5390625,583.49609375,-744.62890625,0.0
1734412319.3115087,979.4921875,-229.98046875,56.15234375,-1000.0,0.0
1734412319.3154054,946.77734375,-278.3203125,-121.09375,-1000.0,0.0
1734412319.319302,958.984375,145.5078125,336.9140625,-210.9375,0.0
1734412319.3233232,973.14453125,524.4140625,595.21484375,986.81640625,0.0
1734412319.3272197,967.28515625,402.34375,630.859375,-431.640625,0.0
1734412319.3311164,969.7265625,-16.11328125,347.16796875,-1000.0,0.0
1734412319.3350132,969.7265625,-277.83203125,126.46484375,-1000.0,0.0
1734412319.3389096,969.23828125,-38.0859375,257.32421875,-336.9140625,0.0
1734412319.3428063,968.75,461.42578125,520.01953125,-982.91015625,0.0
1734412319.346703,969.23828125,476.5625,666.015625,-287.109375,0.0
1734412319.3505995,969.23828125,-1.953125,423.828125,-1000.0,0.0
1734412319.3544962,969.23828125,-377.9296875,8.7890625,-1000.0,0.0
1734412319.3583927,970.21484375,-105.46875,140.625,-751.46484375,0.0
1734412319.3622894,968.26171875,513.671875,622.55859375,671.38671875,0.0
1734412319.3661861,908.203125,442.3828125,686.03515625,-200.68359375,0.0
1734412319.3702016,-831.54296875,-136.71875,369.62890625,-1000.0,0.0
1734412319.3740983,24.4140625,-499.0234375,-169.921875,-915.52734375,0.0
1734412319.3779948,-283.69140625,-298.33984375,-120.1171875,-1000.0,0.0
1734412319.3818915,-992.67578125,181.15234375,338.37890625,-30.76171875,0.0
1734412319.3857882,-983.3984375,278.80859375,495.60546875,-170.41015625,0.0
1734412319.3896847,863.76953125,-149.4140625,134.27734375,-1000.0,0.0
1734412319.3935814,-688.96484375,-459.47265625,-432.12890625,-915.0390625,0.0
1734412319.397478,-622.55859375,-305.17578125,-424.31640625,-1000.0,0.0
1734412319.4013746,916.9921875,78.61328125,-140.625,-87.890625,0.0
1734412319.4052713,-979.00390625,426.26953125,366.2109375,11.71875,0.0
1734412319.409168,888.18359375,129.39453125,295.41015625,-1000.0,0.0
1734412319.4130647,-571.77734375,-425.29296875,-444.82421875,-916.50390625,0.0
1734412319.4170716,-823.2421875,-318.359375,-549.8046875,-1000.0,0.0
1734412319.4209683,760.7421875,279.296875,82.51953125,-129.8828125,0.0
1734412319.424865,-994.140625,522.94921875,536.1328125,201.171875,0.0
1734412319.4287617,-968.26171875,61.03515625,187.5,-1000.0,0.0
1734412319.4326582,-234.86328125,-382.32421875,-476.5625,-943.359375,0.0
1734412319.436555,-959.47265625,-299.31640625,-531.73828125,-1000.0,0.0
1734412319.4404516,624.51171875,187.98828125,6.34765625,-69.3359375,0.0
1734412319.4443483,-989.2578125,400.87890625,311.5234375,342.28515625,0.0
1734412319.4482448,-930.17578125,103.515625,179.6875,-1000.0,0.0
1734412319.4521415,49.8046875,-159.1796875,-188.4765625,-947.75390625,0.0
1734412319.4560382,-1000.0,-251.46484375,-485.83984375,-1000.0,0.0
1734412319.459935,408.69140625,99.609375,-148.92578125,-118.65234375,0.0
1734412319.4639323,-955.078125,531.25,375.48828125,490.234375,0.0
1734412319.467829,-942.87109375,309.5703125,437.98828125,-988.28125,0.0
1734412319.4717257,191.40625,-280.2734375,-170.8984375,-975.09765625,0.0
1734412319.4756224,-1000.0,-390.13671875,-558.10546875,-1000.0,0.0
1734412319.4795191,130.859375,87.890625,-42.48046875,-324.21875,0.0
1734412319.4834158,-939.94140625,441.89453125,412.59765625,604.98046875,0.0
1734412319.4873123,-947.75390625,236.328125,351.07421875,-778.3203125,0.0
1734412319.491209,228.515625,-335.9375,-247.0703125,-1000.0,0.0
1734412319.4951057,-1000.0,-393.06640625,-551.7578125,-1000.0,0.0
1734412319.4990025,-94.23828125,115.234375,-21.484375,-592.28515625,0.0
1734412319.5028992,-979.00390625,456.54296875,412.59765625,597.16796875,0.0
1734412319.5067956,-924.31640625,313.4765625,490.234375,-543.45703125,0.0
1734412319.5107872,343.26171875,-139.6484375,48.33984375,-1000.0,0.0
1734412319.514684,-1000.0,-394.04296875,-479.00390625,-992.1875,0.0
1734412319.5185807,-126.953125,-150.87890625,-251.953125,-910.15625,0.0
1734412319.5224774,-954.58984375,386.23046875,328.61328125,395.5078125,0.0
1734412319.5263739,983.88671875,392.578125,526.85546875,-254.8828125,0.0
1734412319.5302706,795.8984375,-159.66796875,39.0625,-1000.0,0.0
1734412319.5341673,-739.74609375,-560.546875,-578.125,-916.015625,0.0
1734412319.538064,-242.1875,-257.8125,-328.61328125,-1000.0,0.0
1734412319.5419607,-897.4609375,473.14453125,404.296875,51.26953125,0.0
1734412319.5458574,898.92578125,466.796875,616.2109375,-62.5,0.0
1734412319.5497541,-894.04296875,-141.6015625,216.796875,-1000.0,0.0
1734412319.5536506,-208.49609375,-486.328125,-346.19140625,-921.875,0.0
1734412319.5576258,-306.15234375,-187.98828125,-63.96484375,-1000.0,0.0
1734412319.5615225,-912.59765625,256.34765625,428.7109375,-313.4765625,0.0
1734412319.5654192,909.1796875,333.0078125,567.87109375,-205.56640625,0.0
1734412319.569316,-874.51171875,-68.84765625,354.98046875,-1000.0,0.0
1734412319.5732126,-105.95703125,-532.2265625,-256.34765625,-946.77734375,0.0
1734412319.577109,-322.75390625,-443.359375,-325.1953125,-1000.0,0.0
1734412319.5810058,-937.98828125,-52.24609375,109.86328125,-476.07421875,0.0
1734412319.5849025,922.36328125,218.75,453.125,-301.26953125,0.0
1734412319.5887992,-883.30078125,-51.7578125,406.25,-1000.0,0.0
1734412319.592696,-189.94140625,-643.06640625,-268.06640625,-999.51171875,0.0
1734412319.5965927,-504.39453125,-572.75390625,-376.953125,-983.88671875,0.0
1734412319.6004894,-996.58203125,33.203125,274.4140625,-1000.0,0.0
1734412319.6044595,0.0,284.1796875,575.1953125,-1000.0,0.0
1734412319.6083562,0.0,-205.078125,278.80859375,-1000.0,0.0
1734412319.612253,0.0,-736.328125,-374.0234375,-1000.0,0.0
1734412319.6161497,0.0,-611.81640625,-453.61328125,-1000.0,0.0
1734412319.6200461,0.0,-81.0546875,137.20703125,-1000.0,0.0
1734412319.6239429,0.0,53.7109375,385.7421875,-1000.0,0.0
1734412319.6278396,0.0,-328.125,145.01953125,-1000.0,0.0
1734412319.6317363,0.0,-601.5625,-300.78125,-1000.0,0.0
1734412319.635633,0.0,-627.9296875,-558.10546875,-1000.0,0.0
1734412319.6395297,0.0,-240.234375,-203.61328125,-1000.0,0.0
1734412319.6434264,0.0,184.5703125,345.703125,-1000.0,0.0
1734412319.6473231,0.0,-28.3203125,445.80078125,-1000.0,0.0
