timestamps,TP9,AF7,AF8,TP10,Right AUX
1734413393.5006654,-37.59765625,-73.73046875,-353.02734375,197.265625,0.0
1734413393.5043466,-50.29296875,10.25390625,-552.24609375,178.22265625,0.0
1734413393.5080278,-40.52734375,-94.7265625,-317.87109375,240.72265625,0.0
1734413393.511709,-14.6484375,-421.38671875,-191.89453125,279.78515625,0.0
1734413393.5153902,-7.32421875,-193.84765625,94.7265625,254.8828125,0.0
1734413393.5190713,-12.20703125,264.16015625,-98.6328125,204.58984375,0.0
1734413393.5227525,-25.87890625,-127.9296875,-641.11328125,188.4765625,0.0
1734413393.5264337,-29.296875,-160.64453125,-345.21484375,227.05078125,0.0
1734413393.530115,-0.9765625,436.03515625,217.28515625,254.8828125,0.0
1734413393.5356977,22.4609375,605.46875,307.12890625,251.953125,0.0
1734413393.5393844,19.04296875,115.72265625,-165.52734375,209.47265625,0.0
1734413393.543071,0.9765625,-228.515625,-569.82421875,175.29296875,0.0
1734413393.5467575,-19.04296875,145.5078125,-284.66796875,218.26171875,0.0
1734413393.5504441,5.37109375,437.5,134.765625,250.9765625,0.0
1734413393.5541308,54.19921875,-79.58984375,51.7578125,233.3984375,0.0
1734413393.5578175,43.45703125,-499.0234375,-395.01953125,201.171875,0.0
1734413393.5615041,14.16015625,-271.484375,-574.21875,158.69140625,0.0
1734413393.5651908,12.6953125,52.734375,-346.19140625,177.734375,0.0
1734413393.5688775,36.1328125,-39.0625,-175.29296875,245.60546875,0.0
1734413393.5725641,52.24609375,112.3046875,159.1796875,235.3515625,0.0
1734413393.5762508,41.015625,413.0859375,23.92578125,181.640625,0.0
1734413393.5827901,31.73828125,31.73828125,-552.24609375,145.99609375,0.0
1734413393.5864847,13.18359375,-224.12109375,-467.28515625,150.87890625,0.0
1734413393.5901792,23.4375,176.7578125,-3.41796875,196.2890625,0.0
1734413393.5938737,45.8984375,541.50390625,359.375,192.3828125,0.0
1734413393.5975685,38.57421875,243.1640625,-36.1328125,151.3671875,0.0
1734413393.601263,21.97265625,-413.0859375,-625.48828125,111.81640625,0.0
1734413393.6049576,7.8125,-508.7890625,-503.90625,116.2109375,0.0
1734413393.608652,16.6015625,9.765625,-65.91796875,171.875,0.0
1734413393.6123466,46.875,232.91015625,221.19140625,178.7109375,0.0
1734413393.6160412,53.22265625,-246.58203125,-149.90234375,138.18359375,0.0
1734413393.619736,26.85546875,-110.83984375,-462.890625,106.4453125,0.0
1734413393.6234305,31.25,181.15234375,-379.8828125,138.18359375,0.0
1734413393.6297665,47.8515625,79.58984375,-169.43359375,171.38671875,0.0
1734413393.6334682,54.6875,236.328125,158.203125,162.109375,0.0
1734413393.6371698,56.15234375,480.46875,222.65625,128.41796875,0.0
1734413393.6408715,59.5703125,304.19921875,-263.18359375,116.2109375,0.0
1734413393.6445732,43.9453125,-180.6640625,-520.01953125,120.60546875,0.0
1734413393.648275,24.90234375,-363.76953125,-355.95703125,125.9765625,0.0
1734413393.6519766,58.10546875,-87.40234375,-76.171875,146.97265625,0.0
1734413393.6556783,81.0546875,279.78515625,129.8828125,130.859375,0.0
1734413393.65938,63.4765625,-319.82421875,-424.31640625,100.5859375,0.0
1734413393.6630816,36.62109375,-769.53125,-689.453125,81.54296875,0.0
1734413393.6667833,32.2265625,89.84375,-219.23828125,81.54296875,0.0
1734413393.670485,55.17578125,326.171875,42.48046875,101.07421875,0.0
1734413393.676585,53.7109375,38.0859375,20.5078125,77.63671875,0.0
1734413393.6802928,39.0625,38.0859375,-285.15625,30.76171875,0.0
1734413393.6840007,14.6484375,123.046875,-438.4765625,6.34765625,0.0
1734413393.6877086,2.9296875,4.8828125,-354.98046875,26.3671875,0.0
1734413393.6914165,25.390625,-94.7265625,-282.2265625,50.78125,0.0
1734413393.6951244,30.76171875,-79.1015625,-159.66796875,29.78515625,0.0
1734413393.6988323,27.34375,-187.98828125,-337.890625,6.8359375,0.0
1734413393.7025404,20.5078125,-449.21875,-632.32421875,17.08984375,0.0
1734413393.7062483,14.16015625,-769.04296875,-587.40234375,42.48046875,0.0
1734413393.7099562,30.76171875,-252.9296875,-247.0703125,43.9453125,0.0
1734413393.713664,60.05859375,403.80859375,115.234375,41.50390625,0.0
1734413393.717372,62.98828125,56.15234375,-152.83203125,41.015625,0.0
1734413393.7233875,53.22265625,-255.859375,-559.5703125,41.50390625,0.0
1734413393.7271013,56.15234375,1.953125,-370.60546875,62.01171875,0.0
1734413393.730815,69.82421875,208.0078125,-226.5625,88.37890625,0.0
1734413393.7345288,108.88671875,-8.30078125,-168.45703125,103.515625,0.0
1734413393.7382424,136.23046875,-68.84765625,-277.83203125,113.28125,0.0
1734413393.7419562,128.41796875,-176.26953125,-525.87890625,107.91015625,0.0
1734413393.74567,129.39453125,-324.21875,-459.9609375,119.140625,0.0
1734413393.7493837,149.90234375,-615.72265625,-519.04296875,163.57421875,0.0
1734413393.7530975,176.7578125,-624.51171875,-328.125,173.828125,0.0
1734413393.7568111,192.87109375,194.82421875,32.71484375,151.3671875,0.0
1734413393.760525,188.4765625,118.1640625,-384.765625,148.92578125,0.0
1734413393.7642386,159.1796875,-234.86328125,-499.0234375,152.34375,0.0
1734413393.7700398,157.2265625,-62.01171875,-351.07421875,171.875,0.0
1734413393.7737586,190.91796875,283.69140625,-60.546875,180.17578125,0.0
1734413393.7774775,205.078125,201.66015625,-20.01953125,150.87890625,0.0
1734413393.7811964,199.70703125,-136.23046875,-438.4765625,134.765625,0.0
1734413393.7849152,184.5703125,-149.90234375,-477.05078125,136.71875,0.0
1734413393.788634,180.17578125,-248.53515625,-421.875,162.109375,0.0
1734413393.792353,201.171875,-317.87109375,-378.41796875,164.0625,0.0
1734413393.7960718,217.7734375,-662.109375,-425.78125,150.390625,0.0
1734413393.7997906,200.68359375,-554.6875,-477.05078125,140.625,0.0
1734413393.8035095,186.5234375,12.20703125,-393.5546875,152.83203125,0.0
1734413393.8072283,187.5,-158.203125,-453.125,179.19921875,0.0
1734413393.8109472,192.3828125,-157.2265625,-366.69921875,168.45703125,0.0
1734413393.8166966,205.078125,232.421875,32.71484375,149.4140625,0.0
1734413393.8204203,193.84765625,230.46875,-213.8671875,134.765625,0.0
1734413393.824144,169.921875,-210.9375,-524.90234375,135.25390625,0.0
1734413393.8278677,167.48046875,-262.6953125,-394.04296875,160.64453125,0.0
1734413393.8315914,177.24609375,132.32421875,-271.484375,178.7109375,0.0
1734413393.835315,183.59375,73.73046875,-189.453125,160.15625,0.0
1734413393.8390388,188.96484375,-574.21875,-520.99609375,134.27734375,0.0
1734413393.8427625,172.8515625,-771.484375,-649.90234375,120.60546875,0.0
1734413393.846486,142.08984375,-70.80078125,-338.8671875,138.671875,0.0
1734413393.85021,155.76171875,197.265625,-242.67578125,159.66796875,0.0
1734413393.8539336,181.640625,-27.83203125,-179.6875,138.18359375,0.0
1734413393.8576572,179.6875,-90.33203125,-291.50390625,121.58203125,0.0
1734413393.8631823,0.0,112.79296875,-372.55859375,122.0703125,0.0
1734413393.8669102,0.0,1.46484375,-363.28125,127.44140625,0.0
1734413393.8706381,0.0,-126.46484375,-309.08203125,139.6484375,0.0
1734413393.8743658,0.0,183.10546875,96.6796875,137.6953125,0.0
1734413393.8780937,0.0,263.671875,93.75,124.0234375,0.0
1734413393.8818216,0.0,-178.22265625,-380.859375,116.2109375,0.0
1734413393.8855495,0.0,-748.53515625,-505.37109375,117.1875,0.0
1734413393.8892775,0.0,-466.30859375,-246.09375,126.46484375,0.0
1734413393.8930051,0.0,357.91015625,210.44921875,111.328125,0.0
1734413393.896733,0.0,270.01953125,166.9921875,85.9375,0.0
1734413393.900461,0.0,-38.57421875,-264.16015625,71.2890625,0.0
1734413393.9041889,0.0,181.640625,-149.90234375,68.359375,0.0
1734413393.9105089,94.7265625,275.87890625,113.28125,86.42578125,0.0
1734413393.9142425,119.140625,25.87890625,140.625,83.49609375,0.0
1734413393.9179764,130.859375,61.5234375,169.921875,75.1953125,0.0
1734413393.92171,114.74609375,257.8125,69.82421875,57.6171875,0.0
1734413393.9254436,98.14453125,210.9375,-34.66796875,53.7109375,0.0
1734413393.9291773,110.83984375,-325.1953125,-249.0234375,97.16796875,0.0
1734413393.9329112,120.1171875,-358.3984375,-44.921875,98.6328125,0.0
1734413393.9366448,97.65625,363.76953125,339.35546875,43.9453125,0.0
1734413393.9403784,71.77734375,360.3515625,121.09375,6.8359375,0.0
1734413393.9441123,44.921875,-246.58203125,-200.68359375,25.87890625,0.0
1734413393.947846,20.01953125,-229.4921875,-45.41015625,19.53125,0.0
1734413393.9515796,33.203125,396.484375,310.546875,-3.41796875,0.0
1734413393.9577515,42.96875,376.46484375,258.7890625,-6.8359375,0.0
1734413393.9614904,21.97265625,56.15234375,-40.0390625,-41.50390625,0.0
1734413393.9652295,-9.27734375,60.05859375,-133.7890625,-50.29296875,0.0
1734413393.9689686,-40.52734375,215.33203125,83.0078125,-40.0390625,0.0
1734413393.9727077,-23.92578125,106.4453125,188.96484375,-45.41015625,0.0
1734413393.9764466,11.71875,-149.4140625,208.49609375,-61.03515625,0.0
1734413393.9801857,7.8125,-223.6328125,-64.453125,-87.890625,0.0
1734413393.9839249,-12.6953125,-249.51171875,-329.1015625,-80.56640625,0.0
1734413393.9876637,-22.4609375,-350.09765625,-303.22265625,-52.24609375,0.0
1734413393.9914029,-16.6015625,-599.609375,-269.04296875,-32.2265625,0.0
1734413393.995142,-0.48828125,-52.734375,154.296875,-41.015625,0.0
1734413393.998881,0.9765625,443.84765625,250.48828125,-57.6171875,0.0
1734413394.0048256,-18.5546875,-5.37109375,-156.25,-57.12890625,0.0
1734413394.0085692,-18.06640625,-153.80859375,-217.28515625,-34.66796875,0.0
1734413394.0123131,-7.32421875,221.6796875,130.37109375,-26.85546875,0.0
1734413394.0160568,15.13671875,379.39453125,301.7578125,-32.71484375,0.0
1734413394.0198007,27.34375,42.48046875,-42.48046875,-36.62109375,0.0
1734413394.0235443,-1.953125,-396.97265625,-436.5234375,-34.66796875,0.0
1734413394.0272882,-24.90234375,-332.03125,-347.16796875,-32.71484375,0.0
1734413394.0310318,-5.37109375,37.109375,-107.91015625,-37.109375,0.0
1734413394.0347757,26.3671875,-422.8515625,-201.171875,-19.53125,0.0
1734413394.0385194,23.92578125,-695.3125,-434.5703125,-13.18359375,0.0
1734413394.0422633,13.18359375,-16.6015625,-328.125,-38.57421875,0.0
1734413394.046007,14.6484375,-34.66796875,-343.26171875,-21.484375,0.0
1734413394.051787,12.20703125,-207.51953125,-333.984375,12.20703125,0.0
1734413394.055535,41.9921875,122.0703125,75.1953125,5.37109375,0.0
1734413394.059283,59.08203125,256.8359375,67.87109375,-7.32421875,0.0
1734413394.063031,43.9453125,-48.33984375,-408.203125,-20.5078125,0.0
1734413394.066779,34.66796875,-362.3046875,-498.53515625,-1.953125,0.0
1734413394.070527,43.9453125,-415.52734375,-425.78125,23.92578125,0.0
1734413394.074275,48.828125,-238.76953125,-234.375,20.99609375,0.0
1734413394.078023,51.7578125,-308.10546875,-301.26953125,12.20703125,0.0
1734413394.081771,53.7109375,-763.671875,-603.02734375,-15.13671875,0.0
1734413394.085519,29.296875,-416.9921875,-407.2265625,-10.7421875,0.0
1734413394.089267,27.34375,-17.578125,-325.68359375,20.01953125,0.0
1734413394.093015,45.41015625,-230.95703125,-321.77734375,17.08984375,0.0
1734413394.0986516,43.45703125,-79.1015625,-86.9140625,-8.7890625,0.0
1734413394.1024034,39.55078125,109.375,-224.12109375,-33.69140625,0.0
1734413394.1061554,33.203125,9.765625,-418.45703125,-23.4375,0.0
1734413394.1099072,24.4140625,-240.234375,-362.3046875,-2.44140625,0.0
1734413394.113659,39.0625,-121.58203125,-91.796875,0.9765625,0.0
1734413394.117411,42.48046875,-48.33984375,-6.8359375,-9.27734375,0.0
1734413394.1211627,40.0390625,-280.76171875,-365.72265625,-38.57421875,0.0
1734413394.1249144,46.875,-705.078125,-624.0234375,-19.04296875,0.0
1734413394.1286664,28.3203125,-759.27734375,-562.01171875,13.671875,0.0
1734413394.1324182,9.765625,64.94140625,-32.71484375,-12.6953125,0.0
1734413394.1361701,34.1796875,260.7421875,152.83203125,-19.53125,0.0
1734413394.139922,40.0390625,-141.11328125,-301.7578125,-12.20703125,0.0
1734413394.145335,24.90234375,-184.08203125,-462.40234375,-0.9765625,0.0
1734413394.14909,23.92578125,-61.5234375,-342.28515625,20.99609375,0.0
1734413394.1528451,39.55078125,-208.49609375,-314.94140625,16.6015625,0.0
1734413394.1566005,62.98828125,-154.296875,-70.80078125,17.578125,0.0
1734413394.1603556,57.12890625,-36.1328125,-238.28125,3.41796875,0.0
1734413394.1641107,37.59765625,-360.83984375,-566.89453125,4.8828125,0.0
1734413394.1678658,37.109375,-604.00390625,-487.79296875,22.94921875,0.0
1734413394.1716208,40.52734375,-769.53125,-462.890625,20.01953125,0.0
1734413394.1753762,40.52734375,-298.33984375,-47.36328125,22.94921875,0.0
1734413394.1791313,40.0390625,190.4296875,-83.0078125,-4.8828125,0.0
1734413394.1828864,31.73828125,-230.46875,-562.98828125,-35.64453125,0.0
1734413394.1866415,17.578125,-418.45703125,-498.046875,-3.90625,0.0
1734413394.1919677,22.94921875,10.7421875,-237.79296875,6.34765625,0.0
1734413394.195726,46.38671875,242.1875,62.01171875,-20.99609375,0.0
1734413394.199484,33.203125,-114.74609375,-128.41796875,-32.71484375,0.0
1734413394.2032423,2.9296875,-330.56640625,-507.8125,-46.38671875,0.0
1734413394.2070005,-9.27734375,-225.5859375,-462.40234375,-39.55078125,0.0
1734413394.2107587,-11.71875,-221.6796875,-368.1640625,-30.76171875,0.0
1734413394.2145169,1.46484375,-589.35546875,-391.11328125,-34.1796875,0.0
1734413394.218275,8.30078125,-742.67578125,-502.44140625,-39.0625,0.0
1734413394.2220333,-17.08984375,-131.34765625,-440.91796875,-59.08203125,0.0
1734413394.2257915,-31.25,-142.08984375,-450.1953125,-69.82421875,0.0
1734413394.2295496,-35.15625,-258.30078125,-420.41015625,-43.9453125,0.0
1734413394.2333078,-33.69140625,53.7109375,-50.78125,-43.45703125,0.0
1734413394.2385564,-43.45703125,190.91796875,-38.0859375,-82.03125,0.0
1734413394.2423174,-63.4765625,-105.95703125,-493.65234375,-101.5625,0.0
1734413394.2460783,-89.35546875,-442.87109375,-520.5078125,-114.2578125,0.0
1734413394.2498393,-94.7265625,-146.484375,-301.26953125,-98.6328125,0.0
1734413394.2536004,-80.078125,203.125,15.13671875,-92.28515625,0.0
1734413394.2573614,-87.890625,-119.62890625,-148.4375,-120.60546875,0.0
1734413394.2611225,-104.98046875,-768.5546875,-647.94921875,-147.94921875,0.0
1734413394.2648833,-133.7890625,-675.29296875,-523.92578125,-171.875,0.0
1734413394.2686443,-133.7890625,-179.6875,-335.9375,-151.85546875,0.0
1734413394.2724054,-103.02734375,-162.59765625,-193.359375,-114.2578125,0.0
1734413394.2761664,-89.35546875,-106.93359375,-43.45703125,-119.62890625,0.0
1734413394.2799275,-95.21484375,-60.05859375,-309.5703125,-141.6015625,0.0
1734413394.2851,-95.21484375,0.0,-410.15625,-139.6484375,0.0
1734413394.2888637,-78.61328125,-156.73828125,-312.98828125,-100.09765625,0.0
1734413394.2926273,-58.59375,-20.5078125,-5.37109375,-66.89453125,0.0
1734413394.296391,-41.015625,367.1875,288.57421875,-68.84765625,0.0
1734413394.3001544,-43.45703125,270.01953125,-106.4453125,-91.30859375,0.0
1734413394.3039181,-46.38671875,-504.39453125,-589.35546875,-68.84765625,0.0
1734413394.3076818,-41.9921875,-613.28125,-224.12109375,-39.0625,0.0
1734413394.3114455,-21.484375,310.05859375,332.03125,-25.87890625,0.0
1734413394.315209,14.6484375,546.875,360.3515625,-0.48828125,0.0
1734413394.3189726,17.578125,-158.69140625,-85.9375,0.0,0.0
1734413394.3227363,-0.9765625,-324.70703125,-341.796875,-29.296875,0.0
1734413394.3265,5.37109375,99.12109375,41.50390625,-7.32421875,0.0
1734413394.3323064,22.4609375,189.94140625,369.140625,55.17578125,0.0
1734413394.3360739,51.26953125,389.16015625,482.91015625,58.10546875,0.0
1734413394.3398411,65.4296875,388.18359375,264.16015625,20.5078125,0.0
1734413394.3436084,42.48046875,188.96484375,-171.875,17.578125,0.0
1734413394.3473759,27.83203125,53.22265625,-6.8359375,46.875,0.0
1734413394.3511431,48.828125,68.359375,398.92578125,77.1484375,0.0
1734413394.3549104,79.1015625,240.72265625,498.53515625,88.37890625,0.0
1734413394.3586776,70.80078125,242.1875,327.1484375,55.6640625,0.0
1734413394.362445,42.48046875,-139.6484375,-295.41015625,10.25390625,0.0
1734413394.3662124,28.80859375,-536.1328125,-325.1953125,20.99609375,0.0
1734413394.3699796,49.31640625,187.5,402.83203125,74.70703125,0.0
1734413394.373747,89.35546875,876.953125,647.94921875,101.5625,0.0
1734413394.3794048,78.125,401.3671875,229.00390625,53.22265625,0.0
1734413394.3831754,49.8046875,-145.99609375,-364.2578125,2.9296875,0.0
1734413394.386946,52.24609375,-24.4140625,-22.4609375,44.43359375,0.0
1734413394.3907168,74.21875,258.7890625,490.72265625,98.6328125,0.0
1734413394.3944874,83.49609375,405.76171875,476.5625,90.8203125,0.0
1734413394.3982582,69.3359375,-39.0625,-41.50390625,31.73828125,0.0
1734413394.4020288,20.99609375,-299.8046875,-469.23828125,-21.484375,0.0
1734413394.4057994,12.6953125,-155.2734375,-188.96484375,26.3671875,0.0
1734413394.4095702,55.6640625,-380.859375,261.71875,87.890625,0.0
1734413394.4133408,71.2890625,276.3671875,510.25390625,53.7109375,0.0
1734413394.4171114,59.5703125,546.875,157.71484375,9.765625,0.0
1734413394.4208822,28.80859375,-189.94140625,-496.09375,-10.7421875,0.0
1734413394.4263928,8.7890625,-240.234375,-237.3046875,8.30078125,0.0
1734413394.4301665,44.43359375,542.48046875,482.421875,47.36328125,0.0
1734413394.4339402,67.87109375,837.890625,570.80078125,60.05859375,0.0
1734413394.4377139,52.24609375,275.87890625,55.17578125,16.11328125,0.0
1734413394.4414876,16.11328125,-309.5703125,-539.55078125,-27.34375,0.0
1734413394.4452612,0.48828125,-400.390625,-217.7734375,-5.37109375,0.0
1734413394.449035,26.3671875,63.4765625,382.32421875,29.78515625,0.0
1734413394.4528086,56.15234375,22.4609375,438.4765625,41.50390625,0.0
1734413394.4565823,41.015625,-328.125,186.5234375,7.8125,0.0
1734413394.460356,5.859375,-49.31640625,-357.421875,-27.34375,0.0
1734413394.4641297,-1.953125,-80.56640625,-379.39453125,-22.4609375,0.0
1734413394.4679034,31.25,28.3203125,210.9375,29.78515625,0.0
1734413394.4732792,56.640625,586.42578125,533.203125,44.921875,0.0
1734413394.4770555,42.48046875,616.2109375,319.82421875,-2.44140625,0.0
1734413394.4808319,20.01953125,-24.4140625,-402.83203125,-53.22265625,0.0
1734413394.4846084,0.9765625,-423.828125,-434.5703125,-40.52734375,0.0
1734413394.4883847,13.18359375,166.9921875,274.90234375,30.76171875,0.0
1734413394.4921613,45.41015625,478.515625,520.99609375,38.0859375,0.0
1734413394.4959376,40.52734375,58.59375,237.79296875,-6.34765625,0.0
1734413394.4997141,13.671875,-745.1171875,-558.10546875,-41.015625,0.0
1734413394.5034904,-15.625,-563.4765625,-561.03515625,-46.875,0.0
1734413394.507267,-3.90625,-19.04296875,97.65625,-2.44140625,0.0
1734413394.5110433,34.1796875,259.27734375,447.265625,29.296875,0.0
1734413394.5148196,29.296875,434.5703125,405.2734375,-4.39453125,0.0
1734413394.5200934,-0.9765625,205.078125,-142.578125,-60.546875,0.0
1734413394.5238724,-27.83203125,-52.734375,-446.2890625,-70.3125,0.0
1734413394.5276513,-24.4140625,9.765625,30.76171875,-21.97265625,0.0
1734413394.5314302,3.41796875,493.65234375,517.08984375,7.8125,0.0
1734413394.5352092,13.671875,620.60546875,427.734375,-12.20703125,0.0
1734413394.538988,-0.48828125,-67.3828125,-233.88671875,-48.33984375,0.0
1734413394.542767,-30.76171875,-701.66015625,-630.859375,-53.22265625,0.0
1734413394.546546,-35.64453125,-381.8359375,-71.77734375,-16.11328125,0.0
1734413394.550325,-3.41796875,590.33203125,561.03515625,11.23046875,0.0
1734413394.5541039,10.25390625,808.10546875,500.9765625,-2.44140625,0.0
1734413394.5578825,-4.39453125,-165.52734375,-260.7421875,-40.0390625,0.0
1734413394.5616615,-36.1328125,-648.4375,-665.0390625,-68.84765625,0.0
1734413394.567503,-45.8984375,-148.92578125,-129.39453125,-31.25,0.0
1734413394.5712855,-13.18359375,431.640625,441.40625,10.25390625,0.0
1734413394.5750678,6.8359375,493.1640625,437.98828125,-4.39453125,0.0
1734413394.57885,-12.6953125,269.04296875,4.8828125,-56.15234375,0.0
1734413394.5826323,-41.015625,-12.6953125,-526.3671875,-92.7734375,0.0
1734413394.5864146,-48.828125,-347.16796875,-325.68359375,-56.640625,0.0
1734413394.5901968,-23.92578125,-471.19140625,226.5625,20.5078125,0.0
1734413394.5939791,-10.25390625,297.36328125,505.37109375,0.48828125,0.0
1734413394.5977614,-22.94921875,520.5078125,106.4453125,-76.171875,0.0
1734413394.6015437,-45.41015625,-253.90625,-636.23046875,-91.796875,0.0
1734413394.605326,-53.22265625,-307.6171875,-338.8671875,-72.75390625,0.0
1734413394.6091082,-24.90234375,469.23828125,441.89453125,-20.99609375,0.0
1734413394.6141396,11.23046875,847.65625,554.6875,0.48828125,0.0
1734413394.617924,12.20703125,330.56640625,93.75,-48.828125,0.0
1734413394.6217082,-28.80859375,-236.328125,-551.26953125,-102.05078125,0.0
1734413394.6254926,-52.24609375,-260.7421875,-430.6640625,-70.80078125,0.0
1734413394.6292768,-24.4140625,162.59765625,310.05859375,-8.7890625,0.0
1734413394.6330612,0.48828125,373.53515625,514.6484375,1.953125,0.0
1734413394.6368454,-1.953125,-32.71484375,111.81640625,-24.90234375,0.0
1734413394.6406295,-35.15625,-380.37109375,-511.71875,-89.84375,0.0
1734413394.644414,-53.22265625,-166.9921875,-427.24609375,-83.49609375,0.0
1734413394.6481981,-28.3203125,-180.6640625,184.08203125,0.48828125,0.0
1734413394.6519825,6.34765625,13.18359375,505.859375,21.484375,0.0
1734413394.6557667,5.859375,550.29296875,348.14453125,-6.8359375,0.0
1734413394.6613834,-13.671875,36.62109375,-429.19921875,-43.9453125,0.0
1734413394.6651707,-32.2265625,-529.78515625,-528.80859375,-51.7578125,0.0
1734413394.6689577,-21.97265625,132.8125,264.16015625,0.48828125,0.0
1734413394.672745,4.39453125,873.53515625,623.53515625,31.73828125,0.0
1734413394.6765323,15.625,603.515625,371.09375,15.625,0.0
1734413394.6803193,0.48828125,-408.203125,-420.41015625,-18.5546875,0.0
1734413394.6841066,-33.69140625,-720.703125,-585.9375,-26.3671875,0.0
1734413394.6878936,-30.76171875,42.48046875,170.41015625,15.625,0.0
1734413394.691681,14.16015625,570.80078125,555.6640625,52.24609375,0.0
1734413394.695468,31.25,39.55078125,334.9609375,22.94921875,0.0
1734413394.6992552,1.46484375,-24.4140625,-104.4921875,-38.0859375,0.0
1734413394.7030423,-34.1796875,-105.46875,-400.87890625,-62.5,0.0
1734413394.708543,-28.80859375,27.34375,145.99609375,-28.80859375,0.0
1734413394.7123327,19.04296875,637.20703125,600.5859375,27.34375,0.0
1734413394.7161226,26.3671875,873.046875,561.5234375,27.34375,0.0
1734413394.7199125,5.37109375,447.75390625,55.6640625,-29.296875,0.0
1734413394.7237022,-12.6953125,-271.97265625,-501.953125,-54.19921875,0.0
1734413394.727492,-17.578125,-300.29296875,-53.7109375,-3.41796875,0.0
1734413394.7312818,20.01953125,317.87109375,560.05859375,27.83203125,0.0
1734413394.7350717,46.38671875,557.6171875,529.296875,22.94921875,0.0
1734413394.7388616,17.08984375,-86.9140625,-80.078125,-20.5078125,0.0
1734413394.7426512,-22.4609375,-747.55859375,-590.33203125,-58.59375,0.0
1734413394.7464411,-30.76171875,-207.51953125,-98.6328125,-15.13671875,0.0
1734413394.750231,0.48828125,645.01953125,532.71484375,28.3203125,0.0
1734413394.7556508,41.50390625,673.33984375,536.62109375,25.87890625,0.0
1734413394.759443,25.87890625,427.734375,219.23828125,-7.8125,0.0
1734413394.7632353,-30.76171875,122.0703125,-385.25390625,-43.9453125,0.0
1734413394.7670276,-49.8046875,45.8984375,-167.48046875,-20.01953125,0.0
1734413394.77082,-16.11328125,398.92578125,501.953125,29.296875,0.0
1734413394.7746122,17.08984375,510.7421875,548.828125,39.0625,0.0
1734413394.7784045,5.859375,384.765625,267.08984375,2.9296875,0.0
1734413394.7821968,-35.15625,-30.76171875,-402.83203125,-63.4765625,0.0
1734413394.785989,-44.921875,-778.80859375,-518.5546875,-55.6640625,0.0
1734413394.7897813,-41.9921875,150.87890625,383.7890625,-5.859375,0.0
1734413394.7935736,-15.13671875,-963.8671875,687.01171875,0.9765625,0.0
1734413394.797366,-7.32421875,563.4765625,302.24609375,-30.2734375,0.0
1734413394.8026507,-36.1328125,-53.22265625,-377.9296875,-58.59375,0.0
1734413394.8064451,-53.22265625,-222.16796875,-381.34765625,-46.38671875,0.0
1734413394.8102396,-32.71484375,399.90234375,380.859375,-11.71875,0.0
1734413394.814034,4.39453125,754.39453125,597.16796875,22.4609375,0.0
1734413394.8178287,8.7890625,463.37890625,344.7265625,3.41796875,0.0
1734413394.821623,-14.16015625,-201.171875,-375.9765625,-38.0859375,0.0
1734413394.8254175,-37.109375,-429.6875,-494.140625,-27.34375,0.0
1734413394.8292122,-31.73828125,-298.828125,178.22265625,17.08984375,0.0
1734413394.8330066,12.20703125,31.73828125,545.8984375,45.41015625,0.0
1734413394.836801,27.83203125,685.05859375,498.046875,1.46484375,0.0
1734413394.8405957,-15.625,277.83203125,-178.7109375,-62.98828125,0.0
1734413394.8443902,-42.96875,-378.41796875,-524.4140625,-69.3359375,0.0
1734413394.8495486,-36.62109375,161.62109375,227.05078125,-14.6484375,0.0
1734413394.853345,-9.765625,901.3671875,646.484375,26.3671875,0.0
1734413394.8571415,2.9296875,754.39453125,459.9609375,12.6953125,0.0
1734413394.860938,-23.92578125,-16.11328125,-221.19140625,-45.41015625,0.0
1734413394.8647344,-45.41015625,-429.19921875,-605.95703125,-70.3125,0.0
1734413394.868531,-41.50390625,-165.52734375,-33.203125,-17.08984375,0.0
1734413394.8723276,-17.08984375,246.58203125,489.2578125,24.90234375,0.0
1734413394.876124,2.9296875,-156.73828125,332.03125,21.484375,0.0
1734413394.8799205,-21.97265625,-151.85546875,-76.171875,-46.38671875,0.0
1734413394.883717,-53.22265625,26.85546875,-448.2421875,-106.4453125,0.0
1734413394.8875134,-57.6171875,-11.23046875,-76.66015625,-48.33984375,0.0
1734413394.89131,-23.92578125,474.12109375,527.34375,20.99609375,0.0
1734413394.8963764,-3.41796875,868.1640625,564.453125,-1.46484375,0.0
1734413394.9001746,-34.1796875,470.21484375,26.85546875,-53.22265625,0.0
1734413394.903973,-56.640625,-258.7890625,-572.265625,-83.49609375,0.0
1734413394.9077713,-55.6640625,-138.671875,-185.546875,-50.78125,0.0
1734413394.9115696,-38.57421875,497.55859375,488.28125,4.8828125,0.0
1734413394.9153678,-9.27734375,479.00390625,491.2109375,-2.44140625,0.0
1734413394.9191663,-20.5078125,-193.84765625,-95.21484375,-50.78125,0.0
1734413394.9229646,-56.15234375,-839.35546875,-675.78125,-69.82421875,0.0
1734413394.9267628,-67.3828125,-434.5703125,-330.078125,-58.59375,0.0
1734413394.9305613,-51.26953125,454.1015625,407.71484375,-13.671875,0.0
1734413394.9343596,-19.53125,512.20703125,509.27734375,0.0,0.0
1734413394.9381578,-25.390625,297.36328125,153.3203125,-50.29296875,0.0
1734413394.943765,-71.2890625,121.58203125,-421.38671875,-97.65625,0.0
1734413394.9475658,-82.51953125,-47.8515625,-367.1875,-83.0078125,0.0
1734413394.9513667,-49.31640625,165.0390625,277.83203125,-21.484375,0.0
1734413394.9551675,-20.01953125,716.30859375,558.59375,-0.48828125,0.0
1734413394.9589684,-20.5078125,655.76171875,263.671875,-35.64453125,0.0
1734413394.9627693,-43.45703125,-288.57421875,-542.96875,-76.171875,0.0
1734413394.9665701,-59.5703125,-847.16796875,-645.99609375,-59.5703125,0.0
1734413394.970371,-32.2265625,109.375,278.3203125,-9.765625,0.0
1734413394.9741719,2.9296875,929.19921875,617.67578125,9.765625,0.0
1734413394.9779727,0.48828125,453.125,221.19140625,-28.80859375,0.0
1734413394.9817736,-22.4609375,-506.34765625,-501.953125,-61.5234375,0.0
1734413394.9855745,-52.734375,-525.390625,-522.94921875,-68.84765625,0.0
1734413394.9904187,-39.55078125,239.74609375,205.078125,-38.0859375,0.0
1734413394.994221,5.37109375,590.33203125,500.0,8.7890625,0.0
1734413394.9980233,-6.34765625,417.48046875,312.01171875,-29.78515625,0.0
1734413395.0018256,-48.33984375,105.95703125,-357.421875,-83.0078125,0.0
1734413395.0056279,-52.734375,-223.6328125,-604.98046875,-76.171875,0.0
1734413395.0094302,-29.296875,-245.1171875,-81.0546875,-16.11328125,0.0
1734413395.0132325,-11.23046875,142.578125,416.015625,21.97265625,0.0
1734413395.0170348,-1.953125,358.88671875,395.5078125,0.0,0.0
1734413395.020837,-30.2734375,166.50390625,-222.16796875,-46.875,0.0
1734413395.0246394,-47.36328125,-599.609375,-790.0390625,-42.96875,0.0
1734413395.028442,-33.69140625,-513.671875,-219.23828125,2.44140625,0.0
1734413395.0322442,-2.9296875,639.6484375,540.0390625,32.71484375,0.0
1734413395.0375926,11.23046875,776.3671875,441.40625,11.71875,0.0
1734413395.041397,-22.94921875,-68.84765625,-287.109375,-52.24609375,0.0
1734413395.0452015,-48.33984375,-528.80859375,-729.4921875,-85.44921875,0.0
1734413395.049006,-48.33984375,20.99609375,-157.2265625,-41.9921875,0.0
1734413395.0528104,-25.87890625,589.35546875,453.125,0.0,0.0
1734413395.0566149,-7.8125,197.75390625,337.40234375,-14.6484375,0.0
1734413395.0604193,-22.4609375,-181.640625,-170.8984375,-71.2890625,0.0
1734413395.0642238,-41.50390625,-121.09375,-562.01171875,-90.8203125,0.0
1734413395.0680282,-39.0625,-158.203125,-363.76953125,-53.7109375,0.0
1734413395.0718327,-20.01953125,-222.16796875,143.06640625,11.23046875,0.0
1734413395.075637,-5.859375,494.140625,486.328125,13.18359375,0.0
1734413395.0794415,-9.27734375,511.23046875,51.7578125,-48.33984375,0.0
1734413395.0847127,-30.76171875,-191.40625,-585.44921875,-82.51953125,0.0
1734413395.088519,-49.31640625,-208.984375,-350.09765625,-64.94140625,0.0
1734413395.0923254,-21.97265625,445.3125,361.81640625,-10.7421875,0.0
1734413395.0961318,0.9765625,794.43359375,537.109375,-7.32421875,0.0
1734413395.0999384,-11.71875,194.3359375,1.953125,-55.6640625,0.0
1734413395.1037447,-35.64453125,-507.8125,-640.625,-85.9375,0.0
1734413395.107551,-52.24609375,-527.34375,-483.88671875,-64.453125,0.0
1734413395.1113575,-27.34375,54.6875,227.05078125,-10.7421875,0.0
1734413395.115164,13.18359375,126.46484375,460.9375,25.390625,0.0
1734413395.1189704,5.859375,-184.5703125,192.87109375,-1.46484375,0.0
1734413395.1227767,-35.15625,-39.0625,-425.29296875,-91.796875,0.0
1734413395.126583,-48.828125,-285.64453125,-535.64453125,-97.65625,0.0
1734413395.1317449,-40.0390625,-76.66015625,119.62890625,-30.76171875,0.0
1734413395.1355531,-20.01953125,703.61328125,541.015625,-3.90625,0.0
1734413395.1393611,-12.20703125,719.7265625,316.89453125,-34.66796875,0.0
1734413395.1431694,-42.48046875,46.875,-412.109375,-95.21484375,0.0
1734413395.1469777,-63.96484375,-354.00390625,-544.43359375,-81.54296875,0.0
1734413395.150786,-48.828125,-108.3984375,32.71484375,-10.7421875,0.0
1734413395.154594,-23.4375,464.35546875,498.53515625,15.625,0.0
1734413395.1584022,-8.7890625,466.796875,330.56640625,-16.6015625,0.0
1734413395.1622105,-15.13671875,-690.91796875,-589.84375,-58.10546875,0.0
1734413395.1660187,-41.015625,-587.890625,-617.67578125,-83.49609375,0.0
1734413395.1698267,-43.9453125,300.29296875,103.515625,-37.59765625,0.0
1734413395.173635,-23.4375,585.44921875,466.30859375,11.23046875,0.0
1734413395.1786873,-1.953125,535.15625,429.6875,3.90625,0.0
1734413395.1824973,-19.04296875,257.8125,-136.71875,-42.96875,0.0
1734413395.1863072,-55.17578125,-7.32421875,-554.6875,-90.8203125,0.0
1734413395.190117,-60.546875,-4.8828125,-155.2734375,-70.3125,0.0
1734413395.1939268,-25.87890625,400.87890625,427.734375,-21.484375,0.0
1734413395.1977365,-7.8125,383.30078125,370.60546875,-36.1328125,0.0
1734413395.2015464,-37.59765625,-121.09375,-229.4921875,-95.703125,0.0
1734413395.2053561,-59.5703125,-690.91796875,-742.1875,-118.65234375,0.0
1734413395.209166,-64.94140625,-596.6796875,-278.3203125,-79.1015625,0.0
1734413395.2129757,-34.66796875,522.94921875,488.28125,-28.3203125,0.0
1734413395.2167857,2.9296875,832.03125,472.65625,-48.828125,0.0
1734413395.2205956,-8.30078125,-23.4375,-200.68359375,-78.125,0.0
1734413395.2255902,-42.48046875,-435.546875,-638.18359375,-84.47265625,0.0
1734413395.2294016,-57.6171875,118.65234375,-148.92578125,-74.70703125,0.0
1734413395.233213,-38.57421875,599.12109375,428.22265625,-38.0859375,0.0
1734413395.2370243,-10.7421875,535.64453125,435.05859375,-13.18359375,0.0
1734413395.2408357,-21.97265625,327.63671875,52.734375,-52.24609375,0.0
1734413395.244647,-52.24609375,-186.5234375,-531.73828125,-99.12109375,0.0
1734413395.2484584,-59.5703125,-464.35546875,-439.453125,-73.2421875,0.0
1734413395.2522697,-29.296875,-465.33203125,74.70703125,-9.765625,0.0
1734413395.256081,-8.30078125,285.15625,475.5859375,-13.671875,0.0
1734413395.2598922,-16.11328125,607.91015625,228.515625,-66.89453125,0.0
1734413395.2637036,-34.1796875,-74.21875,-534.1796875,-93.75,0.0
1734413395.267515,-65.91796875,-241.69921875,-423.828125,-72.265625,0.0
1734413395.2724206,-55.6640625,438.4765625,355.95703125,-20.5078125,0.0
1734413395.2762334,-15.13671875,879.39453125,545.41015625,9.27734375,0.0
1734413395.280046,-8.7890625,277.34375,95.703125,-27.34375,0.0
1734413395.2838588,-41.015625,-371.09375,-535.15625,-99.609375,0.0
1734413395.2876716,-73.2421875,-251.953125,-477.05078125,-97.65625,0.0
1734413395.2914844,-62.01171875,83.0078125,127.44140625,-24.4140625,0.0
1734413395.295297,-24.90234375,146.97265625,434.08203125,-8.30078125,0.0
1734413395.2991097,-22.4609375,-47.36328125,234.86328125,-49.8046875,0.0
1734413395.3029225,-46.875,73.2421875,-362.79296875,-90.33203125,0.0
1734413395.306735,-51.26953125,-1.46484375,-522.94921875,-93.26171875,0.0
1734413395.3105478,-42.96875,-45.41015625,-31.25,-46.875,0.0
1734413395.3143606,-19.53125,555.17578125,481.4453125,-4.8828125,0.0
1734413395.3197265,-2.9296875,777.34375,373.53515625,-32.2265625,0.0
1734413395.323541,-26.85546875,170.41015625,-355.95703125,-70.3125,0.0
1734413395.3273556,-58.59375,-389.6484375,-595.21484375,-64.94140625,0.0
1734413395.3311703,-46.875,80.078125,10.7421875,-20.01953125,0.0
1734413395.334985,-8.30078125,757.32421875,512.6953125,9.765625,0.0
1734413395.3387997,0.0,354.00390625,306.640625,-13.671875,0.0
1734413395.3426142,-22.94921875,-739.74609375,-577.1484375,-47.36328125,0.0
1734413395.3464289,-52.734375,-810.05859375,-756.34765625,-71.2890625,0.0
1734413395.3502436,-59.08203125,64.453125,-45.41015625,-47.8515625,0.0
1734413395.3540583,-21.484375,537.109375,458.0078125,4.8828125,0.0
1734413395.357873,-11.23046875,472.65625,427.24609375,-16.11328125,0.0
1734413395.3616877,-34.1796875,224.12109375,-138.671875,-71.2890625,0.0
1734413395.3663998,-56.640625,-46.875,-580.56640625,-89.35546875,0.0
1734413395.3702154,-50.29296875,-81.54296875,-271.97265625,-38.57421875,0.0
1734413395.374031,-19.53125,355.46875,356.4453125,13.18359375,0.0
1734413395.377847,-8.7890625,700.1953125,467.7734375,-21.484375,0.0
1734413395.3816626,-28.3203125,213.8671875,-138.671875,-66.40625,0.0
1734413395.3854785,-53.22265625,-562.01171875,-727.5390625,-104.4921875,0.0
1734413395.3892941,-63.4765625,-562.98828125,-414.55078125,-86.9140625,0.0
1734413395.39311,-44.43359375,248.046875,336.9140625,-31.73828125,0.0
1734413395.3969257,-23.92578125,774.90234375,495.60546875,-27.34375,0.0
1734413395.4007413,-24.4140625,-140.625,-239.74609375,-58.10546875,0.0
1734413395.4045572,-47.36328125,-808.59375,-740.234375,-91.30859375,0.0
1734413395.4083729,-58.59375,-122.0703125,-326.66015625,-69.3359375,0.0
1734413395.4135847,-34.66796875,416.9921875,267.578125,-13.18359375,0.0
1734413395.417402,-6.34765625,384.27734375,388.671875,-5.859375,0.0
1734413395.4212196,-13.18359375,256.34765625,41.015625,-42.48046875,0.0
1734413395.425037,-41.50390625,43.9453125,-515.625,-91.796875,0.0
1734413395.4288545,-49.8046875,-180.6640625,-525.390625,-70.80078125,0.0
1734413395.4326718,-26.3671875,-235.83984375,-35.15625,5.37109375,0.0
1734413395.4364893,4.39453125,215.8203125,402.83203125,-6.34765625,0.0
1734413395.4403067,-2.44140625,513.18359375,231.4453125,-55.6640625,0.0
1734413395.4441242,-30.2734375,-67.87109375,-541.015625,-61.03515625,0.0
1734413395.4479415,-50.78125,-763.18359375,-682.12890625,-59.08203125,0.0
1734413395.451759,-37.109375,49.31640625,161.62109375,-35.15625,0.0
1734413395.4555764,-4.39453125,794.921875,519.04296875,-10.7421875,0.0
1734413395.4606981,-2.9296875,309.08203125,138.671875,-42.48046875,0.0
1734413395.464517,-44.921875,-214.35546875,-482.91015625,-83.0078125,0.0
1734413395.468336,-68.84765625,-158.69140625,-534.66796875,-78.125,0.0
1734413395.472155,-46.875,271.97265625,83.49609375,-21.97265625,0.0
1734413395.475974,-2.9296875,415.52734375,440.91796875,9.27734375,0.0
1734413395.479793,2.9296875,55.17578125,204.58984375,-34.66796875,0.0
1734413395.483612,-30.2734375,-334.9609375,-451.66015625,-77.1484375,0.0
1734413395.487431,-51.26953125,-500.48828125,-628.90625,-83.49609375,0.0
1734413395.49125,-44.921875,-304.6875,-223.6328125,-31.73828125,0.0
1734413395.495069,-17.578125,322.75390625,360.3515625,20.5078125,0.0
1734413395.498888,-5.859375,695.80078125,470.21484375,-8.7890625,0.0
1734413395.502707,-37.109375,279.296875,-170.41015625,-63.96484375,0.0
1734413395.5077364,-65.4296875,-609.375,-753.41796875,-75.1953125,0.0
1734413395.5115569,-61.03515625,-320.3125,-196.2890625,-27.83203125,0.0
1734413395.5153773,-8.30078125,689.453125,524.4140625,5.859375,0.0
1734413395.5191977,13.671875,635.7421875,412.109375,-1.46484375,0.0
1734413395.5230181,-22.94921875,-79.1015625,-282.2265625,-58.59375,0.0
1734413395.5268385,-44.43359375,-547.36328125,-702.63671875,-98.6328125,0.0
1734413395.530659,-49.31640625,-175.78125,-186.03515625,-67.87109375,0.0
1734413395.5344794,-22.94921875,425.29296875,392.08984375,-15.13671875,0.0
1734413395.5382998,15.625,-192.3828125,218.75,3.41796875,0.0
1734413395.5421202,-13.671875,-102.05078125,-79.58984375,-43.9453125,0.0
1734413395.5459406,-51.26953125,60.546875,-537.109375,-90.8203125,0.0
1734413395.549761,-59.08203125,-227.05078125,-375.9765625,-63.4765625,0.0
1734413395.5547323,-30.2734375,299.8046875,341.30859375,-3.90625,0.0
1734413395.558554,1.953125,687.98828125,480.95703125,-5.37109375,0.0
1734413395.5623758,-21.484375,402.34375,-13.18359375,-38.0859375,0.0
1734413395.5661974,-43.9453125,-257.32421875,-651.3671875,-61.03515625,0.0
1734413395.5700192,-43.9453125,-347.65625,-461.9140625,-62.98828125,0.0
1734413395.5738409,-28.3203125,62.98828125,187.01171875,-2.9296875,0.0
1734413395.5776627,-0.9765625,221.6796875,369.62890625,11.71875,0.0
1734413395.5814843,-2.9296875,-303.22265625,-209.9609375,-35.15625,0.0
1734413395.5853062,-32.71484375,-793.9453125,-757.32421875,-70.3125,0.0
1734413395.589128,-67.3828125,-288.57421875,-541.015625,-76.171875,0.0
1734413395.5929496,-51.7578125,237.79296875,13.671875,-32.2265625,0.0
1734413395.5967715,-21.484375,207.51953125,267.578125,-10.25390625,0.0
1734413395.601629,-36.1328125,134.27734375,-95.703125,-41.015625,0.0
1734413395.605452,-55.17578125,-87.890625,-688.4765625,-91.30859375,0.0
1734413395.6092749,-55.6640625,-451.171875,-770.99609375,-89.35546875,0.0
1734413395.613098,-41.50390625,-320.80078125,-274.4140625,-25.87890625,0.0
1734413395.6169207,-23.4375,255.37109375,224.12109375,6.34765625,0.0
1734413395.6207438,-21.97265625,-34.1796875,-201.171875,-29.296875,0.0
1734413395.6245666,-51.7578125,-730.95703125,-856.93359375,-77.63671875,0.0
1734413395.6283896,-65.91796875,-973.14453125,-956.0546875,-80.078125,0.0
1734413395.6322124,-54.6875,-312.98828125,-412.59765625,-50.78125,0.0
1734413395.6360354,-20.99609375,378.90625,195.3125,-9.765625,0.0
1734413395.6398582,-13.18359375,56.640625,-111.81640625,-25.87890625,0.0
1734413395.6436813,-42.96875,-425.78125,-746.58203125,-68.84765625,0.0
1734413395.6484532,-65.91796875,-441.89453125,-819.3359375,-89.35546875,0.0
1734413395.6522772,-52.24609375,-108.3984375,-415.52734375,-55.17578125,0.0
1734413395.6561012,-11.23046875,130.859375,118.1640625,-2.9296875,0.0
1734413395.6599252,2.44140625,168.9453125,115.234375,-22.94921875,0.0
1734413395.6637492,-21.484375,-96.6796875,-577.63671875,-74.70703125,0.0
1734413395.6675732,-51.26953125,-641.11328125,-858.3984375,-91.796875,0.0
1734413395.6713972,-59.5703125,-807.6171875,-619.62890625,-54.19921875,0.0
1734413395.6752212,-34.1796875,-360.83984375,-86.42578125,-14.6484375,0.0
1734413395.6790452,-20.99609375,358.88671875,252.44140625,-33.69140625,0.0
1734413395.6828692,-36.1328125,139.6484375,-438.4765625,-83.0078125,0.0
1734413395.6866932,-52.24609375,-654.78515625,-942.87109375,-81.54296875,0.0
1734413395.6905172,-60.05859375,-378.41796875,-475.5859375,-39.0625,0.0
1734413395.6957147,-34.1796875,478.515625,253.90625,-28.80859375,0.0
1734413395.6995401,-3.41796875,396.484375,251.953125,-36.62109375,0.0
1734413395.7033658,-15.13671875,-261.71875,-447.265625,-65.91796875,0.0
1734413395.7071912,-39.0625,-387.20703125,-769.53125,-91.796875,0.0
1734413395.711017,-46.875,-104.98046875,-476.5625,-54.19921875,0.0
1734413395.7148423,-23.92578125,-5.859375,-28.3203125,5.859375,0.0
1734413395.7186677,0.48828125,-466.30859375,-29.78515625,21.484375,0.0
1734413395.7224934,-18.5546875,-289.55078125,-379.39453125,-40.52734375,0.0
1734413395.7263188,-46.38671875,-65.4296875,-653.3203125,-89.35546875,0.0
1734413395.7301445,-50.78125,-316.89453125,-615.234375,-55.6640625,0.0
1734413395.73397,-26.3671875,-77.63671875,-71.2890625,-1.953125,0.0
1734413395.7377954,3.41796875,520.99609375,400.87890625,18.06640625,0.0
1734413395.7423968,-4.8828125,437.01171875,-7.32421875,-12.20703125,0.0
1734413395.7462232,-33.69140625,-249.51171875,-689.94140625,-58.10546875,0.0
1734413395.7500496,-52.734375,-395.99609375,-580.56640625,-72.75390625,0.0
1734413395.753876,-22.4609375,260.25390625,115.234375,-31.25,0.0
1734413395.7577024,3.90625,565.4296875,416.50390625,-10.7421875,0.0
1734413395.7615287,-3.41796875,34.66796875,-83.984375,-32.71484375,0.0
1734413395.765355,-25.87890625,-569.82421875,-690.91796875,-68.84765625,0.0
1734413395.7691815,-49.8046875,-647.94921875,-667.96875,-81.0546875,0.0
1734413395.7730079,-39.55078125,-153.80859375,-115.72265625,-22.94921875,0.0
1734413395.7768342,-16.11328125,-56.15234375,294.43359375,17.578125,0.0
1734413395.7806606,-9.27734375,-217.7734375,96.6796875,-20.99609375,0.0
1734413395.784487,-33.69140625,35.15625,-446.2890625,-78.125,0.0
1734413395.7895205,-53.7109375,-74.21875,-596.6796875,-82.03125,0.0
1734413395.7933483,-34.66796875,-58.59375,-133.30078125,-10.7421875,0.0
1734413395.797176,-9.765625,536.1328125,416.015625,27.83203125,0.0
1734413395.8010035,-10.7421875,744.62890625,322.75390625,-19.04296875,0.0
1734413395.8048313,-25.87890625,128.90625,-437.5,-65.91796875,0.0
1734413395.8086588,-41.50390625,-673.828125,-722.65625,-65.91796875,0.0
1734413395.8124866,-34.66796875,-231.93359375,-126.46484375,-14.6484375,0.0
1734413395.8163142,-6.34765625,689.453125,464.84375,14.6484375,0.0
1734413395.820142,8.7890625,381.8359375,289.0625,-5.859375,0.0
1734413395.8239696,0.0,-566.40625,-515.13671875,-17.578125,0.0
1734413395.8277974,-23.4375,-332.51953125,-651.3671875,-34.1796875,0.0
1734413395.831625,-18.5546875,299.8046875,-73.2421875,-19.04296875,0.0
1734413395.8365898,18.06640625,505.859375,389.16015625,20.01953125,0.0
1734413395.8404186,19.53125,563.4765625,421.875,-3.90625,0.0
1734413395.8442476,-12.20703125,361.81640625,-130.859375,-56.15234375,0.0
1734413395.8480763,-31.73828125,13.671875,-593.75,-54.6875,0.0
1734413395.8519053,-38.0859375,-133.30078125,-320.80078125,-26.85546875,0.0
1734413395.8557343,-12.20703125,63.4765625,264.16015625,11.71875,0.0
1734413395.859563,14.16015625,281.25,427.734375,23.4375,0.0
1734413395.863392,15.13671875,7.32421875,-153.80859375,-18.5546875,0.0
1734413395.8672209,1.46484375,-636.23046875,-785.15625,-30.2734375,0.0
1734413395.87105,-10.7421875,-583.984375,-372.55859375,4.39453125,0.0
1734413395.8748786,6.8359375,495.1171875,390.13671875,34.66796875,0.0
1734413395.8787076,20.01953125,629.8828125,418.9453125,33.69140625,0.0
1734413395.883555,1.46484375,69.82421875,-96.19140625,-22.4609375,0.0
1734413395.8873851,-20.99609375,-58.59375,-581.54296875,-63.96484375,0.0
1734413395.891215,-29.296875,135.25390625,-310.546875,-34.66796875,0.0
1734413395.895045,-8.7890625,458.0078125,316.40625,11.71875,0.0
1734413395.898875,14.6484375,509.27734375,446.77734375,18.06640625,0.0
1734413395.902705,18.06640625,163.0859375,-9.765625,-9.27734375,0.0
1734413395.906535,-21.97265625,-236.328125,-564.453125,-43.9453125,0.0
1734413395.9103649,-52.24609375,-226.5625,-507.32421875,-42.96875,0.0
1734413395.9141948,-5.37109375,-428.7109375,-146.484375,14.6484375,0.0
1734413395.9180248,17.578125,329.1015625,429.19921875,28.3203125,0.0
1734413395.9218547,3.90625,761.23046875,312.5,-4.8828125,0.0
1734413395.9256847,-5.37109375,28.3203125,-493.65234375,-35.15625,0.0
1734413395.93047,-24.4140625,-161.62109375,-462.40234375,-36.1328125,0.0
1734413395.9343011,-14.6484375,462.890625,292.96875,8.30078125,0.0
1734413395.938132,20.5078125,724.12109375,522.94921875,22.4609375,0.0
1734413395.941963,11.71875,325.1953125,217.28515625,-22.4609375,0.0
1734413395.9457939,-20.99609375,-55.17578125,-428.22265625,-64.453125,0.0
1734413395.949625,-42.96875,-328.125,-566.40625,-63.96484375,0.0
1734413395.953456,-24.4140625,-3.41796875,46.875,-0.9765625,0.0
1734413395.9572868,18.5546875,146.97265625,431.640625,43.9453125,0.0
1734413395.9611177,30.76171875,-49.8046875,309.08203125,12.20703125,0.0
1734413395.9649487,0.9765625,216.30859375,-195.3125,-45.41015625,0.0
1734413395.9687798,-15.625,83.49609375,-515.625,-60.546875,0.0
1734413395.9726107,-19.53125,-4.8828125,-116.2109375,-22.94921875,0.0
1734413395.9773326,-12.20703125,643.06640625,478.02734375,15.13671875,0.0
1734413395.9811645,5.859375,964.84375,498.53515625,6.34765625,0.0
1734413395.9849963,-13.671875,384.765625,-110.3515625,-37.59765625,0.0
1734413395.9888282,-48.828125,-213.8671875,-519.04296875,-69.82421875,0.0
1734413395.99266,-42.96875,134.27734375,-48.33984375,-31.73828125,0.0
1734413395.996492,-1.953125,565.91796875,490.234375,15.13671875,0.0
1734413396.0003238,11.23046875,374.0234375,382.8125,-0.48828125,0.0
1734413396.0041556,-10.7421875,-552.734375,-450.1953125,-44.43359375,0.0
1734413396.0079875,-38.57421875,-406.25,-622.0703125,-83.0078125,0.0
1734413396.0118194,-39.55078125,347.16796875,-18.06640625,-46.875,0.0
1734413396.0156512,-13.18359375,589.35546875,434.5703125,24.4140625,0.0
1734413396.019483,5.37109375,689.94140625,490.234375,4.8828125,0.0
1734413396.0241737,-7.32421875,520.5078125,44.921875,-41.50390625,0.0
1734413396.0280066,-40.0390625,167.96875,-495.1171875,-61.5234375,0.0
1734413396.0318394,-43.45703125,-1.46484375,-266.6015625,-42.48046875,0.0
1734413396.035672,-18.5546875,431.15234375,392.578125,-1.46484375,0.0
1734413396.0395048,-7.32421875,748.53515625,521.97265625,-4.39453125,0.0
1734413396.0433376,-19.04296875,257.8125,-0.48828125,-43.45703125,0.0
1734413396.0471704,-44.43359375,-489.74609375,-642.08984375,-69.82421875,0.0
1734413396.051003,-54.19921875,-489.74609375,-334.47265625,-55.6640625,0.0
1734413396.0548358,-20.99609375,491.69921875,430.6640625,5.859375,0.0
1734413396.0586686,24.90234375,656.25,497.55859375,41.50390625,0.0
1734413396.0625012,19.53125,154.296875,42.48046875,-16.11328125,0.0
1734413396.066334,-12.6953125,-3.41796875,-487.3046875,-74.21875,0.0
1734413396.071391,-33.203125,177.24609375,-297.36328125,-45.41015625,0.0
1734413396.075225,-10.25390625,483.88671875,314.453125,7.32421875,0.0
1734413396.0790591,28.80859375,563.4765625,471.6796875,18.06640625,0.0
1734413396.0828931,19.53125,592.28515625,288.0859375,-3.90625,0.0
1734413396.0867271,-15.13671875,343.26171875,-311.5234375,-46.38671875,0.0
1734413396.090561,-33.69140625,-215.33203125,-515.13671875,-42.96875,0.0
1734413396.094395,-13.18359375,-531.73828125,-107.91015625,28.3203125,0.0
1734413396.098229,14.16015625,353.02734375,491.2109375,39.55078125,0.0
1734413396.102063,9.765625,890.13671875,443.84765625,0.9765625,0.0
1734413396.105897,-23.4375,175.78125,-390.625,-34.66796875,0.0
1734413396.109731,-56.15234375,-170.8984375,-471.19140625,-60.546875,0.0
1734413396.113565,-40.52734375,349.609375,240.234375,-27.83203125,0.0
1734413396.1180925,-0.48828125,645.01953125,511.23046875,21.484375,0.0
1734413396.1219273,7.8125,420.41015625,333.984375,6.8359375,0.0
1734413396.125762,-23.92578125,109.86328125,-280.76171875,-41.015625,0.0
1734413396.1295965,-47.36328125,62.98828125,-472.65625,-57.6171875,0.0
1734413396.1334312,-32.71484375,283.203125,75.68359375,-27.34375,0.0
1734413396.137266,-5.37109375,397.94921875,456.54296875,5.859375,0.0
1734413396.1411006,-4.39453125,286.62109375,371.58203125,-2.44140625,0.0
1734413396.1449351,-29.78515625,67.3828125,-172.36328125,-40.0390625,0.0
1734413396.1487699,-54.6875,62.01171875,-506.34765625,-61.03515625,0.0
1734413396.1526046,-52.24609375,-268.06640625,-313.96484375,-20.99609375,0.0
1734413396.1564393,-20.5078125,-7.8125,313.4765625,28.80859375,0.0
1734413396.160274,4.39453125,829.1015625,533.203125,-0.48828125,0.0
1734413396.1651733,-5.37109375,459.47265625,-80.56640625,-52.734375,0.0
1734413396.169009,-40.52734375,-288.0859375,-598.6328125,-62.98828125,0.0
1734413396.1728446,-50.29296875,34.1796875,-187.98828125,-27.34375,0.0
1734413396.1766803,-25.87890625,545.41015625,423.33984375,12.20703125,0.0
1734413396.180516,-5.37109375,424.31640625,376.46484375,1.46484375,0.0
1734413396.1843517,-13.18359375,-147.4609375,-215.8203125,-34.66796875,0.0
1734413396.1881876,-35.64453125,-514.6484375,-662.109375,-72.75390625,0.0
1734413396.1920233,-55.6640625,9.765625,-225.09765625,-57.12890625,0.0
1734413396.195859,-41.50390625,468.75,367.1875,-3.41796875,0.0
1734413396.1996946,-10.25390625,83.0078125,329.58984375,14.16015625,0.0
1734413396.2035303,-21.97265625,249.0234375,105.95703125,-38.57421875,0.0
1734413396.207366,-47.8515625,231.4453125,-439.453125,-89.35546875,0.0
1734413396.2122142,-45.8984375,-84.9609375,-390.625,-60.546875,0.0
1734413396.2160509,-15.625,318.84765625,338.8671875,-1.46484375,0.0
1734413396.2198875,0.48828125,863.28125,555.17578125,3.90625,0.0
1734413396.2237244,-13.671875,678.7109375,214.84375,-41.015625,0.0
1734413396.227561,-35.64453125,-105.95703125,-491.69921875,-74.21875,0.0
1734413396.2313976,-68.84765625,-504.8828125,-521.484375,-56.640625,0.0
1734413396.2352343,-54.19921875,-12.20703125,184.5703125,0.0,0.0
1734413396.2390711,-15.13671875,506.34765625,506.8359375,2.9296875,0.0
1734413396.2429078,-16.11328125,58.10546875,91.30859375,-21.97265625,0.0
1734413396.2467444,-51.26953125,-549.8046875,-544.43359375,-30.76171875,0.0
1734413396.250581,-80.56640625,-32.2265625,-366.69921875,-41.015625,0.0
1734413396.254418,-55.6640625,441.89453125,238.76953125,-2.44140625,0.0
1734413396.2591987,-7.8125,520.5078125,458.984375,26.85546875,0.0
1734413396.2630363,-8.30078125,630.37109375,324.21875,-16.11328125,0.0
1734413396.2668738,-31.73828125,371.58203125,-309.08203125,-50.29296875,0.0
1734413396.2707117,-46.38671875,-45.8984375,-535.15625,-44.921875,0.0
1734413396.2745492,-46.875,11.71875,0.0,-19.53125,0.0
1734413396.2783868,-11.71875,333.984375,435.05859375,19.53125,0.0
1734413396.2822244,0.9765625,458.0078125,370.1171875,2.9296875,0.0
1734413396.286062,-29.78515625,116.2109375,-264.6484375,-42.96875,0.0
1734413396.2898996,-44.921875,-754.8828125,-737.3046875,-53.22265625,0.0
1734413396.2937372,-38.57421875,-215.33203125,-33.69140625,-25.87890625,0.0
1734413396.2975748,-23.4375,594.7265625,520.5078125,12.20703125,0.0
1734413396.3014123,-6.8359375,589.84375,396.97265625,-13.671875,0.0
1734413396.3061104,-25.87890625,239.74609375,-171.875,-64.94140625,0.0
1734413396.309949,-62.5,62.5,-501.953125,-71.77734375,0.0
1734413396.3137872,-61.5234375,278.3203125,-39.55078125,-31.25,0.0
1734413396.3176258,-19.04296875,570.3125,439.453125,10.25390625,0.0
1734413396.321464,6.34765625,562.5,442.3828125,3.41796875,0.0
1734413396.3253026,-15.625,26.85546875,-120.60546875,-36.62109375,0.0
1734413396.329141,-48.828125,-356.4453125,-589.84375,-69.82421875,0.0
1734413396.3329794,-50.78125,-541.9921875,-394.53125,-30.76171875,0.0
1734413396.3368177,-16.11328125,-213.37890625,205.078125,17.578125,0.0
1734413396.3406563,-8.7890625,732.91015625,540.0390625,-12.6953125,0.0
1734413396.3444946,-16.11328125,537.109375,40.52734375,-39.0625,0.0
1734413396.3483331,-32.71484375,-212.890625,-613.28125,-48.33984375,0.0
1734413396.3529851,-55.6640625,-59.08203125,-305.6640625,-30.2734375,0.0
1734413396.3568242,-26.3671875,455.56640625,398.4375,14.16015625,0.0
1734413396.3606634,9.27734375,707.51953125,502.9296875,4.8828125,0.0
1734413396.3645027,-3.41796875,324.21875,4.8828125,-42.48046875,0.0
1734413396.3683417,-46.875,-28.80859375,-520.01953125,-67.87109375,0.0
1734413396.372181,-67.87109375,-166.9921875,-381.34765625,-42.48046875,0.0
1734413396.3760202,-40.52734375,39.55078125,235.83984375,-3.41796875,0.0
1734413396.3798592,-1.953125,-84.9609375,344.7265625,18.5546875,0.0
1734413396.3836985,-16.6015625,93.75,147.4609375,-24.4140625,0.0
1734413396.3875377,-44.921875,235.3515625,-393.5546875,-71.77734375,0.0
1734413396.3913767,-57.6171875,-154.296875,-515.13671875,-53.22265625,0.0
1734413396.395216,-46.875,129.8828125,151.3671875,-17.08984375,0.0
1734413396.399806,-19.53125,814.94140625,552.734375,-0.48828125,0.0
1734413396.4036458,-12.20703125,707.51953125,263.671875,-20.99609375,0.0
1734413396.4074857,-34.1796875,-53.22265625,-461.42578125,-62.01171875,0.0
1734413396.4113257,-57.12890625,-249.51171875,-479.4921875,-62.98828125,0.0
1734413396.4151654,-44.921875,117.67578125,104.98046875,-24.90234375,0.0
1734413396.4190054,-4.8828125,376.46484375,438.4765625,-4.8828125,0.0
1734413396.4228451,-0.48828125,109.375,188.96484375,-28.3203125,0.0
1734413396.426685,-33.203125,-400.390625,-510.25390625,-83.0078125,0.0
1734413396.430525,-65.4296875,-234.375,-552.24609375,-92.7734375,0.0
1734413396.4343648,-56.15234375,250.0,56.15234375,-34.66796875,0.0
1734413396.4382048,-16.11328125,301.26953125,421.875,11.71875,0.0
1734413396.4420445,-9.765625,353.515625,321.77734375,-13.671875,0.0
1734413396.446986,-49.8046875,297.8515625,-291.015625,-67.3828125,0.0
1734413396.450827,-87.40234375,-108.3984375,-590.8203125,-74.70703125,0.0
1734413396.4546676,-70.80078125,-443.359375,-349.12109375,-20.01953125,0.0
1734413396.4585085,-28.3203125,323.2421875,355.46875,14.16015625,0.0
1734413396.4623494,-10.25390625,799.31640625,469.7265625,-16.11328125,0.0
1734413396.4661903,-21.97265625,-68.359375,-399.4140625,-67.3828125,0.0
1734413396.4700313,-48.828125,-862.3046875,-853.515625,-68.84765625,0.0
1734413396.4738722,-56.15234375,-379.39453125,-280.2734375,-43.9453125,0.0
1734413396.4777129,-22.4609375,504.39453125,435.05859375,-9.765625,0.0
1734413396.4815538,-7.32421875,624.51171875,441.89453125,-12.6953125,0.0
1734413396.4853947,-21.484375,200.1953125,-158.203125,-63.96484375,0.0
1734413396.4892356,-52.734375,-46.875,-585.44921875,-88.37890625,0.0
1734413396.4936912,-56.15234375,84.47265625,-239.2578125,-35.64453125,0.0
1734413396.4975326,-27.34375,423.33984375,359.375,21.97265625,0.0
1734413396.501374,-8.30078125,580.56640625,470.21484375,-15.13671875,0.0
1734413396.5052154,-22.4609375,437.01171875,-13.18359375,-69.3359375,0.0
1734413396.5090568,-51.7578125,-40.0390625,-578.61328125,-82.51953125,0.0
1734413396.5128984,-56.640625,-440.91796875,-431.640625,-53.7109375,0.0
1734413396.5167398,-43.45703125,-122.55859375,214.84375,-13.671875,0.0
1734413396.5205812,-27.34375,309.5703125,468.75,-13.18359375,0.0
1734413396.5244226,-28.3203125,350.09765625,67.87109375,-68.359375,0.0
1734413396.528264,-55.6640625,-419.43359375,-719.23828125,-80.56640625,0.0
1734413396.5321054,-67.87109375,-811.03515625,-548.33984375,-48.33984375,0.0
1734413396.535947,-35.64453125,142.08984375,314.453125,-26.3671875,0.0
1734413396.5407639,-3.41796875,713.8671875,504.39453125,-7.32421875,0.0
1734413396.5446062,-4.39453125,233.3984375,11.71875,-39.55078125,0.0
1734413396.5484483,-42.48046875,-108.3984375,-540.52734375,-91.30859375,0.0
1734413396.5522907,-76.171875,-20.01953125,-395.01953125,-75.68359375,0.0
1734413396.556133,-63.4765625,319.82421875,248.046875,-14.6484375,0.0
1734413396.5599754,-17.08984375,190.4296875,389.16015625,2.44140625,0.0
1734413396.5638177,-14.6484375,98.14453125,158.69140625,-41.015625,0.0
1734413396.5676599,-53.22265625,113.76953125,-391.11328125,-89.35546875,0.0
1734413396.5715022,-73.2421875,-341.30859375,-644.04296875,-82.51953125,0.0
1734413396.5753446,-51.26953125,-632.32421875,-256.8359375,-31.25,0.0
1734413396.579187,-20.01953125,286.1328125,392.08984375,-17.578125,0.0
1734413396.5830293,-8.30078125,623.046875,267.08984375,-43.45703125,0.0
1734413396.587781,-40.0390625,-120.1171875,-518.06640625,-82.03125,0.0
1734413396.591624,-78.125,-515.625,-695.80078125,-87.40234375,0.0
1734413396.595467,-60.546875,-199.70703125,-208.0078125,-34.1796875,0.0
1734413396.5993104,-8.30078125,481.4453125,379.8828125,4.39453125,0.0
1734413396.6031535,-2.44140625,368.1640625,229.98046875,-18.5546875,0.0
1734413396.6069965,-27.83203125,-412.109375,-553.7109375,-72.265625,0.0
1734413396.6108396,-53.7109375,-770.01953125,-782.71484375,-89.84375,0.0
1734413396.6146827,-53.22265625,-371.58203125,-326.171875,-51.26953125,0.0
1734413396.618526,-9.27734375,-76.66015625,249.0234375,-8.30078125,0.0
1734413396.622369,-0.9765625,-175.29296875,297.8515625,-21.97265625,0.0
1734413396.6262121,-34.1796875,88.8671875,-333.0078125,-64.453125,0.0
1734413396.6300552,-54.19921875,-145.99609375,-708.49609375,-78.125,0.0
1734413396.6347516,-56.640625,-313.96484375,-416.50390625,-46.875,0.0
1734413396.6385956,-32.71484375,394.53125,293.9453125,-12.20703125,0.0
1734413396.6424394,-11.23046875,751.953125,451.171875,-14.16015625,0.0
1734413396.6462831,-26.3671875,206.0546875,-243.1640625,-53.22265625,0.0
1734413396.6501272,-60.546875,-559.08203125,-703.61328125,-80.56640625,0.0
1734413396.653971,-76.66015625,-609.375,-491.2109375,-54.19921875,0.0
1734413396.6578147,-46.875,-46.38671875,108.88671875,-19.04296875,0.0
1734413396.6616588,-12.6953125,126.46484375,293.45703125,-20.01953125,0.0
1734413396.6655025,-19.53125,-652.83203125,-502.44140625,-44.921875,0.0
1734413396.6693463,-55.17578125,-670.8984375,-823.73046875,-95.21484375,0.0
1734413396.6731904,-65.4296875,-101.5625,-415.52734375,-85.44921875,0.0
1734413396.6770341,-26.85546875,232.421875,191.40625,-19.53125,0.0
1734413396.6820896,1.953125,432.6171875,434.08203125,0.48828125,0.0
1734413396.6859345,-7.8125,332.03125,-61.03515625,-47.8515625,0.0
1734413396.6897795,-52.24609375,-102.5390625,-673.828125,-83.984375,0.0
1734413396.6936243,-82.03125,-355.46875,-574.70703125,-69.82421875,0.0
1734413396.6974692,-51.26953125,81.54296875,109.86328125,-9.27734375,0.0
1734413396.7013142,-7.8125,331.54296875,404.296875,23.4375,0.0
1734413396.7051592,-11.71875,21.97265625,-46.875,-22.94921875,0.0
1734413396.709004,-43.45703125,-611.81640625,-743.65234375,-61.5234375,0.0
1734413396.712849,-69.3359375,-876.953125,-706.54296875,-46.875,0.0
1734413396.7166939,-57.12890625,58.10546875,68.359375,-11.71875,0.0
1734413396.7205389,-21.97265625,730.46875,477.5390625,7.8125,0.0
1734413396.7243836,-10.25390625,269.04296875,31.25,-9.765625,0.0
1734413396.728954,-25.390625,-113.76953125,-569.82421875,-53.7109375,0.0
1734413396.7327995,-66.89453125,-132.8125,-561.5234375,-70.3125,0.0
1734413396.736645,-77.1484375,164.55078125,0.9765625,-33.69140625,0.0
1734413396.7404907,-17.578125,410.15625,395.99609375,-6.34765625,0.0
1734413396.7443361,-8.30078125,458.984375,244.140625,-20.01953125,0.0
1734413396.7481818,-39.0625,-138.18359375,-498.046875,-43.9453125,0.0
1734413396.7520273,-58.59375,-725.09765625,-753.41796875,-66.89453125,0.0
1734413396.7558727,-49.31640625,-428.7109375,-165.0390625,-40.0390625,0.0
1734413396.7597184,-4.8828125,484.375,457.51953125,2.9296875,0.0
1734413396.7635639,-2.44140625,750.0,371.58203125,-21.97265625,0.0
1734413396.7674093,-29.78515625,42.48046875,-456.54296875,-62.01171875,0.0
1734413396.771255,-55.17578125,-893.5546875,-887.6953125,-44.921875,0.0
1734413396.7757516,-68.359375,-386.71875,-202.1484375,-27.34375,0.0
1734413396.7795978,-29.296875,678.7109375,491.69921875,7.8125,0.0
1734413396.7834437,-1.953125,539.55078125,351.07421875,17.578125,0.0
1734413396.7872899,-17.08984375,82.03125,-292.96875,-26.3671875,0.0
1734413396.791136,-40.52734375,-208.984375,-635.25390625,-50.78125,0.0
1734413396.794982,-43.9453125,-223.14453125,-270.5078125,-12.6953125,0.0
1734413396.7988281,-5.37109375,-49.8046875,300.78125,34.1796875,0.0
1734413396.8026743,5.37109375,54.19921875,436.03515625,30.2734375,0.0
1734413396.8065202,-28.80859375,291.50390625,-15.625,-35.15625,0.0
1734413396.8103664,-49.31640625,-7.32421875,-562.5,-72.265625,0.0
1734413396.8142126,-47.36328125,-348.14453125,-405.2734375,-25.390625,0.0
1734413396.8180587,-20.5078125,198.2421875,321.2890625,7.8125,0.0
1734413396.8233254,0.0,824.21875,553.22265625,-4.39453125,0.0
1734413396.8271728,0.0,459.47265625,41.9921875,-32.2265625,0.0
1734413396.83102,0.0,-409.66796875,-591.796875,-60.546875,0.0
1734413396.8348672,0.0,-377.44140625,-364.74609375,-44.921875,0.0
1734413396.8387146,0.0,522.4609375,411.1328125,-1.953125,0.0
1734413396.842562,0.0,564.453125,491.2109375,2.9296875,0.0
1734413396.8464093,0.0,-481.93359375,-247.55859375,-21.97265625,0.0
1734413396.8502564,0.0,-544.921875,-624.51171875,-62.98828125,0.0
1734413396.8541038,0.0,80.56640625,-271.97265625,-65.4296875,0.0
1734413396.8579512,0.0,403.80859375,326.66015625,-16.11328125,0.0
1734413396.8617983,0.0,617.67578125,560.05859375,-1.46484375,0.0
1734413396.8656456,0.0,568.359375,257.32421875,-29.296875,0.0
1734413396.8700135,-44.43359375,147.94921875,-409.66796875,-52.734375,0.0
1734413396.8738613,-61.5234375,-187.01171875,-449.70703125,-57.6171875,0.0
1734413396.877709,-40.0390625,197.265625,282.2265625,-14.6484375,0.0
1734413396.8815567,1.46484375,876.46484375,605.95703125,9.765625,0.0
1734413396.8854043,-16.11328125,679.19921875,309.08203125,-20.5078125,0.0
1734413396.8892522,-43.9453125,-293.9453125,-452.63671875,-63.96484375,0.0
1734413396.8930998,-61.5234375,-625.9765625,-591.30859375,-70.3125,0.0
1734413396.8969476,-49.31640625,-119.140625,61.03515625,-29.78515625,0.0
1734413396.9007955,-5.37109375,393.5546875,491.2109375,-8.7890625,0.0
1734413396.904643,5.859375,208.0078125,249.0234375,-23.92578125,0.0
1734413396.908491,-25.87890625,-126.46484375,-394.53125,-72.265625,0.0
1734413396.9123385,-64.453125,-45.8984375,-489.74609375,-90.33203125,0.0
1734413396.9170763,0.0,295.41015625,79.1015625,-45.41015625,0.0
1734413396.9209247,0.0,137.20703125,377.9296875,5.859375,0.0
1734413396.9247732,0.0,83.984375,379.39453125,-22.94921875,0.0
1734413396.9286218,0.0,249.0234375,-138.18359375,-81.0546875,0.0
1734413396.93247,0.0,-160.15625,-576.171875,-81.54296875,0.0
1734413396.9363186,0.0,-425.78125,-232.91015625,-28.80859375,0.0
1734413396.9401672,0.0,206.54296875,395.5078125,-0.9765625,0.0
1734413396.9440155,0.0,791.015625,514.16015625,-22.4609375,0.0
1734413396.947864,0.0,154.296875,-207.51953125,-64.94140625,0.0
1734413396.9517124,0.0,-838.8671875,-793.45703125,-75.1953125,0.0
1734413396.955561,0.0,-273.92578125,-199.70703125,-34.1796875,0.0
1734413396.9594095,0.0,714.84375,490.72265625,17.08984375,0.0
1734413396.9640524,9.765625,674.31640625,469.7265625,13.671875,0.0
1734413396.9679015,0.48828125,186.03515625,-41.015625,-32.2265625,0.0
1734413396.9717507,-48.33984375,-118.65234375,-564.453125,-62.01171875,0.0
1734413396.9755998,-65.91796875,41.50390625,-268.06640625,-40.0390625,0.0
1734413396.9794488,-29.296875,301.26953125,343.75,4.8828125,0.0
1734413396.983298,-5.859375,265.13671875,430.17578125,16.6015625,0.0
1734413396.987147,-24.90234375,-63.4765625,-104.4921875,-19.53125,0.0
1734413396.9909961,-63.96484375,-283.69140625,-552.24609375,-71.77734375,0.0
1734413396.9948454,-74.21875,-481.93359375,-473.14453125,-43.45703125,0.0
1734413396.9986944,-41.015625,-269.53125,107.91015625,13.18359375,0.0
1734413397.0025434,-13.18359375,737.79296875,576.66015625,5.37109375,0.0
1734413397.0063927,-14.16015625,611.328125,162.59765625,-29.78515625,0.0
1734413397.0110216,-46.875,-387.6953125,-615.72265625,-58.59375,0.0
1734413397.0148714,-67.3828125,-368.1640625,-436.5234375,-49.8046875,0.0
1734413397.018721,-38.57421875,524.90234375,368.1640625,-11.71875,0.0
1734413397.0225708,1.953125,820.3125,523.4375,14.16015625,0.0
1734413397.0264206,2.9296875,271.97265625,83.0078125,-14.6484375,0.0
1734413397.0302703,-29.296875,-360.3515625,-559.5703125,-72.265625,0.0
1734413397.03412,-53.7109375,-424.8046875,-536.1328125,-69.3359375,0.0
1734413397.0379698,-39.55078125,-13.18359375,95.21484375,-20.01953125,0.0
1734413397.0418196,1.46484375,-123.046875,329.58984375,19.04296875,0.0
1734413397.0456693,-2.9296875,125.9765625,229.98046875,-24.90234375,0.0
1734413397.049519,-34.66796875,195.80078125,-373.53515625,-75.68359375,0.0
1734413397.0533688,-48.828125,-217.28515625,-587.890625,-58.10546875,0.0
1734413397.057931,-45.8984375,104.98046875,65.4296875,-16.11328125,0.0
1734413397.0617812,-16.11328125,760.25390625,553.7109375,9.765625,0.0
1734413397.0656314,-12.20703125,759.27734375,358.3984375,-32.2265625,0.0
1734413397.0694818,-45.41015625,-47.8515625,-431.15234375,-80.078125,0.0
1734413397.073332,-70.3125,-599.12109375,-675.29296875,-66.40625,0.0
1734413397.0771823,-58.10546875,-261.23046875,-127.9296875,-19.53125,0.0
1734413397.0810328,-10.25390625,344.23828125,428.7109375,5.37109375,0.0
1734413397.084883,-4.8828125,112.3046875,249.0234375,-14.6484375,0.0
1734413397.0887332,-35.15625,-612.3046875,-469.23828125,-55.17578125,0.0
1734413397.0925837,-69.3359375,-215.8203125,-566.89453125,-90.8203125,0.0
1734413397.0964339,-72.265625,263.18359375,-55.6640625,-50.78125,0.0
1734413397.1002843,-23.4375,406.25,388.671875,-1.953125,0.0
1734413397.1047838,-7.32421875,610.83984375,426.7578125,-21.484375,0.0
1734413397.1086347,-30.2734375,359.375,-139.6484375,-64.94140625,0.0
1734413397.1124856,-61.03515625,-144.04296875,-618.65234375,-82.03125,0.0
1734413397.1163363,-69.82421875,-157.71484375,-206.54296875,-36.1328125,0.0
1734413397.1201873,-26.85546875,522.4609375,435.546875,14.6484375,0.0
1734413397.124038,-1.46484375,562.01171875,417.96875,-1.953125,0.0
1734413397.127889,-22.94921875,-178.22265625,-243.1640625,-50.78125,0.0
1734413397.1317396,-46.875,-855.46875,-835.44921875,-67.87109375,0.0
1734413397.1355906,-62.01171875,-312.5,-328.61328125,-52.734375,0.0
1734413397.1394413,-37.59765625,692.87109375,450.68359375,-3.41796875,0.0
1734413397.1432922,-13.671875,747.0703125,491.69921875,-10.7421875,0.0
1734413397.147143,-38.57421875,254.8828125,-34.1796875,-69.3359375,0.0
1734413397.1515796,-70.80078125,-29.78515625,-565.4296875,-93.75,0.0
1734413397.155431,-71.2890625,64.453125,-326.66015625,-71.2890625,0.0
1734413397.1592822,-35.64453125,369.140625,305.6640625,-0.48828125,0.0
1734413397.1631336,-3.41796875,646.97265625,512.20703125,14.16015625,0.0
1734413397.1669848,-14.16015625,358.88671875,28.80859375,-44.43359375,0.0
1734413397.1708362,-58.10546875,-337.40234375,-612.3046875,-62.5,0.0
1734413397.1746874,-58.59375,-677.24609375,-562.01171875,-28.80859375,0.0
1734413397.1785388,-48.828125,-260.7421875,68.84765625,4.39453125,0.0
1734413397.18239,-38.57421875,677.734375,536.1328125,-3.90625,0.0
1734413397.1862411,-23.4375,559.5703125,171.875,-26.85546875,0.0
1734413397.1900926,-43.45703125,-389.16015625,-661.1328125,-47.8515625,0.0
1734413397.1939437,-69.3359375,-378.41796875,-554.6875,-51.7578125,0.0
1734413397.1987178,-43.9453125,449.21875,280.2734375,-17.08984375,0.0
1734413397.2025697,-13.18359375,791.50390625,504.39453125,11.71875,0.0
1734413397.2064219,-12.20703125,315.91796875,87.890625,-17.578125,0.0
1734413397.2102737,-53.7109375,-53.7109375,-485.83984375,-79.58984375,0.0
1734413397.2141259,-83.984375,-55.17578125,-534.1796875,-84.47265625,0.0
1734413397.2179778,-46.875,-14.16015625,-70.3125,-26.85546875,0.0
1734413397.22183,-0.48828125,-216.30859375,251.46484375,11.71875,0.0
1734413397.2256818,-13.18359375,93.26171875,256.8359375,-35.15625,0.0
1734413397.229534,-52.734375,224.609375,-353.515625,-89.35546875,0.0
1734413397.2333858,-74.21875,-219.23828125,-678.22265625,-82.51953125,0.0
1734413397.237238,-58.59375,-63.4765625,-120.1171875,-34.1796875,0.0
1734413397.2410898,-25.87890625,527.34375,470.703125,-1.46484375,0.0
1734413397.2458057,-15.13671875,684.08203125,354.4921875,-19.04296875,0.0
1734413397.2496586,-27.83203125,3.90625,-415.0390625,-55.6640625,0.0
1734413397.2535112,-53.7109375,-381.34765625,-672.8515625,-78.61328125,0.0
1734413397.2573638,-54.6875,145.01953125,-118.65234375,-45.41015625,0.0
1734413397.2612164,-7.32421875,583.0078125,445.3125,-6.34765625,0.0
1734413397.2650692,18.06640625,301.26953125,323.73046875,-11.71875,0.0
1734413397.2689219,-9.27734375,-290.0390625,-403.3203125,-47.8515625,0.0
1734413397.2727745,-53.7109375,-475.09765625,-675.78125,-76.171875,0.0
1734413397.276627,-52.734375,77.63671875,-194.82421875,-33.69140625,0.0
1734413397.28048,-13.18359375,138.671875,323.73046875,16.11328125,0.0
1734413397.2843325,-0.9765625,-41.50390625,403.3203125,0.48828125,0.0
1734413397.2881851,-27.83203125,240.72265625,-88.8671875,-52.24609375,0.0
1734413397.292855,-62.98828125,-51.26953125,-618.65234375,-80.56640625,0.0
1734413397.2967083,-65.91796875,-278.80859375,-397.4609375,-50.29296875,0.0
1734413397.3005617,-33.69140625,425.78125,330.56640625,-3.41796875,0.0
1734413397.3044147,-21.97265625,882.8125,524.4140625,-2.44140625,0.0
1734413397.308268,-34.1796875,335.9375,-59.5703125,-38.57421875,0.0
1734413397.3121214,-52.734375,-503.90625,-685.05859375,-81.0546875,0.0
1734413397.3159747,-66.89453125,-555.17578125,-487.3046875,-61.03515625,0.0
1734413397.319828,-56.640625,372.0703125,332.51953125,-1.46484375,0.0
1734413397.3236814,-25.390625,684.5703125,489.2578125,12.20703125,0.0
1734413397.3275347,-33.69140625,-469.23828125,-353.515625,-27.34375,0.0
1734413397.331388,-70.3125,-546.38671875,-710.9375,-73.2421875,0.0
1734413397.3352413,-79.1015625,5.859375,-373.53515625,-62.5,0.0
1734413397.3402157,-50.78125,284.1796875,218.75,-1.953125,0.0
1734413397.34407,-25.390625,610.83984375,515.13671875,12.6953125,0.0
1734413397.347924,-21.484375,508.30078125,157.2265625,-33.203125,0.0
1734413397.351778,-41.9921875,100.5859375,-487.79296875,-80.078125,0.0
1734413397.3556323,-63.4765625,-282.2265625,-586.9140625,-64.453125,0.0
1734413397.3594863,-50.29296875,-117.67578125,18.06640625,-10.25390625,0.0
1734413397.3633406,-19.04296875,312.5,424.8046875,8.30078125,0.0
1734413397.3671947,-6.8359375,172.36328125,92.7734375,-21.484375,0.0
1734413397.371049,-25.390625,-510.7421875,-662.59765625,-54.6875,0.0
1734413397.374903,-57.6171875,-725.5859375,-650.390625,-52.24609375,0.0
1734413397.3787572,-54.6875,260.25390625,132.8125,-22.4609375,0.0
1734413397.3826113,-15.625,839.84375,492.67578125,6.8359375,0.0
1734413397.3871262,5.37109375,357.421875,158.203125,-9.27734375,0.0
1734413397.390981,-23.4375,17.578125,-447.75390625,-56.15234375,0.0
1734413397.3948355,-67.3828125,7.8125,-572.75390625,-69.3359375,0.0
1734413397.3986902,-50.29296875,228.02734375,-45.41015625,-23.4375,0.0
1734413397.4025447,1.46484375,490.72265625,395.5078125,4.39453125,0.0
1734413397.4063995,1.46484375,273.92578125,221.19140625,-27.83203125,0.0
1734413397.410254,-34.66796875,-65.91796875,-425.29296875,-80.56640625,0.0
1734413397.4141088,-62.01171875,-287.109375,-708.49609375,-83.49609375,0.0
1734413397.4179633,-63.4765625,-279.78515625,-198.2421875,-41.50390625,0.0
1734413397.421818,-39.55078125,563.4765625,451.66015625,-23.4375,0.0
1734413397.4256725,-24.90234375,815.4296875,363.76953125,-32.2265625,0.0
1734413397.4295273,-40.52734375,15.13671875,-410.15625,-59.08203125,0.0
1734413397.4340055,-62.98828125,-841.30859375,-872.55859375,-70.3125,0.0
1734413397.4378605,-59.5703125,-189.453125,-267.578125,-46.875,0.0
1734413397.4417157,-35.15625,748.53515625,427.24609375,-6.34765625,0.0
1734413397.4455707,-17.08984375,612.3046875,376.46484375,0.0,0.0
1734413397.449426,-21.484375,151.3671875,-166.015625,-34.66796875,0.0
1734413397.453281,-57.12890625,-359.86328125,-663.0859375,-61.03515625,0.0
1734413397.4571362,-62.01171875,-308.10546875,-410.64453125,-34.1796875,0.0
1734413397.4609911,-8.7890625,-51.26953125,212.890625,18.5546875,0.0
1734413397.4648464,10.7421875,-36.1328125,374.0234375,-4.39453125,0.0
1734413397.4687014,-22.4609375,343.75,-28.80859375,-61.5234375,0.0
1734413397.4725566,-53.7109375,88.8671875,-617.67578125,-72.75390625,0.0
1734413397.4764116,-63.96484375,-294.43359375,-533.203125,-51.7578125,0.0
1734413397.4808376,0.0,381.34765625,269.53125,-10.7421875,0.0
1734413397.484693,0.0,927.734375,544.921875,7.8125,0.0
1734413397.4885485,0.0,352.05078125,-52.734375,-31.25,0.0
1734413397.492404,0.0,-360.83984375,-623.53515625,-83.0078125,0.0
1734413397.4962597,0.0,-161.1328125,-470.21484375,-78.61328125,0.0
1734413397.5001152,0.0,243.65234375,138.671875,-20.99609375,0.0
1734413397.5039706,0.0,336.42578125,405.76171875,-2.9296875,0.0
1734413397.507826,0.0,-371.09375,-244.62890625,-29.78515625,0.0
1734413397.5116818,0.0,-436.5234375,-670.8984375,-75.1953125,0.0
1734413397.5155373,0.0,34.66796875,-463.8671875,-89.84375,0.0
1734413397.5193927,0.0,280.76171875,98.14453125,-35.64453125,0.0
1734413397.5232482,0.0,590.33203125,487.3046875,-11.23046875,0.0
1734413397.527612,-20.01953125,613.28125,228.515625,-44.43359375,0.0
1734413397.5314677,-50.29296875,201.66015625,-475.5859375,-86.42578125,0.0
1734413397.5353236,-63.4765625,-256.8359375,-650.87890625,-64.94140625,0.0
1734413397.5391796,-48.33984375,113.76953125,5.859375,-17.08984375,0.0
1734413397.5430355,-20.5078125,683.59375,460.9375,-3.90625,0.0
1734413397.5468915,-14.16015625,360.83984375,181.15234375,-23.92578125,0.0
1734413397.5507474,-41.9921875,-352.05078125,-558.59375,-65.4296875,0.0
1734413397.554603,-63.4765625,-772.94921875,-752.44140625,-74.21875,0.0
1734413397.558459,-60.05859375,-126.953125,-124.0234375,-32.2265625,0.0
1734413397.562315,-34.66796875,738.28125,462.890625,2.9296875,0.0
1734413397.566171,-16.6015625,333.0078125,186.03515625,-14.6484375,0.0
1734413397.5700269,-30.2734375,-114.74609375,-486.328125,-77.1484375,0.0
1734413397.5747232,-77.63671875,14.6484375,-622.55859375,-92.7734375,0.0
1734413397.57858,-77.63671875,169.921875,-215.8203125,-42.96875,0.0
1734413397.5824363,-31.73828125,355.46875,292.96875,-5.859375,0.0
1734413397.5862927,-18.5546875,581.54296875,345.703125,-24.90234375,0.0
1734413397.5901494,-39.55078125,371.58203125,-312.01171875,-75.68359375,0.0
1734413397.5940058,-69.3359375,-398.92578125,-788.0859375,-88.37890625,0.0
1734413397.5978625,-67.87109375,-895.5078125,-603.515625,-31.73828125,0.0
1734413397.601719,-34.1796875,78.125,243.65234375,-1.46484375,0.0
1734413397.6055753,-12.20703125,775.87890625,441.40625,-14.6484375,0.0
1734413397.609432,-35.15625,48.33984375,-420.41015625,-49.31640625,0.0
1734413397.6132884,-71.2890625,-417.48046875,-787.109375,-92.28515625,0.0
1734413397.6171448,-76.66015625,-23.4375,-350.5859375,-68.84765625,0.0
1734413397.621774,-41.50390625,597.16796875,281.25,-6.34765625,0.0
1734413397.625631,-4.8828125,571.77734375,374.0234375,1.953125,0.0
1734413397.6294882,-14.16015625,188.4765625,-138.671875,-35.15625,0.0
1734413397.6333451,-49.31640625,-4.39453125,-627.44140625,-68.84765625,0.0
1734413397.6372023,-67.87109375,-17.578125,-441.40625,-61.03515625,0.0
1734413397.6410594,-29.78515625,151.3671875,136.71875,-11.23046875,0.0
1734413397.6449163,4.39453125,204.58984375,356.4453125,8.30078125,0.0
1734413397.6487734,-26.85546875,136.71875,-59.5703125,-34.66796875,0.0
1734413397.6526306,-66.40625,51.26953125,-586.9140625,-78.61328125,0.0
1734413397.6564875,-73.73046875,-473.6328125,-666.50390625,-54.6875,0.0
1734413397.6603446,-46.38671875,-320.3125,-63.4765625,0.9765625,0.0
1734413397.6642017,-21.484375,571.77734375,487.79296875,-3.90625,0.0
1734413397.668775,-23.4375,316.89453125,22.4609375,-44.43359375,0.0
1734413397.6726327,-48.33984375,-321.2890625,-667.96875,-73.73046875,0.0
1734413397.6764903,-66.40625,-130.859375,-534.1796875,-72.75390625,0.0
1734413397.680348,-38.0859375,520.01953125,185.05859375,-28.80859375,0.0
1734413397.6842055,5.859375,788.0859375,483.88671875,6.34765625,0.0
1734413397.6880631,11.71875,182.6171875,25.87890625,-17.08984375,0.0
1734413397.6919205,-33.203125,-359.375,-607.91015625,-74.21875,0.0
1734413397.6957781,-73.73046875,-83.0078125,-550.29296875,-75.1953125,0.0
1734413397.6996357,-56.640625,245.1171875,20.5078125,-21.484375,0.0
1734413397.7034934,-13.18359375,-117.67578125,289.55078125,11.71875,0.0
1734413397.707351,-10.25390625,194.82421875,248.53515625,-19.04296875,0.0
1734413397.7112086,-40.0390625,339.35546875,-362.3046875,-65.91796875,0.0
1734413397.71574,-50.29296875,-161.1328125,-670.8984375,-70.80078125,0.0
1734413397.719598,-49.8046875,97.16796875,-85.44921875,-29.296875,0.0
1734413397.7234561,-24.90234375,795.41015625,496.58203125,4.39453125,0.0
1734413397.727314,-4.8828125,685.05859375,327.1484375,-7.8125,0.0
1734413397.731172,-31.73828125,-45.41015625,-418.9453125,-51.7578125,0.0
1734413397.7350302,-65.4296875,-501.46484375,-716.30859375,-62.01171875,0.0
1734413397.7388883,-54.6875,-247.0703125,-224.609375,-12.20703125,0.0
1734413397.7427464,-5.37109375,413.57421875,410.64453125,33.69140625,0.0
1734413397.7466044,10.25390625,236.328125,302.734375,18.5546875,0.0
1734413397.7504623,-26.85546875,-382.32421875,-389.6484375,-30.2734375,0.0
1734413397.7543204,-67.87109375,-61.5234375,-594.23828125,-56.640625,0.0
1734413397.7581785,-53.22265625,312.5,-158.203125,-0.48828125,0.0
1734413397.7626472,-15.13671875,457.51953125,380.37109375,35.64453125,0.0
1734413397.7665057,-10.7421875,731.93359375,480.95703125,1.953125,0.0
1734413397.7703643,-29.78515625,596.19140625,-56.640625,-41.015625,0.0
1734413397.7742226,-47.36328125,36.62109375,-593.75,-70.3125,0.0
1734413397.7780812,-52.24609375,-174.31640625,-302.24609375,-41.015625,0.0
1734413397.7819395,-21.97265625,256.34765625,336.9140625,4.39453125,0.0
1734413397.785798,3.41796875,502.44140625,478.02734375,8.7890625,0.0
1734413397.7896566,-10.25390625,62.98828125,-103.515625,-27.34375,0.0
1734413397.793515,-31.25,-782.71484375,-796.38671875,-69.3359375,0.0
1734413397.7973735,-49.31640625,-308.59375,-374.0234375,-59.08203125,0.0
1734413397.8012319,-24.90234375,736.328125,403.3203125,0.9765625,0.0
1734413397.8050904,14.16015625,833.0078125,499.51171875,20.99609375,0.0
1734413397.8095036,8.7890625,479.4921875,151.3671875,-17.08984375,0.0
1734413397.8133624,-22.94921875,173.33984375,-450.1953125,-66.40625,0.0
1734413397.8172212,-42.48046875,138.671875,-391.6015625,-54.6875,0.0
1734413397.82108,-15.625,438.4765625,264.6484375,8.7890625,0.0
1734413397.824939,2.9296875,674.31640625,525.390625,23.4375,0.0
1734413397.8287978,-8.30078125,341.796875,105.46875,-6.8359375,0.0
1734413397.8326566,-37.109375,-152.83203125,-551.26953125,-41.50390625,0.0
1734413397.8365154,-57.6171875,-561.5234375,-617.1875,-42.48046875,0.0
1734413397.8403745,-41.50390625,-290.0390625,-6.34765625,2.9296875,0.0
1734413397.8442333,-12.6953125,727.5390625,531.73828125,19.04296875,0.0
1734413397.848092,-7.32421875,565.4296875,242.1875,-29.78515625,0.0
1734413397.851951,-41.015625,-126.953125,-546.38671875,-73.2421875,0.0
1734413397.856351,-68.84765625,-77.1484375,-536.1328125,-58.59375,0.0
1734413397.86021,-53.7109375,520.01953125,227.5390625,-9.27734375,0.0
1734413397.8640692,-6.8359375,834.9609375,509.27734375,10.25390625,0.0
1734413397.8679285,0.48828125,544.43359375,234.375,-15.13671875,0.0
1734413397.8717878,-34.66796875,235.83984375,-355.95703125,-69.3359375,0.0
1734413397.875647,-57.6171875,-109.86328125,-583.0078125,-71.2890625,0.0
1734413397.879506,-47.36328125,-90.33203125,-135.7421875,-13.671875,0.0
1734413397.8833654,1.953125,-118.65234375,264.16015625,30.76171875,0.0
1734413397.8872247,14.16015625,319.3359375,388.18359375,0.9765625,0.0
1734413397.891084,-25.87890625,499.51171875,-136.71875,-69.3359375,0.0
1734413397.8949432,-55.17578125,-61.5234375,-627.9296875,-84.9609375,0.0
1734413397.8988023,-51.7578125,90.8203125,-127.44140625,-34.1796875,0.0
1734413397.903122,-16.11328125,755.37109375,497.55859375,17.578125,0.0
1734413397.9069815,6.34765625,663.0859375,421.38671875,10.25390625,0.0
1734413397.9108412,-12.6953125,51.26953125,-201.66015625,-50.29296875,0.0
1734413397.9147007,-52.24609375,-162.109375,-578.61328125,-77.1484375,0.0
1734413397.9185603,-61.03515625,116.2109375,-196.2890625,-33.203125,0.0
1734413397.9224198,-26.3671875,416.50390625,390.625,1.953125,0.0
1734413397.9262793,-2.9296875,315.91796875,390.13671875,-4.8828125,0.0
1734413397.9301388,-24.90234375,-124.51171875,-276.85546875,-45.41015625,0.0
1734413397.9339983,-56.15234375,-30.2734375,-595.21484375,-75.68359375,0.0
1734413397.9378579,-63.96484375,274.90234375,-198.2421875,-40.0390625,0.0
1734413397.9417174,-38.0859375,276.3671875,334.47265625,16.11328125,0.0
1734413397.9455771,-9.27734375,516.11328125,472.16796875,8.30078125,0.0
1734413397.9501936,-19.53125,670.41015625,74.70703125,-36.62109375,0.0
1734413397.9540539,-47.36328125,122.55859375,-544.921875,-64.94140625,0.0
1734413397.9579139,-67.3828125,-170.8984375,-379.39453125,-41.50390625,0.0
1734413397.9617739,-42.96875,489.2578125,349.12109375,4.8828125,0.0
1734413397.9656339,-6.8359375,774.4140625,504.8828125,18.5546875,0.0
1734413397.969494,-17.578125,163.57421875,-23.4375,-20.5078125,0.0
1734413397.973354,-45.8984375,-745.60546875,-753.41796875,-52.24609375,0.0
1734413397.977214,-67.3828125,-374.0234375,-420.8984375,-50.29296875,0.0
1734413397.981074,-52.734375,657.2265625,379.39453125,-8.7890625,0.0
1734413397.9849343,-7.32421875,867.1875,541.9921875,20.5078125,0.0
1734413397.9887943,-3.41796875,523.92578125,242.67578125,-12.6953125,0.0
1734413397.9926543,-39.0625,159.1796875,-432.6171875,-69.82421875,0.0
1734413397.9968913,-62.01171875,81.54296875,-446.2890625,-51.26953125,0.0
1734413398.0007515,-54.6875,295.8984375,225.09765625,2.9296875,0.0
1734413398.004612,-13.671875,619.62890625,527.34375,5.859375,0.0
1734413398.0084722,-2.9296875,750.9765625,303.22265625,-24.4140625,0.0
1734413398.0123324,-38.57421875,202.63671875,-416.015625,-54.19921875,0.0
1734413398.016193,-66.40625,-454.1015625,-641.11328125,-64.94140625,0.0
1734413398.0200531,-51.7578125,-208.984375,-19.53125,-26.85546875,0.0
1734413398.0239134,-3.90625,361.81640625,475.5859375,20.01953125,0.0
1734413398.0277739,-8.30078125,528.3203125,337.890625,3.41796875,0.0
1734413398.031634,-39.55078125,-203.61328125,-524.4140625,-61.5234375,0.0
1734413398.0354943,-65.4296875,-711.9140625,-683.59375,-80.56640625,0.0
1734413398.0393548,-65.91796875,236.81640625,109.86328125,-20.99609375,0.0
1734413398.0438855,-17.578125,818.84765625,495.1171875,28.80859375,0.0
1734413398.0477462,2.44140625,490.72265625,301.7578125,-3.90625,0.0
1734413398.051607,-30.76171875,199.70703125,-247.0703125,-52.734375,0.0
1734413398.0554678,-64.453125,87.40234375,-550.78125,-67.3828125,0.0
1734413398.0593286,-52.24609375,181.640625,-81.0546875,-17.578125,0.0
1734413398.0631893,-4.8828125,248.046875,341.30859375,36.1328125,0.0
1734413398.06705,6.34765625,374.51171875,359.86328125,1.953125,0.0
1734413398.0709107,-20.99609375,422.8515625,-89.35546875,-51.7578125,0.0
1734413398.0747716,-53.7109375,-94.23828125,-626.953125,-66.40625,0.0
1734413398.0786324,-47.36328125,-605.46875,-436.03515625,-38.0859375,0.0
1734413398.082493,-18.5546875,282.71484375,333.49609375,0.48828125,0.0
1734413398.0863538,-3.41796875,605.95703125,447.265625,1.953125,0.0
1734413398.0908537,-12.20703125,14.16015625,-199.70703125,-38.57421875,0.0
1734413398.0947149,-51.7578125,-215.33203125,-632.32421875,-80.078125,0.0
1734413398.098576,-62.5,89.35546875,-237.79296875,-50.29296875,0.0
1734413398.1024373,-13.671875,652.34375,391.11328125,-0.48828125,0.0
1734413398.1062984,0.9765625,644.53125,433.10546875,3.41796875,0.0
1734413398.1101596,-25.87890625,0.48828125,-142.08984375,-37.59765625,0.0
1734413398.1140208,-49.8046875,-470.21484375,-694.82421875,-76.171875,0.0
1734413398.117882,-70.3125,-139.6484375,-363.28125,-67.3828125,0.0
1734413398.1217432,-49.8046875,93.75,267.08984375,-14.6484375,0.0
1734413398.1256044,-26.3671875,42.96875,412.59765625,-10.25390625,0.0
1734413398.1294656,-48.828125,454.58984375,93.75,-61.5234375,0.0
1734413398.1333268,-93.26171875,119.62890625,-560.05859375,-107.91015625,0.0
1734413398.1377623,-113.76953125,-347.65625,-584.47265625,-97.16796875,0.0
1734413398.141624,-89.84375,204.58984375,203.125,-51.26953125,0.0
1734413398.1454854,-83.0078125,604.4921875,520.99609375,-63.4765625,0.0
1734413398.149347,-104.4921875,392.578125,125.0,-115.72265625,0.0
1734413398.1532085,-153.3203125,-196.2890625,-523.4375,-172.36328125,0.0
1734413398.1570702,-181.15234375,-518.5546875,-630.859375,-183.59375,0.0
1734413398.1609316,-166.50390625,45.41015625,50.78125,-140.625,0.0
1734413398.1647933,-136.23046875,641.6015625,497.0703125,-118.1640625,0.0
1734413398.1686547,-124.51171875,-195.3125,-135.7421875,-131.8359375,0.0
1734413398.1725163,-161.62109375,-410.64453125,-629.39453125,-180.6640625,0.0
1734413398.176378,-187.01171875,22.4609375,-497.0703125,-196.77734375,0.0
1734413398.1802394,-155.2734375,143.5546875,7.32421875,-156.73828125,0.0
1734413398.1846316,-119.140625,530.2734375,482.421875,-123.046875,0.0
1734413398.1884935,-107.421875,730.95703125,329.58984375,-131.34765625,0.0
1734413398.1923554,-130.37109375,265.13671875,-394.04296875,-166.50390625,0.0
1734413398.1962173,-163.57421875,-228.02734375,-636.71875,-167.48046875,0.0
1734413398.2000792,-151.85546875,-89.35546875,-110.83984375,-118.1640625,0.0
1734413398.203941,-103.515625,345.703125,415.52734375,-73.73046875,0.0
1734413398.207803,-87.890625,373.53515625,301.7578125,-89.35546875,0.0
1734413398.211665,-94.7265625,-323.73046875,-505.37109375,-117.1875,0.0
1734413398.2155268,-114.2578125,-724.609375,-724.12109375,-117.67578125,0.0
1734413398.2193887,-115.234375,79.1015625,-80.078125,-74.21875,0.0
1734413398.2232506,-45.8984375,760.25390625,450.68359375,-2.9296875,0.0
1734413398.2271125,-2.9296875,488.76953125,385.7421875,6.8359375,0.0
1734413398.231462,-28.80859375,167.96875,-161.1328125,-42.48046875,0.0
1734413398.2353241,-34.1796875,102.5390625,-562.98828125,-47.36328125,0.0
1734413398.2391863,-21.97265625,104.00390625,-276.85546875,-8.30078125,0.0
1734413398.2430487,-9.765625,136.71875,237.79296875,25.87890625,0.0
1734413398.2469108,21.484375,548.33984375,445.80078125,30.2734375,0.0
1734413398.250773,19.04296875,223.6328125,-163.0859375,3.41796875,0.0
1734413398.2546353,-9.27734375,-467.28515625,-729.00390625,-26.85546875,0.0
1734413398.2584975,-5.37109375,-787.109375,-557.6171875,12.6953125,0.0
1734413398.2623596,21.484375,-83.49609375,233.3984375,66.40625,0.0
1734413398.266222,41.9921875,770.01953125,537.59765625,52.734375,0.0
1734413398.2700841,29.296875,431.640625,-73.73046875,24.4140625,0.0
1734413398.2739463,2.9296875,-106.93359375,-618.65234375,-7.32421875,0.0
1734413398.2782774,-0.48828125,63.96484375,-341.30859375,7.32421875,0.0
1734413398.28214,25.390625,571.77734375,321.77734375,67.87109375,0.0
1734413398.2860024,53.22265625,661.1328125,479.98046875,64.453125,0.0
1734413398.289865,38.57421875,363.76953125,48.33984375,5.859375,0.0
1734413398.2937274,5.859375,-76.66015625,-593.75,-15.625,0.0
1734413398.29759,-8.30078125,-352.05078125,-559.5703125,9.27734375,0.0
1734413398.3014526,15.625,-187.98828125,69.82421875,63.96484375,0.0
1734413398.305315,49.31640625,26.85546875,435.05859375,65.4296875,0.0
1734413398.3091776,40.52734375,443.359375,206.54296875,-0.48828125,0.0
1734413398.31304,7.8125,209.47265625,-486.328125,-40.0390625,0.0
1734413398.3169026,-18.5546875,-294.43359375,-613.76953125,-27.83203125,0.0
1734413398.320765,-6.34765625,88.37890625,136.23046875,27.83203125,0.0
1734413398.3253543,34.66796875,648.92578125,512.6953125,56.15234375,0.0
1734413398.3292174,37.109375,587.890625,222.16796875,16.6015625,0.0
1734413398.3330803,11.23046875,-142.578125,-516.11328125,-26.3671875,0.0
1734413398.3369434,-15.625,-231.93359375,-593.26171875,-18.06640625,0.0
1734413398.3408062,-9.27734375,314.453125,93.75,30.76171875,0.0
1734413398.3446693,34.66796875,469.7265625,427.734375,65.4296875,0.0
1734413398.3485324,59.5703125,-250.0,-85.44921875,36.62109375,0.0
1734413398.3523953,19.53125,-409.66796875,-563.96484375,-32.2265625,0.0
1734413398.3562584,-16.6015625,-82.51953125,-573.73046875,-40.0390625,0.0
1734413398.3601213,-1.953125,43.9453125,-121.58203125,16.11328125,0.0
1734413398.3639843,28.3203125,435.05859375,458.0078125,36.62109375,0.0
1734413398.3678472,27.83203125,684.5703125,375.48828125,20.01953125,0.0
1734413398.3720777,-7.8125,300.78125,-342.28515625,-35.64453125,0.0
1734413398.3759408,-44.921875,-228.515625,-692.3828125,-61.03515625,0.0
1734413398.3798041,-41.9921875,-191.89453125,-215.33203125,-6.8359375,0.0
1734413398.3836672,-4.8828125,327.1484375,395.99609375,30.76171875,0.0
1734413398.3875306,6.8359375,618.1640625,385.7421875,9.27734375,0.0
1734413398.3913937,-6.34765625,-15.625,-371.09375,-32.2265625,0.0
1734413398.395257,-32.2265625,-679.6875,-785.64453125,-54.19921875,0.0
1734413398.39912,-39.55078125,-383.30078125,-316.89453125,-14.6484375,0.0
1734413398.4029834,-10.25390625,579.1015625,426.26953125,33.203125,0.0
1734413398.4068465,15.13671875,366.69921875,358.88671875,20.5078125,0.0
1734413398.4107099,-5.859375,-412.59765625,-361.81640625,-33.203125,0.0
1734413398.414573,-49.31640625,-180.6640625,-634.765625,-49.31640625,0.0
1734413398.419084,-59.08203125,15.13671875,-311.5234375,-27.83203125,0.0
1734413398.422948,-26.3671875,234.375,260.25390625,-4.39453125,0.0
1734413398.4268115,-3.41796875,635.25390625,466.796875,-3.41796875,0.0
1734413398.430675,-16.6015625,534.1796875,-10.7421875,-38.0859375,0.0
1734413398.4345386,-48.828125,-54.19921875,-618.65234375,-77.63671875,0.0
1734413398.4384022,-59.08203125,-593.26171875,-484.86328125,-50.29296875,0.0
1734413398.442266,-39.0625,-118.1640625,204.1015625,-2.9296875,0.0
1734413398.4461296,-14.6484375,591.796875,498.53515625,-5.37109375,0.0
1734413398.4499931,-16.11328125,313.4765625,-10.25390625,-36.62109375,0.0
1734413398.4538567,-35.15625,-723.14453125,-776.85546875,-73.73046875,0.0
1734413398.4577203,-58.10546875,-437.01171875,-496.09375,-69.82421875,0.0
1734413398.461584,-43.45703125,501.953125,300.78125,-19.04296875,0.0
1734413398.4660523,-0.9765625,689.453125,492.1875,1.953125,0.0
1734413398.4699163,3.41796875,392.08984375,158.69140625,-33.203125,0.0
1734413398.4737802,-41.015625,38.0859375,-486.81640625,-67.3828125,0.0
1734413398.4776442,-71.77734375,-87.890625,-521.97265625,-56.640625,0.0
1734413398.4815083,-45.8984375,102.05078125,100.5859375,-15.13671875,0.0
1734413398.4853723,-3.90625,308.59375,424.8046875,13.18359375,0.0
1734413398.489236,0.0,132.8125,140.625,-18.06640625,0.0
1734413398.4931002,-33.69140625,-252.44140625,-515.13671875,-61.5234375,0.0
1734413398.4969642,-49.31640625,-671.875,-741.2109375,-69.82421875,0.0
1734413398.5008283,-44.43359375,-619.140625,-165.0390625,-8.30078125,0.0
1734413398.5046923,-23.4375,499.51171875,500.48828125,20.99609375,0.0
1734413398.5085561,-5.37109375,526.3671875,261.71875,-12.6953125,0.0
1734413398.512967,-35.15625,-203.125,-514.16015625,-51.7578125,0.0
1734413398.5168314,-70.80078125,-192.3828125,-623.53515625,-68.84765625,0.0
1734413398.520696,-65.4296875,311.03515625,40.52734375,-33.203125,0.0
1734413398.5245602,-25.87890625,748.53515625,494.140625,16.11328125,0.0
1734413398.5284245,-0.9765625,458.984375,248.53515625,-8.30078125,0.0
1734413398.5322888,-34.1796875,-176.7578125,-429.6875,-58.10546875,0.0
1734413398.536153,-72.265625,-332.51953125,-619.62890625,-58.59375,0.0
1734413398.5400176,-52.734375,45.41015625,-114.2578125,-29.78515625,0.0
1734413398.543882,-8.7890625,-119.140625,253.41796875,17.578125,0.0
1734413398.5477462,-6.8359375,281.73828125,414.0625,1.46484375,0.0
1734413398.5516105,-41.50390625,512.6953125,-54.19921875,-55.17578125,0.0
1734413398.5554748,-61.5234375,-102.5390625,-652.34375,-71.2890625,0.0
1734413398.5598402,-60.546875,-230.46875,-307.12890625,-35.15625,0.0
1734413398.563705,-29.78515625,459.47265625,428.22265625,12.20703125,0.0
1734413398.5675695,-3.41796875,926.26953125,515.625,3.90625,0.0
1734413398.5714343,-22.94921875,352.05078125,-122.0703125,-53.7109375,0.0
1734413398.5752988,-59.5703125,-261.71875,-622.0703125,-81.0546875,0.0
1734413398.5791636,-61.5234375,-292.96875,-338.8671875,-41.015625,0.0
1734413398.583028,-18.06640625,290.52734375,356.93359375,14.6484375,0.0
1734413398.5868928,10.25390625,324.70703125,412.59765625,20.99609375,0.0
1734413398.5907574,-19.04296875,-303.22265625,-227.05078125,-27.83203125,0.0
1734413398.5946221,-54.19921875,-102.05078125,-565.4296875,-62.98828125,0.0
1734413398.5984867,-61.5234375,93.26171875,-298.828125,-45.41015625,0.0
1734413398.6023514,-33.203125,262.20703125,272.94921875,-7.32421875,0.0
1734413398.606677,-2.44140625,740.234375,518.5546875,5.859375,0.0
1734413398.610542,-12.20703125,690.91796875,174.31640625,-15.13671875,0.0
1734413398.614407,-44.43359375,61.5234375,-495.60546875,-49.8046875,0.0
1734413398.6182718,-52.734375,-429.19921875,-507.8125,-51.7578125,0.0
1734413398.6221368,-41.50390625,-4.39453125,184.08203125,1.953125,0.0
1734413398.6260018,-20.01953125,485.3515625,494.140625,20.99609375,0.0
1734413398.6298666,-16.11328125,198.2421875,115.234375,-15.625,0.0
1734413398.6337316,-41.015625,-687.98828125,-682.12890625,-42.96875,0.0
1734413398.6375966,-67.87109375,-477.5390625,-525.390625,-39.0625,0.0
1734413398.6414614,-56.640625,551.7578125,310.05859375,-15.13671875,0.0
1734413398.6453264,-7.32421875,819.3359375,531.73828125,18.5546875,0.0
1734413398.6491914,7.32421875,544.921875,285.15625,-18.06640625,0.0
1734413398.6534672,-41.015625,217.7734375,-380.859375,-70.80078125,0.0
1734413398.6573324,-68.84765625,9.27734375,-542.48046875,-65.4296875,0.0
1734413398.6611974,-50.29296875,171.38671875,61.5234375,-28.80859375,0.0
1734413398.6650627,-17.578125,666.015625,521.484375,3.41796875,0.0
1734413398.668928,-8.30078125,689.453125,342.7734375,-21.97265625,0.0
1734413398.672793,-30.76171875,-18.5546875,-420.41015625,-56.640625,0.0
1734413398.6766582,-64.94140625,-664.55078125,-741.2109375,-49.8046875,0.0
1734413398.6805234,-64.94140625,-600.5859375,-187.5,-10.7421875,0.0
1734413398.6843884,-29.296875,452.63671875,506.34765625,11.71875,0.0
1734413398.6882536,-6.8359375,849.609375,433.59375,-5.859375,0.0
1734413398.692119,-23.92578125,31.25,-423.828125,-53.22265625,0.0
1734413398.6959841,-56.640625,-274.4140625,-664.0625,-75.1953125,0.0
1734413398.7005265,-63.4765625,280.76171875,-16.11328125,-33.69140625,0.0
1734413398.704392,-35.15625,706.54296875,448.73046875,0.48828125,0.0
1734413398.7082577,-5.859375,500.0,362.3046875,-11.23046875,0.0
1734413398.7121232,-27.34375,241.2109375,-118.65234375,-53.22265625,0.0
1734413398.7159886,-71.2890625,23.92578125,-562.01171875,-78.61328125,0.0
1734413398.7198544,-70.3125,-164.0625,-328.61328125,-38.0859375,0.0
1734413398.7237198,-26.3671875,-282.2265625,163.0859375,6.34765625,0.0
1734413398.7275856,-5.37109375,322.75390625,442.87109375,-11.71875,0.0
1734413398.731451,-26.3671875,604.4921875,22.94921875,-46.38671875,0.0
1734413398.7353165,-58.59375,-121.58203125,-644.04296875,-72.75390625,0.0
1734413398.7391822,-71.77734375,-450.68359375,-395.01953125,-45.41015625,0.0
1734413398.7430477,-31.73828125,410.15625,385.7421875,19.04296875,0.0
1734413398.747253,4.39453125,944.3359375,530.76171875,21.484375,0.0
1734413398.7511187,-16.6015625,381.34765625,-48.828125,-32.2265625,0.0
1734413398.7549844,-53.7109375,-197.265625,-610.3515625,-69.82421875,0.0
1734413398.7588503,-65.4296875,9.27734375,-341.30859375,-42.48046875,0.0
1734413398.762716,-37.59765625,522.94921875,339.35546875,14.16015625,0.0
1734413398.7665818,2.44140625,511.23046875,473.6328125,19.04296875,0.0
1734413398.7704475,-14.16015625,58.59375,-14.16015625,-39.55078125,0.0
1734413398.7743134,-53.7109375,-257.32421875,-562.98828125,-85.44921875,0.0
1734413398.7781792,-62.01171875,13.18359375,-396.97265625,-66.40625,0.0
1734413398.782045,-47.36328125,74.70703125,194.82421875,-5.37109375,0.0
1734413398.7859106,-4.8828125,107.421875,461.9140625,11.71875,0.0
1734413398.7897766,-1.953125,580.078125,250.9765625,-21.97265625,0.0
1734413398.794255,-52.734375,207.51953125,-445.3125,-52.734375,0.0
1734413398.798121,-74.70703125,-449.21875,-627.44140625,-51.7578125,0.0
1734413398.8019872,-60.05859375,112.3046875,149.90234375,-12.20703125,0.0
1734413398.8058534,-26.85546875,918.9453125,571.77734375,6.34765625,0.0
1734413398.8097196,-19.53125,684.5703125,247.55859375,-23.4375,0.0
1734413398.8135858,-43.45703125,-395.5078125,-531.25,-64.453125,0.0
1734413398.8174517,-68.359375,-587.40234375,-608.88671875,-66.89453125,0.0
1734413398.821318,-61.5234375,391.6015625,141.6015625,-14.6484375,0.0
1734413398.825184,-16.6015625,711.9140625,493.1640625,9.27734375,0.0
1734413398.8290503,-7.8125,-41.9921875,49.8046875,-18.06640625,0.0
1734413398.8329163,-38.57421875,-81.0546875,-456.0546875,-59.08203125,0.0
1734413398.8367825,-69.3359375,42.96875,-541.50390625,-75.1953125,0.0
1734413398.8412013,-67.87109375,77.63671875,-67.3828125,-31.73828125,0.0
1734413398.8450677,-20.99609375,508.7890625,479.98046875,11.23046875,0.0
1734413398.8489342,-4.39453125,722.65625,407.71484375,-7.32421875,0.0
1734413398.8528006,-35.15625,302.24609375,-300.29296875,-68.84765625,0.0
1734413398.856667,-62.98828125,-350.5859375,-688.96484375,-76.171875,0.0
1734413398.8605335,-63.96484375,-350.09765625,-272.4609375,-22.94921875,0.0
1734413398.8644001,-26.85546875,214.84375,361.81640625,1.953125,0.0
1734413398.8682666,-17.08984375,425.29296875,416.50390625,-16.11328125,0.0
1734413398.872133,-41.9921875,-187.98828125,-313.96484375,-48.828125,0.0
1734413398.8759995,-66.40625,-710.9375,-708.49609375,-71.2890625,0.0
1734413398.879866,-74.70703125,44.921875,-148.92578125,-48.33984375,0.0
1734413398.8837323,-25.87890625,723.6328125,433.59375,10.25390625,0.0
1734413398.888097,-3.41796875,581.54296875,417.48046875,18.5546875,0.0
1734413398.891964,-37.109375,339.84375,-59.5703125,-39.0625,0.0
1734413398.8958306,-52.734375,70.3125,-568.359375,-66.89453125,0.0
1734413398.8996973,-62.01171875,26.3671875,-323.2421875,-36.1328125,0.0
1734413398.9035642,-44.43359375,329.58984375,291.9921875,8.7890625,0.0
1734413398.907431,-13.18359375,434.08203125,438.96484375,14.16015625,0.0
1734413398.9112976,-26.3671875,217.28515625,-25.390625,-42.48046875,0.0
1734413398.9151645,-62.5,-140.13671875,-638.671875,-81.54296875,0.0
1734413398.9190311,-70.3125,-809.5703125,-636.23046875,-44.921875,0.0
1734413398.9228978,-51.7578125,53.22265625,245.1171875,-8.7890625,0.0
1734413398.9267647,-28.80859375,945.3125,568.84765625,-17.578125,0.0
1734413398.9306314,-22.94921875,318.359375,-23.92578125,-49.8046875,0.0
1734413398.9349685,-64.453125,-243.65234375,-604.98046875,-78.125,0.0
1734413398.9388354,-98.14453125,-53.22265625,-407.71484375,-72.75390625,0.0
1734413398.9427025,-63.96484375,498.53515625,270.01953125,-28.80859375,0.0
1734413398.9465694,-27.34375,700.68359375,483.3984375,4.39453125,0.0
1734413398.9504366,-31.73828125,357.91015625,149.90234375,-34.66796875,0.0
1734413398.9543035,-51.26953125,-318.84765625,-576.171875,-78.125,0.0
1734413398.9581707,-78.125,-431.640625,-624.0234375,-69.3359375,0.0
1734413398.9620376,-60.05859375,-187.5,11.71875,-11.71875,0.0
1734413398.9659047,-20.5078125,4.8828125,408.203125,12.6953125,0.0
1734413398.9697716,-31.25,550.78125,309.08203125,-36.62109375,0.0
1734413398.9736388,-62.98828125,220.21484375,-436.03515625,-85.44921875,0.0
1734413398.9775057,-84.47265625,-423.828125,-684.5703125,-75.1953125,0.0
1734413398.981811,-60.546875,127.44140625,67.3828125,-27.83203125,0.0
1734413398.9856784,-34.66796875,916.50390625,570.3125,-22.4609375,0.0
1734413398.9895456,-33.203125,735.3515625,319.82421875,-51.26953125,0.0
1734413398.993413,-53.22265625,-56.640625,-425.29296875,-82.51953125,0.0
1734413398.9972801,-76.171875,-225.5859375,-625.0,-89.35546875,0.0
1734413399.0011475,-70.3125,21.97265625,-62.5,-43.9453125,0.0
1734413399.0050147,-26.85546875,285.15625,425.29296875,-0.48828125,0.0
1734413399.008882,-3.41796875,-116.2109375,93.26171875,1.953125,0.0
1734413399.0127494,-37.59765625,-238.28125,-439.453125,-58.59375,0.0
1734413399.0166166,-59.08203125,32.71484375,-551.7578125,-91.30859375,0.0
1734413399.020484,-49.31640625,86.9140625,-166.50390625,-52.24609375,0.0
1734413399.0243511,-22.4609375,470.21484375,430.6640625,-12.6953125,0.0
1734413399.0286214,-2.9296875,801.7578125,498.53515625,-11.23046875,0.0
1734413399.0324888,-32.2265625,375.9765625,-185.05859375,-51.7578125,0.0
1734413399.0363564,-73.2421875,-290.52734375,-682.6171875,-77.1484375,0.0
1734413399.0402238,-81.54296875,-91.796875,-230.95703125,-50.78125,0.0
1734413399.0440915,-43.45703125,532.71484375,407.71484375,-5.859375,0.0
1734413399.0479589,-7.8125,517.08984375,442.3828125,-14.16015625,0.0
1734413399.0518265,-18.5546875,-178.22265625,-215.8203125,-46.875,0.0
1734413399.0556939,-42.96875,-701.66015625,-679.6875,-66.40625,0.0
1734413399.0595615,-59.08203125,-66.89453125,-247.55859375,-48.828125,0.0
1734413399.0634289,-29.296875,603.02734375,373.53515625,-5.37109375,0.0
1734413399.0672965,5.859375,519.04296875,496.58203125,8.7890625,0.0
1734413399.071164,-8.30078125,259.765625,25.390625,-32.2265625,0.0
1734413399.075686,-54.6875,66.89453125,-547.8515625,-69.82421875,0.0
1734413399.0795538,-80.56640625,-20.01953125,-372.55859375,-46.38671875,0.0
1734413399.083422,-41.50390625,125.9765625,220.21484375,-3.41796875,0.0
1734413399.0872898,-5.859375,635.7421875,492.1875,-0.48828125,0.0
1734413399.0911577,-18.06640625,580.078125,137.6953125,-35.64453125,0.0
1734413399.0950255,-39.55078125,-312.5,-593.75,-59.5703125,0.0
1734413399.0988934,-50.29296875,-926.7578125,-710.44921875,-37.59765625,0.0
1734413399.1027613,-45.8984375,-131.8359375,125.0,1.46484375,0.0
1734413399.1066291,-20.5078125,903.80859375,597.65625,0.0,0.0
1734413399.110497,-12.20703125,580.078125,189.453125,-34.66796875,0.0
1734413399.1143649,-45.8984375,-146.97265625,-499.0234375,-50.29296875,0.0
1734413399.1182327,-74.70703125,-86.9140625,-462.890625,-53.22265625,0.0
1734413399.1224253,-53.22265625,449.21875,245.60546875,-4.8828125,0.0
1734413399.1262934,-16.6015625,675.78125,519.04296875,23.4375,0.0
1734413399.1301615,-12.6953125,452.63671875,267.578125,-26.85546875,0.0
1734413399.1340296,-27.83203125,131.8359375,-396.484375,-60.05859375,0.0
1734413399.1378977,-49.8046875,-153.80859375,-603.02734375,-50.78125,0.0
1734413399.1417656,-43.9453125,-120.60546875,-72.75390625,-16.11328125,0.0
1734413399.1456337,-9.765625,213.37890625,426.7578125,0.0,0.0
1734413399.1495018,-8.7890625,282.71484375,297.8515625,-16.11328125,0.0
1734413399.15337,-42.48046875,75.1953125,-372.0703125,-54.6875,0.0
1734413399.157238,-64.94140625,-582.03125,-733.3984375,-58.59375,0.0
1734413399.161106,-54.6875,-462.890625,-165.52734375,-15.625,0.0
1734413399.164974,-15.625,694.3359375,547.8515625,9.27734375,0.0
1734413399.1694086,-6.8359375,785.15625,403.3203125,1.46484375,0.0
1734413399.173277,-27.34375,-197.75390625,-502.9296875,-36.62109375,0.0
1734413399.1771452,-60.05859375,-388.18359375,-701.66015625,-66.89453125,0.0
1734413399.1810136,-75.1953125,190.4296875,-73.73046875,-46.38671875,0.0
1734413399.184882,-38.0859375,602.05078125,428.22265625,-7.32421875,0.0
1734413399.1887505,-15.13671875,203.125,256.34765625,-14.16015625,0.0
1734413399.1926188,-48.828125,-220.21484375,-362.79296875,-65.91796875,0.0
1734413399.1964872,-77.63671875,-73.2421875,-600.5859375,-96.6796875,0.0
1734413399.2003555,-67.3828125,-34.66796875,-282.2265625,-57.12890625,0.0
1734413399.2042239,-32.2265625,-214.84375,166.50390625,-5.859375,0.0
1734413399.2080922,-6.8359375,412.59765625,453.61328125,-20.01953125,0.0
1734413399.2119606,-22.4609375,431.15234375,-55.6640625,-62.01171875,0.0
1734413399.2163386,-53.7109375,-391.6015625,-693.359375,-86.9140625,0.0
1734413399.2202072,-70.3125,-266.11328125,-336.42578125,-62.01171875,0.0
1734413399.224076,-43.45703125,561.03515625,397.4609375,-17.578125,0.0
1734413399.2279446,-6.34765625,892.578125,510.25390625,-19.04296875,0.0
1734413399.2318132,-13.671875,197.265625,-141.6015625,-54.19921875,0.0
1734413399.235682,-54.19921875,-528.3203125,-698.2421875,-73.73046875,0.0
1734413399.2395506,-75.68359375,-472.16796875,-443.84765625,-44.921875,0.0
1734413399.2434192,-44.921875,274.4140625,303.22265625,-17.08984375,0.0
1734413399.247288,-3.90625,400.390625,444.82421875,-2.44140625,0.0
1734413399.2511566,-9.27734375,-272.94921875,-153.3203125,-25.87890625,0.0
1734413399.2550251,-42.96875,-96.6796875,-553.22265625,-80.078125,0.0
1734413399.258894,-62.5,63.4765625,-374.0234375,-60.05859375,0.0
1734413399.2632425,-33.203125,185.05859375,223.6328125,13.671875,0.0
1734413399.2671113,-7.32421875,690.4296875,539.55078125,6.8359375,0.0
1734413399.2709804,-21.97265625,674.8046875,232.421875,-41.015625,0.0
1734413399.2748492,-45.41015625,-105.95703125,-501.953125,-80.56640625,0.0
1734413399.278718,-75.68359375,-453.125,-519.53125,-67.87109375,0.0
1734413399.282587,-61.03515625,-82.51953125,82.51953125,-20.99609375,0.0
1734413399.2864559,-20.01953125,499.0234375,480.46875,-5.37109375,0.0
1734413399.290325,-16.11328125,504.8828125,266.11328125,-24.4140625,0.0
1734413399.2941937,-40.0390625,-652.34375,-628.41796875,-60.05859375,0.0
1734413399.2980628,-74.21875,-539.0625,-591.30859375,-74.70703125,0.0
1734413399.3019316,-60.05859375,413.57421875,166.50390625,-17.578125,0.0
1734413399.3058007,-27.83203125,675.29296875,500.0,14.16015625,0.0
1734413399.3101199,-32.2265625,495.1171875,343.75,-38.0859375,0.0
1734413399.313989,-50.78125,190.91796875,-332.03125,-94.7265625,0.0
1734413399.3178582,-73.2421875,-15.13671875,-549.8046875,-89.35546875,0.0
1734413399.3217273,-56.15234375,106.93359375,-20.99609375,-31.73828125,0.0
1734413399.3255966,-15.625,518.06640625,456.54296875,10.25390625,0.0
1734413399.3294656,-10.7421875,396.484375,325.68359375,-5.859375,0.0
1734413399.333335,-32.71484375,-103.02734375,-338.8671875,-56.15234375,0.0
1734413399.337204,-59.08203125,-627.44140625,-727.5390625,-69.82421875,0.0
1734413399.3410733,-55.17578125,-573.73046875,-205.56640625,-28.80859375,0.0
1734413399.3449423,-35.15625,591.796875,531.25,-4.39453125,0.0
1734413399.3488116,-25.87890625,880.859375,464.84375,-22.4609375,0.0
1734413399.3526807,-29.296875,46.38671875,-296.38671875,-63.4765625,0.0
1734413399.3569696,-58.10546875,-195.3125,-623.53515625,-87.40234375,0.0
1734413399.3608391,-70.3125,223.6328125,-117.1875,-55.6640625,0.0
1734413399.3647084,-35.15625,648.92578125,446.77734375,-0.48828125,0.0
1734413399.368578,-4.8828125,554.19921875,440.91796875,11.23046875,0.0
1734413399.3724473,-22.4609375,249.51171875,-57.6171875,-41.9921875,0.0
1734413399.3763165,-55.17578125,-254.39453125,-591.30859375,-69.82421875,0.0
1734413399.380186,-61.5234375,-380.859375,-358.88671875,-34.66796875,0.0
1734413399.3840554,-33.203125,-292.96875,188.4765625,10.7421875,0.0
1734413399.387925,-11.71875,369.140625,492.1875,-7.8125,0.0
1734413399.3917942,-16.6015625,534.66796875,84.47265625,-47.36328125,0.0
1734413399.3956637,-44.921875,-297.8515625,-608.88671875,-69.3359375,0.0
1734413399.399533,-69.82421875,-247.55859375,-346.6796875,-51.7578125,0.0
1734413399.4037783,-36.1328125,565.91796875,404.78515625,2.44140625,0.0
1734413399.4076478,4.39453125,956.0546875,575.68359375,5.859375,0.0
1734413399.4115174,-15.13671875,398.92578125,45.41015625,-30.2734375,0.0
1734413399.415387,-65.4296875,-126.46484375,-524.4140625,-71.2890625,0.0
1734413399.4192567,-80.56640625,-69.82421875,-353.515625,-65.4296875,0.0
1734413399.4231262,-48.33984375,194.82421875,235.83984375,-8.7890625,0.0
1734413399.4269958,-13.18359375,228.02734375,450.68359375,14.6484375,0.0
1734413399.4308655,-19.04296875,-151.85546875,134.27734375,-22.94921875,0.0
1734413399.434735,-61.5234375,-18.06640625,-405.2734375,-71.77734375,0.0
1734413399.4386046,-80.56640625,64.94140625,-446.77734375,-71.2890625,0.0
1734413399.4424744,-48.828125,86.9140625,146.97265625,-9.27734375,0.0
1734413399.446344,-17.08984375,609.86328125,542.48046875,14.6484375,0.0
1734413399.4508178,-13.18359375,720.703125,318.359375,-22.4609375,0.0
1734413399.4546876,-42.96875,-101.5625,-470.703125,-63.96484375,0.0
1734413399.4585576,-73.73046875,-507.8125,-625.9765625,-58.59375,0.0
1734413399.4624276,-60.05859375,213.8671875,135.25390625,-20.99609375,0.0
1734413399.4662976,-33.203125,881.34765625,569.82421875,0.9765625,0.0
1734413399.4701674,-16.11328125,435.05859375,285.15625,-4.39453125,0.0
1734413399.4740374,-19.04296875,-645.99609375,-566.40625,-50.29296875,0.0
1734413399.4779074,-72.265625,-524.4140625,-605.95703125,-77.63671875,0.0
1734413399.4817772,-73.73046875,357.91015625,115.234375,-39.0625,0.0
1734413399.4856472,-18.5546875,699.70703125,506.8359375,9.27734375,0.0
1734413399.4895172,-1.46484375,551.7578125,443.84765625,7.32421875,0.0
1734413399.493387,-29.296875,326.66015625,-120.60546875,-62.01171875,0.0
1734413399.4975576,-57.12890625,95.703125,-514.16015625,-83.49609375,0.0
1734413399.5014277,-50.29296875,80.078125,-108.88671875,-31.25,0.0
1734413399.5052977,-20.01953125,537.59765625,484.86328125,13.18359375,0.0
1734413399.509168,-5.859375,802.734375,493.65234375,5.859375,0.0
1734413399.513038,-30.2734375,147.4609375,-188.4765625,-31.73828125,0.0
1734413399.516908,-58.59375,-535.15625,-680.17578125,-60.546875,0.0
1734413399.5207782,-57.6171875,-435.546875,-286.1328125,-36.62109375,0.0
1734413399.5246482,-32.71484375,206.0546875,389.6484375,16.6015625,0.0
1734413399.5285182,-20.01953125,754.39453125,533.203125,-0.9765625,0.0
1734413399.5323884,-31.25,55.17578125,-163.57421875,-40.52734375,0.0
1734413399.5362585,-64.453125,-720.21484375,-654.296875,-65.91796875,0.0
1734413399.5401285,-83.49609375,4.39453125,-172.36328125,-53.7109375,0.0
1734413399.5445328,-43.45703125,677.734375,431.640625,-12.6953125,0.0
1734413399.548403,-7.32421875,537.109375,467.28515625,-12.20703125,0.0
1734413399.5522735,-24.4140625,356.4453125,95.703125,-47.8515625,0.0
1734413399.5561438,-62.5,195.3125,-436.5234375,-76.171875,0.0
1734413399.5600142,-71.2890625,62.98828125,-334.47265625,-49.8046875,0.0
1734413399.5638845,-40.0390625,12.6953125,208.984375,13.671875,0.0
1734413399.567755,-17.08984375,300.78125,461.42578125,21.484375,0.0
1734413399.5716255,-21.97265625,340.33203125,112.3046875,-31.73828125,0.0
1734413399.5754957,-49.8046875,-305.6640625,-601.07421875,-64.453125,0.0
1734413399.5793662,-68.359375,-804.19921875,-617.1875,-50.29296875,0.0
1734413399.5832365,-50.29296875,128.90625,248.046875,-23.4375,0.0
1734413399.587107,-19.53125,940.4296875,594.23828125,-9.765625,0.0
1734413399.591478,-25.87890625,510.7421875,194.3359375,-41.50390625,0.0
1734413399.5953486,-52.734375,-22.4609375,-455.56640625,-77.1484375,0.0
1734413399.5992193,-59.08203125,0.9765625,-434.08203125,-68.84765625,0.0
1734413399.60309,-49.31640625,478.02734375,267.08984375,-22.4609375,0.0
1734413399.6069605,-22.4609375,643.5546875,497.0703125,5.859375,0.0
1734413399.6108313,-18.5546875,216.796875,202.1484375,-20.01953125,0.0
1734413399.6147017,-47.8515625,-270.5078125,-461.9140625,-65.91796875,0.0
1734413399.6185725,-62.98828125,-368.65234375,-597.65625,-69.3359375,0.0
1734413399.6224432,-40.0390625,-224.609375,-19.04296875,-9.765625,0.0
1734413399.6263137,1.46484375,12.6953125,428.22265625,25.87890625,0.0
1734413399.6301844,-3.41796875,527.34375,323.2421875,-7.8125,0.0
1734413399.6340551,-36.1328125,46.875,-413.0859375,-71.2890625,0.0
1734413399.6383798,-55.6640625,-439.94140625,-658.203125,-91.30859375,0.0
1734413399.6422508,-53.7109375,161.62109375,46.875,-44.43359375,0.0
1734413399.6461215,-26.85546875,851.5625,564.453125,3.41796875,0.0
1734413399.6499925,-11.23046875,727.5390625,398.92578125,-10.7421875,0.0
1734413399.6538632,-39.55078125,23.92578125,-321.2890625,-47.36328125,0.0
1734413399.6577342,-66.89453125,-474.609375,-668.45703125,-66.89453125,0.0
1734413399.6616051,-64.453125,-76.171875,-96.6796875,-44.43359375,0.0
1734413399.6654758,-23.92578125,592.7734375,464.84375,3.41796875,0.0
1734413399.6693468,9.765625,-64.94140625,223.14453125,14.16015625,0.0
1734413399.6732178,-27.83203125,-167.96875,-151.3671875,-44.921875,0.0
1734413399.6770885,-64.94140625,130.859375,-483.88671875,-78.61328125,0.0
1734413399.6809595,-51.26953125,60.546875,-208.0078125,-34.1796875,0.0
1734413399.6852407,-21.484375,479.98046875,458.0078125,0.48828125,0.0
1734413399.689112,-0.48828125,774.90234375,519.04296875,-9.27734375,0.0
1734413399.692983,-2.44140625,176.26953125,-121.09375,-46.38671875,0.0
1734413399.696854,-27.83203125,-386.23046875,-635.25390625,-53.7109375,0.0
1734413399.700725,-41.015625,-197.265625,-272.4609375,-19.04296875,0.0
1734413399.7045963,-29.78515625,233.88671875,354.4921875,8.7890625,0.0
1734413399.7084672,-3.90625,438.96484375,487.3046875,4.8828125,0.0
1734413399.7123384,2.44140625,-76.66015625,-72.265625,-28.80859375,0.0
1734413399.7162094,-35.15625,-684.5703125,-603.515625,-67.3828125,0.0
1734413399.7200806,-64.94140625,-58.59375,-247.55859375,-59.5703125,0.0
1734413399.7239516,-28.80859375,618.65234375,381.8359375,-9.27734375,0.0
1734413399.7278228,19.53125,501.953125,507.32421875,4.39453125,0.0
1734413399.7320755,-1.46484375,357.91015625,194.3359375,-38.0859375,0.0
1734413399.7359467,-29.296875,185.546875,-400.390625,-88.8671875,0.0
1734413399.7398179,-42.96875,-17.578125,-374.51171875,-79.1015625,0.0
1734413399.7436893,-42.96875,154.78515625,246.09375,-15.13671875,0.0
1734413399.7475605,-4.8828125,642.578125,530.76171875,12.6953125,0.0
1734413399.751432,4.39453125,387.6953125,182.6171875,-40.52734375,0.0
1734413399.7553031,-33.203125,-402.34375,-555.6640625,-84.47265625,0.0
1734413399.7591743,-66.40625,-883.30078125,-678.7109375,-53.7109375,0.0
1734413399.7630458,-52.24609375,-93.26171875,206.54296875,-21.97265625,0.0
1734413399.766917,-19.53125,829.1015625,603.515625,-16.11328125,0.0
1734413399.7707882,-26.85546875,536.62109375,263.18359375,-26.3671875,0.0
1734413399.7746596,-55.17578125,-90.33203125,-391.11328125,-60.05859375,0.0
1734413399.7788806,-71.2890625,-104.98046875,-452.63671875,-70.3125,0.0
1734413399.782752,-61.5234375,358.3984375,219.23828125,-26.85546875,0.0
1734413399.7866235,-21.484375,561.03515625,514.16015625,7.32421875,0.0
1734413399.790495,1.953125,469.23828125,379.39453125,-15.13671875,0.0
1734413399.7943666,-28.80859375,107.91015625,-217.28515625,-51.26953125,0.0
1734413399.798238,-62.98828125,-398.4375,-566.40625,-49.31640625,0.0
1734413399.8021095,-53.7109375,-436.03515625,-127.44140625,-9.765625,0.0
1734413399.805981,-28.80859375,-41.9921875,438.96484375,7.8125,0.0
1734413399.8098524,-27.83203125,374.51171875,431.15234375,-25.87890625,0.0
1734413399.8137238,-52.734375,98.6328125,-155.2734375,-70.80078125,0.0
1734413399.8175952,-81.54296875,-443.359375,-617.67578125,-71.2890625,0.0
1734413399.8214667,-74.70703125,-137.6953125,-79.1015625,-39.0625,0.0
1734413399.8259163,-39.0625,694.3359375,565.91796875,-7.8125,0.0
1734413399.829788,-15.13671875,714.35546875,470.703125,-4.8828125,0.0
1734413399.8336596,-22.94921875,-50.29296875,-223.6328125,-43.9453125,0.0
1734413399.8375316,-63.96484375,-301.26953125,-600.5859375,-83.0078125,0.0
1734413399.8414032,-77.1484375,74.70703125,-96.19140625,-52.24609375,0.0
1734413399.845275,-30.2734375,257.8125,405.2734375,2.9296875,0.0
1734413399.8491468,-1.953125,-281.25,260.7421875,8.7890625,0.0
1734413399.8530185,-34.1796875,-316.89453125,-51.7578125,-41.015625,0.0
1734413399.8568904,-72.75390625,-33.203125,-461.42578125,-77.1484375,0.0
1734413399.8607621,-78.61328125,-120.60546875,-271.97265625,-48.828125,0.0
1734413399.8646338,-50.78125,277.83203125,414.0625,-5.37109375,0.0
1734413399.8685057,-20.5078125,589.84375,530.76171875,-1.953125,0.0
1734413399.8726478,-22.94921875,177.24609375,14.16015625,-34.1796875,0.0
1734413399.8765197,-54.19921875,-301.26953125,-593.26171875,-67.87109375,0.0
1734413399.8803916,-71.77734375,-333.0078125,-342.28515625,-45.41015625,0.0
1734413399.8842635,-38.57421875,369.140625,393.5546875,14.16015625,0.0
1734413399.8881354,10.7421875,647.4609375,527.34375,21.97265625,0.0
1734413399.8920074,-3.90625,-7.8125,14.16015625,-18.5546875,0.0
1734413399.8958793,-47.36328125,-665.0390625,-615.234375,-53.22265625,0.0
1734413399.8997512,-73.2421875,-532.2265625,-405.76171875,-54.6875,0.0
1734413399.903623,-54.19921875,315.91796875,330.56640625,-21.484375,0.0
1734413399.907495,-10.25390625,234.86328125,468.75,4.39453125,0.0
1734413399.911367,-9.765625,-349.609375,128.90625,-41.015625,0.0
1734413399.9152386,-48.828125,-157.2265625,-398.4375,-93.75,0.0
1734413399.9196236,-62.01171875,-179.19921875,-479.4921875,-73.73046875,0.0
1734413399.9234958,-42.48046875,-99.12109375,87.890625,-24.4140625,0.0
1734413399.927368,-23.92578125,414.55078125,498.046875,-8.30078125,0.0
1734413399.93124,-18.06640625,301.7578125,240.234375,-29.296875,0.0
1734413399.9351122,-47.36328125,-187.01171875,-423.828125,-55.17578125,0.0
1734413399.9389844,-79.1015625,-750.0,-611.81640625,-64.453125,0.0
1734413399.9428566,-55.6640625,-332.03125,38.0859375,-27.83203125,0.0
1734413399.9467287,-13.671875,654.78515625,564.94140625,0.0,0.0
1734413399.9506009,-9.27734375,508.30078125,328.125,-19.53125,0.0
1734413399.954473,-27.83203125,-658.69140625,-549.8046875,-44.43359375,0.0
1734413399.9583452,-65.91796875,-565.4296875,-589.35546875,-57.6171875,0.0
1734413399.9622173,-64.453125,250.9765625,126.953125,-20.5078125,0.0
1734413399.9665635,-23.4375,450.68359375,476.5625,23.4375,0.0
1734413399.9704359,-13.671875,392.578125,438.96484375,-20.01953125,0.0
1734413399.9743083,-42.48046875,162.59765625,-112.3046875,-83.0078125,0.0
1734413399.9781806,-69.82421875,-103.515625,-529.78515625,-77.1484375,0.0
1734413399.982053,-69.82421875,-159.1796875,-162.109375,-29.78515625,0.0
1734413399.9859254,-41.015625,-20.5078125,378.90625,8.7890625,0.0
1734413399.9897978,-17.578125,149.4140625,404.296875,2.9296875,0.0
1734413399.9936702,-25.390625,-148.4375,-189.453125,-35.15625,0.0
1734413399.9975426,-61.03515625,-749.51171875,-705.56640625,-56.640625,0.0
1734413400.001415,-83.49609375,-635.25390625,-241.2109375,-35.64453125,0.0
1734413400.0052874,-41.015625,420.41015625,496.09375,1.46484375,0.0
1734413400.0091598,-4.8828125,733.88671875,511.23046875,8.30078125,0.0
1734413400.0134745,-26.3671875,49.31640625,-110.83984375,-29.296875,0.0
1734413400.017347,-55.17578125,-281.25,-576.171875,-58.10546875,0.0
1734413400.0212197,-63.96484375,24.90234375,-193.359375,-29.296875,0.0
1734413400.0250924,-33.203125,414.55078125,398.4375,20.01953125,0.0
1734413400.028965,-3.90625,371.58203125,441.89453125,16.6015625,0.0
1734413400.0328376,-23.92578125,-111.328125,-31.73828125,-25.390625,0.0
1734413400.0367103,-65.4296875,-430.6640625,-525.390625,-73.73046875,0.0
1734413400.040583,-70.80078125,-231.4453125,-339.84375,-57.12890625,0.0
1734413400.0444555,-36.1328125,-477.05078125,105.95703125,10.25390625,0.0
1734413400.0483282,-16.6015625,-114.2578125,434.08203125,3.41796875,0.0
1734413400.0522008,-20.5078125,376.46484375,235.83984375,-43.45703125,0.0
1734413400.0560734,-46.875,-128.90625,-493.65234375,-61.03515625,0.0
1734413400.0603416,-63.96484375,-335.9375,-388.671875,-54.19921875,0.0
1734413400.0642145,-47.36328125,328.61328125,375.0,-15.13671875,0.0
1734413400.068087,-19.04296875,740.234375,568.359375,15.13671875,0.0
1734413400.07196,-8.30078125,363.76953125,194.82421875,-26.3671875,0.0
1734413400.0758328,-40.0390625,-269.53125,-484.86328125,-73.2421875,0.0
1734413400.0797057,-58.10546875,-557.6171875,-520.5078125,-52.24609375,0.0
1734413400.0835783,-35.64453125,-88.8671875,190.4296875,-6.8359375,0.0
1734413400.0874512,2.44140625,132.8125,470.21484375,13.671875,0.0
1734413400.091324,4.8828125,-285.64453125,170.41015625,-26.3671875,0.0
1734413400.095197,-37.59765625,-111.328125,-345.21484375,-83.0078125,0.0
1734413400.0990696,-69.3359375,-104.98046875,-483.3984375,-73.2421875,0.0
1734413400.1029425,-61.03515625,-75.1953125,40.0390625,-26.85546875,0.0
1734413400.1071777,-28.80859375,349.609375,498.046875,1.953125,0.0
1734413400.1110508,-17.08984375,434.08203125,368.1640625,-23.4375,0.0
1734413400.1149237,-38.57421875,20.01953125,-338.8671875,-71.77734375,0.0
1734413400.1187968,-67.3828125,-474.12109375,-589.84375,-74.21875,0.0
1734413400.1226697,-65.4296875,-52.24609375,43.9453125,-28.3203125,0.0
1734413400.1265428,-20.99609375,397.4609375,514.16015625,5.859375,0.0
1734413400.1304157,2.44140625,192.87109375,359.375,-14.6484375,0.0
1734413400.1342888,-24.90234375,-635.25390625,-500.0,-51.26953125,0.0
1734413400.138162,-67.3828125,-595.703125,-635.25390625,-78.61328125,0.0
1734413400.1420348,-69.3359375,201.66015625,59.5703125,-47.36328125,0.0
1734413400.1459079,-20.99609375,511.71875,486.328125,2.9296875,0.0
1734413400.1497808,3.41796875,465.33203125,478.515625,-17.578125,0.0
1734413400.153984,-19.53125,269.04296875,-38.57421875,-59.5703125,0.0
