timestamps,TP9,AF7,AF8,TP10,Right AUX
1734413046.1088796,-69.3359375,241.69921875,90.8203125,-62.98828125,0.0
1734413046.1127663,-69.82421875,210.44921875,-6.34765625,-47.36328125,0.0
1734413046.116653,-67.87109375,0.48828125,-291.9921875,-41.9921875,0.0
1734413046.1205397,-52.734375,5.859375,-78.125,-50.29296875,0.0
1734413046.1244264,-36.62109375,96.19140625,197.265625,-48.33984375,0.0
1734413046.1283128,-59.5703125,-65.91796875,-130.859375,-52.24609375,0.0
1734413046.1321995,-73.73046875,-483.88671875,-446.77734375,-50.78125,0.0
1734413046.1360862,-82.51953125,-745.60546875,-533.69140625,-54.19921875,0.0
1734413046.139973,-63.4765625,20.99609375,9.765625,-60.546875,0.0
1734413046.1438596,-39.55078125,494.62890625,309.5703125,-44.43359375,0.0
1734413046.147746,-46.38671875,137.20703125,-28.3203125,-58.59375,0.0
1734413046.151855,-74.21875,-80.56640625,-235.3515625,-28.3203125,0.0
1734413046.1557417,-71.77734375,132.8125,-241.2109375,-26.85546875,0.0
1734413046.1596284,-38.57421875,250.0,-20.99609375,-43.45703125,0.0
1734413046.163515,-36.1328125,177.734375,260.7421875,-41.9921875,0.0
1734413046.1674018,-59.5703125,107.421875,90.33203125,-63.4765625,0.0
1734413046.1712885,-73.73046875,-215.33203125,-289.0625,-54.19921875,0.0
1734413046.1751752,-77.63671875,-281.25,-376.953125,-47.36328125,0.0
1734413046.179062,-49.31640625,-553.7109375,-369.140625,-9.27734375,0.0
1734413046.1829488,-54.19921875,-410.15625,-47.36328125,-30.76171875,0.0
1734413046.1868355,-73.2421875,384.27734375,232.421875,-66.40625,0.0
1734413046.1907222,-73.73046875,124.51171875,-74.21875,-33.203125,0.0
1734413046.194609,-93.75,-265.625,-369.62890625,-55.6640625,0.0
1734413046.1986966,-75.68359375,83.49609375,-88.8671875,-49.8046875,0.0
1734413046.2025833,-49.31640625,471.19140625,310.05859375,-28.80859375,0.0
1734413046.20647,-39.0625,201.66015625,61.03515625,-44.921875,0.0
1734413046.210357,-58.59375,-143.5546875,-266.6015625,-67.3828125,0.0
1734413046.2142437,-95.21484375,-16.6015625,-299.8046875,-53.7109375,0.0
1734413046.2181304,-88.37890625,-37.59765625,-312.98828125,-27.83203125,0.0
1734413046.2220173,-54.19921875,-277.34375,-141.6015625,-32.71484375,0.0
1734413046.225904,-60.05859375,-570.80078125,-242.1875,-39.55078125,0.0
1734413046.2297907,-95.21484375,-202.1484375,-270.01953125,-62.01171875,0.0
1734413046.2336774,-109.375,115.234375,-249.0234375,-63.4765625,0.0
1734413046.2375643,-91.30859375,-126.46484375,-338.8671875,-31.73828125,0.0
1734413046.241451,-56.15234375,9.765625,11.23046875,-10.7421875,0.0
1734413046.2455256,-70.80078125,350.09765625,230.46875,-36.1328125,0.0
1734413046.2494123,-94.23828125,217.28515625,-56.640625,-89.35546875,0.0
1734413046.2532992,-72.75390625,-230.46875,-339.84375,-33.69140625,0.0
1734413046.257186,-60.05859375,-118.65234375,-327.1484375,-7.8125,0.0
1734413046.2610729,-74.70703125,249.0234375,25.390625,-33.203125,0.0
1734413046.2649596,-80.078125,59.5703125,60.546875,-41.9921875,0.0
1734413046.2688465,-78.61328125,-589.84375,-435.05859375,-31.25,0.0
1734413046.2727332,-110.3515625,-877.44140625,-533.203125,-21.97265625,0.0
1734413046.2766201,-104.98046875,-146.484375,-284.66796875,-23.4375,0.0
1734413046.2805068,-63.4765625,217.7734375,31.25,-20.01953125,0.0
1734413046.2843938,-59.08203125,126.46484375,182.6171875,-15.625,0.0
1734413046.2882805,-77.1484375,151.3671875,58.59375,-28.80859375,0.0
1734413046.2924943,-91.796875,119.62890625,-158.69140625,-40.52734375,0.0
1734413046.2963812,-85.44921875,-76.171875,-407.71484375,-15.625,0.0
1734413046.3002682,-63.4765625,-94.7265625,-123.046875,-3.41796875,0.0
1734413046.304155,-70.3125,290.52734375,259.765625,-43.45703125,0.0
1734413046.308042,-80.56640625,271.484375,42.48046875,-45.41015625,0.0
1734413046.3119287,-91.30859375,-354.98046875,-407.71484375,-12.20703125,0.0
1734413046.3158157,-88.8671875,-807.12890625,-601.07421875,-0.9765625,0.0
1734413046.3197026,-71.77734375,-304.19921875,-172.8515625,-17.08984375,0.0
1734413046.3235896,-70.80078125,345.21484375,243.65234375,-41.50390625,0.0
1734413046.3274765,-78.61328125,-140.625,-154.296875,-38.57421875,0.0
1734413046.3313634,-97.65625,-615.234375,-510.7421875,-39.55078125,0.0
1734413046.3352504,-108.3984375,-120.1171875,-357.91015625,-21.484375,0.0
1734413046.3394313,-85.44921875,116.2109375,-237.79296875,-15.13671875,0.0
1734413046.3433182,-69.82421875,22.4609375,36.1328125,-39.0625,0.0
1734413046.3472054,-56.640625,-14.16015625,-39.0625,-32.71484375,0.0
1734413046.3510923,-75.1953125,42.48046875,-262.20703125,-20.5078125,0.0
1734413046.3549793,-93.75,-49.31640625,-379.8828125,-11.71875,0.0
1734413046.3588665,-67.87109375,-323.73046875,-420.41015625,5.37109375,0.0
1734413046.3627534,-48.828125,-370.60546875,-90.8203125,1.46484375,0.0
1734413046.3666403,-56.640625,-175.78125,-85.9375,-31.73828125,0.0
1734413046.3705273,-76.66015625,-155.2734375,-344.7265625,-61.03515625,0.0
1734413046.3744144,-88.37890625,-687.5,-526.85546875,-6.8359375,0.0
1734413046.3783014,-80.56640625,-504.39453125,-386.71875,4.39453125,0.0
1734413046.3821883,-52.734375,351.5625,164.55078125,-2.9296875,0.0
1734413046.386347,-49.8046875,207.51953125,112.3046875,-10.25390625,0.0
1734413046.3902342,-76.171875,-154.296875,-239.2578125,-24.4140625,0.0
1734413046.3941212,-88.37890625,-42.48046875,-311.5234375,31.73828125,0.0
1734413046.3980083,-66.89453125,166.015625,-259.765625,42.96875,0.0
1734413046.4018955,-28.3203125,156.25,63.96484375,11.71875,0.0
1734413046.4057825,-37.59765625,-212.890625,16.11328125,29.296875,0.0
1734413046.4096696,-86.9140625,-261.71875,-265.13671875,-7.32421875,0.0
1734413046.4135568,-85.9375,54.19921875,-244.140625,-6.8359375,0.0
1734413046.4174438,-46.38671875,-246.58203125,-436.03515625,45.41015625,0.0
1734413046.421331,-40.52734375,-600.5859375,-258.7890625,31.25,0.0
1734413046.4252179,-56.15234375,103.515625,229.98046875,4.39453125,0.0
1734413046.429105,-59.5703125,285.15625,69.82421875,-8.7890625,0.0
1734413046.4332433,-67.87109375,-228.02734375,-248.046875,19.53125,0.0
1734413046.4371305,-70.80078125,-140.625,-327.63671875,21.484375,0.0
1734413046.4410176,-64.94140625,295.8984375,54.19921875,5.37109375,0.0
1734413046.4449048,-44.921875,354.00390625,239.74609375,-1.953125,0.0
1734413046.448792,-52.24609375,-44.921875,-173.33984375,-24.90234375,0.0
1734413046.4526792,-69.82421875,-390.13671875,-396.97265625,7.32421875,0.0
1734413046.456566,-68.359375,-389.16015625,-406.25,21.484375,0.0
1734413046.4604533,-58.10546875,-123.53515625,-160.15625,14.16015625,0.0
1734413046.4643404,-29.296875,-452.1484375,-141.11328125,21.484375,0.0
1734413046.4682276,-50.29296875,-508.30078125,-347.65625,-24.4140625,0.0
1734413046.4721148,-98.14453125,122.0703125,-223.6328125,-35.15625,0.0
1734413046.476002,-73.2421875,-7.8125,-359.86328125,22.94921875,0.0
1734413046.48013,-38.0859375,-13.671875,-146.97265625,27.34375,0.0
1734413046.4840171,-46.38671875,236.328125,200.68359375,6.34765625,0.0
1734413046.4879043,-53.22265625,212.40234375,83.0078125,2.9296875,0.0
1734413046.4917915,-51.7578125,-159.1796875,-243.1640625,-4.39453125,0.0
1734413046.495679,-67.87109375,-319.3359375,-452.1484375,18.5546875,0.0
1734413046.499566,-58.59375,-133.30078125,-312.01171875,27.83203125,0.0
1734413046.5034533,-41.9921875,14.6484375,111.81640625,7.32421875,0.0
1734413046.5073404,-44.921875,-182.12890625,-95.21484375,-0.9765625,0.0
1734413046.5112276,-54.6875,-657.2265625,-486.81640625,11.23046875,0.0
1734413046.5151148,-78.61328125,-208.984375,-292.48046875,5.37109375,0.0
1734413046.5190022,-80.56640625,283.69140625,-106.4453125,34.1796875,0.0
1734413046.5228894,-50.78125,82.03125,100.09765625,41.9921875,0.0
1734413046.5269895,-32.71484375,33.69140625,83.49609375,25.87890625,0.0
1734413046.5308769,-42.48046875,247.55859375,103.02734375,5.37109375,0.0
1734413046.534764,-53.7109375,115.72265625,-79.1015625,40.52734375,0.0
1734413046.5386515,-61.5234375,-57.12890625,-284.66796875,37.109375,0.0
1734413046.5425386,-56.15234375,105.46875,77.1484375,13.671875,0.0
1734413046.5464258,-62.5,8.7890625,115.234375,30.76171875,0.0
1734413046.5503132,-81.54296875,-162.109375,-178.22265625,31.25,0.0
1734413046.5542004,-72.75390625,-638.18359375,-451.66015625,60.546875,0.0
1734413046.5580878,-61.03515625,-621.09375,-373.53515625,50.78125,0.0
1734413046.561975,-46.875,351.07421875,239.2578125,12.20703125,0.0
1734413046.5658624,-50.78125,354.98046875,196.77734375,17.578125,0.0
1734413046.5697496,-70.3125,11.23046875,-92.28515625,12.6953125,0.0
1734413046.5738354,-79.58984375,76.66015625,-4.8828125,14.16015625,0.0
1734413046.5777225,-93.26171875,220.21484375,-25.87890625,32.2265625,0.0
1734413046.58161,-71.2890625,181.15234375,106.4453125,9.27734375,0.0
1734413046.5854974,-72.265625,79.1015625,208.49609375,-10.25390625,0.0
1734413046.5893846,-89.84375,179.19921875,93.26171875,-8.7890625,0.0
1734413046.593272,-103.02734375,-79.58984375,-159.66796875,-11.23046875,0.0
1734413046.5971594,-83.0078125,-459.47265625,-476.5625,38.0859375,0.0
1734413046.6010466,-38.0859375,-578.125,-278.3203125,54.19921875,0.0
1734413046.604934,-60.05859375,50.78125,221.6796875,2.44140625,0.0
1734413046.6088214,-80.078125,167.48046875,3.90625,10.25390625,0.0
1734413046.6127086,-56.15234375,-352.5390625,-306.15234375,39.55078125,0.0
1734413046.616596,-68.84765625,-201.171875,-288.57421875,28.80859375,0.0
1734413046.6206615,-67.3828125,264.16015625,46.38671875,24.4140625,0.0
1734413046.624549,-34.1796875,342.28515625,262.6953125,15.13671875,0.0
1734413046.6284363,-53.22265625,-0.48828125,-53.22265625,25.87890625,0.0
1734413046.6323237,-50.29296875,-45.8984375,-161.62109375,44.43359375,0.0
1734413046.6362112,-54.19921875,30.2734375,-258.30078125,47.36328125,0.0
1734413046.6400983,-14.16015625,-23.92578125,-195.3125,71.77734375,0.0
1734413046.6439857,20.99609375,-535.15625,-164.55078125,68.84765625,0.0
1734413046.6478732,2.44140625,-633.30078125,-291.015625,55.17578125,0.0
1734413046.6517606,-6.34765625,150.390625,50.29296875,64.453125,0.0
1734413046.655648,-4.39453125,100.09765625,-100.09765625,70.3125,0.0
1734413046.6595354,6.34765625,-18.5546875,-146.97265625,74.70703125,0.0
1734413046.6634228,27.34375,266.11328125,191.89453125,66.40625,0.0
1734413046.6674638,28.3203125,221.6796875,110.3515625,50.78125,0.0
1734413046.6713512,3.90625,-177.24609375,-223.6328125,47.36328125,0.0
1734413046.6752386,-6.34765625,-292.96875,-375.9765625,59.08203125,0.0
1734413046.679126,13.18359375,79.1015625,-137.20703125,84.9609375,0.0
1734413046.6830134,30.2734375,298.33984375,157.71484375,84.9609375,0.0
1734413046.6869009,28.80859375,-208.0078125,-169.921875,72.265625,0.0
1734413046.6907883,-7.32421875,-622.55859375,-429.19921875,49.31640625,0.0
1734413046.694676,-30.2734375,-337.40234375,-302.24609375,49.8046875,0.0
1734413046.6985633,-17.08984375,47.8515625,-200.1953125,94.7265625,0.0
1734413046.7024508,-12.6953125,-19.53125,-8.7890625,93.26171875,0.0
1734413046.7063382,-0.48828125,-107.91015625,46.38671875,41.015625,0.0
1734413046.7102256,-21.97265625,165.0390625,87.890625,27.83203125,0.0
1734413046.7143953,-27.34375,102.05078125,-76.66015625,65.4296875,0.0
1734413046.7182827,-6.8359375,-129.39453125,-298.33984375,83.984375,0.0
1734413046.7221704,-5.859375,41.50390625,3.90625,73.73046875,0.0
1734413046.7260578,-3.41796875,212.40234375,117.67578125,64.453125,0.0
1734413046.7299452,-15.625,-81.54296875,-204.58984375,69.82421875,0.0
1734413046.7338328,-20.99609375,-566.40625,-382.8125,89.84375,0.0
1734413046.7377203,-24.4140625,-674.8046875,-432.12890625,87.40234375,0.0
1734413046.7416077,-22.94921875,-79.58984375,-21.97265625,55.17578125,0.0
1734413046.7454953,-13.671875,237.3046875,212.40234375,67.3828125,0.0
1734413046.7493827,-4.8828125,-208.984375,-196.77734375,48.828125,0.0
1734413046.7532704,-18.5546875,-239.74609375,-273.92578125,34.66796875,0.0
1734413046.7571578,-59.08203125,94.23828125,-263.671875,73.2421875,0.0
1734413046.7613146,-45.8984375,99.12109375,-49.31640625,78.61328125,0.0
1734413046.7652023,-5.859375,8.30078125,173.33984375,66.40625,0.0
1734413046.76909,-21.97265625,117.1875,69.82421875,12.6953125,0.0
1734413046.7729774,-55.6640625,128.41796875,-76.171875,17.578125,0.0
1734413046.776865,-21.97265625,-128.41796875,-348.6328125,88.8671875,0.0
1734413046.7807527,-13.671875,-365.72265625,-323.2421875,88.37890625,0.0
1734413046.78464,-49.31640625,-140.625,90.33203125,33.203125,0.0
1734413046.7885277,-42.96875,22.94921875,13.671875,39.55078125,0.0
1734413046.7924154,-49.8046875,-462.40234375,-426.26953125,50.29296875,0.0
1734413046.7963028,-57.12890625,-769.53125,-552.734375,54.6875,0.0
1734413046.8001904,-26.3671875,-62.5,-78.125,93.75,0.0
1734413046.804078,-0.48828125,355.95703125,260.7421875,96.6796875,0.0
1734413046.8082058,-28.3203125,34.66796875,-22.4609375,33.203125,0.0
1734413046.8120935,-65.91796875,-71.2890625,-216.30859375,16.11328125,0.0
1734413046.8159811,-53.22265625,78.61328125,-252.9296875,49.31640625,0.0
1734413046.8198688,-33.69140625,180.17578125,-158.203125,81.0546875,0.0
1734413046.8237562,-53.7109375,40.0390625,105.46875,55.6640625,0.0
1734413046.8276439,-50.78125,-212.890625,-87.40234375,0.9765625,0.0
1734413046.8315315,-56.640625,-341.30859375,-348.14453125,10.7421875,0.0
1734413046.8354192,-82.03125,-398.4375,-376.46484375,45.8984375,0.0
1734413046.8393068,-55.17578125,-710.44921875,-464.84375,67.3828125,0.0
1734413046.8431945,-30.2734375,-462.890625,-106.93359375,38.0859375,0.0
1734413046.8470821,-52.24609375,119.140625,95.703125,-25.390625,0.0
1734413046.8509698,-54.19921875,-182.12890625,-276.85546875,-4.39453125,0.0
1734413046.8550878,-59.08203125,-263.18359375,-348.6328125,45.41015625,0.0
1734413046.8589754,-23.4375,70.3125,-245.1171875,52.734375,0.0
1734413046.862863,-17.578125,354.4921875,125.48828125,13.18359375,0.0
1734413046.8667507,-7.8125,156.73828125,112.3046875,7.32421875,0.0
1734413046.8706386,-2.9296875,-97.16796875,-255.859375,19.53125,0.0
1734413046.8745263,-38.0859375,-288.0859375,-391.11328125,41.9921875,0.0
1734413046.878414,-38.0859375,-194.82421875,-338.8671875,35.64453125,0.0
1734413046.8823016,-18.5546875,-123.046875,-125.0,49.8046875,0.0
1734413046.8861895,4.8828125,-552.734375,-207.51953125,43.9453125,0.0
1734413046.890077,0.0,-108.3984375,-184.08203125,-24.90234375,0.0
1734413046.8939648,-1.46484375,176.26953125,-190.91796875,3.90625,0.0
1734413046.8978524,11.23046875,-144.53125,-371.09375,51.26953125,0.0
1734413046.901953,24.90234375,3.41796875,-33.69140625,39.0625,0.0
1734413046.9058409,23.4375,201.171875,211.9140625,-9.765625,0.0
1734413046.9097285,15.13671875,-118.1640625,-163.0859375,-13.671875,0.0
1734413046.9136164,3.90625,-275.87890625,-332.03125,19.04296875,0.0
1734413046.917504,-7.32421875,-91.796875,-327.63671875,23.4375,0.0
1734413046.921392,36.62109375,-59.08203125,-219.7265625,4.39453125,0.0
1734413046.9252796,75.68359375,-34.66796875,92.7734375,11.71875,0.0
1734413046.9291675,49.31640625,-502.9296875,-229.98046875,46.38671875,0.0
1734413046.9330552,-15.13671875,-629.8828125,-408.69140625,44.921875,0.0
1734413046.936943,-16.11328125,150.390625,-160.64453125,10.25390625,0.0
1734413046.9408307,42.48046875,252.44140625,0.9765625,5.37109375,0.0
1734413046.9447186,52.24609375,142.08984375,191.40625,24.90234375,0.0
1734413046.9487903,13.671875,323.2421875,169.43359375,25.390625,0.0
1734413046.9526782,18.5546875,334.9609375,116.2109375,1.953125,0.0
1734413046.9565659,32.71484375,25.87890625,-143.5546875,23.4375,0.0
1734413046.9604537,13.671875,14.6484375,-99.12109375,51.7578125,0.0
1734413046.9643416,43.9453125,273.4375,213.8671875,45.8984375,0.0
1734413046.9682295,41.015625,144.53125,125.48828125,-7.8125,0.0
1734413046.9721172,13.671875,-311.03515625,-257.32421875,-14.6484375,0.0
1734413046.976005,19.53125,-696.77734375,-519.53125,65.4296875,0.0
1734413046.979893,23.4375,-32.2265625,-31.25,54.6875,0.0
1734413046.9837806,58.10546875,521.97265625,327.63671875,40.0390625,0.0
1734413046.9876685,65.4296875,224.12109375,116.69921875,40.0390625,0.0
1734413046.9915564,10.25390625,63.96484375,39.0625,15.13671875,0.0
1734413046.9956214,-3.90625,214.84375,72.75390625,20.01953125,0.0
1734413046.9995093,20.01953125,296.38671875,96.6796875,57.12890625,0.0
1734413047.003397,35.64453125,159.66796875,264.16015625,39.55078125,0.0
1734413047.0072849,31.73828125,191.40625,244.140625,-23.92578125,0.0
1734413047.0111728,8.7890625,237.79296875,119.140625,-18.06640625,0.0
1734413047.0150607,3.41796875,-68.359375,-128.41796875,8.7890625,0.0
1734413047.0189486,20.01953125,-644.53125,-442.87109375,33.69140625,0.0
1734413047.0228364,31.25,-572.75390625,-100.5859375,17.08984375,0.0
1734413047.0267243,18.06640625,148.92578125,291.9921875,-48.33984375,0.0
1734413047.0306122,10.25390625,194.3359375,146.97265625,-33.203125,0.0
1734413047.0345001,-19.04296875,4.39453125,-31.73828125,-12.6953125,0.0
1734413047.0383878,-20.01953125,128.41796875,14.16015625,21.97265625,0.0
1734413047.0424328,-10.7421875,465.33203125,316.40625,14.6484375,0.0
1734413047.0463207,0.9765625,395.99609375,282.71484375,-23.92578125,0.0
1734413047.0502086,-19.53125,121.09375,113.28125,-21.97265625,0.0
1734413047.0540965,-53.22265625,187.5,115.72265625,-4.39453125,0.0
1734413047.0579844,-39.55078125,323.73046875,114.74609375,-3.41796875,0.0
1734413047.0618722,-42.48046875,-20.5078125,129.8828125,-10.7421875,0.0
1734413047.0657601,-40.0390625,-283.203125,173.33984375,51.7578125,0.0
1734413047.069648,-29.78515625,199.21875,213.37890625,-0.48828125,0.0
1734413047.073536,-60.05859375,387.20703125,198.73046875,-32.2265625,0.0
1734413047.0774238,-83.984375,-132.32421875,-159.66796875,35.15625,0.0
1734413047.0813117,-56.15234375,-169.921875,-104.00390625,47.8515625,0.0
1734413047.0851996,-33.69140625,213.37890625,265.13671875,45.8984375,0.0
1734413047.0893679,-61.03515625,261.71875,211.42578125,27.34375,0.0
1734413047.0932558,-61.03515625,-149.4140625,-80.078125,50.78125,0.0
1734413047.0971437,-63.96484375,-326.66015625,-258.30078125,108.3984375,0.0
1734413047.1010318,-77.63671875,300.78125,167.96875,114.74609375,0.0
1734413047.1049197,-41.015625,390.625,304.19921875,100.09765625,0.0
1734413047.1088078,-37.59765625,1.46484375,16.11328125,57.12890625,0.0
1734413047.1126957,-95.21484375,-272.4609375,-185.05859375,56.640625,0.0
1734413047.1165836,-97.65625,-229.98046875,-255.859375,96.19140625,0.0
1734413047.1204717,-52.24609375,60.546875,-46.38671875,105.95703125,0.0
1734413047.1243596,-11.71875,-156.25,120.1171875,106.93359375,0.0
1734413047.1282475,-11.71875,-102.05078125,82.51953125,82.51953125,0.0
1734413047.1321356,-63.4765625,335.44921875,155.76171875,92.7734375,0.0
1734413047.1362803,-44.921875,37.109375,-119.140625,161.62109375,0.0
1734413047.1401684,-35.15625,-104.4921875,-182.6171875,156.25,0.0
1734413047.1440566,-26.3671875,106.4453125,157.2265625,182.12890625,0.0
1734413047.1479445,-4.39453125,208.0078125,173.828125,226.07421875,0.0
1734413047.1518326,-46.875,58.59375,-74.70703125,189.94140625,0.0
1734413047.1557207,-24.4140625,-413.0859375,-404.296875,249.0234375,0.0
1734413047.1596086,-24.90234375,-288.57421875,-360.3515625,307.12890625,0.0
1734413047.1634967,-20.5078125,298.33984375,115.72265625,242.1875,0.0
1734413047.1673849,9.765625,2.44140625,-101.07421875,215.33203125,0.0
1734413047.1712728,-23.92578125,-687.01171875,-568.84765625,263.671875,0.0
1734413047.175161,-42.48046875,-304.19921875,-377.9296875,326.171875,0.0
1734413047.179049,-19.53125,27.83203125,-421.875,323.73046875,0.0
1734413047.1831775,4.8828125,-163.57421875,-352.05078125,285.64453125,0.0
1734413047.1870656,-13.18359375,-145.5078125,-332.51953125,278.80859375,0.0
1734413047.1909537,-32.71484375,-22.4609375,-478.515625,268.5546875,0.0
1734413047.1948419,-57.12890625,-231.4453125,-616.2109375,288.57421875,0.0
1734413047.19873,-14.6484375,-590.8203125,-773.4375,298.33984375,0.0
1734413047.2026181,9.27734375,-675.78125,-643.5546875,331.54296875,0.0
1734413047.2065063,-6.8359375,-566.89453125,-595.703125,304.6875,0.0
1734413047.2103944,-12.6953125,-657.2265625,-730.46875,247.0703125,0.0
1734413047.2142825,-24.90234375,-916.015625,-841.796875,285.15625,0.0
1734413047.2181706,-20.99609375,-773.4375,-833.0078125,308.10546875,0.0
1734413047.2220588,-35.15625,-205.56640625,-562.01171875,294.921875,0.0
1734413047.225947,-26.85546875,-163.0859375,-511.23046875,311.5234375,0.0
1734413047.2300613,-21.97265625,-369.62890625,-646.97265625,323.73046875,0.0
1734413047.2339494,-15.13671875,-293.45703125,-617.67578125,367.67578125,0.0
1734413047.2378376,-22.4609375,-184.08203125,-631.34765625,421.38671875,0.0
1734413047.2417257,-25.390625,-290.0390625,-560.05859375,458.49609375,0.0
1734413047.245614,27.83203125,-291.015625,-463.8671875,469.23828125,0.0
1734413047.2495022,35.15625,-328.125,-572.75390625,442.87109375,0.0
1734413047.2533903,-2.44140625,-412.59765625,-567.87109375,466.30859375,0.0
1734413047.2572784,-6.34765625,-544.43359375,-666.015625,519.04296875,0.0
1734413047.2611666,41.50390625,-781.73828125,-651.3671875,553.7109375,0.0
1734413047.2650547,51.7578125,-313.4765625,-298.33984375,515.625,0.0
1734413047.268943,35.15625,98.6328125,-329.1015625,537.109375,0.0
1734413047.2728312,31.25,-167.96875,-412.59765625,628.90625,0.0
1734413047.2769277,18.5546875,-278.80859375,-429.6875,690.91796875,0.0
1734413047.2808158,20.99609375,119.140625,-298.33984375,719.7265625,0.0
1734413047.2847042,42.96875,271.97265625,82.03125,694.3359375,0.0
1734413047.2885923,65.4296875,117.67578125,-4.8828125,747.55859375,0.0
1734413047.2924807,68.359375,-25.87890625,-267.578125,792.96875,0.0
1734413047.2963688,26.3671875,-273.4375,-363.28125,792.96875,0.0
1734413047.300257,0.48828125,-225.5859375,-265.13671875,808.10546875,0.0
1734413047.3041453,62.98828125,-488.28125,-158.203125,824.70703125,0.0
1734413047.3080335,69.3359375,-415.52734375,-68.359375,823.73046875,0.0
1734413047.3119218,62.01171875,299.8046875,166.50390625,802.734375,0.0
1734413047.31581,64.453125,142.08984375,46.875,867.1875,0.0
1734413047.319698,86.42578125,22.94921875,-14.6484375,902.34375,0.0
1734413047.323772,117.1875,205.078125,223.6328125,935.05859375,0.0
1734413047.3276603,93.75,323.73046875,283.69140625,907.71484375,0.0
1734413047.3315485,62.01171875,163.57421875,133.7890625,902.34375,0.0
1734413047.3354368,48.828125,19.04296875,83.0078125,958.49609375,0.0
1734413047.3393252,87.890625,231.93359375,146.484375,970.703125,0.0
1734413047.3432133,106.4453125,289.55078125,297.8515625,968.75,0.0
1734413047.3471017,138.18359375,62.98828125,225.09765625,969.7265625,0.0
1734413047.3509898,82.03125,-385.7421875,-62.5,969.7265625,0.0
1734413047.3548782,52.734375,-1.46484375,125.48828125,969.7265625,0.0
1734413047.3587666,119.140625,421.38671875,241.2109375,969.7265625,0.0
1734413047.3626547,158.203125,270.99609375,252.44140625,969.23828125,0.0
1734413047.366543,144.53125,384.27734375,333.0078125,969.7265625,0.0
1734413047.3705974,135.7421875,588.8671875,306.15234375,969.23828125,0.0
1734413047.3744857,164.55078125,418.9453125,209.47265625,969.7265625,0.0
1734413047.3783739,152.34375,112.79296875,85.9375,967.28515625,0.0
1734413047.3822622,177.24609375,132.8125,243.65234375,971.6796875,0.0
1734413047.3861506,190.91796875,313.96484375,350.5859375,937.01171875,0.0
1734413047.390039,166.9921875,279.78515625,255.37109375,888.18359375,0.0
1734413047.3939273,162.59765625,-462.890625,-120.60546875,915.52734375,0.0
1734413047.3978157,184.5703125,-638.671875,-192.3828125,929.19921875,0.0
1734413047.4017038,197.75390625,389.16015625,357.91015625,879.8828125,0.0
1734413047.4055922,183.59375,607.421875,372.55859375,801.7578125,0.0
1734413047.4094806,185.05859375,335.44921875,228.515625,759.27734375,0.0
1734413047.413369,174.31640625,317.87109375,234.375,751.46484375,0.0
1734413047.4175503,182.6171875,394.04296875,203.61328125,807.12890625,0.0
1734413047.421439,195.3125,329.58984375,255.37109375,800.29296875,0.0
1734413047.4253273,194.82421875,304.6875,378.90625,739.2578125,0.0
1734413047.4292157,187.01171875,527.34375,344.23828125,732.421875,0.0
1734413047.433104,175.78125,482.91015625,258.30078125,728.515625,0.0
1734413047.4369924,175.29296875,-70.3125,18.5546875,774.4140625,0.0
1734413047.4408808,216.30859375,-464.35546875,-34.1796875,785.64453125,0.0
1734413047.4447691,241.2109375,101.5625,334.47265625,761.71875,0.0
1734413047.4486578,236.81640625,645.01953125,416.015625,749.51171875,0.0
1734413047.4525461,242.1875,97.65625,42.48046875,747.55859375,0.0
1734413047.4564345,225.5859375,-289.55078125,-109.375,738.76953125,0.0
1734413047.4603229,224.609375,303.7109375,249.0234375,718.26171875,0.0
1734413047.4644806,271.97265625,615.72265625,403.80859375,702.1484375,0.0
1734413047.4683692,299.31640625,377.9296875,307.6171875,725.09765625,0.0
1734413047.4722576,276.3671875,231.93359375,213.37890625,734.375,0.0
1734413047.4761462,256.34765625,333.984375,183.59375,783.69140625,0.0
1734413047.4800346,262.6953125,279.78515625,148.92578125,795.41015625,0.0
1734413047.4839232,303.22265625,9.765625,273.92578125,741.69921875,0.0
1734413047.4878116,285.15625,-139.16015625,226.5625,697.265625,0.0
1734413047.4917,223.6328125,17.578125,172.36328125,651.85546875,0.0
1734413047.4955885,202.1484375,164.0625,131.34765625,665.52734375,0.0
1734413047.499477,246.09375,-482.421875,-297.8515625,734.375,0.0
1734413047.5033655,310.05859375,-503.41796875,-59.5703125,735.83984375,0.0
1734413047.507254,300.78125,441.89453125,369.140625,680.17578125,0.0
1734413047.5113966,272.94921875,291.50390625,138.671875,676.26953125,0.0
1734413047.5152853,256.8359375,-67.87109375,-62.5,774.90234375,0.0
1734413047.5191739,252.9296875,82.03125,-3.90625,794.43359375,0.0
1734413047.5230622,287.59765625,411.62109375,284.66796875,734.86328125,0.0
1734413047.5269508,307.6171875,328.61328125,229.98046875,751.953125,0.0
1734413047.5308394,277.34375,-209.9609375,-170.8984375,796.38671875,0.0
1734413047.5347278,250.48828125,-220.703125,-255.859375,838.8671875,0.0
1734413047.5386164,257.8125,-27.34375,-258.30078125,833.984375,0.0
1734413047.542505,306.15234375,-233.3984375,-179.19921875,844.23828125,0.0
1734413047.5463936,304.19921875,-443.84765625,-74.21875,871.58203125,0.0
1734413047.550282,278.80859375,65.91796875,65.91796875,862.3046875,0.0
1734413047.5541706,260.7421875,283.69140625,4.39453125,927.24609375,0.0
1734413047.558295,276.85546875,-124.51171875,-313.4765625,975.5859375,0.0
1734413047.5621836,298.828125,-159.66796875,-163.0859375,967.28515625,0.0
1734413047.5660722,308.10546875,314.453125,211.9140625,969.23828125,0.0
1734413047.5699608,287.109375,474.609375,197.265625,970.21484375,0.0
1734413047.5738494,244.140625,28.80859375,-127.44140625,969.7265625,0.0
1734413047.5777378,234.375,-354.98046875,-408.203125,969.7265625,0.0
1734413047.5816264,256.8359375,-210.44921875,-264.16015625,969.23828125,0.0
1734413047.585515,263.671875,67.3828125,114.74609375,970.703125,0.0
1734413047.5894036,223.14453125,-432.6171875,-153.3203125,966.796875,0.0
1734413047.5932922,195.3125,-586.9140625,-415.0390625,964.84375,0.0
1734413047.5971808,208.0078125,50.78125,-250.9765625,969.7265625,0.0
1734413047.6010695,230.46875,69.82421875,-279.296875,969.7265625,0.0
1734413047.605172,236.328125,62.5,18.06640625,969.23828125,0.0
1734413047.6090605,216.30859375,245.1171875,149.90234375,969.7265625,0.0
1734413047.6129491,185.546875,264.16015625,-59.08203125,969.7265625,0.0
1734413047.6168377,213.37890625,-110.3515625,-353.02734375,969.7265625,0.0
1734413047.6207266,237.3046875,-402.34375,-458.984375,968.75,0.0
1734413047.6246152,217.28515625,-245.60546875,-77.63671875,969.23828125,0.0
1734413047.6285038,206.54296875,-126.46484375,-22.4609375,973.6328125,0.0
1734413047.6323924,162.109375,-390.625,-437.98828125,929.19921875,0.0
1734413047.636281,151.85546875,-728.515625,-572.75390625,920.8984375,0.0
1734413047.6401699,164.55078125,-233.88671875,-381.34765625,928.22265625,0.0
1734413047.6440585,173.33984375,322.75390625,18.06640625,919.43359375,0.0
1734413047.647947,196.77734375,-85.9375,-86.9140625,902.34375,0.0
1734413047.6520357,162.59765625,-371.58203125,-435.546875,854.98046875,0.0
1734413047.6559246,149.4140625,5.859375,-299.31640625,880.37109375,0.0
1734413047.6598132,128.41796875,25.390625,-386.71875,880.37109375,0.0
1734413047.663702,156.73828125,31.25,-160.15625,846.19140625,0.0
1734413047.6675906,190.4296875,159.1796875,110.83984375,823.73046875,0.0
1734413047.6714795,140.625,-69.3359375,-200.68359375,805.6640625,0.0
1734413047.675368,143.06640625,-401.3671875,-420.8984375,839.84375,0.0
1734413047.6792567,148.4375,-807.12890625,-596.6796875,881.8359375,0.0
1734413047.6831455,141.6015625,-620.60546875,-248.046875,827.63671875,0.0
1734413047.6870341,116.2109375,228.515625,234.86328125,769.53125,0.0
1734413047.690923,94.23828125,158.69140625,-122.0703125,764.6484375,0.0
1734413047.6948116,59.08203125,-303.22265625,-426.7578125,800.29296875,0.0
1734413047.6988764,64.453125,-246.09375,-457.03125,814.453125,0.0
1734413047.702765,101.5625,108.88671875,-204.58984375,755.859375,0.0
1734413047.7066538,107.421875,18.5546875,-45.41015625,786.1328125,0.0
1734413047.7105427,102.05078125,-227.5390625,-333.49609375,794.921875,0.0
1734413047.7144313,88.37890625,-214.84375,-454.1015625,818.84765625,0.0
1734413047.7183201,118.65234375,-423.33984375,-524.90234375,901.85546875,0.0
1734413047.722209,147.94921875,-568.84765625,-500.9765625,919.921875,0.0
1734413047.7260976,161.1328125,-721.6796875,-417.96875,908.69140625,0.0
1734413047.7299864,143.06640625,-289.55078125,-309.08203125,925.78125,0.0
1734413047.733875,83.49609375,14.6484375,-358.88671875,917.48046875,0.0
1734413047.737764,72.265625,-518.06640625,-536.62109375,891.11328125,0.0
1734413047.7416527,92.28515625,-533.203125,-440.91796875,917.96875,0.0
1734413047.745707,92.7734375,109.375,-4.8828125,887.20703125,0.0
1734413047.7495956,83.984375,11.71875,-137.20703125,832.03125,0.0
1734413047.7534845,79.58984375,-462.40234375,-492.67578125,824.70703125,0.0
1734413047.7573733,80.56640625,-379.8828125,-453.125,859.375,0.0
1734413047.7612622,88.37890625,-126.953125,-396.97265625,847.65625,0.0
1734413047.765151,86.42578125,-127.44140625,-251.953125,765.625,0.0
1734413047.7690396,92.28515625,-631.34765625,-460.44921875,677.24609375,0.0
1734413047.7729285,76.171875,-803.22265625,-584.9609375,631.34765625,0.0
1734413047.7768173,37.109375,-237.79296875,-395.5078125,610.83984375,0.0
1734413047.7807062,59.08203125,-103.515625,-426.7578125,596.19140625,0.0
1734413047.7845948,117.67578125,-53.22265625,-94.7265625,571.77734375,0.0
1734413047.7884836,88.8671875,157.71484375,91.30859375,451.66015625,0.0
1734413047.7926579,40.52734375,170.41015625,-220.703125,409.1796875,0.0
1734413047.7965467,42.48046875,-197.265625,-438.4765625,437.5,0.0
1734413047.8004355,68.359375,-456.54296875,-478.515625,420.8984375,0.0
1734413047.8043244,112.3046875,18.5546875,-26.85546875,432.12890625,0.0
1734413047.8082132,99.609375,310.546875,180.6640625,431.640625,0.0
1734413047.812102,61.5234375,-243.65234375,-334.47265625,449.70703125,0.0
1734413047.815991,66.40625,-849.12109375,-573.2421875,470.703125,0.0
1734413047.8198798,68.84765625,-327.63671875,-318.359375,482.91015625,0.0
1734413047.8237686,88.37890625,310.05859375,78.125,496.58203125,0.0
1734413047.8276575,116.2109375,69.82421875,103.02734375,502.9296875,0.0
1734413047.8315463,94.23828125,-111.328125,-205.56640625,486.328125,0.0
1734413047.8354354,60.546875,-29.78515625,-272.94921875,473.14453125,0.0
1734413047.839588,74.21875,-14.16015625,-350.5859375,471.6796875,0.0
1734413047.843477,103.02734375,-34.66796875,-164.55078125,465.33203125,0.0
1734413047.8473659,79.58984375,82.03125,117.67578125,459.47265625,0.0
1734413047.8512547,61.03515625,249.51171875,110.3515625,463.8671875,0.0
1734413047.8551438,29.78515625,4.39453125,-160.64453125,458.984375,0.0
1734413047.8590326,56.640625,-374.0234375,-429.19921875,465.33203125,0.0
1734413047.8629215,110.83984375,-299.31640625,-82.51953125,466.796875,0.0
1734413047.8668106,95.703125,-43.9453125,229.98046875,456.0546875,0.0
1734413047.8706994,70.3125,46.875,182.12890625,455.078125,0.0
1734413047.8745885,68.84765625,-519.53125,-193.84765625,451.171875,0.0
1734413047.8784773,94.7265625,-518.5546875,-196.2890625,507.8125,0.0
1734413047.8823662,104.98046875,424.31640625,349.12109375,507.8125,0.0
1734413047.8864968,107.91015625,515.625,395.5078125,456.54296875,0.0
1734413047.8903859,113.28125,332.03125,320.80078125,431.15234375,0.0
1734413047.8942747,104.00390625,393.5546875,314.453125,437.98828125,0.0
1734413047.8981638,85.9375,464.35546875,304.6875,492.67578125,0.0
1734413047.9020529,87.890625,467.7734375,385.7421875,473.6328125,0.0
1734413047.9059417,104.4921875,291.9921875,452.1484375,396.97265625,0.0
1734413047.9098308,105.95703125,406.25,420.41015625,360.83984375,0.0
1734413047.9137197,97.16796875,650.87890625,411.62109375,338.8671875,0.0
1734413047.9176087,85.44921875,147.94921875,186.5234375,348.6328125,0.0
1734413047.9214978,106.93359375,-316.40625,172.8515625,373.53515625,0.0
1734413047.9253867,103.02734375,427.24609375,518.5546875,388.18359375,0.0
1734413047.9292758,73.2421875,832.51953125,478.515625,325.68359375,0.0
1734413047.9333913,0.0,382.32421875,305.6640625,291.50390625,0.0
1734413047.9372804,0.0,187.5,271.484375,322.265625,0.0
1734413047.9411695,0.0,502.44140625,363.28125,386.71875,0.0
1734413047.9450586,0.0,669.921875,477.5390625,346.19140625,0.0
1734413047.9489477,0.0,436.5234375,422.36328125,266.11328125,0.0
1734413047.9528368,0.0,44.921875,253.41796875,278.80859375,0.0
1734413047.9567258,0.0,-100.09765625,188.96484375,287.59765625,0.0
1734413047.960615,0.0,70.80078125,254.39453125,298.828125,0.0
1734413047.9645038,0.0,-223.14453125,271.484375,265.625,0.0
1734413047.9683928,0.0,-101.5625,317.3828125,187.5,0.0
1734413047.972282,0.0,558.10546875,376.46484375,150.87890625,0.0
1734413047.976171,0.0,219.23828125,171.875,151.3671875,0.0
1734413047.9802742,35.15625,7.32421875,153.80859375,163.57421875,0.0
1734413047.9841633,42.96875,431.15234375,402.34375,100.09765625,0.0
1734413047.9880524,65.91796875,655.2734375,413.0859375,28.3203125,0.0
1734413047.9919415,63.96484375,334.9609375,242.1875,7.8125,0.0
1734413047.9958305,18.5546875,-44.43359375,109.375,31.73828125,0.0
1734413047.9997196,-13.18359375,-161.1328125,39.0625,20.99609375,0.0
1734413048.0036087,36.62109375,153.80859375,288.57421875,-42.96875,0.0
1734413048.0074978,45.8984375,183.10546875,232.421875,-101.07421875,0.0
1734413048.011387,1.46484375,-260.7421875,-71.77734375,-102.5390625,0.0
1734413048.0152762,-6.34765625,-36.62109375,55.17578125,-75.68359375,0.0
1734413048.0191653,-7.32421875,213.8671875,53.22265625,-66.89453125,0.0
1734413048.0230544,-2.44140625,-135.7421875,-38.0859375,-95.703125,0.0
1734413048.0271394,12.20703125,-256.8359375,59.5703125,-118.65234375,0.0
1734413048.0310285,-7.32421875,225.09765625,152.34375,-186.5234375,0.0
1734413048.0349176,-32.2265625,20.99609375,-209.47265625,-193.84765625,0.0
1734413048.038807,-12.20703125,-385.25390625,-483.88671875,-125.0,0.0
1734413048.042696,13.18359375,-210.44921875,-267.578125,-139.6484375,0.0
1734413048.046585,19.04296875,-119.140625,-153.80859375,-164.55078125,0.0
1734413048.0504742,20.5078125,-266.11328125,-345.21484375,-236.81640625,0.0
1734413048.0543635,-16.11328125,-692.87109375,-606.4453125,-214.35546875,0.0
1734413048.0582526,-24.4140625,-743.65234375,-622.0703125,-97.16796875,0.0
1734413048.0621417,8.7890625,-1.953125,-343.75,-131.34765625,0.0
1734413048.066031,44.43359375,156.25,-67.87109375,-229.00390625,0.0
1734413048.06992,25.87890625,-54.19921875,-179.6875,-246.58203125,0.0
1734413048.0739875,8.7890625,-125.0,-423.33984375,-215.8203125,0.0
1734413048.0778768,2.9296875,-59.5703125,-395.99609375,-181.640625,0.0
1734413048.081766,18.5546875,-105.95703125,-433.10546875,-216.796875,0.0
1734413048.0856552,52.734375,-142.578125,-200.1953125,-243.65234375,0.0
1734413048.0895443,33.203125,37.109375,-149.90234375,-233.3984375,0.0
1734413048.0934336,-3.41796875,-283.203125,-451.66015625,-241.2109375,0.0
1734413048.0973227,-25.87890625,-732.91015625,-604.98046875,-240.234375,0.0
1734413048.101212,-9.27734375,-897.94921875,-629.39453125,-183.10546875,0.0
1734413048.105101,8.30078125,-250.0,-24.90234375,-225.5859375,0.0
1734413048.1089904,-6.34765625,331.54296875,198.73046875,-299.31640625,0.0
1734413048.1128795,-5.37109375,-69.3359375,-138.18359375,-266.11328125,0.0
1734413048.1167688,-22.94921875,-271.484375,-334.47265625,-251.46484375,0.0
1734413048.120824,-41.50390625,95.703125,-206.54296875,-264.16015625,0.0
1734413048.1247134,17.08984375,339.35546875,187.98828125,-200.68359375,0.0
1734413048.1286027,11.23046875,139.16015625,254.39453125,-186.5234375,0.0
1734413048.1324918,-1.46484375,41.015625,116.69921875,-199.21875,0.0
1734413048.1363811,-19.04296875,53.7109375,31.73828125,-141.11328125,0.0
1734413048.1402705,-31.73828125,-59.08203125,-122.55859375,-107.91015625,0.0
1734413048.1441596,36.1328125,-476.07421875,-40.0390625,-83.0078125,0.0
1734413048.1480489,30.76171875,-434.5703125,193.84765625,-106.93359375,0.0
1734413048.1519382,-0.48828125,307.6171875,269.04296875,-135.25390625,0.0
1734413048.1558273,-20.5078125,78.61328125,111.328125,-94.23828125,0.0
1734413048.1597166,33.203125,-86.9140625,107.421875,-62.98828125,0.0
1734413048.163606,69.3359375,395.99609375,364.2578125,-34.1796875,0.0
1734413048.1676443,24.90234375,710.44921875,460.44921875,-85.44921875,0.0
1734413048.1715336,9.27734375,378.90625,257.8125,-134.765625,0.0
1734413048.1754227,-7.8125,-31.73828125,153.3203125,-105.46875,0.0
1734413048.179312,-13.671875,207.51953125,214.84375,-55.6640625,0.0
1734413048.1832013,11.71875,512.6953125,354.98046875,-21.484375,0.0
1734413048.1870906,64.453125,217.7734375,331.54296875,-22.94921875,0.0
1734413048.19098,45.41015625,-435.05859375,55.6640625,-46.875,0.0
1734413048.1948693,-18.06640625,-154.78515625,148.92578125,-48.33984375,0.0
1734413048.1987584,-20.01953125,326.66015625,250.0,-1.46484375,0.0
1734413048.2026477,38.57421875,114.2578125,187.5,24.4140625,0.0
1734413048.206537,36.1328125,159.1796875,338.37890625,-14.6484375,0.0
1734413048.2104263,-9.765625,506.8359375,370.1171875,-24.4140625,0.0
1734413048.2145796,0.0,155.76171875,162.59765625,-19.04296875,0.0
1734413048.218469,0.0,-289.0625,-29.78515625,27.83203125,0.0
1734413048.2223582,0.0,4.39453125,144.53125,27.34375,0.0
1734413048.2262475,0.0,441.40625,421.38671875,-8.7890625,0.0
1734413048.2301369,0.0,402.34375,299.8046875,12.6953125,0.0
1734413048.2340262,0.0,-125.48828125,1.953125,32.2265625,0.0
1734413048.2379155,0.0,-441.40625,-203.61328125,52.734375,0.0
1734413048.2418048,0.0,-220.21484375,4.39453125,85.9375,0.0
1734413048.2456942,0.0,209.9609375,347.65625,90.33203125,0.0
1734413048.2495837,0.0,-169.921875,74.21875,35.15625,0.0
1734413048.253473,0.0,-320.80078125,16.6015625,58.10546875,0.0
1734413048.2573624,0.0,194.82421875,190.4296875,92.7734375,0.0
1734413048.2611265,-19.04296875,131.8359375,132.32421875,88.8671875,0.0
1734413048.2650158,-20.99609375,126.953125,288.0859375,91.30859375,0.0
1734413048.2689052,-6.8359375,380.859375,307.6171875,55.6640625,0.0
1734413048.2727945,17.08984375,282.71484375,193.84765625,47.36328125,0.0
1734413048.2766838,5.859375,-186.5234375,-28.3203125,83.0078125,0.0
1734413048.2805731,-14.16015625,-395.01953125,-201.171875,78.61328125,0.0
1734413048.2844625,-3.41796875,8.7890625,208.49609375,98.14453125,0.0
1734413048.2883518,20.99609375,501.953125,438.96484375,54.19921875,0.0
1734413048.292241,24.4140625,53.22265625,76.66015625,40.0390625,0.0
1734413048.2961304,40.52734375,-669.43359375,-289.55078125,77.63671875,0.0
1734413048.3000197,27.83203125,-117.1875,7.32421875,65.91796875,0.0
1734413048.303909,-26.85546875,464.84375,374.0234375,73.73046875,0.0
1734413048.3076506,6.34765625,245.60546875,307.12890625,21.97265625,0.0
1734413048.31154,53.7109375,87.890625,187.01171875,-7.32421875,0.0
1734413048.3154292,-6.34765625,190.4296875,174.8046875,92.28515625,0.0
1734413048.3193183,-30.2734375,197.75390625,142.08984375,131.8359375,0.0
1734413048.3232076,-12.20703125,19.04296875,241.2109375,112.79296875,0.0
1734413048.327097,-9.765625,-122.55859375,260.25390625,106.4453125,0.0
1734413048.3309863,45.8984375,-124.51171875,165.0390625,80.078125,0.0
1734413048.3348756,23.4375,-177.24609375,115.234375,79.58984375,0.0
1734413048.338765,-15.625,-669.921875,-280.76171875,155.76171875,0.0
1734413048.342654,9.27734375,-470.703125,-70.80078125,164.55078125,0.0
1734413048.3465433,0.48828125,474.12109375,435.546875,85.9375,0.0
1734413048.3504326,6.8359375,298.828125,197.75390625,86.42578125,0.0
1734413048.3546681,57.6171875,-90.8203125,73.73046875,131.8359375,0.0
1734413048.3585575,38.57421875,23.92578125,127.44140625,208.984375,0.0
1734413048.3624468,55.6640625,305.6640625,250.0,218.75,0.0
1734413048.366336,96.19140625,286.62109375,326.171875,164.0625,0.0
1734413048.3702257,73.73046875,-16.11328125,183.10546875,165.0390625,0.0
1734413048.374115,39.0625,-240.234375,40.0390625,213.37890625,0.0
1734413048.3780043,51.7578125,-305.6640625,-145.99609375,231.93359375,0.0
1734413048.3818936,77.63671875,-327.63671875,-180.17578125,212.40234375,0.0
1734413048.385783,50.78125,-529.78515625,82.51953125,181.640625,0.0
1734413048.3896725,28.80859375,-30.76171875,267.08984375,123.046875,0.0
1734413048.3935618,20.5078125,40.52734375,82.51953125,101.5625,0.0
1734413048.3974512,-0.9765625,-427.734375,-216.30859375,111.81640625,0.0
1734413048.4015431,14.16015625,-145.01953125,-41.9921875,130.37109375,0.0
1734413048.4054327,43.45703125,348.6328125,342.7734375,62.01171875,0.0
1734413048.409322,52.24609375,339.35546875,256.34765625,76.66015625,0.0
1734413048.4132116,36.1328125,-92.28515625,-20.01953125,93.26171875,0.0
1734413048.417101,13.18359375,-176.26953125,-149.90234375,50.29296875,0.0
1734413048.4209902,22.4609375,-95.703125,-166.9921875,85.44921875,0.0
1734413048.4248798,48.828125,-127.9296875,112.3046875,56.15234375,0.0
1734413048.428769,51.7578125,-205.56640625,154.78515625,0.0,0.0
1734413048.4326584,-4.39453125,-102.5390625,35.15625,12.20703125,0.0
1734413048.436548,-9.27734375,102.5390625,84.9609375,32.2265625,0.0
1734413048.4404373,18.5546875,155.2734375,62.5,37.59765625,0.0
1734413048.4443269,58.10546875,-367.1875,-23.92578125,44.43359375,0.0
1734413048.4484017,54.6875,-270.5078125,104.00390625,-31.25,0.0
1734413048.4522913,-3.41796875,192.3828125,189.453125,-121.09375,0.0
1734413048.4561808,-3.41796875,-272.4609375,-194.3359375,-100.5859375,0.0
1734413048.4600701,20.5078125,-228.515625,-264.6484375,-16.11328125,0.0
1734413048.4639597,34.1796875,210.9375,175.29296875,-37.109375,0.0
1734413048.467849,28.3203125,119.62890625,262.20703125,-31.73828125,0.0
1734413048.4717386,11.71875,-291.50390625,-116.69921875,-21.97265625,0.0
1734413048.4756281,-12.6953125,-756.34765625,-419.43359375,-37.109375,0.0
1734413048.4795175,-58.10546875,-378.41796875,-238.28125,-4.8828125,0.0
1734413048.483407,-36.1328125,315.4296875,188.4765625,13.18359375,0.0
1734413048.4872963,22.94921875,138.18359375,195.3125,12.20703125,0.0
1734413048.491186,-0.9765625,-26.3671875,43.45703125,-29.78515625,0.0
1734413048.4953713,-74.70703125,95.703125,64.94140625,-4.8828125,0.0
1734413048.499261,-67.3828125,43.9453125,-170.8984375,8.30078125,0.0
1734413048.5031505,-20.01953125,-83.49609375,-153.3203125,8.30078125,0.0
1734413048.5070398,-12.6953125,44.921875,160.64453125,11.23046875,0.0
1734413048.5109293,-22.4609375,90.33203125,76.66015625,15.13671875,0.0
1734413048.514819,-18.5546875,-276.3671875,-237.79296875,40.0390625,0.0
1734413048.5187085,-22.4609375,-735.3515625,-495.1171875,101.07421875,0.0
1734413048.522598,-2.9296875,-688.96484375,-355.46875,108.3984375,0.0
1734413048.5264876,12.6953125,-33.203125,152.34375,44.43359375,0.0
1734413048.5303771,2.44140625,111.81640625,128.90625,56.15234375,0.0
1734413048.5342667,-34.66796875,-266.6015625,-229.98046875,34.66796875,0.0
1734413048.5381563,-58.10546875,-256.8359375,-358.88671875,16.6015625,0.0
1734413048.5421944,-39.55078125,74.21875,-200.1953125,55.6640625,0.0
1734413048.546084,9.27734375,103.02734375,107.421875,48.33984375,0.0
1734413048.5499735,20.99609375,-202.1484375,-102.05078125,2.9296875,0.0
1734413048.553863,-46.38671875,-157.71484375,-320.80078125,-23.92578125,0.0
1734413048.5577526,-74.21875,-83.49609375,-331.0546875,7.32421875,0.0
1734413048.5616422,-32.71484375,-455.56640625,-494.140625,38.57421875,0.0
1734413048.5655317,3.90625,-437.5,-156.25,14.16015625,0.0
1734413048.5694213,-28.3203125,-28.3203125,25.87890625,-17.08984375,0.0
1734413048.5733109,-29.78515625,-260.25390625,-349.12109375,-14.6484375,0.0
1734413048.5772004,-0.9765625,-744.140625,-558.59375,26.85546875,0.0
1734413048.58109,-13.18359375,-822.265625,-605.46875,60.546875,0.0
1734413048.5849795,-10.25390625,-136.23046875,-34.1796875,41.015625,0.0
1734413048.5890012,-29.78515625,203.61328125,144.04296875,21.97265625,0.0
1734413048.5928907,-83.0078125,-388.671875,-290.52734375,3.41796875,0.0
1734413048.5967803,-93.26171875,-608.88671875,-438.96484375,23.4375,0.0
1734413048.6006699,-83.984375,-145.5078125,-411.62109375,31.73828125,0.0
1734413048.6045594,-59.5703125,83.0078125,-61.5234375,14.16015625,0.0
1734413048.6084492,-62.01171875,-217.7734375,-54.6875,-20.01953125,0.0
1734413048.6123388,-82.51953125,-540.52734375,-440.4296875,-54.6875,0.0
1734413048.6162283,-82.51953125,-585.44921875,-446.2890625,-42.48046875,0.0
1734413048.620118,-80.078125,-414.55078125,-464.84375,-27.34375,0.0
1734413048.6240075,-66.40625,-538.57421875,-372.0703125,-43.9453125,0.0
1734413048.627897,-66.40625,-387.6953125,-43.9453125,-84.47265625,0.0
1734413048.6317868,-97.16796875,-98.6328125,-220.21484375,-97.65625,0.0
1734413048.6359208,-114.2578125,-523.4375,-524.90234375,-80.078125,0.0
1734413048.6398103,-96.6796875,-533.69140625,-518.06640625,-43.45703125,0.0
1734413048.6437001,-61.5234375,-104.00390625,-293.9453125,-26.85546875,0.0
1734413048.6475897,-81.0546875,153.80859375,3.41796875,-55.6640625,0.0
1734413048.6514792,-96.6796875,-166.50390625,-344.7265625,-74.70703125,0.0
1734413048.655369,-92.7734375,-768.06640625,-658.203125,-56.15234375,0.0
1734413048.6592586,-104.4921875,-687.01171875,-571.77734375,-70.3125,0.0
1734413048.6631484,-104.4921875,-96.6796875,-352.5390625,-89.84375,0.0
1734413048.667038,-142.578125,-310.546875,-381.34765625,-114.2578125,0.0
1734413048.6709278,-166.015625,-767.578125,-622.55859375,-165.0390625,0.0
1734413048.6748173,-178.22265625,-408.203125,-500.9765625,-155.76171875,0.0
1734413048.678707,-176.26953125,-299.8046875,-574.70703125,-118.65234375,0.0
1734413048.6828222,0.0,-525.390625,-535.15625,-132.32421875,0.0
1734413048.6867118,0.0,-360.3515625,-329.1015625,-147.4609375,0.0
1734413048.6906016,0.0,-297.36328125,-471.6796875,-166.015625,0.0
1734413048.6944914,0.0,-609.86328125,-653.80859375,-155.76171875,0.0
1734413048.698381,0.0,-778.3203125,-727.05078125,-125.48828125,0.0
1734413048.7022707,0.0,-827.63671875,-687.01171875,-105.95703125,0.0
1734413048.7061605,0.0,-694.3359375,-505.859375,-108.88671875,0.0
1734413048.71005,0.0,-652.34375,-527.83203125,-167.96875,0.0
1734413048.71394,0.0,-847.16796875,-748.046875,-170.41015625,0.0
1734413048.7178297,0.0,-875.9765625,-804.6875,-140.625,0.0
1734413048.7217193,0.0,-399.4140625,-600.09765625,-138.671875,0.0
1734413048.725609,0.0,-303.7109375,-471.6796875,-154.78515625,0.0
1734413048.7293465,-143.5546875,-515.625,-538.57421875,-167.96875,0.0
1734413048.733236,-129.39453125,-449.70703125,-622.55859375,-179.6875,0.0
1734413048.7371259,-136.23046875,-456.54296875,-673.33984375,-125.9765625,0.0
1734413048.7410154,-136.71875,-613.76953125,-723.14453125,-103.515625,0.0
1734413048.7449052,-134.27734375,-643.5546875,-618.65234375,-133.7890625,0.0
1734413048.7487948,-108.88671875,-622.55859375,-589.35546875,-155.76171875,0.0
1734413048.7526846,-100.5859375,-762.6953125,-677.734375,-154.78515625,0.0
1734413048.7565742,-119.140625,-936.5234375,-802.24609375,-125.48828125,0.0
1734413048.760464,-120.1171875,-947.265625,-855.95703125,-127.9296875,0.0
1734413048.7643535,-145.99609375,-440.91796875,-469.7265625,-144.53125,0.0
1734413048.7682433,-164.55078125,-84.9609375,-385.25390625,-150.87890625,0.0
1734413048.7721329,-111.81640625,-457.51953125,-590.33203125,-143.06640625,0.0
1734413048.7762287,-88.37890625,-665.52734375,-638.18359375,-149.4140625,0.0
1734413048.7801185,-80.078125,-369.62890625,-617.67578125,-145.99609375,0.0
1734413048.7840083,-72.75390625,-156.25,-428.22265625,-130.37109375,0.0
1734413048.7878978,-64.94140625,-300.29296875,-351.5625,-151.3671875,0.0
1734413048.7917876,-47.36328125,-324.21875,-458.49609375,-165.0390625,0.0
1734413048.7956774,-64.94140625,-501.953125,-584.47265625,-144.04296875,0.0
1734413048.799567,-51.7578125,-675.29296875,-586.9140625,-100.5859375,0.0
1734413048.8034568,-22.4609375,-802.24609375,-511.23046875,-103.02734375,0.0
1734413048.8073466,-43.45703125,-648.4375,-267.08984375,-155.76171875,0.0
1734413048.8112364,-53.22265625,-121.09375,-182.6171875,-173.828125,0.0
1734413048.815126,-58.10546875,-204.58984375,-380.859375,-168.9453125,0.0
1734413048.8190157,-85.44921875,-314.94140625,-451.66015625,-148.92578125,0.0
1734413048.8230808,-61.03515625,5.37109375,-197.75390625,-148.92578125,0.0
1734413048.8269706,-38.57421875,298.33984375,195.80078125,-143.5546875,0.0
1734413048.8308604,-46.38671875,98.6328125,3.90625,-139.6484375,0.0
1734413048.8347502,-57.12890625,-214.84375,-331.54296875,-157.71484375,0.0
1734413048.83864,-52.734375,-186.5234375,-397.94921875,-144.53125,0.0
1734413048.8425298,-47.36328125,-179.6875,-335.9375,-141.6015625,0.0
1734413048.8464196,-25.87890625,-303.7109375,-82.03125,-149.4140625,0.0
1734413048.8503094,-21.484375,-707.51953125,-237.3046875,-169.43359375,0.0
1734413048.854199,-88.37890625,-380.859375,-287.59765625,-205.56640625,0.0
1734413048.8580887,-90.33203125,64.94140625,-294.43359375,-166.015625,0.0
1734413048.8619785,-39.0625,-146.97265625,-355.46875,-136.71875,0.0
1734413048.8658683,-52.24609375,-72.265625,-8.7890625,-162.109375,0.0
1734413048.869919,-66.89453125,-17.08984375,-26.85546875,-168.45703125,0.0
1734413048.8738089,-78.61328125,-113.76953125,-365.72265625,-194.82421875,0.0
1734413048.8776987,-80.078125,-366.2109375,-480.95703125,-195.80078125,0.0
1734413048.8815885,-66.40625,-335.9375,-444.82421875,-180.6640625,0.0
1734413048.8854783,-53.7109375,-5.859375,-241.2109375,-216.796875,0.0
1734413048.889368,-82.03125,-210.9375,-315.91796875,-247.55859375,0.0
1734413048.8932579,-89.35546875,-732.421875,-689.94140625,-245.1171875,0.0
1734413048.8971477,-86.42578125,-944.82421875,-768.06640625,-232.91015625,0.0
1734413048.9010375,-90.8203125,-402.34375,-541.9921875,-252.44140625,0.0
1734413048.9049273,-64.94140625,-189.453125,-432.12890625,-291.9921875,0.0
1734413048.908817,-62.98828125,-419.921875,-485.83984375,-320.80078125,0.0
1734413048.9127069,-78.61328125,-387.6953125,-605.95703125,-332.03125,0.0
1734413048.9167452,0.0,-406.73828125,-670.41015625,-302.24609375,0.0
1734413048.920635,0.0,-580.078125,-746.09375,-295.41015625,0.0
1734413048.9245248,0.0,-556.640625,-600.5859375,-276.3671875,0.0
1734413048.9284148,0.0,-457.03125,-538.57421875,-271.97265625,0.0
1734413048.9323046,0.0,-567.3828125,-694.3359375,-310.546875,0.0
1734413048.9361944,0.0,-822.75390625,-833.984375,-298.828125,0.0
1734413048.9400842,0.0,-989.74609375,-902.83203125,-266.11328125,0.0
1734413048.943974,0.0,-547.36328125,-564.453125,-280.2734375,0.0
1734413048.947864,0.0,-131.8359375,-441.40625,-297.36328125,0.0
1734413048.9517539,0.0,-424.31640625,-638.671875,-272.94921875,0.0
1734413048.9556437,0.0,-676.7578125,-702.63671875,-254.39453125,0.0
1734413048.9595335,0.0,-442.87109375,-706.0546875,-242.1875,0.0
1734413048.9635522,-78.125,-267.08984375,-571.77734375,-244.140625,0.0
1734413048.967442,-102.05078125,-427.734375,-484.86328125,-256.8359375,0.0
1734413048.971332,-121.58203125,-502.9296875,-602.5390625,-255.37109375,0.0
1734413048.9752219,-126.953125,-390.625,-655.2734375,-251.953125,0.0
1734413048.9791117,-112.3046875,-434.5703125,-715.8203125,-202.63671875,0.0
1734413048.9830017,-119.140625,-692.87109375,-687.01171875,-186.5234375,0.0
1734413048.9868915,-130.37109375,-778.80859375,-522.4609375,-201.66015625,0.0
1734413048.9907813,-118.65234375,-598.6328125,-567.87109375,-210.44921875,0.0
1734413048.9946713,-119.140625,-684.08203125,-671.875,-180.6640625,0.0
1734413048.9985611,-131.34765625,-871.09375,-724.609375,-149.90234375,0.0
1734413049.002451,-143.06640625,-583.49609375,-559.5703125,-150.390625,0.0
1734413049.006341,-118.1640625,-86.9140625,-345.21484375,-168.9453125,0.0
1734413049.0104678,-119.62890625,-157.71484375,-462.40234375,-182.6171875,0.0
1734413049.0143576,-131.8359375,-586.9140625,-618.1640625,-171.38671875,0.0
1734413049.0182476,-134.765625,-569.82421875,-613.28125,-168.45703125,0.0
1734413049.0221374,-159.1796875,-220.21484375,-512.6953125,-167.96875,0.0
1734413049.0260274,-143.5546875,-281.73828125,-436.03515625,-146.97265625,0.0
1734413049.0299175,-137.6953125,-710.44921875,-574.70703125,-154.78515625,0.0
1734413049.0338073,-175.29296875,-678.7109375,-598.6328125,-184.08203125,0.0
1734413049.0376973,-180.6640625,-377.44140625,-569.3359375,-180.17578125,0.0
1734413049.041587,-157.2265625,-582.51953125,-689.453125,-146.97265625,0.0
1734413049.0454772,-152.34375,-834.9609375,-635.25390625,-154.78515625,0.0
1734413049.049367,-183.59375,-528.3203125,-474.609375,-219.23828125,0.0
1734413049.053257,-223.14453125,-348.14453125,-565.91796875,-248.53515625,0.0
1734413049.0573673,-218.75,-671.38671875,-687.01171875,-209.9609375,0.0
1734413049.0612574,-194.3359375,-703.125,-683.59375,-175.29296875,0.0
1734413049.0651474,-170.8984375,-296.875,-457.03125,-199.21875,0.0
1734413049.0690374,-185.546875,-263.18359375,-462.890625,-244.62890625,0.0
1734413049.0729272,-191.40625,-679.19921875,-712.890625,-255.37109375,0.0
1734413049.0768173,-199.21875,-1000.0,-785.64453125,-222.16796875,0.0
1734413049.0807073,-220.703125,-977.5390625,-799.31640625,-213.37890625,0.0
1734413049.0845973,-190.4296875,-815.91796875,-587.40234375,-233.88671875,0.0
1734413049.0884871,-163.57421875,-867.67578125,-650.87890625,-244.62890625,0.0
1734413049.0923772,-209.9609375,-862.79296875,-792.48046875,-242.1875,0.0
1734413049.0962672,-219.23828125,-583.984375,-684.5703125,-261.23046875,0.0
1734413049.1001573,-181.640625,-637.6953125,-757.8125,-229.98046875,0.0
1734413049.1042562,-181.15234375,-685.546875,-618.65234375,-212.40234375,0.0
1734413049.1081462,-163.57421875,-609.86328125,-484.375,-252.44140625,0.0
1734413049.1120362,-164.0625,-434.08203125,-577.1484375,-231.93359375,0.0
1734413049.1159263,-172.36328125,-583.984375,-711.9140625,-219.7265625,0.0
1734413049.1198163,-178.22265625,-829.58984375,-806.640625,-243.65234375,0.0
1734413049.1237063,-163.0859375,-746.09375,-608.3984375,-208.0078125,0.0
1734413049.1275964,-159.1796875,-423.828125,-330.56640625,-223.6328125,0.0
1734413049.1314864,-149.90234375,-404.296875,-553.7109375,-270.5078125,0.0
1734413049.1353765,-150.390625,-922.8515625,-777.83203125,-230.46875,0.0
1734413049.1392663,-175.29296875,-614.74609375,-577.63671875,-223.6328125,0.0
1734413049.1431563,-142.08984375,16.11328125,-329.58984375,-234.375,0.0
1734413049.1470463,-123.53515625,-252.44140625,-291.9921875,-222.65625,0.0
1734413049.1511312,-139.16015625,-438.96484375,-434.08203125,-234.375,0.0
1734413049.1550214,-160.15625,-5.37109375,-346.6796875,-265.625,0.0
1734413049.1589115,-149.4140625,-63.96484375,-421.875,-203.125,0.0
1734413049.1628015,-132.32421875,-198.2421875,-378.41796875,-170.41015625,0.0
1734413049.1666915,-104.4921875,-137.6953125,21.97265625,-197.75390625,0.0
1734413049.1705816,-90.33203125,-99.609375,11.23046875,-195.80078125,0.0
1734413049.1744716,-125.0,-173.828125,-271.97265625,-187.01171875,0.0
1734413049.178362,-120.60546875,-696.77734375,-528.80859375,-155.76171875,0.0
1734413049.182252,-95.703125,-590.8203125,-327.63671875,-162.109375,0.0
1734413049.186142,-90.33203125,398.92578125,316.40625,-185.546875,0.0
1734413049.190032,-78.125,461.9140625,255.37109375,-190.91796875,0.0
1734413049.193922,-88.8671875,88.8671875,67.87109375,-180.6640625,0.0
1734413049.1979866,-119.140625,100.09765625,101.07421875,-167.96875,0.0
1734413049.2018766,-89.84375,321.77734375,161.1328125,-126.953125,0.0
1734413049.2057667,-34.1796875,350.09765625,321.77734375,-115.234375,0.0
1734413049.209657,-48.828125,281.73828125,330.56640625,-162.109375,0.0
1734413049.213547,-80.56640625,288.57421875,198.73046875,-151.3671875,0.0
1734413049.217437,-68.359375,-3.90625,63.4765625,-132.32421875,0.0
1734413049.2213273,-39.55078125,-201.66015625,35.15625,-101.07421875,0.0
1734413049.2252173,-41.015625,-417.48046875,242.67578125,-96.6796875,0.0
1734413049.2291074,-61.03515625,-29.296875,388.671875,-166.50390625,0.0
1734413049.2329977,-68.359375,523.4375,313.96484375,-174.8046875,0.0
1734413049.2368877,-64.453125,152.83203125,104.00390625,-130.859375,0.0
1734413049.2407777,-46.38671875,51.7578125,104.98046875,-100.09765625,0.0
1734413049.2448342,-34.1796875,549.8046875,420.8984375,-132.32421875,0.0
1734413049.2487242,-28.3203125,715.8203125,457.03125,-156.73828125,0.0
1734413049.2526145,-39.0625,350.09765625,295.8984375,-139.6484375,0.0
1734413049.2565045,-39.55078125,194.82421875,236.81640625,-128.90625,0.0
1734413049.2603948,-48.33984375,330.56640625,226.07421875,-139.16015625,0.0
1734413049.2642848,-44.921875,345.21484375,377.9296875,-118.65234375,0.0
1734413049.2681751,-28.3203125,-159.66796875,272.94921875,-96.6796875,0.0
1734413049.2720652,-10.25390625,-400.87890625,181.15234375,-152.83203125,0.0
1734413049.2759554,-53.7109375,328.61328125,350.09765625,-163.57421875,0.0
1734413049.2798455,-63.96484375,447.75390625,252.44140625,-113.28125,0.0
1734413049.2837358,-34.66796875,243.65234375,317.87109375,-104.98046875,0.0
1734413049.287626,-7.8125,410.15625,471.6796875,-147.94921875,0.0
1734413049.2916586,-29.296875,687.5,435.546875,-156.25,0.0
1734413049.2955487,-66.89453125,426.26953125,289.55078125,-142.578125,0.0
1734413049.299439,-53.7109375,153.80859375,235.3515625,-133.30078125,0.0
1734413049.3033292,-17.08984375,484.375,400.390625,-128.41796875,0.0
1734413049.3072193,2.44140625,772.94921875,532.2265625,-141.11328125,0.0
1734413049.3111095,-12.20703125,411.62109375,358.3984375,-139.6484375,0.0
1734413049.3149996,-16.11328125,-273.92578125,229.00390625,-128.41796875,0.0
1734413049.3188899,-36.1328125,98.6328125,333.0078125,-137.20703125,0.0
1734413049.3227801,-45.8984375,740.72265625,446.77734375,-146.484375,0.0
1734413049.3266702,-19.53125,629.8828125,484.86328125,-148.4375,0.0
1734413049.3305604,-39.0625,579.1015625,446.2890625,-158.69140625,0.0
1734413049.3344507,-52.734375,704.1015625,421.875,-155.76171875,0.0
1734413049.3384714,-55.6640625,634.27734375,371.09375,-115.234375,0.0
1734413049.3423617,-28.80859375,375.9765625,358.88671875,-99.12109375,0.0
1734413049.346252,4.8828125,368.65234375,501.953125,-136.23046875,0.0
1734413049.3501422,-27.34375,766.11328125,532.2265625,-145.01953125,0.0
1734413049.3540325,-33.69140625,749.0234375,408.69140625,-121.09375,0.0
1734413049.3579226,-20.99609375,202.63671875,305.6640625,-116.2109375,0.0
1734413049.3618128,-24.90234375,10.7421875,308.59375,-95.703125,0.0
1734413049.365703,-19.04296875,377.9296875,479.00390625,-84.47265625,0.0
1734413049.3695934,-24.90234375,722.16796875,515.13671875,-138.671875,0.0
1734413049.3734834,-26.85546875,188.4765625,292.48046875,-147.4609375,0.0
1734413049.3773737,-40.0390625,2.44140625,272.94921875,-109.86328125,0.0
1734413049.381264,-24.4140625,616.2109375,398.92578125,-83.0078125,0.0
1734413049.3853912,-20.5078125,660.15625,488.76953125,-118.1640625,0.0
1734413049.3892815,-29.78515625,550.78125,483.88671875,-137.20703125,0.0
1734413049.3931718,-24.90234375,596.6796875,404.296875,-119.140625,0.0
1734413049.397062,-53.22265625,589.84375,344.7265625,-113.28125,0.0
1734413049.4009523,-36.1328125,320.80078125,303.22265625,-102.5390625,0.0
1734413049.4048426,0.48828125,136.71875,446.2890625,-76.66015625,0.0
1734413049.408733,-10.7421875,310.546875,484.86328125,-88.37890625,0.0
1734413049.4126232,-50.29296875,555.6640625,459.47265625,-145.99609375,0.0
1734413049.4165137,-42.48046875,318.359375,305.17578125,-120.60546875,0.0
1734413049.420404,-9.765625,-113.28125,226.07421875,-82.51953125,0.0
1734413049.4242942,-5.37109375,565.4296875,537.59765625,-98.6328125,0.0
1734413049.4281845,-0.9765625,-981.4453125,612.79296875,-97.16796875,0.0
1734413049.432291,-11.71875,665.0390625,431.640625,-94.23828125,0.0
1734413049.4361813,-33.203125,379.8828125,372.55859375,-72.75390625,0.0
1734413049.4400716,-39.0625,521.484375,422.8515625,-85.44921875,0.0
1734413049.4439619,-6.34765625,781.73828125,520.5078125,-82.03125,0.0
1734413049.4478524,1.46484375,746.58203125,610.83984375,-77.63671875,0.0
1734413049.4517426,10.7421875,513.671875,508.7890625,-76.171875,0.0
1734413049.455633,7.32421875,363.76953125,420.41015625,-59.5703125,0.0
1734413049.4595232,-3.90625,392.08984375,420.8984375,-33.69140625,0.0
1734413049.4634137,14.6484375,89.84375,430.6640625,-12.6953125,0.0
1734413049.467304,29.296875,301.7578125,598.14453125,-39.55078125,0.0
1734413049.4711943,26.3671875,-961.9140625,671.38671875,-65.4296875,0.0
1734413049.4750845,18.5546875,877.9296875,552.734375,-47.8515625,0.0
1734413049.4791765,30.76171875,714.35546875,515.625,-5.859375,0.0
1734413049.483067,47.36328125,904.296875,645.5078125,-17.578125,0.0
1734413049.4869573,62.98828125,993.65234375,787.59765625,-17.578125,0.0
1734413049.4908476,50.78125,917.96875,725.09765625,-37.109375,0.0
1734413049.494738,20.5078125,833.49609375,628.90625,-51.26953125,0.0
1734413049.4986284,47.8515625,653.80859375,573.73046875,-18.5546875,0.0
1734413049.502519,62.5,789.0625,634.765625,-30.2734375,0.0
1734413049.5064092,51.26953125,912.59765625,771.97265625,-28.3203125,0.0
1734413049.5102994,49.31640625,553.22265625,681.640625,-40.52734375,0.0
1734413049.51419,34.66796875,806.15234375,654.296875,-65.91796875,0.0
1734413049.5180802,8.7890625,-966.796875,644.04296875,-54.6875,0.0
1734413049.5219707,16.6015625,780.2734375,552.24609375,-49.31640625,0.0
1734413049.5260417,29.78515625,785.15625,685.546875,-54.19921875,0.0
1734413049.5299323,21.97265625,981.93359375,750.9765625,-69.82421875,0.0
1734413049.5338225,22.94921875,979.00390625,633.7890625,-59.08203125,0.0
1734413049.537713,31.73828125,747.55859375,580.078125,-59.08203125,0.0
1734413049.5416036,33.69140625,768.5546875,590.8203125,-66.89453125,0.0
1734413049.5454938,26.3671875,913.0859375,675.29296875,-61.03515625,0.0
1734413049.5493844,12.6953125,875.9765625,666.50390625,-92.7734375,0.0
1734413049.5532746,2.44140625,222.65625,440.91796875,-68.84765625,0.0
1734413049.5571651,-13.18359375,-17.08984375,414.0625,-61.03515625,0.0
1734413049.5610557,-6.8359375,770.99609375,568.84765625,-69.3359375,0.0
1734413049.564946,-12.20703125,921.875,615.234375,-84.47265625,0.0
1734413049.5688365,-23.92578125,805.6640625,618.65234375,-97.65625,0.0
1734413049.5729043,-41.015625,870.60546875,567.3828125,-102.05078125,0.0
1734413049.5767949,-46.875,846.6796875,508.30078125,-116.69921875,0.0
1734413049.5806854,-27.34375,586.9140625,451.171875,-92.7734375,0.0
1734413049.5845757,-5.37109375,481.4453125,537.59765625,-72.265625,0.0
1734413049.5884662,-18.5546875,761.71875,594.7265625,-93.75,0.0
1734413049.5923567,-34.1796875,609.375,486.328125,-111.81640625,0.0
1734413049.5962472,-36.62109375,157.71484375,325.1953125,-104.98046875,0.0
1734413049.6001375,-24.4140625,-294.43359375,267.08984375,-101.07421875,0.0
1734413049.604028,-20.01953125,266.6015625,503.90625,-116.69921875,0.0
1734413049.6079185,-14.16015625,954.1015625,598.6328125,-122.0703125,0.0
1734413049.611809,-32.2265625,544.921875,375.48828125,-104.00390625,0.0
1734413049.6156995,-77.1484375,287.59765625,287.59765625,-129.8828125,0.0
1734413049.6197503,0.0,425.29296875,321.77734375,-117.1875,0.0
1734413049.6236408,0.0,538.0859375,393.06640625,-94.23828125,0.0
1734413049.627531,0.0,442.3828125,467.7734375,-126.46484375,0.0
1734413049.6314216,0.0,391.11328125,389.6484375,-160.15625,0.0
1734413049.635312,0.0,394.53125,296.38671875,-167.96875,0.0
1734413049.6392026,0.0,57.6171875,174.8046875,-127.44140625,0.0
1734413049.643093,0.0,-506.34765625,-0.9765625,-100.09765625,0.0
1734413049.6469836,0.0,-589.84375,169.43359375,-125.0,0.0
1734413049.6508741,0.0,1.953125,327.63671875,-182.12890625,0.0
1734413049.6547647,0.0,113.28125,154.78515625,-186.03515625,0.0
1734413049.6586552,0.0,-103.515625,14.6484375,-149.90234375,0.0
1734413049.6625457,0.0,72.265625,133.30078125,-139.16015625,0.0
1734413049.6665766,-109.375,505.37109375,407.2265625,-168.9453125,0.0
1734413049.6704671,-122.55859375,360.83984375,275.87890625,-191.89453125,0.0
1734413049.6743577,-119.140625,-22.94921875,91.30859375,-168.9453125,0.0
1734413049.6782482,-131.34765625,-50.78125,72.265625,-145.01953125,0.0
1734413049.6821387,-103.02734375,90.33203125,74.21875,-141.11328125,0.0
1734413049.6860292,-109.86328125,-51.26953125,221.19140625,-163.0859375,0.0
1734413049.6899197,-127.44140625,-589.84375,12.6953125,-158.69140625,0.0
1734413049.6938102,-125.48828125,-311.5234375,-37.109375,-174.8046875,0.0
1734413049.6977007,-139.16015625,83.49609375,58.59375,-168.45703125,0.0
1734413049.7015913,-120.60546875,-273.4375,-279.78515625,-133.7890625,0.0
1734413049.7054818,-113.28125,-181.15234375,-45.41015625,-147.94921875,0.0
1734413049.7093725,-133.30078125,243.65234375,280.2734375,-172.36328125,0.0
1734413049.7133858,-151.3671875,147.4609375,-28.3203125,-199.21875,0.0
1734413049.7172766,-153.3203125,-346.19140625,-335.9375,-177.734375,0.0
1734413049.721167,-157.71484375,-433.59375,-440.91796875,-153.3203125,0.0
1734413049.7250576,-155.76171875,12.6953125,-136.23046875,-167.96875,0.0
1734413049.728948,-145.01953125,56.640625,27.34375,-163.57421875,0.0
1734413049.7328386,-174.8046875,-494.62890625,-434.5703125,-179.6875,0.0
1734413049.7367291,-192.3828125,-977.5390625,-695.80078125,-200.68359375,0.0
1734413049.74062,-168.45703125,-917.96875,-668.45703125,-176.26953125,0.0
1734413049.7445104,-172.36328125,-563.96484375,-529.78515625,-182.12890625,0.0
1734413049.748401,-211.9140625,-705.56640625,-577.63671875,-227.05078125,0.0
1734413049.7522914,-248.046875,-847.16796875,-743.65234375,-247.55859375,0.0
1734413049.756182,-255.37109375,-780.76171875,-826.66015625,-243.1640625,0.0
1734413049.760299,-256.8359375,-987.3046875,-923.828125,-220.703125,0.0
1734413049.7641897,-247.55859375,-960.9375,-866.69921875,-230.95703125,0.0
1734413049.7680802,-227.05078125,-801.7578125,-778.80859375,-255.859375,0.0
1734413049.7719707,-251.46484375,-869.62890625,-877.44140625,-258.7890625,0.0
1734413049.7758615,-270.01953125,-993.1640625,-965.8203125,-237.3046875,0.0
1734413049.779752,-256.8359375,-1000.0,-997.0703125,-231.4453125,0.0
1734413049.7836428,-251.46484375,-985.83984375,-924.31640625,-259.27734375,0.0
1734413049.7875333,-260.7421875,-952.1484375,-861.328125,-270.99609375,0.0
1734413049.7914238,-270.01953125,-984.375,-949.70703125,-276.85546875,0.0
1734413049.7953146,-278.3203125,-1000.0,-1000.0,-267.578125,0.0
1734413049.799205,-284.1796875,-998.53515625,-991.2109375,-253.90625,0.0
1734413049.8030956,-268.5546875,-1000.0,-969.7265625,-237.3046875,0.0
1734413049.8072014,-244.62890625,-989.2578125,-899.4140625,-238.76953125,0.0
1734413049.8110921,-232.91015625,-986.81640625,-909.1796875,-251.46484375,0.0
1734413049.8149827,-240.234375,-999.0234375,-949.21875,-250.48828125,0.0
1734413049.8188734,-229.00390625,-1000.0,-961.42578125,-220.21484375,0.0
1734413049.822764,-188.96484375,-990.72265625,-939.453125,-202.1484375,0.0
1734413049.8266547,-189.94140625,-985.3515625,-802.734375,-196.77734375,0.0
1734413049.8305454,-191.40625,-1000.0,-798.828125,-205.078125,0.0
1734413049.834436,-168.9453125,-975.5859375,-832.03125,-209.9609375,0.0
1734413049.8383267,-152.83203125,-1000.0,-901.85546875,-160.15625,0.0
1734413049.8422172,-145.99609375,-823.2421875,-826.171875,-161.1328125,0.0
1734413049.846108,-145.99609375,-265.13671875,-442.3828125,-180.6640625,0.0
1734413049.8499985,-135.25390625,-215.33203125,-441.89453125,-176.26953125,0.0
1734413049.854086,-123.046875,-466.796875,-582.51953125,-172.8515625,0.0
1734413049.8579764,-127.9296875,-532.71484375,-540.52734375,-145.99609375,0.0
1734413049.8618672,-93.26171875,-281.73828125,-467.7734375,-126.46484375,0.0
1734413049.865758,-58.10546875,-39.55078125,-234.86328125,-126.953125,0.0
1734413049.8696487,-58.10546875,-143.06640625,-59.5703125,-139.16015625,0.0
1734413049.8735392,-55.6640625,-250.9765625,-229.98046875,-134.765625,0.0
1734413049.87743,-52.24609375,-263.18359375,-316.40625,-96.6796875,0.0
1734413049.8813207,-34.1796875,-340.33203125,-379.8828125,-67.87109375,0.0
1734413049.8852115,-13.671875,-519.53125,-159.66796875,-76.66015625,0.0
1734413049.889102,-18.06640625,141.6015625,333.0078125,-111.328125,0.0
1734413049.8929927,-29.296875,553.7109375,302.734375,-113.76953125,0.0
1734413049.8968835,-23.4375,66.40625,91.796875,-81.0546875,0.0
1734413049.9009604,-1.46484375,19.04296875,119.140625,-70.80078125,0.0
1734413049.9048512,12.6953125,583.984375,418.45703125,-78.125,0.0
1734413049.908742,5.37109375,719.7265625,477.5390625,-104.00390625,0.0
1734413049.9126327,8.7890625,434.5703125,368.65234375,-114.2578125,0.0
1734413049.9165235,-4.39453125,277.83203125,288.0859375,-90.33203125,0.0
1734413049.9204142,-9.765625,189.94140625,237.79296875,-73.2421875,0.0
1734413049.924305,10.7421875,324.21875,377.44140625,-65.4296875,0.0
1734413049.9281957,39.0625,-53.7109375,349.12109375,-34.66796875,0.0
1734413049.9320865,48.828125,-142.08984375,312.98828125,-41.015625,0.0
1734413049.9359772,11.71875,571.77734375,413.0859375,-91.796875,0.0
1734413049.939868,4.8828125,337.40234375,288.0859375,-77.1484375,0.0
1734413049.9437587,40.52734375,306.640625,390.625,-39.55078125,0.0
1734413049.947818,33.69140625,759.765625,575.68359375,-56.640625,0.0
1734413049.9517088,5.37109375,915.0390625,520.99609375,-90.33203125,0.0
1734413049.9555995,-4.39453125,546.875,385.7421875,-78.125,0.0
1734413049.9594903,13.18359375,247.55859375,340.8203125,-56.640625,0.0
1734413049.963381,31.73828125,570.3125,462.40234375,-51.7578125,0.0
1734413049.9672718,31.73828125,616.2109375,549.8046875,-70.3125,0.0
1734413049.9711626,23.4375,385.25390625,451.171875,-79.1015625,0.0
1734413049.9750533,26.3671875,-85.44921875,362.79296875,-60.05859375,0.0
1734413049.978944,19.04296875,172.8515625,406.25,-53.7109375,0.0
1734413049.982835,27.34375,763.18359375,469.23828125,-37.59765625,0.0
1734413049.9867258,27.83203125,635.25390625,479.98046875,-48.33984375,0.0
1734413049.9906166,0.48828125,525.390625,450.1953125,-75.68359375,0.0
1734413049.9946551,1.953125,629.8828125,391.11328125,-77.1484375,0.0
1734413049.998546,-8.30078125,303.7109375,229.4921875,-64.94140625,0.0
1734413050.0024366,3.90625,-21.97265625,189.453125,-44.43359375,0.0
1734413050.0063276,-5.37109375,310.546875,403.80859375,-63.96484375,0.0
1734413050.0102184,-42.96875,471.6796875,349.609375,-89.35546875,0.0
1734413050.0141091,-66.40625,13.18359375,15.625,-113.28125,0.0
1734413050.018,-75.1953125,-692.3828125,-415.0390625,-88.37890625,0.0
1734413050.0218906,-64.94140625,-816.40625,-547.8515625,-70.80078125,0.0
1734413050.0257816,-73.73046875,10.7421875,40.0390625,-111.328125,0.0
1734413050.0296724,-86.42578125,184.08203125,160.64453125,-125.0,0.0
1734413050.0335631,-112.3046875,-222.16796875,-292.48046875,-141.6015625,0.0
1734413050.037454,-128.41796875,-281.73828125,-430.17578125,-132.32421875,0.0
1734413050.0414865,-118.65234375,-124.51171875,-418.45703125,-106.93359375,0.0
1734413050.0453775,-110.3515625,-109.375,-293.9453125,-100.5859375,0.0
1734413050.0492682,-108.88671875,-250.48828125,-235.3515625,-144.04296875,0.0
1734413050.0531592,-128.90625,-165.52734375,-376.953125,-170.8984375,0.0
1734413050.05705,-137.6953125,-238.28125,-484.86328125,-137.6953125,0.0
1734413050.0609407,-114.74609375,-660.64453125,-613.28125,-99.609375,0.0
1734413050.0648317,-100.09765625,-777.34375,-501.953125,-99.12109375,0.0
1734413050.0687225,-101.5625,-446.2890625,-248.53515625,-125.9765625,0.0
1734413050.0726132,-113.28125,-93.26171875,-279.78515625,-149.4140625,0.0
1734413050.0765042,-106.93359375,-470.21484375,-527.83203125,-130.37109375,0.0
1734413050.080395,-99.12109375,-788.57421875,-606.4453125,-96.6796875,0.0
1734413050.084286,-103.515625,-118.65234375,-215.33203125,-108.88671875,0.0
1734413050.088301,-82.51953125,217.7734375,176.7578125,-122.0703125,0.0
1734413050.0921917,-85.44921875,-62.98828125,3.90625,-132.8125,0.0
1734413050.0960827,-89.84375,-239.74609375,-272.4609375,-131.8359375,0.0
1734413050.0999734,-74.21875,-41.50390625,-218.26171875,-92.28515625,0.0
1734413050.1038644,-59.08203125,139.16015625,27.34375,-80.078125,0.0
1734413050.1077552,-29.78515625,-50.29296875,271.484375,-111.328125,0.0
1734413050.1116462,-31.73828125,-206.0546875,195.3125,-131.34765625,0.0
1734413050.115537,-62.98828125,-149.4140625,157.2265625,-125.0,0.0
1734413050.119428,-55.6640625,-37.59765625,213.37890625,-93.26171875,0.0
1734413050.1233187,-4.8828125,-107.421875,293.9453125,-77.63671875,0.0
1734413050.1272097,23.4375,354.00390625,553.7109375,-79.58984375,0.0
1734413050.1311004,45.41015625,-975.09765625,683.59375,-89.35546875,0.0
1734413050.1352186,69.82421875,902.83203125,616.2109375,-78.125,0.0
1734413050.1391096,77.1484375,863.76953125,617.1875,-29.78515625,0.0
1734413050.1430006,110.83984375,950.68359375,742.1875,-13.18359375,0.0
1734413050.1468916,118.1640625,987.79296875,832.03125,-37.59765625,0.0
1734413050.1507823,97.16796875,937.5,770.5078125,-55.17578125,0.0
1734413050.1546733,76.66015625,630.859375,639.16015625,-53.7109375,0.0
1734413050.1585643,76.171875,700.1953125,627.9296875,-46.875,0.0
1734413050.162455,85.44921875,-974.12109375,733.3984375,-32.71484375,0.0
1734413050.166346,96.19140625,849.609375,783.69140625,-22.94921875,0.0
1734413050.170237,101.5625,656.73828125,748.53515625,-29.296875,0.0
1734413050.1741278,68.84765625,962.40234375,719.7265625,-52.734375,0.0
1734413050.1780188,68.84765625,828.125,615.234375,-44.921875,0.0
1734413050.182122,74.70703125,567.87109375,533.69140625,-19.53125,0.0
1734413050.186013,40.52734375,809.5703125,670.41015625,-56.640625,0.0
1734413050.189904,12.6953125,990.72265625,706.0546875,-88.8671875,0.0
1734413050.193795,16.11328125,882.32421875,562.98828125,-95.21484375,0.0
1734413050.197686,6.34765625,423.33984375,458.0078125,-75.68359375,0.0
1734413050.201577,-1.46484375,160.15625,401.85546875,-37.109375,0.0
1734413050.205468,3.90625,277.34375,464.84375,-51.7578125,0.0
1734413050.209359,-16.6015625,444.3359375,536.62109375,-85.9375,0.0
1734413050.21325,-44.43359375,-191.40625,215.8203125,-87.890625,0.0
1734413050.2171407,-48.33984375,-486.328125,98.14453125,-103.515625,0.0
1734413050.2210317,-59.08203125,286.1328125,298.828125,-104.4921875,0.0
1734413050.2249227,-74.21875,376.46484375,315.91796875,-103.02734375,0.0
1734413050.2290118,-54.6875,202.63671875,339.84375,-107.421875,0.0
1734413050.2329028,-62.5,242.67578125,265.625,-108.88671875,0.0
1734413050.2367938,-106.93359375,-23.92578125,-8.7890625,-128.41796875,0.0
1734413050.2406847,-135.7421875,-431.640625,-349.609375,-123.53515625,0.0
1734413050.244576,-129.39453125,-331.54296875,-224.609375,-104.98046875,0.0
1734413050.248467,-132.32421875,-270.5078125,107.91015625,-120.60546875,0.0
1734413050.252358,-181.15234375,-251.953125,-50.29296875,-151.3671875,0.0
1734413050.256249,-190.4296875,-429.19921875,-478.02734375,-150.87890625,0.0
1734413050.26014,-164.0625,-882.8125,-633.7890625,-111.81640625,0.0
1734413050.264031,-171.38671875,-443.359375,-376.46484375,-119.140625,0.0
1734413050.267922,-187.01171875,44.43359375,-53.22265625,-141.11328125,0.0
1734413050.271813,-193.84765625,-312.98828125,-219.23828125,-142.08984375,0.0
1734413050.275886,0.0,-542.96875,-520.5078125,-145.01953125,0.0
1734413050.279777,0.0,-503.90625,-531.25,-118.1640625,0.0
1734413050.283668,0.0,-487.3046875,-511.71875,-104.98046875,0.0
1734413050.287559,0.0,-428.7109375,-350.09765625,-134.765625,0.0
1734413050.2914503,0.0,-484.86328125,-437.98828125,-147.4609375,0.0
1734413050.2953413,0.0,-723.6328125,-664.55078125,-136.23046875,0.0
1734413050.2992322,0.0,-955.56640625,-678.22265625,-125.9765625,0.0
1734413050.3031232,0.0,-1000.0,-801.26953125,-103.515625,0.0
1734413050.3070145,0.0,-830.56640625,-611.328125,-116.69921875,0.0
1734413050.3109055,0.0,-397.94921875,-427.24609375,-159.1796875,0.0
1734413050.3147964,0.0,-541.015625,-655.2734375,-161.62109375,0.0
1734413050.3186874,0.0,-852.05078125,-717.28515625,-136.23046875,0.0
1734413050.322745,-236.328125,-725.5859375,-693.84765625,-125.9765625,0.0
1734413050.326636,-212.40234375,-412.109375,-494.140625,-123.046875,0.0
1734413050.3305273,-211.9140625,-555.6640625,-542.96875,-127.44140625,0.0
1734413050.3344183,-217.7734375,-869.140625,-762.6953125,-174.31640625,0.0
1734413050.3383095,-227.05078125,-870.60546875,-774.4140625,-167.96875,0.0
1734413050.3422005,-226.5625,-970.703125,-819.3359375,-134.27734375,0.0
1734413050.3460915,-204.58984375,-1000.0,-743.65234375,-150.390625,0.0
1734413050.3499827,-208.984375,-958.49609375,-734.375,-157.2265625,0.0
1734413050.3538737,-231.93359375,-883.7890625,-765.625,-172.36328125,0.0
1734413050.357765,-238.28125,-956.0546875,-853.515625,-156.73828125,0.0
1734413050.361656,-239.2578125,-1000.0,-885.25390625,-131.34765625,0.0
1734413050.365547,-221.19140625,-817.87109375,-672.8515625,-152.83203125,0.0
1734413050.3695874,-222.65625,-534.66796875,-548.828125,-182.6171875,0.0
1734413050.3734784,-237.3046875,-613.76953125,-724.609375,-190.91796875,0.0
1734413050.3773696,-224.609375,-892.08984375,-821.77734375,-177.24609375,0.0
1734413050.3812606,-221.6796875,-906.73828125,-817.3828125,-147.4609375,0.0
1734413050.3851519,-219.23828125,-692.87109375,-719.7265625,-124.51171875,0.0
1734413050.389043,-215.8203125,-830.078125,-639.6484375,-147.4609375,0.0
1734413050.392934,-229.98046875,-1000.0,-830.56640625,-158.203125,0.0
1734413050.3968253,-237.3046875,-999.0234375,-911.1328125,-166.9921875,0.0
1734413050.4007163,-204.58984375,-816.40625,-775.87890625,-176.7578125,0.0
1734413050.4046075,-173.33984375,-652.83203125,-701.66015625,-144.53125,0.0
1734413050.4084985,-190.91796875,-686.5234375,-564.94140625,-149.90234375,0.0
1734413050.4123898,-193.84765625,-641.6015625,-639.6484375,-172.36328125,0.0
1734413050.4164119,-196.2890625,-818.84765625,-767.578125,-184.5703125,0.0
1734413050.4203029,-183.59375,-979.4921875,-804.6875,-158.69140625,0.0
1734413050.424194,-187.98828125,-850.5859375,-735.3515625,-145.01953125,0.0
1734413050.4280853,-197.265625,-488.76953125,-507.32421875,-169.921875,0.0
1734413050.4319763,-200.1953125,-512.20703125,-599.12109375,-173.33984375,0.0
1734413050.4358675,-184.5703125,-920.41015625,-849.609375,-178.7109375,0.0
1734413050.4397588,-173.33984375,-1000.0,-885.7421875,-147.94921875,0.0
1734413050.4436498,-172.36328125,-732.421875,-694.3359375,-138.671875,0.0
1734413050.447541,-156.25,-337.40234375,-460.44921875,-170.41015625,0.0
1734413050.4514322,-172.36328125,-570.80078125,-565.4296875,-187.01171875,0.0
1734413050.4553232,-176.7578125,-883.30078125,-738.76953125,-171.875,0.0
1734413050.4592144,-175.78125,-711.9140625,-703.61328125,-140.625,0.0
1734413050.4632266,-152.83203125,-559.08203125,-679.19921875,-120.60546875,0.0
1734413050.4671178,-122.0703125,-620.1171875,-508.7890625,-124.0234375,0.0
1734413050.471009,-125.0,-608.88671875,-488.76953125,-163.57421875,0.0
1734413050.4749002,-130.37109375,-652.83203125,-650.87890625,-181.640625,0.0
1734413050.4787912,-135.25390625,-840.33203125,-717.7734375,-144.53125,0.0
1734413050.4826825,-117.67578125,-894.04296875,-757.32421875,-114.74609375,0.0
1734413050.4865737,-114.74609375,-807.12890625,-506.8359375,-137.6953125,0.0
1734413050.490465,-115.72265625,-661.1328125,-425.29296875,-158.69140625,0.0
1734413050.494356,-118.1640625,-746.09375,-622.0703125,-169.921875,0.0
1734413050.4982471,-123.046875,-874.0234375,-661.62109375,-118.65234375,0.0
1734413050.5021384,-104.98046875,-663.57421875,-594.7265625,-99.609375,0.0
1734413050.5060296,-89.35546875,-101.5625,-298.33984375,-144.04296875,0.0
1734413050.510147,0.0,-122.0703125,-220.21484375,-145.5078125,0.0
1734413050.5140383,0.0,-426.26953125,-462.40234375,-150.390625,0.0
1734413050.5179296,0.0,-363.76953125,-486.328125,-132.32421875,0.0
1734413050.5218208,0.0,-212.890625,-461.42578125,-120.60546875,0.0
1734413050.525712,0.0,-215.8203125,-363.76953125,-114.74609375,0.0
1734413050.5296032,0.0,-462.40234375,-317.3828125,-123.53515625,0.0
1734413050.5334945,0.0,-574.21875,-428.22265625,-140.625,0.0
1734413050.5373857,0.0,-387.20703125,-416.9921875,-117.67578125,0.0
1734413050.541277,0.0,-489.2578125,-558.59375,-90.8203125,0.0
1734413050.5451682,0.0,-685.546875,-531.73828125,-93.75,0.0
1734413050.5490594,0.0,-104.98046875,47.8515625,-134.765625,0.0
1734413050.5529506,0.0,87.890625,-76.66015625,-158.69140625,0.0
1734413050.5570498,-74.70703125,-375.48828125,-433.59375,-121.58203125,0.0
1734413050.560941,-73.73046875,-489.74609375,-443.84765625,-95.21484375,0.0
1734413050.5648322,-53.22265625,-45.41015625,-264.16015625,-101.5625,0.0
1734413050.5687234,-40.52734375,182.12890625,101.07421875,-98.14453125,0.0
1734413050.5726147,-42.48046875,-166.015625,-134.27734375,-107.421875,0.0
1734413050.576506,-52.24609375,-525.87890625,-458.0078125,-119.140625,0.0
1734413050.5803974,-55.17578125,-590.33203125,-473.6328125,-98.14453125,0.0
1734413050.5842886,-28.80859375,-397.4609375,-348.14453125,-66.40625,0.0
1734413050.5881798,-12.6953125,-555.17578125,-261.23046875,-76.171875,0.0
1734413050.592071,-45.41015625,-724.609375,-393.06640625,-114.2578125,0.0
1734413050.5959623,-66.89453125,-235.3515625,-318.84765625,-129.39453125,0.0
1734413050.5998535,-66.89453125,-161.1328125,-339.35546875,-98.14453125,0.0
1734413050.603943,-54.19921875,-211.9140625,-299.31640625,-77.63671875,0.0
1734413050.6078343,-36.1328125,126.953125,110.83984375,-98.6328125,0.0
1734413050.6117258,-37.59765625,302.734375,204.58984375,-111.328125,0.0
1734413050.615617,-46.38671875,10.7421875,-118.1640625,-119.62890625,0.0
1734413050.6195083,-37.109375,-296.38671875,-377.9296875,-95.703125,0.0
1734413050.6233997,-20.01953125,-352.05078125,-426.7578125,-69.3359375,0.0
1734413050.627291,-19.53125,-17.08984375,37.109375,-86.42578125,0.0
1734413050.6311824,-49.8046875,40.52734375,155.2734375,-106.93359375,0.0
1734413050.6350737,-52.734375,-614.74609375,-311.5234375,-109.86328125,0.0
1734413050.638965,-59.5703125,-352.5390625,-305.17578125,-88.8671875,0.0
1734413050.6428564,-42.48046875,150.87890625,-194.3359375,-89.84375,0.0
1734413050.6467476,-24.4140625,88.37890625,59.08203125,-104.98046875,0.0
1734413050.6508179,-23.4375,74.21875,196.77734375,-100.5859375,0.0
1734413050.654709,-29.296875,15.13671875,-23.92578125,-130.37109375,0.0
1734413050.6586006,-56.640625,-45.8984375,-201.66015625,-109.375,0.0
1734413050.6624918,-42.96875,-114.74609375,-289.0625,-76.171875,0.0
1734413050.6663833,-21.97265625,60.546875,23.92578125,-83.984375,0.0
1734413050.6702745,-38.57421875,91.30859375,247.0703125,-79.1015625,0.0
1734413050.674166,-58.10546875,-129.8828125,-13.18359375,-92.28515625,0.0
1734413050.6780572,-49.8046875,-626.46484375,-427.734375,-80.078125,0.0
1734413050.6819487,-47.36328125,-669.43359375,-422.36328125,-67.3828125,0.0
1734413050.68584,-35.15625,258.30078125,193.84765625,-93.75,0.0
1734413050.6897314,-31.25,376.46484375,275.390625,-114.2578125,0.0
1734413050.6936226,-44.43359375,89.84375,115.234375,-116.69921875,0.0
1734413050.6976783,-57.6171875,137.20703125,117.1875,-92.7734375,0.0
1734413050.7015696,-48.33984375,130.859375,9.765625,-69.82421875,0.0
1734413050.705461,-14.16015625,80.56640625,120.1171875,-72.265625,0.0
1734413050.7093525,-13.671875,138.671875,295.8984375,-84.9609375,0.0
1734413050.7132437,-34.66796875,112.79296875,183.10546875,-92.7734375,0.0
1734413050.7171352,-51.7578125,-116.2109375,29.78515625,-82.03125,0.0
1734413050.7210267,-31.25,-331.0546875,-241.2109375,-69.82421875,0.0
1734413050.724918,-9.765625,-527.83203125,-245.60546875,-49.31640625,0.0
1734413050.7288094,-23.92578125,20.5078125,257.8125,-60.546875,0.0
1734413050.7327008,-19.53125,533.203125,344.7265625,-111.328125,0.0
1734413050.736592,-34.66796875,143.5546875,73.2421875,-114.2578125,0.0
1734413050.7404835,-47.36328125,-54.6875,14.16015625,-63.96484375,0.0
1734413050.744523,-31.73828125,326.171875,229.00390625,-64.453125,0.0
1734413050.7484143,-14.6484375,491.2109375,365.234375,-89.84375,0.0
1734413050.7523057,-16.11328125,178.22265625,246.09375,-89.35546875,0.0
1734413050.7561972,-39.0625,92.7734375,167.96875,-102.5390625,0.0
1734413050.7600887,-38.57421875,172.8515625,142.578125,-70.80078125,0.0
1734413050.7639802,-22.94921875,53.22265625,130.37109375,-37.109375,0.0
1734413050.7678714,-18.06640625,-367.1875,127.44140625,-72.265625,0.0
1734413050.7717628,-23.92578125,-558.10546875,109.375,-83.0078125,0.0
1734413050.7756543,-44.43359375,68.359375,235.3515625,-90.33203125,0.0
1734413050.7795458,-41.9921875,244.62890625,172.36328125,-75.1953125,0.0
1734413050.7834373,-18.5546875,-50.29296875,59.08203125,-37.109375,0.0
1734413050.7873285,-3.90625,217.28515625,314.453125,-56.15234375,0.0
1734413050.7913537,-21.484375,653.3203125,434.08203125,-83.984375,0.0
1734413050.7952452,-31.25,425.78125,262.6953125,-105.46875,0.0
1734413050.7991366,-39.0625,89.35546875,182.12890625,-77.1484375,0.0
1734413050.8030279,-36.62109375,303.7109375,248.53515625,-46.875,0.0
1734413050.8069193,-18.5546875,563.4765625,401.3671875,-66.40625,0.0
1734413050.8108108,-8.7890625,251.953125,355.46875,-76.171875,0.0
1734413050.8147023,-14.16015625,-372.55859375,107.421875,-79.58984375,0.0
1734413050.8185937,-23.4375,-101.5625,180.6640625,-71.2890625,0.0
1734413050.8224852,-2.44140625,481.4453125,316.89453125,-38.0859375,0.0
1734413050.8263767,18.5546875,419.43359375,358.3984375,-39.55078125,0.0
1734413050.8302681,18.5546875,247.55859375,387.20703125,-61.5234375,0.0
1734413050.8341596,-5.37109375,342.28515625,373.53515625,-82.03125,0.0
1734413050.8381758,0.0,459.47265625,335.44921875,-36.1328125,0.0
1734413050.8420672,0.0,231.4453125,243.1640625,13.18359375,0.0
1734413050.8459587,0.0,361.328125,388.18359375,-13.18359375,0.0
1734413050.8498502,0.0,766.6015625,538.57421875,-57.12890625,0.0
1734413050.8537416,0.0,737.3046875,432.6171875,-66.40625,0.0
1734413050.857633,0.0,158.69140625,286.1328125,-29.296875,0.0
1734413050.8615246,0.0,-152.34375,241.2109375,6.8359375,0.0
1734413050.865416,0.0,221.19140625,391.6015625,3.41796875,0.0
1734413050.8693075,0.0,627.9296875,532.71484375,-22.94921875,0.0
1734413050.873199,0.0,162.109375,329.58984375,-27.83203125,0.0
1734413050.8770905,0.0,-49.8046875,257.8125,-16.6015625,0.0
1734413050.880982,0.0,486.328125,369.140625,-26.3671875,0.0
1734413050.885102,25.87890625,533.203125,374.51171875,-26.3671875,0.0
1734413050.8889935,25.87890625,416.9921875,443.359375,-18.5546875,0.0
1734413050.892885,13.671875,321.2890625,404.296875,-49.8046875,0.0
1734413050.8967764,-19.04296875,419.43359375,341.796875,-85.9375,0.0
1734413050.9006681,1.46484375,261.71875,233.3984375,-50.29296875,0.0
1734413050.9045596,15.13671875,-152.83203125,193.359375,-12.20703125,0.0
1734413050.908451,0.48828125,167.96875,411.62109375,-47.36328125,0.0
1734413050.9123425,-4.39453125,496.58203125,424.31640625,-85.44921875,0.0
1734413050.9162343,-27.34375,22.4609375,146.97265625,-77.1484375,0.0
1734413050.9201257,-53.22265625,-391.11328125,36.62109375,-42.48046875,0.0
1734413050.9240172,-26.85546875,186.5234375,301.26953125,-24.4140625,0.0
1734413050.9279087,-18.5546875,656.25,467.7734375,-52.734375,0.0
1734413050.9319987,-30.2734375,341.30859375,299.8046875,-66.89453125,0.0
1734413050.9358902,-39.55078125,157.2265625,201.66015625,-74.21875,0.0
1734413050.9397817,-69.82421875,281.25,242.67578125,-69.82421875,0.0
1734413050.9436734,-60.05859375,316.89453125,214.84375,-16.11328125,0.0
1734413050.9475648,-46.38671875,167.48046875,350.09765625,-39.55078125,0.0
1734413050.9514565,-57.6171875,-24.4140625,316.89453125,-87.890625,0.0
1734413050.955348,-61.03515625,-104.98046875,143.5546875,-96.6796875,0.0
1734413050.9592395,-83.49609375,-185.05859375,61.5234375,-65.4296875,0.0
1734413050.9631312,-89.35546875,-649.90234375,-309.5703125,-33.69140625,0.0
1734413050.9670227,-65.4296875,-571.77734375,-113.76953125,-51.26953125,0.0
1734413050.9709144,-75.68359375,285.15625,363.76953125,-92.28515625,0.0
1734413050.9748058,-78.61328125,191.89453125,122.0703125,-102.5390625,0.0
1734413050.9788842,-89.35546875,-229.00390625,-196.2890625,-73.73046875,0.0
1734413050.9827757,-107.421875,-97.16796875,-214.84375,-60.546875,0.0
1734413050.9866674,-88.8671875,203.61328125,150.390625,-87.890625,0.0
1734413050.9905589,-97.16796875,109.86328125,219.7265625,-84.9609375,0.0
1734413050.9944506,-94.7265625,-152.83203125,-118.65234375,-85.9375,0.0
1734413050.998342,-104.4921875,-412.109375,-336.9140625,-89.35546875,0.0
1734413051.0022337,-122.0703125,-317.3828125,-328.125,-79.58984375,0.0
1734413051.0061255,-112.79296875,-144.53125,-169.921875,-95.703125,0.0
1734413051.010017,-101.07421875,-682.12890625,-199.21875,-92.28515625,0.0
1734413051.0139086,-120.60546875,-367.67578125,-159.1796875,-121.58203125,0.0
1734413051.0178,-157.71484375,79.58984375,-192.3828125,-126.953125,0.0
1734413051.0216918,-144.04296875,-328.61328125,-416.50390625,-69.3359375,0.0
1734413051.025759,-115.234375,-290.0390625,-293.45703125,-77.1484375,0.0
1734413051.0296507,-111.81640625,107.91015625,109.375,-127.44140625,0.0
1734413051.0335424,-136.71875,96.6796875,-36.62109375,-139.16015625,0.0
1734413051.037434,-160.64453125,-304.19921875,-397.4609375,-128.90625,0.0
1734413051.0413256,-161.62109375,-419.43359375,-422.8515625,-109.375,0.0
1734413051.0452173,-132.8125,-402.83203125,-432.6171875,-105.46875,0.0
1734413051.049109,-127.44140625,-416.50390625,-239.74609375,-112.3046875,0.0
1734413051.0530005,-135.7421875,-689.94140625,-426.7578125,-134.27734375,0.0
1734413051.0568922,-144.04296875,-798.33984375,-579.1015625,-126.953125,0.0
1734413051.0607839,-146.97265625,-231.93359375,-345.21484375,-95.703125,0.0
1734413051.0646756,-136.71875,-95.21484375,-354.4921875,-96.19140625,0.0
1734413051.068567,-106.4453125,-311.03515625,-183.10546875,-105.95703125,0.0
1734413051.0726223,-121.09375,-238.76953125,-5.37109375,-127.9296875,0.0
1734413051.076514,-142.08984375,49.8046875,-107.91015625,-130.37109375,0.0
1734413051.0804055,-128.41796875,-124.51171875,-319.82421875,-102.05078125,0.0
1734413051.0842972,-107.421875,-225.09765625,-275.390625,-85.9375,0.0
1734413051.088189,-73.2421875,110.3515625,171.875,-91.30859375,0.0
1734413051.0920806,-71.77734375,44.43359375,222.65625,-109.375,0.0
1734413051.0959723,-74.70703125,-247.0703125,0.9765625,-104.00390625,0.0
1734413051.099864,-74.21875,-650.390625,-231.93359375,-61.5234375,0.0
1734413051.1037557,-76.66015625,-228.02734375,17.578125,-65.4296875,0.0
1734413051.1076474,-45.41015625,520.5078125,445.3125,-91.30859375,0.0
1734413051.111539,-24.4140625,360.83984375,338.8671875,-87.890625,0.0
1734413051.1154306,-34.66796875,213.37890625,271.484375,-76.171875,0.0
1734413051.1194644,-31.25,462.40234375,362.3046875,-67.3828125,0.0
1734413051.123356,-9.27734375,495.1171875,362.3046875,-41.9921875,0.0
1734413051.1272478,27.83203125,334.47265625,475.5859375,-20.5078125,0.0
1734413051.1311395,38.57421875,487.3046875,584.47265625,-48.828125,0.0
1734413051.1350312,16.6015625,796.38671875,578.125,-54.6875,0.0
1734413051.138923,37.109375,700.1953125,534.1796875,-16.11328125,0.0
1734413051.1428146,72.75390625,93.26171875,426.7578125,25.87890625,0.0
1734413051.1467063,67.3828125,133.30078125,579.1015625,15.13671875,0.0
1734413051.150598,45.8984375,965.8203125,762.20703125,-19.53125,0.0
1734413051.1544898,46.38671875,958.49609375,635.7421875,-34.66796875,0.0
1734413051.1583815,52.734375,744.140625,579.58984375,1.46484375,0.0
1734413051.1622732,43.9453125,848.6328125,593.26171875,13.671875,0.0
1734413051.1662993,39.55078125,994.62890625,676.26953125,-28.3203125,0.0
1734413051.170191,20.01953125,913.0859375,688.4765625,-43.9453125,0.0
1734413051.1740828,-17.08984375,776.3671875,581.0546875,-77.1484375,0.0
1734413051.1779745,-63.96484375,798.33984375,551.7578125,-81.54296875,0.0
1734413051.1818662,-67.3828125,791.015625,514.6484375,-54.6875,0.0
1734413051.185758,-52.734375,528.80859375,511.71875,-50.78125,0.0
1734413051.1896498,-82.51953125,-19.53125,545.8984375,-104.4921875,0.0
1734413051.1935415,-115.72265625,260.7421875,544.43359375,-150.87890625,0.0
1734413051.1974332,-136.23046875,805.17578125,523.4375,-125.0,0.0
1734413051.201325,-130.37109375,507.8125,436.5234375,-98.14453125,0.0
1734413051.2052166,-127.9296875,521.484375,496.09375,-95.21484375,0.0
1734413051.2091084,-123.046875,929.19921875,653.3203125,-115.234375,0.0
1734413051.2131133,-138.18359375,982.421875,591.796875,-147.94921875,0.0
1734413051.217005,-165.52734375,571.77734375,428.7109375,-134.27734375,0.0
1734413051.2208967,-174.31640625,397.94921875,420.8984375,-100.5859375,0.0
1734413051.2247884,-149.90234375,695.3125,510.7421875,-108.88671875,0.0
1734413051.2286801,-149.90234375,827.1484375,573.2421875,-134.765625,0.0
1734413051.232572,-175.78125,444.82421875,495.60546875,-151.85546875,0.0
1734413051.2364638,-174.8046875,41.9921875,371.58203125,-146.484375,0.0
1734413051.2403555,-196.2890625,134.27734375,379.8828125,-126.953125,0.0
1734413051.2442472,-183.59375,458.984375,436.03515625,-115.72265625,0.0
1734413051.248139,-165.52734375,132.32421875,431.640625,-133.30078125,0.0
1734413051.2520308,-186.5234375,115.72265625,442.3828125,-178.22265625,0.0
1734413051.2559226,-207.03125,653.3203125,458.49609375,-192.87109375,0.0
1734413051.2600336,0.0,459.47265625,361.328125,-164.0625,0.0
1734413051.2639253,0.0,239.74609375,323.2421875,-126.46484375,0.0
1734413051.267817,0.0,500.48828125,489.2578125,-133.7890625,0.0
1734413051.271709,0.0,769.53125,528.3203125,-181.640625,0.0
1734413051.2756007,0.0,469.23828125,360.83984375,-174.8046875,0.0
1734413051.2794926,0.0,-129.8828125,233.3984375,-137.6953125,0.0
1734413051.2833843,0.0,-2.44140625,291.50390625,-115.72265625,0.0
1734413051.287276,0.0,598.6328125,496.09375,-114.2578125,0.0
1734413051.291168,0.0,453.61328125,420.8984375,-141.6015625,0.0
1734413051.2950597,0.0,-116.69921875,268.5546875,-140.625,0.0
1734413051.2989516,0.0,152.83203125,317.87109375,-116.2109375,0.0
1734413051.3028433,0.0,405.2734375,306.15234375,-86.9140625,0.0
1734413051.3069398,-122.55859375,167.96875,320.80078125,-99.12109375,0.0
1734413051.3108318,-124.51171875,203.125,391.6015625,-130.37109375,0.0
1734413051.3147235,-145.01953125,466.796875,372.0703125,-128.41796875,0.0
1734413051.3186154,-139.16015625,338.37890625,251.46484375,-122.55859375,0.0
1734413051.3225071,-104.98046875,16.11328125,220.21484375,-65.91796875,0.0
1734413051.326399,-89.84375,-110.3515625,312.01171875,-57.12890625,0.0
1734413051.330291,-89.84375,5.859375,326.66015625,-112.79296875,0.0
1734413051.3341827,-105.95703125,20.99609375,269.04296875,-135.7421875,0.0
1734413051.3380747,-115.234375,-550.78125,-125.9765625,-89.84375,0.0
1734413051.3419664,-105.46875,-680.6640625,-252.44140625,-52.24609375,0.0
1734413051.3458583,-96.19140625,145.99609375,251.953125,-85.44921875,0.0
1734413051.3497503,-81.54296875,314.94140625,331.0546875,-94.7265625,0.0
1734413051.3538294,0.0,43.45703125,148.92578125,-96.6796875,0.0
1734413051.3577213,0.0,6.8359375,106.4453125,-84.9609375,0.0
1734413051.361613,0.0,74.21875,12.20703125,-49.8046875,0.0
1734413051.365505,0.0,-92.28515625,-167.96875,-42.48046875,0.0
1734413051.369397,0.0,-215.33203125,18.06640625,-47.36328125,0.0
1734413051.3732889,0.0,-298.33984375,-41.015625,-89.84375,0.0
1734413051.3771806,0.0,-289.0625,-277.34375,-104.4921875,0.0
1734413051.3810725,0.0,-362.79296875,-416.015625,-48.33984375,0.0
1734413051.3849645,0.0,-809.08203125,-563.4765625,-26.3671875,0.0
1734413051.3888564,0.0,-313.4765625,-16.6015625,-59.08203125,0.0
1734413051.392748,0.0,157.71484375,116.2109375,-79.58984375,0.0
1734413051.39664,0.0,-295.8984375,-307.12890625,-58.59375,0.0
1734413051.400704,-99.12109375,-502.9296875,-429.19921875,-34.66796875,0.0
1734413051.4045959,-92.7734375,-213.8671875,-400.390625,-26.85546875,0.0
1734413051.4084876,-82.51953125,-31.25,-85.44921875,-55.6640625,0.0
1734413051.4123795,-75.68359375,-217.28515625,-70.3125,-78.125,0.0
1734413051.4162714,-110.83984375,-404.78515625,-445.80078125,-76.66015625,0.0
1734413051.4201634,-111.328125,-591.796875,-564.453125,-53.22265625,0.0
1734413051.4240553,-92.28515625,-715.8203125,-531.73828125,-22.4609375,0.0
1734413051.4279473,-103.515625,-847.65625,-491.2109375,-40.0390625,0.0
1734413051.4318392,-100.09765625,-786.1328125,-462.890625,-72.75390625,0.0
1734413051.4357312,-118.1640625,-242.1875,-381.8359375,-96.19140625,0.0
1734413051.439623,-120.1171875,-299.31640625,-458.984375,-78.125,0.0
1734413051.443515,-102.05078125,-561.03515625,-527.34375,-45.8984375,0.0
1734413051.4475703,-86.9140625,-252.44140625,-250.9765625,-46.875,0.0
1734413051.4514623,-48.33984375,86.42578125,43.9453125,-72.265625,0.0
1734413051.4553542,-61.5234375,-164.0625,-264.6484375,-79.1015625,0.0
1734413051.4592462,-110.3515625,-510.7421875,-490.234375,-43.9453125,0.0
1734413051.463138,-107.91015625,-429.19921875,-462.890625,-28.3203125,0.0
1734413051.46703,-91.30859375,-372.55859375,-353.515625,-47.8515625,0.0
1734413051.470922,-74.70703125,-517.578125,-294.43359375,-56.640625,0.0
1734413051.474814,-73.73046875,-816.89453125,-485.3515625,-59.08203125,0.0
1734413051.478706,-80.56640625,-516.11328125,-375.9765625,-56.15234375,0.0
1734413051.4825978,-85.9375,-115.72265625,-345.21484375,-28.80859375,0.0
1734413051.4864898,-74.21875,-328.125,-367.67578125,-20.01953125,0.0
1734413051.4903817,-51.26953125,-284.66796875,-56.15234375,-48.33984375,0.0
1734413051.4944243,0.0,13.671875,-6.34765625,-88.8671875,0.0
1734413051.4983163,0.0,-40.0390625,-290.52734375,-82.51953125,0.0
1734413051.5022082,0.0,-451.171875,-423.828125,-31.73828125,0.0
1734413051.5061002,0.0,-389.16015625,-273.92578125,-22.94921875,0.0
1734413051.5099921,0.0,35.64453125,78.125,-62.98828125,0.0
1734413051.5138843,0.0,-208.0078125,-92.28515625,-84.47265625,0.0
1734413051.5177763,0.0,-768.06640625,-541.9921875,-55.6640625,0.0
1734413051.5216682,0.0,-830.56640625,-574.21875,-14.6484375,0.0
1734413051.5255601,0.0,-154.78515625,-214.35546875,-8.30078125,0.0
1734413051.529452,0.0,117.67578125,116.69921875,-17.08984375,0.0
1734413051.533344,0.0,-90.8203125,17.08984375,-78.61328125,0.0
1734413051.5372362,0.0,-123.046875,-208.984375,-99.12109375,0.0
1734413051.5413742,-99.12109375,-73.2421875,-275.87890625,-62.01171875,0.0
1734413051.5452664,-67.3828125,-203.125,-357.91015625,-48.33984375,0.0
1734413051.5491583,-47.36328125,-243.1640625,-62.5,-61.03515625,0.0
1734413051.5530505,-65.4296875,44.43359375,200.68359375,-88.8671875,0.0
1734413051.5569425,-80.078125,73.73046875,-13.671875,-85.9375,0.0
1734413051.5608344,-63.96484375,-435.546875,-389.16015625,-41.50390625,0.0
1734413051.5647266,-44.921875,-875.9765625,-520.01953125,-27.34375,0.0
1734413051.5686185,-41.50390625,-298.828125,33.203125,-66.40625,0.0
1734413051.5725105,-47.8515625,273.4375,286.62109375,-108.3984375,0.0
1734413051.5764027,-49.8046875,-125.9765625,-145.01953125,-99.609375,0.0
1734413051.5802946,-27.34375,-422.8515625,-416.50390625,-52.734375,0.0
1734413051.5841868,-42.96875,-118.1640625,-286.1328125,-31.25,0.0
1734413051.5881965,-45.8984375,164.0625,99.609375,-42.48046875,0.0
1734413051.5920887,-27.83203125,-44.921875,131.34765625,-80.078125,0.0
1734413051.5959806,-34.1796875,-192.87109375,-129.39453125,-79.58984375,0.0
1734413051.5998728,-43.45703125,-41.9921875,-184.5703125,-59.08203125,0.0
1734413051.6037648,-32.2265625,-170.8984375,-332.03125,-37.109375,0.0
1734413051.607657,-15.625,-363.76953125,-230.95703125,-14.6484375,0.0
1734413051.611549,-11.71875,-382.8125,43.9453125,-59.5703125,0.0
1734413051.615441,-20.01953125,-363.76953125,-124.51171875,-81.54296875,0.0
1734413051.619333,-42.48046875,-368.65234375,-318.84765625,-59.5703125,0.0
1734413051.6232252,-37.59765625,-747.55859375,-500.0,-29.296875,0.0
1734413051.6271172,-22.94921875,-615.72265625,-207.51953125,-35.15625,0.0
1734413051.6310093,-18.06640625,206.0546875,300.78125,-77.63671875,0.0
