timestamps,TP9,AF7,AF8,TP10,Right AUX
1734413410.847596,-54.6875,-161.62109375,-406.73828125,-56.15234375,0.0
1734413410.8514884,-77.1484375,-205.56640625,-530.76171875,-67.3828125,0.0
1734413410.855381,-49.8046875,279.296875,70.3125,-21.484375,0.0
1734413410.8592737,-16.11328125,583.0078125,495.60546875,18.5546875,0.0
1734413410.863166,-8.7890625,209.9609375,291.015625,-18.06640625,0.0
1734413410.8670588,-28.3203125,-374.0234375,-437.01171875,-66.40625,0.0
1734413410.8709514,-76.171875,-391.11328125,-596.6796875,-59.5703125,0.0
1734413410.8748438,-78.125,-194.3359375,-126.46484375,-30.2734375,0.0
1734413410.8787365,-36.62109375,-389.6484375,243.65234375,0.9765625,0.0
1734413410.8826292,-25.390625,301.7578125,429.19921875,-14.6484375,0.0
1734413410.8865216,-50.29296875,378.90625,-116.2109375,-56.15234375,0.0
1734413410.890585,-64.94140625,-289.0625,-629.39453125,-70.80078125,0.0
1734413410.8944776,-55.6640625,-124.0234375,-164.55078125,-43.45703125,0.0
1734413410.8983703,-39.55078125,578.61328125,471.19140625,-3.90625,0.0
1734413410.902263,-8.30078125,775.390625,479.4921875,7.8125,0.0
1734413410.9061556,-19.04296875,84.9609375,-218.26171875,-35.15625,0.0
1734413410.9100482,-57.6171875,-613.76953125,-723.14453125,-51.26953125,0.0
1734413410.9139407,-63.4765625,-392.08984375,-293.9453125,-17.578125,0.0
1734413410.9178333,-35.64453125,464.35546875,404.78515625,5.859375,0.0
1734413410.921726,-3.90625,176.26953125,349.12109375,14.16015625,0.0
1734413410.9256186,-13.18359375,-335.44921875,-217.7734375,-27.83203125,0.0
1734413410.9295113,-39.55078125,-68.359375,-545.41015625,-74.21875,0.0
1734413410.9334037,-51.26953125,-62.98828125,-348.6328125,-49.31640625,0.0
1734413410.93745,-31.73828125,-9.765625,197.265625,4.39453125,0.0
1734413410.9413426,-5.37109375,490.72265625,487.79296875,1.46484375,0.0
1734413410.9452353,-13.671875,519.04296875,85.44921875,-43.45703125,0.0
1734413410.949128,-53.22265625,-86.9140625,-578.61328125,-75.1953125,0.0
1734413410.9530206,-73.73046875,-433.10546875,-481.4453125,-52.734375,0.0
1734413410.9569132,-47.8515625,-35.64453125,217.7734375,-11.23046875,0.0
1734413410.960806,-19.53125,378.90625,463.8671875,-12.20703125,0.0
1734413410.9646986,-28.80859375,-31.73828125,-41.015625,-47.36328125,0.0
1734413410.9685912,-65.91796875,-638.671875,-617.1875,-85.44921875,0.0
1734413410.9724836,-87.890625,-244.62890625,-402.83203125,-75.1953125,0.0
1734413410.9763763,-68.84765625,434.08203125,247.0703125,-19.53125,0.0
1734413410.980269,-29.78515625,502.9296875,448.73046875,4.8828125,0.0
1734413410.984308,-30.76171875,145.5078125,178.7109375,-36.1328125,0.0
1734413410.9882007,-58.59375,29.296875,-419.921875,-84.9609375,0.0
1734413410.9920933,-75.1953125,-72.265625,-518.5546875,-72.75390625,0.0
1734413410.995986,-56.640625,-39.0625,31.73828125,-10.7421875,0.0
1734413410.9998786,-20.99609375,429.19921875,452.1484375,10.7421875,0.0
1734413411.0037713,-19.53125,292.96875,190.91796875,-18.5546875,0.0
1734413411.007664,-50.78125,-286.1328125,-502.44140625,-51.7578125,0.0
1734413411.0115566,-70.3125,-745.1171875,-760.25390625,-62.5,0.0
1734413411.0154495,-65.91796875,-436.5234375,-123.53515625,-35.15625,0.0
1734413411.0193422,-27.83203125,670.8984375,523.4375,-11.23046875,0.0
1734413411.0232348,-12.6953125,666.50390625,307.12890625,-3.90625,0.0
1734413411.0271275,-41.50390625,-86.42578125,-394.04296875,-42.96875,0.0
1734413411.0311496,-66.40625,-157.71484375,-552.24609375,-69.82421875,0.0
1734413411.0350423,-49.31640625,277.34375,2.9296875,-18.5546875,0.0
1734413411.038935,-11.71875,600.5859375,467.28515625,34.66796875,0.0
1734413411.0428276,-1.46484375,450.68359375,378.90625,3.41796875,0.0
1734413411.0467205,-32.2265625,38.0859375,-280.76171875,-55.6640625,0.0
1734413411.0506132,-62.01171875,-377.9296875,-654.296875,-52.734375,0.0
1734413411.0545058,-49.8046875,-377.9296875,-249.0234375,-1.953125,0.0
1734413411.0583985,-18.06640625,-466.796875,184.5703125,27.34375,0.0
1734413411.0622911,-11.71875,131.34765625,399.4140625,-5.859375,0.0
1734413411.0661838,-35.15625,413.57421875,-69.3359375,-53.22265625,0.0
1734413411.0700767,-57.6171875,-199.21875,-616.2109375,-69.82421875,0.0
1734413411.0739694,-65.91796875,-98.14453125,-190.4296875,-31.73828125,0.0
1734413411.078088,-42.48046875,617.67578125,461.42578125,12.6953125,0.0
1734413411.0819807,-14.6484375,791.50390625,462.890625,0.0,0.0
1734413411.0858734,-22.4609375,145.5078125,-162.59765625,-32.2265625,0.0
1734413411.0897663,-57.6171875,-258.7890625,-619.62890625,-53.22265625,0.0
1734413411.093659,-60.05859375,-24.90234375,-269.53125,-31.73828125,0.0
1734413411.0975518,-24.4140625,266.6015625,325.1953125,12.20703125,0.0
1734413411.1014445,-7.32421875,2.9296875,314.94140625,18.5546875,0.0
1734413411.1053371,-20.5078125,-346.6796875,-240.234375,-31.73828125,0.0
1734413411.10923,-62.01171875,-61.03515625,-554.19921875,-78.61328125,0.0
1734413411.1131227,-75.68359375,-10.25390625,-336.9140625,-59.08203125,0.0
1734413411.1170156,-39.55078125,75.68359375,206.54296875,1.953125,0.0
1734413411.1209083,-9.765625,593.26171875,484.375,1.953125,0.0
1734413411.1249013,-21.484375,588.37890625,133.30078125,-29.78515625,0.0
1734413411.1287942,-57.6171875,-44.921875,-547.36328125,-61.5234375,0.0
1734413411.1326869,-74.70703125,-374.51171875,-445.3125,-48.828125,0.0
1734413411.1365798,-46.38671875,346.19140625,315.4296875,5.859375,0.0
1734413411.1404724,-19.53125,800.29296875,512.6953125,-0.9765625,0.0
1734413411.1443653,-18.06640625,152.83203125,5.859375,-37.59765625,0.0
1734413411.148258,-35.64453125,-532.71484375,-634.765625,-61.5234375,0.0
1734413411.1521509,-41.50390625,-576.66015625,-531.25,-54.19921875,0.0
1734413411.1560435,-22.4609375,275.87890625,264.6484375,-12.20703125,0.0
1734413411.1599364,3.41796875,571.77734375,465.33203125,19.53125,0.0
1734413411.163829,9.27734375,-371.09375,-102.05078125,0.0,0.0
1734413411.1677217,-22.4609375,-337.40234375,-528.3203125,-55.6640625,0.0
1734413411.1718154,-55.6640625,-17.578125,-479.00390625,-48.828125,0.0
1734413411.1757083,-42.48046875,45.8984375,35.64453125,8.7890625,0.0
1734413411.179601,-14.16015625,553.22265625,483.3984375,30.2734375,0.0
1734413411.1834939,-20.5078125,720.703125,324.21875,0.48828125,0.0
1734413411.1873868,-45.8984375,258.7890625,-364.74609375,-55.17578125,0.0
1734413411.1912794,-64.453125,-506.8359375,-683.10546875,-59.5703125,0.0
1734413411.1951723,-62.98828125,-347.65625,-110.83984375,-11.23046875,0.0
1734413411.1990652,-30.76171875,697.265625,520.99609375,6.34765625,0.0
1734413411.2029579,1.46484375,784.66796875,387.6953125,-14.6484375,0.0
1734413411.2068508,-29.78515625,-206.54296875,-514.16015625,-39.55078125,0.0
1734413411.2107434,-71.2890625,-406.73828125,-683.10546875,-51.7578125,0.0
1734413411.2146363,-59.5703125,268.06640625,-11.23046875,-24.90234375,0.0
1734413411.218717,-36.62109375,639.16015625,423.828125,-5.859375,0.0
1734413411.22261,-36.62109375,480.46875,358.88671875,-17.08984375,0.0
1734413411.226503,-49.8046875,239.2578125,-131.8359375,-58.10546875,0.0
1734413411.2303956,-68.84765625,20.5078125,-561.03515625,-81.0546875,0.0
1734413411.2342885,-75.68359375,-13.671875,-231.4453125,-50.29296875,0.0
1734413411.2381814,-46.875,154.78515625,349.12109375,-13.18359375,0.0
1734413411.2420743,-28.3203125,257.32421875,397.94921875,-23.4375,0.0
1734413411.2459671,-38.57421875,13.18359375,-142.08984375,-55.6640625,0.0
1734413411.2498598,-58.10546875,-451.66015625,-686.03515625,-66.89453125,0.0
1734413411.2537527,-74.21875,-772.94921875,-492.67578125,-41.015625,0.0
1734413411.2576456,-51.7578125,247.55859375,332.51953125,-5.37109375,0.0
1734413411.2615385,-17.08984375,924.8046875,518.5546875,-1.46484375,0.0
1734413411.2657082,-33.69140625,291.015625,-96.6796875,-51.26953125,0.0
1734413411.269601,-70.3125,-131.8359375,-583.0078125,-82.03125,0.0
1734413411.273494,-83.49609375,105.95703125,-288.0859375,-54.6875,0.0
1734413411.277387,-64.453125,592.28515625,343.75,-23.4375,0.0
1734413411.2812798,-31.25,547.8515625,455.078125,-20.01953125,0.0
1734413411.2851727,-25.390625,-12.20703125,-49.31640625,-42.48046875,0.0
1734413411.2890656,-67.3828125,-241.2109375,-554.19921875,-86.42578125,0.0
1734413411.2929585,-73.73046875,-65.4296875,-400.87890625,-70.80078125,0.0
1734413411.2968514,-34.1796875,-112.3046875,95.21484375,-1.953125,0.0
1734413411.3007443,-20.01953125,339.35546875,459.47265625,5.859375,0.0
1734413411.3046372,-23.92578125,693.84765625,244.140625,-28.80859375,0.0
1734413411.30853,-53.22265625,83.0078125,-487.79296875,-64.94140625,0.0
1734413411.3125782,-75.1953125,-642.578125,-624.51171875,-52.734375,0.0
1734413411.316471,-59.08203125,122.0703125,210.44921875,-20.5078125,0.0
1734413411.320364,-25.390625,966.796875,576.171875,-1.953125,0.0
1734413411.324257,-20.01953125,606.4453125,204.58984375,-25.390625,0.0
1734413411.3281498,-41.015625,-162.109375,-480.95703125,-60.05859375,0.0
1734413411.332043,-58.59375,-478.02734375,-600.5859375,-40.0390625,0.0
1734413411.3359358,-63.4765625,-50.78125,22.94921875,0.0,0.0
1734413411.3398287,-28.3203125,384.27734375,460.44921875,20.99609375,0.0
1734413411.3437216,-15.13671875,476.07421875,315.4296875,-19.04296875,0.0
1734413411.3476145,-46.875,293.9453125,-339.35546875,-57.6171875,0.0
1734413411.3515074,-67.87109375,9.765625,-583.984375,-57.12890625,0.0
1734413411.3554006,-63.4765625,-42.96875,-106.4453125,-24.90234375,0.0
1734413411.3594353,-39.0625,381.8359375,439.453125,6.34765625,0.0
1734413411.3633285,-20.99609375,713.37890625,403.80859375,-13.18359375,0.0
1734413411.3672214,-37.59765625,363.28125,-272.94921875,-41.50390625,0.0
1734413411.3711143,-67.3828125,-413.57421875,-702.63671875,-54.6875,0.0
1734413411.3750074,-69.82421875,-377.44140625,-190.91796875,-35.15625,0.0
1734413411.3789003,-43.45703125,361.81640625,444.3359375,-14.16015625,0.0
1734413411.3827932,-20.01953125,416.50390625,346.19140625,-8.7890625,0.0
1734413411.3866863,-24.4140625,-322.75390625,-493.1640625,-37.59765625,0.0
1734413411.3905792,-60.05859375,-680.17578125,-728.02734375,-66.40625,0.0
1734413411.3944721,-57.12890625,188.96484375,-60.546875,-32.71484375,0.0
1734413411.398365,-26.85546875,775.390625,425.29296875,20.99609375,0.0
1734413411.4022582,-22.94921875,574.70703125,369.140625,7.8125,0.0
1734413411.4062834,-29.296875,361.81640625,-70.80078125,-50.29296875,0.0
1734413411.4101763,-60.05859375,81.0546875,-562.98828125,-71.2890625,0.0
1734413411.4140692,-79.1015625,-166.50390625,-333.984375,-25.87890625,0.0
1734413411.4179623,-49.8046875,324.70703125,356.93359375,7.32421875,0.0
1734413411.4218552,-19.04296875,722.65625,473.6328125,-11.23046875,0.0
1734413411.4257483,-23.92578125,169.921875,-129.8828125,-43.9453125,0.0
1734413411.4296412,-49.31640625,-491.2109375,-705.56640625,-66.89453125,0.0
1734413411.4335341,-62.5,-847.16796875,-600.09765625,-65.4296875,0.0
1734413411.4374273,-57.12890625,174.31640625,270.5078125,-32.2265625,0.0
1734413411.4413202,-21.97265625,949.70703125,550.29296875,-14.16015625,0.0
1734413411.4452133,-15.13671875,398.4375,-16.6015625,-46.38671875,0.0
1734413411.4491062,-49.31640625,-123.046875,-582.51953125,-70.3125,0.0
1734413411.4531138,-61.5234375,24.4140625,-359.375,-60.05859375,0.0
1734413411.457007,-31.25,575.1953125,332.51953125,-8.7890625,0.0
1734413411.4608998,3.41796875,664.0625,465.8203125,23.4375,0.0
1734413411.464793,-22.94921875,442.3828125,152.83203125,-35.15625,0.0
1734413411.4686859,-59.5703125,154.296875,-430.6640625,-82.51953125,0.0
1734413411.472579,-57.12890625,-172.8515625,-533.69140625,-56.640625,0.0
1734413411.476472,-38.57421875,-285.64453125,13.671875,-5.859375,0.0
1734413411.480365,-15.625,17.578125,447.75390625,2.9296875,0.0
1734413411.484258,-26.85546875,585.44921875,298.33984375,-25.390625,0.0
1734413411.488151,-52.734375,223.6328125,-434.5703125,-52.734375,0.0
1734413411.492044,-63.4765625,-320.3125,-553.7109375,-54.19921875,0.0
1734413411.495937,-47.36328125,244.140625,185.05859375,-3.41796875,0.0
1734413411.4999309,-13.671875,902.83203125,547.36328125,35.15625,0.0
1734413411.5038238,-13.671875,669.921875,296.38671875,-1.46484375,0.0
1734413411.507717,-42.48046875,-74.21875,-412.59765625,-55.6640625,0.0
1734413411.51161,-75.1953125,-123.046875,-527.34375,-55.6640625,0.0
1734413411.515503,-56.15234375,277.83203125,63.4765625,-13.671875,0.0
1734413411.519396,-11.23046875,341.796875,432.6171875,16.6015625,0.0
1734413411.523289,-9.765625,83.49609375,283.203125,-5.37109375,0.0
1734413411.527182,-36.62109375,-74.21875,-352.05078125,-52.24609375,0.0
1734413411.531075,-56.15234375,-122.0703125,-619.62890625,-63.4765625,0.0
1734413411.5349681,-40.52734375,-163.57421875,-163.0859375,-14.6484375,0.0
1734413411.5388613,-13.671875,5.859375,353.515625,13.18359375,0.0
1734413411.5427542,-3.90625,568.359375,446.77734375,-13.671875,0.0
1734413411.546843,-21.97265625,398.4375,-125.0,-62.5,0.0
1734413411.5507362,-52.734375,-274.90234375,-629.8828125,-76.171875,0.0
1734413411.5546293,-61.5234375,-42.48046875,-143.5546875,-31.73828125,0.0
1734413411.5585222,-29.78515625,700.68359375,475.5859375,4.8828125,0.0
1734413411.5624154,-10.25390625,871.58203125,471.6796875,-7.8125,0.0
1734413411.5663085,-30.2734375,-43.9453125,-229.00390625,-43.45703125,0.0
1734413411.5702016,-59.5703125,-660.15625,-691.89453125,-60.546875,0.0
1734413411.5740945,-68.359375,34.66796875,-175.29296875,-59.08203125,0.0
1734413411.5779877,-27.34375,645.99609375,408.69140625,-6.8359375,0.0
1734413411.5818808,0.0,222.65625,338.8671875,13.671875,0.0
1734413411.585774,-28.3203125,-93.26171875,-63.4765625,-38.57421875,0.0
1734413411.5896668,-56.640625,-171.875,-544.921875,-70.3125,0.0
1734413411.5937402,0.0,-331.54296875,-397.4609375,-49.8046875,0.0
1734413411.5976334,0.0,142.578125,261.71875,-13.671875,0.0
1734413411.6015265,0.0,708.984375,508.30078125,-19.53125,0.0
1734413411.6054194,0.0,597.16796875,115.72265625,-56.640625,0.0
1734413411.6093125,0.0,-84.9609375,-567.3828125,-70.80078125,0.0
1734413411.6132057,0.0,-448.73046875,-483.3984375,-54.19921875,0.0
1734413411.6170988,0.0,-42.96875,226.07421875,-18.06640625,0.0
1734413411.620992,0.0,555.17578125,504.39453125,-15.625,0.0
1734413411.624885,0.0,375.0,112.79296875,-38.0859375,0.0
1734413411.6287782,0.0,-716.30859375,-684.5703125,-63.96484375,0.0
1734413411.6326714,0.0,-344.23828125,-444.3359375,-63.96484375,0.0
1734413411.6365645,0.0,586.9140625,337.40234375,-25.87890625,0.0
1734413411.6406264,-15.625,634.765625,473.14453125,-18.5546875,0.0
1734413411.6445196,-28.3203125,444.3359375,241.2109375,-43.9453125,0.0
1734413411.6484127,-49.8046875,151.85546875,-398.92578125,-77.1484375,0.0
1734413411.6523058,-63.4765625,-259.765625,-554.6875,-68.84765625,0.0
1734413411.6561992,-58.59375,-37.59765625,105.95703125,-22.4609375,0.0
1734413411.6600924,-13.671875,311.03515625,458.984375,-4.8828125,0.0
1734413411.6639855,-15.625,337.40234375,270.01953125,-38.0859375,0.0
1734413411.6678786,-48.33984375,182.12890625,-358.88671875,-72.75390625,0.0
1734413411.6717718,-61.5234375,-531.73828125,-744.140625,-73.73046875,0.0
1734413411.675665,-56.15234375,-379.8828125,-109.375,-33.203125,0.0
1734413411.679558,-33.69140625,737.3046875,550.78125,1.953125,0.0
1734413411.6834512,-22.4609375,741.2109375,372.55859375,-9.765625,0.0
1734413411.6874924,-40.52734375,-36.1328125,-356.93359375,-53.22265625,0.0
1734413411.6913855,-60.546875,-144.04296875,-541.50390625,-79.1015625,0.0
1734413411.6952786,-62.01171875,317.3828125,47.8515625,-36.1328125,0.0
1734413411.6991718,-25.390625,637.20703125,496.58203125,1.46484375,0.0
1734413411.703065,-6.8359375,466.30859375,417.96875,-26.85546875,0.0
1734413411.706958,-30.76171875,-102.5390625,-250.48828125,-69.3359375,0.0
1734413411.7108514,-32.71484375,-378.90625,-588.37890625,-78.125,0.0
1734413411.7147446,-35.64453125,-314.94140625,-233.88671875,-26.85546875,0.0
1734413411.7186377,-17.578125,-398.92578125,207.03125,19.04296875,0.0
1734413411.7225308,-5.859375,366.69921875,473.6328125,0.9765625,0.0
1734413411.726424,-31.25,525.390625,5.859375,-39.55078125,0.0
1734413411.730317,-58.59375,-173.33984375,-576.66015625,-79.1015625,0.0
1734413411.7343576,0.0,-63.4765625,-187.5,-56.15234375,0.0
1734413411.7382507,0.0,617.67578125,466.796875,-0.48828125,0.0
1734413411.7421439,0.0,804.6875,489.2578125,-28.80859375,0.0
1734413411.7460372,0.0,201.171875,-87.40234375,-83.49609375,0.0
1734413411.7499304,0.0,-232.421875,-583.0078125,-104.98046875,0.0
1734413411.7538235,0.0,-245.1171875,-324.70703125,-74.21875,0.0
1734413411.757717,0.0,177.24609375,304.19921875,-26.85546875,0.0
1734413411.76161,0.0,125.9765625,388.18359375,-18.06640625,0.0
1734413411.7655032,0.0,-222.16796875,-16.6015625,-55.17578125,0.0
1734413411.7693965,0.0,-158.69140625,-534.66796875,-86.42578125,0.0
1734413411.7732897,0.0,-302.24609375,-431.15234375,-48.828125,0.0
1734413411.7771828,0.0,74.70703125,247.55859375,-14.16015625,0.0
1734413411.7812045,-5.859375,687.01171875,526.85546875,-11.23046875,0.0
1734413411.7850976,-20.01953125,657.2265625,239.74609375,-24.90234375,0.0
1734413411.788991,-43.45703125,-6.8359375,-477.5390625,-67.3828125,0.0
1734413411.792884,-69.82421875,-301.7578125,-434.5703125,-55.6640625,0.0
1734413411.7967772,-55.6640625,284.66796875,301.26953125,-6.8359375,0.0
1734413411.8006706,-17.578125,550.29296875,502.9296875,4.39453125,0.0
1734413411.8045638,-16.11328125,81.54296875,140.13671875,-4.8828125,0.0
1734413411.8084571,-34.66796875,-793.9453125,-674.31640625,-37.109375,0.0
1734413411.8123503,-67.3828125,-460.44921875,-511.23046875,-60.546875,0.0
1734413411.8162434,-67.3828125,423.828125,276.3671875,-18.5546875,0.0
1734413411.8201368,-34.66796875,594.7265625,473.6328125,1.953125,0.0
1734413411.82403,-27.83203125,503.41796875,297.8515625,-33.203125,0.0
1734413411.828038,-42.48046875,104.4921875,-369.140625,-55.6640625,0.0
1734413411.831931,-74.70703125,-382.8125,-604.98046875,-69.82421875,0.0
1734413411.8358245,-79.58984375,-143.06640625,-35.15625,-41.015625,0.0
1734413411.8397176,-51.26953125,569.3359375,500.0,1.953125,0.0
1734413411.843611,-29.78515625,687.98828125,388.18359375,-17.578125,0.0
1734413411.8475041,-42.96875,-68.84765625,-396.97265625,-63.96484375,0.0
1734413411.8513975,-73.73046875,-762.20703125,-779.296875,-54.19921875,0.0
1734413411.8552907,-67.3828125,-494.62890625,-186.03515625,-20.99609375,0.0
1734413411.859184,-30.76171875,593.26171875,513.18359375,0.48828125,0.0
1734413411.8630772,-19.04296875,733.88671875,420.41015625,-8.30078125,0.0
1734413411.8669705,-48.828125,-45.41015625,-358.88671875,-59.5703125,0.0
1734413411.8708637,-78.125,-187.01171875,-612.79296875,-86.9140625,0.0
1734413411.8748555,-71.77734375,265.625,-44.921875,-48.828125,0.0
1734413411.878749,-25.390625,559.08203125,433.10546875,9.765625,0.0
1734413411.882642,-5.37109375,451.171875,403.80859375,3.41796875,0.0
1734413411.8865354,-26.85546875,179.6875,-130.37109375,-57.12890625,0.0
1734413411.8904285,-63.4765625,-278.3203125,-625.9765625,-83.984375,0.0
1734413411.894322,-61.5234375,-459.47265625,-413.0859375,-45.41015625,0.0
1734413411.8982153,-27.83203125,-566.89453125,34.1796875,8.30078125,0.0
1734413411.9021084,-34.1796875,45.8984375,388.671875,-15.625,0.0
1734413411.9060018,-48.33984375,392.08984375,3.90625,-65.91796875,0.0
1734413411.909895,-57.6171875,-183.10546875,-622.0703125,-77.63671875,0.0
1734413411.9137883,-69.82421875,-186.5234375,-308.59375,-54.19921875,0.0
1734413411.9176815,-47.8515625,507.8125,391.11328125,-17.08984375,0.0
1734413411.9217699,-29.296875,807.12890625,502.9296875,0.48828125,0.0
1734413411.9256632,-34.66796875,222.16796875,-18.06640625,-36.1328125,0.0
1734413411.9295564,-44.43359375,-258.7890625,-572.265625,-80.078125,0.0
1734413411.9334497,-51.7578125,-62.5,-344.7265625,-57.6171875,0.0
1734413411.9373431,-35.15625,441.40625,321.2890625,-4.39453125,0.0
1734413411.9412365,4.39453125,266.11328125,441.89453125,15.13671875,0.0
1734413411.9451296,3.90625,-161.62109375,57.12890625,-22.4609375,0.0
1734413411.949023,-41.015625,-265.13671875,-496.58203125,-61.03515625,0.0
1734413411.9529164,-62.01171875,-251.46484375,-464.35546875,-51.26953125,0.0
1734413411.9568098,-31.25,-139.6484375,61.5234375,-9.765625,0.0
1734413411.960703,16.6015625,424.8046875,470.21484375,24.4140625,0.0
1734413411.9645963,2.44140625,645.99609375,297.8515625,-17.08984375,0.0
1734413411.9686682,-38.57421875,-7.8125,-453.61328125,-84.47265625,0.0
1734413411.9725616,-49.31640625,-667.48046875,-618.1640625,-74.70703125,0.0
1734413411.976455,-38.0859375,2.9296875,173.33984375,-19.04296875,0.0
1734413411.9803483,-22.94921875,809.08203125,563.96484375,-11.23046875,0.0
1734413411.9842417,-27.34375,491.2109375,280.2734375,-37.59765625,0.0
1734413411.988135,-44.43359375,-291.9921875,-424.8046875,-61.03515625,0.0
1734413411.9920285,-72.265625,-630.37109375,-629.8828125,-77.1484375,0.0
1734413411.9959219,-74.70703125,-56.15234375,16.6015625,-38.57421875,0.0
1734413411.9998152,-23.92578125,445.80078125,453.61328125,9.765625,0.0
1734413412.0037086,-14.16015625,-230.95703125,138.18359375,0.48828125,0.0
1734413412.0076017,-46.38671875,-360.83984375,-395.5078125,-56.640625,0.0
1734413412.011495,-69.3359375,-269.04296875,-553.7109375,-85.9375,0.0
1734413412.0155544,-65.4296875,-66.40625,-22.94921875,-40.0390625,0.0
1734413412.0194478,-28.80859375,469.23828125,483.3984375,-12.6953125,0.0
1734413412.0233412,-20.01953125,747.0703125,482.91015625,-33.69140625,0.0
1734413412.0272346,-43.9453125,354.00390625,-82.51953125,-64.94140625,0.0
1734413412.031128,-67.87109375,-276.3671875,-614.74609375,-73.2421875,0.0
1734413412.0350213,-63.96484375,-313.96484375,-217.7734375,-38.0859375,0.0
1734413412.0389147,-30.2734375,266.11328125,440.91796875,5.859375,0.0
1734413412.042808,-22.4609375,725.5859375,489.2578125,-11.23046875,0.0
1734413412.0467014,-39.55078125,-160.64453125,-274.90234375,-67.3828125,0.0
1734413412.0505948,-58.59375,-719.23828125,-653.3203125,-80.078125,0.0
1734413412.0544882,-73.2421875,111.328125,-89.35546875,-50.78125,0.0
1734413412.0583816,-44.43359375,608.88671875,423.33984375,-16.6015625,0.0
1734413412.0624232,-16.11328125,485.83984375,418.9453125,-13.18359375,0.0
1734413412.0663166,-20.01953125,202.63671875,14.6484375,-46.38671875,0.0
1734413412.0702102,-41.015625,-221.6796875,-542.48046875,-60.546875,0.0
1734413412.0741036,-55.6640625,-134.27734375,-285.64453125,-42.48046875,0.0
1734413412.077997,-36.1328125,206.0546875,366.2109375,-3.90625,0.0
1734413412.0818903,-11.71875,327.1484375,464.84375,11.71875,0.0
1734413412.0857837,-21.97265625,23.92578125,-8.7890625,-34.66796875,0.0
1734413412.089677,-47.36328125,-443.359375,-616.2109375,-67.3828125,0.0
1734413412.0935705,-55.6640625,-864.74609375,-564.453125,-35.15625,0.0
1734413412.097464,-43.45703125,39.55078125,287.109375,-5.37109375,0.0
1734413412.1013575,-18.06640625,926.26953125,587.40234375,-5.859375,0.0
1734413412.1052508,-9.765625,375.9765625,71.2890625,-36.62109375,0.0
1734413412.109283,-48.33984375,-120.1171875,-497.0703125,-73.73046875,0.0
1734413412.1131766,-85.9375,34.66796875,-346.19140625,-74.70703125,0.0
1734413412.11707,-63.96484375,459.9609375,313.96484375,-17.578125,0.0
1734413412.1209633,-19.53125,547.8515625,512.20703125,12.20703125,0.0
1734413412.124857,-19.53125,342.7734375,238.76953125,-26.85546875,0.0
1734413412.1287503,-40.0390625,-192.3828125,-455.56640625,-57.6171875,0.0
1734413412.1326437,-61.5234375,-438.4765625,-542.96875,-53.22265625,0.0
1734413412.136537,-48.33984375,-326.66015625,57.12890625,-5.859375,0.0
1734413412.1404307,-9.27734375,40.0390625,472.65625,17.578125,0.0
1734413412.144324,-4.8828125,587.890625,379.8828125,-8.7890625,0.0
1734413412.1482174,-38.57421875,211.9140625,-307.6171875,-53.7109375,0.0
1734413412.1521108,-60.05859375,-319.82421875,-510.25390625,-66.89453125,0.0
1734413412.1561296,-56.640625,192.87109375,182.12890625,-21.484375,0.0
1734413412.1600232,-30.76171875,851.5625,567.87109375,8.30078125,0.0
1734413412.1639166,-18.5546875,589.35546875,340.8203125,-31.25,0.0
1734413412.16781,-43.9453125,-20.01953125,-299.8046875,-70.3125,0.0
1734413412.1717036,-54.6875,-238.28125,-583.984375,-71.2890625,0.0
1734413412.175597,-62.5,-161.1328125,-117.1875,-40.52734375,0.0
1734413412.1794906,-41.9921875,140.625,395.01953125,15.625,0.0
1734413412.183384,-3.90625,-324.70703125,144.04296875,15.13671875,0.0
1734413412.1872773,-26.3671875,-437.98828125,-363.28125,-47.36328125,0.0
1734413412.191171,-63.96484375,-61.03515625,-525.87890625,-72.265625,0.0
1734413412.1950643,-64.94140625,12.6953125,-125.9765625,-50.29296875,0.0
1734413412.1989577,-34.66796875,347.65625,454.58984375,-4.39453125,0.0
1734413412.2029657,-10.7421875,734.375,501.46484375,6.8359375,0.0
1734413412.206859,-17.578125,407.71484375,-55.17578125,-42.96875,0.0
1734413412.2107527,-53.7109375,-230.46875,-610.83984375,-56.15234375,0.0
1734413412.214646,-66.89453125,-66.89453125,-197.265625,-19.53125,0.0
1734413412.2185397,-25.390625,626.953125,467.7734375,9.765625,0.0
1734413412.222433,-15.625,513.671875,428.7109375,12.6953125,0.0
1734413412.2263267,-22.4609375,-335.9375,-228.02734375,-31.25,0.0
1734413412.23022,-59.5703125,-742.1875,-667.96875,-66.40625,0.0
1734413412.2341137,-83.0078125,-26.85546875,-179.19921875,-50.78125,0.0
1734413412.238007,-44.43359375,593.75,396.97265625,-15.13671875,0.0
1734413412.2419004,-12.20703125,438.96484375,347.16796875,-0.9765625,0.0
1734413412.245794,-24.90234375,59.5703125,-59.5703125,-28.80859375,0.0
1734413412.2497833,-54.6875,-93.26171875,-509.27734375,-84.47265625,0.0
1734413412.253677,-59.08203125,-66.40625,-346.6796875,-64.453125,0.0
1734413412.2575703,-27.34375,143.5546875,278.3203125,2.44140625,0.0
1734413412.2614639,-13.671875,655.2734375,528.3203125,4.39453125,0.0
1734413412.2653575,-22.4609375,428.22265625,97.16796875,-37.109375,0.0
1734413412.2692509,-44.43359375,-413.0859375,-600.5859375,-67.87109375,0.0
1734413412.2731445,-64.453125,-730.46875,-553.7109375,-57.6171875,0.0
1734413412.2770379,-49.31640625,-16.6015625,183.10546875,-20.01953125,0.0
1734413412.2809315,-25.390625,756.34765625,547.36328125,0.48828125,0.0
1734413412.2848248,-25.87890625,315.91796875,168.9453125,-15.625,0.0
1734413412.2887185,-51.7578125,-626.46484375,-520.99609375,-71.2890625,0.0
1734413412.2926118,-74.70703125,-309.08203125,-442.87109375,-74.21875,0.0
1734413412.296694,-49.31640625,388.18359375,246.58203125,-8.30078125,0.0
1734413412.3005874,-14.16015625,562.01171875,487.3046875,20.5078125,0.0
1734413412.304481,-9.27734375,297.36328125,229.98046875,-15.625,0.0
1734413412.3083746,-42.48046875,-77.63671875,-375.9765625,-66.89453125,0.0
1734413412.3122683,-65.91796875,-39.55078125,-490.234375,-70.3125,0.0
1734413412.3161616,-53.7109375,-180.6640625,-114.74609375,-12.20703125,0.0
1734413412.3200552,-29.78515625,29.78515625,337.40234375,20.01953125,0.0
1734413412.3239489,-18.06640625,574.70703125,438.4765625,-10.25390625,0.0
1734413412.3278422,-32.71484375,256.8359375,-216.30859375,-74.70703125,0.0
1734413412.3317358,-50.29296875,-569.82421875,-724.12109375,-69.82421875,0.0
1734413412.3356295,-63.96484375,-181.640625,-73.73046875,-32.2265625,0.0
1734413412.3395228,-42.48046875,755.37109375,543.45703125,-20.5078125,0.0
1734413412.3435936,-18.5546875,621.58203125,382.8125,-27.34375,0.0
1734413412.3474872,-39.55078125,-27.34375,-288.0859375,-58.10546875,0.0
1734413412.3513808,-63.96484375,-194.3359375,-589.35546875,-77.1484375,0.0
1734413412.3552744,-56.15234375,183.10546875,-66.89453125,-40.0390625,0.0
1734413412.359168,-23.4375,507.32421875,448.2421875,13.18359375,0.0
1734413412.3630617,-13.18359375,187.98828125,322.75390625,-15.13671875,0.0
1734413412.366955,-32.2265625,-216.796875,-244.62890625,-60.546875,0.0
1734413412.3708487,-65.91796875,-419.921875,-619.140625,-79.58984375,0.0
1734413412.3747423,-71.2890625,-385.25390625,-291.015625,-49.31640625,0.0
1734413412.378636,-24.90234375,-389.16015625,200.1953125,12.6953125,0.0
1734413412.3825295,-12.20703125,335.9375,454.58984375,6.8359375,0.0
1734413412.386423,-40.0390625,520.5078125,55.17578125,-36.1328125,0.0
1734413412.3904774,-60.05859375,-188.96484375,-572.265625,-67.3828125,0.0
1734413412.394371,-60.546875,-135.25390625,-271.484375,-47.8515625,0.0
1734413412.3982646,-26.3671875,527.34375,400.87890625,2.9296875,0.0
1734413412.4021583,-12.20703125,738.76953125,506.34765625,-3.90625,0.0
1734413412.4060519,-14.6484375,178.22265625,-18.5546875,-43.45703125,0.0
1734413412.4099455,-50.78125,-564.453125,-647.94921875,-60.546875,0.0
1734413412.413839,-82.03125,-427.24609375,-367.67578125,-41.9921875,0.0
1734413412.4177327,-50.29296875,423.828125,343.26171875,-13.671875,0.0
1734413412.4216263,-6.34765625,125.48828125,377.9296875,8.7890625,0.0
1734413412.42552,-3.41796875,-450.1953125,-25.390625,-16.11328125,0.0
1734413412.4294136,-47.36328125,-126.953125,-484.375,-80.56640625,0.0
1734413412.4333072,-70.80078125,-263.671875,-466.30859375,-86.42578125,0.0
1734413412.437353,-45.8984375,-17.578125,151.85546875,-28.80859375,0.0
1734413412.4412465,-19.53125,646.484375,507.8125,-0.48828125,0.0
1734413412.4451401,-38.0859375,633.7890625,281.25,-39.55078125,0.0
1734413412.4490337,-63.96484375,78.61328125,-419.921875,-80.56640625,0.0
1734413412.4529274,-70.80078125,-325.1953125,-510.7421875,-78.61328125,0.0
1734413412.456821,-54.19921875,-53.7109375,98.6328125,-37.109375,0.0
1734413412.4607148,-18.5546875,312.98828125,415.0390625,-15.13671875,0.0
1734413412.4646084,-7.8125,77.63671875,192.87109375,-31.25,0.0
1734413412.468502,-20.5078125,-753.90625,-609.86328125,-57.6171875,0.0
1734413412.4723957,-43.9453125,-429.6875,-525.87890625,-70.80078125,0.0
1734413412.4762893,-53.22265625,431.15234375,255.859375,-34.1796875,0.0
1734413412.480183,-18.5546875,556.640625,454.1015625,-3.41796875,0.0
1734413412.4842095,-11.23046875,289.0625,322.75390625,-17.08984375,0.0
1734413412.4881032,-48.33984375,158.69140625,-163.0859375,-56.640625,0.0
1734413412.4919968,-69.3359375,46.38671875,-472.16796875,-66.40625,0.0
1734413412.4958904,-54.6875,42.96875,-17.578125,-15.13671875,0.0
1734413412.499784,-23.4375,492.1875,484.86328125,19.04296875,0.0
1734413412.5036778,-11.23046875,447.75390625,409.1796875,-0.9765625,0.0
1734413412.5075715,-27.83203125,-137.20703125,-292.48046875,-24.90234375,0.0
1734413412.511465,-61.03515625,-547.8515625,-702.63671875,-52.24609375,0.0
1734413412.5153587,-63.4765625,-104.4921875,-80.078125,-43.45703125,0.0
1734413412.5192523,-26.3671875,692.3828125,531.25,2.9296875,0.0
1734413412.5231462,-2.9296875,783.69140625,477.5390625,-0.48828125,0.0
1734413412.5270398,-11.23046875,-218.26171875,-319.3359375,-31.73828125,0.0
1734413412.5310547,-47.36328125,-546.875,-631.34765625,-58.10546875,0.0
1734413412.5349483,-57.6171875,170.41015625,-50.29296875,-37.59765625,0.0
1734413412.5388422,-21.97265625,506.34765625,420.8984375,26.85546875,0.0
1734413412.5427358,2.44140625,314.453125,450.1953125,28.80859375,0.0
1734413412.5466294,-7.8125,49.31640625,34.1796875,-24.4140625,0.0
1734413412.5505233,-49.8046875,-290.52734375,-534.66796875,-56.640625,0.0
1734413412.554417,-63.96484375,-475.09765625,-392.578125,-30.2734375,0.0
1734413412.5583105,-31.73828125,-475.09765625,160.15625,22.94921875,0.0
1734413412.5622044,-12.20703125,320.80078125,498.046875,17.578125,0.0
1734413412.566098,-27.83203125,598.6328125,196.2890625,-35.64453125,0.0
1734413412.5699916,-50.78125,-91.30859375,-480.95703125,-78.61328125,0.0
1734413412.5738852,-58.10546875,-166.50390625,-304.19921875,-63.96484375,0.0
1734413412.5779872,-40.52734375,500.9765625,410.64453125,-25.87890625,0.0
1734413412.5818808,-15.13671875,806.640625,551.7578125,-23.92578125,0.0
1734413412.5857747,-20.5078125,297.36328125,127.9296875,-55.17578125,0.0
1734413412.5896683,-54.6875,-100.09765625,-460.44921875,-83.0078125,0.0
1734413412.5935621,-74.70703125,-5.37109375,-303.7109375,-68.84765625,0.0
1734413412.5974557,-52.734375,206.0546875,300.78125,-15.625,0.0
1734413412.6013496,-12.6953125,43.45703125,453.125,11.23046875,0.0
1734413412.6052432,-10.7421875,-211.9140625,257.8125,-36.1328125,0.0
1734413412.609137,-52.24609375,49.8046875,-320.3125,-83.49609375,0.0
1734413412.6130307,-72.75390625,8.7890625,-395.5078125,-70.80078125,0.0
1734413412.6169245,-39.0625,48.33984375,201.171875,-13.671875,0.0
1734413412.6208181,-10.25390625,593.75,539.0625,12.20703125,0.0
1734413412.6248064,-13.671875,774.4140625,396.484375,-18.5546875,0.0
1734413412.6287003,-31.25,175.78125,-293.45703125,-52.734375,0.0
1734413412.6325939,-61.03515625,-341.796875,-437.98828125,-64.94140625,0.0
1734413412.6364877,-57.12890625,207.51953125,248.53515625,-14.16015625,0.0
1734413412.6403813,-29.78515625,663.0859375,542.48046875,19.53125,0.0
1734413412.6442752,-19.04296875,271.484375,312.01171875,-25.87890625,0.0
1734413412.6481688,-41.9921875,-366.69921875,-397.4609375,-69.82421875,0.0
1734413412.6520627,-59.5703125,-613.28125,-584.9609375,-65.4296875,0.0
1734413412.6559565,-46.875,100.09765625,118.65234375,-30.76171875,0.0
1734413412.6598501,-11.71875,460.44921875,470.703125,16.6015625,0.0
1734413412.663744,5.37109375,-256.34765625,254.39453125,2.44140625,0.0
1734413412.6676376,-31.73828125,-74.70703125,-90.33203125,-63.96484375,0.0
1734413412.6717143,-65.4296875,88.8671875,-437.98828125,-86.42578125,0.0
1734413412.6756082,-47.8515625,-68.84765625,-104.4921875,-40.52734375,0.0
1734413412.679502,-21.484375,375.48828125,450.1953125,9.765625,0.0
1734413412.6833956,-15.13671875,729.4921875,502.9296875,-20.01953125,0.0
1734413412.6872895,-32.71484375,398.92578125,-6.8359375,-72.265625,0.0
1734413412.6911833,-37.59765625,-436.5234375,-637.6953125,-64.94140625,0.0
1734413412.695077,-46.38671875,-511.71875,-299.31640625,-30.76171875,0.0
1734413412.6989708,-28.80859375,426.26953125,460.9375,-6.8359375,0.0
1734413412.7028646,-4.8828125,801.7578125,522.94921875,-16.11328125,0.0
1734413412.7067583,-26.3671875,-122.55859375,-182.6171875,-50.78125,0.0
1734413412.710652,-61.03515625,-589.84375,-618.1640625,-80.56640625,0.0
1734413412.714546,-69.82421875,67.3828125,-147.4609375,-64.453125,0.0
1734413412.7186184,-27.83203125,485.83984375,387.6953125,-1.953125,0.0
1734413412.7225122,0.48828125,309.5703125,395.99609375,12.6953125,0.0
1734413412.726406,-19.53125,212.40234375,120.60546875,-25.87890625,0.0
1734413412.7303,-46.875,83.984375,-428.22265625,-60.05859375,0.0
1734413412.7341936,-58.59375,-94.23828125,-363.76953125,-38.0859375,0.0
1734413412.7380874,-31.73828125,40.52734375,281.25,14.6484375,0.0
1734413412.7419813,-3.90625,223.6328125,410.15625,11.71875,0.0
1734413412.7458751,-14.6484375,184.08203125,103.515625,-36.1328125,0.0
1734413412.749769,-55.17578125,-185.546875,-536.62109375,-69.82421875,0.0
1734413412.7536626,-67.87109375,-802.24609375,-647.94921875,-57.12890625,0.0
1734413412.7575564,-49.31640625,9.27734375,252.44140625,-25.87890625,0.0
1734413412.7614503,-27.83203125,821.77734375,553.7109375,-13.671875,0.0
1734413412.7655008,-20.5078125,365.234375,125.9765625,-30.2734375,0.0
1734413412.7693946,-51.26953125,-145.99609375,-469.7265625,-75.68359375,0.0
1734413412.7732885,-78.125,-93.75,-432.12890625,-78.125,0.0
1734413412.7771823,-54.6875,315.91796875,246.09375,-17.578125,0.0
1734413412.7810762,-29.78515625,371.09375,479.00390625,11.23046875,0.0
1734413412.78497,-22.94921875,53.22265625,218.26171875,-20.5078125,0.0
1734413412.788864,-43.9453125,-291.015625,-433.10546875,-69.3359375,0.0
1734413412.7927577,-77.1484375,-178.7109375,-542.48046875,-78.125,0.0
1734413412.7966516,-50.29296875,-289.55078125,-163.57421875,-20.5078125,0.0
1734413412.8005455,-9.765625,-105.46875,360.3515625,25.390625,0.0
1734413412.8044393,-10.25390625,580.56640625,412.109375,4.8828125,0.0
1734413412.808333,-27.83203125,177.24609375,-327.63671875,-47.8515625,0.0
1734413412.8123763,-58.10546875,-420.41015625,-579.1015625,-66.40625,0.0
1734413412.81627,-63.4765625,48.828125,2.9296875,-12.6953125,0.0
1734413412.820164,-24.4140625,696.2890625,502.9296875,21.484375,0.0
1734413412.8240578,-7.32421875,575.1953125,372.0703125,-5.859375,0.0
1734413412.8279517,-26.3671875,-146.97265625,-363.28125,-56.15234375,0.0
1734413412.8318455,-64.94140625,-586.9140625,-700.68359375,-68.359375,0.0
1734413412.8357394,-66.40625,-306.15234375,-189.94140625,-38.0859375,0.0
1734413412.8396332,-26.3671875,40.52734375,341.796875,2.9296875,0.0
1734413412.8435273,-10.7421875,-361.328125,219.7265625,-5.37109375,0.0
1734413412.8474212,-32.2265625,-121.58203125,-125.9765625,-55.17578125,0.0
1734413412.851315,-58.59375,9.765625,-536.62109375,-68.359375,0.0
1734413412.8552089,-62.98828125,-210.9375,-290.52734375,-19.53125,0.0
1734413412.8592384,-29.296875,303.22265625,367.67578125,33.203125,0.0
1734413412.8631322,-22.94921875,724.609375,481.93359375,0.0,0.0
1734413412.867026,-51.7578125,386.23046875,-31.73828125,-62.5,0.0
1734413412.8709202,-67.3828125,-299.8046875,-641.6015625,-84.47265625,0.0
1734413412.874814,-73.2421875,-241.69921875,-347.65625,-56.640625,0.0
1734413412.878708,-50.78125,140.625,307.12890625,-13.671875,0.0
1734413412.8826017,-15.625,328.125,439.453125,-14.16015625,0.0
1734413412.8864956,-23.4375,-203.61328125,-189.453125,-46.38671875,0.0
1734413412.8903897,-66.89453125,-753.90625,-687.01171875,-75.68359375,0.0
1734413412.8942835,-91.796875,-130.859375,-313.96484375,-69.82421875,0.0
1734413412.8981774,-52.24609375,388.18359375,270.01953125,-15.13671875,0.0
1734413412.9020712,-15.13671875,346.19140625,413.0859375,3.41796875,0.0
1734413412.9060907,-39.0625,313.96484375,108.3984375,-46.38671875,0.0
1734413412.9099846,-69.82421875,103.02734375,-455.078125,-84.9609375,0.0
1734413412.9138784,-77.63671875,-163.0859375,-501.953125,-73.73046875,0.0
1734413412.9177725,-54.19921875,25.87890625,64.94140625,-30.2734375,0.0
1734413412.9216664,-30.76171875,523.4375,480.46875,-3.41796875,0.0
1734413412.9255602,-27.83203125,227.05078125,103.02734375,-23.4375,0.0
1734413412.929454,-50.78125,-498.046875,-652.34375,-62.98828125,0.0
1734413412.9333482,-65.91796875,-913.57421875,-765.13671875,-52.734375,0.0
1734413412.937242,-54.6875,-91.30859375,67.87109375,-9.27734375,0.0
1734413412.941136,-31.25,746.58203125,510.25390625,2.44140625,0.0
1734413412.94503,-15.625,417.48046875,168.45703125,-28.3203125,0.0
1734413412.9489238,-39.0625,-98.6328125,-446.77734375,-64.453125,0.0
1734413412.9529223,-74.21875,-115.234375,-542.96875,-67.3828125,0.0
1734413412.9568162,-57.12890625,178.7109375,11.23046875,-21.97265625,0.0
1734413412.9607103,-13.18359375,291.50390625,395.5078125,9.765625,0.0
1734413412.9646041,-20.5078125,358.88671875,293.9453125,-27.34375,0.0
1734413412.968498,-42.96875,119.140625,-369.140625,-63.4765625,0.0
1734413412.972392,-55.6640625,-392.578125,-686.03515625,-63.4765625,0.0
1734413412.976286,-56.15234375,-643.06640625,-367.1875,-22.4609375,0.0
1734413412.9801798,-22.94921875,-272.94921875,196.2890625,10.7421875,0.0
1734413412.9840739,-18.06640625,510.7421875,401.85546875,-21.97265625,0.0
1734413412.9879677,-39.55078125,216.30859375,-266.11328125,-59.08203125,0.0
1734413412.9918616,-56.15234375,-482.421875,-703.125,-71.77734375,0.0
1734413412.9957557,-58.59375,-104.98046875,-193.359375,-47.36328125,0.0
1734413412.9997456,-33.203125,637.6953125,462.890625,-5.37109375,0.0
1734413413.0036395,-16.11328125,619.62890625,400.87890625,-14.6484375,0.0
1734413413.0075336,-20.5078125,-59.08203125,-304.19921875,-41.50390625,0.0
1734413413.0114274,-62.5,-228.515625,-640.13671875,-65.91796875,0.0
1734413413.0153215,-66.40625,-59.5703125,-286.62109375,-43.45703125,0.0
1734413413.0192153,-29.78515625,33.69140625,277.34375,8.30078125,0.0
1734413413.0231092,-12.6953125,3.90625,374.51171875,-2.44140625,0.0
1734413413.0270033,-22.94921875,-272.94921875,-227.5390625,-40.0390625,0.0
1734413413.0308971,-52.24609375,-321.77734375,-607.91015625,-65.91796875,0.0
1734413413.0347912,-57.6171875,-304.19921875,-431.15234375,-55.17578125,0.0
1734413413.038685,-30.76171875,-341.30859375,-5.37109375,-6.8359375,0.0
1734413413.0425792,-10.7421875,428.7109375,449.21875,-10.25390625,0.0
1734413413.046663,0.0,438.4765625,32.71484375,-54.19921875,0.0
1734413413.0505571,0.0,-292.48046875,-640.13671875,-70.80078125,0.0
1734413413.0544512,0.0,-291.50390625,-395.5078125,-54.6875,0.0
1734413413.058345,0.0,370.1171875,327.1484375,-24.90234375,0.0
1734413413.0622392,0.0,736.81640625,511.23046875,-7.32421875,0.0
1734413413.066133,0.0,-2.9296875,-59.5703125,-21.484375,0.0
1734413413.070027,0.0,-757.8125,-674.31640625,-63.96484375,0.0
1734413413.0739212,0.0,-307.12890625,-404.78515625,-62.01171875,0.0
1734413413.077815,0.0,279.296875,257.32421875,-13.18359375,0.0
1734413413.0817091,0.0,69.82421875,384.27734375,14.16015625,0.0
1734413413.085603,0.0,-20.01953125,156.25,-22.94921875,0.0
1734413413.089497,0.0,97.16796875,-395.5078125,-71.2890625,0.0
1734413413.0935588,-69.3359375,-137.20703125,-513.18359375,-58.10546875,0.0
1734413413.0974529,-40.0390625,-52.24609375,34.66796875,1.46484375,0.0
1734413413.1013467,-14.6484375,584.9609375,499.0234375,6.34765625,0.0
1734413413.1052408,-11.71875,677.24609375,327.63671875,-38.0859375,0.0
1734413413.109135,-31.73828125,-4.8828125,-448.73046875,-76.171875,0.0
1734413413.113029,-62.98828125,-624.0234375,-652.34375,-74.21875,0.0
1734413413.1169229,-56.640625,-354.00390625,-41.50390625,-30.76171875,0.0
1734413413.120817,-20.99609375,398.4375,473.6328125,3.90625,0.0
1734413413.124711,-5.859375,378.90625,291.50390625,-11.23046875,0.0
1734413413.128605,-41.50390625,-704.1015625,-573.2421875,-41.9921875,0.0
1734413413.132499,-75.68359375,-507.8125,-603.02734375,-51.26953125,0.0
1734413413.136393,-67.87109375,206.0546875,44.921875,-20.5078125,0.0
1734413413.1404445,-24.4140625,306.15234375,398.4375,1.46484375,0.0
1734413413.1443386,-19.04296875,430.6640625,412.59765625,-16.6015625,0.0
1734413413.1482327,-56.15234375,267.578125,-112.79296875,-66.89453125,0.0
1734413413.1521266,-75.68359375,-63.96484375,-544.43359375,-81.54296875,0.0
1734413413.1560206,-72.75390625,-149.90234375,-220.21484375,-38.57421875,0.0
1734413413.1599147,-35.64453125,66.89453125,337.890625,-2.44140625,0.0
1734413413.1638088,-3.41796875,355.95703125,442.87109375,-21.484375,0.0
1734413413.167703,-39.55078125,332.03125,-45.8984375,-81.0546875,0.0
1734413413.171597,-75.68359375,-523.4375,-742.1875,-103.515625,0.0
1734413413.1754909,-100.5859375,-637.6953125,-317.3828125,-84.47265625,0.0
1734413413.179385,-79.58984375,524.90234375,493.65234375,-72.265625,0.0
1734413413.183279,-52.24609375,747.0703125,454.58984375,-70.3125,0.0
1734413413.1873147,-84.47265625,16.6015625,-161.62109375,-109.86328125,0.0
1734413413.1912088,-125.0,-205.078125,-591.30859375,-152.34375,0.0
1734413413.195103,-133.30078125,-5.859375,-269.53125,-127.9296875,0.0
1734413413.198997,-99.609375,178.7109375,324.21875,-89.35546875,0.0
1734413413.202891,-87.40234375,300.29296875,460.9375,-83.0078125,0.0
1734413413.2067852,-117.1875,-25.390625,-60.546875,-129.39453125,0.0
1734413413.2106793,-153.3203125,-432.6171875,-591.796875,-180.6640625,0.0
1734413413.2145734,-165.0390625,-547.36328125,-472.65625,-154.296875,0.0
1734413413.2184675,-135.25390625,-582.51953125,-22.4609375,-95.703125,0.0
1734413413.2223616,-109.375,315.91796875,476.07421875,-92.7734375,0.0
1734413413.2262557,-103.515625,634.27734375,231.4453125,-117.67578125,0.0
1734413413.2301497,-137.6953125,-107.91015625,-506.8359375,-157.71484375,0.0
1734413413.2341774,-147.4609375,-270.99609375,-404.78515625,-149.4140625,0.0
1734413413.2380714,-121.58203125,386.71875,327.63671875,-95.21484375,0.0
1734413413.2419655,-93.75,802.24609375,538.0859375,-71.2890625,0.0
1734413413.2458596,-87.890625,350.5859375,142.578125,-87.40234375,0.0
1734413413.2497537,-108.88671875,-146.484375,-486.328125,-124.0234375,0.0
1734413413.2536478,-111.328125,-390.13671875,-492.1875,-106.4453125,0.0
1734413413.257542,-86.42578125,-83.984375,119.140625,-42.48046875,0.0
1734413413.261436,-49.8046875,64.453125,441.40625,-12.20703125,0.0
1734413413.26533,-47.36328125,-173.33984375,256.34765625,-45.41015625,0.0
1734413413.2692242,-75.68359375,61.5234375,-326.171875,-83.984375,0.0
1734413413.2731183,-98.14453125,-70.3125,-526.85546875,-82.03125,0.0
1734413413.2770123,-76.66015625,-125.0,-26.85546875,-26.85546875,0.0
1734413413.2810247,-18.06640625,530.2734375,490.72265625,14.16015625,0.0
1734413413.2849188,10.7421875,717.28515625,401.3671875,-5.859375,0.0
1734413413.2888129,-6.8359375,94.7265625,-313.96484375,-46.875,0.0
1734413413.292707,-31.73828125,-398.92578125,-557.12890625,-55.17578125,0.0
1734413413.296601,-26.85546875,-10.7421875,21.484375,-2.44140625,0.0
1734413413.3004951,2.9296875,408.69140625,464.35546875,37.109375,0.0
1734413413.3043895,8.7890625,145.99609375,305.17578125,19.53125,0.0
1734413413.3082836,-8.7890625,-740.234375,-525.87890625,1.953125,0.0
1734413413.3121777,-33.203125,-535.15625,-643.06640625,-30.76171875,0.0
1734413413.3160717,-40.52734375,24.90234375,-57.12890625,-1.46484375,0.0
1734413413.3199658,-4.8828125,235.83984375,388.18359375,39.0625,0.0
1734413413.32386,24.90234375,463.8671875,438.96484375,24.90234375,0.0
1734413413.3278575,-5.37109375,279.78515625,-79.1015625,-2.44140625,0.0
1734413413.3317516,-33.69140625,-49.31640625,-537.109375,-22.4609375,0.0
1734413413.3356457,-25.87890625,-174.8046875,-268.5546875,0.9765625,0.0
1734413413.3395398,12.6953125,364.2578125,381.34765625,37.109375,0.0
1734413413.3434339,33.69140625,680.6640625,494.62890625,39.0625,0.0
1734413413.3473282,16.11328125,46.875,-113.76953125,-3.90625,0.0
1734413413.3512223,-0.48828125,-733.3984375,-735.83984375,-25.87890625,0.0
1734413413.3551164,-21.484375,-658.69140625,-355.46875,16.11328125,0.0
1734413413.3590105,2.9296875,416.015625,444.82421875,51.26953125,0.0
1734413413.3629048,48.828125,756.8359375,499.0234375,38.0859375,0.0
1734413413.3667989,23.92578125,106.93359375,-74.21875,6.34765625,0.0
1734413413.370693,-7.32421875,-141.11328125,-561.5234375,-34.66796875,0.0
1734413413.3746862,-14.16015625,-27.34375,-300.29296875,-18.5546875,0.0
1734413413.3785803,4.39453125,73.2421875,264.6484375,43.9453125,0.0
1734413413.3824744,30.2734375,287.109375,426.7578125,55.6640625,0.0
1734413413.3863688,16.6015625,416.50390625,175.78125,23.4375,0.0
1734413413.3902628,-12.20703125,12.6953125,-443.359375,-27.34375,0.0
1734413413.394157,-33.69140625,-514.16015625,-509.765625,-25.87890625,0.0
1734413413.3980513,-22.94921875,-312.01171875,51.7578125,20.01953125,0.0
1734413413.4019454,15.625,310.546875,449.70703125,31.25,0.0
1734413413.4058394,10.25390625,562.5,289.0625,-0.9765625,0.0
1734413413.4097338,-13.671875,-77.63671875,-496.09375,-22.94921875,0.0
1734413413.4136279,-48.828125,-703.61328125,-553.7109375,-26.3671875,0.0
1734413413.417522,-46.875,121.09375,262.20703125,2.9296875,0.0
1734413413.4216008,6.34765625,796.875,532.2265625,21.97265625,0.0
1734413413.425495,12.6953125,359.86328125,212.890625,-17.08984375,0.0
1734413413.4293892,-10.7421875,-116.2109375,-420.41015625,-49.31640625,0.0
1734413413.4332833,-30.76171875,-208.0078125,-528.3203125,-47.36328125,0.0
1734413413.4371777,-36.1328125,-24.4140625,17.08984375,10.7421875,0.0
1734413413.4410717,-4.39453125,53.7109375,420.8984375,46.38671875,0.0
1734413413.444966,4.8828125,-32.71484375,312.5,3.90625,0.0
1734413413.4488602,-31.73828125,87.40234375,-267.08984375,-57.12890625,0.0
1734413413.4527543,-53.7109375,-116.2109375,-551.7578125,-64.453125,0.0
1734413413.4566486,-46.38671875,-213.37890625,-191.40625,-10.25390625,0.0
1734413413.4605427,-18.06640625,408.69140625,414.0625,14.6484375,0.0
1734413413.464437,0.48828125,718.75,462.40234375,-25.87890625,0.0
1734413413.468504,-13.671875,152.34375,-203.125,-54.19921875,0.0
1734413413.472398,-57.12890625,-492.67578125,-606.93359375,-65.4296875,0.0
1734413413.4762924,-70.3125,-109.375,-92.7734375,-45.41015625,0.0
1734413413.4801865,-28.80859375,610.3515625,491.2109375,4.8828125,0.0
1734413413.4840808,-9.27734375,517.08984375,399.90234375,-12.20703125,0.0
1734413413.487975,-33.203125,-241.69921875,-328.125,-43.45703125,0.0
1734413413.4918692,-57.12890625,-665.52734375,-695.3125,-58.10546875,0.0
1734413413.4957635,-58.59375,-390.625,-245.1171875,-46.38671875,0.0
1734413413.4996576,-15.625,8.30078125,312.98828125,11.23046875,0.0
1734413413.503552,-6.34765625,-265.13671875,290.0390625,15.13671875,0.0
1734413413.507446,-30.76171875,-17.08984375,-38.57421875,-54.19921875,0.0
1734413413.5113404,-47.8515625,32.71484375,-512.6953125,-72.75390625,0.0
1734413413.515394,-59.08203125,-192.87109375,-324.21875,-37.109375,0.0
1734413413.5192883,-34.1796875,318.84765625,366.69921875,-3.41796875,0.0
1734413413.5231824,-13.671875,767.08984375,535.15625,-5.859375,0.0
1734413413.5270767,-16.11328125,470.21484375,74.21875,-37.109375,0.0
1734413413.530971,-32.71484375,-283.69140625,-590.33203125,-53.22265625,0.0
1734413413.5348654,-41.9921875,-498.046875,-436.03515625,-26.3671875,0.0
1734413413.5387595,-15.13671875,66.89453125,307.6171875,22.94921875,0.0
1734413413.5426538,6.8359375,656.25,544.43359375,20.01953125,0.0
1734413413.5465481,-0.48828125,-61.5234375,-89.35546875,-15.625,0.0
1734413413.5504422,-42.48046875,-738.76953125,-634.765625,-53.22265625,0.0
1734413413.5543365,-63.4765625,-329.1015625,-417.96875,-55.17578125,0.0
1734413413.5582309,-36.62109375,0.48828125,159.66796875,-3.41796875,0.0
1734413413.5622704,-0.48828125,300.78125,441.40625,29.296875,0.0
1734413413.5661647,-1.953125,413.0859375,216.30859375,-5.859375,0.0
1734413413.570059,-29.296875,104.00390625,-391.6015625,-64.453125,0.0
1734413413.5739534,-41.015625,-199.21875,-500.9765625,-57.6171875,0.0
1734413413.5778475,-32.71484375,-65.4296875,59.08203125,1.953125,0.0
1734413413.5817418,-9.765625,225.5859375,428.22265625,34.1796875,0.0
1734413413.5856361,1.46484375,148.4375,218.75,3.90625,0.0
1734413413.5895305,-29.78515625,-347.65625,-506.34765625,-47.8515625,0.0
1734413413.5934248,-53.7109375,-876.953125,-736.328125,-40.52734375,0.0
1734413413.5973191,-42.96875,-92.7734375,116.2109375,11.23046875,0.0
1734413413.6012132,-6.8359375,776.3671875,568.359375,22.4609375,0.0
1734413413.6051075,1.46484375,445.80078125,260.25390625,-17.08984375,0.0
1734413413.6091287,-24.4140625,-5.37109375,-350.09765625,-53.7109375,0.0
1734413413.613023,-59.08203125,-211.42578125,-553.7109375,-63.4765625,0.0
1734413413.6169174,-50.29296875,-51.26953125,-38.57421875,-17.08984375,0.0
1734413413.6208117,-7.32421875,405.2734375,454.58984375,22.4609375,0.0
1734413413.624706,-5.859375,513.18359375,378.90625,-0.9765625,0.0
1734413413.6286001,-37.59765625,-50.78125,-355.46875,-35.15625,0.0
1734413413.6324944,-54.19921875,-478.02734375,-636.71875,-40.0390625,0.0
1734413413.6363888,-54.19921875,-430.6640625,-260.7421875,-17.578125,0.0
1734413413.640283,-29.78515625,-57.12890625,306.15234375,6.34765625,0.0
1734413413.6441774,-15.13671875,682.6171875,511.23046875,-4.8828125,0.0
1734413413.6480718,-26.85546875,368.65234375,-79.1015625,-43.45703125,0.0
1734413413.651966,-30.2734375,-413.57421875,-617.67578125,-55.17578125,0.0
1734413413.6560752,-55.6640625,-56.640625,-144.53125,-32.2265625,0.0
1734413413.6599696,-45.8984375,707.03125,487.79296875,5.859375,0.0
1734413413.663864,-17.578125,665.0390625,451.171875,2.44140625,0.0
1734413413.6677582,-29.78515625,72.75390625,-89.84375,-47.36328125,0.0
1734413413.6716526,-66.40625,-301.7578125,-611.328125,-81.54296875,0.0
1734413413.675547,-75.1953125,-290.52734375,-301.7578125,-47.36328125,0.0
1734413413.6794412,-39.55078125,-1.953125,290.52734375,9.27734375,0.0
1734413413.6833355,-13.18359375,-152.83203125,308.59375,16.11328125,0.0
1734413413.6872299,-37.109375,0.48828125,-13.18359375,-60.05859375,0.0
1734413413.6911242,-67.87109375,55.6640625,-476.5625,-98.6328125,0.0
1734413413.6950185,-72.75390625,-274.4140625,-446.2890625,-52.24609375,0.0
1734413413.698913,-41.50390625,-255.859375,55.6640625,12.6953125,0.0
1734413413.7029095,-10.7421875,583.49609375,502.44140625,9.765625,0.0
1734413413.7068038,-15.13671875,630.37109375,197.265625,-41.9921875,0.0
1734413413.7106981,-51.7578125,-238.76953125,-558.10546875,-61.03515625,0.0
1734413413.7145925,-62.98828125,-290.52734375,-433.10546875,-43.9453125,0.0
1734413413.7184868,-42.96875,399.4140625,323.2421875,6.8359375,0.0
1734413413.722381,-7.8125,447.75390625,469.7265625,29.78515625,0.0
1734413413.7262754,-0.48828125,-51.7578125,35.15625,-14.16015625,0.0
1734413413.73017,-43.45703125,-351.07421875,-566.40625,-55.6640625,0.0
1734413413.7340643,-67.3828125,-355.95703125,-479.4921875,-63.4765625,0.0
1734413413.7379587,-46.38671875,229.98046875,211.42578125,-21.97265625,0.0
1734413413.741853,-10.7421875,148.92578125,390.625,22.94921875,0.0
1734413413.7457473,-15.625,-124.0234375,205.56640625,-27.34375,0.0
1734413413.7497385,-43.45703125,46.38671875,-369.62890625,-83.0078125,0.0
1734413413.753633,-58.59375,-134.27734375,-531.25,-74.70703125,0.0
1734413413.7575274,-42.96875,-33.203125,2.9296875,-26.85546875,0.0
1734413413.7614217,-20.99609375,591.30859375,488.76953125,-1.46484375,0.0
1734413413.765316,-17.08984375,585.44921875,318.84765625,-30.76171875,0.0
1734413413.7692106,-38.57421875,-282.71484375,-489.2578125,-55.6640625,0.0
1734413413.773105,-62.01171875,-765.625,-670.8984375,-66.40625,0.0
1734413413.7769992,-51.26953125,-172.36328125,-15.13671875,-39.0625,0.0
1734413413.7808936,-27.83203125,738.76953125,520.01953125,2.44140625,0.0
1734413413.784788,-13.671875,512.20703125,332.51953125,-16.11328125,0.0
1734413413.7886825,-32.2265625,-616.2109375,-490.234375,-46.38671875,0.0
1734413413.7925768,-64.94140625,-596.6796875,-672.8515625,-63.4765625,0.0
1734413413.7966454,-60.546875,82.03125,-60.546875,-45.8984375,0.0
1734413413.8005397,-26.3671875,416.50390625,401.3671875,2.44140625,0.0
1734413413.8044343,-10.25390625,473.14453125,407.71484375,4.8828125,0.0
1734413413.8083286,-25.87890625,290.0390625,-109.86328125,-49.8046875,0.0
1734413413.812223,-47.8515625,-23.4375,-558.10546875,-66.89453125,0.0
1734413413.8161175,-45.8984375,-326.171875,-314.94140625,-31.73828125,0.0
1734413413.8200119,-25.87890625,-27.34375,297.36328125,15.625,0.0
1734413413.8239062,-19.04296875,670.8984375,512.6953125,14.16015625,0.0
1734413413.8278008,-24.4140625,433.10546875,-39.55078125,-24.4140625,0.0
1734413413.831695,-46.875,-548.828125,-750.9765625,-50.78125,0.0
1734413413.8355894,-66.89453125,-425.29296875,-341.30859375,-46.38671875,0.0
1734413413.839484,-33.69140625,596.19140625,441.40625,-11.23046875,0.0
1734413413.8435407,-9.27734375,709.47265625,455.078125,-6.8359375,0.0
1734413413.8474352,-22.94921875,98.14453125,-132.8125,-41.50390625,0.0
1734413413.8513296,-55.6640625,-345.21484375,-673.33984375,-65.91796875,0.0
1734413413.8552241,-70.3125,-230.46875,-355.95703125,-42.48046875,0.0
1734413413.8591185,-41.50390625,313.96484375,323.73046875,0.0,0.0
1734413413.863013,-5.859375,281.25,428.7109375,-18.5546875,0.0
1734413413.8669074,-8.30078125,-130.37109375,-52.734375,-45.8984375,0.0
1734413413.870802,-49.31640625,-323.2421875,-544.921875,-68.84765625,0.0
1734413413.8746963,-61.5234375,-291.50390625,-504.8828125,-65.4296875,0.0
1734413413.8785908,-31.25,-532.71484375,-166.015625,4.39453125,0.0
1734413413.8824852,-16.6015625,298.33984375,418.9453125,5.37109375,0.0
1734413413.8863795,-24.90234375,665.0390625,267.08984375,-51.26953125,0.0
1734413413.8904207,-52.24609375,-155.76171875,-534.66796875,-79.1015625,0.0
1734413413.894315,-65.4296875,-274.4140625,-482.91015625,-61.5234375,0.0
1734413413.8982096,-44.921875,385.25390625,282.2265625,-31.25,0.0
1734413413.902104,-14.16015625,774.4140625,528.80859375,-13.671875,0.0
1734413413.9059985,-14.16015625,296.875,87.40234375,-33.203125,0.0
1734413413.909893,-37.59765625,-455.078125,-559.5703125,-76.171875,0.0
1734413413.9137874,-57.6171875,-582.03125,-591.796875,-73.2421875,0.0
1734413413.917682,-46.38671875,-121.09375,-26.85546875,-20.01953125,0.0
1734413413.9215763,-14.16015625,32.2265625,381.34765625,14.16015625,0.0
1734413413.9254708,-11.71875,-104.00390625,271.484375,-15.625,0.0
1734413413.9293654,-46.38671875,85.44921875,-335.9375,-66.40625,0.0
1734413413.9332597,-63.96484375,-104.4921875,-583.0078125,-59.5703125,0.0
1734413413.937296,-53.22265625,-104.00390625,-103.515625,-15.13671875,0.0
1734413413.9411902,-21.97265625,582.03125,466.796875,16.6015625,0.0
1734413413.9450848,-8.30078125,785.64453125,435.546875,-6.8359375,0.0
1734413413.9489794,-24.90234375,177.734375,-269.53125,-69.3359375,0.0
1734413413.952874,-60.05859375,-390.625,-621.09375,-69.82421875,0.0
1734413413.9567683,-69.3359375,-257.8125,-186.03515625,-33.69140625,0.0
1734413413.9606628,-16.11328125,274.90234375,410.15625,-15.13671875,0.0
1734413413.9645574,-3.41796875,274.90234375,364.2578125,-15.13671875,0.0
1734413413.9684517,-29.296875,-696.2890625,-518.06640625,-45.41015625,0.0
1734413413.9723463,-68.359375,-773.92578125,-758.7890625,-81.54296875,0.0
1734413413.9762409,-84.47265625,69.82421875,-134.27734375,-54.6875,0.0
1734413413.9801352,-45.41015625,466.30859375,382.8125,-12.20703125,0.0
1734413413.9841595,-20.99609375,542.96875,440.91796875,-17.08984375,0.0
1734413413.9880538,-32.71484375,354.4921875,-68.84765625,-50.78125,0.0
1734413413.9919484,-57.6171875,-45.8984375,-594.23828125,-74.21875,0.0
1734413413.995843,-75.68359375,-168.45703125,-352.5390625,-30.2734375,0.0
1734413413.9997375,-48.33984375,313.4765625,325.1953125,-0.48828125,0.0
1734413414.003632,-21.484375,395.5078125,420.41015625,-18.06640625,0.0
1734413414.0075264,-36.62109375,-65.91796875,-157.71484375,-49.31640625,0.0
1734413414.011421,-63.4765625,-639.16015625,-752.9296875,-79.58984375,0.0
1734413414.0153155,-68.84765625,-644.04296875,-416.015625,-59.5703125,0.0
1734413414.01921,-50.78125,412.59765625,389.16015625,-27.34375,0.0
1734413414.0231047,-23.4375,813.4765625,500.48828125,-12.6953125,0.0
1734413414.026999,-28.3203125,177.734375,-62.01171875,-32.2265625,0.0
1734413414.031014,-49.8046875,-356.93359375,-640.625,-79.58984375,0.0
1734413414.0349085,-78.61328125,-110.83984375,-377.44140625,-62.01171875,0.0
1734413414.038803,-56.640625,378.90625,281.73828125,-15.13671875,0.0
1734413414.0426977,-12.6953125,503.41796875,451.66015625,-6.8359375,0.0
1734413414.0465922,-31.25,335.44921875,101.5625,-45.8984375,0.0
1734413414.0504866,-60.546875,-212.40234375,-527.34375,-85.9375,0.0
1734413414.0543811,-63.4765625,-541.50390625,-607.421875,-67.87109375,0.0
1734413414.0582757,-34.66796875,-657.71484375,-210.9375,0.48828125,0.0
1734413414.0621703,-11.71875,241.69921875,401.85546875,5.859375,0.0
1734413414.0660648,-14.6484375,680.17578125,313.4765625,-35.64453125,0.0
1734413414.0699594,-44.921875,-13.18359375,-490.72265625,-65.91796875,0.0
1734413414.073854,-68.359375,-233.3984375,-535.15625,-78.125,0.0
1734413414.0778565,-58.59375,310.546875,138.18359375,-46.875,0.0
1734413414.081751,-32.71484375,765.625,483.88671875,3.90625,0.0
1734413414.0856457,-19.53125,445.80078125,223.6328125,-11.23046875,0.0
1734413414.0895402,-34.66796875,-166.015625,-455.56640625,-61.5234375,0.0
1734413414.0934348,-62.98828125,-294.921875,-599.609375,-76.171875,0.0
1734413414.0973294,-64.94140625,-16.11328125,-102.5390625,-37.59765625,0.0
1734413414.101224,-21.484375,-20.99609375,347.65625,15.13671875,0.0
1734413414.1051185,5.859375,-163.57421875,298.33984375,11.23046875,0.0
1734413414.109013,-24.4140625,103.515625,-269.04296875,-55.6640625,0.0
1734413414.1129074,-63.4765625,-31.73828125,-593.26171875,-97.65625,0.0
1734413414.116802,-50.78125,-182.12890625,-262.6953125,-53.22265625,0.0
1734413414.1206965,-8.7890625,390.625,386.23046875,1.46484375,0.0
1734413414.1247017,9.765625,762.6953125,471.6796875,-5.859375,0.0
1734413414.1285963,-8.7890625,201.66015625,-180.6640625,-61.5234375,0.0
1734413414.1324909,-44.43359375,-417.96875,-613.28125,-89.35546875,0.0
1734413414.1363854,-48.828125,-18.06640625,-172.36328125,-43.9453125,0.0
1734413414.14028,-22.94921875,554.6875,433.59375,20.01953125,0.0
1734413414.1441746,-6.34765625,273.92578125,342.28515625,1.46484375,0.0
1734413414.1480691,-15.13671875,-338.8671875,-314.453125,-51.7578125,0.0
1734413414.1519637,-43.9453125,-577.63671875,-687.5,-83.49609375,0.0
1734413414.1558583,-63.96484375,-184.08203125,-277.34375,-39.0625,0.0
1734413414.1597528,-29.78515625,366.2109375,353.02734375,10.7421875,0.0
1734413414.1636474,-7.8125,372.0703125,460.9375,-20.5078125,0.0
1734413414.167542,-20.99609375,304.19921875,-13.671875,-44.43359375,0.0
1734413414.1716146,-39.55078125,58.10546875,-553.7109375,-62.98828125,0.0
1734413414.1755092,-51.26953125,-206.54296875,-364.74609375,-48.828125,0.0
1734413414.1794038,-31.73828125,163.57421875,314.453125,6.8359375,0.0
1734413414.1832983,-10.7421875,722.65625,516.11328125,6.8359375,0.0
1734413414.1871932,-16.6015625,503.41796875,79.58984375,-42.48046875,0.0
1734413414.1910877,-41.015625,-392.08984375,-674.8046875,-76.171875,0.0
1734413414.1949823,-49.8046875,-990.72265625,-705.078125,-48.33984375,0.0
1734413414.1988769,-33.69140625,6.34765625,230.46875,-7.8125,0.0
1734413414.2027714,-20.01953125,785.64453125,536.1328125,1.953125,0.0
1734413414.2066662,-28.80859375,121.09375,-55.6640625,-28.80859375,0.0
1734413414.2105608,-39.55078125,-386.23046875,-647.94921875,-55.6640625,0.0
1734413414.2144554,-56.15234375,-58.59375,-407.2265625,-55.17578125,0.0
1734413414.2185128,-47.8515625,355.95703125,217.28515625,-25.87890625,0.0
1734413414.2224073,-6.8359375,229.98046875,320.3125,-0.48828125,0.0
1734413414.226302,-20.01953125,277.83203125,185.05859375,-30.2734375,0.0
1734413414.2301967,-55.6640625,199.21875,-375.0,-76.171875,0.0
1734413414.2340913,-64.453125,-168.45703125,-589.84375,-69.82421875,0.0
1734413414.2379858,-40.52734375,-394.04296875,-137.20703125,-11.23046875,0.0
1734413414.2418807,-8.30078125,21.97265625,394.53125,20.01953125,0.0
1734413414.2457752,-4.8828125,391.11328125,340.8203125,-31.73828125,0.0
1734413414.2496698,-27.34375,-29.78515625,-458.0078125,-82.03125,0.0
1734413414.2535644,-51.7578125,-827.63671875,-800.29296875,-69.3359375,0.0
1734413414.2574592,-47.8515625,-118.1640625,-11.23046875,-36.1328125,0.0
1734413414.2613537,-17.578125,844.23828125,530.2734375,-9.27734375,0.0
1734413414.2654002,1.953125,493.65234375,271.97265625,-19.04296875,0.0
1734413414.269295,-19.53125,-208.0078125,-417.96875,-55.6640625,0.0
1734413414.2731895,-61.5234375,-203.61328125,-598.6328125,-86.9140625,0.0
1734413414.2770844,-60.546875,233.88671875,-45.41015625,-42.48046875,0.0
1734413414.280979,-19.04296875,454.1015625,412.59765625,-6.8359375,0.0
1734413414.2848737,-14.16015625,176.7578125,282.2265625,-39.0625,0.0
1734413414.2887683,-40.52734375,-112.3046875,-299.31640625,-73.73046875,0.0
1734413414.2926629,-62.5,-34.66796875,-568.359375,-80.56640625,0.0
1734413414.2965577,-58.10546875,-353.02734375,-398.92578125,-35.64453125,0.0
1734413414.3004522,-15.13671875,-174.8046875,186.5234375,9.27734375,0.0
1734413414.304347,-1.46484375,646.484375,495.1171875,-20.5078125,0.0
1734413414.3082416,-24.4140625,338.37890625,-89.84375,-66.40625,0.0
1734413414.3122783,-55.6640625,-364.74609375,-628.90625,-81.0546875,0.0
1734413414.316173,-69.82421875,-65.4296875,-245.60546875,-51.7578125,0.0
1734413414.3200676,-40.0390625,622.55859375,412.109375,-5.37109375,0.0
1734413414.3239625,-5.37109375,667.48046875,443.84765625,-12.20703125,0.0
1734413414.327857,-19.53125,-62.01171875,-160.15625,-48.828125,0.0
1734413414.3317518,-51.26953125,-525.87890625,-666.50390625,-63.96484375,0.0
1734413414.3356464,-46.875,-382.32421875,-414.0625,-36.62109375,0.0
1734413414.3395412,-33.69140625,-52.734375,186.03515625,5.37109375,0.0
1734413414.3434358,-6.34765625,-256.8359375,279.296875,15.625,0.0
1734413414.3473306,-20.5078125,14.16015625,72.75390625,-34.1796875,0.0
1734413414.3512251,-59.5703125,159.66796875,-455.078125,-74.70703125,0.0
1734413414.35512,-73.73046875,-142.08984375,-445.80078125,-49.8046875,0.0
1734413414.3591452,-42.96875,276.3671875,277.34375,0.0,0.0
1734413414.36304,-12.20703125,797.36328125,532.71484375,-1.46484375,0.0
1734413414.3669348,-22.4609375,535.15625,160.64453125,-37.59765625,0.0
1734413414.3708293,-41.9921875,-163.0859375,-523.92578125,-67.3828125,0.0
1734413414.3747241,-61.03515625,-274.90234375,-508.7890625,-57.6171875,0.0
1734413414.3786187,-47.36328125,48.33984375,98.6328125,1.953125,0.0
1734413414.3825135,-22.4609375,351.07421875,432.12890625,18.5546875,0.0
1734413414.3864083,-16.11328125,-88.8671875,12.6953125,-25.87890625,0.0
1734413414.390303,-46.875,-716.796875,-611.81640625,-67.3828125,0.0
1734413414.3941977,-75.1953125,-199.70703125,-458.0078125,-71.77734375,0.0
1734413414.3980923,-60.546875,314.94140625,112.3046875,-21.97265625,0.0
1734413414.401987,-25.390625,402.34375,415.0390625,13.18359375,0.0
1734413414.405997,-20.01953125,463.37890625,280.2734375,-24.4140625,0.0
1734413414.4098918,-47.8515625,248.53515625,-347.16796875,-71.2890625,0.0
1734413414.4137864,-73.2421875,-163.57421875,-593.26171875,-60.05859375,0.0
1734413414.4176812,-64.453125,-67.3828125,-67.3828125,-36.62109375,0.0
1734413414.421576,-24.4140625,463.8671875,432.12890625,-14.6484375,0.0
1734413414.4254706,-18.5546875,328.61328125,296.875,-17.578125,0.0
1734413414.4293654,-35.15625,-243.1640625,-429.6875,-58.59375,0.0
1734413414.4332602,-38.57421875,-857.91015625,-828.61328125,-58.10546875,0.0
1734413414.437155,-68.359375,-208.0078125,-121.58203125,-16.11328125,0.0
1734413414.4410496,-40.0390625,758.30078125,520.5078125,9.27734375,0.0
1734413414.4449444,-11.71875,497.0703125,332.51953125,-17.08984375,0.0
1734413414.4488392,-45.41015625,-118.65234375,-322.75390625,-67.87109375,0.0
1734413414.452836,-83.49609375,-151.3671875,-597.65625,-77.1484375,0.0
1734413414.4567308,-73.2421875,157.2265625,-136.71875,-41.50390625,0.0
1734413414.4606256,-20.5078125,385.7421875,359.375,-13.671875,0.0
1734413414.4645202,-21.484375,494.62890625,416.50390625,-11.23046875,0.0
1734413414.468415,-44.43359375,298.828125,-89.84375,-49.8046875,0.0
1734413414.4723098,-62.5,-271.97265625,-623.046875,-66.40625,0.0
1734413414.4762046,-62.5,-623.046875,-470.703125,-30.76171875,0.0
1734413414.4800992,-30.76171875,-296.875,90.8203125,-1.46484375,0.0
1734413414.483994,-4.39453125,511.23046875,457.51953125,-0.9765625,0.0
1734413414.4878888,-23.4375,367.67578125,-8.30078125,-39.55078125,0.0
1734413414.4917836,-60.05859375,-353.515625,-681.640625,-66.89453125,0.0
1734413414.4956784,-65.91796875,-193.359375,-378.90625,-45.8984375,0.0
1734413414.499667,-44.921875,565.91796875,382.32421875,-8.30078125,0.0
1734413414.5035617,-25.87890625,639.6484375,439.453125,-0.9765625,0.0
1734413414.5074563,-27.34375,-170.41015625,-241.69921875,-51.26953125,0.0
1734413414.511351,-54.19921875,-256.8359375,-630.859375,-86.42578125,0.0
1734413414.515246,-69.3359375,5.859375,-364.2578125,-61.5234375,0.0
1734413414.5191407,-54.19921875,38.57421875,190.4296875,-15.625,0.0
1734413414.5230355,-29.296875,38.57421875,366.2109375,-1.46484375,0.0
1734413414.5269303,-25.87890625,36.62109375,47.36328125,-33.69140625,0.0
1734413414.5308251,-59.5703125,69.82421875,-448.73046875,-72.75390625,0.0
1734413414.5347197,-71.77734375,-238.76953125,-589.35546875,-56.640625,0.0
1734413414.5386145,-45.8984375,-466.30859375,-136.71875,-5.859375,0.0
1734413414.5425093,-25.390625,326.171875,458.0078125,10.7421875,0.0
1734413414.5465815,-26.85546875,616.69921875,273.92578125,-24.90234375,0.0
1734413414.5504763,-51.26953125,-44.921875,-469.23828125,-65.91796875,0.0
1734413414.554371,-70.80078125,-268.06640625,-537.109375,-69.82421875,0.0
1734413414.558266,-49.8046875,270.01953125,117.67578125,-23.92578125,0.0
1734413414.5621607,-14.16015625,685.546875,494.140625,20.5078125,0.0
1734413414.5660555,-6.34765625,122.55859375,123.046875,-6.34765625,0.0
1734413414.5699503,-30.2734375,-647.4609375,-585.9375,-65.4296875,0.0
1734413414.5738451,-60.05859375,-429.6875,-568.84765625,-68.84765625,0.0
1734413414.57774,-61.5234375,240.234375,45.41015625,-15.625,0.0
1734413414.5816348,-40.0390625,216.30859375,359.86328125,13.671875,0.0
1734413414.5855296,-32.2265625,235.3515625,301.7578125,-19.04296875,0.0
1734413414.5894244,-44.921875,292.48046875,-277.34375,-59.08203125,0.0
1734413414.5934749,-55.6640625,-122.55859375,-626.953125,-56.15234375,0.0
1734413414.5973697,-55.17578125,-129.8828125,-162.59765625,-8.7890625,0.0
1734413414.6012645,-36.1328125,467.28515625,417.48046875,6.8359375,0.0
1734413414.6051593,-18.06640625,696.2890625,422.8515625,-10.25390625,0.0
1734413414.609054,-33.203125,171.875,-203.125,-31.73828125,0.0
1734413414.612949,-64.453125,-561.03515625,-678.7109375,-63.96484375,0.0
1734413414.616844,-64.453125,-524.90234375,-333.984375,-39.55078125,0.0
1734413414.6207387,-34.66796875,219.7265625,350.5859375,9.765625,0.0
1734413414.6246336,-21.484375,412.109375,389.16015625,0.9765625,0.0
1734413414.6285284,-28.80859375,-649.4140625,-501.46484375,-40.52734375,0.0
1734413414.6324232,-55.17578125,-615.234375,-722.65625,-68.359375,0.0
1734413414.636318,-62.01171875,73.2421875,-216.796875,-38.57421875,0.0
1734413414.6403692,-25.87890625,309.5703125,287.59765625,-0.9765625,0.0
1734413414.644264,-1.46484375,493.1640625,442.3828125,4.39453125,0.0
1734413414.6481588,-18.5546875,368.65234375,-38.0859375,-34.66796875,0.0
1734413414.6520536,-46.38671875,-22.4609375,-578.125,-68.84765625,0.0
1734413414.6559486,-47.36328125,-273.4375,-428.22265625,-41.015625,0.0
1734413414.6598434,-20.5078125,-134.765625,161.1328125,4.39453125,0.0
1734413414.6637383,-12.6953125,298.828125,437.5,0.48828125,0.0
1734413414.667633,-10.25390625,427.24609375,54.19921875,-41.50390625,0.0
1734413414.6715279,-44.43359375,-458.0078125,-737.3046875,-77.1484375,0.0
1734413414.675423,-84.47265625,-716.796875,-520.99609375,-78.61328125,0.0
1734413414.6793177,-55.6640625,361.328125,320.80078125,-24.4140625,0.0
1734413414.6832125,-17.08984375,669.43359375,449.70703125,-0.9765625,0.0
1734413414.6872394,-26.3671875,125.9765625,-42.48046875,-52.734375,0.0
1734413414.6911342,-53.22265625,-111.81640625,-569.82421875,-86.42578125,0.0
1734413414.6950293,-63.4765625,-8.30078125,-419.921875,-54.6875,0.0
1734413414.698924,-48.828125,292.48046875,208.984375,-15.13671875,0.0
1734413414.7028189,-8.30078125,370.1171875,411.62109375,-3.41796875,0.0
1734413414.706714,-15.625,128.90625,112.3046875,-18.06640625,0.0
1734413414.7106087,-46.38671875,-306.640625,-507.8125,-60.546875,0.0
1734413414.7145035,-52.24609375,-555.17578125,-636.23046875,-76.66015625,0.0
1734413414.7183986,-47.8515625,-751.46484375,-300.78125,-24.90234375,0.0
1734413414.7222934,-32.2265625,55.6640625,326.66015625,0.0,0.0
1734413414.7261882,-25.87890625,704.58984375,360.3515625,-28.3203125,0.0
1734413414.730083,-38.0859375,69.3359375,-440.91796875,-70.3125,0.0
1734413414.7340996,-57.6171875,-282.2265625,-573.73046875,-83.49609375,0.0
1734413414.7379944,-57.6171875,251.46484375,71.77734375,-37.59765625,0.0
1734413414.7418892,-29.296875,696.77734375,493.65234375,4.39453125,0.0
1734413414.7457843,-22.94921875,347.65625,291.9921875,-16.11328125,0.0
1734413414.749679,-42.48046875,-42.48046875,-360.3515625,-57.6171875,0.0
1734413414.7535741,-63.4765625,-368.1640625,-648.92578125,-50.78125,0.0
1734413414.757469,-72.265625,-197.265625,-180.17578125,-18.06640625,0.0
1734413414.7613637,-28.80859375,3.41796875,347.65625,9.765625,0.0
1734413414.7652588,-20.01953125,-58.10546875,374.51171875,-2.9296875,0.0
1734413414.7691536,-56.15234375,258.30078125,-112.3046875,-70.3125,0.0
1734413414.7730486,-69.82421875,31.73828125,-560.546875,-82.03125,0.0
1734413414.7769434,-58.10546875,-130.37109375,-285.64453125,-27.83203125,0.0
1734413414.7809515,-35.15625,496.09375,374.0234375,7.32421875,0.0
1734413414.7848463,-20.01953125,863.76953125,489.74609375,-5.859375,0.0
1734413414.7887414,-35.64453125,351.07421875,-94.7265625,-35.64453125,0.0
1734413414.7926362,-60.05859375,-293.9453125,-587.890625,-51.26953125,0.0
1734413414.7965312,-65.91796875,-101.07421875,-284.1796875,-39.0625,0.0
1734413414.800426,-41.9921875,268.06640625,340.33203125,2.44140625,0.0
1734413414.804321,-27.83203125,230.46875,377.9296875,-4.8828125,0.0
1734413414.8082159,-36.62109375,-646.97265625,-438.96484375,-39.0625,0.0
1734413414.812111,-74.21875,-641.6015625,-692.3828125,-78.125,0.0
1734413414.8160057,-82.51953125,116.69921875,-213.37890625,-65.4296875,0.0
1734413414.8199008,-42.96875,392.08984375,309.08203125,-10.25390625,0.0
1734413414.8237956,-16.11328125,556.640625,487.79296875,-6.8359375,0.0
1734413414.827792,-12.6953125,506.34765625,127.9296875,-40.0390625,0.0
1734413414.8316867,-43.9453125,103.02734375,-483.3984375,-76.66015625,0.0
1734413414.8355818,-64.453125,-197.75390625,-427.24609375,-73.73046875,0.0
1734413414.8394766,-27.34375,215.33203125,285.64453125,-27.34375,0.0
1734413414.8433716,3.41796875,726.07421875,523.4375,-16.11328125,0.0
1734413414.8472664,-15.13671875,314.94140625,54.6875,-46.38671875,0.0
1734413414.8511615,-38.0859375,-562.01171875,-670.8984375,-64.94140625,0.0
1734413414.8550563,-51.26953125,-665.0390625,-496.58203125,-54.6875,0.0
1734413414.8589513,-41.9921875,331.0546875,325.1953125,-14.16015625,0.0
1734413414.8628461,-8.30078125,645.01953125,495.60546875,5.859375,0.0
1734413414.8667412,11.71875,67.87109375,51.26953125,-26.85546875,0.0
1734413414.8706362,-28.3203125,-102.5390625,-488.28125,-73.73046875,0.0
1734413414.874625,0.0,56.640625,-386.23046875,-67.87109375,0.0
1734413414.87852,0.0,293.9453125,209.9609375,-14.6484375,0.0
1734413414.882415,0.0,370.1171875,432.6171875,5.37109375,0.0
1734413414.8863099,0.0,497.0703125,309.08203125,-26.85546875,0.0
1734413414.890205,0.0,164.55078125,-328.125,-71.77734375,0.0
1734413414.8940997,0.0,-454.1015625,-622.55859375,-68.359375,0.0
1734413414.8979948,0.0,-439.453125,-98.14453125,-14.6484375,0.0
1734413414.9018898,0.0,237.79296875,458.0078125,17.578125,0.0
1734413414.9057846,0.0,724.609375,459.9609375,-6.8359375,0.0
1734413414.9096797,0.0,89.84375,-264.16015625,-45.8984375,0.0
1734413414.9135745,0.0,-729.98046875,-636.23046875,-67.87109375,0.0
1734413414.9174695,0.0,9.765625,53.7109375,-41.015625,0.0
1734413414.9215374,-36.62109375,675.29296875,508.7890625,15.13671875,0.0
1734413414.9254322,-17.08984375,379.39453125,397.94921875,1.46484375,0.0
1734413414.9293272,-37.59765625,102.05078125,-93.26171875,-55.6640625,0.0
1734413414.9332223,-59.08203125,2.9296875,-474.609375,-71.77734375,0.0
1734413414.9371173,-59.08203125,203.61328125,-30.76171875,-30.76171875,0.0
1734413414.9410121,-24.4140625,176.7578125,412.109375,13.18359375,0.0
1734413414.9449072,-11.71875,51.26953125,395.5078125,-4.39453125,0.0
1734413414.9488022,-32.71484375,219.23828125,20.01953125,-46.38671875,0.0
1734413414.9526973,-40.0390625,17.578125,-478.02734375,-62.5,0.0
1734413414.956592,-36.62109375,-332.03125,-360.3515625,-25.87890625,0.0
1734413414.9604871,-17.08984375,142.578125,338.8671875,9.765625,0.0
1734413414.9643822,-4.39453125,730.46875,583.984375,12.20703125,0.0
1734413414.9684334,-14.6484375,414.55078125,79.1015625,-37.109375,0.0
1734413414.9723284,-39.55078125,-298.828125,-501.953125,-73.73046875,0.0
1734413414.9762235,-53.22265625,-87.40234375,-200.68359375,-52.734375,0.0
1734413414.9801183,-27.83203125,530.76171875,444.82421875,-9.765625,0.0
1734413414.9840133,-1.953125,441.89453125,494.62890625,-4.8828125,0.0
1734413414.9879084,-20.5078125,-76.66015625,14.16015625,-35.15625,0.0
1734413414.9918034,-56.640625,-513.671875,-574.70703125,-60.05859375,0.0
1734413414.9956985,-62.98828125,-280.2734375,-272.4609375,-36.1328125,0.0
1734413414.9995935,-37.59765625,207.03125,336.9140625,13.18359375,0.0
1734413415.0034883,-10.7421875,-158.203125,374.0234375,21.97265625,0.0
1734413415.0073833,-26.85546875,131.34765625,268.5546875,-30.76171875,0.0
1734413415.0112784,-57.6171875,210.9375,-339.35546875,-62.98828125,0.0
1734413415.0153162,-76.171875,-184.08203125,-387.6953125,-47.8515625,0.0
1734413415.0192113,-59.08203125,186.03515625,330.56640625,-26.3671875,0.0
1734413415.0231063,-18.06640625,732.421875,579.1015625,4.39453125,0.0
1734413415.0270014,-18.5546875,636.23046875,321.77734375,-7.32421875,0.0
1734413415.0308964,-41.015625,-84.9609375,-396.97265625,-59.08203125,0.0
1734413415.0347915,-59.5703125,-554.6875,-499.0234375,-71.2890625,0.0
1734413415.0386865,-41.015625,-118.65234375,209.47265625,-23.92578125,0.0
1734413415.0425816,-8.7890625,464.35546875,541.50390625,10.7421875,0.0
1734413415.0464766,-5.37109375,50.29296875,242.67578125,-1.46484375,0.0
1734413415.0503716,-27.83203125,-533.203125,-397.4609375,-48.33984375,0.0
1734413415.0542667,-59.5703125,-72.265625,-356.93359375,-74.21875,0.0
1734413415.0581615,-50.78125,305.6640625,223.6328125,-18.5546875,0.0
1734413415.0621912,-19.53125,401.85546875,467.7734375,20.5078125,0.0
1734413415.0660863,-14.6484375,575.68359375,429.19921875,-18.06640625,0.0
1734413415.0699813,-41.015625,309.5703125,-86.9140625,-60.546875,0.0
1734413415.0738764,-55.17578125,-127.9296875,-494.62890625,-59.5703125,0.0
1734413415.0777714,-41.50390625,-209.9609375,-81.54296875,-8.7890625,0.0
1734413415.0816665,-10.7421875,197.75390625,464.84375,25.390625,0.0
1734413415.0855615,1.953125,356.4453125,459.47265625,-4.39453125,0.0
1734413415.0894566,-20.5078125,-148.4375,-179.19921875,-54.6875,0.0
1734413415.0933516,-42.96875,-843.26171875,-715.8203125,-61.5234375,0.0
1734413415.0972466,-56.15234375,-220.21484375,-55.17578125,-28.80859375,0.0
1734413415.1011417,-29.78515625,521.484375,523.92578125,13.671875,0.0
1734413415.1050367,17.08984375,372.55859375,440.4296875,14.6484375,0.0
1734413415.109052,2.44140625,166.50390625,8.30078125,-28.3203125,0.0
1734413415.112947,-56.640625,-5.859375,-461.42578125,-72.75390625,0.0
1734413415.116842,-66.40625,158.69140625,-75.1953125,-59.08203125,0.0
1734413415.1207373,-25.390625,375.48828125,430.6640625,11.71875,0.0
1734413415.1246324,-12.20703125,461.42578125,470.703125,8.7890625,0.0
1734413415.1285274,-36.1328125,106.4453125,14.6484375,-37.59765625,0.0
1734413415.1324224,-68.84765625,-313.4765625,-525.390625,-66.40625,0.0
1734413415.1363175,-65.4296875,-516.11328125,-403.3203125,-36.62109375,0.0
1734413415.1402125,-33.69140625,-250.9765625,216.796875,11.23046875,0.0
1734413415.1441076,-34.66796875,709.47265625,577.63671875,-10.25390625,0.0
1734413415.1480026,-38.57421875,572.75390625,203.61328125,-37.109375,0.0
1734413415.151898,-43.45703125,-247.0703125,-507.32421875,-48.828125,0.0
1734413415.155995,-64.453125,-67.87109375,-294.43359375,-50.29296875,0.0
1734413415.15989,-50.29296875,476.07421875,414.0625,-14.6484375,0.0
1734413415.163785,-13.18359375,399.90234375,456.0546875,6.8359375,0.0
1734413415.1676803,-11.71875,154.78515625,132.32421875,-28.3203125,0.0
1734413415.1715753,-31.25,-127.9296875,-442.87109375,-61.03515625,0.0
1734413415.1754704,-41.015625,-344.7265625,-411.1328125,-44.43359375,0.0
1734413415.1793654,-20.99609375,-134.27734375,166.015625,6.8359375,0.0
1734413415.1832607,5.859375,-291.50390625,328.61328125,37.59765625,0.0
1734413415.1871557,-2.44140625,64.94140625,279.78515625,-9.765625,0.0
1734413415.1910508,-31.25,278.3203125,-279.78515625,-64.453125,0.0
1734413415.194946,-41.50390625,-164.55078125,-485.83984375,-46.875,0.0
1734413415.198841,-28.3203125,91.30859375,162.59765625,3.41796875,0.0
1734413415.202835,1.953125,730.46875,575.68359375,11.23046875,0.0
1734413415.2067301,21.484375,696.77734375,379.39453125,-16.6015625,0.0
1734413415.2106254,-4.39453125,-20.99609375,-353.515625,-39.55078125,0.0
1734413415.2145205,-39.55078125,-264.6484375,-450.1953125,-41.9921875,0.0
1734413415.2184155,-26.3671875,230.95703125,220.703125,-3.41796875,0.0
1734413415.2223108,10.7421875,456.0546875,498.046875,41.50390625,0.0
1734413415.2262058,26.3671875,78.61328125,306.15234375,20.99609375,0.0
1734413415.2301009,-13.18359375,-185.05859375,-272.4609375,-52.734375,0.0
1734413415.2339962,-66.89453125,-31.25,-432.6171875,-64.94140625,0.0
1734413415.2378912,-57.12890625,264.6484375,97.65625,-6.8359375,0.0
1734413415.2417862,-1.953125,120.60546875,408.203125,28.80859375,0.0
1734413415.2456815,4.39453125,6.34765625,404.296875,-0.9765625,0.0
1734413415.2496634,-31.25,250.0,-26.85546875,-51.7578125,0.0
1734413415.2535584,-53.22265625,-87.890625,-501.46484375,-60.05859375,0.0
1734413415.2574537,-44.921875,-232.91015625,-145.99609375,-18.06640625,0.0
1734413415.2613487,-16.6015625,490.72265625,484.86328125,14.16015625,0.0
1734413415.2652438,-2.44140625,695.80078125,496.09375,14.16015625,0.0
1734413415.269139,-16.6015625,-113.76953125,-161.1328125,-12.6953125,0.0
1734413415.273034,-44.43359375,-775.87890625,-665.52734375,-39.55078125,0.0
1734413415.2769294,-62.5,-389.16015625,-215.33203125,-46.875,0.0
1734413415.2808244,-35.64453125,307.12890625,449.70703125,-23.92578125,0.0
1734413415.2847197,-10.25390625,289.0625,421.875,-10.7421875,0.0
1734413415.2886147,-32.2265625,-399.4140625,-268.5546875,-37.59765625,0.0
1734413415.2925098,-66.40625,-278.80859375,-559.5703125,-76.171875,0.0
1734413415.29657,-75.1953125,114.2578125,-190.4296875,-51.7578125,0.0
1734413415.3004653,-41.015625,323.2421875,340.8203125,8.7890625,0.0
1734413415.3043604,-5.859375,572.265625,504.8828125,4.39453125,0.0
1734413415.3082557,-20.5078125,431.640625,166.015625,-40.52734375,0.0
1734413415.3121507,-55.6640625,44.921875,-410.64453125,-77.1484375,0.0
1734413415.316046,-72.265625,-544.921875,-498.046875,-49.8046875,0.0
1734413415.319941,-49.31640625,-406.25,115.234375,-3.41796875,0.0
1734413415.3238363,-30.2734375,606.93359375,559.5703125,-17.578125,0.0
1734413415.3277314,-34.1796875,551.26953125,223.6328125,-36.62109375,0.0
1734413415.3316267,-48.828125,-382.32421875,-600.5859375,-56.15234375,0.0
1734413415.3355217,-87.40234375,-403.80859375,-452.1484375,-75.68359375,0.0
1734413415.339417,-78.61328125,174.8046875,295.41015625,-49.31640625,0.0
1734413415.3434718,0.0,492.67578125,474.609375,-22.4609375,0.0
1734413415.347367,0.0,90.8203125,55.17578125,-35.64453125,0.0
1734413415.3512623,0.0,-189.453125,-474.609375,-100.09765625,0.0
1734413415.3551574,0.0,-47.8515625,-394.53125,-96.19140625,0.0
1734413415.3590527,0.0,134.27734375,203.125,-20.99609375,0.0
1734413415.362948,0.0,148.4375,430.6640625,-5.37109375,0.0
1734413415.366843,0.0,-41.50390625,203.125,-48.828125,0.0
1734413415.3707383,0.0,-201.171875,-367.67578125,-81.0546875,0.0
1734413415.3746333,0.0,-366.2109375,-594.7265625,-71.77734375,0.0
1734413415.3785286,0.0,-694.3359375,-251.46484375,-25.390625,0.0
1734413415.3824239,0.0,196.2890625,410.64453125,11.23046875,0.0
1734413415.386319,0.0,610.3515625,423.33984375,-8.7890625,0.0
1734413415.3903582,-20.01953125,-8.7890625,-265.13671875,-51.7578125,0.0
1734413415.3942535,-44.921875,-246.58203125,-517.08984375,-48.33984375,0.0
1734413415.3981488,-25.390625,8.7890625,7.8125,-30.2734375,0.0
1734413415.4020438,0.48828125,485.83984375,498.53515625,-4.8828125,0.0
1734413415.405939,18.06640625,478.515625,375.48828125,12.6953125,0.0
1734413415.4098344,4.39453125,-210.44921875,-320.80078125,-18.06640625,0.0
1734413415.4137297,-33.69140625,-388.671875,-549.31640625,-55.6640625,0.0
1734413415.4176247,-41.50390625,180.6640625,-5.37109375,-33.69140625,0.0
1734413415.42152,-9.765625,194.3359375,402.83203125,13.671875,0.0
1734413415.4254153,12.20703125,-17.578125,427.734375,-4.8828125,0.0
1734413415.4293106,-9.765625,290.52734375,10.7421875,-58.59375,0.0
1734413415.4332056,-45.8984375,-21.97265625,-523.92578125,-67.3828125,0.0
1734413415.4372363,-62.5,-294.43359375,-261.23046875,-39.55078125,0.0
1734413415.4411314,-37.109375,408.69140625,410.64453125,-11.71875,0.0
1734413415.4450266,-0.9765625,814.453125,510.7421875,-19.53125,0.0
1734413415.448922,-16.11328125,353.515625,23.92578125,-45.8984375,0.0
1734413415.4528172,-48.828125,-373.53515625,-541.50390625,-79.1015625,0.0
1734413415.4567125,-47.36328125,-481.93359375,-356.4453125,-60.05859375,0.0
1734413415.4606078,-31.25,120.1171875,320.80078125,-20.5078125,0.0
1734413415.4645028,-10.7421875,231.93359375,437.5,-16.11328125,0.0
1734413415.468398,-5.37109375,-595.21484375,-266.11328125,-39.0625,0.0
1734413415.4722934,-36.62109375,-490.72265625,-610.3515625,-83.49609375,0.0
1734413415.4761887,-53.7109375,53.22265625,-262.20703125,-52.24609375,0.0
1734413415.480084,-11.71875,320.3125,298.33984375,5.859375,0.0
1734413415.4841025,7.32421875,600.09765625,519.53125,-1.953125,0.0
1734413415.4879978,-11.71875,523.4375,210.44921875,-49.31640625,0.0
1734413415.491893,-33.203125,41.50390625,-448.2421875,-78.61328125,0.0
1734413415.4957883,-50.78125,-318.84765625,-467.28515625,-61.03515625,0.0
1734413415.4996836,-39.55078125,129.8828125,258.30078125,-18.06640625,0.0
1734413415.503579,-10.7421875,403.80859375,468.26171875,-2.44140625,0.0
1734413415.507474,-19.04296875,107.91015625,145.5078125,-42.48046875,0.0
1734413415.5113692,-50.29296875,-458.49609375,-561.5234375,-86.42578125,0.0
1734413415.5152645,-80.078125,-753.41796875,-605.46875,-92.28515625,0.0
1734413415.5191598,-65.91796875,-33.203125,131.8359375,-48.828125,0.0
1734413415.523055,-37.109375,632.8125,500.9765625,-5.37109375,0.0
1734413415.5269504,-35.64453125,354.00390625,221.6796875,-29.78515625,0.0
1734413415.5309584,-60.546875,-7.8125,-398.92578125,-91.796875,0.0
1734413415.5348537,-86.42578125,-39.0625,-483.88671875,-105.46875,0.0
1734413415.538749,-77.1484375,164.55078125,97.65625,-48.828125,0.0
1734413415.5426443,-39.55078125,452.1484375,450.68359375,-12.6953125,0.0
1734413415.5465395,-24.90234375,515.13671875,346.19140625,-36.1328125,0.0
1734413415.5504348,-47.8515625,-64.453125,-355.95703125,-64.94140625,0.0
1734413415.55433,-73.2421875,-638.671875,-674.8046875,-76.171875,0.0
1734413415.5582254,-61.5234375,-851.07421875,-354.00390625,-36.1328125,0.0
1734413415.5621207,-41.9921875,145.01953125,357.421875,-0.48828125,0.0
1734413415.566016,-37.109375,810.05859375,504.8828125,-27.34375,0.0
1734413415.5699112,-43.9453125,183.59375,-210.9375,-64.94140625,0.0
1734413415.5738065,-69.3359375,-275.87890625,-600.5859375,-82.03125,0.0
1734413415.5777977,-62.98828125,-107.421875,-159.1796875,-49.8046875,0.0
1734413415.581693,-29.78515625,510.7421875,434.08203125,-10.25390625,0.0
1734413415.5855882,-23.92578125,563.4765625,434.5703125,-4.8828125,0.0
1734413415.5894835,-40.0390625,163.57421875,-66.89453125,-32.71484375,0.0
1734413415.5933788,-62.5,-57.12890625,-524.4140625,-61.03515625,0.0
1734413415.5972743,-66.89453125,-93.75,-250.0,-42.96875,0.0
1734413415.6011696,-28.80859375,-75.1953125,294.43359375,-4.8828125,0.0
1734413415.6050649,-14.16015625,-110.3515625,386.23046875,1.953125,0.0
1734413415.6089602,-38.0859375,265.13671875,35.64453125,-41.9921875,0.0
1734413415.6128554,-45.41015625,20.5078125,-529.78515625,-66.40625,0.0
1734413415.6167507,-57.6171875,-343.75,-441.89453125,-48.33984375,0.0
1734413415.620646,-42.48046875,304.6875,297.8515625,-16.6015625,0.0
1734413415.6246316,-8.30078125,837.40234375,538.0859375,-0.48828125,0.0
1734413415.628527,-18.06640625,409.66796875,61.5234375,-25.390625,0.0
1734413415.6324222,-52.734375,-297.8515625,-539.0625,-69.3359375,0.0
1734413415.6363175,-68.359375,-319.82421875,-440.91796875,-72.75390625,0.0
1734413415.6402128,-52.24609375,163.0859375,221.19140625,-21.97265625,0.0
1734413415.644108,-17.578125,265.625,439.94140625,7.32421875,0.0
1734413415.6480036,-6.34765625,-178.22265625,-18.06640625,-15.13671875,0.0
1734413415.6518989,-45.41015625,-359.86328125,-556.640625,-66.40625,0.0
1734413415.6557941,-80.078125,-46.875,-384.27734375,-66.40625,0.0
1734413415.6596894,-57.12890625,186.03515625,193.359375,-12.6953125,0.0
1734413415.6635847,-11.71875,-31.73828125,341.30859375,20.5078125,0.0
1734413415.66748,-10.7421875,319.3359375,247.0703125,-28.3203125,0.0
1734413415.6715431,-46.38671875,206.0546875,-383.7890625,-72.75390625,0.0
1734413415.6754386,-67.3828125,-316.89453125,-553.22265625,-60.05859375,0.0
1734413415.679334,-64.94140625,75.68359375,126.953125,-22.94921875,0.0
1734413415.6832292,-30.76171875,722.65625,532.71484375,2.44140625,0.0
1734413415.6871245,-6.34765625,659.66796875,316.89453125,-17.578125,0.0
1734413415.69102,-24.90234375,-231.93359375,-470.703125,-61.03515625,0.0
1734413415.6949153,-54.19921875,-813.96484375,-642.578125,-62.01171875,0.0
1734413415.6988106,-56.15234375,-114.2578125,8.30078125,-11.71875,0.0
1734413415.7027059,-22.94921875,698.73046875,488.28125,12.6953125,0.0
1734413415.7066014,-5.859375,308.10546875,292.96875,-18.06640625,0.0
1734413415.7104967,-41.015625,-134.765625,-301.26953125,-52.24609375,0.0
1734413415.714392,-72.265625,-44.921875,-499.51171875,-62.98828125,0.0
1734413415.7184453,-62.98828125,131.8359375,-35.15625,-36.1328125,0.0
1734413415.7223406,-19.04296875,355.46875,403.3203125,2.44140625,0.0
1734413415.726236,0.0,627.9296875,464.35546875,-9.27734375,0.0
1734413415.7301314,-20.5078125,420.8984375,-58.59375,-41.9921875,0.0
1734413415.7340267,-41.9921875,-176.26953125,-576.171875,-55.6640625,0.0
1734413415.7379222,-45.8984375,-325.1953125,-212.890625,-35.15625,0.0
1734413415.7418175,-20.01953125,109.375,398.92578125,20.5078125,0.0
1734413415.7457128,-6.34765625,459.47265625,476.5625,1.953125,0.0
1734413415.7496083,-23.4375,234.86328125,-41.9921875,-41.9921875,0.0
1734413415.7535036,-49.31640625,-778.80859375,-743.1640625,-51.26953125,0.0
1734413415.757399,-57.6171875,-526.3671875,-298.828125,-29.296875,0.0
1734413415.7612944,-31.25,634.765625,481.93359375,7.32421875,0.0
1734413415.765422,4.8828125,776.3671875,493.65234375,6.8359375,0.0
1734413415.7693174,1.46484375,362.79296875,138.671875,-25.87890625,0.0
1734413415.773213,-20.99609375,75.68359375,-395.5078125,-62.98828125,0.0
1734413415.7771082,-37.109375,110.83984375,-240.234375,-59.08203125,0.0
1734413415.7810037,-8.30078125,377.44140625,374.0234375,1.953125,0.0
1734413415.784899,35.64453125,392.578125,478.515625,21.97265625,0.0
1734413415.7887945,-1.953125,179.6875,119.62890625,-32.71484375,0.0
1734413415.7926898,-42.96875,65.4296875,-389.16015625,-84.9609375,0.0
1734413415.7965853,-54.19921875,-432.12890625,-515.625,-68.359375,0.0
1734413415.8004806,-46.38671875,-384.27734375,49.31640625,-11.71875,0.0
1734413415.8043761,-22.4609375,682.12890625,557.6171875,0.0,0.0
1734413415.8082714,-22.4609375,480.46875,216.796875,-33.69140625,0.0
