timestamps,TP9,AF7,AF8,TP10,Right AUX
1734581906.7575424,-74.70703125,-33.69140625,21.97265625,-32.71484375,0.0
1734581906.7614484,-61.5234375,-29.78515625,39.55078125,-5.37109375,0.0
1734581906.7653542,-15.13671875,-30.76171875,37.109375,40.0390625,0.0
1734581906.7692602,-27.34375,-30.76171875,37.59765625,16.11328125,0.0
1734581906.773166,-75.1953125,-34.1796875,35.64453125,-32.2265625,0.0
1734581906.777072,-91.30859375,-41.9921875,36.62109375,-54.19921875,0.0
1734581906.7809777,-28.3203125,-35.15625,42.96875,-37.109375,0.0
1734581906.7848835,6.34765625,-33.203125,32.71484375,-35.15625,0.0
1734581906.7887895,-45.41015625,-40.0390625,28.80859375,-72.265625,0.0
1734581906.7926953,-83.49609375,-43.45703125,45.41015625,-74.21875,0.0
1734581906.7966013,-80.56640625,-41.015625,36.1328125,-57.6171875,0.0
1734581906.8015308,-19.04296875,-22.4609375,19.53125,-26.3671875,0.0
1734581906.8054366,20.01953125,-20.99609375,25.390625,19.04296875,0.0
1734581906.8093426,-15.625,-36.62109375,30.76171875,-5.37109375,0.0
1734581906.8132484,-56.640625,-33.69140625,36.62109375,-56.640625,0.0
1734581906.8171544,-70.3125,-34.66796875,36.62109375,-65.91796875,0.0
1734581906.8210602,-46.38671875,-51.26953125,20.5078125,-53.22265625,0.0
1734581906.8249662,-7.8125,-51.7578125,22.94921875,-28.80859375,0.0
1734581906.828872,-10.7421875,-40.0390625,40.52734375,-30.76171875,0.0
1734581906.832778,-70.80078125,-41.50390625,34.66796875,-54.19921875,0.0
1734581906.8366838,-104.00390625,-46.38671875,26.3671875,-56.15234375,0.0
1734581906.8405895,-65.4296875,-43.45703125,20.99609375,-39.55078125,0.0
1734581906.8444955,-25.390625,-34.1796875,16.6015625,-0.48828125,0.0
1734581906.8484719,0.0,-34.66796875,27.34375,22.94921875,0.0
1734581906.852378,0.0,-45.8984375,32.2265625,-10.7421875,0.0
1734581906.8562837,0.0,-49.8046875,40.52734375,-38.0859375,0.0
1734581906.8601894,0.0,-46.38671875,39.55078125,-41.015625,0.0
1734581906.8640954,0.0,-35.15625,24.90234375,-20.99609375,0.0
1734581906.8680012,0.0,-40.0390625,31.73828125,-19.53125,0.0
1734581906.8719072,0.0,-47.36328125,44.43359375,-39.55078125,0.0
1734581906.875813,0.0,-29.78515625,48.33984375,-36.1328125,0.0
1734581906.879719,0.0,-23.92578125,47.8515625,-18.06640625,0.0
1734581906.8836248,0.0,-28.80859375,36.62109375,9.765625,0.0
1734581906.8875308,0.0,-29.78515625,38.57421875,7.8125,0.0
1734581906.8914366,0.0,-32.71484375,62.01171875,-40.0390625,0.0
1734581906.8952696,-83.0078125,-36.62109375,51.26953125,-76.66015625,0.0
1734581906.8991754,-53.7109375,-35.15625,28.3203125,-102.5390625,0.0
1734581906.9030814,-1.953125,-27.83203125,29.296875,-38.57421875,0.0
1734581906.9069872,16.6015625,-36.62109375,41.015625,-11.71875,0.0
1734581906.910893,-48.828125,-46.38671875,43.9453125,-56.640625,0.0
1734581906.914799,-113.28125,-41.9921875,38.57421875,-69.82421875,0.0
1734581906.9187047,-83.984375,-46.38671875,38.57421875,-86.9140625,0.0
1734581906.9226108,4.8828125,-39.55078125,39.0625,-45.41015625,0.0
1734581906.9265165,43.9453125,-22.4609375,31.25,2.9296875,0.0
1734581906.9304225,-10.25390625,-20.99609375,16.6015625,-18.5546875,0.0
1734581906.9343283,-90.8203125,-30.2734375,7.32421875,-51.7578125,0.0
1734581906.9382343,-96.6796875,-40.52734375,18.06640625,-60.546875,0.0
1734581906.9420633,0.0,-30.76171875,35.15625,-20.99609375,0.0
1734581906.9459693,0.0,-29.78515625,39.0625,8.30078125,0.0
1734581906.949875,0.0,-39.55078125,19.53125,-18.06640625,0.0
1734581906.9537811,0.0,-29.296875,6.34765625,-32.2265625,0.0
1734581906.957687,0.0,-23.92578125,-4.8828125,-21.97265625,0.0
1734581906.961593,0.0,-35.15625,-5.37109375,-4.8828125,0.0
1734581906.9654987,0.0,-43.9453125,6.34765625,11.23046875,0.0
1734581906.9694047,0.0,-49.31640625,8.30078125,-0.48828125,0.0
1734581906.9733105,0.0,-41.50390625,8.7890625,-62.5,0.0
1734581906.9772162,0.0,-34.1796875,7.8125,-69.3359375,0.0
1734581906.9811223,0.0,-31.73828125,10.25390625,-29.78515625,0.0
1734581906.985028,0.0,-29.78515625,9.765625,-42.48046875,0.0
1734581906.988741,-32.2265625,-34.1796875,11.23046875,-46.875,0.0
1734581906.9926467,-60.05859375,-27.83203125,10.7421875,-44.43359375,0.0
1734581906.9965525,-83.984375,-20.99609375,4.8828125,-77.63671875,0.0
1734581907.0004585,-52.24609375,-30.2734375,4.8828125,-82.51953125,0.0
1734581907.0043643,6.34765625,-33.203125,26.3671875,-27.83203125,0.0
1734581907.0082703,6.8359375,-28.3203125,28.80859375,-1.46484375,0.0
1734581907.012176,-47.8515625,-20.99609375,16.11328125,-18.06640625,0.0
1734581907.016082,-71.2890625,-25.87890625,23.92578125,-44.43359375,0.0
1734581907.0199878,-41.015625,-33.69140625,35.64453125,-58.10546875,0.0
1734581907.0238938,24.90234375,-21.484375,50.78125,-14.6484375,0.0
1734581907.0277996,1.46484375,-23.92578125,52.734375,9.27734375,0.0
1734581907.0317056,-87.40234375,-48.33984375,57.12890625,-33.203125,0.0
1734581907.0353036,-101.5625,-50.78125,82.51953125,-47.36328125,0.0
1734581907.0392094,-65.91796875,-42.96875,87.40234375,-40.0390625,0.0
1734581907.0431154,-5.859375,-35.64453125,70.3125,-10.25390625,0.0
1734581907.0470212,11.71875,-32.2265625,60.05859375,13.18359375,0.0
1734581907.0509272,-27.34375,-35.64453125,49.31640625,-5.37109375,0.0
1734581907.054833,-62.5,-30.2734375,37.109375,-37.109375,0.0
1734581907.058739,-63.96484375,-26.85546875,48.828125,-25.390625,0.0
1734581907.0626447,-21.97265625,-33.69140625,78.61328125,6.34765625,0.0
1734581907.0665505,-26.3671875,-42.48046875,95.21484375,4.8828125,0.0
1734581907.0704565,-53.7109375,-34.1796875,90.8203125,-9.765625,0.0
1734581907.0743623,-73.2421875,-31.73828125,77.63671875,-60.05859375,0.0
1734581907.0782683,-83.984375,-49.31640625,62.01171875,-94.7265625,0.0
1734581907.082538,0.0,-48.828125,48.828125,-51.26953125,0.0
1734581907.0864437,0.0,-29.78515625,59.08203125,7.8125,0.0
1734581907.0903494,0.0,-23.92578125,57.6171875,11.71875,0.0
1734581907.0942554,0.0,-29.78515625,52.24609375,-54.19921875,0.0
1734581907.0981612,0.0,-32.2265625,55.17578125,-77.63671875,0.0
1734581907.1020672,0.0,-32.71484375,58.59375,-42.96875,0.0
1734581907.105973,0.0,-40.0390625,49.8046875,-5.37109375,0.0
1734581907.109879,0.0,-49.8046875,41.9921875,-1.46484375,0.0
1734581907.1137848,0.0,-37.59765625,58.10546875,-41.015625,0.0
1734581907.1176908,0.0,-22.94921875,48.33984375,-57.6171875,0.0
1734581907.1215966,0.0,-23.92578125,37.59765625,-23.4375,0.0
1734581907.1255026,0.0,-25.87890625,46.38671875,2.44140625,0.0
1734581907.1296513,6.34765625,-9.765625,48.33984375,-0.9765625,0.0
1734581907.1335573,-41.015625,-7.32421875,51.7578125,-39.55078125,0.0
1734581907.137463,-64.94140625,-20.5078125,56.15234375,-88.8671875,0.0
1734581907.141369,-24.90234375,-29.296875,61.5234375,-71.77734375,0.0
1734581907.1452749,2.9296875,-36.62109375,61.03515625,-28.80859375,0.0
1734581907.1491807,-20.99609375,-26.85546875,59.5703125,-33.69140625,0.0
1734581907.1530867,-49.31640625,-21.97265625,56.640625,-62.5,0.0
1734581907.1569924,-51.7578125,-20.99609375,46.875,-82.03125,0.0
1734581907.1608984,2.44140625,-11.71875,27.83203125,-41.015625,0.0
1734581907.1648042,54.6875,-11.71875,18.5546875,12.6953125,0.0
1734581907.1687102,7.8125,-14.6484375,37.59765625,11.23046875,0.0
1734581907.172616,-82.03125,-19.04296875,55.6640625,-17.08984375,0.0
1734581907.1772625,-91.30859375,-20.99609375,69.82421875,-48.828125,0.0
1734581907.1811683,-70.3125,-28.3203125,68.359375,-59.5703125,0.0
1734581907.1850743,-32.2265625,-34.66796875,66.40625,-15.13671875,0.0
1734581907.18898,-3.90625,-29.296875,60.05859375,47.8515625,0.0
1734581907.192886,-43.45703125,-27.34375,46.38671875,39.0625,0.0
1734581907.196792,-91.30859375,-32.2265625,52.734375,-28.3203125,0.0
1734581907.200698,-61.03515625,-35.15625,59.08203125,-47.36328125,0.0
1734581907.2046037,-1.46484375,-25.390625,69.82421875,-28.80859375,0.0
1734581907.2085097,4.8828125,-19.53125,77.1484375,-10.25390625,0.0
1734581907.2124155,-56.640625,-23.92578125,65.4296875,-24.90234375,0.0
1734581907.2163212,-87.890625,-29.296875,49.31640625,-77.1484375,0.0
1734581907.2202272,-43.45703125,-27.83203125,38.0859375,-82.03125,0.0
1734581907.2240968,14.6484375,-23.4375,35.64453125,-41.015625,0.0
1734581907.2280025,34.1796875,-21.97265625,46.875,-1.46484375,0.0
1734581907.2319086,-13.671875,-20.5078125,38.0859375,-7.32421875,0.0
1734581907.2358143,-55.17578125,-20.99609375,35.15625,-44.43359375,0.0
1734581907.2397203,-33.69140625,-21.97265625,53.7109375,-40.0390625,0.0
1734581907.243626,19.04296875,-22.94921875,45.41015625,13.18359375,0.0
1734581907.2475321,25.390625,-21.484375,41.50390625,10.7421875,0.0
1734581907.251438,-33.203125,-32.2265625,50.29296875,-23.92578125,0.0
1734581907.255344,-74.21875,-38.0859375,54.6875,-46.875,0.0
1734581907.2592497,-64.94140625,-43.9453125,64.453125,-66.40625,0.0
1734581907.2631557,-14.6484375,-41.50390625,51.26953125,-58.10546875,0.0
1734581907.2670615,29.78515625,-32.71484375,44.921875,-24.4140625,0.0
1734581907.2708404,-12.20703125,-35.15625,40.52734375,-14.6484375,0.0
1734581907.2747462,-47.8515625,-26.85546875,30.2734375,-27.34375,0.0
1734581907.2786522,-34.1796875,-18.5546875,30.76171875,-30.2734375,0.0
1734581907.282558,-4.39453125,-25.87890625,34.1796875,-21.484375,0.0
1734581907.286464,15.625,-35.15625,37.59765625,15.13671875,0.0
1734581907.2903697,-32.71484375,-41.50390625,38.0859375,11.23046875,0.0
1734581907.2942758,-104.4921875,-41.9921875,36.62109375,-48.828125,0.0
1734581907.2981815,-108.88671875,-35.64453125,25.390625,-66.89453125,0.0
1734581907.3020875,-64.453125,-31.25,32.2265625,-36.1328125,0.0
1734581907.3059933,-0.48828125,-24.90234375,55.6640625,0.48828125,0.0
1734581907.3098993,-3.90625,-20.5078125,48.33984375,26.3671875,0.0
1734581907.313805,-63.4765625,-32.71484375,38.57421875,-17.08984375,0.0
1734581907.3175395,-74.21875,-39.0625,42.48046875,-72.265625,0.0
1734581907.3214452,-36.1328125,-39.0625,31.25,-56.15234375,0.0
1734581907.3253512,-1.953125,-39.55078125,21.97265625,-7.32421875,0.0
1734581907.329257,-29.296875,-42.48046875,35.15625,-19.04296875,0.0
1734581907.333163,-67.87109375,-37.59765625,38.0859375,-49.8046875,0.0
1734581907.3370688,-60.546875,-29.296875,32.71484375,-51.7578125,0.0
1734581907.3409746,-25.87890625,-30.76171875,34.66796875,-19.53125,0.0
1734581907.3448806,5.37109375,-36.62109375,26.85546875,28.3203125,0.0
1734581907.3487864,-14.6484375,-42.48046875,28.80859375,1.953125,0.0
1734581907.3526924,-58.10546875,-38.57421875,34.1796875,-26.3671875,0.0
1734581907.3565981,-66.89453125,-28.3203125,7.8125,-17.08984375,0.0
1734581907.3605042,-34.1796875,-19.04296875,14.16015625,-62.5,0.0
1734581907.3641577,17.08984375,-19.04296875,46.38671875,-79.58984375,0.0
1734581907.3680634,7.8125,-29.296875,44.43359375,-61.03515625,0.0
1734581907.3719695,-42.96875,-34.1796875,32.71484375,-80.078125,0.0
1734581907.3758752,-72.265625,-31.25,19.04296875,-98.14453125,0.0
1734581907.3797812,-26.85546875,-23.92578125,12.6953125,-70.3125,0.0
1734581907.383687,47.36328125,-20.99609375,2.44140625,-38.0859375,0.0
1734581907.387593,63.4765625,-28.3203125,3.41796875,-20.99609375,0.0
1734581907.3914988,-8.30078125,-37.109375,9.765625,-24.90234375,0.0
1734581907.3954048,-72.265625,-35.64453125,7.8125,-56.15234375,0.0
1734581907.3993106,-79.58984375,-30.2734375,16.11328125,-54.19921875,0.0
1734581907.4032166,-67.3828125,-29.78515625,20.99609375,-2.44140625,0.0
1734581907.4071224,-53.7109375,-28.3203125,25.87890625,23.4375,0.0
1734581907.4107144,-66.89453125,-31.25,30.2734375,-12.20703125,0.0
1734581907.4146204,-73.2421875,-23.92578125,16.6015625,-19.04296875,0.0
1734581907.4185262,-42.48046875,-18.06640625,4.39453125,-27.83203125,0.0
1734581907.4224322,-19.04296875,-26.85546875,9.27734375,-41.50390625,0.0
1734581907.426338,-4.8828125,-28.80859375,18.06640625,-0.9765625,0.0
1734581907.430244,-34.1796875,-27.34375,27.83203125,1.953125,0.0
1734581907.4341497,-89.35546875,-34.1796875,24.4140625,-34.66796875,0.0
1734581907.4380558,-71.77734375,-37.109375,4.8828125,-61.03515625,0.0
1734581907.4419615,-13.671875,-33.69140625,1.953125,-38.0859375,0.0
1734581907.4458675,11.71875,-31.25,5.859375,-9.27734375,0.0
1734581907.4497733,-5.859375,-33.69140625,11.23046875,5.859375,0.0
1734581907.453679,-46.875,-36.1328125,13.18359375,-35.64453125,0.0
1734581907.4578311,-71.77734375,-36.1328125,12.20703125,-76.171875,0.0
1734581907.461737,-28.80859375,-38.57421875,10.25390625,-41.9921875,0.0
1734581907.465643,9.765625,-34.66796875,7.32421875,0.48828125,0.0
1734581907.4695487,-18.5546875,-32.2265625,15.13671875,-13.671875,0.0
1734581907.4734545,-45.41015625,-33.203125,12.20703125,-63.96484375,0.0
1734581907.4773605,-62.98828125,-33.69140625,-3.90625,-65.91796875,0.0
1734581907.4812663,-51.7578125,-34.1796875,-17.08984375,-36.62109375,0.0
1734581907.4851723,-0.48828125,-34.66796875,-3.90625,8.30078125,0.0
1734581907.489078,-5.859375,-37.59765625,4.8828125,8.30078125,0.0
1734581907.492984,-58.59375,-40.52734375,-0.48828125,-54.6875,0.0
1734581907.4968898,-67.3828125,-41.50390625,2.9296875,-92.7734375,0.0
1734581907.5007958,-21.484375,-43.45703125,12.20703125,-65.91796875,0.0
1734581907.5048769,26.3671875,-42.96875,16.11328125,-14.16015625,0.0
1734581907.5087829,20.01953125,-43.9453125,12.20703125,2.9296875,0.0
1734581907.5126886,-29.296875,-40.52734375,3.90625,-11.23046875,0.0
1734581907.5165946,-60.546875,-22.94921875,-8.30078125,-23.92578125,0.0
1734581907.5205004,-50.78125,-20.5078125,0.9765625,-9.27734375,0.0
1734581907.5244062,-33.203125,-37.109375,18.06640625,-0.48828125,0.0
1734581907.5283122,-34.1796875,-45.8984375,13.18359375,-12.6953125,0.0
1734581907.532218,-83.984375,-47.36328125,12.6953125,-30.2734375,0.0
1734581907.536124,-109.375,-46.38671875,11.23046875,-71.77734375,0.0
1734581907.5400298,-65.4296875,-42.48046875,7.32421875,-60.546875,0.0
1734581907.5439358,-12.6953125,-35.15625,11.71875,-11.71875,0.0
1734581907.5478415,-2.44140625,-31.25,3.41796875,27.83203125,0.0
1734581907.551843,-27.83203125,-31.25,-1.46484375,10.7421875,0.0
1734581907.5557487,-69.82421875,-36.1328125,13.18359375,-57.6171875,0.0
1734581907.5596547,-78.125,-41.9921875,22.4609375,-83.0078125,0.0
1734581907.5635605,-22.94921875,-48.828125,17.578125,-36.1328125,0.0
1734581907.5674665,-18.06640625,-51.7578125,14.16015625,-16.11328125,0.0
1734581907.5713723,-75.1953125,-41.50390625,15.625,-58.59375,0.0
1734581907.5752783,-114.74609375,-49.8046875,25.390625,-86.42578125,0.0
1734581907.579184,-81.54296875,-53.7109375,35.64453125,-87.890625,0.0
1734581907.5830898,-25.87890625,-32.2265625,30.2734375,-47.8515625,0.0
1734581907.5869958,-38.57421875,-20.01953125,21.484375,-53.7109375,0.0
1734581907.5909016,-107.91015625,-19.04296875,11.71875,-136.71875,0.0
1734581907.5948076,-162.109375,-15.13671875,2.44140625,-206.0546875,0.0
1734581907.5987363,-163.57421875,-6.8359375,-10.25390625,-208.0078125,0.0
1734581907.602642,-150.87890625,-6.8359375,-9.27734375,-191.89453125,0.0
1734581907.606548,-144.04296875,-7.8125,6.8359375,-189.94140625,0.0
1734581907.6104538,-173.828125,-8.30078125,8.30078125,-232.421875,0.0
1734581907.6143599,-220.21484375,-5.37109375,-2.44140625,-292.96875,0.0
1734581907.6182656,-223.14453125,8.7890625,-24.4140625,-310.05859375,0.0
1734581907.6221716,-197.75390625,12.6953125,-46.875,-281.73828125,0.0
1734581907.6260774,-169.43359375,8.7890625,-57.6171875,-231.93359375,0.0
1734581907.6299834,-196.77734375,4.8828125,-74.21875,-204.58984375,0.0
1734581907.6338892,-228.515625,7.32421875,-94.7265625,-229.98046875,0.0
1734581907.6377952,-181.15234375,13.671875,-107.91015625,-250.48828125,0.0
1734581907.641701,-122.55859375,16.11328125,-114.74609375,-202.63671875,0.0
1734581907.645525,-70.3125,20.5078125,-115.234375,-136.23046875,0.0
1734581907.649431,-50.29296875,26.85546875,-119.140625,-89.35546875,0.0
1734581907.6533368,-76.171875,20.5078125,-137.20703125,-107.421875,0.0
1734581907.6572428,-74.21875,9.765625,-154.296875,-128.90625,0.0
1734581907.6611485,-7.32421875,9.27734375,-150.390625,-80.56640625,0.0
1734581907.6650546,70.3125,4.39453125,-154.78515625,-34.1796875,0.0
1734581907.6689603,75.68359375,-0.48828125,-167.96875,-42.96875,0.0
1734581907.6728663,21.484375,-1.46484375,-168.9453125,-62.98828125,0.0
1734581907.676772,22.94921875,-2.9296875,-161.62109375,-73.73046875,0.0
1734581907.6806781,75.68359375,2.9296875,-154.78515625,-74.21875,0.0
1734581907.684584,110.3515625,5.37109375,-152.83203125,-48.828125,0.0
1734581907.68849,111.81640625,2.44140625,-160.64453125,-27.83203125,0.0
1734581907.6922455,74.21875,-5.37109375,-167.96875,-43.9453125,0.0
1734581907.6961513,52.24609375,-5.859375,-166.015625,-65.91796875,0.0
1734581907.7000573,104.00390625,-5.37109375,-165.52734375,-40.0390625,0.0
1734581907.703963,170.41015625,-11.23046875,-159.1796875,25.390625,0.0
1734581907.707869,170.8984375,-14.6484375,-148.92578125,44.921875,0.0
1734581907.7117748,101.07421875,-9.765625,-140.625,39.55078125,0.0
1734581907.7156808,55.17578125,-6.8359375,-135.7421875,18.06640625,0.0
1734581907.7195866,82.51953125,-15.625,-134.765625,34.1796875,0.0
1734581907.7234926,128.41796875,-20.5078125,-129.39453125,62.01171875,0.0
1734581907.7273984,97.16796875,-32.2265625,-115.234375,48.828125,0.0
1734581907.7313044,21.484375,-38.57421875,-107.91015625,5.37109375,0.0
1734581907.7352102,0.48828125,-42.48046875,-104.98046875,-27.34375,0.0
1734581907.7389815,12.20703125,-49.8046875,-91.30859375,-32.2265625,0.0
1734581907.7428875,41.015625,-42.48046875,-82.03125,-5.859375,0.0
1734581907.7467933,79.58984375,-33.69140625,-79.1015625,38.57421875,0.0
1734581907.7506993,65.4296875,-31.25,-83.0078125,24.4140625,0.0
1734581907.754605,25.390625,-37.109375,-83.49609375,-9.765625,0.0
1734581907.7585108,32.71484375,-41.50390625,-80.078125,-22.94921875,0.0
1734581907.7624168,79.1015625,-35.15625,-79.1015625,12.20703125,0.0
1734581907.7663226,79.1015625,-38.0859375,-75.68359375,67.3828125,0.0
1734581907.7702286,30.76171875,-40.52734375,-68.84765625,53.22265625,0.0
1734581907.7741344,10.25390625,-29.78515625,-63.4765625,15.625,0.0
1734581907.7780404,6.8359375,-29.78515625,-61.5234375,1.953125,0.0
1734581907.7819462,47.36328125,-28.3203125,-66.89453125,-11.23046875,0.0
1734581907.78553,83.49609375,-31.73828125,-75.1953125,-1.46484375,0.0
1734581907.7894359,56.640625,-31.25,-70.3125,-5.37109375,0.0
1734581907.7933419,1.953125,-32.2265625,-68.84765625,-52.734375,0.0
1734581907.7972476,3.41796875,-43.45703125,-70.3125,-76.171875,0.0
1734581907.8011537,51.7578125,-43.45703125,-64.453125,-33.203125,0.0
1734581907.8050594,80.56640625,-46.38671875,-58.59375,25.390625,0.0
1734581907.8089654,44.921875,-44.43359375,-47.8515625,31.73828125,0.0
1734581907.8128712,7.32421875,-28.3203125,-43.9453125,-4.8828125,0.0
1734581907.816777,-0.48828125,-26.3671875,-51.26953125,-12.20703125,0.0
1734581907.820683,1.46484375,-36.1328125,-48.828125,-7.32421875,0.0
1734581907.8245888,3.41796875,-43.9453125,-31.73828125,0.48828125,0.0
1734581907.8284948,-37.59765625,-56.15234375,-36.62109375,12.6953125,0.0
1734581907.8326602,-77.1484375,-72.265625,-52.24609375,-26.3671875,0.0
1734581907.836566,-64.94140625,-62.5,-52.24609375,-51.26953125,0.0
1734581907.840472,-25.87890625,-49.8046875,-49.31640625,-35.15625,0.0
1734581907.8443778,20.01953125,-50.78125,-44.43359375,-2.44140625,0.0
1734581907.8482838,31.25,-41.50390625,-37.59765625,20.01953125,0.0
1734581907.8521895,-20.5078125,-44.43359375,-39.0625,-0.48828125,0.0
1734581907.8560956,-54.6875,-49.31640625,-48.828125,-14.6484375,0.0
1734581907.8600013,-6.8359375,-45.8984375,-46.38671875,-17.08984375,0.0
1734581907.863907,31.73828125,-42.48046875,-38.0859375,13.671875,0.0
1734581907.867813,-0.48828125,-52.734375,-40.52734375,46.875,0.0
1734581907.871719,-23.4375,-57.6171875,-42.48046875,34.66796875,0.0
1734581907.875625,-25.390625,-43.45703125,-41.015625,-20.01953125,0.0
1734581907.8797166,-40.52734375,-38.57421875,-46.875,-99.12109375,0.0
1734581907.8836224,4.8828125,-42.48046875,-57.12890625,-87.890625,0.0
1734581907.8875282,46.38671875,-38.57421875,-61.03515625,-37.109375,0.0
1734581907.8914342,7.8125,-27.34375,-66.89453125,-58.59375,0.0
1734581907.89534,-27.34375,-34.1796875,-66.40625,-93.26171875,0.0
1734581907.899246,-6.8359375,-54.19921875,-62.01171875,-80.56640625,0.0
1734581907.9031518,35.15625,-55.17578125,-59.5703125,-12.20703125,0.0
1734581907.9070578,16.11328125,-47.36328125,-56.640625,15.625,0.0
1734581907.9109635,-23.4375,-40.52734375,-64.94140625,8.7890625,0.0
1734581907.9148695,-55.6640625,-39.55078125,-74.70703125,-8.30078125,0.0
1734581907.9187753,-37.109375,-44.43359375,-73.2421875,-29.78515625,0.0
1734581907.9226813,8.30078125,-44.43359375,-60.546875,-4.39453125,0.0
1734581907.9269135,18.06640625,-42.96875,-49.31640625,9.27734375,0.0
1734581907.9308195,-10.7421875,-48.828125,-33.203125,-13.18359375,0.0
1734581907.9347253,-57.12890625,-47.8515625,-26.3671875,-56.15234375,0.0
1734581907.9386313,-53.22265625,-42.96875,-33.203125,-72.75390625,0.0
1734581907.942537,6.8359375,-33.69140625,-35.15625,-23.4375,0.0
1734581907.946443,34.1796875,-37.109375,-38.57421875,9.765625,0.0
1734581907.9503489,-13.671875,-51.26953125,-38.0859375,6.34765625,0.0
1734581907.9542549,-42.96875,-45.8984375,-39.0625,-19.04296875,0.0
1734581907.9581606,-42.48046875,-36.62109375,-45.8984375,-68.84765625,0.0
1734581907.9620667,-24.90234375,-33.69140625,-42.96875,-62.01171875,0.0
1734581907.9659724,27.34375,-34.66796875,-26.3671875,-2.9296875,0.0
1734581907.9698784,8.7890625,-41.9921875,-20.01953125,23.4375,0.0
1734581907.973784,-42.96875,-48.828125,-26.85546875,-3.41796875,0.0
1734581907.9776897,-40.0390625,-50.29296875,-21.484375,-45.8984375,0.0
1734581907.9815958,-35.15625,-42.96875,-29.78515625,-46.38671875,0.0
1734581907.9855015,2.9296875,-32.2265625,-39.0625,-17.08984375,0.0
1734581907.9894075,24.4140625,-32.71484375,-29.296875,4.8828125,0.0
1734581907.9933133,-34.66796875,-41.50390625,-25.87890625,-25.390625,0.0
1734581907.997219,-55.17578125,-46.38671875,-24.4140625,-62.01171875,0.0
1734581908.001125,-3.90625,-51.26953125,-31.25,-60.546875,0.0
1734581908.0050309,44.43359375,-40.52734375,-44.921875,-4.8828125,0.0
1734581908.008937,36.62109375,-27.34375,-42.96875,16.11328125,0.0
1734581908.0128427,-13.671875,-38.0859375,-24.4140625,-21.97265625,0.0
1734581908.0167487,-58.59375,-47.8515625,-24.4140625,-45.8984375,0.0
1734581908.0206244,-56.640625,-47.36328125,-29.296875,-53.7109375,0.0
1734581908.0245302,-6.34765625,-44.921875,-23.4375,-22.4609375,0.0
1734581908.0284362,-5.859375,-49.31640625,-17.578125,7.32421875,0.0
1734581908.032342,-59.08203125,-62.5,-26.3671875,-13.671875,0.0
1734581908.036248,-75.1953125,-54.19921875,-33.69140625,-45.41015625,0.0
1734581908.0401537,-54.6875,-36.62109375,-26.3671875,-54.6875,0.0
1734581908.0440595,2.9296875,-34.66796875,-18.5546875,-11.71875,0.0
1734581908.0479655,41.015625,-39.0625,-7.8125,36.62109375,0.0
1734581908.0518713,-29.296875,-41.50390625,-17.578125,-29.78515625,0.0
1734581908.0557773,-88.8671875,-49.8046875,-30.2734375,-105.46875,0.0
1734581908.059683,-81.0546875,-48.828125,-19.04296875,-81.0546875,0.0
1734581908.063589,-57.6171875,-37.59765625,-10.7421875,-20.01953125,0.0
1734581908.0673583,-65.4296875,-45.41015625,-18.06640625,-14.16015625,0.0
1734581908.071264,-95.703125,-44.921875,-34.66796875,-70.80078125,0.0
1734581908.07517,-115.72265625,-33.203125,-38.0859375,-96.19140625,0.0
1734581908.0790758,-93.75,-36.1328125,-38.0859375,-78.61328125,0.0
1734581908.0829816,-23.4375,-42.48046875,-49.31640625,-61.03515625,0.0
1734581908.0868876,-18.06640625,-43.9453125,-50.29296875,-57.12890625,0.0
1734581908.0907934,-66.89453125,-48.33984375,-36.1328125,-69.82421875,0.0
1734581908.0946994,-105.95703125,-50.29296875,-29.296875,-104.4921875,0.0
1734581908.0986052,-87.890625,-38.57421875,-28.80859375,-108.88671875,0.0
1734581908.1025112,-24.4140625,-32.71484375,-28.80859375,-41.9921875,0.0
1734581908.106417,0.0,-40.0390625,-32.2265625,9.765625,0.0
1734581908.110323,-18.5546875,-43.45703125,-35.15625,5.37109375,0.0
1734581908.114048,-66.40625,-37.109375,-29.78515625,-60.05859375,0.0
1734581908.1179538,-73.73046875,-30.76171875,-29.296875,-98.14453125,0.0
1734581908.1218598,-24.90234375,-19.04296875,-41.50390625,-40.0390625,0.0
1734581908.1257656,4.39453125,-25.87890625,-37.109375,2.44140625,0.0
1734581908.1296713,-35.15625,-45.41015625,-15.13671875,-6.34765625,0.0
1734581908.1335773,-83.984375,-48.828125,-4.39453125,-41.9921875,0.0
1734581908.1374831,-88.37890625,-40.0390625,-9.27734375,-63.96484375,0.0
1734581908.1413891,-71.77734375,-27.83203125,-19.04296875,-53.7109375,0.0
1734581908.145295,-29.78515625,-33.69140625,-35.15625,-41.015625,0.0
1734581908.149201,-20.01953125,-40.52734375,-47.8515625,-31.73828125,0.0
1734581908.1531067,-52.24609375,-37.59765625,-34.66796875,-34.1796875,0.0
1734581908.1570127,-61.03515625,-33.203125,-37.109375,-51.26953125,0.0
1734581908.1606212,-31.73828125,-32.71484375,-49.31640625,-38.57421875,0.0
1734581908.1645272,7.8125,-39.55078125,-34.66796875,5.859375,0.0
1734581908.168433,0.9765625,-42.48046875,-22.4609375,29.78515625,0.0
1734581908.172339,-32.2265625,-35.15625,-12.20703125,-4.39453125,0.0
1734581908.1762447,-53.7109375,-37.109375,-9.27734375,-60.05859375,0.0
1734581908.1801507,-49.8046875,-46.38671875,-22.4609375,-77.63671875,0.0
1734581908.1840565,-20.01953125,-38.57421875,-24.4140625,-15.13671875,0.0
1734581908.1879623,4.39453125,-32.2265625,-26.3671875,1.46484375,0.0
1734581908.1918683,-11.23046875,-40.0390625,-37.59765625,-45.41015625,0.0
1734581908.195774,-41.9921875,-48.828125,-45.8984375,-42.96875,0.0
1734581908.19968,-25.390625,-53.22265625,-42.48046875,-46.875,0.0
1734581908.2035859,16.11328125,-45.8984375,-31.25,-35.15625,0.0
1734581908.2077968,11.71875,-37.59765625,-30.76171875,0.9765625,0.0
1734581908.2117028,-24.4140625,-37.59765625,-26.85546875,10.7421875,0.0
1734581908.2156086,-38.57421875,-49.8046875,-21.484375,-19.53125,0.0
1734581908.2195146,-8.30078125,-59.08203125,-18.5546875,-44.43359375,0.0
1734581908.2234204,9.27734375,-53.22265625,-8.30078125,-34.1796875,0.0
1734581908.2273264,-24.4140625,-52.24609375,-8.7890625,-14.16015625,0.0
1734581908.2312322,-81.54296875,-55.17578125,-22.94921875,-44.921875,0.0
1734581908.2351382,-110.3515625,-54.6875,-34.66796875,-89.84375,0.0
1734581908.239044,-98.6328125,-53.7109375,-33.203125,-77.1484375,0.0
1734581908.24295,-41.9921875,-56.15234375,-26.85546875,-20.5078125,0.0
1734581908.2468557,-14.16015625,-50.29296875,-19.53125,33.69140625,0.0
1734581908.2507617,-50.78125,-37.59765625,-19.04296875,26.85546875,0.0
1734581908.254842,-110.83984375,-46.38671875,-35.64453125,-25.87890625,0.0
1734581908.2587478,-104.98046875,-53.22265625,-48.828125,-47.8515625,0.0
1734581908.2626538,-28.80859375,-52.24609375,-39.55078125,-5.859375,0.0
1734581908.2665596,6.34765625,-44.921875,-20.01953125,30.76171875,0.0
1734581908.2704656,-19.53125,-48.33984375,-24.90234375,13.671875,0.0
1734581908.2743714,-68.359375,-66.40625,-26.85546875,-15.13671875,0.0
1734581908.2782774,-76.66015625,-55.17578125,-11.23046875,-36.62109375,0.0
1734581908.2821832,-29.78515625,-44.43359375,-3.41796875,-44.43359375,0.0
1734581908.2860892,-5.859375,-52.24609375,-20.99609375,-35.15625,0.0
1734581908.289995,-14.16015625,-47.8515625,-34.1796875,-13.18359375,0.0
1734581908.293901,-49.31640625,-41.50390625,-32.71484375,-36.1328125,0.0
1734581908.2978067,-62.01171875,-46.38671875,-33.203125,-87.890625,0.0
1734581908.301755,-8.30078125,-51.26953125,-35.64453125,-80.56640625,0.0
1734581908.305661,30.76171875,-42.48046875,-28.80859375,-12.20703125,0.0
1734581908.3095667,24.4140625,-22.4609375,-20.5078125,20.01953125,0.0
1734581908.3134727,-53.7109375,-31.73828125,-23.92578125,-41.015625,0.0
1734581908.3173785,-110.83984375,-45.8984375,-23.92578125,-76.66015625,0.0
1734581908.3212845,-84.47265625,-49.31640625,-28.80859375,-44.43359375,0.0
1734581908.3251903,-32.71484375,-45.8984375,-25.390625,-9.27734375,0.0
1734581908.329096,-28.3203125,-35.15625,-11.23046875,2.9296875,0.0
1734581908.333002,-88.37890625,-36.1328125,-17.08984375,-16.6015625,0.0
1734581908.3369079,-109.375,-42.96875,-27.83203125,-55.17578125,0.0
1734581908.3408139,-79.1015625,-44.43359375,-32.71484375,-53.7109375,0.0
1734581908.3447196,-20.01953125,-37.59765625,-34.66796875,-29.296875,0.0
1734581908.3486607,-19.53125,-29.296875,-26.85546875,-7.8125,0.0
1734581908.3525665,-73.2421875,-27.83203125,-27.83203125,-17.08984375,0.0
1734581908.3564725,-85.9375,-37.59765625,-35.15625,-60.05859375,0.0
1734581908.3603783,-45.8984375,-48.33984375,-33.203125,-59.08203125,0.0
1734581908.3642843,4.39453125,-44.43359375,-41.015625,-20.99609375,0.0
1734581908.36819,6.8359375,-42.96875,-43.45703125,11.23046875,0.0
1734581908.372096,-33.203125,-54.19921875,-29.296875,-20.01953125,0.0
1734581908.3760018,-81.54296875,-58.10546875,-28.80859375,-77.63671875,0.0
1734581908.3799076,-70.80078125,-42.96875,-27.34375,-48.828125,0.0
1734581908.3838136,-14.16015625,-42.96875,-13.18359375,-0.48828125,0.0
1734581908.3877194,9.765625,-40.52734375,-19.04296875,23.4375,0.0
1734581908.3916254,4.8828125,-23.4375,-38.0859375,-9.27734375,0.0
1734581908.3954613,-33.203125,-30.2734375,-35.15625,-60.05859375,0.0
1734581908.3993673,-54.6875,-33.203125,-29.78515625,-54.19921875,0.0
1734581908.403273,-30.76171875,-33.203125,-28.3203125,-33.69140625,0.0
1734581908.407179,-15.13671875,-47.36328125,-14.6484375,-2.44140625,0.0
1734581908.411085,-61.5234375,-51.7578125,-6.34765625,-0.48828125,0.0
1734581908.414991,-113.76953125,-44.43359375,-11.23046875,-45.8984375,0.0
1734581908.4188967,-103.02734375,-38.57421875,-16.6015625,-59.08203125,0.0
1734581908.4228024,-48.33984375,-32.2265625,-21.97265625,-28.3203125,0.0
1734581908.4267085,9.765625,-20.99609375,-28.80859375,24.90234375,0.0
1734581908.4306142,-0.48828125,-16.6015625,-29.296875,13.671875,0.0
1734581908.4345202,-66.89453125,-40.0390625,-32.71484375,-49.31640625,0.0
1734581908.438426,-85.9375,-52.734375,-33.203125,-64.453125,0.0
1734581908.4421892,0.0,-42.96875,-20.01953125,-34.66796875,0.0
1734581908.446095,0.0,-41.50390625,-15.625,13.18359375,0.0
1734581908.450001,0.0,-51.26953125,-19.04296875,4.39453125,0.0
1734581908.4539068,0.0,-49.31640625,-17.08984375,-60.05859375,0.0
1734581908.4578128,0.0,-36.1328125,-22.4609375,-60.05859375,0.0
1734581908.4617186,0.0,-38.0859375,-32.2265625,-19.53125,0.0
1734581908.4656243,0.0,-40.0390625,-34.1796875,8.30078125,0.0
1734581908.4695303,0.0,-30.76171875,-26.85546875,1.953125,0.0
1734581908.473436,0.0,-25.87890625,-16.6015625,-25.87890625,0.0
1734581908.4773421,0.0,-38.0859375,-13.671875,-50.29296875,0.0
1734581908.481248,0.0,-48.33984375,-19.04296875,-52.24609375,0.0
1734581908.485154,0.0,-42.48046875,-31.73828125,-30.2734375,0.0
1734581908.4888864,-4.39453125,-38.0859375,-39.55078125,-9.765625,0.0
1734581908.4927924,-33.203125,-37.109375,-41.50390625,-14.16015625,0.0
1734581908.4966981,-51.26953125,-41.9921875,-40.52734375,-51.7578125,0.0
1734581908.5006042,-49.31640625,-47.36328125,-22.4609375,-45.41015625,0.0
1734581908.50451,-38.0859375,-40.52734375,-12.20703125,-9.27734375,0.0
1734581908.508416,-40.0390625,-34.1796875,-20.01953125,-19.04296875,0.0
1734581908.5123217,-62.98828125,-34.66796875,-24.90234375,-38.0859375,0.0
1734581908.5162277,-69.3359375,-34.66796875,-32.2265625,-62.5,0.0
1734581908.5201335,-37.59765625,-34.66796875,-38.0859375,-61.03515625,0.0
1734581908.5240395,13.18359375,-30.76171875,-38.0859375,-1.46484375,0.0
1734581908.5279453,2.44140625,-26.85546875,-39.0625,31.73828125,0.0
1734581908.531851,-54.6875,-30.76171875,-30.76171875,-9.27734375,0.0
1734581908.5354733,-77.63671875,-38.57421875,-26.3671875,-71.2890625,0.0
1734581908.5393794,-66.89453125,-41.9921875,-20.99609375,-78.125,0.0
1734581908.5432851,-11.71875,-41.015625,-13.18359375,-48.33984375,0.0
1734581908.547191,-2.9296875,-34.66796875,-11.23046875,13.18359375,0.0
1734581908.551097,-33.69140625,-33.69140625,-17.08984375,-3.41796875,0.0
1734581908.5550027,-74.70703125,-40.52734375,-17.578125,-62.01171875,0.0
1734581908.5589087,-64.453125,-39.55078125,-8.30078125,-61.03515625,0.0
1734581908.5628145,31.25,-28.3203125,8.30078125,-33.203125,0.0
1734581908.5667205,43.45703125,-29.78515625,15.13671875,9.27734375,0.0
1734581908.5706263,-36.1328125,-44.921875,6.34765625,-9.765625,0.0
1734581908.5745323,-75.68359375,-47.8515625,11.71875,-59.08203125,0.0
1734581908.578438,-52.24609375,-30.76171875,25.390625,-58.59375,0.0
1734581908.5827005,2.9296875,-30.76171875,31.25,0.0,0.0
1734581908.5866063,12.20703125,-51.26953125,17.08984375,0.0,0.0
1734581908.590512,-34.1796875,-49.8046875,6.8359375,0.0,0.0
1734581908.594418,-88.37890625,-44.43359375,0.48828125,0.0,0.0
1734581908.5983238,-83.984375,-39.0625,-6.8359375,0.0,0.0
1734581908.6022298,-19.04296875,-29.296875,3.90625,0.0,0.0
1734581908.6061356,20.01953125,-26.85546875,22.4609375,0.0,0.0
1734581908.6100416,-0.9765625,-24.90234375,29.296875,0.0,0.0
1734581908.6139474,-72.265625,-26.85546875,19.53125,0.0,0.0
1734581908.6178534,-93.26171875,-27.34375,13.671875,0.0,0.0
1734581908.6217592,-27.83203125,-33.203125,10.25390625,0.0,0.0
1734581908.6256652,19.53125,-33.203125,3.41796875,0.0,0.0
1734581908.6297572,-17.08984375,-34.1796875,-3.90625,6.34765625,0.0
1734581908.6336632,-66.89453125,-37.59765625,-12.20703125,-41.015625,0.0
1734581908.637569,-68.359375,-37.109375,-12.6953125,-61.5234375,0.0
1734581908.641475,-24.90234375,-46.38671875,-10.25390625,-17.578125,0.0
1734581908.6453807,2.9296875,-53.7109375,-6.8359375,-3.41796875,0.0
1734581908.6492867,-10.7421875,-49.31640625,-1.953125,-20.01953125,0.0
1734581908.6531925,-56.640625,-39.0625,-3.90625,-43.45703125,0.0
1734581908.6570985,-63.96484375,-34.66796875,-12.20703125,-47.8515625,0.0
1734581908.6610043,-17.578125,-31.25,-8.30078125,-11.23046875,0.0
1734581908.6649103,36.1328125,-31.25,-1.46484375,26.3671875,0.0
1734581908.668816,31.25,-37.59765625,-3.41796875,21.484375,0.0
1734581908.672722,-39.55078125,-35.64453125,-9.27734375,-34.66796875,0.0
1734581908.6767876,-40.0390625,-31.73828125,-20.01953125,0.0,0.0
1734581908.6806934,-1.46484375,-29.78515625,-20.99609375,0.0,0.0
1734581908.6845994,40.52734375,-23.92578125,-14.6484375,0.0,0.0
1734581908.6885052,43.45703125,-32.2265625,-18.06640625,0.0,0.0
1734581908.692411,-17.578125,-47.8515625,-24.90234375,0.0,0.0
1734581908.696317,-60.546875,-46.38671875,-23.92578125,0.0,0.0
1734581908.7002227,-51.7578125,-38.0859375,-24.90234375,0.0,0.0
1734581908.7041287,-21.484375,-39.0625,-21.97265625,0.0,0.0
1734581908.7080345,-33.69140625,-40.0390625,-17.578125,0.0,0.0
1734581908.7119405,-80.078125,-32.2265625,-16.11328125,0.0,0.0
1734581908.7158463,-99.609375,-28.80859375,-15.625,0.0,0.0
1734581908.7197523,-72.75390625,-42.48046875,-20.99609375,0.0,0.0
1734581908.7237115,-25.390625,-43.45703125,-30.2734375,-34.66796875,0.0
1734581908.7276175,-11.71875,-41.9921875,-27.34375,-8.30078125,0.0
1734581908.7315233,-47.36328125,-46.875,-12.6953125,-15.625,0.0
1734581908.7354293,-71.2890625,-46.38671875,-9.765625,-35.15625,0.0
1734581908.739335,-45.8984375,-43.9453125,-17.08984375,-39.0625,0.0
1734581908.743241,-4.8828125,-39.0625,-24.90234375,-18.5546875,0.0
1734581908.7471468,13.671875,-39.55078125,-23.92578125,-3.41796875,0.0
1734581908.7510526,-9.27734375,-41.9921875,-17.08984375,-14.16015625,0.0
1734581908.7549586,-57.12890625,-40.0390625,-19.53125,-25.87890625,0.0
1734581908.7588644,-34.1796875,-48.33984375,-22.94921875,-44.43359375,0.0
1734581908.7627704,43.9453125,-50.29296875,-15.13671875,-14.6484375,0.0
1734581908.7666762,56.640625,-43.45703125,-21.97265625,8.30078125,0.0
1734581908.770533,11.71875,-44.921875,-39.55078125,-21.97265625,0.0
1734581908.774439,-40.52734375,-47.8515625,-49.31640625,-33.203125,0.0
1734581908.7783449,-35.15625,-51.26953125,-54.19921875,-29.78515625,0.0
1734581908.782251,24.4140625,-43.9453125,-54.6875,-7.32421875,0.0
1734581908.7861567,36.62109375,-38.57421875,-53.22265625,26.85546875,0.0
1734581908.7900627,0.0,-45.41015625,-45.8984375,35.15625,0.0
1734581908.7939684,-21.484375,-38.57421875,-35.15625,17.578125,0.0
1734581908.7978745,-9.765625,-39.55078125,-35.64453125,15.625,0.0
1734581908.8017802,33.203125,-40.0390625,-44.921875,40.0390625,0.0
1734581908.8056862,77.1484375,-33.203125,-47.8515625,85.9375,0.0
1734581908.809592,44.921875,-39.0625,-42.48046875,88.37890625,0.0
1734581908.8134978,-14.6484375,-51.26953125,-42.96875,39.0625,0.0
1734581908.8179433,-25.87890625,-57.12890625,0.0,-12.20703125,0.0
1734581908.8218493,15.13671875,-46.875,0.0,-36.1328125,0.0
1734581908.8257551,55.6640625,-42.48046875,0.0,18.5546875,0.0
1734581908.8296611,37.59765625,-43.9453125,0.0,48.828125,0.0
1734581908.833567,-6.8359375,-45.8984375,0.0,10.25390625,0.0
1734581908.837473,-16.11328125,-43.45703125,0.0,-38.57421875,0.0
1734581908.8413787,18.5546875,-38.0859375,0.0,-49.8046875,0.0
1734581908.8452847,32.2265625,-40.52734375,0.0,-1.953125,0.0
1734581908.8491905,3.90625,-41.9921875,0.0,36.1328125,0.0
1734581908.8530965,-15.13671875,-40.52734375,0.0,10.7421875,0.0
1734581908.8570023,-28.80859375,-38.0859375,0.0,-44.921875,0.0
1734581908.860908,7.32421875,-29.296875,0.0,-30.76171875,0.0
1734581908.8647397,55.17578125,-28.80859375,-32.2265625,20.99609375,0.0
1734581908.8686457,34.66796875,-40.52734375,-36.62109375,19.53125,0.0
1734581908.8725514,-8.7890625,-44.921875,-36.62109375,-25.87890625,0.0
1734581908.8764575,-52.734375,-49.8046875,-34.1796875,-53.22265625,0.0
1734581908.8803632,-58.10546875,-53.22265625,-37.59765625,-38.0859375,0.0
1734581908.8842692,-17.578125,-53.22265625,-37.109375,-16.11328125,0.0
1734581908.888175,0.0,-49.31640625,-35.15625,0.0,0.0
1734581908.8920808,-13.671875,-35.64453125,-38.0859375,-0.9765625,0.0
1734581908.8959868,-49.8046875,-33.69140625,-40.52734375,-33.69140625,0.0
1734581908.8998926,-51.26953125,-36.1328125,-41.015625,-41.015625,0.0
1734581908.9037986,17.578125,-36.1328125,-41.50390625,1.953125,0.0
1734581908.9077044,25.390625,-41.9921875,-41.50390625,4.8828125,0.0
1734581908.9112823,-26.85546875,-47.8515625,-38.0859375,-8.7890625,0.0
1734581908.9151883,-44.43359375,-41.9921875,-32.71484375,3.90625,0.0
1734581908.919094,-45.41015625,-38.0859375,-31.73828125,-20.5078125,0.0
1734581908.9229999,-29.296875,-42.48046875,-34.66796875,-30.2734375,0.0
1734581908.9269059,-2.44140625,-41.50390625,-39.0625,-10.7421875,0.0
1734581908.9308116,-25.87890625,-41.9921875,-39.0625,-22.94921875,0.0
1734581908.9347177,-48.828125,-40.0390625,-40.52734375,-43.9453125,0.0
1734581908.9386234,-40.52734375,-36.1328125,-41.50390625,-49.31640625,0.0
1734581908.9425294,-10.7421875,-38.0859375,-38.57421875,-45.41015625,0.0
1734581908.9464352,13.671875,-41.50390625,-33.203125,-11.23046875,0.0
1734581908.9503412,-4.8828125,-46.38671875,-36.62109375,-10.25390625,0.0
1734581908.954247,-78.125,-53.7109375,-42.48046875,-52.24609375,0.0
1734581908.957776,0.0,-52.734375,-39.0625,-74.21875,0.0
1734581908.9616818,0.0,-53.7109375,-50.29296875,-61.5234375,0.0
1734581908.9655876,0.0,-53.22265625,-52.24609375,-23.92578125,0.0
1734581908.9694936,0.0,-49.8046875,-42.48046875,-18.06640625,0.0
1734581908.9733994,0.0,-54.6875,-44.43359375,-40.0390625,0.0
1734581908.9773054,0.0,-64.94140625,-45.41015625,-66.89453125,0.0
1734581908.9812112,0.0,-68.84765625,-49.31640625,-55.6640625,0.0
1734581908.9851172,0.0,-59.5703125,-53.7109375,-33.69140625,0.0
1734581908.989023,0.0,-55.6640625,-55.6640625,-27.83203125,0.0
1734581908.992929,0.0,-55.17578125,-57.12890625,-57.12890625,0.0
1734581908.9968348,0.0,-46.38671875,-44.921875,-68.359375,0.0
1734581909.0007408,0.0,-47.8515625,-36.1328125,-47.36328125,0.0
1734581909.0030215,-105.46875,-50.78125,-37.59765625,-31.25,0.0
1734581909.0069273,-25.390625,-50.78125,-38.0859375,-5.859375,0.0
1734581909.0108333,-2.44140625,-48.828125,-37.59765625,-41.9921875,0.0
1734581909.014739,-30.76171875,-42.48046875,-40.52734375,-73.73046875,0.0
1734581909.018645,-72.75390625,-37.59765625,-46.38671875,-32.2265625,0.0
1734581909.0225508,-76.66015625,-47.8515625,-46.875,15.13671875,0.0
1734581909.0264568,-18.5546875,-51.7578125,-41.9921875,10.25390625,0.0
1734581909.0303626,8.7890625,-46.38671875,-41.015625,-29.296875,0.0
1734581909.0342684,-31.73828125,-52.734375,-48.828125,-71.77734375,0.0
1734581909.0381744,-88.8671875,-49.8046875,-48.33984375,-81.0546875,0.0
1734581909.0420802,-103.02734375,-45.41015625,-45.8984375,-48.33984375,0.0
1734581909.0459862,-58.10546875,-59.08203125,-52.734375,-8.7890625,0.0
1734581909.0500464,-59.5703125,-59.08203125,-49.8046875,-13.18359375,0.0
1734581909.0539525,-84.47265625,-45.8984375,-46.875,-53.22265625,0.0
1734581909.0578582,-52.24609375,-46.38671875,-49.8046875,-61.5234375,0.0
1734581909.0617642,12.6953125,-54.19921875,-48.33984375,-23.92578125,0.0
1734581909.06567,47.8515625,-60.546875,-48.828125,39.55078125,0.0
1734581909.069576,-0.9765625,-58.10546875,-49.31640625,12.20703125,0.0
1734581909.0734818,-86.42578125,-40.52734375,-55.17578125,-62.5,0.0
1734581909.0773876,-56.640625,-28.80859375,-60.546875,-63.4765625,0.0
1734581909.0812936,10.7421875,-37.109375,-59.5703125,-16.6015625,0.0
1734581909.0851994,-0.48828125,-45.8984375,-55.17578125,37.109375,0.0
1734581909.0891054,-33.203125,-48.33984375,-54.6875,8.7890625,0.0
1734581909.0930111,-48.828125,-46.38671875,-53.22265625,-25.390625,0.0
1734581909.0969822,-55.6640625,-50.29296875,-56.15234375,-40.0390625,0.0
1734581909.100888,-15.13671875,-53.7109375,-62.5,-29.78515625,0.0
1734581909.1047938,2.9296875,-50.78125,-67.87109375,24.4140625,0.0
1734581909.1086998,-38.0859375,-48.828125,-64.453125,11.23046875,0.0
1734581909.1126056,-73.2421875,-55.17578125,-55.17578125,-43.9453125,0.0
1734581909.1165116,-84.47265625,-57.6171875,-52.24609375,-62.98828125,0.0
1734581909.1204174,-31.73828125,-58.59375,-56.15234375,-26.85546875,0.0
1734581909.1243234,22.94921875,-59.5703125,-58.59375,9.27734375,0.0
1734581909.1282291,-4.39453125,-53.7109375,-52.24609375,9.765625,0.0
1734581909.132135,-55.6640625,-50.29296875,-50.29296875,-28.80859375,0.0
1734581909.136041,-62.5,-58.10546875,-51.7578125,-64.453125,0.0
1734581909.1399467,-20.01953125,-63.4765625,-56.640625,-60.05859375,0.0
1734581909.143839,19.04296875,-47.8515625,-57.12890625,-29.296875,0.0
1734581909.147745,-2.9296875,-37.59765625,-64.94140625,-10.25390625,0.0
1734581909.1516507,-54.19921875,-49.31640625,-75.68359375,-25.87890625,0.0
1734581909.1555567,-75.68359375,-50.29296875,-75.1953125,-41.50390625,0.0
1734581909.1594625,-35.15625,-46.875,-71.77734375,-40.0390625,0.0
1734581909.1633682,11.71875,-45.41015625,-71.2890625,-33.69140625,0.0
1734581909.1672742,-14.6484375,-49.31640625,-78.125,-30.2734375,0.0
1734581909.17118,-63.96484375,-56.15234375,-76.66015625,-45.41015625,0.0
1734581909.175086,-81.54296875,-51.26953125,-65.91796875,-64.94140625,0.0
1734581909.1789918,-40.0390625,-48.33984375,-65.4296875,-62.98828125,0.0
1734581909.1828978,14.6484375,-46.875,-64.453125,-28.80859375,0.0
1734581909.1868036,-6.34765625,-44.43359375,-56.15234375,4.8828125,0.0
1734581909.1906145,-69.3359375,-48.33984375,-63.96484375,-14.16015625,0.0
1734581909.1945202,-88.8671875,-43.45703125,-73.2421875,-60.546875,0.0
1734581909.1984262,-54.19921875,-36.62109375,-70.3125,-55.6640625,0.0
1734581909.202332,5.37109375,-40.0390625,-72.75390625,-20.5078125,0.0
1734581909.2062378,0.9765625,-45.41015625,-78.125,12.20703125,0.0
1734581909.2101438,-53.22265625,-48.33984375,-74.70703125,-35.64453125,0.0
1734581909.2140496,-82.03125,-50.29296875,-66.40625,-83.984375,0.0
1734581909.2179556,-73.2421875,-52.734375,-66.40625,-64.94140625,0.0
1734581909.2218614,-27.34375,-54.19921875,-62.01171875,-12.20703125,0.0
1734581909.2257674,-9.27734375,-40.0390625,-60.546875,25.87890625,0.0
1734581909.2296731,-35.15625,-38.0859375,-65.4296875,9.27734375,0.0
1734581909.2335792,-50.78125,-53.22265625,-65.4296875,-21.97265625,0.0
1734581909.2373586,-54.6875,-50.29296875,-65.4296875,-57.12890625,0.0
1734581909.2412643,-48.33984375,-48.828125,-69.3359375,-87.890625,0.0
1734581909.2451704,-39.0625,-49.31640625,-78.125,-59.5703125,0.0
1734581909.2490761,-71.77734375,-41.50390625,-83.984375,-51.7578125,0.0
1734581909.2529821,-110.83984375,-30.2734375,-88.8671875,-124.51171875,0.0
1734581909.256888,-125.0,-30.2734375,-94.7265625,-162.109375,0.0
1734581909.260794,-76.171875,-33.69140625,-96.19140625,-120.1171875,0.0
1734581909.2646997,-35.64453125,-29.78515625,-100.5859375,-93.75,0.0
1734581909.2686055,-82.03125,-32.71484375,-102.05078125,-118.65234375,0.0
1734581909.2725115,-136.23046875,-33.69140625,-101.07421875,-147.4609375,0.0
1734581909.2764173,-122.0703125,-30.2734375,-103.515625,-153.80859375,0.0
1734581909.2803233,-79.58984375,-29.296875,-105.46875,-114.2578125,0.0
1734581909.2840219,-59.5703125,-25.390625,-108.3984375,-66.89453125,0.0
1734581909.2879276,-54.19921875,-35.15625,-106.4453125,-66.40625,0.0
1734581909.2918336,-77.1484375,-37.109375,-97.65625,-91.796875,0.0
1734581909.2957394,-104.00390625,-41.50390625,-104.00390625,-109.375,0.0
1734581909.2996454,-60.05859375,-47.8515625,-103.515625,-96.6796875,0.0
1734581909.3035512,-33.69140625,-48.828125,-84.47265625,-51.26953125,0.0
1734581909.3074572,-57.12890625,-50.29296875,-78.125,-27.83203125,0.0
1734581909.311363,-83.984375,-40.52734375,-85.44921875,-49.8046875,0.0
1734581909.3152688,-105.95703125,-40.0390625,-87.890625,-89.84375,0.0
1734581909.3191748,-83.49609375,-50.78125,-84.9609375,-80.078125,0.0
1734581909.3230805,-18.06640625,-44.921875,-79.58984375,-23.4375,0.0
1734581909.3269866,-9.765625,-41.015625,-68.359375,5.37109375,0.0
1734581909.3311892,-70.80078125,-53.22265625,-69.3359375,-30.76171875,0.0
1734581909.3350952,-96.19140625,-54.6875,-69.3359375,-86.9140625,0.0
1734581909.339001,-51.26953125,-45.41015625,-69.3359375,-81.0546875,0.0
1734581909.342907,-4.8828125,-40.52734375,-85.44921875,-32.71484375,0.0
1734581909.3468127,-8.30078125,-38.0859375,-97.65625,-13.18359375,0.0
1734581909.3507187,-58.59375,-38.0859375,-98.14453125,-37.109375,0.0
1734581909.3546245,-60.546875,-37.109375,-92.28515625,-96.19140625,0.0
1734581909.3585305,-5.859375,-35.64453125,-88.37890625,-87.890625,0.0
1734581909.3624363,2.9296875,-40.52734375,-95.21484375,-17.08984375,0.0
1734581909.366342,-26.85546875,-45.41015625,-91.30859375,3.41796875,0.0
1734581909.370248,-66.40625,-51.7578125,-80.078125,-24.90234375,0.0
1734581909.3741539,-99.12109375,-56.640625,-79.1015625,-65.91796875,0.0
1734581909.3782656,-62.98828125,-56.15234375,-73.2421875,-83.0078125,0.0
1734581909.3821714,0.9765625,-44.43359375,-70.3125,-43.9453125,0.0
1734581909.3860774,18.5546875,-38.0859375,-76.66015625,1.953125,0.0
1734581909.3899832,-43.45703125,-43.45703125,-75.1953125,-12.20703125,0.0
1734581909.3938892,-88.8671875,-43.45703125,-79.1015625,-17.578125,0.0
1734581909.397795,-36.1328125,-43.45703125,-80.078125,-21.484375,0.0
1734581909.401701,14.6484375,-44.921875,-67.87109375,-30.76171875,0.0
1734581909.4056067,-5.859375,-36.62109375,-67.87109375,-43.9453125,0.0
1734581909.4095125,-63.4765625,-44.921875,-64.94140625,-52.734375,0.0
1734581909.4134185,-101.07421875,-56.640625,-56.640625,-53.22265625,0.0
1734581909.4173243,-93.75,-47.36328125,-59.08203125,-102.05078125,0.0
1734581909.4212303,-40.0390625,-44.921875,-64.453125,-86.42578125,0.0
1734581909.4252949,9.765625,-42.96875,-64.453125,24.4140625,0.0
1734581909.429201,-23.92578125,-43.9453125,-64.453125,21.97265625,0.0
1734581909.4331067,-64.453125,-44.921875,-63.96484375,-41.015625,0.0
1734581909.4370124,-58.10546875,-42.96875,-65.91796875,-37.109375,0.0
1734581909.4409184,-26.3671875,-43.9453125,-75.1953125,-29.296875,0.0
1734581909.4448242,8.30078125,-46.38671875,-81.0546875,-16.6015625,0.0
1734581909.4487302,-22.4609375,-53.22265625,-79.58984375,-11.71875,0.0
1734581909.452636,-68.359375,-51.7578125,-72.75390625,-21.484375,0.0
1734581909.456542,-44.43359375,-48.33984375,-69.3359375,-54.6875,0.0
1734581909.4604478,-2.9296875,-50.29296875,-70.80078125,-56.15234375,0.0
1734581909.4643538,23.92578125,-46.875,-69.82421875,-8.7890625,0.0
1734581909.4682596,1.953125,-43.9453125,-75.1953125,-1.953125,0.0
1734581909.4722404,-51.7578125,-38.0859375,-69.3359375,-30.2734375,0.0
1734581909.4761462,-61.5234375,-38.57421875,-60.05859375,-45.8984375,0.0
1734581909.4800522,-26.85546875,-40.52734375,-62.5,-32.71484375,0.0
1734581909.483958,13.18359375,-32.2265625,-62.98828125,1.953125,0.0
1734581909.487864,-3.90625,-30.2734375,-61.03515625,12.20703125,0.0
1734581909.4917698,-48.828125,-33.203125,-60.546875,-6.34765625,0.0
1734581909.4956756,-54.19921875,-36.1328125,-62.98828125,-43.9453125,0.0
1734581909.4995816,-22.94921875,-39.55078125,-64.94140625,-43.45703125,0.0
1734581909.5034873,-6.8359375,-43.9453125,-61.03515625,0.48828125,0.0
1734581909.5073934,-11.71875,-50.78125,-60.546875,16.11328125,0.0
1734581909.5112991,-42.96875,-55.6640625,-63.4765625,-19.04296875,0.0
1734581909.5152051,-62.01171875,-49.31640625,-68.359375,-54.6875,0.0
1734581909.5190885,-37.109375,-47.8515625,-68.84765625,-37.59765625,0.0
1734581909.5229943,-8.30078125,-48.828125,-68.359375,-20.01953125,0.0
1734581909.5269,9.765625,-43.45703125,-62.5,-29.296875,0.0
1734581909.530806,-14.16015625,-45.41015625,-59.5703125,-42.96875,0.0
1734581909.5347118,-59.5703125,-48.828125,-62.5,-63.4765625,0.0
1734581909.5386178,-52.24609375,-52.24609375,-57.6171875,-72.265625,0.0
1734581909.5425236,-10.7421875,-52.734375,-53.22265625,-44.921875,0.0
1734581909.5464296,-6.8359375,-46.875,-55.6640625,14.6484375,0.0
1734581909.5503354,-40.52734375,-38.0859375,-63.4765625,7.8125,0.0
1734581909.5542414,-58.10546875,-34.66796875,-69.82421875,-44.43359375,0.0
1734581909.5581472,-51.26953125,-37.59765625,-68.84765625,-64.94140625,0.0
1734581909.562053,-11.71875,-33.69140625,-63.96484375,-43.45703125,0.0
1734581909.5658255,16.6015625,-31.25,-67.3828125,-12.6953125,0.0
1734581909.5697312,-3.41796875,-35.64453125,-67.3828125,-30.76171875,0.0
1734581909.5736372,-52.24609375,-33.69140625,-68.84765625,-67.3828125,0.0
1734581909.577543,-64.453125,-31.73828125,-68.359375,-59.5703125,0.0
1734581909.581449,-26.85546875,-34.1796875,-70.80078125,-21.97265625,0.0
1734581909.5853548,-10.7421875,-40.0390625,-82.51953125,1.953125,0.0
1734581909.5892608,-38.57421875,-43.45703125,-88.37890625,-11.71875,0.0
1734581909.5931666,-50.29296875,-32.71484375,-88.8671875,-41.9921875,0.0
1734581909.5970724,-15.625,-34.66796875,-65.91796875,-17.08984375,0.0
1734581909.6009784,-23.4375,-53.22265625,-45.8984375,-17.578125,0.0
1734581909.6048841,-55.6640625,-56.15234375,-35.15625,-39.0625,0.0
1734581909.6087902,-76.171875,-58.10546875,-27.83203125,-49.8046875,0.0
1734581909.6125176,-101.07421875,-60.05859375,-30.2734375,-89.35546875,0.0
1734581909.6164236,-101.5625,-59.08203125,-24.90234375,-107.91015625,0.0
1734581909.6203294,-96.6796875,-65.4296875,-18.06640625,-81.54296875,0.0
1734581909.6242352,-81.54296875,-62.98828125,-14.6484375,-18.06640625,0.0
1734581909.6281412,-95.703125,-68.359375,-12.20703125,-22.4609375,0.0
1734581909.632047,-123.53515625,-72.75390625,-21.97265625,-110.3515625,0.0
1734581909.635953,-143.06640625,-73.2421875,-28.3203125,-130.37109375,0.0
1734581909.6398587,-120.1171875,-74.21875,-19.53125,-83.49609375,0.0
1734581909.6437647,-54.19921875,-75.68359375,-20.5078125,-24.90234375,0.0
1734581909.6476705,-72.75390625,-68.359375,-20.5078125,4.8828125,0.0
1734581909.6515763,-120.1171875,-61.5234375,-30.76171875,-21.484375,0.0
1734581909.6554823,-119.140625,-65.4296875,-51.7578125,-42.48046875,0.0
1734581909.6591413,-74.70703125,-66.89453125,-50.78125,-41.50390625,0.0
1734581909.663047,-42.96875,-67.3828125,-43.9453125,-15.625,0.0
1734581909.666953,-41.9921875,-69.82421875,-46.38671875,5.859375,0.0
1734581909.6708589,-59.08203125,-62.5,-43.45703125,-20.5078125,0.0
1734581909.6747646,-75.68359375,-58.59375,-36.1328125,-42.96875,0.0
1734581909.6786706,-45.8984375,-59.5703125,-38.57421875,-21.97265625,0.0
1734581909.6825764,-0.48828125,-59.5703125,-44.921875,-11.23046875,0.0
1734581909.6864824,4.8828125,-58.59375,-46.875,-6.34765625,0.0
1734581909.6903882,-26.3671875,-57.12890625,-53.22265625,-4.39453125,0.0
1734581909.6942942,-72.265625,-61.5234375,-55.6640625,-47.8515625,0.0
1734581909.6982,-33.69140625,-47.36328125,-51.7578125,-50.78125,0.0
1734581909.7021058,33.203125,-43.45703125,-59.08203125,-10.7421875,0.0
1734581909.706329,40.0390625,-52.24609375,-64.453125,6.34765625,0.0
1734581909.710235,-7.8125,-55.6640625,-57.12890625,-20.5078125,0.0
1734581909.714141,-59.08203125,-56.15234375,-57.6171875,-43.9453125,0.0
1734581909.718047,-35.64453125,-57.6171875,-58.59375,-59.08203125,0.0
1734581909.7219527,30.76171875,-62.01171875,-51.7578125,-43.45703125,0.0
1734581909.7258587,12.20703125,-61.03515625,-48.828125,11.23046875,0.0
1734581909.7297645,-64.453125,-61.5234375,-57.6171875,7.8125,0.0
1734581909.7336702,-90.8203125,-61.5234375,-60.05859375,-35.15625,0.0
1734581909.7375762,-61.5234375,-57.12890625,-58.10546875,-50.29296875,0.0
1734581909.741482,-9.765625,-55.17578125,-62.5,-9.765625,0.0
1734581909.745388,30.2734375,-52.734375,-65.91796875,34.66796875,0.0
1734581909.7492938,5.37109375,-43.9453125,-73.2421875,20.5078125,0.0
1734581909.753388,-63.96484375,-47.8515625,-72.265625,-11.71875,0.0
1734581909.757294,-51.26953125,-47.36328125,-64.94140625,-22.4609375,0.0
1734581909.7611997,6.34765625,-43.45703125,-72.75390625,-29.78515625,0.0
1734581909.7651057,23.4375,-45.41015625,-75.1953125,0.9765625,0.0
1734581909.7690115,-22.4609375,-46.875,-68.84765625,5.37109375,0.0
1734581909.7729175,-56.15234375,-44.921875,-70.3125,-70.80078125,0.0
1734581909.7768233,-41.50390625,-42.48046875,-80.078125,-103.02734375,0.0
1734581909.780729,-7.32421875,-50.78125,-82.03125,-51.26953125,0.0
1734581909.784635,25.390625,-50.78125,-75.68359375,-7.32421875,0.0
1734581909.7885408,-0.48828125,-49.8046875,-72.75390625,6.34765625,0.0
1734581909.7924469,-34.1796875,-51.7578125,-71.2890625,-6.8359375,0.0
1734581909.7963526,-39.0625,-49.8046875,-73.73046875,-38.57421875,0.0
1734581909.8003902,-3.41796875,-51.26953125,-78.61328125,-43.9453125,0.0
1734581909.8042963,37.109375,-43.9453125,-76.66015625,23.4375,0.0
1734581909.808202,46.38671875,-37.109375,-67.87109375,16.6015625,0.0
1734581909.812108,-11.23046875,-50.78125,-65.4296875,-68.359375,0.0
1734581909.8160138,-40.52734375,-59.5703125,-70.3125,-72.265625,0.0
1734581909.8199198,-19.04296875,-48.828125,-69.3359375,-42.96875,0.0
1734581909.8238256,-55.17578125,-45.41015625,-67.3828125,-16.6015625,0.0
1734581909.8277316,-73.73046875,-48.828125,-73.2421875,-2.44140625,0.0
1734581909.8316374,-67.3828125,-41.9921875,-72.265625,-38.0859375,0.0
1734581909.8355432,-75.1953125,-37.109375,-67.87109375,-38.0859375,0.0
1734581909.8394492,-44.921875,-51.7578125,-80.078125,-24.4140625,0.0
1734581909.843355,4.8828125,-55.6640625,-80.56640625,-9.27734375,0.0
1734581909.8473089,14.16015625,-46.38671875,-64.453125,24.4140625,0.0
1734581909.851215,-37.109375,-51.7578125,-61.5234375,-16.11328125,0.0
1734581909.8551207,-79.58984375,-53.7109375,-61.5234375,-55.6640625,0.0
1734581909.8590267,-57.6171875,-44.921875,-57.6171875,-44.921875,0.0
1734581909.8629324,0.0,-43.9453125,-62.5,-29.78515625,0.0
1734581909.8668385,4.8828125,-46.875,-72.75390625,-0.48828125,0.0
1734581909.8707442,-44.43359375,-49.31640625,-77.63671875,-18.06640625,0.0
1734581909.8746502,-66.89453125,-48.33984375,-82.03125,-28.3203125,0.0
1734581909.878556,-50.29296875,-50.29296875,-83.0078125,-34.1796875,0.0
1734581909.8824618,6.34765625,-53.22265625,-74.70703125,-39.0625,0.0
1734581909.8863678,16.11328125,-59.08203125,-68.359375,-3.90625,0.0
1734581909.8902736,-28.3203125,-65.4296875,-74.21875,-12.6953125,0.0
1734581909.8941574,-60.05859375,-58.10546875,-75.1953125,-52.734375,0.0
1734581909.8980632,-48.828125,-45.41015625,-67.3828125,-63.4765625,0.0
1734581909.901969,16.6015625,-40.0390625,-74.21875,-36.62109375,0.0
1734581909.905875,26.3671875,-42.48046875,-88.37890625,-8.30078125,0.0
1734581909.9097807,-37.59765625,-50.29296875,-87.890625,-5.859375,0.0
1734581909.9136868,-80.56640625,-57.6171875,-85.9375,-24.4140625,0.0
1734581909.9175925,-83.0078125,-57.12890625,-82.51953125,-61.5234375,0.0
1734581909.9214985,-47.8515625,-51.26953125,-82.03125,-41.50390625,0.0
1734581909.9254043,0.9765625,-41.50390625,-83.49609375,11.23046875,0.0
1734581909.9293103,-20.99609375,-38.57421875,-85.44921875,-4.39453125,0.0
1734581909.933216,-66.40625,-41.9921875,-82.51953125,-32.71484375,0.0
1734581909.9371219,-65.4296875,-41.015625,-76.171875,-44.43359375,0.0
1734581909.9409306,-48.33984375,-44.43359375,-75.1953125,-28.3203125,0.0
1734581909.9448364,-33.203125,-49.8046875,-70.3125,-20.5078125,0.0
1734581909.9487424,-45.41015625,-47.36328125,-69.3359375,-18.5546875,0.0
1734581909.9526482,-69.82421875,-47.36328125,-71.77734375,-47.8515625,0.0
1734581909.9565542,-74.70703125,-49.8046875,-74.70703125,-67.3828125,0.0
1734581909.96046,-41.50390625,-45.8984375,-73.2421875,-23.4375,0.0
1734581909.9643657,-4.39453125,-44.43359375,-70.3125,17.08984375,0.0
1734581909.9682717,-17.08984375,-46.875,-71.2890625,20.99609375,0.0
1734581909.9721775,-65.91796875,-44.43359375,-64.453125,-24.90234375,0.0
1734581909.9760835,-79.58984375,-38.57421875,-64.94140625,-51.26953125,0.0
1734581909.9799893,-29.296875,-40.52734375,-79.58984375,-17.08984375,0.0
1734581909.9838953,11.71875,-45.41015625,-79.1015625,10.25390625,0.0
1734581909.9876595,-14.16015625,-47.36328125,-64.94140625,1.46484375,0.0
1734581909.9915652,-53.7109375,-58.59375,-58.59375,-38.0859375,0.0
1734581909.9954712,-65.4296875,-56.15234375,-57.12890625,-57.6171875,0.0
1734581909.999377,-31.73828125,-51.7578125,-55.6640625,-53.22265625,0.0
1734581910.003283,4.39453125,-49.8046875,-56.640625,-32.2265625,0.0
1734581910.0071888,10.25390625,-34.66796875,-59.08203125,-22.94921875,0.0
1734581910.0110946,-9.765625,-34.1796875,-67.87109375,-22.94921875,0.0
1734581910.0150006,-31.25,-35.15625,-74.21875,-47.36328125,0.0
1734581910.0189064,-22.4609375,-35.15625,-67.87109375,-56.640625,0.0
1734581910.0228124,-6.34765625,-49.8046875,-72.75390625,-20.99609375,0.0
1734581910.0267181,-9.27734375,-52.24609375,-78.125,10.7421875,0.0
1734581910.0306242,-46.875,-50.78125,-75.68359375,-3.90625,0.0
1734581910.0343096,-74.21875,-50.78125,-69.82421875,-40.52734375,0.0
1734581910.0382154,-52.24609375,-40.0390625,-63.4765625,-38.0859375,0.0
1734581910.0421214,-31.73828125,-35.64453125,-60.546875,-13.671875,0.0
1734581910.0460272,-54.19921875,-39.0625,-63.96484375,30.76171875,0.0
1734581910.0499332,-81.0546875,-40.52734375,-68.84765625,22.4609375,0.0
1734581910.053839,-83.984375,-42.96875,-70.3125,-56.640625,0.0
1734581910.057745,-66.40625,-50.29296875,-69.3359375,-61.5234375,0.0
1734581910.0616508,-20.5078125,-47.36328125,-63.96484375,-23.92578125,0.0
1734581910.0655565,-2.9296875,-37.109375,-60.546875,0.0,0.0
1734581910.0694625,-30.76171875,-40.0390625,-61.5234375,-22.4609375,0.0
1734581910.0733683,-71.77734375,-46.38671875,-65.4296875,-52.24609375,0.0
1734581910.0772743,-64.453125,-52.734375,-65.4296875,-52.734375,0.0
1734581910.0808609,0.0,-47.8515625,-56.15234375,-20.5078125,0.0
1734581910.0847666,0.0,-48.33984375,-51.26953125,38.57421875,0.0
1734581910.0886724,0.0,-53.22265625,-55.6640625,35.64453125,0.0
1734581910.0925784,0.0,-42.96875,-63.96484375,-35.15625,0.0
1734581910.0964842,0.0,-40.0390625,-72.75390625,-64.453125,0.0
1734581910.1003902,0.0,-51.7578125,-81.0546875,-27.83203125,0.0
1734581910.104296,0.0,-52.734375,-89.84375,11.23046875,0.0
1734581910.108202,0.0,-49.31640625,-89.35546875,27.34375,0.0
1734581910.1121078,0.0,-49.31640625,-90.8203125,-2.44140625,0.0
1734581910.1160135,0.0,-46.38671875,-86.9140625,-33.69140625,0.0
1734581910.1199195,0.0,-49.31640625,-79.1015625,-17.08984375,0.0
1734581910.1238253,0.0,-50.78125,-78.61328125,18.06640625,0.0
1734581910.1280215,20.01953125,-48.33984375,0.0,20.01953125,0.0
1734581910.1319273,4.8828125,-47.36328125,0.0,5.859375,0.0
1734581910.1358333,-17.578125,-46.875,0.0,-22.94921875,0.0
1734581910.139739,2.44140625,-44.43359375,0.0,-16.11328125,0.0
1734581910.143645,13.18359375,-46.875,0.0,33.203125,0.0
1734581910.1475508,-9.27734375,-53.22265625,0.0,29.78515625,0.0
1734581910.1514568,-36.1328125,-50.29296875,0.0,-15.625,0.0
1734581910.1553626,-51.26953125,-42.96875,0.0,-53.22265625,0.0
1734581910.1592684,-23.4375,-38.57421875,0.0,-24.90234375,0.0
1734581910.1631744,13.671875,-39.0625,0.0,26.3671875,0.0
1734581910.1670802,9.765625,-37.109375,0.0,38.57421875,0.0
1734581910.1709862,-34.66796875,-38.57421875,0.0,18.5546875,0.0
1734581910.1750803,-45.41015625,-44.43359375,-57.6171875,-25.87890625,0.0
1734581910.178986,-11.71875,-44.921875,-58.59375,-23.4375,0.0
1734581910.182892,41.50390625,-39.0625,-56.640625,10.7421875,0.0
1734581910.1867979,35.64453125,-32.71484375,-60.05859375,9.27734375,0.0
1734581910.1907039,-8.7890625,-30.76171875,-60.05859375,-7.32421875,0.0
1734581910.1946096,-30.76171875,-30.2734375,-56.640625,-40.52734375,0.0
1734581910.1985157,-8.30078125,-34.1796875,-56.640625,-40.0390625,0.0
1734581910.2024214,44.43359375,-37.59765625,-51.7578125,0.0,0.0
1734581910.2063272,46.38671875,-36.1328125,-58.10546875,19.04296875,0.0
1734581910.2102332,-20.01953125,-37.109375,-75.68359375,-5.37109375,0.0
1734581910.214139,-40.0390625,-38.0859375,-73.2421875,-58.59375,0.0
1734581910.218045,-19.53125,-40.0390625,-63.4765625,-43.9453125,0.0
1734581910.2220223,-7.32421875,-46.875,-64.94140625,7.32421875,0.0
1734581910.225928,-32.71484375,-47.36328125,-59.08203125,16.6015625,0.0
1734581910.2298338,-78.125,-48.828125,-51.7578125,-12.6953125,0.0
1734581910.2337399,-87.40234375,-51.26953125,-51.7578125,-45.41015625,0.0
1734581910.2376456,-67.3828125,-50.29296875,-54.6875,-50.78125,0.0
1734581910.2415516,-8.30078125,-47.8515625,-54.6875,-27.34375,0.0
1734581910.2454574,43.45703125,-39.55078125,-55.17578125,7.8125,0.0
1734581910.2493634,4.39453125,-33.69140625,-57.6171875,6.34765625,0.0
1734581910.2532692,-64.94140625,-32.2265625,-60.546875,-34.1796875,0.0
1734581910.2571752,-69.82421875,-36.62109375,-63.4765625,-46.38671875,0.0
1734581910.261081,-26.85546875,-40.52734375,-66.89453125,-26.85546875,0.0
1734581910.2649868,8.30078125,-38.0859375,-73.73046875,-20.01953125,0.0
1734581910.2688868,3.41796875,-37.59765625,-75.68359375,-21.484375,0.0
1734581910.2727926,-49.31640625,-41.9921875,-65.91796875,-43.45703125,0.0
1734581910.2766986,-61.5234375,-40.0390625,-58.10546875,-61.5234375,0.0
1734581910.2806044,-16.11328125,-37.59765625,-61.5234375,-18.5546875,0.0
1734581910.2845104,16.6015625,-37.109375,-65.91796875,-0.9765625,0.0
1734581910.2884161,-15.625,-40.52734375,-65.91796875,-9.27734375,0.0
1734581910.2923222,-63.4765625,-46.875,-67.3828125,-37.109375,0.0
1734581910.296228,-68.359375,-47.8515625,-65.4296875,-85.9375,0.0
1734581910.300134,-27.83203125,-40.52734375,-72.75390625,-40.0390625,0.0
1734581910.3040397,-0.9765625,-42.48046875,-83.49609375,-10.25390625,0.0
1734581910.3079455,-23.92578125,-53.22265625,-74.21875,-4.8828125,0.0
1734581910.3118515,-52.24609375,-50.78125,-71.2890625,-29.296875,0.0
1734581910.3157477,-77.1484375,-44.43359375,-68.84765625,-62.01171875,0.0
1734581910.3196537,-47.8515625,-41.015625,-62.01171875,-44.43359375,0.0
1734581910.3235595,0.48828125,-44.43359375,-66.89453125,-3.90625,0.0
1734581910.3274655,-22.94921875,-47.36328125,-69.3359375,11.71875,0.0
1734581910.3313713,-70.80078125,-42.96875,-73.2421875,-36.62109375,0.0
1734581910.335277,-62.98828125,-34.66796875,-67.87109375,-54.6875,0.0
1734581910.339183,-29.78515625,-34.1796875,-62.5,-48.33984375,0.0
1734581910.3430889,0.48828125,-41.015625,-68.359375,-24.90234375,0.0
1734581910.3469949,-3.41796875,-43.9453125,-69.3359375,-2.9296875,0.0
1734581910.3509007,-55.17578125,-43.45703125,-67.87109375,-7.32421875,0.0
1734581910.3548067,-101.07421875,-46.38671875,-70.3125,-46.875,0.0
1734581910.3587124,-70.80078125,-47.8515625,-65.4296875,-63.96484375,0.0
1734581910.362453,-11.71875,-43.9453125,-65.4296875,-32.2265625,0.0
1734581910.3663588,-19.53125,-36.62109375,-68.359375,-0.48828125,0.0
1734581910.3702648,-56.15234375,-35.15625,-66.40625,-1.953125,0.0
1734581910.3741705,-86.42578125,-43.45703125,-66.40625,-42.48046875,0.0
1734581910.3780766,-73.2421875,-43.9453125,-64.453125,-83.984375,0.0
1734581910.3819823,-12.6953125,-36.62109375,-63.4765625,-63.96484375,0.0
1734581910.385888,-8.7890625,-30.76171875,-62.98828125,-33.69140625,0.0
1734581910.389794,-71.77734375,-24.90234375,-50.78125,-53.22265625,0.0
1734581910.3937,-107.421875,-23.92578125,-50.78125,-83.984375,0.0
1734581910.397606,-100.09765625,-21.484375,-59.5703125,-122.0703125,0.0
1734581910.4015117,-67.3828125,-9.765625,-47.8515625,-100.09765625,0.0
1734581910.4054177,-61.03515625,-5.37109375,-49.8046875,-55.6640625,0.0
1734581910.409084,-85.9375,-8.7890625,-61.03515625,-89.84375,0.0
1734581910.4129899,-148.4375,-18.5546875,-42.96875,-148.92578125,0.0
1734581910.4168959,-228.02734375,-20.5078125,-22.4609375,-199.21875,0.0
1734581910.4208016,-218.75,-0.9765625,-15.625,-196.77734375,0.0
1734581910.4247077,-186.03515625,0.48828125,-3.90625,-188.4765625,0.0
1734581910.4286134,-230.95703125,-4.39453125,5.859375,-205.078125,0.0
1734581910.4325194,-293.45703125,-0.48828125,6.34765625,-230.46875,0.0
1734581910.4364252,-302.734375,1.953125,11.23046875,-284.1796875,0.0
1734581910.440331,-276.3671875,1.46484375,9.27734375,-291.50390625,0.0
1734581910.444237,-252.44140625,-3.90625,1.953125,-247.0703125,0.0
1734581910.4481428,-295.41015625,-5.37109375,5.859375,-240.72265625,0.0
1734581910.4520488,-334.9609375,-5.37109375,7.32421875,-292.96875,0.0
1734581910.4562905,-316.40625,-13.18359375,10.7421875,-306.640625,0.0
1734581910.4601963,-283.69140625,-17.08984375,7.8125,-268.5546875,0.0
1734581910.4641023,-244.62890625,-17.578125,-0.48828125,-228.515625,0.0
1734581910.468008,-233.88671875,-13.671875,3.90625,-206.0546875,0.0
1734581910.471914,-249.0234375,-15.625,11.71875,-200.68359375,0.0
1734581910.4758198,-253.90625,-21.97265625,13.671875,-210.9375,0.0
1734581910.4797256,-204.1015625,-24.90234375,1.46484375,-198.73046875,0.0
1734581910.4836316,-167.48046875,-37.109375,-7.32421875,-147.4609375,0.0
1734581910.4875374,-167.48046875,-39.0625,-9.765625,-142.578125,0.0
1734581910.4914434,-164.0625,-40.0390625,-11.71875,-151.85546875,0.0
1734581910.4953492,-153.80859375,-38.0859375,-11.71875,-150.390625,0.0
1734581910.4992552,-114.74609375,-34.1796875,-17.08984375,-141.6015625,0.0
1734581910.5033941,-93.75,-41.50390625,-19.04296875,-76.66015625,0.0
1734581910.5073,-112.79296875,-43.9453125,-25.87890625,-46.875,0.0
1734581910.511206,-116.69921875,-44.43359375,-35.64453125,-57.6171875,0.0
1734581910.5151117,-137.20703125,-46.38671875,-38.57421875,-63.96484375,0.0
1734581910.5190177,-96.6796875,-47.36328125,-39.0625,-42.96875,0.0
1734581910.5229235,-38.57421875,-46.875,-49.31640625,-16.6015625,0.0
1734581910.5268292,-66.89453125,-55.6640625,-54.19921875,-17.578125,0.0
1734581910.5307353,-85.9375,-62.98828125,-49.31640625,-24.4140625,0.0
1734581910.534641,-114.2578125,-63.4765625,-41.50390625,-55.17578125,0.0
1734581910.538547,-77.1484375,-59.5703125,-47.8515625,-58.10546875,0.0
1734581910.5424528,15.625,-53.22265625,-53.7109375,12.6953125,0.0
1734581910.5463588,48.33984375,-51.26953125,-51.26953125,69.82421875,0.0
1734581910.5504105,12.20703125,-55.6640625,-47.8515625,56.640625,0.0
1734581910.5543163,-3.41796875,-58.10546875,-48.828125,37.59765625,0.0
1734581910.5582223,33.69140625,-55.6640625,-56.15234375,33.69140625,0.0
1734581910.562128,86.9140625,-51.7578125,-63.4765625,51.7578125,0.0
1734581910.566034,101.07421875,-54.6875,-76.171875,78.125,0.0
1734581910.5699399,56.640625,-55.17578125,-82.03125,79.58984375,0.0
1734581910.5738459,32.2265625,-52.734375,-75.68359375,62.5,0.0
1734581910.5777516,49.31640625,-57.6171875,-79.1015625,47.8515625,0.0
1734581910.5816576,69.82421875,-62.98828125,-74.70703125,68.359375,0.0
1734581910.5855634,85.44921875,-64.94140625,-58.59375,102.05078125,0.0
1734581910.5894692,69.82421875,-53.7109375,-62.5,75.68359375,0.0
1734581910.5933752,44.43359375,-52.24609375,-67.3828125,28.3203125,0.0
1734581910.597338,53.22265625,-57.6171875,-74.21875,23.92578125,0.0
1734581910.6012437,78.125,-56.15234375,-75.68359375,50.78125,0.0
1734581910.6051495,93.26171875,-54.6875,-70.3125,66.89453125,0.0
1734581910.6090555,75.1953125,-61.5234375,-57.12890625,62.01171875,0.0
1734581910.6129613,42.48046875,-62.01171875,-48.33984375,34.1796875,0.0
1734581910.6168673,44.921875,-55.17578125,-60.05859375,26.85546875,0.0
1734581910.620773,67.3828125,-55.6640625,-62.01171875,25.390625,0.0
1734581910.624679,113.28125,-58.10546875,-57.6171875,42.48046875,0.0
1734581910.6285849,111.328125,-53.7109375,-64.94140625,62.01171875,0.0
1734581910.6324909,21.97265625,-49.8046875,-67.3828125,28.80859375,0.0
1734581910.6363966,-6.8359375,-45.8984375,-59.08203125,0.48828125,0.0
1734581910.6403024,31.73828125,-41.9921875,-58.10546875,-17.08984375,0.0
1734581910.644188,59.08203125,-50.78125,-58.59375,24.90234375,0.0
1734581910.6480937,59.08203125,-47.36328125,-61.5234375,67.3828125,0.0
1734581910.6519997,54.19921875,-41.015625,-59.08203125,66.40625,0.0
1734581910.6559055,2.9296875,-54.6875,-35.64453125,39.55078125,0.0
1734581910.6598115,-28.3203125,-51.7578125,-33.69140625,-23.4375,0.0
1734581910.6637173,20.5078125,-41.015625,-40.52734375,-16.11328125,0.0
1734581910.667623,20.5078125,-36.62109375,-31.73828125,33.69140625,0.0
1734581910.671529,-60.546875,-37.109375,-26.3671875,-8.7890625,0.0
1734581910.6754348,-103.02734375,-43.9453125,-18.06640625,-72.265625,0.0
1734581910.6793408,-65.4296875,-54.19921875,-6.8359375,-83.0078125,0.0
1734581910.6832466,-28.3203125,-51.26953125,-5.37109375,-37.109375,0.0
1734581910.6871526,-29.78515625,-41.9921875,-1.46484375,15.625,0.0
1734581910.6909866,-54.19921875,-42.48046875,4.39453125,-39.55078125,0.0
1734581910.6948924,-69.3359375,-44.921875,-4.39453125,-89.35546875,0.0
1734581910.6987984,-57.12890625,-56.15234375,-1.953125,-92.28515625,0.0
1734581910.7027042,-21.484375,-64.453125,0.9765625,-45.8984375,0.0
1734581910.70661,-7.8125,-54.6875,2.9296875,8.7890625,0.0
1734581910.710516,-19.53125,-43.9453125,-3.41796875,17.08984375,0.0
1734581910.7144217,-11.23046875,-44.921875,-14.16015625,5.859375,0.0
1734581910.7183278,-12.6953125,-53.7109375,-0.9765625,-25.390625,0.0
1734581910.7222335,-16.11328125,-65.4296875,5.859375,-16.6015625,0.0
1734581910.7261395,-17.08984375,-66.89453125,0.48828125,17.08984375,0.0
1734581910.7300453,-36.62109375,-58.59375,-11.23046875,24.90234375,0.0
1734581910.7339513,-50.78125,-52.24609375,-23.4375,21.97265625,0.0
1734581910.7376723,-36.1328125,-60.05859375,-13.18359375,33.203125,0.0
1734581910.741578,-6.34765625,-60.05859375,-6.34765625,66.40625,0.0
1734581910.745484,-9.765625,-52.734375,-20.5078125,62.01171875,0.0
1734581910.74939,-18.06640625,-45.8984375,-36.1328125,20.99609375,0.0
1734581910.753296,-21.484375,-41.50390625,-58.10546875,-31.25,0.0
1734581910.7572017,0.9765625,-41.015625,-52.24609375,-8.7890625,0.0
1734581910.7611077,41.015625,-43.45703125,-31.25,36.62109375,0.0
1734581910.7650135,55.17578125,-50.29296875,-32.71484375,41.9921875,0.0
1734581910.7689192,28.80859375,-52.734375,-29.78515625,34.1796875,0.0
1734581910.7728252,-7.8125,-51.7578125,-37.109375,22.94921875,0.0
1734581910.776731,-7.8125,-49.8046875,-57.12890625,-12.20703125,0.0
1734581910.780637,30.2734375,-44.921875,-57.6171875,1.46484375,0.0
1734581910.784298,71.2890625,-32.71484375,-64.94140625,26.85546875,0.0
1734581910.7882037,55.6640625,-35.15625,-78.61328125,23.4375,0.0
1734581910.7921097,34.66796875,-46.38671875,-71.2890625,3.41796875,0.0
1734581910.7960155,8.30078125,-39.0625,-71.77734375,-7.8125,0.0
1734581910.7999213,-16.6015625,-35.15625,-61.03515625,18.5546875,0.0
1734581910.8038273,-13.18359375,-41.50390625,-50.78125,8.30078125,0.0
1734581910.807733,-0.9765625,-40.0390625,-55.17578125,5.859375,0.0
1734581910.811639,-10.7421875,-37.59765625,-46.38671875,-2.44140625,0.0
1734581910.8155448,-15.13671875,-39.55078125,-47.36328125,-19.04296875,0.0
1734581910.8194509,-2.9296875,-38.0859375,-67.3828125,4.8828125,0.0
1734581910.8233566,33.69140625,-24.90234375,-81.54296875,44.921875,0.0
1734581910.8272626,29.296875,-33.203125,-69.82421875,27.34375,0.0
1734581910.8308835,-14.16015625,-45.8984375,-55.6640625,-3.90625,0.0
1734581910.8347895,-24.90234375,-35.15625,-55.6640625,-2.9296875,0.0
1734581910.8386953,-41.50390625,-33.69140625,-49.31640625,-16.6015625,0.0
1734581910.842601,-0.48828125,-36.62109375,-46.38671875,-13.18359375,0.0
1734581910.846507,38.0859375,-38.57421875,-44.43359375,1.953125,0.0
1734581910.8504128,11.71875,-37.59765625,-45.8984375,-11.23046875,0.0
1734581910.8543189,9.765625,-34.1796875,-42.48046875,-3.90625,0.0
1734581910.8582246,5.37109375,-38.0859375,-41.9921875,-8.7890625,0.0
1734581910.8621306,-29.296875,-44.921875,-40.0390625,-29.78515625,0.0
1734581910.8660364,-16.6015625,-41.015625,-45.41015625,0.48828125,0.0
1734581910.8699422,-21.97265625,-31.73828125,-42.48046875,-1.953125,0.0
1734581910.8738482,-58.59375,-39.55078125,-22.4609375,-26.85546875,0.0
1734581910.8780189,-54.6875,-55.6640625,-11.23046875,-58.10546875,0.0
1734581910.8819249,-37.109375,-62.01171875,-10.25390625,-81.54296875,0.0
1734581910.8858306,-3.90625,-54.19921875,-15.13671875,-29.78515625,0.0
1734581910.8897367,-15.625,-43.9453125,-19.53125,-32.2265625,0.0
1734581910.8936424,-73.2421875,-46.38671875,-18.5546875,-69.3359375,0.0
1734581910.8975482,-80.56640625,-60.05859375,-15.13671875,-51.7578125,0.0
1734581910.9014542,-40.52734375,-58.10546875,-25.87890625,-6.8359375,0.0
1734581910.90536,-23.92578125,-44.921875,-38.57421875,19.53125,0.0
1734581910.909266,-43.45703125,-50.78125,-23.92578125,-6.34765625,0.0
1734581910.9131718,-60.546875,-50.29296875,-10.25390625,-34.66796875,0.0
1734581910.9170778,-63.4765625,-35.15625,-10.7421875,-40.52734375,0.0
1734581910.9209836,-42.48046875,-28.80859375,-17.08984375,-27.83203125,0.0
1734581910.9250386,-8.7890625,-31.25,-26.85546875,-8.30078125,0.0
1734581910.9289443,-20.99609375,-28.3203125,-39.0625,14.16015625,0.0
1734581910.9328504,-41.9921875,-27.34375,-41.015625,5.859375,0.0
1734581910.9367561,-35.64453125,-30.76171875,-32.71484375,-29.78515625,0.0
1734581910.9406621,-6.34765625,-38.0859375,-26.3671875,-19.53125,0.0
1734581910.944568,14.16015625,-45.41015625,-33.69140625,5.37109375,0.0
1734581910.9484737,-27.83203125,-38.0859375,-55.6640625,24.4140625,0.0
1734581910.9523797,-35.64453125,-20.99609375,-55.6640625,23.4375,0.0
1734581910.9562855,-6.34765625,-26.85546875,-32.2265625,-23.92578125,0.0
1734581910.9601915,-4.39453125,-44.921875,-38.0859375,-39.0625,0.0
1734581910.9640973,16.6015625,-47.8515625,-50.78125,2.9296875,0.0
1734581910.9680033,11.23046875,-42.48046875,-51.26953125,29.78515625,0.0
1734581910.9719672,-20.99609375,-37.59765625,-42.48046875,-0.48828125,0.0
1734581910.9758732,-13.671875,-38.57421875,-32.2265625,-38.0859375,0.0
1734581910.979779,-6.8359375,-45.8984375,-31.25,-44.43359375,0.0
1734581910.983685,11.71875,-38.0859375,-33.69140625,6.8359375,0.0
1734581910.9875908,16.11328125,-19.53125,-43.45703125,55.6640625,0.0
1734581910.9914968,-29.296875,-28.80859375,-44.43359375,5.37109375,0.0
1734581910.9954026,-62.98828125,-42.48046875,-38.0859375,-48.33984375,0.0
1734581910.9993086,-41.9921875,-46.38671875,-30.76171875,-37.59765625,0.0
1734581911.0032144,24.90234375,-33.69140625,-27.34375,27.83203125,0.0
1734581911.0071201,20.01953125,-22.4609375,-21.484375,41.015625,0.0
1734581911.0110261,-65.91796875,-30.2734375,-2.44140625,-9.765625,0.0
1734581911.014932,-73.73046875,-34.1796875,12.6953125,-34.66796875,0.0
1734581911.0193014,-24.90234375,-31.73828125,0.0,-16.11328125,0.0
1734581911.0232074,4.8828125,-29.296875,0.0,3.90625,0.0
1734581911.0271132,-1.953125,-27.34375,0.0,19.53125,0.0
1734581911.031019,-21.97265625,-37.109375,0.0,-23.92578125,0.0
1734581911.034925,-60.546875,-40.0390625,0.0,-46.875,0.0
1734581911.0388308,-47.36328125,-30.2734375,0.0,-23.4375,0.0
1734581911.0427368,0.48828125,-22.4609375,0.0,-20.01953125,0.0
1734581911.0466425,10.7421875,-14.16015625,0.0,33.203125,0.0
1734581911.0505486,-12.6953125,-17.08984375,0.0,33.69140625,0.0
1734581911.0544543,-41.015625,-28.3203125,0.0,-17.08984375,0.0
1734581911.0583603,-38.0859375,-37.109375,0.0,-31.25,0.0
1734581911.062266,-24.90234375,-41.015625,0.0,-27.83203125,0.0
1734581911.0661235,9.27734375,-31.73828125,-30.76171875,-7.32421875,0.0
1734581911.0700295,1.46484375,-32.2265625,-32.71484375,2.44140625,0.0
1734581911.0739353,-26.85546875,-36.62109375,-33.203125,-20.99609375,0.0
1734581911.0778413,-32.2265625,-34.1796875,-25.87890625,-36.1328125,0.0
1734581911.081747,-17.08984375,-36.1328125,-30.2734375,-35.15625,0.0
1734581911.085653,-13.18359375,-40.0390625,-22.4609375,-0.9765625,0.0
1734581911.0895588,-38.57421875,-42.96875,-9.27734375,32.2265625,0.0
1734581911.0934646,-68.84765625,-42.48046875,0.9765625,-17.578125,0.0
1734581911.0973706,-75.1953125,-38.57421875,-4.39453125,-68.359375,0.0
1734581911.1012764,-28.3203125,-41.015625,-28.3203125,-52.24609375,0.0
1734581911.1051824,-3.90625,-39.55078125,-39.0625,8.7890625,0.0
1734581911.1090882,-35.64453125,-32.71484375,-28.3203125,24.90234375,0.0
1734581911.1128292,0.0,-40.52734375,-20.01953125,-29.78515625,0.0
1734581911.116735,0.0,-49.8046875,-21.97265625,-58.59375,0.0
1734581911.120641,0.0,-47.8515625,-13.18359375,-37.109375,0.0
1734581911.1245468,0.0,-41.9921875,-9.765625,3.41796875,0.0
1734581911.1284528,0.0,-40.0390625,-18.06640625,16.6015625,0.0
1734581911.1323586,0.0,-37.109375,-30.2734375,-4.39453125,0.0
1734581911.1362646,0.0,-32.2265625,-32.2265625,-11.23046875,0.0
1734581911.1401703,0.0,-33.203125,-24.4140625,-21.484375,0.0
1734581911.1440763,0.0,-35.15625,-19.53125,-21.484375,0.0
1734581911.1479821,0.0,-31.25,-18.06640625,-8.30078125,0.0
1734581911.151888,0.0,-27.34375,-14.16015625,-40.52734375,0.0
1734581911.155794,0.0,-21.484375,-15.13671875,-84.47265625,0.0
1734581911.1598136,-37.59765625,-7.32421875,-25.390625,-77.1484375,0.0
1734581911.1637197,15.625,-4.8828125,-23.92578125,-23.4375,0.0
1734581911.1676254,38.57421875,3.90625,-23.4375,23.92578125,0.0
1734581911.1715314,-4.8828125,8.7890625,-23.4375,0.9765625,0.0
1734581911.1754372,-76.66015625,-12.20703125,-9.27734375,-51.26953125,0.0
1734581911.1793432,-94.7265625,-26.3671875,-9.27734375,-38.57421875,0.0
1734581911.183249,-74.21875,-22.94921875,-15.625,11.71875,0.0
1734581911.1871548,-71.2890625,-21.97265625,-12.20703125,10.7421875,0.0
1734581911.1910608,-100.5859375,-18.5546875,-21.484375,-4.39453125,0.0
1734581911.1949666,-102.5390625,-8.7890625,-27.83203125,-5.859375,0.0
1734581911.1988726,-56.15234375,-20.01953125,1.46484375,-5.37109375,0.0
1734581911.2027783,-24.4140625,-26.85546875,23.4375,-29.78515625,0.0
1734581911.2064636,-44.43359375,-18.5546875,-3.90625,-58.10546875,0.0
1734581911.2103693,-66.89453125,-11.23046875,-23.4375,-48.828125,0.0
1734581911.2142754,-83.0078125,-11.23046875,-13.671875,-31.25,0.0
1734581911.2181811,-66.40625,-8.30078125,-3.41796875,-51.26953125,0.0
1734581911.222087,-40.52734375,-7.8125,-13.18359375,-52.734375,0.0
1734581911.225993,-27.83203125,-14.6484375,-21.97265625,-15.13671875,0.0
1734581911.2298987,-16.11328125,-0.48828125,-17.578125,-19.53125,0.0
1734581911.2338047,-36.1328125,9.27734375,-22.94921875,-47.36328125,0.0
1734581911.2377105,-22.4609375,4.39453125,-22.4609375,-44.921875,0.0
1734581911.2416165,-11.23046875,-1.46484375,-14.6484375,-20.99609375,0.0
1734581911.2455223,-17.578125,-12.20703125,-13.671875,-11.71875,0.0
1734581911.2494283,-41.9921875,-11.23046875,-18.5546875,-20.99609375,0.0
1734581911.2535698,-93.26171875,-14.6484375,-11.71875,-60.05859375,0.0
1734581911.2574759,-69.82421875,-21.484375,-20.01953125,-72.75390625,0.0
1734581911.2613816,3.41796875,-28.3203125,-42.48046875,-57.12890625,0.0
1734581911.2652874,42.96875,-21.97265625,-16.6015625,-8.30078125,0.0
1734581911.2691934,5.37109375,-12.20703125,12.20703125,-2.9296875,0.0
1734581911.2730992,-64.94140625,-15.625,6.34765625,-57.6171875,0.0
1734581911.2770052,-86.42578125,-20.5078125,2.44140625,-78.61328125,0.0
1734581911.280911,-78.125,-21.97265625,9.27734375,-74.70703125,0.0
1734581911.284817,-53.7109375,-14.6484375,-0.9765625,-16.6015625,0.0
1734581911.2887228,-52.734375,-5.37109375,-19.04296875,25.390625,0.0
1734581911.2926288,-82.51953125,-7.8125,-9.765625,-12.20703125,0.0
1734581911.2965345,-87.890625,-22.94921875,-0.48828125,-52.24609375,0.0
1734581911.300587,-53.7109375,-25.87890625,-4.39453125,-44.43359375,0.0
1734581911.304493,2.9296875,-13.18359375,-13.18359375,-15.625,0.0
1734581911.3083987,-7.8125,-2.9296875,-22.94921875,-5.37109375,0.0
1734581911.3123047,-62.98828125,0.9765625,-13.18359375,-13.18359375,0.0
1734581911.3162105,-69.3359375,-8.30078125,-15.625,-50.78125,0.0
1734581911.3201165,-38.57421875,-20.99609375,-18.5546875,-67.3828125,0.0
1734581911.3240223,-8.30078125,-14.16015625,0.48828125,-20.5078125,0.0
1734581911.327928,-26.3671875,-13.18359375,8.7890625,-0.9765625,0.0
1734581911.331834,-49.8046875,-13.671875,19.04296875,-15.625,0.0
1734581911.3357399,-46.875,2.9296875,16.11328125,-22.4609375,0.0
1734581911.3396459,-19.04296875,16.6015625,-4.8828125,-30.2734375,0.0
1734581911.3435516,-10.7421875,10.25390625,-14.16015625,-24.4140625,0.0
1734581911.3475196,-29.296875,-6.34765625,-9.765625,-32.71484375,0.0
1734581911.3514254,-34.66796875,-2.44140625,0.9765625,-35.15625,0.0
1734581911.3553314,-56.15234375,5.859375,-2.9296875,-46.875,0.0
1734581911.3592372,-38.57421875,-2.44140625,0.48828125,-56.15234375,0.0
1734581911.363143,-1.46484375,-10.25390625,22.4609375,-34.66796875,0.0
1734581911.367049,-0.48828125,-5.37109375,10.25390625,-16.6015625,0.0
1734581911.3709548,-20.01953125,10.25390625,2.9296875,10.7421875,0.0
1734581911.3748608,-36.62109375,15.625,19.53125,12.20703125,0.0
1734581911.3787665,0.48828125,7.32421875,-1.46484375,-6.8359375,0.0
1734581911.3826725,-3.90625,0.9765625,12.6953125,-13.671875,0.0
1734581911.3865783,-54.19921875,-10.7421875,41.50390625,-36.62109375,0.0
1734581911.3904843,-76.171875,-26.3671875,25.390625,-47.36328125,0.0
1734581911.3944435,0.0,-27.34375,29.78515625,-60.546875,0.0
1734581911.3983493,0.0,-14.6484375,42.48046875,-57.12890625,0.0
1734581911.4022553,0.0,-6.34765625,15.13671875,-22.94921875,0.0
1734581911.406161,0.0,-13.18359375,11.71875,-5.37109375,0.0
1734581911.4100668,0.0,-25.390625,21.484375,-21.97265625,0.0
1734581911.4139729,0.0,-20.01953125,12.6953125,-34.66796875,0.0
1734581911.4178786,0.0,-11.71875,19.04296875,-48.33984375,0.0
1734581911.4217846,0.0,-25.390625,30.2734375,-54.19921875,0.0
1734581911.4256904,0.0,-27.34375,19.04296875,-13.18359375,0.0
1734581911.4295964,0.0,-9.765625,7.32421875,12.20703125,0.0
1734581911.4335022,0.0,-9.765625,13.671875,-19.53125,0.0
1734581911.4374082,0.0,-14.6484375,24.90234375,-59.5703125,0.0
1734581911.4412591,12.20703125,-9.765625,38.0859375,-54.6875,0.0
1734581911.4451652,12.6953125,-18.06640625,36.62109375,-26.3671875,0.0
1734581911.449071,-16.6015625,-18.06640625,29.78515625,-11.23046875,0.0
1734581911.452977,-12.20703125,-9.27734375,25.87890625,-29.296875,0.0
1734581911.4568827,-34.66796875,-1.46484375,31.25,-48.33984375,0.0
1734581911.4607887,-31.25,1.46484375,44.43359375,-54.6875,0.0
1734581911.4646945,-10.7421875,4.8828125,59.5703125,-22.94921875,0.0
1734581911.4686003,-34.1796875,1.46484375,60.05859375,-5.37109375,0.0
1734581911.4725063,-78.125,-3.41796875,41.50390625,-27.83203125,0.0
1734581911.476412,-63.96484375,8.7890625,30.76171875,-19.53125,0.0
1734581911.480318,-35.15625,1.46484375,43.45703125,-20.01953125,0.0
1734581911.4842238,-16.6015625,-5.859375,48.33984375,-13.18359375,0.0
1734581911.4880803,-12.20703125,0.0,42.96875,-2.44140625,0.0
1734581911.4919863,-42.96875,3.90625,43.45703125,-30.2734375,0.0
1734581911.495892,-37.109375,5.37109375,43.9453125,-43.45703125,0.0
1734581911.4997978,11.23046875,-4.8828125,35.64453125,-40.0390625,0.0
1734581911.5037038,6.8359375,-12.6953125,19.04296875,-34.66796875,0.0
1734581911.5076096,-16.6015625,-5.859375,22.94921875,-9.27734375,0.0
1734581911.5115156,-35.15625,-6.34765625,52.24609375,-20.99609375,0.0
1734581911.5154214,-70.80078125,-18.5546875,72.265625,-70.80078125,0.0
1734581911.5193274,-61.03515625,-16.11328125,68.84765625,-87.40234375,0.0
1734581911.5232332,-0.48828125,-0.9765625,57.6171875,-22.94921875,0.0
1734581911.5271392,13.671875,-13.671875,51.7578125,20.01953125,0.0
1734581911.531045,-22.4609375,-26.85546875,43.9453125,-24.4140625,0.0
1734581911.5347188,-24.4140625,-5.37109375,43.9453125,-68.359375,0.0
1734581911.5386245,-2.44140625,0.9765625,50.78125,-65.91796875,0.0
1734581911.5425303,23.4375,0.0,63.4765625,-32.2265625,0.0
1734581911.5464363,16.6015625,2.9296875,67.87109375,-9.27734375,0.0
1734581911.550342,-11.23046875,3.41796875,64.94140625,-9.765625,0.0
1734581911.554248,-49.31640625,-7.8125,50.29296875,-38.0859375,0.0
1734581911.5581539,-56.15234375,-16.11328125,36.62109375,-60.05859375,0.0
1734581911.5620599,-21.484375,-2.9296875,45.8984375,-22.4609375,0.0
1734581911.5659657,-20.5078125,-9.27734375,64.453125,11.23046875,0.0
1734581911.5698717,-52.24609375,-14.6484375,81.0546875,-11.71875,0.0
1734581911.5737774,-71.77734375,0.0,87.40234375,-37.109375,0.0
1734581911.5776832,-58.59375,8.30078125,58.10546875,-54.6875,0.0
1734581911.5819404,-28.80859375,5.859375,30.76171875,-19.04296875,0.0
1734581911.5858464,-17.578125,-5.859375,50.29296875,-2.44140625,0.0
1734581911.5897522,-35.64453125,-4.8828125,80.078125,-42.96875,0.0
1734581911.5936582,-57.6171875,6.8359375,73.2421875,-61.5234375,0.0
1734581911.597564,-36.1328125,12.6953125,66.89453125,-41.9921875,0.0
1734581911.6014698,-3.90625,7.32421875,79.58984375,-1.953125,0.0
1734581911.6053758,0.0,7.8125,77.1484375,18.5546875,0.0
1734581911.6092815,-19.53125,14.16015625,75.1953125,5.37109375,0.0
1734581911.6131876,-54.6875,5.859375,66.89453125,-45.8984375,0.0
1734581911.6170933,-65.4296875,0.0,58.59375,-79.58984375,0.0
1734581911.6209993,-35.64453125,7.32421875,64.94140625,-49.31640625,0.0
1734581911.624905,0.48828125,17.578125,56.640625,-10.25390625,0.0
1734581911.6290264,0.0,18.06640625,50.78125,-17.578125,0.0
1734581911.6329324,0.0,14.16015625,64.94140625,-49.31640625,0.0
1734581911.6368382,0.0,23.92578125,66.40625,-49.8046875,0.0
1734581911.6407442,0.0,36.1328125,54.19921875,-18.5546875,0.0
1734581911.64465,0.0,26.85546875,57.12890625,-3.41796875,0.0
1734581911.6485558,0.0,22.94921875,58.59375,-2.9296875,0.0
1734581911.6524618,0.0,17.08984375,63.4765625,-56.640625,0.0
1734581911.6563675,0.0,9.765625,85.9375,-89.35546875,0.0
1734581911.6602736,0.0,16.6015625,88.8671875,-41.9921875,0.0
1734581911.6641793,0.0,16.6015625,89.35546875,1.953125,0.0
1734581911.6680853,0.0,24.90234375,75.1953125,20.01953125,0.0
1734581911.671991,0.0,33.69140625,74.70703125,2.44140625,0.0
1734581911.6760144,-87.40234375,23.4375,87.890625,-67.87109375,0.0
1734581911.6799202,-56.15234375,19.53125,103.02734375,-59.5703125,0.0
1734581911.6838262,-18.5546875,29.78515625,125.9765625,-2.44140625,0.0
1734581911.687732,-1.953125,30.76171875,125.0,8.30078125,0.0
1734581911.691638,-20.01953125,34.66796875,115.234375,-3.41796875,0.0
1734581911.6955438,-29.78515625,33.69140625,107.91015625,-49.8046875,0.0
1734581911.6994498,-24.90234375,23.4375,106.4453125,-48.33984375,0.0
1734581911.7033556,-18.06640625,29.78515625,117.67578125,-20.99609375,0.0
1734581911.7072616,-41.9921875,21.97265625,120.1171875,-10.7421875,0.0
1734581911.7111673,-66.89453125,10.7421875,116.2109375,-26.3671875,0.0
1734581911.715073,-39.55078125,26.3671875,104.00390625,-53.7109375,0.0
1734581911.7189791,11.71875,52.24609375,83.49609375,-10.25390625,0.0
1734581911.7231956,33.69140625,48.33984375,83.49609375,14.6484375,0.0
1734581911.7271013,19.04296875,29.78515625,113.28125,-29.78515625,0.0
1734581911.7310073,-6.34765625,20.5078125,129.39453125,-50.29296875,0.0
1734581911.734913,-45.8984375,11.71875,106.93359375,-47.8515625,0.0
1734581911.7388191,-38.0859375,21.484375,89.84375,-51.7578125,0.0
1734581911.742725,-10.25390625,33.203125,92.28515625,-27.34375,0.0
1734581911.746631,-41.015625,35.64453125,76.66015625,-4.8828125,0.0
1734581911.7505367,-75.68359375,40.0390625,66.89453125,-10.7421875,0.0
1734581911.7544427,-97.65625,39.55078125,82.51953125,-33.203125,0.0
1734581911.7583485,-94.23828125,31.73828125,99.609375,-57.12890625,0.0
1734581911.7622545,-46.875,36.1328125,98.14453125,-21.484375,0.0
1734581911.7661602,1.953125,47.36328125,49.8046875,16.11328125,0.0
1734581911.7700837,0.0,53.22265625,0.0,0.0,0.0
1734581911.7739894,0.0,26.3671875,0.0,0.0,0.0
1734581911.7778955,0.0,23.4375,0.0,0.0,0.0
1734581911.7818012,0.0,52.24609375,0.0,0.0,0.0
1734581911.7857072,0.0,31.73828125,0.0,0.0,0.0
1734581911.789613,0.0,25.390625,0.0,0.0,0.0
1734581911.7935188,0.0,50.78125,0.0,0.0,0.0
1734581911.7974248,0.0,49.31640625,0.0,0.0,0.0
1734581911.8013306,0.0,33.203125,0.0,0.0,0.0
1734581911.8052366,0.0,31.25,0.0,0.0,0.0
1734581911.8091424,0.0,41.015625,0.0,0.0,0.0
1734581911.8130484,0.0,57.6171875,0.0,0.0,0.0
1734581911.8151567,-28.80859375,53.22265625,87.40234375,19.04296875,0.0
1734581911.8190625,-29.296875,28.3203125,96.6796875,-17.08984375,0.0
1734581911.8229685,-4.8828125,22.4609375,106.93359375,-46.38671875,0.0
1734581911.8268743,-16.6015625,17.578125,111.81640625,5.37109375,0.0
1734581911.83078,-49.8046875,18.5546875,104.98046875,8.7890625,0.0
1734581911.834686,-63.4765625,24.90234375,84.47265625,-14.6484375,0.0
1734581911.8385918,-31.25,33.203125,69.82421875,-22.4609375,0.0
1734581911.8424978,22.4609375,41.50390625,88.8671875,-45.41015625,0.0
1734581911.8464036,17.578125,33.69140625,108.3984375,-34.1796875,0.0
1734581911.8503096,-45.41015625,22.4609375,106.4453125,1.953125,0.0
1734581911.8542154,-72.75390625,23.92578125,112.3046875,21.484375,0.0
1734581911.8581212,-36.1328125,35.64453125,105.95703125,13.18359375,0.0
1734581911.861966,-10.7421875,33.203125,83.984375,20.99609375,0.0
1734581911.8658717,-8.7890625,23.92578125,93.26171875,29.78515625,0.0
1734581911.8697777,-46.38671875,13.18359375,117.67578125,-29.78515625,0.0
1734581911.8736835,-70.3125,5.859375,115.72265625,-76.171875,0.0
1734581911.8775892,-40.52734375,11.23046875,102.5390625,-49.8046875,0.0
1734581911.8814952,-25.87890625,-0.9765625,103.515625,-43.9453125,0.0
1734581911.885401,-31.25,-9.27734375,100.09765625,-5.37109375,0.0
1734581911.889307,-47.8515625,-5.859375,92.28515625,4.39453125,0.0
1734581911.8932128,-58.59375,-7.32421875,87.890625,-81.54296875,0.0
1734581911.8971188,-61.5234375,5.859375,99.12109375,-70.80078125,0.0
1734581911.9010246,-27.34375,22.94921875,108.3984375,-12.20703125,0.0
1734581911.9049304,0.0,17.08984375,106.93359375,6.8359375,0.0
1734581911.9087799,-35.64453125,0.9765625,113.28125,-22.4609375,0.0
1734581911.9126859,-70.80078125,0.48828125,101.07421875,-53.7109375,0.0
1734581911.9165916,-46.38671875,7.8125,81.54296875,-36.62109375,0.0
1734581911.9204977,-19.53125,3.41796875,99.609375,-1.46484375,0.0
1734581911.9244034,-14.16015625,-11.23046875,127.9296875,17.578125,0.0
1734581911.9283092,-46.875,-15.625,128.90625,-15.13671875,0.0
1734581911.9322152,-81.54296875,-5.859375,113.28125,-59.5703125,0.0
1734581911.936121,-47.8515625,7.8125,102.5390625,-61.5234375,0.0
1734581911.940027,2.9296875,3.90625,104.00390625,-30.76171875,0.0
1734581911.9439328,15.13671875,-1.953125,87.40234375,-14.6484375,0.0
1734581911.9478388,-41.015625,-7.32421875,78.61328125,-16.11328125,0.0
1734581911.9517446,-67.87109375,-4.8828125,105.95703125,-28.80859375,0.0
1734581911.955369,-54.6875,4.8828125,109.375,-32.71484375,0.0
1734581911.9592748,-38.57421875,-6.34765625,95.703125,-10.7421875,0.0
1734581911.9631808,-17.578125,-17.08984375,115.234375,-3.90625,0.0
1734581911.9670866,-42.96875,-12.20703125,133.7890625,-8.30078125,0.0
1734581911.9709923,-72.265625,-9.765625,126.46484375,-34.66796875,0.0
1734581911.9748983,-69.3359375,-16.6015625,114.74609375,-64.453125,0.0
1734581911.978804,-19.53125,0.9765625,100.5859375,-36.1328125,0.0
1734581911.9827101,3.90625,19.53125,83.984375,10.25390625,0.0
1734581911.986616,-27.34375,5.859375,97.65625,24.90234375,0.0
1734581911.990522,-74.70703125,-7.8125,121.09375,-43.45703125,0.0
1734581911.9944277,-87.40234375,-12.20703125,124.51171875,-85.44921875,0.0
1734581911.9983335,-60.546875,-11.23046875,114.2578125,-32.2265625,0.0
1734581912.0032227,-33.203125,-6.34765625,100.5859375,-3.41796875,0.0
1734581912.0071287,-17.578125,-8.7890625,108.3984375,-13.671875,0.0
1734581912.0110345,-22.4609375,5.37109375,108.3984375,-27.34375,0.0
1734581912.0149405,-48.828125,20.99609375,87.890625,-25.390625,0.0
1734581912.0188463,-25.390625,1.46484375,87.40234375,-31.73828125,0.0
1734581912.0227523,24.90234375,-10.25390625,112.3046875,-20.99609375,0.0
1734581912.026658,22.94921875,-5.37109375,116.69921875,-16.11328125,0.0
1734581912.030564,-24.90234375,-0.48828125,86.9140625,-39.0625,0.0
1734581912.0344698,-51.26953125,1.46484375,84.9609375,-34.66796875,0.0
1734581912.0383756,-28.80859375,-3.41796875,103.515625,-24.90234375,0.0
1734581912.0422816,-3.90625,-13.18359375,116.69921875,-16.11328125,0.0
1734581912.0461874,-29.296875,-19.53125,122.55859375,-1.953125,0.0
1734581912.0506518,-82.51953125,-19.53125,113.76953125,-24.4140625,0.0
1734581912.0545576,-104.98046875,-17.578125,92.28515625,-51.26953125,0.0
1734581912.0584633,-74.21875,-11.23046875,71.77734375,-69.82421875,0.0
1734581912.0623693,-27.34375,-2.44140625,82.51953125,-22.4609375,0.0
1734581912.0662751,-23.92578125,-17.08984375,101.5625,17.578125,0.0
1734581912.0701811,-41.50390625,-34.66796875,103.515625,-13.18359375,0.0
1734581912.074087,-43.9453125,-15.625,98.14453125,-40.0390625,0.0
1734581912.077993,-39.0625,-1.953125,91.796875,-55.6640625,0.0
1734581912.0818987,-36.1328125,-19.04296875,87.890625,-41.015625,0.0
1734581912.0858047,-30.2734375,-24.4140625,101.07421875,-10.7421875,0.0
1734581912.0897105,-49.31640625,-23.4375,97.65625,-7.32421875,0.0
1734581912.0936162,-57.6171875,-11.71875,73.73046875,-54.19921875,0.0
1734581912.0980124,-29.78515625,-6.34765625,64.453125,-43.45703125,0.0
1734581912.1019185,-22.94921875,-20.01953125,70.80078125,1.953125,0.0
1734581912.1058242,-33.69140625,-23.92578125,64.453125,-18.5546875,0.0
1734581912.1097302,-38.57421875,-24.90234375,60.05859375,-43.45703125,0.0
1734581912.113636,-41.9921875,-22.4609375,62.5,-63.4765625,0.0
1734581912.117542,-50.78125,-25.87890625,50.29296875,-71.2890625,0.0
1734581912.1214478,-37.59765625,-25.87890625,40.0390625,-58.10546875,0.0
1734581912.1253538,-17.08984375,-16.11328125,43.9453125,-7.8125,0.0
1734581912.1292596,-45.41015625,-16.6015625,58.59375,20.5078125,0.0
1734581912.1331656,-52.734375,-19.04296875,52.734375,-12.20703125,0.0
1734581912.1370714,-58.59375,-27.34375,49.31640625,-58.59375,0.0
1734581912.1409771,-44.921875,-31.73828125,59.08203125,-59.5703125,0.0
1734581912.1448872,0.0,-17.08984375,47.8515625,-20.99609375,0.0
1734581912.1487932,0.0,-8.7890625,55.17578125,-23.92578125,0.0
1734581912.152699,0.0,-12.6953125,85.44921875,-35.15625,0.0
1734581912.156605,0.0,-20.01953125,89.84375,-41.015625,0.0
1734581912.1605108,0.0,-29.78515625,83.984375,-47.36328125,0.0
1734581912.1644168,0.0,-31.73828125,82.03125,-23.92578125,0.0
1734581912.1683226,0.0,-21.484375,82.03125,-13.671875,0.0
1734581912.1722283,0.0,-14.6484375,79.58984375,-40.0390625,0.0
1734581912.1761343,0.0,-16.6015625,70.3125,-51.7578125,0.0
1734581912.1800401,0.0,-19.04296875,70.3125,-30.76171875,0.0
1734581912.1839461,0.0,-26.85546875,71.2890625,-1.953125,0.0
1734581912.187852,0.0,-29.296875,76.66015625,-23.4375,0.0
1734581912.189996,4.39453125,-25.87890625,0.0,-73.73046875,0.0
1734581912.1939018,-10.25390625,-26.3671875,0.0,-98.14453125,0.0
1734581912.1978078,-41.50390625,-27.34375,0.0,-50.29296875,0.0
1734581912.2017136,-43.45703125,-27.83203125,0.0,-3.90625,0.0
1734581912.2056196,-31.25,-28.3203125,0.0,-7.32421875,0.0
1734581912.2095253,-15.625,-24.4140625,0.0,-16.11328125,0.0
1734581912.2134314,-2.9296875,-20.5078125,0.0,-14.6484375,0.0
1734581912.2173371,-22.94921875,-26.3671875,0.0,-33.69140625,0.0
1734581912.221243,-43.9453125,-38.57421875,0.0,-39.55078125,0.0
1734581912.225149,-30.2734375,-41.50390625,0.0,-8.30078125,0.0
1734581912.2290547,-17.08984375,-36.1328125,0.0,-2.44140625,0.0
1734581912.2329607,-23.92578125,-34.1796875,0.0,-53.7109375,0.0
1734581912.2368226,-62.01171875,-31.25,83.0078125,-69.82421875,0.0
1734581912.2407284,-19.53125,-28.80859375,71.2890625,-33.203125,0.0
1734581912.2446344,-16.6015625,-27.83203125,51.26953125,9.27734375,0.0
1734581912.2485402,-55.17578125,-24.4140625,32.71484375,-0.48828125,0.0
1734581912.2524462,-66.89453125,-34.1796875,48.33984375,-62.98828125,0.0
1734581912.256352,-60.05859375,-47.36328125,62.5,-78.125,0.0
1734581912.2602577,-41.015625,-49.31640625,66.40625,-53.7109375,0.0
1734581912.2641637,-19.04296875,-43.9453125,70.80078125,-14.6484375,0.0
1734581912.2680695,-28.80859375,-44.43359375,70.80078125,-7.32421875,0.0
1734581912.2719755,-65.91796875,-44.921875,70.3125,-29.78515625,0.0
1734581912.2758813,-86.42578125,-42.96875,74.21875,-74.70703125,0.0
1734581912.2797873,-29.78515625,-44.43359375,79.58984375,-71.77734375,0.0
1734581912.285088,-3.41796875,-44.43359375,74.70703125,-32.71484375,0.0
1734581912.288994,7.8125,-35.15625,67.3828125,-29.296875,0.0
1734581912.2928998,-19.53125,-34.66796875,69.82421875,-34.1796875,0.0
1734581912.2968059,-62.5,-44.43359375,68.359375,-57.6171875,0.0
1734581912.3007116,-40.52734375,-50.78125,60.05859375,-41.50390625,0.0
1734581912.3046176,-4.8828125,-53.7109375,58.10546875,1.953125,0.0
1734581912.3085234,-13.18359375,-49.31640625,73.73046875,-15.625,0.0
1734581912.3124292,-53.22265625,-41.015625,95.21484375,-52.24609375,0.0
1734581912.3163352,-37.59765625,-39.0625,107.91015625,-58.10546875,0.0
1734581912.320241,2.44140625,-42.48046875,111.328125,-38.57421875,0.0
1734581912.324147,9.765625,-45.41015625,99.12109375,-5.859375,0.0
1734581912.3280528,8.7890625,-37.109375,103.515625,9.27734375,0.0
1734581912.332282,-19.53125,-41.015625,114.74609375,-36.62109375,0.0
1734581912.336188,-50.78125,-54.19921875,115.234375,-69.82421875,0.0
1734581912.3400939,-25.390625,-59.08203125,126.46484375,-21.484375,0.0
1734581912.3439999,7.32421875,-58.10546875,119.62890625,-17.08984375,0.0
1734581912.3479056,-5.37109375,-46.38671875,100.5859375,-42.48046875,0.0
1734581912.3518116,-42.96875,-40.52734375,104.98046875,-31.25,0.0
1734581912.3557174,-52.24609375,-44.921875,108.3984375,-65.91796875,0.0
1734581912.3596234,-27.83203125,-56.15234375,112.3046875,-78.61328125,0.0
1734581912.3635292,-7.32421875,-66.89453125,115.72265625,-33.203125,0.0
1734581912.3674352,-13.671875,-63.96484375,105.95703125,-9.27734375,0.0
1734581912.371341,-41.015625,-53.7109375,93.75,-45.8984375,0.0
1734581912.3752468,-71.77734375,-49.8046875,82.51953125,-88.37890625,0.0
1734581912.379483,0.0,-45.8984375,0.0,-68.359375,0.0
1734581912.3833888,0.0,-48.33984375,0.0,-20.5078125,0.0
1734581912.3872948,0.0,-45.41015625,0.0,-6.8359375,0.0
1734581912.3912005,0.0,-42.48046875,0.0,-40.52734375,0.0
1734581912.3951066,0.0,-51.26953125,0.0,-50.29296875,0.0
1734581912.3990123,0.0,-55.17578125,0.0,-52.24609375,0.0
1734581912.4029183,0.0,-48.828125,0.0,-32.71484375,0.0
1734581912.406824,0.0,-39.55078125,0.0,0.0,0.0
1734581912.4107301,0.0,-44.921875,0.0,-22.4609375,0.0
1734581912.414636,0.0,-53.22265625,0.0,-70.80078125,0.0
1734581912.418542,0.0,-55.17578125,0.0,-77.1484375,0.0
1734581912.4224477,0.0,-62.01171875,0.0,-69.82421875,0.0
1734581912.4264688,-50.78125,-58.59375,62.5,-75.68359375,0.0
1734581912.4303746,-82.51953125,-49.31640625,55.6640625,-55.17578125,0.0
1734581912.4342806,-90.8203125,-47.8515625,54.6875,-88.37890625,0.0
1734581912.4381864,-95.703125,-38.0859375,62.98828125,-129.8828125,0.0
1734581912.4420924,-103.02734375,-24.4140625,58.59375,-120.1171875,0.0
1734581912.4459982,-113.76953125,-36.1328125,51.26953125,-138.18359375,0.0
1734581912.4499042,-160.64453125,-46.875,62.5,-145.5078125,0.0
1734581912.45381,-233.88671875,-39.0625,88.37890625,-188.96484375,0.0
1734581912.457716,-259.27734375,-32.71484375,97.65625,-229.98046875,0.0
1734581912.4616218,-250.48828125,-26.85546875,104.4921875,-182.12890625,0.0
1734581912.4655275,-233.3984375,-29.296875,119.62890625,-175.78125,0.0
1734581912.4694335,-229.98046875,-28.3203125,118.1640625,-193.359375,0.0
1734581912.473362,-234.86328125,-21.484375,113.76953125,-182.6171875,0.0
1734581912.477268,-235.83984375,-26.3671875,122.0703125,-212.40234375,0.0
1734581912.4811738,-218.26171875,-29.296875,125.9765625,-186.03515625,0.0
1734581912.4850795,-203.125,-35.64453125,121.58203125,-141.11328125,0.0
1734581912.4889855,-199.21875,-35.15625,104.4921875,-138.18359375,0.0
1734581912.4928913,-172.36328125,-26.3671875,91.30859375,-148.4375,0.0
1734581912.4967973,-178.7109375,-45.41015625,116.2109375,-139.6484375,0.0
1734581912.500703,-191.40625,-76.171875,131.34765625,-109.86328125,0.0
1734581912.504609,-153.3203125,-75.68359375,122.55859375,-51.7578125,0.0
1734581912.508515,-124.51171875,-65.4296875,116.69921875,-14.16015625,0.0
1734581912.512421,-135.7421875,-70.80078125,92.28515625,-43.9453125,0.0
1734581912.5163267,-111.328125,-80.56640625,78.61328125,-55.17578125,0.0
1734581912.5206788,0.0,-83.49609375,87.890625,-5.859375,0.0
1734581912.5245845,0.0,-78.125,82.03125,39.0625,0.0
1734581912.5284905,0.0,-69.82421875,68.84765625,77.1484375,0.0
1734581912.5323963,0.0,-68.359375,57.12890625,54.19921875,0.0
1734581912.5363023,0.0,-72.265625,49.8046875,10.7421875,0.0
1734581912.540208,0.0,-73.2421875,47.8515625,47.8515625,0.0
1734581912.544114,0.0,-72.265625,51.7578125,82.03125,0.0
1734581912.54802,0.0,-68.84765625,45.41015625,94.7265625,0.0
1734581912.5519257,0.0,-62.01171875,37.109375,99.609375,0.0
1734581912.5558317,0.0,-59.5703125,31.25,75.68359375,0.0
1734581912.5597374,0.0,-62.01171875,23.92578125,51.7578125,0.0
1734581912.5636435,0.0,-58.10546875,26.3671875,101.5625,0.0
1734581912.5661807,-60.05859375,-50.78125,0.0,132.8125,0.0
1734581912.5700865,-28.3203125,-46.38671875,0.0,123.53515625,0.0
1734581912.5739925,27.34375,-53.7109375,0.0,73.73046875,0.0
1734581912.5778983,1.953125,-57.6171875,0.0,39.55078125,0.0
1734581912.5818043,-51.26953125,-56.640625,0.0,89.84375,0.0
1734581912.58571,-14.16015625,-62.5,0.0,106.93359375,0.0
1734581912.5896158,59.5703125,-70.3125,0.0,86.42578125,0.0
1734581912.5935218,69.3359375,-70.3125,0.0,56.640625,0.0
1734581912.5974276,49.8046875,-63.4765625,0.0,32.2265625,0.0
1734581912.6013336,60.05859375,-61.5234375,0.0,74.21875,0.0
1734581912.6052394,72.75390625,-57.12890625,0.0,112.3046875,0.0
1734581912.6091454,107.421875,-53.7109375,0.0,91.30859375,0.0
1734581912.6128495,9.765625,-53.22265625,-6.8359375,41.015625,0.0
1734581912.6167555,1.953125,-51.26953125,-13.671875,3.90625,0.0
1734581912.6206613,41.50390625,-59.08203125,-20.5078125,27.83203125,0.0
1734581912.6245673,58.10546875,-60.05859375,-21.484375,58.59375,0.0
1734581912.628473,53.22265625,-49.8046875,-27.83203125,47.36328125,0.0
1734581912.632379,11.71875,-46.38671875,-43.9453125,20.99609375,0.0
1734581912.6362848,-11.23046875,-50.29296875,-56.15234375,7.8125,0.0
1734581912.6401906,27.83203125,-53.7109375,-30.76171875,36.1328125,0.0
1734581912.6440966,54.19921875,-58.59375,5.859375,64.453125,0.0
1734581912.6480024,20.5078125,-61.5234375,16.11328125,56.15234375,0.0
1734581912.6519084,-4.8828125,-54.19921875,24.4140625,23.4375,0.0
1734581912.6558142,8.30078125,-52.734375,16.6015625,-0.9765625,0.0
1734581912.6596177,22.4609375,-49.31640625,-1.46484375,11.71875,0.0
1734581912.6635234,29.78515625,-41.015625,-11.23046875,16.11328125,0.0
1734581912.6674292,-0.9765625,-48.33984375,-20.01953125,-3.90625,0.0
1734581912.6713352,-46.38671875,-59.08203125,-48.828125,-28.3203125,0.0
1734581912.675241,-41.9921875,-63.4765625,-84.9609375,-37.59765625,0.0
1734581912.679147,-16.11328125,-62.01171875,-90.8203125,-14.16015625,0.0
1734581912.6830528,-1.46484375,-59.08203125,-94.7265625,37.59765625,0.0
1734581912.6869588,-11.23046875,-61.5234375,-96.19140625,25.390625,0.0
1734581912.6908646,-15.13671875,-61.03515625,-93.26171875,-36.1328125,0.0
1734581912.6947706,-31.25,-58.10546875,-86.9140625,-53.7109375,0.0
1734581912.6986763,-38.57421875,-55.6640625,-82.03125,-51.7578125,0.0
1734581912.7025821,0.48828125,-57.6171875,-79.1015625,-4.39453125,0.0
1734581912.7063527,13.18359375,-59.5703125,-78.61328125,34.1796875,0.0
1734581912.7102587,-17.08984375,-62.5,-73.73046875,20.01953125,0.0
1734581912.7141645,-36.62109375,-62.5,-65.91796875,-9.765625,0.0
1734581912.7180703,-25.87890625,-69.3359375,-61.5234375,-6.8359375,0.0
1734581912.7219763,23.92578125,-75.68359375,-57.12890625,19.53125,0.0
1734581912.725882,36.1328125,-52.24609375,-63.4765625,21.97265625,0.0
1734581912.729788,-8.7890625,-37.59765625,-83.984375,-49.8046875,0.0
1734581912.7336938,-40.52734375,-47.36328125,-93.26171875,-122.55859375,0.0
1734581912.7375998,-14.6484375,-55.6640625,-94.7265625,-110.83984375,0.0
1734581912.7415056,58.10546875,-56.640625,-110.3515625,-55.17578125,0.0
1734581912.7454116,82.03125,-45.41015625,-124.51171875,-42.96875,0.0
1734581912.7493174,50.78125,-45.41015625,-130.37109375,-50.78125,0.0
1734581912.7534873,3.41796875,-49.31640625,-146.97265625,-70.3125,0.0
1734581912.7573931,23.92578125,-48.33984375,-169.921875,-80.56640625,0.0
1734581912.761299,50.78125,-45.8984375,-189.453125,-58.59375,0.0
1734581912.765205,67.87109375,-46.875,-201.66015625,-27.83203125,0.0
1734581912.7691107,68.359375,-49.31640625,-221.19140625,-36.1328125,0.0
1734581912.7730167,43.45703125,-46.38671875,-255.859375,-107.91015625,0.0
1734581912.7769225,48.828125,-39.0625,-286.62109375,-130.859375,0.0
1734581912.7808285,101.5625,-40.0390625,-312.5,-90.33203125,0.0
1734581912.7847342,130.37109375,-45.8984375,-339.35546875,-58.59375,0.0
1734581912.7886403,102.05078125,-46.875,-366.2109375,-69.82421875,0.0
1734581912.792546,62.5,-59.5703125,-395.99609375,-109.375,0.0
1734581912.7964518,75.1953125,-60.05859375,-424.8046875,-120.1171875,0.0
1734581912.8004897,133.30078125,-55.6640625,-451.66015625,-69.82421875,0.0
1734581912.8043954,141.11328125,-61.03515625,-468.75,-25.87890625,0.0
1734581912.8083014,95.703125,-60.546875,-473.14453125,-38.0859375,0.0
1734581912.8122072,47.8515625,-58.59375,-487.79296875,-91.30859375,0.0
1734581912.8161132,47.36328125,-61.03515625,-496.58203125,-110.83984375,0.0
1734581912.820019,72.75390625,-59.5703125,-516.6015625,-98.6328125,0.0
1734581912.823925,96.19140625,-62.01171875,-524.90234375,-46.875,0.0
1734581912.8278308,82.51953125,-73.2421875,-504.39453125,-37.109375,0.0
1734581912.8317368,29.296875,-77.63671875,-500.0,-96.19140625,0.0
1734581912.8356426,9.765625,-82.03125,-505.859375,-119.140625,0.0
1734581912.8395486,48.828125,-84.47265625,-493.65234375,-72.265625,0.0
1734581912.8434544,84.47265625,-82.51953125,-481.4453125,-18.5546875,0.0
1734581912.8474212,64.453125,-81.0546875,-477.05078125,-34.1796875,0.0
1734581912.8513272,30.2734375,-80.56640625,-462.890625,-42.96875,0.0
1734581912.855233,-0.9765625,-77.63671875,-444.3359375,-48.828125,0.0
1734581912.859139,-5.37109375,-73.73046875,-434.08203125,-64.453125,0.0
1734581912.8630447,43.9453125,-75.68359375,-429.19921875,-21.484375,0.0
1734581912.8669505,34.66796875,-81.0546875,-419.921875,-14.16015625,0.0
1734581912.8708565,-17.578125,-81.54296875,-410.15625,-37.59765625,0.0
1734581912.8747623,-40.52734375,-83.0078125,-402.83203125,-49.8046875,0.0
1734581912.8786683,-8.7890625,-85.9375,-396.97265625,-20.5078125,0.0
1734581912.882574,19.53125,-82.51953125,-395.5078125,32.2265625,0.0
1734581912.88648,10.25390625,-85.44921875,-396.484375,10.25390625,0.0
1734581912.8903859,8.30078125,-86.42578125,-387.6953125,-44.43359375,0.0
1734581912.894874,-7.8125,-82.51953125,-376.46484375,-65.4296875,0.0
1734581912.8987799,-7.32421875,-76.171875,-374.0234375,-51.7578125,0.0
1734581912.9026856,16.11328125,-67.87109375,-368.65234375,-37.59765625,0.0
1734581912.9065917,13.671875,-65.91796875,-358.88671875,-17.578125,0.0
1734581912.9104974,-14.6484375,-72.75390625,-356.4453125,-33.69140625,0.0
1734581912.9144034,-58.10546875,-70.3125,-351.5625,-39.55078125,0.0
1734581912.9183092,-71.2890625,-62.98828125,-345.703125,-37.59765625,0.0
1734581912.9222152,-53.7109375,-68.359375,-340.8203125,-30.2734375,0.0
1734581912.926121,-36.62109375,-72.265625,-333.0078125,7.8125,0.0
1734581912.930027,-51.26953125,-69.3359375,-330.56640625,-13.18359375,0.0
1734581912.9339328,-61.5234375,-72.75390625,-328.125,-59.5703125,0.0
1734581912.9378388,-38.57421875,-72.265625,-327.63671875,-64.453125,0.0
1734581912.9416108,-19.53125,-70.80078125,-333.49609375,-8.30078125,0.0
1734581912.9455166,-10.25390625,-72.75390625,-335.9375,24.90234375,0.0
1734581912.9494226,-36.1328125,-73.2421875,-335.9375,-27.83203125,0.0
1734581912.9533284,-75.68359375,-66.40625,-342.7734375,-87.890625,0.0
1734581912.9572341,-65.4296875,-63.96484375,-341.30859375,-77.63671875,0.0
1734581912.9611402,-16.6015625,-71.77734375,-333.49609375,-25.390625,0.0
1734581912.965046,3.41796875,-73.2421875,-335.44921875,15.625,0.0
1734581912.968952,-16.11328125,-68.84765625,-337.890625,-12.6953125,0.0
1734581912.9728577,-51.26953125,-71.77734375,-336.42578125,-80.56640625,0.0
1734581912.9767637,-84.9609375,-81.0546875,-332.03125,-94.23828125,0.0
1734581912.9806695,-55.17578125,-82.03125,-326.66015625,-44.921875,0.0
1734581912.9845755,-16.6015625,-77.63671875,-325.1953125,-3.41796875,0.0
1734581912.9883149,-20.01953125,-78.125,-321.2890625,-14.6484375,0.0
1734581912.9922209,-51.26953125,-78.61328125,-313.96484375,-86.9140625,0.0
1734581912.9961267,-66.40625,-79.1015625,-308.10546875,-100.5859375,0.0
1734581913.0000327,-45.41015625,-79.58984375,-301.7578125,-51.26953125,0.0
1734581913.0039384,-1.953125,-81.54296875,-294.921875,-4.8828125,0.0
1734581913.0078442,-13.671875,-82.51953125,-290.0390625,-3.41796875,0.0
1734581913.0117502,-76.66015625,-91.796875,-287.109375,-61.5234375,0.0
1734581913.015656,-60.546875,-99.609375,-294.43359375,-87.890625,0.0
1734581913.019562,-27.83203125,-83.984375,-302.734375,-120.60546875,0.0
1734581913.0234678,-26.3671875,-79.1015625,-298.33984375,-114.2578125,0.0
1734581913.0273738,-20.5078125,-86.9140625,-278.80859375,-62.01171875,0.0
1734581913.0312796,-44.43359375,-93.26171875,-268.5546875,-80.078125,0.0
1734581913.034934,-53.22265625,-96.6796875,-271.97265625,-87.40234375,0.0
1734581913.0388398,-6.8359375,-93.26171875,-276.85546875,-40.52734375,0.0
1734581913.0427458,16.6015625,-95.21484375,-275.87890625,-2.9296875,0.0
1734581913.0466516,18.06640625,-96.19140625,-272.4609375,7.32421875,0.0
1734581913.0505576,2.44140625,-100.09765625,-266.11328125,12.20703125,0.0
1734581913.0544634,-21.97265625,-104.00390625,-265.625,2.9296875,0.0
1734581913.0583692,-14.6484375,-97.16796875,-264.6484375,19.04296875,0.0
1734581913.0622752,24.90234375,-90.8203125,-266.11328125,41.015625,0.0
1734581913.066181,27.34375,-90.8203125,-268.06640625,51.26953125,0.0
1734581913.070087,-17.578125,-94.7265625,-260.7421875,9.27734375,0.0
1734581913.0739927,-42.96875,-93.26171875,-257.32421875,-46.875,0.0
1734581913.0778987,-54.19921875,-90.33203125,-249.51171875,-27.83203125,0.0
1734581913.081496,-23.92578125,-83.984375,-240.234375,13.18359375,0.0
1734581913.0854018,-14.16015625,-88.8671875,-237.3046875,15.13671875,0.0
1734581913.0893075,-49.8046875,-96.6796875,-239.2578125,-7.8125,0.0
1734581913.0932136,-68.359375,-89.84375,-238.28125,-57.12890625,0.0
1734581913.0971193,-67.3828125,-87.890625,-228.515625,-68.359375,0.0
1734581913.1010253,-46.875,-92.28515625,-218.75,-29.78515625,0.0
1734581913.104931,-34.66796875,-85.44921875,-208.984375,1.953125,0.0
1734581913.1088371,-53.22265625,-78.125,-204.58984375,-26.3671875,0.0
1734581913.112743,-57.6171875,-82.51953125,-199.21875,-51.7578125,0.0
1734581913.116649,-56.15234375,-93.75,-189.94140625,-54.6875,0.0
1734581913.1205547,-39.55078125,-94.23828125,-186.5234375,-24.4140625,0.0
1734581913.1244605,-16.6015625,-84.9609375,-178.22265625,42.48046875,0.0
1734581913.1296315,-28.3203125,-83.984375,-173.828125,16.11328125,0.0
1734581913.1335373,-30.2734375,-84.47265625,-169.921875,-2.9296875,0.0
1734581913.1374433,-29.78515625,-77.1484375,-167.96875,9.27734375,0.0
1734581913.141349,-29.296875,-71.2890625,-171.38671875,16.6015625,0.0
1734581913.145255,8.7890625,-76.66015625,-168.9453125,34.66796875,0.0
1734581913.1491609,8.30078125,-81.54296875,-168.9453125,32.2265625,0.0
1734581913.1530669,-29.78515625,-78.61328125,-166.015625,9.27734375,0.0
1734581913.1569726,-29.296875,-73.2421875,-157.71484375,-2.44140625,0.0
1734581913.1608787,-34.1796875,-75.68359375,-152.83203125,33.69140625,0.0
1734581913.1647844,-42.48046875,-82.03125,-154.78515625,59.5703125,0.0
1734581913.1686904,-33.203125,-88.8671875,-155.2734375,62.98828125,0.0
1734581913.1725962,-16.11328125,-87.40234375,-156.25,48.828125,0.0
1734581913.1767924,-43.9453125,-68.359375,-163.0859375,22.4609375,0.0
1734581913.1806984,-44.43359375,-59.08203125,-166.015625,5.37109375,0.0
1734581913.1846042,0.0,-65.4296875,-164.55078125,-1.46484375,0.0
1734581913.1885102,-6.8359375,-66.89453125,-169.921875,-4.39453125,0.0
1734581913.192416,-24.4140625,-68.359375,-177.24609375,-27.34375,0.0
1734581913.196322,-51.26953125,-76.66015625,-170.41015625,-18.06640625,0.0
1734581913.2002277,-75.1953125,-81.0546875,-169.921875,-4.8828125,0.0
1734581913.2041337,-34.66796875,-79.58984375,-178.7109375,-8.30078125,0.0
1734581913.2080395,-24.90234375,-73.2421875,-176.7578125,3.90625,0.0
1734581913.2119455,-33.69140625,-69.82421875,-172.8515625,-12.20703125,0.0
1734581913.2158513,-16.6015625,-71.77734375,-161.62109375,-12.6953125,0.0
1734581913.2197573,-9.27734375,-77.1484375,-153.80859375,4.8828125,0.0
1734581913.2236571,9.27734375,-72.265625,-150.87890625,18.5546875,0.0
1734581913.227563,11.71875,-61.5234375,-141.11328125,37.59765625,0.0
1734581913.231469,-3.90625,-58.10546875,-135.25390625,0.9765625,0.0
1734581913.2353747,-17.08984375,-63.96484375,-133.7890625,-39.55078125,0.0
1734581913.2392807,-10.7421875,-66.40625,-130.859375,-30.2734375,0.0
1734581913.2431865,-14.16015625,-67.87109375,-124.51171875,-6.8359375,0.0
1734581913.2470925,-31.73828125,-72.75390625,-119.140625,4.8828125,0.0
1734581913.2509983,-51.7578125,-67.87109375,-115.234375,13.671875,0.0
1734581913.2549043,-66.40625,-61.5234375,-118.1640625,0.48828125,0.0
1734581913.25881,-81.54296875,-65.4296875,-125.9765625,-18.5546875,0.0
1734581913.262716,-71.77734375,-78.61328125,-117.67578125,-25.87890625,0.0
1734581913.2666218,-41.9921875,-80.56640625,-104.00390625,-16.11328125,0.0
1734581913.2704883,-43.45703125,-72.75390625,-108.88671875,24.90234375,0.0
1734581913.2743943,-43.45703125,-69.3359375,-112.3046875,6.8359375,0.0
1734581913.2783,-25.87890625,-66.40625,-107.91015625,-8.30078125,0.0
1734581913.2822058,-14.16015625,-72.265625,-103.515625,2.44140625,0.0
1734581913.2861118,-6.8359375,-71.77734375,-94.23828125,6.8359375,0.0
1734581913.2900176,-23.92578125,-70.3125,-92.28515625,8.30078125,0.0
1734581913.2939236,-30.2734375,-69.82421875,-90.33203125,-22.94921875,0.0
1734581913.2978294,-37.59765625,-65.4296875,-92.7734375,-25.87890625,0.0
1734581913.3017354,-20.5078125,-60.546875,-105.46875,4.39453125,0.0
1734581913.3056412,8.30078125,-64.453125,-106.4453125,1.953125,0.0
1734581913.3095472,-15.625,-84.47265625,-100.5859375,-17.578125,0.0
1734581913.313453,-23.92578125,-96.19140625,-91.796875,-43.45703125,0.0
1734581913.3179734,-30.76171875,-100.09765625,-94.7265625,-48.33984375,0.0
1734581913.3218794,-49.8046875,-106.93359375,-98.14453125,-20.5078125,0.0
1734581913.3257852,-44.43359375,-93.75,-84.9609375,20.99609375,0.0
1734581913.3296912,-42.96875,-81.54296875,-90.33203125,10.25390625,0.0
1734581913.333597,-63.96484375,-83.49609375,-101.07421875,-44.43359375,0.0
1734581913.337503,-70.80078125,-72.75390625,-89.35546875,-34.66796875,0.0
1734581913.3414087,-78.61328125,-69.82421875,-87.40234375,-15.13671875,0.0
1734581913.3453147,-64.94140625,-71.2890625,-78.125,-8.7890625,0.0
1734581913.3492205,-44.43359375,-69.82421875,-57.12890625,-17.08984375,0.0
1734581913.3531265,-41.50390625,-75.1953125,-59.08203125,-43.45703125,0.0
1734581913.3570323,-54.19921875,-75.68359375,-67.3828125,-46.875,0.0
1734581913.3609383,-58.10546875,-82.03125,-68.359375,-37.59765625,0.0
1734581913.3649802,-49.8046875,-91.796875,-65.91796875,-28.3203125,0.0
1734581913.3688862,-53.22265625,-88.8671875,-63.96484375,-21.97265625,0.0
1734581913.372792,-51.7578125,-77.1484375,-60.05859375,-7.8125,0.0
1734581913.376698,-40.52734375,-79.1015625,-75.1953125,2.44140625,0.0
1734581913.3806038,10.7421875,-60.05859375,-103.515625,46.38671875,0.0
1734581913.3845098,-5.859375,-44.921875,-106.93359375,19.04296875,0.0
1734581913.3884156,-100.09765625,-75.1953125,-81.0546875,-88.37890625,0.0
1734581913.3923216,-122.55859375,-88.37890625,-62.5,-113.76953125,0.0
1734581913.3962274,-104.98046875,-80.078125,-62.01171875,-116.69921875,0.0
1734581913.4001334,-110.83984375,-74.70703125,-68.84765625,-143.5546875,0.0
1734581913.4040391,-150.87890625,-75.1953125,-79.1015625,-150.87890625,0.0
1734581913.4079452,-184.08203125,-73.2421875,-96.6796875,-131.34765625,0.0
1734581913.4115684,-204.1015625,-70.80078125,-107.421875,-187.98828125,0.0
1734581913.4154744,-210.44921875,-66.89453125,-115.72265625,-237.3046875,0.0
1734581913.4193802,-209.47265625,-60.546875,-120.60546875,-221.19140625,0.0
1734581913.4232862,-219.23828125,-70.80078125,-119.62890625,-208.49609375,0.0
1734581913.427192,-174.8046875,-61.5234375,-115.72265625,-192.3828125,0.0
1734581913.431098,-147.4609375,-64.94140625,-112.79296875,-179.6875,0.0
1734581913.4350038,-154.296875,-94.23828125,-108.3984375,-173.33984375,0.0
1734581913.4389098,-157.71484375,-95.703125,-102.05078125,-162.109375,0.0
1734581913.4428155,-154.296875,-86.42578125,-99.12109375,-108.88671875,0.0
1734581913.4467216,-132.32421875,-89.84375,-94.7265625,-98.6328125,0.0
1734581913.4506273,-137.20703125,-89.84375,-91.30859375,-99.609375,0.0
1734581913.4545333,-150.390625,-90.33203125,-89.84375,-94.23828125,0.0
1734581913.458483,-120.60546875,-87.890625,-94.7265625,-98.6328125,0.0
1734581913.4623888,-73.73046875,-83.984375,-98.6328125,-63.4765625,0.0
1734581913.4662948,-58.59375,-90.33203125,-98.6328125,-24.4140625,0.0
1734581913.4702005,-77.63671875,-89.84375,-93.75,-15.625,0.0
1734581913.4741066,-98.14453125,-80.56640625,-93.26171875,-22.4609375,0.0
1734581913.4780123,-81.0546875,-71.2890625,-94.23828125,-12.20703125,0.0
1734581913.4819183,-26.85546875,-74.21875,-83.49609375,-8.30078125,0.0
1734581913.485824,-38.57421875,-83.49609375,-70.80078125,-37.59765625,0.0
1734581913.4897301,-57.6171875,-82.03125,-58.59375,-55.6640625,0.0
1734581913.493636,-58.10546875,-82.03125,-55.17578125,-39.55078125,0.0
1734581913.497542,-35.15625,-81.0546875,-60.05859375,-13.671875,0.0
1734581913.5014477,-20.5078125,-80.078125,-58.59375,-4.8828125,0.0
1734581913.50549,-53.7109375,-84.9609375,-57.6171875,-24.90234375,0.0
1734581913.5093958,-24.90234375,-83.984375,-50.29296875,-34.66796875,0.0
1734581913.5133018,-9.765625,-80.078125,-47.8515625,-29.78515625,0.0
1734581913.5172076,-42.48046875,-73.73046875,-62.98828125,-24.4140625,0.0
1734581913.5211136,-42.48046875,-75.1953125,-80.078125,-29.78515625,0.0
1734581913.5250194,-21.484375,-85.9375,-83.0078125,-11.71875,0.0
1734581913.5289252,-12.6953125,-92.7734375,-65.4296875,7.32421875,0.0
1734581913.5328312,-10.25390625,-88.8671875,-38.0859375,-3.90625,0.0
1734581913.536737,-32.71484375,-87.890625,-29.296875,-9.27734375,0.0
1734581913.540643,-58.59375,-90.8203125,-22.94921875,0.48828125,0.0
1734581913.5445487,-46.875,-83.49609375,-8.7890625,29.78515625,0.0
1734581913.5484548,-43.9453125,-80.56640625,-12.20703125,21.97265625,0.0
1734581913.5525055,0.0,-84.47265625,-13.18359375,11.71875,0.0
1734581913.5564113,0.0,-82.03125,-5.859375,-32.71484375,0.0
1734581913.5603173,0.0,-77.63671875,-13.671875,-41.9921875,0.0
1734581913.564223,0.0,-77.1484375,-17.08984375,16.11328125,0.0
1734581913.568129,0.0,-82.51953125,-13.18359375,9.27734375,0.0
1734581913.5720348,0.0,-82.03125,-19.53125,-11.71875,0.0
1734581913.5759408,0.0,-69.3359375,-35.15625,22.94921875,0.0
1734581913.5798466,0.0,-62.98828125,-48.33984375,20.01953125,0.0
1734581913.5837526,0.0,-72.75390625,-41.9921875,8.7890625,0.0
1734581913.5876584,0.0,-87.40234375,-29.78515625,27.83203125,0.0
1734581913.5915644,0.0,-98.6328125,-8.7890625,46.875,0.0
1734581913.5954702,0.0,-84.47265625,-0.48828125,-0.9765625,0.0
