timestamps,TP9,AF7,AF8,TP10,Right AUX
1734581355.0027468,1.953125,-32.2265625,-36.62109375,-46.38671875,0.0
1734581355.0066524,-8.7890625,-33.203125,-39.0625,-5.37109375,0.0
1734581355.0105577,-29.78515625,-33.203125,-39.0625,3.41796875,0.0
1734581355.0144632,-28.3203125,-30.76171875,-43.9453125,-24.4140625,0.0
1734581355.0183687,-26.3671875,-31.73828125,-46.38671875,-50.78125,0.0
1734581355.022274,-15.625,-34.66796875,-48.33984375,-62.01171875,0.0
1734581355.0261796,-23.92578125,-36.1328125,-49.8046875,-32.71484375,0.0
1734581355.0300848,-39.0625,-33.69140625,-44.43359375,-10.7421875,0.0
1734581355.0339904,-34.1796875,-30.2734375,-40.0390625,-22.4609375,0.0
1734581355.037896,-18.5546875,-30.2734375,-40.0390625,-57.6171875,0.0
1734581355.0418012,1.953125,-27.83203125,-37.109375,-68.84765625,0.0
1734581355.045767,3.90625,-27.83203125,-33.69140625,-22.94921875,0.0
1734581355.0496726,-28.80859375,-32.2265625,-32.71484375,-7.8125,0.0
1734581355.0535781,-41.9921875,-33.69140625,-35.15625,-11.71875,0.0
1734581355.0574834,-18.5546875,-32.71484375,-36.1328125,-17.08984375,0.0
1734581355.061389,-3.41796875,-24.4140625,-34.66796875,-45.8984375,0.0
1734581355.0652945,-27.83203125,-20.99609375,-44.43359375,-45.41015625,0.0
1734581355.0691998,-42.48046875,-22.4609375,-45.8984375,-14.6484375,0.0
1734581355.0731053,-44.921875,-21.484375,-41.9921875,-18.06640625,0.0
1734581355.0770106,-37.109375,-21.97265625,-42.96875,-62.01171875,0.0
1734581355.0809162,-1.46484375,-20.99609375,-44.921875,-68.359375,0.0
1734581355.0848217,-3.90625,-15.13671875,-48.828125,-24.90234375,0.0
1734581355.088727,-25.87890625,-14.6484375,-47.36328125,-12.6953125,0.0
1734581355.092783,-29.78515625,-20.01953125,-47.8515625,-19.04296875,0.0
1734581355.0966885,-20.01953125,-17.08984375,-50.29296875,-29.296875,0.0
1734581355.1005938,-12.6953125,-15.625,-49.8046875,-72.265625,0.0
1734581355.1044993,-8.30078125,-16.11328125,-48.828125,-47.8515625,0.0
1734581355.1084049,-6.8359375,-19.53125,-47.8515625,-11.71875,0.0
1734581355.1123102,-19.53125,-22.4609375,-53.22265625,-26.85546875,0.0
1734581355.1162157,-16.6015625,-17.08984375,-53.22265625,-45.41015625,0.0
1734581355.1201212,6.8359375,-12.6953125,-49.31640625,-71.77734375,0.0
1734581355.1240265,6.34765625,-20.01953125,-54.6875,-50.29296875,0.0
1734581355.127932,-7.8125,-22.4609375,-51.26953125,-5.37109375,0.0
1734581355.1318374,-4.39453125,-17.578125,-46.875,-15.13671875,0.0
1734581355.135743,-8.30078125,-23.4375,-46.875,-43.9453125,0.0
1734581355.1396763,-10.25390625,-26.3671875,-50.78125,-67.3828125,0.0
1734581355.1435819,-10.25390625,-25.390625,-54.19921875,-59.08203125,0.0
1734581355.1474872,-25.390625,-28.80859375,-51.26953125,-23.4375,0.0
1734581355.1513927,-33.203125,-33.69140625,-50.78125,-19.53125,0.0
1734581355.1552982,-32.71484375,-33.203125,-48.33984375,-39.0625,0.0
1734581355.1592035,-17.578125,-26.85546875,-42.48046875,-66.40625,0.0
1734581355.163109,-9.765625,-25.390625,-39.0625,-50.29296875,0.0
1734581355.1670146,-17.08984375,-28.80859375,-40.52734375,-5.37109375,0.0
1734581355.17092,-26.85546875,-29.296875,-43.45703125,1.953125,0.0
1734581355.1748254,-33.69140625,-25.390625,-39.55078125,-17.08984375,0.0
1734581355.178731,-21.484375,-21.484375,-32.2265625,-48.828125,0.0
1734581355.1826363,-8.30078125,-22.94921875,-32.71484375,-37.109375,0.0
1734581355.1865666,-25.87890625,-26.85546875,-34.66796875,15.13671875,0.0
1734581355.1904721,-43.45703125,-26.3671875,-36.62109375,28.3203125,0.0
1734581355.1943774,-33.203125,-25.390625,-34.1796875,12.6953125,0.0
1734581355.198283,-20.01953125,-29.78515625,-34.66796875,-24.4140625,0.0
1734581355.2021885,-14.16015625,-32.71484375,-37.59765625,-44.43359375,0.0
1734581355.2060938,-23.92578125,-31.25,-35.15625,-3.41796875,0.0
1734581355.2099993,-49.8046875,-32.2265625,-37.59765625,18.06640625,0.0
1734581355.2139049,-52.24609375,-31.73828125,-40.52734375,10.25390625,0.0
1734581355.2178102,-32.2265625,-29.296875,-37.109375,-21.484375,0.0
1734581355.2217157,-9.765625,-27.34375,-29.296875,-46.875,0.0
1734581355.2256212,-20.01953125,-29.78515625,-28.80859375,-8.30078125,0.0
1734581355.2295265,-50.29296875,-37.109375,-30.2734375,17.08984375,0.0
1734581355.2334397,0.0,-36.1328125,-30.76171875,9.27734375,0.0
1734581355.237345,0.0,-32.2265625,-31.25,-12.6953125,0.0
1734581355.2412505,0.0,-32.71484375,-30.76171875,-33.69140625,0.0
1734581355.245156,0.0,-27.83203125,-35.64453125,-11.71875,0.0
1734581355.2490613,0.0,-22.94921875,-41.9921875,-4.39453125,0.0
1734581355.252967,0.0,-24.4140625,-43.9453125,-14.6484375,0.0
1734581355.2568724,0.0,-27.34375,-43.45703125,-24.4140625,0.0
1734581355.2607777,0.0,-32.71484375,-43.45703125,-47.8515625,0.0
1734581355.2646832,0.0,-30.2734375,-40.0390625,-19.53125,0.0
1734581355.2685885,0.0,-29.78515625,-39.55078125,6.8359375,0.0
1734581355.272494,0.0,-34.1796875,-42.96875,-8.7890625,0.0
1734581355.2763996,0.0,-31.25,-41.50390625,-30.2734375,0.0
1734581355.2802892,-21.97265625,-28.80859375,-39.55078125,-43.45703125,0.0
1734581355.2841947,-11.71875,-22.94921875,-39.55078125,-35.15625,0.0
1734581355.2881,-18.5546875,-26.85546875,-39.55078125,-15.13671875,0.0
1734581355.2920055,-19.53125,-30.76171875,-37.59765625,-8.30078125,0.0
1734581355.2959108,-20.5078125,-24.4140625,-37.59765625,-29.296875,0.0
1734581355.2998164,-8.7890625,-25.87890625,-39.0625,-58.59375,0.0
1734581355.303722,5.859375,-28.3203125,-32.2265625,-29.78515625,0.0
1734581355.3076272,-23.4375,-31.25,-27.83203125,26.85546875,0.0
1734581355.3115327,-44.921875,-28.80859375,-35.15625,26.3671875,0.0
1734581355.3154383,-41.9921875,-26.3671875,-36.62109375,-9.765625,0.0
1734581355.3193436,-36.62109375,-32.2265625,-37.109375,-52.734375,0.0
1734581355.323249,-22.4609375,-33.69140625,-36.62109375,-44.43359375,0.0
1734581355.3271284,0.0,-33.203125,-30.76171875,0.0,0.0
1734581355.331034,0.0,-33.69140625,-30.76171875,4.8828125,0.0
1734581355.3349395,0.0,-30.76171875,-29.296875,-20.01953125,0.0
1734581355.3388448,0.0,-29.78515625,-29.78515625,-50.29296875,0.0
1734581355.3427503,0.0,-33.69140625,-30.2734375,-46.38671875,0.0
1734581355.3466556,0.0,-35.15625,-30.2734375,-2.44140625,0.0
1734581355.3505611,0.0,-32.2265625,-31.25,17.08984375,0.0
1734581355.3544667,0.0,-30.76171875,-30.76171875,-3.41796875,0.0
1734581355.358372,0.0,-30.76171875,-30.2734375,-38.0859375,0.0
1734581355.3622775,0.0,-27.83203125,-28.80859375,-46.38671875,0.0
1734581355.366183,0.0,-26.3671875,-26.3671875,-3.41796875,0.0
1734581355.3700883,0.0,-32.2265625,-24.90234375,14.6484375,0.0
1734581355.3739436,-39.0625,-32.71484375,-23.4375,0.9765625,0.0
1734581355.377849,-31.25,-30.76171875,-22.94921875,-34.66796875,0.0
1734581355.3817544,-31.73828125,-31.25,-22.94921875,-59.08203125,0.0
1734581355.38566,-26.3671875,-29.78515625,-25.390625,-11.71875,0.0
1734581355.3895655,-25.87890625,-27.34375,-30.76171875,14.16015625,0.0
1734581355.3934708,-41.9921875,-26.3671875,-31.73828125,-25.87890625,0.0
1734581355.3973763,-25.390625,-20.01953125,-27.83203125,-60.05859375,0.0
1734581355.4012818,2.44140625,-19.04296875,-27.34375,-54.6875,0.0
1734581355.4051871,0.0,-20.99609375,-29.296875,-15.625,0.0
1734581355.4090927,-28.3203125,-23.92578125,-31.25,12.6953125,0.0
1734581355.412998,-54.6875,-24.90234375,-32.71484375,-5.37109375,0.0
1734581355.4169035,-42.48046875,-25.390625,-33.69140625,-38.57421875,0.0
1734581355.4208643,-14.16015625,-26.3671875,-32.71484375,-53.22265625,0.0
1734581355.4247696,-19.04296875,-23.92578125,-32.71484375,-32.71484375,0.0
1734581355.4286752,-33.69140625,-26.85546875,-35.64453125,-1.953125,0.0
1734581355.4325807,-28.80859375,-23.92578125,-37.59765625,-1.46484375,0.0
1734581355.436486,-23.4375,-19.53125,-37.59765625,-31.25,0.0
1734581355.4403915,0.9765625,-20.99609375,-34.1796875,-41.50390625,0.0
1734581355.4442968,14.6484375,-23.4375,-30.2734375,-11.23046875,0.0
1734581355.4482024,-0.48828125,-26.85546875,-29.296875,1.953125,0.0
1734581355.452108,-24.4140625,-25.87890625,-32.2265625,-2.44140625,0.0
1734581355.4560132,-31.25,-26.3671875,-31.25,-23.4375,0.0
1734581355.4599187,-12.6953125,-28.3203125,-28.3203125,-57.12890625,0.0
1734581355.4638243,-7.8125,-27.34375,-30.2734375,-41.015625,0.0
1734581355.4677663,-24.4140625,-29.78515625,-31.73828125,3.41796875,0.0
1734581355.4716718,-48.33984375,-31.73828125,-34.66796875,11.23046875,0.0
1734581355.475577,-41.9921875,-27.34375,-34.66796875,-23.4375,0.0
1734581355.4794827,-18.5546875,-25.87890625,-32.2265625,-61.03515625,0.0
1734581355.4833882,-8.7890625,-27.34375,-34.66796875,-45.8984375,0.0
1734581355.4872935,-4.39453125,-24.4140625,-30.76171875,-0.48828125,0.0
1734581355.491199,-12.6953125,-26.3671875,-28.3203125,7.32421875,0.0
1734581355.4951046,-21.484375,-27.83203125,-30.76171875,-26.3671875,0.0
1734581355.4990098,-18.5546875,-30.76171875,-28.80859375,-60.05859375,0.0
1734581355.5029154,-5.859375,-31.73828125,-27.83203125,-37.59765625,0.0
1734581355.5068207,-7.32421875,-29.78515625,-27.34375,1.953125,0.0
1734581355.5107262,-28.3203125,-29.78515625,-24.4140625,-3.41796875,0.0
1734581355.514662,-39.0625,-27.34375,-26.3671875,-18.06640625,0.0
1734581355.5185673,-15.625,-25.390625,-30.76171875,-38.57421875,0.0
1734581355.5224729,8.7890625,-26.3671875,-31.25,-37.59765625,0.0
1734581355.5263782,0.9765625,-25.390625,-27.83203125,2.9296875,0.0
1734581355.5302837,-13.18359375,-25.87890625,-28.3203125,-2.44140625,0.0
1734581355.5341892,-30.2734375,-29.296875,-34.1796875,-32.71484375,0.0
1734581355.5380945,-20.99609375,-29.78515625,-35.15625,-46.38671875,0.0
1734581355.542,4.8828125,-28.3203125,-36.1328125,-43.45703125,0.0
1734581355.5459056,-2.9296875,-30.2734375,-38.57421875,-15.13671875,0.0
1734581355.549811,-29.296875,-29.78515625,-37.109375,6.8359375,0.0
1734581355.5537164,-31.25,-32.2265625,-35.15625,-2.44140625,0.0
1734581355.557622,-18.06640625,-30.2734375,-34.66796875,-45.41015625,0.0
1734581355.561543,-10.25390625,-26.3671875,-37.59765625,-57.12890625,0.0
1734581355.5654485,-7.32421875,-32.2265625,-39.0625,-10.7421875,0.0
1734581355.5693538,-17.08984375,-36.62109375,-37.59765625,7.8125,0.0
1734581355.5732594,-35.64453125,-35.64453125,-38.57421875,-5.859375,0.0
1734581355.5771646,-31.25,-33.69140625,-36.62109375,-38.57421875,0.0
1734581355.5810702,-15.13671875,-34.1796875,-39.0625,-67.3828125,0.0
1734581355.5849757,-18.5546875,-37.59765625,-43.45703125,-32.2265625,0.0
1734581355.588881,-30.76171875,-40.52734375,-39.0625,-8.30078125,0.0
1734581355.5927866,-36.1328125,-34.66796875,-36.1328125,-20.5078125,0.0
1734581355.596692,-22.94921875,-27.34375,-34.66796875,-41.50390625,0.0
1734581355.6005974,-15.13671875,-32.2265625,-36.1328125,-60.546875,0.0
1734581355.604503,-20.5078125,-38.0859375,-39.0625,-39.55078125,0.0
1734581355.6084006,-30.2734375,-39.55078125,-37.109375,-17.08984375,0.0
1734581355.612306,-34.66796875,-34.1796875,-38.57421875,-20.99609375,0.0
1734581355.6162117,-22.4609375,-31.25,-37.109375,-40.52734375,0.0
1734581355.620117,-2.44140625,-32.71484375,-36.1328125,-58.59375,0.0
1734581355.6240225,-4.39453125,-37.109375,-41.015625,-35.15625,0.0
1734581355.6279278,-31.73828125,-41.9921875,-41.015625,-4.39453125,0.0
1734581355.6318333,-41.015625,-34.66796875,-35.64453125,-1.953125,0.0
1734581355.6357388,-36.62109375,-29.296875,-36.1328125,-12.20703125,0.0
1734581355.6396441,-30.76171875,-31.25,-38.0859375,-49.8046875,0.0
1734581355.6435497,-32.71484375,-38.0859375,-40.52734375,-53.7109375,0.0
1734581355.6474552,-42.96875,-41.50390625,-42.48046875,-15.625,0.0
1734581355.6513605,-40.52734375,-37.109375,-37.109375,-13.671875,0.0
1734581355.655244,-41.50390625,-33.69140625,-33.203125,-33.69140625,0.0
1734581355.6591496,-34.66796875,-31.73828125,-35.15625,-65.4296875,0.0
1734581355.6630552,-34.66796875,-28.80859375,-35.15625,-55.17578125,0.0
1734581355.6669605,-37.109375,-25.390625,-32.71484375,1.953125,0.0
1734581355.670866,-35.64453125,-27.34375,-28.80859375,12.20703125,0.0
1734581355.6747715,-39.0625,-26.3671875,-32.2265625,-16.6015625,0.0
1734581355.6786768,-33.203125,-20.5078125,-37.59765625,-51.26953125,0.0
1734581355.6825824,-32.71484375,-20.99609375,-37.109375,-62.5,0.0
1734581355.686488,-40.0390625,-21.484375,-35.64453125,-24.90234375,0.0
1734581355.6903932,-44.921875,-26.3671875,-33.69140625,-6.8359375,0.0
1734581355.6942987,-46.875,-33.203125,-37.109375,-34.1796875,0.0
1734581355.698204,-28.80859375,-35.15625,-40.52734375,-72.265625,0.0
1734581355.7020733,-1.953125,-28.80859375,-39.55078125,-70.80078125,0.0
1734581355.7059786,-8.7890625,-26.3671875,-39.0625,-22.4609375,0.0
1734581355.7098842,-16.11328125,-28.80859375,-37.59765625,1.953125,0.0
1734581355.7137897,-21.97265625,-27.34375,-32.2265625,-10.7421875,0.0
1734581355.717695,-37.109375,-32.2265625,-33.203125,-53.22265625,0.0
1734581355.7216005,-24.4140625,-28.80859375,-36.62109375,-64.94140625,0.0
1734581355.725506,-18.5546875,-27.34375,-31.73828125,-16.11328125,0.0
1734581355.7294114,-27.83203125,-32.71484375,-28.3203125,3.41796875,0.0
1734581355.733317,-41.015625,-37.109375,-31.73828125,-12.20703125,0.0
1734581355.7372222,-53.22265625,-38.57421875,-31.73828125,-35.64453125,0.0
1734581355.7411277,-46.875,-40.0390625,-33.203125,-48.33984375,0.0
1734581355.7450333,-46.38671875,-39.55078125,-34.1796875,-16.11328125,0.0
1734581355.7489,-50.78125,-28.3203125,-29.296875,-9.27734375,0.0
1734581355.7528052,-57.6171875,-23.4375,-33.69140625,-19.53125,0.0
1734581355.7567108,-54.19921875,-28.3203125,-42.96875,-44.43359375,0.0
1734581355.7606163,-37.59765625,-30.2734375,-43.45703125,-73.73046875,0.0
1734581355.7645216,-33.203125,-31.25,-37.109375,-45.8984375,0.0
1734581355.7684271,-44.43359375,-38.57421875,-37.59765625,-4.39453125,0.0
1734581355.7723324,-55.17578125,-39.55078125,-39.0625,-7.32421875,0.0
1734581355.776238,-52.734375,-37.109375,-36.62109375,-44.921875,0.0
1734581355.7801435,-29.296875,-39.0625,-39.55078125,-74.70703125,0.0
1734581355.7840488,-23.92578125,-37.59765625,-41.9921875,-48.828125,0.0
1734581355.7879543,-42.48046875,-35.64453125,-39.0625,-11.23046875,0.0
1734581355.7918599,-46.875,-38.57421875,-36.1328125,-13.671875,0.0
1734581355.7958622,-28.3203125,-31.73828125,-35.15625,-28.80859375,0.0
1734581355.7997677,-14.6484375,-29.78515625,-35.64453125,-59.5703125,0.0
1734581355.8036733,-26.85546875,-39.0625,-35.15625,-55.17578125,0.0
1734581355.8075786,-43.9453125,-42.48046875,-33.69140625,-8.30078125,0.0
1734581355.811484,-45.41015625,-37.109375,-30.76171875,5.37109375,0.0
1734581355.8153896,-45.8984375,-28.80859375,-33.203125,-29.78515625,0.0
1734581355.819295,-37.59765625,-28.3203125,-36.1328125,-75.1953125,0.0
1734581355.8232005,-28.3203125,-32.2265625,-36.62109375,-55.17578125,0.0
1734581355.8271058,-38.0859375,-34.1796875,-37.109375,-10.25390625,0.0
1734581355.8310113,-54.19921875,-34.66796875,-36.62109375,-12.6953125,0.0
1734581355.8349168,-50.29296875,-30.76171875,-37.59765625,-27.83203125,0.0
1734581355.8388221,-25.87890625,-27.34375,-35.15625,-53.7109375,0.0
1734581355.8427691,-33.203125,-32.2265625,-33.69140625,-55.17578125,0.0
1734581355.8466747,-43.9453125,-32.2265625,-35.64453125,-13.18359375,0.0
1734581355.85058,-41.50390625,-32.71484375,-34.66796875,0.0,0.0
1734581355.8544855,-50.29296875,-31.25,-35.15625,-22.4609375,0.0
1734581355.858391,-35.15625,-25.87890625,-31.73828125,-49.8046875,0.0
1734581355.8622963,-25.87890625,-28.80859375,-27.83203125,-50.29296875,0.0
1734581355.8662019,-43.9453125,-34.66796875,-30.2734375,-16.6015625,0.0
1734581355.8701074,-48.828125,-38.0859375,-36.62109375,-1.46484375,0.0
1734581355.8740127,-52.24609375,-35.64453125,-38.57421875,-19.04296875,0.0
1734581355.8779182,-41.9921875,-30.76171875,-41.015625,-51.26953125,0.0
1734581355.8818238,-33.203125,-31.73828125,-38.57421875,-61.5234375,0.0
1734581355.885729,-39.55078125,-33.203125,-31.73828125,-21.97265625,0.0
1734581355.889666,-51.7578125,-32.71484375,-32.71484375,3.41796875,0.0
1734581355.8935716,-61.03515625,-33.203125,-32.71484375,-15.625,0.0
1734581355.8974771,-48.33984375,-31.25,-29.296875,-38.57421875,0.0
1734581355.9013824,-30.2734375,-34.1796875,-29.78515625,-50.78125,0.0
1734581355.905288,-31.25,-33.69140625,-34.1796875,-26.85546875,0.0
1734581355.9091935,-41.50390625,-31.73828125,-34.1796875,2.44140625,0.0
1734581355.9130988,-35.15625,-26.85546875,-29.296875,-3.41796875,0.0
1734581355.9170043,-30.2734375,-22.94921875,-29.296875,-39.0625,0.0
1734581355.92091,-22.4609375,-26.85546875,-29.296875,-57.6171875,0.0
1734581355.9248152,-14.6484375,-26.3671875,-30.76171875,-30.2734375,0.0
1734581355.9287207,-24.90234375,-24.90234375,-32.2265625,-10.25390625,0.0
1734581355.932626,-33.69140625,-25.390625,-33.203125,-21.484375,0.0
1734581355.9366596,-33.69140625,-28.80859375,-33.69140625,-42.96875,0.0
1734581355.940565,-24.4140625,-30.2734375,-31.73828125,-58.10546875,0.0
1734581355.9444704,-22.4609375,-29.296875,-32.71484375,-46.875,0.0
1734581355.948376,-33.69140625,-24.90234375,-30.2734375,-18.06640625,0.0
1734581355.9522815,-41.9921875,-27.34375,-30.76171875,-16.11328125,0.0
1734581355.9561868,-44.921875,-34.66796875,-34.66796875,-41.015625,0.0
1734581355.9600923,-42.96875,-35.15625,-32.71484375,-67.87109375,0.0
1734581355.9639976,-45.41015625,-36.62109375,-34.1796875,-49.31640625,0.0
1734581355.9679031,-53.7109375,-34.1796875,-37.109375,-9.27734375,0.0
1734581355.9718087,-60.05859375,-27.83203125,-37.59765625,-10.25390625,0.0
1734581355.975714,-51.7578125,-28.80859375,-38.0859375,-41.015625,0.0
1734581355.9796195,-32.71484375,-29.78515625,-35.15625,-63.96484375,0.0
1734581355.9835339,-27.34375,-28.3203125,-32.71484375,-45.8984375,0.0
1734581355.9874392,-41.50390625,-29.296875,-35.64453125,-18.5546875,0.0
1734581355.9913447,-50.78125,-34.66796875,-39.55078125,-10.25390625,0.0
1734581355.9952502,-40.52734375,-35.64453125,-36.62109375,-24.4140625,0.0
1734581355.9991555,-27.34375,-32.2265625,-30.76171875,-46.875,0.0
1734581356.003061,-19.04296875,-29.78515625,-27.83203125,-33.69140625,0.0
1734581356.0069664,-26.85546875,-26.85546875,-29.78515625,-4.8828125,0.0
1734581356.010872,-40.0390625,-30.76171875,-33.203125,-10.7421875,0.0
1734581356.0147774,-38.0859375,-30.76171875,-29.296875,-36.62109375,0.0
1734581356.0186827,-28.80859375,-29.78515625,-29.78515625,-64.94140625,0.0
1734581356.0225883,-24.4140625,-33.69140625,-31.25,-62.5,0.0
1734581356.0264938,-28.3203125,-36.62109375,-32.2265625,-17.08984375,0.0
1734581356.0303843,-43.45703125,-35.64453125,-33.203125,-2.44140625,0.0
1734581356.0342898,-54.6875,-33.69140625,-27.34375,-17.578125,0.0
1734581356.0381951,-34.1796875,-36.1328125,-28.80859375,-49.8046875,0.0
1734581356.0421007,-18.5546875,-40.0390625,-33.203125,-66.89453125,0.0
1734581356.0460062,-31.25,-32.71484375,-31.73828125,-27.83203125,0.0
1734581356.0499115,-41.015625,-34.1796875,-29.78515625,-2.44140625,0.0
1734581356.053817,-41.015625,-37.109375,-26.85546875,-5.37109375,0.0
1734581356.0577223,-32.71484375,-35.15625,-26.3671875,-26.85546875,0.0
1734581356.0616279,-21.97265625,-33.69140625,-31.25,-61.5234375,0.0
1734581356.0655334,-14.16015625,-34.1796875,-32.71484375,-36.62109375,0.0
1734581356.0694387,-20.99609375,-36.1328125,-28.80859375,-1.46484375,0.0
1734581356.0733442,-48.33984375,-36.1328125,-30.2734375,-6.34765625,0.0
1734581356.0772197,-40.0390625,-35.64453125,-29.78515625,-38.0859375,0.0
1734581356.081125,-14.6484375,-33.69140625,-27.34375,-54.6875,0.0
1734581356.0850306,-19.53125,-32.71484375,-28.80859375,-16.11328125,0.0
1734581356.0889359,-38.0859375,-33.69140625,-29.78515625,6.8359375,0.0
1734581356.0928414,-42.96875,-34.1796875,-24.4140625,-11.71875,0.0
1734581356.096747,-33.203125,-33.69140625,-21.97265625,-39.55078125,0.0
1734581356.1006522,-23.92578125,-37.59765625,-26.85546875,-47.8515625,0.0
1734581356.1045578,-25.87890625,-39.55078125,-29.296875,-19.53125,0.0
1734581356.1084633,-34.66796875,-38.0859375,-30.2734375,-7.8125,0.0
1734581356.1123686,-39.55078125,-35.15625,-35.64453125,-18.06640625,0.0
1734581356.116274,-12.20703125,-26.3671875,-38.57421875,-18.5546875,0.0
1734581356.1201797,9.765625,-30.2734375,-34.66796875,-40.0390625,0.0
1734581356.1240427,-35.15625,-49.8046875,-28.80859375,-51.7578125,0.0
1734581356.1279483,-76.66015625,-45.8984375,-23.4375,-20.01953125,0.0
1734581356.1318538,-76.66015625,-41.015625,-19.04296875,-27.34375,0.0
1734581356.135759,-80.078125,-42.48046875,-18.06640625,-71.77734375,0.0
1734581356.1396646,-64.453125,-38.0859375,-21.484375,-90.8203125,0.0
1734581356.1435702,-62.01171875,-37.109375,-27.34375,-71.77734375,0.0
1734581356.1474755,-76.171875,-36.1328125,-27.83203125,-35.64453125,0.0
1734581356.151381,-82.03125,-39.0625,-20.5078125,-31.25,0.0
1734581356.1552863,-80.56640625,-38.0859375,-16.6015625,-50.29296875,0.0
1734581356.1591918,-62.5,-32.71484375,-14.6484375,-77.1484375,0.0
1734581356.1630974,-75.68359375,-40.0390625,-11.23046875,-79.58984375,0.0
1734581356.1670027,-100.09765625,-44.921875,-9.765625,-46.875,0.0
1734581356.1709635,-94.23828125,-39.0625,-10.25390625,-40.52734375,0.0
1734581356.174869,-86.42578125,-41.015625,-10.7421875,-62.01171875,0.0
1734581356.1787746,-81.54296875,-47.8515625,-10.25390625,-90.8203125,0.0
1734581356.18268,-76.171875,-43.9453125,-6.8359375,-86.42578125,0.0
1734581356.1865854,-81.0546875,-37.109375,-11.71875,-39.0625,0.0
1734581356.190491,-93.75,-39.55078125,-8.7890625,-27.34375,0.0
1734581356.1943963,-109.86328125,-44.921875,-2.9296875,-61.03515625,0.0
1734581356.1983018,-101.07421875,-43.9453125,-10.25390625,-107.91015625,0.0
1734581356.2022073,-78.125,-39.0625,-6.34765625,-96.6796875,0.0
1734581356.2061126,-90.8203125,-42.48046875,0.9765625,-53.22265625,0.0
1734581356.2100182,-111.81640625,-41.9921875,-0.9765625,-51.7578125,0.0
1734581356.2139237,-106.93359375,-35.64453125,-3.41796875,-52.734375,0.0
1734581356.2178671,-92.28515625,-41.015625,-2.44140625,-68.84765625,0.0
1734581356.2217727,-81.0546875,-44.43359375,1.953125,-79.58984375,0.0
1734581356.2256782,-88.8671875,-44.43359375,-1.46484375,-52.734375,0.0
1734581356.2295835,-98.14453125,-50.29296875,-4.39453125,-37.59765625,0.0
1734581356.233489,-99.609375,-52.734375,-0.48828125,-37.109375,0.0
1734581356.2373946,-84.9609375,-48.828125,-1.953125,-60.546875,0.0
1734581356.2412999,-68.84765625,-49.31640625,-6.34765625,-74.70703125,0.0
1734581356.2452054,-79.58984375,-52.24609375,-5.859375,-39.55078125,0.0
1734581356.2491107,-90.33203125,-52.24609375,-2.44140625,-9.27734375,0.0
1734581356.2530162,-96.6796875,-51.26953125,-2.44140625,-6.8359375,0.0
1734581356.2569218,-83.0078125,-51.7578125,-0.48828125,-46.875,0.0
1734581356.260827,-64.453125,-54.6875,1.953125,-67.3828125,0.0
1734581356.2647629,-64.94140625,-54.6875,-2.44140625,-25.390625,0.0
1734581356.2686684,-77.1484375,-54.19921875,-7.8125,-1.46484375,0.0
1734581356.272574,-92.28515625,-55.6640625,-12.20703125,-12.20703125,0.0
1734581356.2764792,-83.0078125,-53.7109375,-12.20703125,-39.0625,0.0
1734581356.2803848,-60.05859375,-55.17578125,-8.30078125,-68.359375,0.0
1734581356.28429,-50.78125,-55.17578125,-6.8359375,-37.59765625,0.0
1734581356.2881956,-58.59375,-58.10546875,-8.30078125,-0.48828125,0.0
1734581356.2921011,-77.63671875,-59.5703125,-13.671875,-4.39453125,0.0
1734581356.2960064,-68.359375,-53.7109375,-13.671875,-27.34375,0.0
1734581356.299912,-49.31640625,-61.5234375,-10.7421875,-67.3828125,0.0
1734581356.3038175,-48.33984375,-65.4296875,-17.578125,-64.94140625,0.0
1734581356.3077228,-48.828125,-55.17578125,-18.5546875,-21.97265625,0.0
1734581356.3116403,-54.6875,-57.6171875,-13.671875,-20.01953125,0.0
1734581356.3155456,-45.41015625,-57.6171875,-17.08984375,-44.921875,0.0
1734581356.319451,-26.85546875,-58.10546875,-19.04296875,-71.77734375,0.0
1734581356.3233566,-28.3203125,-67.87109375,-17.08984375,-70.80078125,0.0
1734581356.327262,-49.8046875,-66.40625,-14.16015625,-25.87890625,0.0
1734581356.3311675,-82.03125,-60.05859375,-14.6484375,-6.8359375,0.0
1734581356.335073,-79.58984375,-57.6171875,-19.53125,-22.94921875,0.0
1734581356.3389783,-60.05859375,-59.08203125,-20.01953125,-48.33984375,0.0
1734581356.3428838,-58.10546875,-62.01171875,-20.01953125,-51.26953125,0.0
1734581356.3467894,-54.6875,-53.7109375,-18.06640625,-9.27734375,0.0
1734581356.3506947,-63.96484375,-51.7578125,-16.6015625,-1.46484375,0.0
1734581356.3546002,-74.70703125,-59.5703125,-22.94921875,-41.50390625,0.0
1734581356.3585079,0.0,-60.05859375,-25.390625,-78.125,0.0
1734581356.3624132,0.0,-58.59375,-17.08984375,-77.63671875,0.0
1734581356.3663187,0.0,-57.12890625,-19.53125,-45.41015625,0.0
1734581356.3702242,0.0,-55.17578125,-23.4375,-30.76171875,0.0
1734581356.3741295,0.0,-56.15234375,-17.08984375,-43.9453125,0.0
1734581356.378035,0.0,-56.640625,-23.4375,-76.66015625,0.0
1734581356.3819404,0.0,-58.10546875,-26.85546875,-80.56640625,0.0
1734581356.385846,0.0,-59.08203125,-21.484375,-37.59765625,0.0
1734581356.3897514,0.0,-54.19921875,-22.4609375,-20.5078125,0.0
1734581356.3936567,0.0,-54.6875,-28.80859375,-37.109375,0.0
1734581356.3975623,0.0,-60.546875,-25.390625,-64.94140625,0.0
1734581356.4014678,0.0,-65.4296875,-20.5078125,-75.68359375,0.0
1734581356.4053566,-30.2734375,-63.96484375,-24.4140625,-40.52734375,0.0
1734581356.4092622,-42.48046875,-62.01171875,-19.53125,-15.13671875,0.0
1734581356.4131677,-57.12890625,-63.96484375,-9.27734375,-19.04296875,0.0
1734581356.417073,-61.5234375,-67.3828125,-8.30078125,-55.17578125,0.0
1734581356.4209785,-52.24609375,-68.359375,-12.6953125,-81.0546875,0.0
1734581356.424884,-45.41015625,-65.91796875,-5.37109375,-33.203125,0.0
1734581356.4287894,-41.015625,-64.94140625,-1.953125,2.9296875,0.0
1734581356.432695,-42.96875,-64.94140625,-8.30078125,-15.625,0.0
1734581356.4366002,-35.64453125,-60.546875,-10.7421875,-53.22265625,0.0
1734581356.4405057,-30.76171875,-60.546875,-7.32421875,-75.1953125,0.0
1734581356.4444113,-41.9921875,-61.5234375,-10.25390625,-42.48046875,0.0
1734581356.4483166,-47.8515625,-62.98828125,-15.625,-6.8359375,0.0
1734581356.45219,-54.6875,-64.94140625,-11.23046875,-8.30078125,0.0
1734581356.4560952,-52.24609375,-65.4296875,-5.859375,-44.921875,0.0
1734581356.4600008,-44.921875,-63.96484375,-12.20703125,-71.2890625,0.0
1734581356.4639063,-51.26953125,-60.546875,-16.6015625,-44.43359375,0.0
1734581356.4678116,-52.734375,-62.5,-14.6484375,-6.34765625,0.0
1734581356.4717171,-57.12890625,-62.5,-15.625,1.46484375,0.0
1734581356.4756227,-64.94140625,-60.546875,-21.97265625,-18.06640625,0.0
1734581356.479528,-41.9921875,-58.10546875,-20.5078125,-47.36328125,0.0
1734581356.4834335,-23.4375,-59.08203125,-13.18359375,-42.48046875,0.0
1734581356.487339,-32.71484375,-62.5,-17.08984375,-13.671875,0.0
1734581356.4912443,-42.48046875,-65.91796875,-20.99609375,-7.32421875,0.0
1734581356.4951499,-45.41015625,-65.91796875,-17.08984375,-30.76171875,0.0
1734581356.4990172,-37.109375,-66.89453125,-16.6015625,-64.453125,0.0
1734581356.5029228,-37.109375,-74.21875,-24.4140625,-60.546875,0.0
1734581356.506828,-44.921875,-74.21875,-30.2734375,-27.34375,0.0
1734581356.5107336,-47.8515625,-75.1953125,-26.3671875,-12.20703125,0.0
1734581356.5146391,-55.6640625,-77.1484375,-27.83203125,-26.85546875,0.0
1734581356.5185444,-44.43359375,-71.2890625,-30.2734375,-56.640625,0.0
1734581356.52245,-26.3671875,-74.70703125,-31.25,-55.6640625,0.0
1734581356.5263555,-35.15625,-79.58984375,-29.296875,-13.671875,0.0
1734581356.5302608,-61.5234375,-74.70703125,-23.4375,2.44140625,0.0
1734581356.5341663,-71.2890625,-73.73046875,-19.04296875,-17.08984375,0.0
1734581356.5380716,-57.12890625,-80.078125,-20.5078125,-54.6875,0.0
1734581356.5419772,-46.38671875,-78.61328125,-23.92578125,-70.80078125,0.0
1734581356.5459406,-46.875,-77.63671875,-27.34375,-30.2734375,0.0
1734581356.5498462,-60.546875,-78.61328125,-27.34375,-12.20703125,0.0
1734581356.5537515,-67.87109375,-70.3125,-23.92578125,-30.2734375,0.0
1734581356.557657,-47.8515625,-70.3125,-24.90234375,-62.01171875,0.0
1734581356.5615625,-27.34375,-76.171875,-23.4375,-64.94140625,0.0
1734581356.5654678,-24.90234375,-74.70703125,-18.06640625,-16.11328125,0.0
1734581356.5693734,-47.36328125,-78.125,-20.5078125,-5.37109375,0.0
1734581356.5732787,-65.91796875,-79.58984375,-23.92578125,-28.3203125,0.0
1734581356.5771842,-50.29296875,-71.2890625,-21.97265625,-50.78125,0.0
1734581356.5810897,-23.4375,-70.80078125,-20.5078125,-64.453125,0.0
1734581356.584995,-16.6015625,-72.75390625,-21.484375,-26.85546875,0.0
1734581356.5889006,-33.69140625,-71.77734375,-22.4609375,-2.44140625,0.0
1734581356.592858,-54.19921875,-73.73046875,-23.4375,-13.18359375,0.0
1734581356.5967636,-53.7109375,-76.66015625,-24.4140625,-37.59765625,0.0
1734581356.600669,-38.57421875,-80.56640625,-30.2734375,-60.546875,0.0
1734581356.6045744,-45.8984375,-78.125,-31.25,-29.78515625,0.0
1734581356.6084797,-52.734375,-77.63671875,-25.390625,4.39453125,0.0
1734581356.6123853,-59.5703125,-78.61328125,-24.90234375,-6.34765625,0.0
1734581356.6162908,-61.03515625,-76.171875,-28.3203125,-31.25,0.0
1734581356.620196,-46.38671875,-76.171875,-26.85546875,-52.24609375,0.0
1734581356.6241016,-47.36328125,-78.125,-26.85546875,-22.94921875,0.0
1734581356.6280072,-63.4765625,-76.66015625,-27.83203125,8.7890625,0.0
1734581356.6319125,-74.70703125,-73.2421875,-24.90234375,-8.7890625,0.0
1734581356.635818,-66.89453125,-73.73046875,-22.94921875,-39.0625,0.0
1734581356.6397524,0.0,-76.66015625,-29.296875,-60.546875,0.0
1734581356.6436577,0.0,-76.171875,-31.73828125,-42.96875,0.0
1734581356.6475632,0.0,-75.1953125,-30.76171875,-16.11328125,0.0
1734581356.6514688,0.0,-79.58984375,-34.66796875,-21.484375,0.0
1734581356.655374,0.0,-82.03125,-32.2265625,-46.875,0.0
1734581356.6592796,0.0,-83.0078125,-25.87890625,-68.359375,0.0
1734581356.663185,0.0,-83.984375,-27.34375,-55.6640625,0.0
1734581356.6670904,0.0,-82.03125,-28.3203125,-21.484375,0.0
1734581356.670996,0.0,-77.1484375,-26.3671875,-12.20703125,0.0
1734581356.6749012,0.0,-74.21875,-30.2734375,-31.25,0.0
1734581356.6788068,0.0,-79.58984375,-32.2265625,-65.91796875,0.0
1734581356.6827123,0.0,-80.078125,-33.69140625,-68.84765625,0.0
1734581356.6866398,-55.6640625,-78.61328125,-32.71484375,-23.4375,0.0
1734581356.6905453,-72.75390625,-84.47265625,-30.76171875,-6.8359375,0.0
1734581356.6944506,-67.87109375,-82.03125,-35.64453125,-28.80859375,0.0
1734581356.6983562,-38.57421875,-76.171875,-34.1796875,-62.01171875,0.0
1734581356.7022617,-31.73828125,-79.58984375,-35.64453125,-61.5234375,0.0
1734581356.706167,-65.4296875,-82.03125,-38.57421875,-25.390625,0.0
1734581356.7100725,-83.984375,-78.125,-37.109375,-9.765625,0.0
1734581356.713978,-77.63671875,-76.66015625,-32.71484375,-20.5078125,0.0
1734581356.7178833,-65.4296875,-78.61328125,-28.3203125,-50.29296875,0.0
1734581356.721789,-43.45703125,-83.49609375,-33.203125,-58.59375,0.0
1734581356.7256944,-42.48046875,-82.51953125,-32.2265625,-15.625,0.0
1734581356.7295997,-56.15234375,-75.68359375,-25.390625,-1.46484375,0.0
1734581356.7335083,-59.5703125,-81.54296875,-28.3203125,-25.390625,0.0
1734581356.7374136,-60.546875,-82.51953125,-30.76171875,-54.6875,0.0
1734581356.7413192,-59.5703125,-80.56640625,-36.1328125,-71.2890625,0.0
1734581356.7452247,-57.6171875,-83.0078125,-41.9921875,-30.76171875,0.0
1734581356.74913,-63.4765625,-79.58984375,-37.59765625,-0.48828125,0.0
1734581356.7530355,-69.3359375,-78.61328125,-35.15625,-15.625,0.0
1734581356.756941,-61.03515625,-80.078125,-33.69140625,-46.875,0.0
1734581356.7608464,-38.0859375,-82.03125,-31.25,-62.98828125,0.0
1734581356.764752,-37.59765625,-85.44921875,-31.73828125,-26.3671875,0.0
1734581356.7686574,-49.31640625,-83.49609375,-36.62109375,-13.18359375,0.0
1734581356.7725627,-60.05859375,-80.56640625,-38.0859375,-32.2265625,0.0
1734581356.7764683,-55.6640625,-77.1484375,-33.69140625,-51.7578125,0.0
1734581356.7803624,-38.57421875,-75.68359375,-29.78515625,-62.98828125,0.0
1734581356.784268,-48.33984375,-77.63671875,-31.73828125,-35.64453125,0.0
1734581356.7881732,-66.89453125,-82.51953125,-40.52734375,-5.859375,0.0
1734581356.7920787,-77.1484375,-85.44921875,-40.52734375,-8.30078125,0.0
1734581356.7959843,-71.2890625,-83.49609375,-34.66796875,-35.64453125,0.0
1734581356.7998896,-54.19921875,-86.42578125,-30.2734375,-62.98828125,0.0
1734581356.803795,-52.734375,-84.9609375,-29.78515625,-46.875,0.0
1734581356.8077004,-61.03515625,-79.58984375,-27.34375,-15.625,0.0
1734581356.811606,-70.80078125,-77.1484375,-25.390625,-10.7421875,0.0
1734581356.8155115,-73.2421875,-80.56640625,-33.203125,-33.69140625,0.0
1734581356.8194168,-53.7109375,-81.54296875,-33.203125,-62.5,0.0
1734581356.8233223,-47.8515625,-80.078125,-28.3203125,-52.24609375,0.0
1734581356.8271985,-57.6171875,-82.51953125,-31.25,-22.4609375,0.0
1734581356.8311038,-67.87109375,-84.47265625,-34.1796875,-17.578125,0.0
1734581356.8350093,-77.1484375,-86.42578125,-35.64453125,-43.9453125,0.0
1734581356.8389149,-60.05859375,-82.51953125,-33.69140625,-77.63671875,0.0
1734581356.8428202,-48.828125,-78.61328125,-30.76171875,-62.5,0.0
1734581356.8467257,-60.546875,-82.51953125,-35.64453125,-14.16015625,0.0
1734581356.8506312,-82.03125,-85.44921875,-38.0859375,0.48828125,0.0
1734581356.8545365,-90.33203125,-86.42578125,-32.71484375,-25.390625,0.0
1734581356.858442,-56.640625,-83.0078125,-31.73828125,-61.03515625,0.0
1734581356.8623476,-38.57421875,-79.58984375,-34.66796875,-63.4765625,0.0
1734581356.866253,-53.22265625,-80.078125,-34.1796875,-33.69140625,0.0
1734581356.8701584,-70.3125,-80.56640625,-31.25,-14.16015625,0.0
1734581356.8740206,-78.125,-72.75390625,-27.83203125,-16.6015625,0.0
1734581356.877926,-63.96484375,-74.70703125,-28.3203125,-54.19921875,0.0
1734581356.8818316,-56.640625,-78.61328125,-31.73828125,-71.2890625,0.0
1734581356.885737,-52.734375,-74.21875,-31.25,-33.203125,0.0
1734581356.8896425,-47.8515625,-74.70703125,-29.78515625,-19.53125,0.0
1734581356.8935478,-67.3828125,-81.54296875,-27.34375,-26.85546875,0.0
1734581356.8974533,-71.2890625,-83.984375,-26.85546875,-44.43359375,0.0
1734581356.9013588,-53.7109375,-82.51953125,-27.83203125,-63.96484375,0.0
1734581356.9052641,-52.734375,-81.0546875,-26.85546875,-40.0390625,0.0
1734581356.9091697,-73.73046875,-81.0546875,-31.25,-13.671875,0.0
1734581356.9130752,-94.7265625,-84.47265625,-37.59765625,-24.90234375,0.0
1734581356.9169805,-88.37890625,-85.9375,-40.52734375,-63.96484375,0.0
1734581356.9209414,-63.4765625,-86.9140625,-38.57421875,-74.70703125,0.0
1734581356.924847,-47.8515625,-83.49609375,-32.71484375,-38.0859375,0.0
1734581356.9287522,-60.546875,-77.1484375,-27.34375,-11.71875,0.0
1734581356.9326577,-85.44921875,-78.125,-28.80859375,-14.6484375,0.0
1734581356.9365633,-82.51953125,-88.8671875,-36.1328125,-47.8515625,0.0
1734581356.9404685,-56.640625,-86.9140625,-33.203125,-67.3828125,0.0
1734581356.944374,-47.36328125,-83.0078125,-27.34375,-39.0625,0.0
1734581356.9482796,-69.82421875,-85.44921875,-33.203125,-12.20703125,0.0
1734581356.952185,-89.35546875,-79.58984375,-32.71484375,-19.53125,0.0
1734581356.9560905,-87.890625,-79.58984375,-31.73828125,-44.43359375,0.0
1734581356.959996,-65.91796875,-84.47265625,-35.64453125,-65.91796875,0.0
1734581356.9639013,-62.98828125,-84.47265625,-38.57421875,-51.26953125,0.0
1734581356.9678507,-67.87109375,-80.56640625,-39.0625,-11.71875,0.0
1734581356.9717562,-65.91796875,-75.68359375,-33.203125,-5.859375,0.0
1734581356.9756618,-68.84765625,-76.171875,-32.2265625,-33.69140625,0.0
1734581356.979567,-60.546875,-79.1015625,-37.109375,-72.265625,0.0
1734581356.9834726,-60.05859375,-83.0078125,-37.59765625,-57.6171875,0.0
1734581356.987378,-69.82421875,-82.03125,-31.73828125,-9.27734375,0.0
1734581356.9912834,-76.171875,-77.63671875,-28.3203125,-12.20703125,0.0
1734581356.995189,-67.3828125,-77.63671875,-35.15625,-43.45703125,0.0
1734581356.9990942,-50.29296875,-76.66015625,-38.0859375,-57.6171875,0.0
1734581357.0029998,-52.734375,-76.171875,-32.71484375,-40.52734375,0.0
1734581357.0069053,-50.29296875,-75.68359375,-32.71484375,-19.04296875,0.0
1734581357.0108106,-53.7109375,-70.80078125,-34.66796875,-15.13671875,0.0
1734581357.0147464,-64.94140625,-70.80078125,-35.15625,-31.73828125,0.0
1734581357.018652,-57.12890625,-77.1484375,-32.71484375,-72.265625,0.0
1734581357.0225573,-45.8984375,-75.68359375,-31.73828125,-71.77734375,0.0
1734581357.0264628,-45.8984375,-72.75390625,-32.71484375,-23.92578125,0.0
1734581357.0303683,-58.59375,-73.73046875,-30.2734375,2.44140625,0.0
1734581357.0342736,-62.5,-75.1953125,-30.76171875,-12.6953125,0.0
1734581357.0381792,-55.6640625,-77.1484375,-31.25,-51.7578125,0.0
1734581357.0420845,-53.22265625,-83.49609375,-33.69140625,-56.15234375,0.0
1734581357.04599,-61.03515625,-81.0546875,-35.64453125,-13.18359375,0.0
1734581357.0498955,-68.84765625,-69.3359375,-34.66796875,-8.30078125,0.0
1734581357.0538008,-71.77734375,-71.2890625,-33.203125,-32.71484375,0.0
1734581357.0577064,-56.15234375,-71.2890625,-31.25,-60.05859375,0.0
1734581357.0616317,-39.0625,-67.3828125,-31.25,-63.4765625,0.0
1734581357.065537,-59.08203125,-74.70703125,-32.2265625,-26.85546875,0.0
1734581357.0694425,-77.1484375,-79.58984375,-33.203125,-11.23046875,0.0
1734581357.0733478,-75.1953125,-77.1484375,-29.296875,-15.13671875,0.0
1734581357.0772533,-62.98828125,-68.84765625,-26.3671875,-45.8984375,0.0
1734581357.0811589,-43.45703125,-67.3828125,-31.25,-68.84765625,0.0
1734581357.0850642,-39.55078125,-68.359375,-33.203125,-35.15625,0.0
1734581357.0889697,-60.546875,-67.87109375,-31.25,-11.71875,0.0
1734581357.0928752,-81.0546875,-68.359375,-34.66796875,-13.671875,0.0
1734581357.0967805,-78.61328125,-67.87109375,-33.69140625,-48.33984375,0.0
1734581357.100686,-60.546875,-71.2890625,-33.203125,-69.82421875,0.0
1734581357.1045916,-62.01171875,-70.80078125,-36.1328125,-27.83203125,0.0
1734581357.108501,0.0,-67.3828125,-36.1328125,1.953125,0.0
1734581357.1124065,0.0,-68.359375,-38.0859375,-10.7421875,0.0
1734581357.1163118,0.0,-69.3359375,-35.15625,-37.109375,0.0
1734581357.1202173,0.0,-66.40625,-37.59765625,-62.01171875,0.0
1734581357.1241229,0.0,-68.84765625,-37.59765625,-35.64453125,0.0
1734581357.1280282,0.0,-67.87109375,-26.85546875,5.37109375,0.0
1734581357.1319337,0.0,-68.359375,-25.390625,-0.9765625,0.0
1734581357.1358392,0.0,-72.75390625,-29.78515625,-26.85546875,0.0
1734581357.1397445,0.0,-69.3359375,-27.34375,-49.8046875,0.0
1734581357.14365,0.0,-63.4765625,-28.3203125,-40.52734375,0.0
1734581357.1475554,0.0,-67.87109375,-29.296875,-9.27734375,0.0
1734581357.151461,0.0,-71.77734375,-27.83203125,-7.8125,0.0
1734581357.1553547,-80.56640625,-69.82421875,-28.3203125,-29.296875,0.0
1734581357.1592603,-69.3359375,-74.21875,-28.80859375,-63.96484375,0.0
1734581357.1631658,-63.96484375,-83.0078125,-32.2265625,-51.7578125,0.0
1734581357.167071,-72.75390625,-83.49609375,-31.25,-17.08984375,0.0
1734581357.1709766,-85.44921875,-79.58984375,-31.25,-13.18359375,0.0
1734581357.174882,-77.1484375,-80.078125,-30.2734375,-27.83203125,0.0
1734581357.1787875,-51.26953125,-78.61328125,-28.3203125,-53.7109375,0.0
1734581357.182693,-43.45703125,-74.21875,-28.3203125,-56.640625,0.0
1734581357.1865983,-58.10546875,-75.1953125,-32.71484375,-31.25,0.0
1734581357.1905038,-76.171875,-81.0546875,-35.15625,-26.3671875,0.0
1734581357.1944094,-86.9140625,-77.63671875,-29.78515625,-39.0625,0.0
1734581357.1983147,-77.63671875,-73.73046875,-28.80859375,-66.40625,0.0
1734581357.2021945,-52.734375,-74.70703125,-33.69140625,-78.125,0.0
1734581357.2060997,-61.5234375,-74.21875,-37.109375,-41.015625,0.0
1734581357.2100053,-75.1953125,-72.265625,-34.1796875,-18.06640625,0.0
1734581357.2139108,-77.63671875,-69.82421875,-32.2265625,-21.484375,0.0
1734581357.217816,-59.5703125,-71.2890625,-32.71484375,-58.59375,0.0
1734581357.2217216,-44.921875,-73.73046875,-29.78515625,-68.359375,0.0
1734581357.2256272,-59.08203125,-74.21875,-33.69140625,-13.671875,0.0
1734581357.2295325,-69.3359375,-71.2890625,-33.69140625,2.9296875,0.0
1734581357.233438,-68.84765625,-69.3359375,-26.3671875,-23.4375,0.0
1734581357.2373435,-60.546875,-70.3125,-31.25,-57.12890625,0.0
1734581357.2412488,-51.7578125,-75.1953125,-36.62109375,-75.1953125,0.0
1734581357.2451544,-50.78125,-72.75390625,-31.73828125,-47.36328125,0.0
1734581357.2491333,-64.94140625,-72.75390625,-30.2734375,-27.83203125,0.0
1734581357.253039,-81.0546875,-77.1484375,-30.2734375,-27.83203125,0.0
1734581357.2569442,-78.61328125,-79.58984375,-30.2734375,-63.96484375,0.0
1734581357.2608497,-54.19921875,-73.73046875,-31.25,-94.7265625,0.0
1734581357.2647552,-47.8515625,-65.91796875,-28.3203125,-56.15234375,0.0
1734581357.2686605,-61.5234375,-67.3828125,-28.80859375,-19.04296875,0.0
1734581357.272566,-72.75390625,-65.4296875,-29.296875,-16.11328125,0.0
1734581357.2764716,-60.05859375,-59.08203125,-24.90234375,-45.8984375,0.0
1734581357.280377,-28.3203125,-58.10546875,-25.87890625,-68.84765625,0.0
1734581357.2842824,-31.73828125,-61.03515625,-30.2734375,-38.57421875,0.0
1734581357.288188,-49.31640625,-56.640625,-26.3671875,-6.8359375,0.0
1734581357.2920933,-57.6171875,-54.6875,-23.4375,-14.16015625,0.0
1734581357.2960567,-53.22265625,-60.05859375,-24.4140625,-43.9453125,0.0
1734581357.2999623,-32.2265625,-59.5703125,-26.3671875,-72.265625,0.0
1734581357.3038676,-31.73828125,-60.546875,-32.2265625,-44.43359375,0.0
1734581357.307773,-42.48046875,-62.01171875,-31.25,5.37109375,0.0
1734581357.3116786,-55.17578125,-63.96484375,-26.3671875,-8.30078125,0.0
1734581357.315584,-69.82421875,-69.82421875,-28.3203125,-47.8515625,0.0
1734581357.3194895,-58.10546875,-68.359375,-25.390625,-72.75390625,0.0
1734581357.323395,-41.50390625,-64.94140625,-20.5078125,-64.453125,0.0
1734581357.3273003,-38.57421875,-62.98828125,-19.04296875,-24.90234375,0.0
1734581357.3312058,-54.19921875,-67.3828125,-13.18359375,2.44140625,0.0
1734581357.3351114,-72.75390625,-67.3828125,-9.27734375,-11.23046875,0.0
1734581357.3390167,-54.6875,-62.5,-11.71875,-57.12890625,0.0
1734581357.3429575,-40.0390625,-64.453125,-19.04296875,-57.6171875,0.0
1734581357.346863,-51.7578125,-62.5,-20.99609375,-24.90234375,0.0
1734581357.3507686,-72.75390625,-58.59375,-22.94921875,-20.5078125,0.0
1734581357.3546739,-75.68359375,-60.05859375,-23.4375,-38.0859375,0.0
1734581357.3585794,-52.734375,-61.03515625,-17.578125,-66.40625,0.0
1734581357.362485,-34.1796875,-57.12890625,-19.04296875,-61.5234375,0.0
1734581357.3663902,-44.43359375,-57.6171875,-27.83203125,-25.87890625,0.0
1734581357.3702958,-57.12890625,-59.08203125,-26.85546875,-17.578125,0.0
1734581357.3742013,-53.7109375,-57.6171875,-20.99609375,-20.99609375,0.0
1734581357.3781066,-45.41015625,-56.640625,-18.06640625,-40.0390625,0.0
1734581357.3820121,-32.71484375,-55.6640625,-19.04296875,-55.17578125,0.0
1734581357.3859177,-38.57421875,-58.59375,-20.01953125,-21.97265625,0.0
1734581357.3898509,-48.828125,-56.640625,-22.4609375,0.48828125,0.0
1734581357.3937562,-48.33984375,-54.6875,-20.01953125,-16.11328125,0.0
1734581357.3976617,-41.50390625,-56.640625,-17.08984375,-49.8046875,0.0
1734581357.4015672,-37.59765625,-62.01171875,-26.85546875,-64.453125,0.0
1734581357.4054725,-48.828125,-62.98828125,-32.71484375,-26.85546875,0.0
1734581357.409378,-61.5234375,-60.546875,-34.66796875,-1.46484375,0.0
1734581357.4132836,-59.08203125,-62.01171875,-36.1328125,-3.41796875,0.0
1734581357.417189,-48.33984375,-62.5,-34.66796875,-28.3203125,0.0
1734581357.4210944,-33.203125,-61.5234375,-31.73828125,-49.8046875,0.0
1734581357.425,-31.25,-59.5703125,-29.78515625,-29.78515625,0.0
1734581357.4289052,-46.38671875,-60.05859375,-31.73828125,-18.5546875,0.0
1734581357.4328108,-47.8515625,-57.6171875,-30.2734375,-23.92578125,0.0
1734581357.4367304,-46.38671875,-58.10546875,-27.83203125,-44.921875,0.0
1734581357.4406357,-34.1796875,-59.08203125,-31.73828125,-65.4296875,0.0
1734581357.4445412,-19.53125,-56.640625,-31.73828125,-40.0390625,0.0
1734581357.4484468,-32.71484375,-59.5703125,-30.76171875,0.0,0.0
1734581357.452352,-50.78125,-62.5,-31.73828125,0.0,0.0
1734581357.4562576,-45.8984375,-60.546875,-30.2734375,-41.50390625,0.0
1734581357.4601629,-23.4375,-56.640625,-25.87890625,-68.359375,0.0
1734581357.4640684,-20.99609375,-53.7109375,-24.90234375,-27.83203125,0.0
1734581357.467974,-40.0390625,-52.734375,-27.34375,3.41796875,0.0
1734581357.4718792,-45.41015625,-52.734375,-29.78515625,-17.08984375,0.0
1734581357.4757848,-33.203125,-51.7578125,-31.73828125,-47.8515625,0.0
1734581357.4796903,-16.11328125,-46.875,-32.71484375,-67.3828125,0.0
1734581357.4835935,-14.16015625,-41.015625,-34.66796875,-48.828125,0.0
1734581357.487499,-32.2265625,-41.50390625,-33.203125,-14.6484375,0.0
1734581357.4914045,-56.640625,-45.8984375,-32.71484375,-11.23046875,0.0
1734581357.4953098,-57.6171875,-48.828125,-33.69140625,-22.4609375,0.0
1734581357.4992154,-39.0625,-45.8984375,-33.203125,-43.45703125,0.0
1734581357.503121,-19.53125,-40.52734375,-32.71484375,-41.015625,0.0
1734581357.5070262,-29.78515625,-43.9453125,-35.64453125,-11.23046875,0.0
1734581357.5109317,-47.8515625,-45.41015625,-37.109375,-0.9765625,0.0
1734581357.5148373,-47.36328125,-43.9453125,-32.2265625,-20.5078125,0.0
1734581357.5187426,-28.80859375,-45.41015625,-26.3671875,-48.33984375,0.0
1734581357.522648,-12.20703125,-42.96875,-24.90234375,-41.015625,0.0
1734581357.5265536,-19.53125,-44.921875,-29.78515625,-2.44140625,0.0
1734581357.5304794,-34.66796875,-47.36328125,-34.66796875,9.765625,0.0
1734581357.534385,-37.59765625,-44.43359375,-38.57421875,-15.13671875,0.0
1734581357.5382903,-19.53125,-38.57421875,-37.109375,-40.0390625,0.0
1734581357.5421958,-9.765625,-40.0390625,-29.78515625,-37.59765625,0.0
1734581357.5461013,-22.4609375,-44.43359375,-26.3671875,-4.39453125,0.0
1734581357.5500066,-32.2265625,-42.48046875,-31.25,-0.9765625,0.0
1734581357.5539122,-30.2734375,-39.55078125,-34.1796875,-17.578125,0.0
1734581357.5578177,-18.06640625,-43.45703125,-37.109375,-45.41015625,0.0
1734581357.561723,-13.671875,-48.33984375,-38.57421875,-64.453125,0.0
1734581357.5656285,-18.5546875,-44.43359375,-36.1328125,-23.92578125,0.0
1734581357.5695338,-36.1328125,-42.96875,-34.66796875,0.0,0.0
1734581357.5734394,-56.640625,-41.9921875,-33.69140625,-12.6953125,0.0
1734581357.5773091,-39.55078125,-44.921875,-32.2265625,-53.22265625,0.0
1734581357.5812147,-18.06640625,-44.921875,-32.2265625,-72.265625,0.0
1734581357.58512,-26.3671875,-42.96875,-30.2734375,-32.71484375,0.0
1734581357.5890255,-34.66796875,-43.9453125,-29.296875,0.0,0.0
1734581357.592931,-38.0859375,-45.41015625,-35.64453125,-9.765625,0.0
1734581357.5968363,-36.62109375,-49.31640625,-40.0390625,-39.0625,0.0
1734581357.6007419,-20.5078125,-49.8046875,-40.52734375,-51.26953125,0.0
1734581357.6046474,-11.71875,-46.875,-34.1796875,-25.390625,0.0
1734581357.6085527,-16.6015625,-41.50390625,-30.76171875,-2.44140625,0.0
1734581357.6124582,-28.3203125,-40.0390625,-35.64453125,-6.34765625,0.0
1734581357.6163638,-23.4375,-38.57421875,-34.66796875,-24.90234375,0.0
1734581357.620269,-0.9765625,-37.109375,-33.69140625,-49.31640625,0.0
1734581357.624125,-1.953125,-42.48046875,-33.69140625,-34.66796875,0.0
1734581357.6280303,-22.94921875,-41.9921875,-31.25,-3.90625,0.0
1734581357.6319358,-36.62109375,-38.57421875,-28.80859375,-6.34765625,0.0
1734581357.6358414,-37.59765625,-43.45703125,-32.2265625,-27.83203125,0.0
1734581357.6397467,-18.06640625,-44.921875,-33.203125,-56.15234375,0.0
1734581357.6436522,-8.30078125,-41.9921875,-29.78515625,-30.76171875,0.0
1734581357.6475577,-26.3671875,-39.0625,-31.73828125,10.25390625,0.0
1734581357.651463,-40.0390625,-37.109375,-31.25,-1.953125,0.0
1734581357.6553686,-46.875,-44.43359375,-29.296875,-31.73828125,0.0
1734581357.659274,-31.73828125,-43.45703125,-31.25,-59.08203125,0.0
1734581357.6631794,-20.5078125,-37.59765625,-35.15625,-48.828125,0.0
1734581357.667085,-27.34375,-38.0859375,-30.2734375,-14.6484375,0.0
1734581357.6710582,-44.921875,-43.45703125,-27.83203125,0.0,0.0
1734581357.6749637,-45.8984375,-41.9921875,-35.15625,0.0,0.0
1734581357.6788692,-23.4375,-39.0625,-31.73828125,0.0,0.0
1734581357.6827745,-15.625,-38.0859375,-31.25,0.0,0.0
1734581357.68668,-21.484375,-35.64453125,-35.64453125,0.0,0.0
1734581357.6905856,-34.1796875,-36.62109375,-31.25,0.0,0.0
1734581357.694491,-38.0859375,-35.15625,-32.71484375,0.0,0.0
1734581357.6983964,-26.85546875,-33.203125,-37.109375,0.0,0.0
1734581357.702302,-16.6015625,-36.1328125,-35.15625,0.0,0.0
1734581357.7062073,-23.92578125,-33.203125,-36.1328125,0.0,0.0
1734581357.7101128,-41.50390625,-30.2734375,-39.55078125,0.0,0.0
1734581357.7140183,-36.62109375,-32.2265625,-38.0859375,0.0,0.0
1734581357.7176447,-16.11328125,-33.69140625,-37.109375,-6.8359375,0.0
1734581357.7215502,-4.8828125,-34.1796875,-38.0859375,-23.4375,0.0
1734581357.7254555,-13.18359375,-35.64453125,-35.64453125,-54.6875,0.0
1734581357.729361,-21.97265625,-32.71484375,-32.2265625,-53.7109375,0.0
1734581357.7332666,-34.1796875,-36.62109375,-34.1796875,-8.7890625,0.0
1734581357.737172,-36.1328125,-34.66796875,-34.1796875,-3.90625,0.0
1734581357.7410774,-21.484375,-30.76171875,-31.73828125,-27.83203125,0.0
1734581357.744983,-22.94921875,-37.109375,-28.80859375,-45.8984375,0.0
1734581357.7488883,-40.52734375,-41.50390625,-29.78515625,-46.875,0.0
1734581357.7527938,-41.50390625,-40.0390625,-36.1328125,-7.8125,0.0
1734581357.7566993,-26.85546875,-37.59765625,-34.1796875,-1.46484375,0.0
1734581357.7606046,-15.13671875,-37.109375,-26.85546875,-19.53125,0.0
1734581357.764554,-24.4140625,-38.57421875,-27.34375,-43.9453125,0.0
1734581357.7684593,-50.29296875,-40.52734375,-28.3203125,-2.44140625,0.0
1734581357.7723649,-51.7578125,-37.59765625,-29.78515625,-10.25390625,0.0
1734581357.7762704,-40.0390625,-37.59765625,-30.76171875,-37.109375,0.0
1734581357.7801757,-20.99609375,-35.15625,-29.78515625,-53.22265625,0.0
1734581357.7840812,-17.578125,-32.2265625,-29.296875,-32.2265625,0.0
1734581357.7879868,-40.0390625,-34.66796875,-28.3203125,0.48828125,0.0
1734581357.791892,-59.5703125,-41.50390625,-29.78515625,-6.8359375,0.0
1734581357.7957976,-54.19921875,-43.45703125,-31.73828125,-39.55078125,0.0
1734581357.799703,-28.3203125,-40.52734375,-32.2265625,-74.70703125,0.0
1734581357.8036084,-12.6953125,-36.1328125,-34.66796875,-55.6640625,0.0
1734581357.807514,-27.83203125,-33.69140625,-32.71484375,-11.71875,0.0
1734581357.8114462,0.0,-38.57421875,0.0,-19.04296875,0.0
1734581357.8153517,0.0,-37.59765625,0.0,-46.875,0.0
1734581357.8192573,0.0,-35.64453125,0.0,-68.359375,0.0
1734581357.8231626,0.0,-34.1796875,0.0,-63.4765625,0.0
1734581357.827068,0.0,-31.73828125,0.0,-27.34375,0.0
1734581357.8309736,0.0,-30.76171875,0.0,-19.53125,0.0
1734581357.834879,0.0,-29.296875,0.0,-48.33984375,0.0
1734581357.8387845,0.0,-31.73828125,0.0,-67.87109375,0.0
1734581357.8426898,0.0,-37.59765625,0.0,-57.6171875,0.0
1734581357.8465953,0.0,-39.55078125,0.0,-30.76171875,0.0
1734581357.8505008,0.0,-36.62109375,0.0,-12.20703125,0.0
1734581357.854406,0.0,-30.2734375,0.0,-23.4375,0.0
1734581357.858004,-58.10546875,-25.87890625,-33.203125,-51.7578125,0.0
1734581357.8619094,-58.59375,-24.4140625,-30.76171875,-47.36328125,0.0
1734581357.865815,-36.1328125,-29.78515625,-32.71484375,-8.30078125,0.0
1734581357.8697205,-35.64453125,-28.80859375,-32.71484375,2.44140625,0.0
1734581357.8736258,-54.6875,-27.34375,-35.15625,-22.94921875,0.0
1734581357.8775313,-64.94140625,-30.76171875,-38.0859375,-55.6640625,0.0
1734581357.8814368,-70.3125,-28.80859375,-38.57421875,-63.96484375,0.0
1734581357.8853421,-51.26953125,-30.76171875,-39.0625,-26.85546875,0.0
1734581357.8892477,-41.015625,-27.83203125,-32.71484375,1.953125,0.0
1734581357.8931532,-49.31640625,-20.99609375,-28.3203125,-13.671875,0.0
1734581357.8970585,-49.8046875,-23.92578125,-35.64453125,-56.15234375,0.0
1734581357.900964,-51.26953125,-26.3671875,-37.59765625,-78.125,0.0
1734581357.9048598,-17.578125,-25.390625,-34.66796875,-43.9453125,0.0
1734581357.9087653,-48.33984375,-27.34375,-32.2265625,-12.6953125,0.0
1734581357.9126706,-74.70703125,-27.83203125,-29.296875,-22.4609375,0.0
1734581357.9165761,-62.5,-28.3203125,-28.3203125,-56.15234375,0.0
1734581357.9204814,-36.62109375,-32.2265625,-35.64453125,-66.89453125,0.0
1734581357.924387,-41.015625,-34.1796875,-40.52734375,-36.62109375,0.0
1734581357.9282925,-56.640625,-34.66796875,-37.59765625,-15.13671875,0.0
1734581357.9321978,-60.546875,-33.203125,-39.0625,-20.99609375,0.0
1734581357.9361033,-53.7109375,-29.78515625,-38.57421875,-60.05859375,0.0
1734581357.9400089,-31.25,-27.83203125,-35.64453125,-83.0078125,0.0
1734581357.9439142,-27.34375,-36.1328125,-34.66796875,-45.41015625,0.0
1734581357.9478197,-42.48046875,-38.57421875,-35.15625,-6.8359375,0.0
1734581357.9517093,-50.29296875,-33.203125,-34.66796875,-6.8359375,0.0
1734581357.9556148,-42.96875,-33.203125,-38.57421875,-43.9453125,0.0
1734581357.95952,-31.25,-37.59765625,-41.015625,-78.125,0.0
1734581357.9634256,-30.2734375,-41.9921875,-35.15625,-55.6640625,0.0
1734581357.9673312,-36.1328125,-38.57421875,-37.59765625,-15.13671875,0.0
1734581357.9712365,-41.015625,-33.203125,-41.015625,-12.20703125,0.0
1734581357.975142,-39.0625,-29.78515625,-37.59765625,-30.2734375,0.0
1734581357.9790475,-21.484375,-29.296875,-32.2265625,-59.5703125,0.0
1734581357.9829528,-10.25390625,-31.25,-29.78515625,-52.734375,0.0
1734581357.9868584,-19.53125,-29.78515625,-27.34375,-3.90625,0.0
1734581357.990764,-36.62109375,-27.34375,-24.4140625,4.39453125,0.0
1734581357.9946692,-40.52734375,-27.83203125,-31.73828125,-25.87890625,0.0
1734581357.998547,-22.94921875,-29.296875,-35.15625,-65.4296875,0.0
1734581358.0024524,-10.7421875,-29.78515625,-33.203125,-58.59375,0.0
1734581358.006358,-24.4140625,-28.80859375,-31.73828125,-15.625,0.0
1734581358.0102632,-35.15625,-22.94921875,-25.87890625,-3.90625,0.0
1734581358.0141687,-45.8984375,-25.87890625,-24.4140625,-16.6015625,0.0
1734581358.0180743,-36.1328125,-31.73828125,-23.4375,-39.0625,0.0
1734581358.0219796,-5.37109375,-29.296875,-24.4140625,-27.83203125,0.0
1734581358.025885,-14.16015625,-28.3203125,-28.3203125,0.48828125,0.0
1734581358.0297906,-36.1328125,-26.3671875,-26.85546875,-2.44140625,0.0
1734581358.033696,-36.1328125,-21.484375,-24.90234375,-18.5546875,0.0
1734581358.0376015,-13.671875,-15.13671875,-28.3203125,-52.24609375,0.0
1734581358.041507,-1.46484375,-16.11328125,-27.83203125,-55.6640625,0.0
1734581358.0454988,-16.6015625,-24.4140625,-21.484375,-10.25390625,0.0
1734581358.0494041,-38.57421875,-27.34375,-25.390625,-2.44140625,0.0
1734581358.0533097,-40.0390625,-21.97265625,-34.66796875,-19.53125,0.0
1734581358.0572152,-25.87890625,-21.97265625,-30.76171875,-48.33984375,0.0
1734581358.0611205,-19.04296875,-24.4140625,-25.390625,-62.5,0.0
1734581358.065026,-29.78515625,-21.484375,-29.78515625,-28.3203125,0.0
1734581358.0689316,-45.8984375,-21.484375,-27.83203125,-8.30078125,0.0
1734581358.0728369,-51.7578125,-19.04296875,-25.87890625,-27.83203125,0.0
1734581358.0767424,-38.0859375,-15.625,-29.296875,-68.359375,0.0
1734581358.080648,-22.94921875,-18.5546875,-27.34375,-80.56640625,0.0
1734581358.0845532,-30.2734375,-23.92578125,-30.2734375,-32.71484375,0.0
1734581358.0884588,-15.13671875,-15.13671875,-31.73828125,13.18359375,0.0
1734581358.0924263,-18.06640625,-4.8828125,-37.109375,-8.7890625,0.0
1734581358.0963318,-46.38671875,-9.27734375,-38.57421875,-65.91796875,0.0
1734581358.1002371,-47.36328125,-15.625,-27.34375,-88.37890625,0.0
1734581358.1041427,-47.8515625,-19.53125,-29.296875,-59.08203125,0.0
1734581358.1080482,-45.41015625,-11.23046875,-37.109375,-35.64453125,0.0
1734581358.1119535,-59.08203125,-11.23046875,-33.203125,-54.19921875,0.0
1734581358.115859,-78.125,-20.99609375,-24.4140625,-81.54296875,0.0
1734581358.1197646,-59.08203125,-19.04296875,-21.97265625,-102.05078125,0.0
1734581358.1236699,-41.50390625,-16.6015625,-26.85546875,-72.75390625,0.0
1734581358.1275754,-67.3828125,-19.04296875,-32.71484375,-39.55078125,0.0
1734581358.131481,-69.3359375,-20.5078125,-31.73828125,-42.48046875,0.0
1734581358.1353862,-49.8046875,-29.78515625,-31.73828125,-51.7578125,0.0
1734581358.1393273,-39.55078125,-35.15625,-33.203125,-71.2890625,0.0
1734581358.1432328,-28.3203125,-35.15625,-31.73828125,-53.22265625,0.0
1734581358.1471384,-34.66796875,-32.2265625,-27.83203125,-19.04296875,0.0
1734581358.1510437,-38.0859375,-31.73828125,-21.97265625,-7.32421875,0.0
1734581358.1549492,-32.71484375,-36.1328125,-25.390625,-14.6484375,0.0
1734581358.1588547,-8.7890625,-40.52734375,-23.4375,-37.59765625,0.0
1734581358.16276,-3.41796875,-42.48046875,-24.90234375,-29.78515625,0.0
1734581358.1666656,-7.8125,-31.25,-31.73828125,31.25,0.0
1734581358.170571,-19.53125,-28.80859375,-20.01953125,66.40625,0.0
1734581358.1744764,-30.76171875,-41.50390625,-10.7421875,27.83203125,0.0
1734581358.178382,2.44140625,-50.29296875,-10.25390625,-20.99609375,0.0
1734581358.1822872,31.73828125,-56.640625,-0.48828125,-2.44140625,0.0
1734581358.1863415,0.0,-59.5703125,7.8125,45.8984375,0.0
1734581358.1902468,0.0,-62.98828125,2.9296875,54.6875,0.0
1734581358.1941524,0.0,-66.40625,-5.37109375,46.875,0.0
1734581358.198058,0.0,-60.546875,-0.48828125,25.390625,0.0
1734581358.2019632,0.0,-60.546875,4.8828125,19.04296875,0.0
1734581358.2058687,0.0,-64.94140625,-3.41796875,53.7109375,0.0
1734581358.2097743,0.0,-58.59375,-19.04296875,67.87109375,0.0
1734581358.2136796,0.0,-51.26953125,-27.34375,80.56640625,0.0
1734581358.217585,0.0,-56.640625,-21.484375,50.29296875,0.0
1734581358.2214906,0.0,-63.96484375,-8.30078125,9.27734375,0.0
1734581358.225396,0.0,-62.5,4.8828125,41.50390625,0.0
1734581358.2293015,0.0,-61.03515625,3.41796875,67.3828125,0.0
1734581358.2333374,35.64453125,-56.640625,0.0,49.31640625,0.0
1734581358.2372427,39.55078125,-54.19921875,0.0,21.97265625,0.0
1734581358.2411482,52.24609375,-54.19921875,0.0,15.13671875,0.0
1734581358.2450535,55.17578125,-52.24609375,0.0,44.43359375,0.0
1734581358.248959,42.48046875,-56.15234375,0.0,65.91796875,0.0
1734581358.2528646,37.109375,-58.10546875,0.0,69.3359375,0.0
1734581358.25677,48.828125,-53.7109375,0.0,54.6875,0.0
1734581358.2606754,69.82421875,-58.59375,0.0,31.25,0.0
1734581358.264581,70.3125,-62.5,0.0,57.12890625,0.0
1734581358.2684863,61.5234375,-58.59375,0.0,80.56640625,0.0
1734581358.2723918,57.12890625,-50.29296875,0.0,83.49609375,0.0
1734581358.2762973,60.05859375,-47.36328125,0.0,65.91796875,0.0
1734581358.2802045,77.63671875,-46.38671875,-17.08984375,0.0,0.0
1734581358.28411,97.16796875,-37.59765625,-21.97265625,0.0,0.0
1734581358.2880154,103.02734375,-36.62109375,-14.6484375,0.0,0.0
1734581358.291921,80.56640625,-45.41015625,-15.13671875,0.0,0.0
1734581358.2958264,57.6171875,-53.7109375,-19.53125,0.0,0.0
1734581358.2997317,53.7109375,-49.31640625,-18.5546875,0.0,0.0
1734581358.3036373,53.7109375,-43.9453125,-16.11328125,0.0,0.0
1734581358.3075428,45.41015625,-48.828125,-25.390625,0.0,0.0
1734581358.311448,38.57421875,-45.8984375,-29.78515625,0.0,0.0
1734581358.3153536,41.9921875,-41.50390625,-24.90234375,0.0,0.0
1734581358.3192592,67.3828125,-39.55078125,-22.4609375,0.0,0.0
1734581358.3231645,86.42578125,-35.15625,-20.99609375,0.0,0.0
1734581358.327087,83.0078125,-40.0390625,-24.90234375,73.73046875,0.0
1734581358.3309925,62.98828125,-54.6875,-29.296875,74.70703125,0.0
1734581358.334898,57.6171875,-54.19921875,-29.296875,53.22265625,0.0
1734581358.3388033,77.63671875,-46.875,-25.390625,16.11328125,0.0
1734581358.3427088,88.8671875,-45.41015625,-24.90234375,21.484375,0.0
1734581358.3466144,85.9375,-41.9921875,-34.1796875,72.265625,0.0
1734581358.3505197,62.01171875,-43.9453125,-36.1328125,89.35546875,0.0
1734581358.3544252,36.1328125,-40.52734375,-32.2265625,59.08203125,0.0
1734581358.3583305,41.50390625,-24.4140625,-38.57421875,14.16015625,0.0
1734581358.362236,50.29296875,-20.5078125,-40.52734375,13.18359375,0.0
1734581358.3661416,28.80859375,-26.85546875,-28.3203125,43.45703125,0.0
1734581358.3700469,15.13671875,-36.62109375,-17.08984375,46.38671875,0.0
1734581358.3739152,0.0,-45.8984375,-14.6484375,35.64453125,0.0
1734581358.3778207,0.0,-45.8984375,-15.625,8.30078125,0.0
1734581358.381726,0.0,-45.8984375,-18.06640625,7.8125,0.0
1734581358.3856316,0.0,-47.8515625,-14.16015625,51.7578125,0.0
1734581358.389537,0.0,-48.33984375,-8.30078125,52.734375,0.0
1734581358.3934424,0.0,-53.22265625,-8.30078125,48.828125,0.0
1734581358.397348,0.0,-53.7109375,-7.8125,23.92578125,0.0
1734581358.4012535,0.0,-45.41015625,-8.7890625,-8.30078125,0.0
1734581358.4051588,0.0,-39.55078125,-6.34765625,27.34375,0.0
1734581358.4090643,0.0,-40.52734375,8.30078125,50.29296875,0.0
1734581358.4129698,0.0,-40.52734375,16.6015625,42.96875,0.0
1734581358.4168751,0.0,-38.57421875,19.04296875,12.6953125,0.0
1734581358.420851,93.26171875,-36.1328125,26.3671875,-1.953125,0.0
1734581358.4247565,44.921875,-33.69140625,36.62109375,38.0859375,0.0
1734581358.4286618,-27.83203125,-40.52734375,37.109375,61.03515625,0.0
1734581358.4325674,-42.96875,-41.50390625,35.64453125,45.41015625,0.0
1734581358.436473,-23.4375,-37.109375,37.59765625,4.39453125,0.0
1734581358.4403782,-3.41796875,-34.1796875,42.96875,-21.97265625,0.0
1734581358.4442837,3.41796875,-30.2734375,43.9453125,12.20703125,0.0
1734581358.4481893,-8.7890625,-25.87890625,42.48046875,39.0625,0.0
1734581358.4520946,-7.32421875,-15.625,43.9453125,31.73828125,0.0
1734581358.456,7.32421875,-10.25390625,40.52734375,9.765625,0.0
1734581358.4599056,22.4609375,-10.25390625,37.59765625,-26.85546875,0.0
1734581358.463811,30.76171875,-10.7421875,34.1796875,-3.41796875,0.0
1734581358.467772,19.53125,-7.8125,36.1328125,42.48046875,0.0
1734581358.4716775,-13.18359375,-7.32421875,35.64453125,30.2734375,0.0
1734581358.4755828,-10.7421875,-6.8359375,31.25,4.39453125,0.0
1734581358.4794884,16.6015625,-2.44140625,28.80859375,-22.94921875,0.0
1734581358.483394,10.7421875,0.0,25.390625,-10.25390625,0.0
1734581358.4872992,22.94921875,1.953125,30.2734375,44.43359375,0.0
1734581358.4912047,16.11328125,-3.41796875,29.78515625,41.9921875,0.0
1734581358.4951103,-10.7421875,-7.8125,8.7890625,-5.859375,0.0
1734581358.4990156,-5.37109375,-2.9296875,-1.953125,-23.92578125,0.0
1734581358.502921,15.625,0.48828125,4.39453125,-7.32421875,0.0
1734581358.5068266,27.83203125,-13.671875,16.6015625,25.390625,0.0
1734581358.510732,-9.27734375,-33.203125,19.53125,25.87890625,0.0
1734581358.5146694,-37.109375,-33.69140625,13.18359375,-27.83203125,0.0
1734581358.518575,-20.01953125,-24.90234375,19.53125,-61.03515625,0.0
1734581358.5224805,-17.578125,-35.15625,21.97265625,-41.015625,0.0
1734581358.5263858,-22.94921875,-52.24609375,24.4140625,9.27734375,0.0
1734581358.5302913,-27.34375,-50.29296875,26.3671875,31.73828125,0.0
1734581358.5341969,-39.55078125,-50.78125,23.92578125,25.390625,0.0
1734581358.5381021,-27.83203125,-57.6171875,25.390625,-2.9296875,0.0
1734581358.5420077,-7.32421875,-57.12890625,27.34375,-11.71875,0.0
1734581358.5459132,-7.32421875,-58.10546875,33.69140625,41.015625,0.0
1734581358.5498185,-14.16015625,-56.15234375,33.203125,73.2421875,0.0
1734581358.553724,-45.8984375,-58.59375,34.66796875,49.8046875,0.0
1734581358.5576296,-56.640625,-64.453125,40.52734375,9.765625,0.0
1734581358.5615501,-33.203125,-66.40625,28.80859375,-10.7421875,0.0
1734581358.5654557,-38.0859375,-62.01171875,20.5078125,43.45703125,0.0
1734581358.5693612,-59.08203125,-66.40625,29.296875,70.80078125,0.0
1734581358.5732665,-86.42578125,-76.66015625,37.59765625,41.015625,0.0
1734581358.577172,-91.30859375,-79.1015625,34.66796875,11.71875,0.0
1734581358.5810776,-61.5234375,-73.73046875,27.34375,-4.39453125,0.0
1734581358.5849829,-44.43359375,-63.96484375,24.90234375,38.0859375,0.0
1734581358.5888884,-29.296875,-53.22265625,20.01953125,88.37890625,0.0
1734581358.592794,-15.13671875,-50.29296875,14.6484375,83.984375,0.0
1734581358.5966992,-19.04296875,-55.6640625,6.8359375,27.83203125,0.0
1734581358.6006048,-10.7421875,-57.6171875,5.859375,-13.18359375,0.0
1734581358.6045103,-12.20703125,-56.15234375,10.25390625,18.5546875,0.0
1734581358.6084273,-26.3671875,-46.38671875,1.953125,54.19921875,0.0
1734581358.6123328,-25.390625,-30.76171875,-1.46484375,34.1796875,0.0
1734581358.6162384,-40.0390625,-37.59765625,4.39453125,-30.2734375,0.0
1734581358.6201437,-41.9921875,-46.875,3.41796875,-58.59375,0.0
1734581358.6240492,-21.484375,-46.875,-0.9765625,-14.16015625,0.0
1734581358.6279547,-31.25,-49.31640625,-4.8828125,11.23046875,0.0
1734581358.63186,-38.0859375,-47.8515625,0.48828125,4.39453125,0.0
1734581358.6357656,-22.94921875,-48.828125,3.90625,-1.953125,0.0
1734581358.639671,-13.18359375,-42.48046875,-5.37109375,-24.4140625,0.0
1734581358.6435764,-11.71875,-32.71484375,-5.859375,-17.578125,0.0
1734581358.647482,-35.15625,-32.71484375,-12.20703125,7.8125,0.0
1734581358.6513875,-46.38671875,-35.15625,-14.16015625,6.34765625,0.0
1734581358.6552844,0.0,-37.109375,-10.7421875,-14.16015625,0.0
1734581358.6591897,0.0,-37.59765625,-10.7421875,-43.45703125,0.0
1734581358.6630952,0.0,-39.55078125,-6.8359375,-17.08984375,0.0
1734581358.6670008,0.0,-38.57421875,-2.9296875,25.87890625,0.0
1734581358.670906,0.0,-43.45703125,-5.37109375,14.16015625,0.0
1734581358.6748116,0.0,-43.9453125,-9.765625,-1.953125,0.0
1734581358.6787171,0.0,-36.62109375,-19.53125,-29.78515625,0.0
1734581358.6826224,0.0,-38.0859375,-21.97265625,-27.83203125,0.0
1734581358.686528,0.0,-43.9453125,-6.34765625,-3.41796875,0.0
1734581358.6904335,0.0,-48.33984375,1.953125,-3.90625,0.0
1734581358.6943388,0.0,-51.7578125,-5.37109375,-7.32421875,0.0
1734581358.6982443,0.0,-55.6640625,-9.765625,-43.45703125,0.0
1734581358.7021346,-92.7734375,-54.19921875,-8.7890625,-55.17578125,0.0
1734581358.70604,-92.7734375,-40.52734375,-17.08984375,4.8828125,0.0
1734581358.7099454,-95.21484375,-27.83203125,-25.87890625,27.34375,0.0
1734581358.713851,-102.5390625,-39.55078125,-18.06640625,-8.30078125,0.0
1734581358.7177563,-89.84375,-48.33984375,-3.90625,-54.19921875,0.0
1734581358.7216618,-66.40625,-42.96875,2.9296875,-64.453125,0.0
1734581358.7255673,-75.1953125,-41.9921875,3.41796875,-17.08984375,0.0
1734581358.7294726,-62.5,-41.50390625,2.9296875,9.765625,0.0
1734581358.7333782,-39.0625,-39.0625,-0.48828125,4.39453125,0.0
1734581358.7372837,-36.1328125,-41.9921875,-6.34765625,-20.5078125,0.0
1734581358.741189,-4.39453125,-41.9921875,-5.37109375,-39.0625,0.0
1734581358.7450945,3.90625,-35.64453125,0.0,-8.30078125,0.0
1734581358.7489614,-28.3203125,-38.0859375,6.34765625,10.7421875,0.0
1734581358.752867,-51.26953125,-37.59765625,14.16015625,8.30078125,0.0
1734581358.7567723,-49.8046875,-31.25,17.08984375,-21.484375,0.0
1734581358.7606778,-35.15625,-33.69140625,10.7421875,-62.98828125,0.0
1734581358.7645833,-33.203125,-35.15625,6.8359375,-42.96875,0.0
1734581358.7684886,-43.45703125,-27.34375,11.71875,10.7421875,0.0
1734581358.7723942,-42.96875,-21.484375,12.20703125,18.5546875,0.0
1734581358.7762997,-34.66796875,-24.90234375,16.11328125,-18.06640625,0.0
1734581358.780205,-16.11328125,-20.5078125,23.92578125,-46.38671875,0.0
1734581358.7841105,-6.8359375,-21.97265625,31.25,-4.8828125,0.0
1734581358.788016,6.34765625,-27.34375,44.921875,69.3359375,0.0
1734581358.7919214,10.7421875,-3.90625,39.0625,47.36328125,0.0
1734581358.7959034,-8.7890625,20.01953125,15.13671875,-24.90234375,0.0
1734581358.799809,20.99609375,18.5546875,8.30078125,-52.734375,0.0
1734581358.8037145,27.34375,-1.46484375,10.7421875,-48.33984375,0.0
1734581358.8076198,7.8125,-6.8359375,19.04296875,-10.7421875,0.0
1734581358.8115253,9.765625,2.9296875,21.484375,0.0,0.0
1734581358.8154309,12.6953125,1.46484375,12.20703125,-45.41015625,0.0
1734581358.8193362,18.5546875,3.41796875,5.37109375,-79.1015625,0.0
1734581358.8232417,42.96875,15.13671875,4.39453125,-47.36328125,0.0
1734581358.8271472,40.52734375,10.7421875,10.25390625,0.9765625,0.0
1734581358.8310525,20.01953125,10.25390625,13.671875,9.27734375,0.0
1734581358.834958,20.5078125,21.484375,19.04296875,-11.71875,0.0
1734581358.8388636,50.78125,20.99609375,25.390625,-30.76171875,0.0
1734581358.8428423,69.82421875,19.04296875,27.34375,-31.25,0.0
1734581358.8467479,45.41015625,20.99609375,31.25,-2.44140625,0.0
1734581358.8506534,36.62109375,18.5546875,40.0390625,7.32421875,0.0
1734581358.8545587,32.71484375,22.94921875,41.50390625,-5.37109375,0.0
1734581358.8584642,39.55078125,35.15625,37.109375,-25.87890625,0.0
1734581358.8623698,59.5703125,39.0625,38.57421875,-29.78515625,0.0
1734581358.866275,47.36328125,38.0859375,44.921875,9.27734375,0.0
1734581358.8701806,44.921875,37.59765625,58.10546875,27.34375,0.0
1734581358.8740861,44.921875,33.203125,54.19921875,12.20703125,0.0
1734581358.8779914,69.3359375,44.921875,44.43359375,0.0,0.0
1734581358.881897,91.30859375,50.78125,49.31640625,-2.9296875,0.0
1734581358.8858025,28.3203125,34.66796875,62.5,16.6015625,0.0
1734581358.8897502,0.0,26.3671875,76.171875,20.01953125,0.0
1734581358.8936558,0.0,29.78515625,79.1015625,13.18359375,0.0
1734581358.8975613,0.0,39.0625,75.1953125,-26.3671875,0.0
1734581358.9014666,0.0,38.57421875,68.84765625,-49.31640625,0.0
1734581358.9053721,0.0,37.109375,60.05859375,-2.44140625,0.0
1734581358.9092777,0.0,35.15625,55.17578125,12.20703125,0.0
1734581358.913183,0.0,34.1796875,62.01171875,11.23046875,0.0
1734581358.9170885,0.0,23.4375,60.546875,-10.25390625,0.0
1734581358.920994,0.0,19.53125,53.22265625,-30.76171875,0.0
1734581358.9248993,0.0,27.83203125,49.8046875,4.39453125,0.0
1734581358.9288049,0.0,20.01953125,51.7578125,28.3203125,0.0
1734581358.9327104,0.0,11.23046875,62.01171875,33.203125,0.0
1734581358.9364178,-1.46484375,5.859375,59.08203125,0.0,0.0
1734581358.9403234,25.390625,1.953125,53.7109375,0.0,0.0
1734581358.9442286,39.55078125,1.953125,54.6875,0.0,0.0
1734581358.9481342,52.24609375,-0.48828125,50.78125,0.0,0.0
1734581358.9520397,51.26953125,-5.37109375,47.36328125,0.0,0.0
1734581358.955945,30.2734375,-7.32421875,48.33984375,0.0,0.0
1734581358.9598505,35.64453125,-10.7421875,48.828125,0.0,0.0
1734581358.963756,56.15234375,-17.578125,41.50390625,0.0,0.0
1734581358.9676614,72.265625,-8.30078125,32.71484375,0.0,0.0
1734581358.971567,82.03125,2.9296875,48.828125,0.0,0.0
1734581358.9754725,77.1484375,-18.06640625,65.4296875,0.0,0.0
1734581358.9793777,55.17578125,-23.92578125,67.87109375,0.0,0.0
1734581358.9829712,58.59375,-21.484375,65.4296875,-9.765625,0.0
1734581358.9868767,82.51953125,-35.64453125,72.265625,-50.29296875,0.0
1734581358.990782,78.61328125,-41.9921875,82.51953125,-17.08984375,0.0
1734581358.9946876,63.4765625,-43.45703125,77.1484375,21.484375,0.0
1734581358.998593,29.78515625,-42.96875,69.82421875,30.76171875,0.0
1734581359.0024984,14.16015625,-41.015625,61.5234375,6.8359375,0.0
1734581359.006404,45.8984375,-37.59765625,47.36328125,-10.7421875,0.0
1734581359.0103095,45.41015625,-35.64453125,36.1328125,10.25390625,0.0
1734581359.0142148,59.5703125,-46.875,33.203125,52.24609375,0.0
1734581359.0181203,64.94140625,-62.98828125,39.0625,76.66015625,0.0
1734581359.0220258,29.78515625,-69.3359375,44.921875,33.69140625,0.0
1734581359.0259311,62.98828125,-65.91796875,41.9921875,7.32421875,0.0
1734581359.0295026,88.8671875,-67.3828125,33.69140625,23.92578125,0.0
1734581359.033408,52.734375,-87.890625,26.3671875,43.45703125,0.0
1734581359.0373135,33.69140625,-94.7265625,32.2265625,54.19921875,0.0
1734581359.041219,26.3671875,-92.7734375,38.0859375,21.484375,0.0
1734581359.0451243,59.08203125,-92.28515625,35.64453125,-28.80859375,0.0
1734581359.0490298,90.8203125,-93.75,30.2734375,-21.484375,0.0
1734581359.0529354,75.1953125,-104.4921875,17.08984375,30.2734375,0.0
1734581359.0568407,73.73046875,-106.93359375,13.18359375,45.8984375,0.0
1734581359.0607462,70.3125,-104.00390625,26.85546875,22.94921875,0.0
1734581359.0646515,69.3359375,-106.4453125,24.90234375,-6.34765625,0.0
1734581359.068557,72.75390625,-103.02734375,13.671875,-4.8828125,0.0
1734581359.0724626,84.47265625,-97.65625,16.11328125,45.8984375,0.0
1734581359.0763507,74.70703125,-95.21484375,27.34375,26.3671875,0.0
1734581359.0802562,104.98046875,-88.37890625,40.52734375,22.94921875,0.0
1734581359.0841615,106.93359375,-87.890625,38.57421875,76.171875,0.0
1734581359.088067,78.61328125,-92.28515625,28.80859375,79.1015625,0.0
1734581359.0919726,74.70703125,-88.8671875,28.3203125,66.89453125,0.0
1734581359.095878,94.23828125,-78.125,33.69140625,70.80078125,0.0
1734581359.0997834,110.83984375,-76.171875,28.80859375,61.03515625,0.0
1734581359.103689,110.83984375,-77.63671875,19.53125,70.3125,0.0
1734581359.1075943,96.19140625,-73.73046875,19.04296875,100.09765625,0.0
1734581359.1114998,82.03125,-68.359375,26.85546875,108.88671875,0.0
1734581359.115405,104.4921875,-64.453125,34.66796875,70.3125,0.0
1734581359.1193106,123.53515625,-66.89453125,27.83203125,16.11328125,0.0
1734581359.1231813,121.09375,-64.453125,31.25,65.4296875,0.0
1734581359.1270866,121.58203125,-63.96484375,34.1796875,125.48828125,0.0
1734581359.1309922,113.76953125,-71.77734375,31.25,113.28125,0.0
1734581359.1348975,121.58203125,-66.89453125,29.78515625,77.1484375,0.0
1734581359.138803,135.7421875,-61.03515625,27.83203125,47.36328125,0.0
1734581359.1427085,140.625,-74.70703125,30.2734375,71.2890625,0.0
1734581359.1466138,116.69921875,-88.8671875,27.83203125,100.5859375,0.0
1734581359.1505194,101.07421875,-87.40234375,22.94921875,95.21484375,0.0
1734581359.154425,119.62890625,-83.0078125,18.5546875,61.5234375,0.0
1734581359.1583302,134.765625,-83.984375,21.97265625,47.36328125,0.0
1734581359.1622357,126.953125,-87.40234375,27.34375,74.21875,0.0
1734581359.166141,142.578125,-70.80078125,26.85546875,92.28515625,0.0
1734581359.1701195,0.0,-48.828125,26.85546875,0.0,0.0
1734581359.1740248,0.0,-57.12890625,23.4375,0.0,0.0
1734581359.1779304,0.0,-69.3359375,12.6953125,0.0,0.0
1734581359.181836,0.0,-71.77734375,11.23046875,0.0,0.0
1734581359.1857412,0.0,-71.77734375,12.20703125,0.0,0.0
1734581359.1896467,0.0,-69.3359375,1.46484375,0.0,0.0
1734581359.193552,0.0,-72.265625,1.46484375,0.0,0.0
1734581359.1974576,0.0,-78.125,12.6953125,0.0,0.0
1734581359.201363,0.0,-78.61328125,20.01953125,0.0,0.0
1734581359.2052684,0.0,-88.37890625,19.53125,0.0,0.0
1734581359.209174,0.0,-93.75,16.11328125,0.0,0.0
1734581359.2130795,0.0,-81.0546875,13.671875,0.0,0.0
1734581359.2167194,157.2265625,-82.03125,7.8125,94.23828125,0.0
1734581359.220625,173.828125,-89.35546875,-0.9765625,81.54296875,0.0
1734581359.2245302,175.29296875,-90.33203125,-4.8828125,70.3125,0.0
1734581359.2284358,160.15625,-92.28515625,-0.9765625,89.35546875,0.0
1734581359.2323413,147.94921875,-95.703125,0.0,123.046875,0.0
1734581359.2362466,173.33984375,-94.23828125,-3.41796875,136.71875,0.0
1734581359.2401521,187.98828125,-92.7734375,-3.41796875,110.83984375,0.0
1734581359.2440574,178.7109375,-92.7734375,-0.9765625,65.91796875,0.0
1734581359.247963,165.52734375,-94.7265625,-3.90625,77.1484375,0.0
1734581359.2518685,159.1796875,-91.30859375,-11.71875,121.58203125,0.0
1734581359.2557738,190.91796875,-77.63671875,-7.8125,125.48828125,0.0
1734581359.2596793,184.5703125,-77.63671875,-12.20703125,82.51953125,0.0
1734581359.2636385,136.71875,-95.703125,-22.4609375,90.33203125,0.0
1734581359.267544,114.2578125,-99.609375,-27.34375,72.75390625,0.0
1734581359.2714493,85.9375,-99.12109375,-37.59765625,70.80078125,0.0
1734581359.2753549,109.86328125,-90.8203125,-38.57421875,68.84765625,0.0
1734581359.2792602,142.08984375,-86.9140625,-23.92578125,51.26953125,0.0
1734581359.2831657,109.86328125,-95.21484375,-14.6484375,52.734375,0.0
1734581359.2870712,84.9609375,-90.8203125,-13.18359375,67.87109375,0.0
1734581359.2909765,88.8671875,-86.42578125,-10.7421875,74.70703125,0.0
1734581359.294882,104.98046875,-83.984375,-10.7421875,68.84765625,0.0
1734581359.2987876,117.67578125,-82.51953125,-15.625,47.36328125,0.0
1734581359.302693,107.421875,-83.0078125,-14.6484375,52.24609375,0.0
1734581359.3065984,101.07421875,-78.61328125,-18.5546875,76.66015625,0.0
1734581359.3107936,0.0,-73.73046875,-24.90234375,72.75390625,0.0
1734581359.314699,0.0,-68.84765625,-15.13671875,63.4765625,0.0
1734581359.3186045,0.0,-62.98828125,-1.953125,76.171875,0.0
1734581359.32251,0.0,-58.59375,-0.9765625,87.890625,0.0
1734581359.3264153,0.0,-53.22265625,-4.8828125,130.37109375,0.0
1734581359.3303208,0.0,-51.7578125,0.48828125,123.046875,0.0
1734581359.3342264,0.0,-50.29296875,6.8359375,48.33984375,0.0
1734581359.3381317,0.0,-44.43359375,8.30078125,56.640625,0.0
1734581359.3420372,0.0,-36.1328125,-2.9296875,61.03515625,0.0
1734581359.3459427,0.0,-35.15625,-10.7421875,20.01953125,0.0
1734581359.349848,0.0,-44.43359375,-6.8359375,21.97265625,0.0
1734581359.3537536,0.0,-44.921875,0.48828125,35.64453125,0.0
1734581359.357664,119.140625,-35.64453125,1.953125,27.83203125,0.0
1734581359.3615694,125.9765625,-28.80859375,8.30078125,32.2265625,0.0
1734581359.365475,118.1640625,-27.34375,13.18359375,56.15234375,0.0
1734581359.3693802,106.93359375,-32.2265625,8.7890625,47.8515625,0.0
1734581359.3732858,102.5390625,-32.71484375,0.9765625,23.92578125,0.0
1734581359.3771913,121.58203125,-25.390625,1.953125,16.6015625,0.0
1734581359.3810966,126.953125,-16.11328125,10.7421875,14.6484375,0.0
1734581359.3850021,108.3984375,-11.71875,14.16015625,38.0859375,0.0
1734581359.3889077,96.19140625,-9.27734375,16.6015625,60.546875,0.0
1734581359.392813,100.09765625,-5.37109375,17.578125,51.7578125,0.0
1734581359.3967185,125.48828125,-7.32421875,16.6015625,34.66796875,0.0
1734581359.4006238,126.953125,-10.25390625,15.625,42.96875,0.0
1734581359.4045203,96.19140625,-11.23046875,12.6953125,60.546875,0.0
1734581359.4084256,86.9140625,-10.7421875,11.71875,38.57421875,0.0
1734581359.412331,84.9609375,-5.859375,13.18359375,21.97265625,0.0
1734581359.4162364,108.3984375,1.953125,16.11328125,13.671875,0.0
1734581359.420142,120.1171875,0.9765625,18.06640625,0.9765625,0.0
1734581359.4240475,121.58203125,2.9296875,13.671875,6.8359375,0.0
1734581359.4279528,117.1875,6.34765625,10.7421875,18.06640625,0.0
1734581359.4318583,81.54296875,-0.9765625,9.27734375,9.765625,0.0
1734581359.4357638,75.68359375,-0.48828125,6.8359375,6.34765625,0.0
1734581359.4396691,104.4921875,11.71875,5.859375,12.6953125,0.0
1734581359.4435747,132.32421875,19.53125,4.8828125,12.6953125,0.0
1734581359.44748,108.88671875,20.5078125,1.46484375,18.06640625,0.0
1734581359.4513702,90.33203125,19.53125,-0.9765625,14.6484375,0.0
1734581359.4552755,93.75,17.578125,-2.9296875,-3.41796875,0.0
1734581359.459181,80.078125,14.16015625,-9.27734375,-11.23046875,0.0
1734581359.4630864,58.10546875,17.08984375,-13.18359375,-13.18359375,0.0
1734581359.466992,43.9453125,20.99609375,-14.6484375,0.0,0.0
1734581359.4708974,39.0625,19.04296875,-22.4609375,-2.44140625,0.0
1734581359.4748027,37.59765625,15.625,-26.85546875,-16.6015625,0.0
1734581359.4787083,33.203125,8.7890625,-28.3203125,-25.87890625,0.0
1734581359.4826138,13.671875,12.20703125,-29.296875,-7.8125,0.0
1734581359.486519,18.5546875,14.6484375,-27.34375,31.25,0.0
1734581359.4904246,26.85546875,13.18359375,-32.2265625,1.46484375,0.0
1734581359.4943302,1.953125,23.92578125,-44.921875,-75.68359375,0.0
1734581359.4981968,-1.953125,26.85546875,-53.7109375,-99.12109375,0.0
1734581359.5021021,15.13671875,24.4140625,-49.8046875,-63.4765625,0.0
1734581359.5060077,18.5546875,24.90234375,-49.8046875,-35.64453125,0.0
1734581359.5099132,28.80859375,33.203125,-53.22265625,-37.109375,0.0
1734581359.5138185,30.76171875,38.0859375,-51.26953125,-47.8515625,0.0
1734581359.517724,35.15625,38.0859375,-48.33984375,-52.734375,0.0
1734581359.5216296,43.45703125,44.43359375,-52.734375,-44.43359375,0.0
1734581359.5255349,4.8828125,47.36328125,-61.03515625,-42.48046875,0.0
1734581359.5294404,-50.29296875,41.015625,-62.01171875,-31.25,0.0
1734581359.5333457,-51.7578125,44.921875,-60.546875,-48.33984375,0.0
1734581359.5372512,-67.87109375,49.8046875,-64.94140625,-80.56640625,0.0
1734581359.5411568,-59.08203125,45.41015625,-69.82421875,-71.77734375,0.0
1734581359.5451653,0.0,42.96875,-78.125,-72.75390625,0.0
1734581359.5490706,0.0,44.43359375,-92.7734375,-105.95703125,0.0
1734581359.5529761,0.0,41.9921875,-102.05078125,-117.1875,0.0
1734581359.5568817,0.0,39.55078125,-104.00390625,-134.27734375,0.0
1734581359.560787,0.0,38.57421875,-97.16796875,-154.78515625,0.0
1734581359.5646925,0.0,34.1796875,-83.0078125,-125.48828125,0.0
1734581359.5685978,0.0,33.69140625,-74.21875,-110.83984375,0.0
1734581359.5725033,0.0,31.73828125,-75.1953125,-136.23046875,0.0
1734581359.5764089,0.0,23.4375,-75.68359375,-153.80859375,0.0
1734581359.5803142,0.0,19.53125,-73.2421875,-145.99609375,0.0
1734581359.5842197,0.0,23.92578125,-78.125,-134.27734375,0.0
1734581359.5881252,0.0,29.78515625,-84.47265625,-129.39453125,0.0
1734581359.591788,-55.17578125,30.76171875,-99.12109375,-110.83984375,0.0
1734581359.5956933,-87.40234375,24.90234375,-128.41796875,-101.5625,0.0
1734581359.599599,-120.60546875,23.92578125,-148.4375,-106.93359375,0.0
1734581359.6035042,-105.46875,22.94921875,-151.3671875,-118.1640625,0.0
1734581359.6074097,-67.87109375,16.11328125,-154.78515625,-105.95703125,0.0
1734581359.6113153,-65.91796875,22.4609375,-161.62109375,-128.41796875,0.0
1734581359.6152205,-60.546875,33.203125,-156.73828125,-190.4296875,0.0
1734581359.619126,-74.21875,37.109375,-150.87890625,-202.1484375,0.0
1734581359.6230316,-93.26171875,41.015625,-148.4375,-167.96875,0.0
1734581359.626937,-92.7734375,45.8984375,-144.04296875,-139.16015625,0.0
1734581359.6308424,-74.70703125,37.59765625,-145.5078125,-157.2265625,0.0
1734581359.6347477,-51.7578125,29.78515625,-145.5078125,-185.546875,0.0
1734581359.6386917,-92.28515625,40.0390625,-141.6015625,-192.87109375,0.0
1734581359.642597,-92.7734375,42.96875,-139.16015625,-175.29296875,0.0
1734581359.6465025,-112.3046875,37.59765625,-142.08984375,-164.0625,0.0
1734581359.650408,-106.4453125,40.0390625,-141.6015625,-175.78125,0.0
1734581359.6543133,-149.90234375,41.9921875,-133.30078125,-185.05859375,0.0
1734581359.6582189,-222.65625,40.52734375,-128.90625,-197.75390625,0.0
1734581359.6621242,-230.95703125,41.9921875,-128.41796875,-197.265625,0.0
1734581359.6660297,-229.98046875,43.9453125,-128.90625,-191.40625,0.0
1734581359.6699352,-232.421875,43.9453125,-131.8359375,-193.84765625,0.0
1734581359.6738405,-216.796875,41.9921875,-130.859375,-204.58984375,0.0
1734581359.677746,-214.84375,35.15625,-130.859375,-229.4921875,0.0
1734581359.6816516,-222.16796875,38.57421875,-129.8828125,-237.79296875,0.0
1734581359.685585,-257.8125,40.0390625,-125.9765625,-217.7734375,0.0
1734581359.6894906,-295.41015625,39.0625,-125.0,-219.23828125,0.0
1734581359.6933959,-270.5078125,52.24609375,-120.60546875,-234.86328125,0.0
1734581359.6973014,-290.0390625,58.10546875,-113.76953125,-272.4609375,0.0
1734581359.701207,-304.6875,60.546875,-106.93359375,-311.03515625,0.0
1734581359.7051122,-310.05859375,61.5234375,-101.5625,-270.5078125,0.0
1734581359.7090178,-378.41796875,62.5,-105.46875,-234.375,0.0
1734581359.7129233,-397.94921875,58.10546875,-101.5625,-230.46875,0.0
1734581359.7168286,-404.78515625,52.24609375,-91.30859375,-250.48828125,0.0
1734581359.7207341,-402.83203125,61.5234375,-92.28515625,-271.97265625,0.0
1734581359.7246394,-354.00390625,71.2890625,-97.65625,-223.14453125,0.0
1734581359.728545,-328.61328125,71.77734375,-97.16796875,-229.00390625,0.0
1734581359.7325084,-330.078125,75.68359375,-92.7734375,-266.11328125,0.0
1734581359.736414,-321.2890625,69.82421875,-89.35546875,-270.99609375,0.0
1734581359.7403195,-360.3515625,57.6171875,-92.28515625,-319.82421875,0.0
1734581359.7442248,-420.41015625,59.5703125,-92.7734375,-300.29296875,0.0
1734581359.7481303,-402.34375,61.5234375,-89.35546875,-270.99609375,0.0
1734581359.7520356,-364.74609375,56.640625,-91.30859375,-309.08203125,0.0
1734581359.7559412,-368.65234375,48.33984375,-88.8671875,-331.54296875,0.0
1734581359.7598467,-375.9765625,45.8984375,-90.8203125,-315.91796875,0.0
1734581359.763752,-393.5546875,41.50390625,-97.65625,-348.14453125,0.0
1734581359.7676575,-424.31640625,33.203125,-95.703125,-399.4140625,0.0
1734581359.771563,-425.78125,32.71484375,-89.35546875,-376.46484375,0.0
1734581359.7754683,-394.53125,35.15625,-88.37890625,-383.30078125,0.0
1734581359.7793703,-385.25390625,36.62109375,-94.23828125,-429.19921875,0.0
1734581359.7832756,-400.390625,37.109375,-91.796875,-396.484375,0.0
1734581359.7871811,-381.34765625,39.0625,-89.84375,-348.6328125,0.0
1734581359.7910864,-358.88671875,49.8046875,-93.75,-362.3046875,0.0
1734581359.794992,-362.3046875,56.640625,-92.28515625,-387.6953125,0.0
1734581359.7988975,-364.74609375,60.05859375,-89.35546875,-418.45703125,0.0
1734581359.8028028,-327.1484375,63.96484375,-87.40234375,-421.875,0.0
1734581359.8067083,-263.671875,62.5,-94.23828125,-381.34765625,0.0
1734581359.8106139,-244.62890625,64.94140625,-97.65625,-372.0703125,0.0
1734581359.8145192,-300.78125,69.82421875,-99.12109375,-417.96875,0.0
1734581359.8184247,-377.44140625,66.40625,-104.98046875,-453.61328125,0.0
1734581359.82233,-420.8984375,60.05859375,-99.12109375,-428.7109375,0.0
1734581359.8262882,-400.87890625,67.3828125,-95.21484375,-410.15625,0.0
1734581359.8301935,-372.55859375,72.265625,-111.81640625,-451.66015625,0.0
1734581359.834099,-385.25390625,67.3828125,-129.39453125,-490.72265625,0.0
1734581359.8380046,-388.18359375,62.5,-132.8125,-511.23046875,0.0
1734581359.84191,-381.8359375,61.5234375,-136.23046875,-500.48828125,0.0
1734581359.8458154,-366.69921875,58.59375,-140.625,-469.23828125,0.0
1734581359.8497207,-367.1875,56.15234375,-140.625,-457.03125,0.0
1734581359.8536263,-375.48828125,56.15234375,-133.7890625,-474.609375,0.0
1734581359.8575318,-361.81640625,55.17578125,-127.9296875,-517.578125,0.0
1734581359.861437,-336.9140625,53.22265625,-131.34765625,-522.94921875,0.0
1734581359.8653426,-330.56640625,47.36328125,-126.46484375,-478.02734375,0.0
1734581359.8692482,-328.125,40.52734375,-119.62890625,-452.63671875,0.0
1734581359.873175,-347.16796875,46.38671875,-119.62890625,-467.7734375,0.0
1734581359.8770804,-367.1875,53.7109375,-115.72265625,-510.25390625,0.0
1734581359.880986,-325.1953125,57.6171875,-107.421875,-510.25390625,0.0
1734581359.8848913,-322.75390625,58.59375,-106.4453125,-451.66015625,0.0
1734581359.8887968,-354.4921875,53.7109375,-107.91015625,-418.45703125,0.0
1734581359.8927023,-359.86328125,48.33984375,-102.5390625,-415.52734375,0.0
1734581359.8966076,-365.72265625,49.8046875,-104.98046875,-457.51953125,0.0
1734581359.9005132,-372.0703125,50.78125,-108.3984375,-486.328125,0.0
1734581359.9044187,-376.46484375,45.8984375,-105.95703125,-451.171875,0.0
1734581359.908324,-373.53515625,46.875,-111.81640625,-442.3828125,0.0
1734581359.9122295,-399.4140625,42.96875,-121.58203125,-451.171875,0.0
1734581359.9161348,-417.48046875,38.57421875,-130.37109375,-471.19140625,0.0
1734581359.9201078,-421.875,36.62109375,-138.671875,-499.51171875,0.0
1734581359.9240131,-426.7578125,32.2265625,-145.5078125,-452.1484375,0.0
1734581359.9279187,-426.26953125,28.3203125,-150.87890625,-425.29296875,0.0
1734581359.9318242,-418.45703125,26.3671875,-160.64453125,-429.19921875,0.0
1734581359.9357295,-403.80859375,29.78515625,-171.38671875,-435.05859375,0.0
1734581359.939635,-396.97265625,23.92578125,-173.33984375,-471.19140625,0.0
1734581359.9435403,-370.1171875,15.13671875,-182.12890625,-441.89453125,0.0
1734581359.9474459,-361.328125,14.6484375,-195.80078125,-383.30078125,0.0
1734581359.9513514,-394.53125,7.8125,-190.91796875,-377.44140625,0.0
1734581359.9552567,-407.2265625,7.8125,-170.41015625,-359.375,0.0
1734581359.9591622,-387.20703125,17.08984375,-157.71484375,-359.86328125,0.0
1734581359.9630678,-373.53515625,16.6015625,-156.73828125,-353.02734375,0.0
1734581359.967026,-373.046875,16.6015625,-156.73828125,-333.984375,0.0
1734581359.9709313,-376.46484375,18.06640625,-148.4375,-339.84375,0.0
1734581359.9748368,-366.69921875,14.6484375,-144.53125,-344.7265625,0.0
1734581359.9787421,-333.984375,16.11328125,-139.6484375,-354.98046875,0.0
1734581359.9826477,-317.87109375,18.5546875,-126.46484375,-338.37890625,0.0
1734581359.9865532,-319.3359375,19.04296875,-118.1640625,-288.0859375,0.0
1734581359.9904585,-320.3125,23.92578125,-114.2578125,-282.71484375,0.0
1734581359.994364,-309.5703125,33.203125,-103.515625,-313.4765625,0.0
1734581359.9982696,-274.90234375,41.50390625,-93.75,-330.56640625,0.0
1734581360.0021749,-268.5546875,45.8984375,-83.0078125,-289.0625,0.0
1734581360.0060804,-255.37109375,49.31640625,-64.453125,-225.5859375,0.0
1734581360.009986,-252.44140625,47.36328125,-43.45703125,-208.984375,0.0
1734581360.0139213,-250.0,52.734375,-25.390625,-232.421875,0.0
1734581360.0178268,-231.93359375,63.96484375,-3.90625,-271.97265625,0.0
1734581360.021732,-216.30859375,69.3359375,17.08984375,-254.8828125,0.0
1734581360.0256376,-224.609375,70.3125,26.3671875,-199.70703125,0.0
1734581360.0295432,-235.83984375,75.1953125,33.69140625,-166.9921875,0.0
1734581360.0334485,-234.375,80.56640625,44.921875,-166.9921875,0.0
1734581360.037354,-221.6796875,89.84375,56.15234375,-200.1953125,0.0
1734581360.0412595,-169.43359375,99.609375,63.96484375,-211.42578125,0.0
1734581360.0451648,-177.24609375,104.98046875,73.2421875,-147.4609375,0.0
1734581360.0490704,-196.77734375,109.86328125,78.125,-116.69921875,0.0
1734581360.052976,-168.9453125,115.234375,82.03125,-124.0234375,0.0
1734581360.0568812,-168.45703125,116.69921875,86.9140625,-155.2734375,0.0
1734581360.0608013,-171.38671875,122.55859375,88.37890625,-174.8046875,0.0
1734581360.0647068,-152.83203125,132.32421875,94.23828125,-143.06640625,0.0
1734581360.068612,-121.58203125,139.16015625,95.703125,-118.1640625,0.0
1734581360.0725176,-115.234375,138.18359375,92.28515625,-104.4921875,0.0
1734581360.0764232,-113.76953125,129.8828125,95.21484375,-130.37109375,0.0
1734581360.0803285,-125.0,136.71875,101.5625,-132.32421875,0.0
1734581360.084234,-168.45703125,140.13671875,105.95703125,-85.9375,0.0
1734581360.0881395,-162.59765625,137.20703125,106.93359375,-61.5234375,0.0
1734581360.0920448,-137.6953125,140.13671875,112.79296875,-44.921875,0.0
1734581360.0959504,-127.9296875,140.625,115.72265625,-68.84765625,0.0
1734581360.099856,-103.02734375,135.7421875,112.3046875,-101.5625,0.0
1734581360.1037612,-110.83984375,137.20703125,114.2578125,-74.70703125,0.0
1734581360.107664,-119.140625,145.01953125,113.76953125,-38.57421875,0.0
1734581360.1115696,-104.98046875,150.390625,111.81640625,-48.33984375,0.0
1734581360.115475,-119.140625,150.87890625,114.2578125,-93.26171875,0.0
1734581360.1193805,-96.6796875,145.5078125,110.83984375,-107.421875,0.0
1734581360.123286,-87.40234375,142.578125,102.5390625,-92.7734375,0.0
1734581360.1271913,-100.09765625,145.01953125,104.4921875,-75.68359375,0.0
1734581360.1310968,-94.7265625,147.94921875,102.5390625,-58.10546875,0.0
1734581360.1350021,-88.37890625,151.85546875,102.05078125,-73.2421875,0.0
1734581360.1389077,-79.58984375,153.3203125,101.07421875,-117.67578125,0.0
1734581360.1428132,-80.56640625,150.390625,99.12109375,-131.34765625,0.0
1734581360.1467185,-93.26171875,144.53125,99.609375,-81.0546875,0.0
1734581360.150624,-90.33203125,144.04296875,99.12109375,-50.29296875,0.0
1734581360.1545184,-75.68359375,143.5546875,98.6328125,-72.75390625,0.0
1734581360.158424,-44.43359375,144.04296875,91.30859375,-113.76953125,0.0
1734581360.1623292,-37.109375,144.04296875,87.890625,-102.5390625,0.0
1734581360.1662347,-53.7109375,137.20703125,89.84375,-51.7578125,0.0
1734581360.1701403,-45.41015625,139.6484375,81.0546875,-42.96875,0.0
1734581360.1740456,-51.26953125,134.27734375,73.73046875,-82.51953125,0.0
1734581360.177951,-37.59765625,130.859375,75.68359375,-101.5625,0.0
1734581360.1818564,-20.99609375,135.7421875,77.63671875,-77.1484375,0.0
1734581360.185762,-25.390625,139.16015625,74.21875,-61.03515625,0.0
1734581360.1896675,-16.6015625,141.11328125,69.82421875,-39.55078125,0.0
1734581360.1935728,-21.484375,136.71875,68.359375,-59.08203125,0.0
1734581360.1974783,-8.30078125,133.7890625,68.359375,-91.796875,0.0
1734581360.2013657,21.484375,140.625,72.75390625,-73.73046875,0.0
1734581360.2052712,4.8828125,143.5546875,72.75390625,-52.24609375,0.0
1734581360.2091768,-11.23046875,139.16015625,74.70703125,-43.9453125,0.0
1734581360.213082,-16.6015625,134.27734375,81.0546875,-51.7578125,0.0
1734581360.2169876,-10.7421875,129.39453125,78.61328125,-83.49609375,0.0
1734581360.2208931,-9.765625,127.44140625,77.1484375,-96.6796875,0.0
1734581360.2247984,-40.0390625,123.53515625,80.56640625,-56.15234375,0.0
1734581360.228704,-55.6640625,119.140625,80.56640625,-15.625,0.0
1734581360.2326095,-68.359375,118.1640625,74.70703125,-44.43359375,0.0
1734581360.2365148,-71.2890625,112.3046875,74.70703125,-91.796875,0.0
1734581360.2404203,-53.22265625,109.86328125,73.73046875,-94.7265625,0.0
1734581360.2443256,-38.0859375,107.91015625,65.4296875,-68.359375,0.0
1734581360.2482085,0.0,98.6328125,62.98828125,-31.25,0.0
1734581360.252114,0.0,101.5625,60.05859375,-45.8984375,0.0
1734581360.2560196,0.0,102.5390625,55.6640625,-87.40234375,0.0
1734581360.259925,0.0,96.19140625,55.17578125,-98.6328125,0.0
1734581360.2638304,0.0,92.7734375,56.640625,-61.5234375,0.0
1734581360.267736,0.0,97.65625,51.26953125,-22.4609375,0.0
1734581360.2716413,0.0,98.6328125,44.43359375,-35.64453125,0.0
1734581360.2755468,0.0,97.65625,44.43359375,-57.12890625,0.0
1734581360.2794523,0.0,96.6796875,40.0390625,-75.1953125,0.0
1734581360.2833576,0.0,92.7734375,39.0625,-59.08203125,0.0
1734581360.2872632,0.0,93.26171875,41.015625,-27.83203125,0.0
1734581360.2911687,0.0,89.84375,27.83203125,-41.015625,0.0
1734581360.2951381,13.671875,86.42578125,17.578125,-59.08203125,0.0
1734581360.2990434,25.390625,83.0078125,14.16015625,-80.078125,0.0
1734581360.302949,60.546875,79.58984375,21.97265625,-35.15625,0.0
1734581360.3068545,56.640625,61.03515625,35.64453125,1.46484375,0.0
1734581360.3107598,11.23046875,61.5234375,29.78515625,-50.78125,0.0
1734581360.3146653,2.44140625,80.56640625,20.01953125,-83.984375,0.0
1734581360.3185706,15.13671875,63.96484375,29.296875,-91.30859375,0.0
1734581360.3224761,20.99609375,59.5703125,34.1796875,-58.10546875,0.0
1734581360.3263817,5.859375,66.89453125,31.25,-24.90234375,0.0
1734581360.330287,-16.6015625,54.6875,37.59765625,-16.11328125,0.0
1734581360.3341925,0.48828125,59.08203125,38.57421875,-24.90234375,0.0
1734581360.338098,36.62109375,59.08203125,41.50390625,-36.1328125,0.0
1734581360.3420584,55.6640625,54.19921875,47.8515625,-21.97265625,0.0
1734581360.345964,60.546875,56.640625,43.9453125,2.44140625,0.0
1734581360.3498695,31.25,49.8046875,36.62109375,0.0,0.0
1734581360.3537748,9.27734375,53.22265625,32.2265625,-6.34765625,0.0
1734581360.3576803,20.99609375,51.7578125,27.83203125,-33.69140625,0.0
1734581360.3615859,43.45703125,41.50390625,28.80859375,-70.3125,0.0
1734581360.3654912,49.8046875,40.0390625,31.73828125,-27.83203125,0.0
1734581360.3693967,45.8984375,39.55078125,27.34375,29.296875,0.0
1734581360.3733022,38.0859375,34.1796875,20.5078125,8.7890625,0.0
1734581360.3772075,34.1796875,26.85546875,18.06640625,-24.90234375,0.0
1734581360.381113,32.2265625,29.78515625,16.6015625,-54.6875,0.0
1734581360.3850186,56.640625,37.59765625,16.11328125,-52.734375,0.0
1734581360.388956,47.8515625,33.69140625,16.6015625,-13.671875,0.0
1734581360.3928614,27.83203125,28.80859375,10.25390625,-26.85546875,0.0
1734581360.396767,44.921875,33.203125,10.7421875,-63.96484375,0.0
1734581360.4006722,44.921875,41.50390625,15.13671875,-54.6875,0.0
1734581360.4045777,20.99609375,44.43359375,18.06640625,-2.9296875,0.0
1734581360.4084833,1.953125,43.45703125,19.04296875,-6.8359375,0.0
1734581360.4123886,-7.32421875,51.7578125,17.578125,1.46484375,0.0
1734581360.416294,-15.625,48.828125,20.5078125,-5.859375,0.0
1734581360.4201996,-21.484375,40.0390625,14.16015625,-62.98828125,0.0
1734581360.424105,-20.01953125,39.0625,12.20703125,-41.015625,0.0
1734581360.4280105,-5.37109375,37.59765625,23.92578125,2.9296875,0.0
1734581360.431916,-22.94921875,34.1796875,29.78515625,10.25390625,0.0
1734581360.4359717,-19.04296875,37.109375,0.0,-14.6484375,0.0
1734581360.4398773,13.18359375,41.9921875,0.0,-25.390625,0.0
1734581360.4437826,24.90234375,40.52734375,0.0,-9.27734375,0.0
1734581360.447688,10.7421875,44.43359375,0.0,5.859375,0.0
1734581360.4515936,-9.765625,43.9453125,0.0,-2.44140625,0.0
1734581360.455499,-20.5078125,33.69140625,0.0,-45.41015625,0.0
1734581360.4594045,-16.11328125,32.71484375,0.0,-80.078125,0.0
1734581360.4633098,-23.92578125,38.0859375,0.0,-51.26953125,0.0
1734581360.4672153,-41.015625,38.57421875,0.0,7.32421875,0.0
1734581360.4711208,-62.01171875,37.59765625,0.0,8.7890625,0.0
1734581360.4750261,-59.08203125,39.0625,0.0,-27.83203125,0.0
1734581360.4789317,-2.44140625,46.875,0.0,-43.45703125,0.0
1734581360.4826458,14.6484375,48.828125,30.76171875,-49.8046875,0.0
1734581360.4865513,7.32421875,44.43359375,34.66796875,-17.578125,0.0
1734581360.4904568,1.46484375,44.921875,33.69140625,10.25390625,0.0
1734581360.494362,-23.92578125,41.50390625,24.90234375,-36.1328125,0.0
1734581360.4982677,-15.13671875,36.1328125,16.11328125,-65.91796875,0.0
1734581360.5021732,12.20703125,40.52734375,16.6015625,-31.73828125,0.0
1734581360.5060785,-20.01953125,37.109375,20.99609375,-5.37109375,0.0
1734581360.509984,-67.3828125,26.85546875,17.08984375,-8.7890625,0.0
1734581360.5138896,-26.85546875,33.69140625,12.20703125,-24.90234375,0.0
1734581360.5177948,33.69140625,39.55078125,12.20703125,-62.98828125,0.0
1734581360.5217004,39.0625,40.52734375,4.39453125,-55.6640625,0.0
1734581360.525606,20.99609375,39.0625,2.9296875,-36.62109375,0.0
1734581360.5295064,-17.578125,32.71484375,-12.6953125,-43.9453125,0.0
1734581360.533412,-31.73828125,30.2734375,-9.27734375,-61.03515625,0.0
1734581360.5373173,8.7890625,38.0859375,-6.34765625,-66.40625,0.0
1734581360.5412228,36.62109375,41.50390625,-7.32421875,-54.19921875,0.0
1734581360.545128,12.6953125,41.015625,-7.8125,-36.62109375,0.0
1734581360.5490336,-5.37109375,41.015625,-7.8125,-20.99609375,0.0
1734581360.5529392,-40.0390625,36.62109375,-6.8359375,-32.2265625,0.0
1734581360.5568445,-28.80859375,30.76171875,-5.859375,-40.52734375,0.0
1734581360.56075,-6.8359375,27.83203125,-2.9296875,-35.64453125,0.0
1734581360.5646555,-20.5078125,31.73828125,1.953125,11.23046875,0.0
1734581360.5685608,-41.015625,33.69140625,0.48828125,39.55078125,0.0
1734581360.5724664,-52.24609375,28.3203125,-0.48828125,4.39453125,0.0
1734581360.576352,-22.4609375,20.99609375,0.0,-30.76171875,0.0
1734581360.5802574,-7.32421875,19.53125,2.44140625,-37.59765625,0.0
1734581360.5841627,-21.97265625,22.94921875,9.27734375,8.30078125,0.0
1734581360.5880682,-42.96875,16.6015625,11.23046875,35.15625,0.0
1734581360.5919738,-47.8515625,10.7421875,4.39453125,38.0859375,0.0
1734581360.595879,-41.015625,6.34765625,-0.9765625,7.32421875,0.0
1734581360.5997846,-8.30078125,1.46484375,-6.34765625,-7.8125,0.0
1734581360.6036901,-40.52734375,0.0,-2.9296875,-3.41796875,0.0
1734581360.6075954,-66.89453125,0.0,-2.9296875,-19.53125,0.0
1734581360.611501,-37.109375,-0.48828125,-9.765625,-27.34375,0.0
1734581360.6154063,-43.9453125,-2.9296875,-6.8359375,-34.66796875,0.0
1734581360.6193118,-21.97265625,-7.8125,-5.37109375,-51.7578125,0.0
1734581360.6231873,-56.15234375,-11.71875,-13.671875,-39.0625,0.0
1734581360.6270928,-127.9296875,-12.20703125,-16.11328125,3.41796875,0.0
1734581360.6309981,-104.00390625,-15.13671875,-18.5546875,-20.01953125,0.0
1734581360.6349037,-90.8203125,-16.6015625,-25.390625,-80.56640625,0.0
1734581360.638809,-71.77734375,-15.625,-25.87890625,-80.56640625,0.0
1734581360.6427145,-83.0078125,-20.5078125,-28.80859375,-57.6171875,0.0
1734581360.64662,-123.53515625,-26.85546875,-33.203125,-39.55078125,0.0
1734581360.6505253,-132.32421875,-23.92578125,-32.2265625,-29.296875,0.0
1734581360.6544309,-110.3515625,-19.53125,-30.2734375,-27.34375,0.0
1734581360.6583364,-105.95703125,-22.4609375,-33.69140625,-60.546875,0.0
1734581360.6622417,-108.3984375,-24.90234375,-40.0390625,-59.5703125,0.0
1734581360.6661472,-119.62890625,-31.73828125,-41.50390625,-47.36328125,0.0
1734581360.6701334,-128.41796875,-30.76171875,-34.66796875,-60.05859375,0.0
1734581360.6740386,-81.54296875,-18.06640625,-37.59765625,-83.984375,0.0
1734581360.6779442,-78.125,-14.6484375,-39.55078125,-122.0703125,0.0
1734581360.6818497,-108.3984375,-23.4375,-30.76171875,-96.19140625,0.0
1734581360.685755,-112.3046875,-24.4140625,-36.1328125,-62.5,0.0
1734581360.6896605,-123.046875,-29.296875,-44.43359375,-44.43359375,0.0
1734581360.693566,-122.55859375,-29.296875,-46.875,-57.12890625,0.0
1734581360.6974714,-95.703125,-20.01953125,-47.8515625,-83.984375,0.0
1734581360.701377,-91.796875,-27.34375,-52.24609375,-73.2421875,0.0
1734581360.7052824,-83.0078125,-33.203125,-59.08203125,-34.1796875,0.0
1734581360.7091877,-78.61328125,-29.296875,-53.22265625,-37.59765625,0.0
1734581360.7130933,-87.40234375,-20.01953125,-50.78125,-83.984375,0.0
1734581360.7170496,-79.58984375,-17.08984375,-52.734375,-101.5625,0.0
1734581360.7209551,-73.2421875,-17.578125,-51.26953125,-99.609375,0.0
1734581360.7248604,-83.49609375,-14.6484375,-54.19921875,-77.63671875,0.0
1734581360.728766,-101.07421875,-10.25390625,-52.734375,-138.18359375,0.0
1734581360.7326715,-114.74609375,-11.71875,-46.38671875,-186.5234375,0.0
1734581360.7365768,-99.12109375,-20.99609375,-49.8046875,-197.265625,0.0
1734581360.7404823,-76.171875,-23.92578125,-52.734375,-208.984375,0.0
1734581360.7443879,-56.15234375,-26.85546875,-53.7109375,-165.0390625,0.0
1734581360.7482932,-68.84765625,-32.71484375,-59.08203125,-144.53125,0.0
1734581360.7521987,-94.23828125,-31.25,-65.4296875,-171.38671875,0.0
1734581360.7561042,-86.9140625,-32.71484375,-69.3359375,-236.328125,0.0
1734581360.7600095,-54.6875,-36.1328125,-65.91796875,-258.30078125,0.0
1734581360.763965,-54.6875,-32.71484375,-64.453125,-181.15234375,0.0
1734581360.7678704,-110.83984375,-31.25,-69.3359375,-131.8359375,0.0
1734581360.771776,-101.07421875,-33.69140625,-67.3828125,-149.90234375,0.0
1734581360.7756813,-73.73046875,-32.2265625,-63.96484375,-171.38671875,0.0
1734581360.7795868,-83.0078125,-27.34375,-59.08203125,-169.921875,0.0
1734581360.7834923,-62.98828125,-25.87890625,-54.19921875,-132.8125,0.0
1734581360.7873976,-48.828125,-28.80859375,-59.08203125,-107.421875,0.0
1734581360.7913032,-47.36328125,-27.83203125,-59.08203125,-106.4453125,0.0
1734581360.7952085,-50.78125,-32.2265625,-53.7109375,-105.95703125,0.0
1734581360.799114,-44.921875,-33.69140625,-51.26953125,-120.1171875,0.0
1734581360.8030195,-24.90234375,-27.34375,-49.8046875,-95.703125,0.0
1734581360.8069248,4.39453125,-20.5078125,-46.38671875,-54.6875,0.0
1734581360.8108554,-24.4140625,-22.94921875,-55.17578125,-93.75,0.0
1734581360.814761,-62.98828125,-32.2265625,-59.08203125,-117.67578125,0.0
1734581360.8186662,-50.78125,-37.59765625,-51.26953125,-98.6328125,0.0
1734581360.8225718,-53.22265625,-42.48046875,-58.10546875,-88.8671875,0.0
1734581360.8264773,-54.19921875,-41.9921875,-58.59375,-62.5,0.0
1734581360.8303826,-55.6640625,-41.015625,-57.12890625,-42.96875,0.0
1734581360.8342881,-60.546875,-35.15625,-58.59375,-40.0390625,0.0
1734581360.8381937,-49.31640625,-34.66796875,-59.08203125,-62.5,0.0
1734581360.842099,-41.9921875,-45.8984375,-63.4765625,-57.6171875,0.0
1734581360.8460045,-46.875,-57.6171875,-62.01171875,-29.296875,0.0
1734581360.84991,-57.6171875,-60.05859375,-65.91796875,-28.80859375,0.0
1734581360.8538153,-72.75390625,-61.03515625,-80.56640625,-43.9453125,0.0
1734581360.8577447,-59.08203125,-66.40625,-82.03125,-57.12890625,0.0
1734581360.8616502,-80.56640625,-72.265625,-77.1484375,-55.6640625,0.0
1734581360.8655555,-91.30859375,-74.21875,-75.68359375,-25.87890625,0.0
1734581360.869461,-101.07421875,-69.82421875,-74.21875,-25.390625,0.0
1734581360.8733666,-125.9765625,-67.87109375,-80.56640625,-41.015625,0.0
1734581360.877272,-96.19140625,-67.3828125,-83.0078125,-66.40625,0.0
1734581360.8811774,-104.4921875,-67.3828125,-80.56640625,-64.94140625,0.0
1734581360.885083,-107.91015625,-63.96484375,-80.078125,-17.08984375,0.0
1734581360.8889883,-80.56640625,-55.17578125,-85.44921875,-32.71484375,0.0
1734581360.8928938,-106.93359375,-59.5703125,-84.9609375,-63.96484375,0.0
1734581360.8967993,-109.375,-66.89453125,-73.2421875,-79.58984375,0.0
1734581360.9007046,-94.7265625,-60.05859375,-65.4296875,-74.70703125,0.0
1734581360.904598,-126.953125,-60.546875,-65.4296875,-45.41015625,0.0
1734581360.9085035,-154.78515625,-66.40625,-68.84765625,-34.66796875,0.0
1734581360.9124088,-145.01953125,-70.80078125,-71.77734375,-47.8515625,0.0
1734581360.9163144,-87.890625,-67.87109375,-69.82421875,-62.98828125,0.0
1734581360.92022,-68.359375,-66.89453125,-67.3828125,-69.82421875,0.0
1734581360.9241252,-94.7265625,-70.80078125,-69.3359375,-63.96484375,0.0
1734581360.9280307,-93.75,-68.84765625,-67.3828125,-54.19921875,0.0
1734581360.9319363,-82.03125,-70.80078125,-67.3828125,-62.98828125,0.0
1734581360.9358416,-72.265625,-67.87109375,-69.82421875,-97.16796875,0.0
1734581360.939747,-86.42578125,-67.3828125,-68.359375,-110.3515625,0.0
1734581360.9436526,-107.91015625,-73.2421875,-67.3828125,-61.03515625,0.0
1734581360.947558,-122.0703125,-75.68359375,-67.3828125,-23.92578125,0.0
1734581360.9514534,-139.16015625,-76.171875,-67.87109375,-70.80078125,0.0
1734581360.9553587,-130.37109375,-77.63671875,-63.96484375,-106.93359375,0.0
1734581360.9592643,-116.2109375,-73.2421875,-59.08203125,-105.95703125,0.0
1734581360.9631696,-104.98046875,-69.3359375,-62.01171875,-84.47265625,0.0
1734581360.967075,-85.44921875,-74.21875,-62.01171875,-47.36328125,0.0
1734581360.9709806,-107.91015625,-75.68359375,-61.03515625,-53.7109375,0.0
1734581360.974886,-99.609375,-71.2890625,-56.640625,-74.21875,0.0
1734581360.9787915,-35.15625,-61.03515625,-51.7578125,-102.5390625,0.0
1734581360.982697,-23.4375,-60.05859375,-50.78125,-100.09765625,0.0
1734581360.9866023,-52.24609375,-69.3359375,-44.921875,-81.54296875,0.0
1734581360.9905078,-93.26171875,-69.3359375,-42.96875,-86.42578125,0.0
1734581360.9944134,-126.46484375,-67.87109375,-50.29296875,-111.328125,0.0
1734581360.9982922,-116.69921875,-69.82421875,-53.7109375,-137.6953125,0.0
1734581361.0021977,-118.65234375,-73.73046875,-48.33984375,-95.21484375,0.0
1734581361.0061033,-148.4375,-74.70703125,-42.96875,-45.8984375,0.0
1734581361.0100086,-152.83203125,-67.87109375,-40.52734375,-52.734375,0.0
1734581361.013914,-133.7890625,-69.82421875,-40.0390625,-67.3828125,0.0
1734581361.0178196,-101.5625,-78.61328125,-43.9453125,-64.453125,0.0
1734581361.021725,-78.61328125,-80.56640625,-44.43359375,-41.50390625,0.0
1734581361.0256305,-92.28515625,-82.03125,-47.8515625,-28.80859375,0.0
1734581361.029536,-104.98046875,-86.9140625,-51.26953125,-29.78515625,0.0
1734581361.0334413,-91.30859375,-87.890625,-52.24609375,-62.5,0.0
1734581361.0373468,-76.66015625,-84.47265625,-57.6171875,-143.06640625,0.0
1734581361.0412524,-52.734375,-89.84375,-55.17578125,-158.69140625,0.0
1734581361.0452375,-47.8515625,-93.26171875,-55.6640625,-86.9140625,0.0
1734581361.0491428,-62.98828125,-91.796875,-59.08203125,-51.7578125,0.0
1734581361.0530484,-81.0546875,-93.26171875,-60.05859375,-82.03125,0.0
1734581361.056954,-59.08203125,-90.33203125,-66.40625,-102.5390625,0.0
1734581361.0608592,-22.4609375,-95.21484375,-65.4296875,-81.54296875,0.0
1734581361.0647647,-4.39453125,-99.12109375,-61.5234375,-51.7578125,0.0
1734581361.0686703,-8.7890625,-99.12109375,-70.3125,-50.78125,0.0
1734581361.0725756,-44.43359375,-102.05078125,-79.58984375,-50.29296875,0.0
1734581361.076481,-106.93359375,-106.4453125,-79.1015625,-60.05859375,0.0
1734581361.0803866,-148.92578125,-112.79296875,-74.70703125,-91.796875,0.0
1734581361.084292,-117.67578125,-111.81640625,-70.80078125,-60.546875,0.0
1734581361.0881975,-73.73046875,-105.46875,-67.87109375,-37.109375,0.0
1734581361.0921814,0.0,-114.2578125,-75.1953125,-45.8984375,0.0
1734581361.0960867,0.0,-123.046875,-85.9375,-55.6640625,0.0
1734581361.0999923,0.0,-128.41796875,-88.8671875,-51.7578125,0.0
1734581361.1038978,0.0,-130.859375,-101.07421875,-28.3203125,0.0
1734581361.107803,0.0,-134.765625,-113.76953125,-23.92578125,0.0
1734581361.1117086,0.0,-138.18359375,-113.76953125,-24.90234375,0.0
1734581361.115614,0.0,-134.27734375,-114.74609375,-55.17578125,0.0
1734581361.1195195,0.0,-140.625,-115.234375,-76.66015625,0.0
1734581361.123425,0.0,-156.25,-119.140625,-63.96484375,0.0
1734581361.1273303,0.0,-162.59765625,-125.9765625,-32.2265625,0.0
1734581361.1312358,0.0,-167.96875,-127.44140625,-16.11328125,0.0
1734581361.1351414,0.0,-175.29296875,-128.90625,-41.9921875,0.0
1734581361.1390827,-39.0625,-179.19921875,-127.44140625,-52.24609375,0.0
1734581361.1429882,-27.83203125,-182.6171875,-127.9296875,-28.3203125,0.0
1734581361.1468935,-38.0859375,-189.94140625,-127.9296875,-18.06640625,0.0
1734581361.150799,-59.08203125,-195.80078125,-119.62890625,-14.16015625,0.0
1734581361.1547046,-47.36328125,-200.1953125,-115.72265625,-26.85546875,0.0
1734581361.1586099,-3.41796875,-202.63671875,-108.88671875,-58.10546875,0.0
1734581361.1625154,2.44140625,-194.82421875,-104.00390625,-30.76171875,0.0
1734581361.166421,-17.578125,-181.640625,-97.16796875,-1.46484375,0.0
1734581361.1703262,-18.5546875,-182.12890625,-93.26171875,-1.46484375,0.0
1734581361.1742318,-11.23046875,-180.6640625,-98.14453125,3.41796875,0.0
1734581361.1781373,-8.7890625,-179.6875,-103.02734375,-20.01953125,0.0
1734581361.1820426,29.296875,-181.15234375,-106.93359375,-17.08984375,0.0
1734581361.1859732,32.71484375,-183.59375,-105.46875,20.99609375,0.0
1734581361.1898785,-28.80859375,-190.4296875,-108.3984375,13.18359375,0.0
1734581361.193784,-42.48046875,-193.84765625,-114.2578125,-9.765625,0.0
1734581361.1976895,-57.6171875,-212.890625,-113.76953125,-3.41796875,0.0
1734581361.2015948,-104.00390625,-236.81640625,-117.1875,6.34765625,0.0
1734581361.2055004,-124.0234375,-248.53515625,-127.44140625,25.390625,0.0
1734581361.209406,-146.484375,-267.08984375,-131.34765625,25.390625,0.0
1734581361.2133112,-192.3828125,-281.25,-129.8828125,20.5078125,0.0
1734581361.2172167,-223.6328125,-289.0625,-132.8125,17.578125,0.0
1734581361.2211223,-267.08984375,-298.33984375,-136.23046875,3.90625,0.0
1734581361.2250276,-271.97265625,-306.640625,-141.6015625,25.87890625,0.0
1734581361.228933,-214.84375,-309.5703125,-151.3671875,41.50390625,0.0
1734581361.2328484,-187.01171875,-311.03515625,-154.78515625,18.5546875,0.0
1734581361.2367537,-139.6484375,-311.03515625,-150.87890625,-1.46484375,0.0
1734581361.2406592,-85.44921875,-307.12890625,-145.99609375,-18.06640625,0.0
1734581361.2445648,-72.265625,-302.734375,-145.99609375,0.48828125,0.0
1734581361.24847,-63.96484375,-302.734375,-143.5546875,35.64453125,0.0
1734581361.2523756,-59.5703125,-303.22265625,-134.27734375,12.20703125,0.0
1734581361.2562811,-45.8984375,-299.31640625,-131.8359375,-28.80859375,0.0
1734581361.2601864,-22.4609375,-286.62109375,-128.41796875,-42.96875,0.0
1734581361.264092,-12.6953125,-318.84765625,-114.2578125,-18.5546875,0.0
1734581361.2679975,-7.32421875,-382.32421875,-98.14453125,13.18359375,0.0
1734581361.2719028,-8.30078125,-392.578125,-87.40234375,16.11328125,0.0
1734581361.2758083,-22.4609375,-386.23046875,-88.8671875,2.44140625,0.0
1734581361.279714,-10.25390625,-382.32421875,-92.28515625,-25.87890625,0.0
1734581361.2836196,11.23046875,-377.44140625,-90.33203125,-6.34765625,0.0
1734581361.287525,12.20703125,-369.140625,-93.26171875,15.13671875,0.0
1734581361.2914305,15.625,-353.515625,-98.14453125,-0.9765625,0.0
1734581361.295336,17.578125,-349.12109375,-102.05078125,-18.5546875,0.0
1734581361.2992413,20.5078125,-341.796875,-117.67578125,-41.9921875,0.0
1734581361.3031468,41.9921875,-330.56640625,-134.27734375,-24.90234375,0.0
1734581361.3070524,41.9921875,-325.68359375,-140.13671875,22.94921875,0.0
1734581361.3109577,21.484375,-317.87109375,-140.625,18.06640625,0.0
1734581361.3148632,31.25,-306.640625,-144.53125,5.859375,0.0
1734581361.3187687,45.41015625,-296.38671875,-157.71484375,-21.97265625,0.0
1734581361.322674,43.45703125,-289.0625,-173.33984375,-51.26953125,0.0
1734581361.3265646,52.24609375,-269.53125,-178.7109375,-37.59765625,0.0
1734581361.33047,46.875,-254.8828125,-177.734375,-23.4375,0.0
1734581361.3343754,42.96875,-256.8359375,-173.33984375,-31.25,0.0
1734581361.338281,59.5703125,-246.09375,-172.36328125,-45.8984375,0.0
1734581361.3421865,52.24609375,-227.05078125,-173.828125,-23.4375,0.0
1734581361.3460917,13.671875,-217.28515625,-170.8984375,10.7421875,0.0
1734581361.3499973,-25.390625,-217.7734375,-159.66796875,5.859375,0.0
1734581361.3539028,-11.23046875,-206.0546875,-141.11328125,-18.5546875,0.0
1734581361.357808,20.01953125,-190.4296875,-118.1640625,-35.64453125,0.0
1734581361.3617136,20.99609375,-188.96484375,-95.21484375,-39.0625,0.0
1734581361.3656192,16.11328125,-178.22265625,-73.2421875,-10.7421875,0.0
1734581361.3695245,20.01953125,-171.38671875,-52.734375,20.99609375,0.0
1734581361.3734043,0.0,-164.0625,0.0,33.203125,0.0
1734581361.3773096,0.0,-153.3203125,0.0,20.99609375,0.0
1734581361.381215,0.0,-141.11328125,0.0,21.97265625,0.0
1734581361.3851206,0.0,-131.34765625,0.0,61.5234375,0.0
1734581361.389026,0.0,-137.20703125,0.0,27.34375,0.0
1734581361.3929315,0.0,-138.18359375,0.0,-57.6171875,0.0
1734581361.396837,0.0,-128.90625,0.0,-98.14453125,0.0
1734581361.4007423,0.0,-123.046875,0.0,-78.125,0.0
1734581361.4046478,0.0,-127.44140625,0.0,-65.4296875,0.0
1734581361.4085534,0.0,-125.0,0.0,-42.96875,0.0
1734581361.4124587,0.0,-115.72265625,0.0,-15.625,0.0
1734581361.4163642,0.0,-123.53515625,0.0,-62.01171875,0.0
1734581361.4200168,31.73828125,-128.41796875,-32.2265625,-67.87109375,0.0
1734581361.4239223,36.1328125,-119.62890625,-9.765625,-28.80859375,0.0
1734581361.4278276,61.5234375,-114.74609375,7.8125,-28.3203125,0.0
1734581361.4317331,108.88671875,-109.375,29.296875,-36.62109375,0.0
1734581361.4356384,94.7265625,-105.95703125,53.7109375,-49.31640625,0.0
1734581361.439544,38.0859375,-98.6328125,63.96484375,-62.5,0.0
1734581361.4434495,24.90234375,-88.8671875,82.51953125,-30.2734375,0.0
1734581361.4473548,27.83203125,-86.9140625,109.375,-4.8828125,0.0
1734581361.4512603,0.48828125,-84.9609375,125.0,-41.015625,0.0
1734581361.4551659,-6.34765625,-74.21875,136.23046875,-49.8046875,0.0
1734581361.4590712,-17.578125,-62.98828125,155.76171875,-35.64453125,0.0
1734581361.4629767,-49.8046875,-68.359375,175.29296875,-36.1328125,0.0
1734581361.4669414,-41.015625,-71.2890625,217.28515625,20.5078125,0.0
1734581361.4708467,-20.99609375,-69.82421875,208.0078125,50.29296875,0.0
1734581361.4747522,-7.8125,-70.80078125,202.63671875,20.5078125,0.0
1734581361.4786577,6.8359375,-71.77734375,207.51953125,-2.44140625,0.0
1734581361.482563,15.13671875,-72.265625,221.19140625,1.46484375,0.0
1734581361.4864686,2.9296875,-63.4765625,233.88671875,15.13671875,0.0
1734581361.490374,5.859375,-56.15234375,237.79296875,17.08984375,0.0
1734581361.4942794,7.32421875,-51.7578125,234.375,-14.16015625,0.0
1734581361.498185,-24.90234375,-48.33984375,236.328125,-36.62109375,0.0
1734581361.5020905,-44.921875,-42.48046875,254.39453125,4.8828125,0.0
1734581361.5059958,-61.5234375,-32.71484375,259.765625,28.80859375,0.0
1734581361.5099013,-78.125,-27.34375,255.859375,5.859375,0.0
1734581361.5138535,-70.3125,-29.78515625,0.0,-6.8359375,0.0
1734581361.5177588,-52.734375,-29.78515625,0.0,-27.34375,0.0
1734581361.5216644,-31.25,-31.25,0.0,-17.08984375,0.0
1734581361.52557,-36.1328125,-25.87890625,0.0,-8.30078125,0.0
1734581361.5294752,-42.48046875,-22.4609375,0.0,-27.34375,0.0
1734581361.5333807,-37.109375,-20.5078125,0.0,-44.43359375,0.0
1734581361.5372863,-20.99609375,-11.23046875,0.0,-63.96484375,0.0
1734581361.5411916,-1.953125,-8.7890625,0.0,-47.36328125,0.0
1734581361.545097,2.9296875,-9.27734375,0.0,-6.8359375,0.0
1734581361.5490024,-0.48828125,-10.7421875,0.0,4.39453125,0.0
1734581361.552908,4.8828125,-18.5546875,0.0,-4.39453125,0.0
1734581361.5568135,27.83203125,-18.06640625,0.0,-30.76171875,0.0
1734581361.560743,26.3671875,-9.765625,254.8828125,-37.59765625,0.0
1734581361.5646486,21.97265625,-9.765625,251.953125,-16.6015625,0.0
1734581361.568554,43.9453125,-2.44140625,262.6953125,3.90625,0.0
1734581361.5724595,35.15625,2.44140625,258.7890625,-3.90625,0.0
1734581361.576365,26.85546875,3.41796875,257.8125,-32.2265625,0.0
1734581361.5802703,49.31640625,4.8828125,261.71875,-42.96875,0.0
1734581361.5841758,28.3203125,8.30078125,256.34765625,-37.109375,0.0
1734581361.5880814,0.9765625,10.7421875,255.859375,-10.7421875,0.0
1734581361.5919867,-15.13671875,3.41796875,249.0234375,-31.25,0.0
1734581361.5958922,2.44140625,-1.46484375,242.67578125,-63.96484375,0.0
1734581361.5997977,42.96875,-5.37109375,240.234375,-56.15234375,0.0
1734581361.603703,32.71484375,-9.765625,228.02734375,-49.8046875,0.0
1734581361.6076188,18.06640625,-12.20703125,213.8671875,-46.38671875,0.0
1734581361.6115243,18.5546875,-9.27734375,209.9609375,-51.7578125,0.0
1734581361.6154296,25.390625,-8.7890625,210.44921875,-41.50390625,0.0
1734581361.6193352,33.69140625,-9.765625,209.47265625,-40.0390625,0.0
1734581361.6232407,35.15625,-4.8828125,204.1015625,-44.921875,0.0
1734581361.627146,30.2734375,-11.23046875,200.68359375,-60.05859375,0.0
1734581361.6310515,-6.8359375,-22.94921875,200.1953125,-49.31640625,0.0
1734581361.634957,-8.7890625,-26.3671875,199.70703125,-24.4140625,0.0
1734581361.6388624,26.3671875,-24.4140625,202.1484375,-38.0859375,0.0
1734581361.642768,28.80859375,-20.99609375,201.66015625,-51.7578125,0.0
1734581361.6466734,10.7421875,-20.99609375,194.3359375,-65.91796875,0.0
1734581361.6505787,0.0,-18.5546875,195.3125,-78.125,0.0
1734581361.6546032,6.34765625,-14.16015625,196.77734375,-91.30859375,0.0
1734581361.6585085,24.90234375,-17.578125,192.3828125,-104.98046875,0.0
1734581361.662414,20.99609375,-19.53125,189.94140625,-92.28515625,0.0
1734581361.6663196,3.41796875,-10.25390625,186.03515625,-54.19921875,0.0
1734581361.670225,-3.41796875,-0.48828125,187.98828125,-51.7578125,0.0
1734581361.6741304,8.30078125,1.46484375,187.01171875,-74.70703125,0.0
1734581361.678036,34.66796875,5.859375,183.10546875,-80.56640625,0.0
1734581361.6819413,33.69140625,10.7421875,185.546875,-74.70703125,0.0
1734581361.6858468,-9.27734375,15.13671875,184.08203125,-65.91796875,0.0
1734581361.6897523,-24.90234375,11.23046875,187.5,-85.9375,0.0
1734581361.6936576,-11.23046875,2.9296875,188.4765625,-120.1171875,0.0
1734581361.6975632,1.46484375,8.7890625,181.15234375,-122.0703125,0.0
1734581361.701448,0.0,17.08984375,178.7109375,-98.6328125,0.0
1734581361.7053535,-13.671875,17.08984375,172.8515625,-89.35546875,0.0
1734581361.709259,-17.578125,20.99609375,169.43359375,-78.61328125,0.0
1734581361.7131643,-30.2734375,21.484375,169.43359375,-64.94140625,0.0
1734581361.7170699,-16.6015625,21.484375,169.921875,-68.359375,0.0
1734581361.7209754,9.765625,27.34375,168.9453125,-70.80078125,0.0
1734581361.7248807,-4.39453125,20.99609375,156.73828125,-77.1484375,0.0
1734581361.7287862,-34.66796875,16.11328125,151.85546875,-104.4921875,0.0
1734581361.7326918,-43.9453125,15.625,148.4375,-119.140625,0.0
1734581361.736597,-28.80859375,8.7890625,142.578125,-111.328125,0.0
1734581361.7405026,-8.7890625,5.859375,142.08984375,-119.140625,0.0
1734581361.744408,-32.2265625,7.8125,136.71875,-77.63671875,0.0
1734581361.7482772,-63.4765625,6.34765625,127.44140625,-63.4765625,0.0
1734581361.7521825,-50.29296875,3.90625,116.69921875,-97.16796875,0.0
1734581361.756088,-29.296875,7.8125,113.28125,-132.32421875,0.0
1734581361.7599936,-33.203125,9.27734375,109.86328125,-124.0234375,0.0
1734581361.7638988,-51.7578125,11.71875,104.4921875,-90.8203125,0.0
1734581361.7678044,-51.7578125,14.16015625,98.14453125,-99.12109375,0.0
1734581361.7717097,-54.6875,16.11328125,91.30859375,-103.02734375,0.0
1734581361.7756152,-46.38671875,19.04296875,87.890625,-113.28125,0.0
1734581361.7795208,-24.90234375,18.06640625,88.8671875,-123.53515625,0.0
1734581361.783426,-17.578125,21.484375,84.9609375,-106.93359375,0.0
1734581361.7873316,-48.33984375,22.94921875,70.80078125,-94.23828125,0.0
1734581361.791237,-78.61328125,20.99609375,59.5703125,-93.75,0.0
1734581361.7952073,-83.0078125,16.6015625,62.5,-97.65625,0.0
1734581361.7991128,-58.59375,20.99609375,70.80078125,-110.83984375,0.0
1734581361.8030183,-44.43359375,20.99609375,81.0546875,-96.6796875,0.0
1734581361.8069236,-73.73046875,20.01953125,89.35546875,-84.9609375,0.0
1734581361.8108292,-95.21484375,19.04296875,87.890625,-115.72265625,0.0
1734581361.8147347,-64.453125,17.08984375,84.47265625,-127.44140625,0.0
1734581361.81864,-35.64453125,18.06640625,82.03125,-110.83984375,0.0
