timestamps,TP9,AF7,AF8,TP10,Right AUX
1734407442.5881429,25.87890625,-63.4765625,-389.6484375,-11.71875,0.0
1734407442.5920477,29.78515625,-63.96484375,-354.4921875,34.66796875,0.0
1734407442.5959525,33.203125,-56.15234375,-305.17578125,52.734375,0.0
1734407442.5998573,41.9921875,-60.546875,-332.51953125,16.11328125,0.0
1734407442.6037621,33.69140625,-71.77734375,-404.78515625,-10.7421875,0.0
1734407442.607667,19.53125,-75.1953125,-434.5703125,-7.32421875,0.0
1734407442.611572,35.64453125,-62.98828125,-346.19140625,37.109375,0.0
1734407442.6154768,37.109375,-56.640625,-298.828125,51.26953125,0.0
1734407442.6193817,35.15625,-67.87109375,-552.24609375,59.08203125,0.0
1734407442.6232865,30.2734375,-62.01171875,-548.33984375,27.34375,0.0
1734407442.6271913,39.0625,-40.0390625,-299.31640625,-2.9296875,0.0
1734407442.6310961,61.03515625,-36.1328125,-323.73046875,59.5703125,0.0
1734407442.6351027,49.31640625,-41.015625,-354.00390625,85.44921875,0.0
1734407442.6390078,47.36328125,-44.921875,-328.125,73.2421875,0.0
1734407442.6429126,48.33984375,-42.96875,-309.08203125,33.203125,0.0
1734407442.6468174,46.38671875,-47.36328125,-344.7265625,10.25390625,0.0
1734407442.6507223,55.6640625,-54.6875,-434.08203125,52.734375,0.0
1734407442.654627,62.5,-51.7578125,-420.8984375,75.68359375,0.0
1734407442.658532,57.12890625,-48.33984375,-375.48828125,73.73046875,0.0
1734407442.6624367,60.546875,-53.7109375,-480.46875,50.78125,0.0
1734407442.6663415,52.24609375,-59.08203125,-530.2734375,12.20703125,0.0
1734407442.6702466,43.9453125,-44.921875,-298.33984375,41.015625,0.0
1734407442.6741514,49.8046875,-45.41015625,-270.99609375,68.359375,0.0
1734407442.6780562,53.7109375,-61.03515625,-326.171875,70.80078125,0.0
1734407442.6820283,38.0859375,-58.59375,-359.375,42.48046875,0.0
1734407442.685933,33.69140625,-50.29296875,-321.77734375,2.44140625,0.0
1734407442.689838,42.96875,-46.875,-295.8984375,10.25390625,0.0
1734407442.6937428,47.8515625,-50.78125,-327.1484375,77.63671875,0.0
1734407442.6976476,49.8046875,-61.03515625,-332.51953125,98.14453125,0.0
1734407442.7015526,42.96875,-62.98828125,-385.7421875,17.578125,0.0
1734407442.7054574,39.55078125,-66.40625,-355.95703125,-20.99609375,0.0
1734407442.7093623,52.24609375,-81.54296875,-506.34765625,22.94921875,0.0
1734407442.713267,64.94140625,-71.2890625,-484.86328125,54.6875,0.0
1734407442.717172,41.50390625,-62.5,-254.8828125,38.0859375,0.0
1734407442.7210767,32.71484375,-73.73046875,-292.96875,1.46484375,0.0
1734407442.7249815,30.76171875,-79.1015625,-326.171875,-33.69140625,0.0
1734407442.7289364,22.94921875,-83.49609375,-309.08203125,-11.23046875,0.0
1734407442.7328413,39.55078125,-87.890625,-279.296875,39.55078125,0.0
1734407442.736746,45.8984375,-94.7265625,-346.19140625,55.17578125,0.0
1734407442.740651,42.96875,-94.23828125,-444.3359375,25.390625,0.0
1734407442.7445557,36.62109375,-87.890625,-409.66796875,-7.8125,0.0
1734407442.7484608,46.38671875,-86.42578125,-355.46875,13.671875,0.0
1734407442.7523656,62.01171875,-88.8671875,-440.91796875,63.96484375,0.0
1734407442.7562704,76.171875,-97.16796875,-519.53125,83.49609375,0.0
1734407442.7601752,69.3359375,-89.84375,-307.12890625,50.78125,0.0
1734407442.76408,47.36328125,-93.75,-260.7421875,6.8359375,0.0
1734407442.7679849,36.1328125,-101.5625,-342.28515625,0.9765625,0.0
1734407442.7718897,36.62109375,-93.26171875,-311.03515625,36.62109375,0.0
1734407442.7758136,46.38671875,-93.26171875,-255.37109375,63.4765625,0.0
1734407442.7797184,42.48046875,-100.09765625,-260.7421875,51.7578125,0.0
1734407442.7836232,47.8515625,-102.5390625,-310.546875,20.01953125,0.0
1734407442.787528,41.9921875,-98.6328125,-293.9453125,-4.8828125,0.0
1734407442.7914329,24.90234375,-99.12109375,-278.80859375,37.109375,0.0
1734407442.7953377,29.78515625,-103.515625,-346.6796875,68.359375,0.0
1734407442.7992425,52.24609375,-113.28125,-536.1328125,59.5703125,0.0
1734407442.8031473,53.22265625,-105.46875,-494.62890625,31.73828125,0.0
1734407442.8070524,22.94921875,-89.84375,-224.12109375,4.8828125,0.0
1734407442.8109572,38.0859375,-98.14453125,-265.625,37.109375,0.0
1734407442.814862,47.8515625,-96.19140625,-311.03515625,73.73046875,0.0
1734407442.8187668,45.41015625,-83.984375,-254.8828125,70.3125,0.0
1734407442.8226578,46.875,-79.58984375,-219.23828125,31.73828125,0.0
1734407442.8265626,60.546875,-76.66015625,-292.48046875,24.4140625,0.0
1734407442.8304675,69.3359375,-70.3125,-284.66796875,44.43359375,0.0
1734407442.8343723,49.8046875,-65.91796875,-233.3984375,90.8203125,0.0
1734407442.838277,45.41015625,-68.359375,-286.1328125,93.75,0.0
1734407442.842182,33.69140625,-81.54296875,-361.81640625,39.55078125,0.0
1734407442.8460867,41.9921875,-84.47265625,-429.6875,14.6484375,0.0
1734407442.8499916,60.546875,-63.4765625,-273.92578125,48.828125,0.0
1734407442.8538966,46.875,-52.24609375,-77.1484375,85.44921875,0.0
1734407442.8578014,48.828125,-64.453125,-280.76171875,78.125,0.0
1734407442.8617063,48.33984375,-68.84765625,-459.9609375,48.828125,0.0
1734407442.865611,25.87890625,-51.26953125,-139.6484375,11.71875,0.0
1734407442.8696704,34.66796875,-50.78125,-129.8828125,41.015625,0.0
1734407442.8735752,62.98828125,-54.6875,-231.4453125,83.49609375,0.0
1734407442.87748,63.96484375,-50.78125,-221.19140625,89.84375,0.0
1734407442.8813848,51.7578125,-38.57421875,-144.04296875,52.24609375,0.0
1734407442.8852897,55.17578125,-33.203125,-233.88671875,17.08984375,0.0
1734407442.8891945,63.96484375,-38.57421875,-400.87890625,37.109375,0.0
1734407442.8930993,26.3671875,-38.0859375,-306.15234375,36.1328125,0.0
1734407442.8970041,-13.671875,-35.64453125,-195.3125,7.32421875,0.0
1734407442.9009092,15.13671875,-40.0390625,-277.83203125,-5.859375,0.0
1734407442.904814,14.16015625,-44.921875,-357.421875,-29.296875,0.0
1734407442.9087188,-7.32421875,-40.52734375,-313.96484375,-21.97265625,0.0
1734407442.9126236,14.16015625,-35.64453125,-266.11328125,22.94921875,0.0
1734407442.9166675,8.7890625,-40.52734375,-245.60546875,32.71484375,0.0
1734407442.9205723,-1.46484375,-47.36328125,-286.1328125,17.08984375,0.0
1734407442.924477,-2.44140625,-46.875,-249.51171875,-20.5078125,0.0
1734407442.928382,25.390625,-41.50390625,-226.07421875,-15.13671875,0.0
1734407442.9322867,56.640625,-36.1328125,-303.22265625,35.15625,0.0
1734407442.9361916,16.6015625,-30.2734375,-386.71875,24.90234375,0.0
1734407442.9400966,-29.296875,-32.2265625,-349.609375,8.30078125,0.0
1734407442.9440014,-8.30078125,-29.78515625,-272.94921875,-1.953125,0.0
1734407442.9479063,21.484375,-24.90234375,-387.20703125,-4.39453125,0.0
1734407442.951811,27.34375,-31.73828125,-488.28125,28.3203125,0.0
1734407442.955716,9.765625,-23.4375,-218.75,27.83203125,0.0
1734407442.9596207,1.46484375,-21.97265625,-171.875,6.8359375,0.0
1734407442.9636345,0.0,-27.83203125,-241.69921875,-22.94921875,0.0
1734407442.9675393,0.0,-19.04296875,-241.69921875,-57.6171875,0.0
1734407442.9714441,0.0,-11.23046875,-133.7890625,-49.8046875,0.0
1734407442.975349,0.0,-17.08984375,-144.04296875,-4.8828125,0.0
1734407442.9792538,0.0,-18.5546875,-312.98828125,20.5078125,0.0
1734407442.9831586,0.0,-6.8359375,-368.65234375,-2.9296875,0.0
1734407442.9870634,0.0,1.953125,-291.015625,-33.203125,0.0
1734407442.9909685,0.0,2.44140625,-206.0546875,10.25390625,0.0
1734407442.9948733,0.0,-6.34765625,-420.8984375,56.640625,0.0
1734407442.998778,0.0,3.41796875,-396.97265625,31.73828125,0.0
1734407443.002683,0.0,14.16015625,-157.71484375,-1.46484375,0.0
1734407443.0065877,0.0,-1.953125,-253.90625,-22.94921875,0.0
1734407443.0100615,2.44140625,-10.25390625,0.0,6.34765625,0.0
1734407443.0139663,9.27734375,0.48828125,0.0,54.19921875,0.0
1734407443.0178711,6.8359375,6.34765625,0.0,58.59375,0.0
1734407443.021776,6.8359375,-3.41796875,0.0,43.9453125,0.0
1734407443.0256808,14.16015625,-8.7890625,0.0,42.48046875,0.0
1734407443.0295856,11.71875,-1.46484375,0.0,59.5703125,0.0
1734407443.0334904,10.25390625,4.8828125,0.0,83.0078125,0.0
1734407443.0373952,10.25390625,-5.37109375,0.0,88.37890625,0.0
1734407443.0413003,22.4609375,-4.39453125,0.0,46.875,0.0
1734407443.045205,-3.41796875,16.11328125,0.0,7.32421875,0.0
1734407443.04911,-37.109375,16.11328125,0.0,28.80859375,0.0
1734407443.0530148,-29.296875,13.18359375,0.0,76.66015625,0.0
1734407443.0569847,24.4140625,18.5546875,-117.1875,77.63671875,0.0
1734407443.0608895,25.390625,19.53125,33.69140625,39.0625,0.0
1734407443.0647943,16.11328125,15.625,29.296875,18.5546875,0.0
1734407443.0686994,30.2734375,18.5546875,-116.2109375,18.5546875,0.0
1734407443.0726042,37.109375,20.5078125,-154.78515625,48.33984375,0.0
1734407443.076509,17.578125,8.30078125,-170.8984375,66.89453125,0.0
1734407443.0804138,14.6484375,6.8359375,-275.87890625,30.2734375,0.0
1734407443.0843186,32.71484375,24.4140625,-298.828125,7.32421875,0.0
1734407443.0882235,25.87890625,30.76171875,-162.109375,31.73828125,0.0
1734407443.0921283,0.0,22.94921875,36.62109375,52.734375,0.0
1734407443.096033,21.97265625,20.99609375,-105.46875,68.359375,0.0
1734407443.0999382,25.87890625,16.11328125,-415.0390625,58.59375,0.0
1734407443.1038957,4.8828125,20.99609375,-354.98046875,2.9296875,0.0
1734407443.1078005,12.6953125,25.87890625,-132.32421875,4.8828125,0.0
1734407443.1117053,22.94921875,16.11328125,-203.125,62.5,0.0
1734407443.1156101,16.11328125,17.08984375,-308.59375,86.9140625,0.0
1734407443.119515,6.34765625,19.04296875,-283.69140625,74.70703125,0.0
1734407443.12342,8.30078125,20.5078125,-275.87890625,27.34375,0.0
1734407443.1273248,13.671875,18.5546875,-373.53515625,38.0859375,0.0
1734407443.1312296,35.64453125,9.27734375,-448.2421875,72.265625,0.0
1734407443.1351345,25.390625,18.5546875,-124.51171875,49.31640625,0.0
1734407443.1390393,7.8125,20.5078125,74.70703125,41.9921875,0.0
1734407443.142944,13.18359375,6.34765625,-122.0703125,23.4375,0.0
1734407443.146849,4.8828125,8.30078125,-271.484375,-0.48828125,0.0
1734407443.1509686,10.25390625,21.97265625,-4.8828125,46.38671875,0.0
1734407443.1548734,26.85546875,15.13671875,-32.2265625,88.37890625,0.0
1734407443.1587784,25.87890625,15.625,-259.765625,54.19921875,0.0
1734407443.1626832,14.6484375,24.4140625,-80.078125,20.5078125,0.0
1734407443.166588,21.484375,23.4375,9.27734375,13.18359375,0.0
1734407443.170493,32.2265625,20.01953125,-158.69140625,18.5546875,0.0
1734407443.1743977,23.92578125,9.27734375,-435.546875,61.5234375,0.0
1734407443.1783025,24.90234375,19.53125,-291.50390625,70.80078125,0.0
1734407443.1822073,29.296875,36.1328125,72.265625,18.5546875,0.0
1734407443.1861124,32.71484375,26.85546875,-20.5078125,-4.39453125,0.0
1734407443.1900172,20.5078125,23.4375,-171.875,-0.48828125,0.0
1734407443.193922,13.18359375,21.97265625,-77.63671875,34.66796875,0.0
1734407443.1978245,15.13671875,19.04296875,61.5234375,35.64453125,0.0
1734407443.2017293,20.99609375,11.23046875,-45.41015625,1.953125,0.0
1734407443.2056344,26.85546875,9.27734375,-189.453125,-9.765625,0.0
1734407443.2095392,27.83203125,13.18359375,-103.02734375,-12.6953125,0.0
1734407443.213444,26.3671875,9.27734375,-129.8828125,53.22265625,0.0
1734407443.2173488,20.01953125,8.7890625,-326.171875,67.3828125,0.0
1734407443.2212536,38.0859375,3.90625,-362.3046875,1.46484375,0.0
1734407443.2251585,38.57421875,6.8359375,-306.15234375,-23.92578125,0.0
1734407443.2290633,6.34765625,11.71875,-134.27734375,-17.08984375,0.0
1734407443.232968,17.578125,-10.25390625,-238.76953125,28.3203125,0.0
1734407443.2368731,16.11328125,-15.13671875,-458.0078125,39.55078125,0.0
1734407443.240778,13.18359375,13.18359375,-172.8515625,3.41796875,0.0
1734407443.2448394,10.7421875,12.20703125,20.5078125,-29.296875,0.0
1734407443.2487442,8.30078125,4.39453125,-114.2578125,0.48828125,0.0
1734407443.252649,25.87890625,11.71875,-188.4765625,23.92578125,0.0
1734407443.256554,23.4375,8.7890625,-34.66796875,37.109375,0.0
1734407443.2604587,15.625,-0.9765625,-6.8359375,21.484375,0.0
1734407443.2643635,17.578125,-5.859375,-247.0703125,1.953125,0.0
1734407443.2682686,22.94921875,1.953125,-266.6015625,4.39453125,0.0
1734407443.2721734,27.34375,3.41796875,-32.71484375,10.25390625,0.0
1734407443.2760782,20.5078125,-7.32421875,-123.046875,52.734375,0.0
1734407443.279983,19.04296875,-11.71875,-283.69140625,20.99609375,0.0
1734407443.2838879,1.953125,-5.859375,-118.65234375,-21.484375,0.0
1734407443.2877927,0.0,-2.9296875,50.29296875,-17.08984375,0.0
1734407443.2918289,29.78515625,-4.39453125,-7.8125,13.18359375,0.0
1734407443.2957337,30.76171875,-8.30078125,-144.53125,34.66796875,0.0
1734407443.2996385,26.85546875,-2.9296875,-42.96875,11.71875,0.0
1734407443.3035433,27.34375,4.8828125,85.44921875,-18.5546875,0.0
1734407443.3074481,29.296875,-9.765625,-161.1328125,-22.94921875,0.0
1734407443.3113532,36.62109375,-11.23046875,-347.16796875,15.13671875,0.0
1734407443.315258,39.0625,0.0,-305.6640625,60.546875,0.0
1734407443.3191628,55.17578125,6.8359375,-149.4140625,53.22265625,0.0
1734407443.3230677,48.828125,-7.8125,-182.12890625,-27.34375,0.0
1734407443.3269725,18.06640625,-20.5078125,-446.2890625,-29.78515625,0.0
1734407443.3308773,21.484375,1.953125,-109.86328125,17.578125,0.0
1734407443.3347821,36.1328125,6.8359375,-79.1015625,52.734375,0.0
1734407443.3387988,37.109375,7.8125,-260.7421875,51.26953125,0.0
1734407443.3427036,41.015625,9.765625,-102.05078125,-10.25390625,0.0
1734407443.3466086,34.66796875,9.765625,43.45703125,-40.52734375,0.0
1734407443.3505135,9.765625,0.48828125,23.92578125,-9.765625,0.0
1734407443.3544183,17.08984375,-5.37109375,-125.0,15.625,0.0
1734407443.358323,30.76171875,-2.9296875,-280.76171875,19.04296875,0.0
1734407443.362228,28.80859375,2.44140625,-208.0078125,-12.20703125,0.0
1734407443.3661327,26.85546875,6.34765625,-27.83203125,-40.52734375,0.0
1734407443.3700376,48.828125,-4.39453125,-328.61328125,2.44140625,0.0
1734407443.3739426,27.83203125,-3.90625,-372.55859375,21.97265625,0.0
1734407443.3778474,13.671875,2.9296875,44.43359375,11.71875,0.0
1734407443.3817523,30.76171875,1.953125,-27.83203125,-10.7421875,0.0
1734407443.3857503,0.0,4.8828125,-163.0859375,-24.90234375,0.0
1734407443.389655,0.0,6.8359375,-100.09765625,13.18359375,0.0
1734407443.39356,0.0,9.27734375,-123.046875,34.66796875,0.0
1734407443.3974648,0.0,4.8828125,-240.72265625,33.69140625,0.0
1734407443.4013696,0.0,-0.9765625,-305.17578125,18.5546875,0.0
1734407443.4052744,0.0,7.8125,-298.33984375,-16.6015625,0.0
1734407443.4091794,0.0,6.8359375,-250.48828125,-9.27734375,0.0
1734407443.4130843,0.0,0.9765625,-338.8671875,45.8984375,0.0
1734407443.416989,0.0,2.9296875,-457.03125,73.2421875,0.0
1734407443.420894,0.0,17.578125,-128.41796875,20.5078125,0.0
1734407443.4247987,0.0,12.20703125,-8.7890625,-40.52734375,0.0
1734407443.4287035,0.0,0.9765625,-223.6328125,-15.625,0.0
1734407443.4326696,40.52734375,0.9765625,-158.203125,44.921875,0.0
1734407443.4365745,45.41015625,5.37109375,33.69140625,51.7578125,0.0
1734407443.4404793,50.29296875,2.9296875,29.296875,31.73828125,0.0
1734407443.444384,41.50390625,-2.44140625,-104.98046875,5.37109375,0.0
1734407443.448289,37.109375,7.8125,-164.0625,-9.27734375,0.0
1734407443.452194,45.41015625,13.671875,-188.4765625,23.4375,0.0
1734407443.4560988,51.7578125,12.20703125,-230.95703125,50.78125,0.0
1734407443.4600036,63.96484375,2.44140625,-407.71484375,59.08203125,0.0
1734407443.4639084,42.96875,6.8359375,-341.30859375,1.46484375,0.0
1734407443.4678133,24.90234375,21.97265625,70.80078125,-26.85546875,0.0
1734407443.471718,27.83203125,7.32421875,38.0859375,31.73828125,0.0
1734407443.475623,28.80859375,-4.8828125,-94.23828125,61.03515625,0.0
1734407443.479747,0.0,3.90625,-12.6953125,37.109375,0.0
1734407443.4836519,0.0,8.30078125,72.265625,-7.8125,0.0
1734407443.4875567,0.0,-2.9296875,-88.8671875,-16.6015625,0.0
1734407443.4914615,0.0,-0.48828125,-181.15234375,46.875,0.0
1734407443.4953663,0.0,3.41796875,-184.08203125,77.1484375,0.0
1734407443.4992712,0.0,-2.44140625,-258.7890625,45.8984375,0.0
1734407443.5031762,0.0,-5.37109375,-338.8671875,14.6484375,0.0
1734407443.507081,0.0,-3.41796875,-439.453125,6.34765625,0.0
1734407443.5109859,0.0,5.37109375,-286.1328125,25.390625,0.0
1734407443.5148907,0.0,4.39453125,-41.50390625,49.8046875,0.0
1734407443.5187955,0.0,-2.9296875,-125.48828125,68.359375,0.0
1734407443.5227003,0.0,1.46484375,-230.46875,51.7578125,0.0
1734407443.5266128,86.42578125,6.34765625,-22.4609375,49.8046875,0.0
1734407443.5305176,86.42578125,5.859375,27.83203125,56.15234375,0.0
1734407443.5344224,47.36328125,-10.7421875,-115.234375,48.33984375,0.0
1734407443.5383272,48.828125,-15.13671875,-147.94921875,75.68359375,0.0
1734407443.542232,64.94140625,-11.23046875,13.671875,71.77734375,0.0
1734407443.5461369,77.63671875,-25.87890625,-195.3125,50.78125,0.0
1734407443.5500417,83.0078125,-34.66796875,-399.4140625,78.61328125,0.0
1734407443.5539467,77.63671875,-28.3203125,-142.578125,118.65234375,0.0
1734407443.5578516,74.70703125,-26.85546875,7.32421875,132.8125,0.0
1734407443.5617564,85.44921875,-27.34375,-35.64453125,105.46875,0.0
1734407443.5656612,103.02734375,-36.1328125,-322.265625,99.609375,0.0
1734407443.569566,104.4921875,-33.69140625,-448.73046875,126.953125,0.0
1734407443.5734532,78.125,-20.99609375,-81.54296875,157.71484375,0.0
1734407443.577358,83.0078125,-28.3203125,-33.69140625,152.83203125,0.0
1734407443.5812628,99.12109375,-32.71484375,-179.6875,119.140625,0.0
1734407443.585168,92.7734375,-32.2265625,-65.91796875,104.00390625,0.0
1734407443.5890727,93.26171875,-43.9453125,-143.5546875,132.32421875,0.0
1734407443.5929775,93.75,-51.26953125,-317.87109375,176.26953125,0.0
1734407443.5968823,104.00390625,-48.33984375,-347.16796875,193.359375,0.0
1734407443.6007872,97.65625,-41.9921875,-132.32421875,152.83203125,0.0
1734407443.604692,82.03125,-43.9453125,76.171875,94.23828125,0.0
1734407443.608597,86.42578125,-58.59375,-178.7109375,135.25390625,0.0
1734407443.6125019,111.81640625,-51.26953125,-312.01171875,193.359375,0.0
1734407443.6164067,107.91015625,-34.1796875,38.57421875,190.4296875,0.0
1734407443.6204653,88.8671875,-37.109375,86.9140625,178.7109375,0.0
1734407443.62437,92.28515625,-38.0859375,-73.73046875,128.90625,0.0
1734407443.628275,118.1640625,-35.15625,-234.375,119.140625,0.0
1734407443.6321797,122.0703125,-27.83203125,-90.8203125,161.1328125,0.0
1734407443.6360846,91.796875,-27.34375,80.078125,169.43359375,0.0
1734407443.6399894,98.6328125,-31.73828125,-152.34375,168.45703125,0.0
1734407443.6438944,109.86328125,-28.80859375,-186.03515625,151.85546875,0.0
1734407443.6477993,106.4453125,-20.5078125,55.6640625,153.3203125,0.0
1734407443.651704,95.21484375,-22.4609375,64.453125,167.48046875,0.0
1734407443.655609,92.7734375,-34.1796875,-185.05859375,184.08203125,0.0
1734407443.6595137,87.40234375,-26.3671875,-145.01953125,173.828125,0.0
1734407443.6634185,84.47265625,-15.625,76.66015625,136.23046875,0.0
1734407443.6674457,95.703125,-21.484375,0.0,124.0234375,0.0
1734407443.6713505,106.93359375,-22.94921875,0.0,143.06640625,0.0
1734407443.6752553,100.5859375,-14.6484375,0.0,162.59765625,0.0
1734407443.67916,83.0078125,-18.06640625,0.0,140.13671875,0.0
1734407443.683065,70.3125,-26.85546875,0.0,97.65625,0.0
1734407443.6869698,79.1015625,-29.296875,0.0,88.8671875,0.0
1734407443.6908748,95.21484375,-25.87890625,0.0,119.62890625,0.0
1734407443.6947796,79.58984375,-16.11328125,0.0,141.11328125,0.0
1734407443.6986845,89.84375,-15.13671875,0.0,158.203125,0.0
1734407443.7025893,88.37890625,-23.4375,0.0,116.69921875,0.0
1734407443.706494,59.08203125,-9.765625,0.0,48.33984375,0.0
1734407443.710399,69.82421875,-7.8125,0.0,63.4765625,0.0
1734407443.7144012,69.3359375,-17.578125,0.48828125,92.28515625,0.0
1734407443.718306,55.17578125,-17.578125,-30.2734375,97.16796875,0.0
1734407443.722211,75.1953125,-13.671875,68.359375,66.89453125,0.0
1734407443.7261157,75.1953125,-15.625,80.56640625,45.41015625,0.0
1734407443.7300205,67.87109375,-15.625,-61.5234375,72.265625,0.0
1734407443.7339253,70.80078125,-7.8125,-280.2734375,116.2109375,0.0
1734407443.7378304,63.4765625,1.46484375,-132.8125,115.72265625,0.0
1734407443.7417352,63.96484375,-5.859375,103.02734375,64.94140625,0.0
1734407443.74564,72.265625,-23.4375,-285.64453125,74.21875,0.0
1734407443.7495449,66.89453125,-8.30078125,-341.30859375,71.2890625,0.0
1734407443.7534497,62.01171875,1.46484375,92.28515625,48.828125,0.0
1734407443.7573545,67.3828125,-11.71875,-75.68359375,83.49609375,0.0
1734407443.7613316,52.734375,-10.25390625,-179.19921875,62.98828125,0.0
1734407443.7652364,48.828125,-7.8125,10.7421875,21.484375,0.0
1734407443.7691412,72.75390625,-7.32421875,81.0546875,26.85546875,0.0
1734407443.773046,68.84765625,-15.625,-10.25390625,67.3828125,0.0
1734407443.776951,47.8515625,-27.83203125,-188.96484375,90.8203125,0.0
1734407443.780856,39.0625,-26.85546875,-285.64453125,65.4296875,0.0
1734407443.7847607,43.9453125,-21.97265625,-230.46875,35.15625,0.0
1734407443.7886655,58.10546875,-26.3671875,-292.96875,35.64453125,0.0
1734407443.7925704,54.19921875,-25.87890625,-367.67578125,64.94140625,0.0
1734407443.7964752,47.36328125,-10.7421875,-38.57421875,58.10546875,0.0
1734407443.8003802,54.19921875,-12.20703125,145.01953125,32.71484375,0.0
1734407443.804285,55.6640625,-25.390625,-97.16796875,5.37109375,0.0
1734407443.8082454,43.9453125,-27.34375,-234.375,-7.8125,0.0
1734407443.8121505,42.96875,-19.53125,24.90234375,28.3203125,0.0
1734407443.8160553,45.41015625,-23.4375,85.44921875,63.4765625,0.0
1734407443.81996,55.6640625,-23.4375,-92.7734375,36.62109375,0.0
1734407443.823865,59.08203125,-18.5546875,-63.96484375,-15.625,0.0
1734407443.8277698,37.59765625,-17.08984375,-127.9296875,-22.4609375,0.0
1734407443.8316746,35.64453125,-11.23046875,-228.515625,15.13671875,0.0
1734407443.8355796,52.24609375,-22.94921875,-389.6484375,77.63671875,0.0
1734407443.8394845,42.48046875,-24.4140625,-303.22265625,56.640625,0.0
1734407443.8433893,27.83203125,-10.25390625,111.328125,-29.78515625,0.0
1734407443.847294,26.3671875,-20.5078125,15.13671875,-28.3203125,0.0
1734407443.851199,25.390625,-28.3203125,-80.078125,6.8359375,0.0
1734407443.8551285,0.0,-20.99609375,39.55078125,31.25,0.0
1734407443.8590333,0.0,-18.06640625,113.76953125,47.8515625,0.0
1734407443.8629382,0.0,-34.1796875,-40.52734375,6.8359375,0.0
1734407443.866843,0.0,-38.0859375,-175.29296875,-32.2265625,0.0
1734407443.870748,0.0,-28.3203125,-169.921875,5.859375,0.0
1734407443.8746529,0.0,-32.71484375,-211.9140625,47.8515625,0.0
1734407443.8785577,0.0,-32.71484375,-327.63671875,58.10546875,0.0
1734407443.8824625,0.0,-31.73828125,-418.45703125,31.73828125,0.0
1734407443.8863673,0.0,-26.85546875,-134.765625,2.44140625,0.0
1734407443.8902721,0.0,-23.4375,75.68359375,34.1796875,0.0
1734407443.8941772,0.0,-32.71484375,-68.84765625,48.33984375,0.0
1734407443.898082,0.0,-32.2265625,-115.72265625,52.734375,0.0
1734407443.901988,24.90234375,-29.78515625,54.6875,24.4140625,0.0
1734407443.905893,30.2734375,-37.109375,47.8515625,-34.1796875,0.0
1734407443.909798,45.8984375,-47.36328125,-120.1171875,7.32421875,0.0
1734407443.9137027,38.0859375,-44.921875,-63.96484375,59.08203125,0.0
1734407443.9176075,23.92578125,-43.45703125,28.80859375,54.6875,0.0
1734407443.9215124,36.1328125,-47.8515625,-176.7578125,18.5546875,0.0
1734407443.9254174,46.38671875,-53.22265625,-439.94140625,15.625,0.0
1734407443.9293222,27.83203125,-45.41015625,-379.8828125,40.52734375,0.0
1734407443.933227,28.3203125,-27.34375,48.828125,43.45703125,0.0
1734407443.937132,38.57421875,-36.62109375,41.015625,68.359375,0.0
1734407443.9410367,46.875,-43.9453125,-167.48046875,33.203125,0.0
1734407443.9449415,53.22265625,-43.9453125,-120.1171875,-13.671875,0.0
1734407443.9488213,34.66796875,-48.33984375,54.19921875,8.7890625,0.0
1734407443.9527264,30.76171875,-52.24609375,-14.6484375,44.43359375,0.0
1734407443.9566312,45.8984375,-51.7578125,-176.26953125,67.87109375,0.0
1734407443.960536,36.62109375,-51.26953125,-73.73046875,35.15625,0.0
1734407443.9644408,33.203125,-50.78125,-101.5625,-12.6953125,0.0
1734407443.9683456,32.71484375,-58.10546875,-343.75,1.46484375,0.0
1734407443.9722505,35.15625,-61.5234375,-385.7421875,53.7109375,0.0
1734407443.9761555,30.2734375,-51.26953125,-177.734375,71.2890625,0.0
1734407443.9800603,34.1796875,-56.15234375,51.26953125,32.2265625,0.0
1734407443.9839652,46.38671875,-73.2421875,-256.34765625,-5.859375,0.0
1734407443.98787,20.5078125,-73.73046875,-430.17578125,-14.16015625,0.0
1734407443.9917748,25.87890625,-58.10546875,-25.390625,2.44140625,0.0
1734407443.995835,40.0390625,-56.640625,68.84765625,39.55078125,0.0
1734407443.99974,33.203125,-60.546875,-142.08984375,29.296875,0.0
1734407444.0036447,37.59765625,-59.5703125,-158.203125,-24.90234375,0.0
1734407444.0075495,46.38671875,-54.19921875,26.3671875,-25.87890625,0.0
1734407444.0114543,53.22265625,-56.15234375,12.20703125,15.625,0.0
1734407444.0153592,59.5703125,-62.98828125,-224.609375,53.22265625,0.0
1734407444.0192642,59.08203125,-56.15234375,-303.7109375,35.64453125,0.0
1734407444.023169,58.59375,-50.78125,-92.7734375,-15.13671875,0.0
1734407444.0270739,49.31640625,-57.6171875,11.71875,-25.87890625,0.0
1734407444.0309787,38.0859375,-69.82421875,-249.51171875,23.4375,0.0
1734407444.0348835,35.64453125,-60.546875,-187.01171875,58.59375,0.0
1734407444.0387886,42.96875,-54.6875,68.84765625,38.57421875,0.0
1734407444.0428078,50.29296875,-65.4296875,-154.78515625,0.0,0.0
1734407444.0467126,36.1328125,-59.08203125,-256.8359375,-7.8125,0.0
1734407444.0506175,42.96875,-49.31640625,-39.0625,18.5546875,0.0
1734407444.0545223,55.17578125,-57.12890625,37.109375,49.31640625,0.0
1734407444.058427,64.453125,-65.91796875,-232.421875,58.10546875,0.0
1734407444.0623322,59.08203125,-65.91796875,-392.08984375,32.2265625,0.0
1734407444.066237,40.0390625,-60.05859375,-313.4765625,-8.7890625,0.0
1734407444.0701418,41.50390625,-54.6875,-127.9296875,-12.20703125,0.0
1734407444.0740466,45.8984375,-72.75390625,-195.3125,29.296875,0.0
1734407444.0779514,40.0390625,-79.1015625,-483.3984375,36.1328125,0.0
1734407444.0818565,33.69140625,-60.05859375,-161.62109375,-26.85546875,0.0
1734407444.0857613,34.66796875,-66.40625,4.39453125,-60.546875,0.0
1734407444.0897622,52.24609375,-70.80078125,-195.80078125,-32.71484375,0.0
1734407444.093667,42.96875,-71.77734375,-180.17578125,4.39453125,0.0
1734407444.097572,27.83203125,-68.84765625,-3.90625,16.11328125,0.0
1734407444.101477,30.2734375,-74.21875,-150.390625,-16.11328125,0.0
1734407444.1053817,22.4609375,-79.1015625,-338.37890625,-42.48046875,0.0
1734407444.1092865,28.80859375,-79.1015625,-337.40234375,-33.69140625,0.0
1734407444.1131914,39.0625,-67.87109375,-201.171875,-5.859375,0.0
1734407444.1170962,41.50390625,-64.453125,-4.39453125,5.37109375,0.0
1734407444.1210012,34.1796875,-80.56640625,-334.9609375,1.953125,0.0
1734407444.124906,24.90234375,-69.82421875,-453.61328125,-33.69140625,0.0
1734407444.128811,22.4609375,-58.10546875,-130.859375,-54.19921875,0.0
1734407444.1327157,31.73828125,-62.5,-52.24609375,0.9765625,0.0
1734407444.1366901,50.78125,-65.4296875,-149.4140625,39.0625,0.0
1734407444.140595,32.71484375,-63.4765625,-115.72265625,22.4609375,0.0
1734407444.1445,23.92578125,-60.05859375,12.6953125,-6.34765625,0.0
1734407444.1484048,38.0859375,-70.3125,-91.30859375,-7.32421875,0.0
1734407444.1523097,44.921875,-72.75390625,-258.7890625,35.15625,0.0
1734407444.1562145,50.29296875,-67.87109375,-323.2421875,62.98828125,0.0
1734407444.1601193,35.15625,-73.73046875,-311.03515625,28.80859375,0.0
1734407444.1640244,34.1796875,-83.0078125,-376.953125,-1.953125,0.0
1734407444.1679292,41.015625,-86.42578125,-472.16796875,7.32421875,0.0
1734407444.171834,35.15625,-67.3828125,-124.0234375,35.15625,0.0
1734407444.1757388,40.52734375,-70.3125,13.18359375,69.3359375,0.0
1734407444.1796436,54.19921875,-82.51953125,-252.44140625,33.69140625,0.0
1734407444.1835933,0.0,-72.75390625,-236.81640625,-17.578125,0.0
1734407444.187498,0.0,-69.82421875,-47.36328125,-20.01953125,0.0
1734407444.1914032,0.0,-77.1484375,16.6015625,10.25390625,0.0
1734407444.195308,0.0,-75.1953125,-107.421875,47.8515625,0.0
1734407444.1992128,0.0,-67.3828125,-221.19140625,41.50390625,0.0
1734407444.2031176,0.0,-71.2890625,-273.92578125,13.18359375,0.0
1734407444.2070224,0.0,-73.73046875,-250.0,-14.6484375,0.0
1734407444.2109275,0.0,-91.30859375,-411.1328125,37.109375,0.0
1734407444.2148323,0.0,-78.61328125,-385.25390625,62.01171875,0.0
1734407444.2187371,0.0,-58.59375,-127.9296875,25.87890625,0.0
1734407444.222642,0.0,-68.84765625,-261.23046875,7.32421875,0.0
1734407444.2265468,0.0,-62.98828125,-248.53515625,3.41796875,0.0
1734407444.2304745,51.26953125,-60.05859375,-64.453125,38.0859375,0.0
1734407444.2343795,45.8984375,-55.17578125,73.2421875,54.19921875,0.0
1734407444.2382843,35.64453125,-62.5,-58.59375,70.3125,0.0
1734407444.2421892,48.828125,-64.94140625,-168.45703125,43.45703125,0.0
1734407444.246094,48.33984375,-64.453125,-210.9375,3.41796875,0.0
1734407444.2499988,57.6171875,-67.87109375,-264.6484375,38.0859375,0.0
1734407444.2539039,61.5234375,-71.77734375,-317.87109375,79.1015625,0.0
1734407444.2578087,46.875,-75.1953125,-406.25,81.54296875,0.0
1734407444.2617135,36.62109375,-60.546875,-90.8203125,33.69140625,0.0
1734407444.2656183,47.8515625,-61.5234375,104.00390625,0.48828125,0.0
1734407444.2695231,45.8984375,-76.171875,-144.04296875,41.9921875,0.0
1734407444.273428,35.64453125,-74.70703125,-157.2265625,87.40234375,0.0
1734407444.277571,0.0,-73.73046875,-14.6484375,71.77734375,0.0
1734407444.2814758,0.0,-81.0546875,-176.7578125,48.828125,0.0
1734407444.2853806,0.0,-84.47265625,-198.2421875,13.671875,0.0
1734407444.2892854,0.0,-79.1015625,-198.2421875,6.8359375,0.0
1734407444.2931905,0.0,-82.03125,-234.375,49.31640625,0.0
1734407444.2970953,0.0,-87.890625,-241.2109375,54.19921875,0.0
1734407444.301,0.0,-95.21484375,-415.0390625,37.109375,0.0
1734407444.304905,0.0,-88.8671875,-370.60546875,15.625,0.0
1734407444.3088098,0.0,-67.3828125,13.18359375,22.4609375,0.0
1734407444.3127148,0.0,-73.73046875,30.2734375,70.80078125,0.0
1734407444.3166196,0.0,-73.73046875,-175.78125,88.37890625,0.0
1734407444.3205245,0.0,-63.4765625,-178.22265625,52.24609375,0.0
1734407444.3243952,34.1796875,-62.98828125,48.33984375,12.20703125,0.0
1734407444.3283,39.0625,-65.91796875,11.71875,20.99609375,0.0
1734407444.3322048,51.26953125,-63.4765625,-73.2421875,74.21875,0.0
1734407444.3361096,56.15234375,-56.15234375,29.296875,98.6328125,0.0
1734407444.3400147,59.5703125,-61.5234375,-92.7734375,82.51953125,0.0
1734407444.3439195,55.6640625,-71.77734375,-306.15234375,49.8046875,0.0
1734407444.3478243,45.8984375,-68.84765625,-360.83984375,43.45703125,0.0
1734407444.3517292,54.6875,-58.59375,-156.25,73.2421875,0.0
1734407444.355634,59.5703125,-56.15234375,110.3515625,95.703125,0.0
1734407444.359539,49.8046875,-75.1953125,-79.1015625,89.35546875,0.0
1734407444.3634439,55.6640625,-82.03125,-373.046875,56.640625,0.0
1734407444.3673487,57.12890625,-64.94140625,-84.9609375,55.6640625,0.0
1734407444.371376,46.875,-66.40625,109.375,69.82421875,0.0
1734407444.3752809,60.546875,-67.87109375,-78.61328125,77.1484375,0.0
1734407444.3791857,60.05859375,-67.87109375,-64.453125,67.87109375,0.0
1734407444.3830905,48.33984375,-70.80078125,93.75,17.08984375,0.0
1734407444.3869953,39.55078125,-81.0546875,46.38671875,7.32421875,0.0
1734407444.3909004,44.43359375,-92.7734375,-157.71484375,49.8046875,0.0
1734407444.3948052,42.96875,-95.703125,-252.9296875,78.61328125,0.0
1734407444.39871,42.48046875,-98.14453125,-196.77734375,68.84765625,0.0
1734407444.4026148,47.8515625,-96.6796875,-53.22265625,32.71484375,0.0
1734407444.4065197,33.69140625,-104.4921875,-223.6328125,24.4140625,0.0
1734407444.4104247,35.15625,-98.6328125,-181.640625,31.25,0.0
1734407444.4143295,49.31640625,-98.6328125,129.8828125,52.734375,0.0
1734407444.4183395,32.2265625,-113.28125,13.18359375,70.80078125,0.0
1734407444.4222443,21.97265625,-113.76953125,-48.33984375,41.015625,0.0
1734407444.4261491,23.92578125,-109.375,52.734375,12.6953125,0.0
1734407444.430054,33.69140625,-112.3046875,97.65625,51.7578125,0.0
1734407444.433959,44.43359375,-121.58203125,-74.70703125,97.65625,0.0
1734407444.4378638,44.43359375,-118.65234375,-274.4140625,108.3984375,0.0
1734407444.4417686,44.921875,-113.28125,-224.12109375,68.359375,0.0
1734407444.4456735,45.41015625,-107.421875,42.96875,25.87890625,0.0
1734407444.4495783,47.36328125,-121.09375,-16.11328125,48.33984375,0.0
1734407444.4534833,40.52734375,-135.25390625,-319.3359375,94.23828125,0.0
1734407444.4573882,56.640625,-111.328125,-165.52734375,84.47265625,0.0
1734407444.461293,54.6875,-109.375,41.015625,39.0625,0.0
1734407444.4652755,43.45703125,-123.046875,-62.01171875,22.94921875,0.0
1734407444.4691803,58.10546875,-115.72265625,-48.33984375,52.734375,0.0
1734407444.4730852,56.15234375,-114.2578125,74.70703125,77.1484375,0.0
1734407444.47699,50.78125,-123.046875,86.42578125,77.63671875,0.0
1734407444.4808948,46.38671875,-132.8125,-46.875,56.15234375,0.0
1734407444.4847999,40.0390625,-140.13671875,-294.921875,27.34375,0.0
1734407444.4887047,33.203125,-134.27734375,-173.828125,14.6484375,0.0
1734407444.4926095,29.296875,-125.0,67.87109375,35.64453125,0.0
1734407444.4965143,38.0859375,-134.765625,-276.3671875,83.0078125,0.0
1734407444.5004191,40.52734375,-129.39453125,-347.65625,57.12890625,0.0
1734407444.5043242,28.80859375,-115.234375,73.73046875,-17.08984375,0.0
1734407444.508229,29.296875,-121.09375,20.99609375,-3.41796875,0.0
1734407444.5121834,61.5234375,-119.62890625,-99.609375,50.78125,0.0
1734407444.5160882,54.19921875,-114.2578125,-60.05859375,59.5703125,0.0
1734407444.519993,36.62109375,-114.2578125,60.546875,52.24609375,0.0
1734407444.523898,45.8984375,-119.140625,1.953125,10.25390625,0.0
1734407444.5278027,49.8046875,-120.60546875,-229.4921875,-3.90625,0.0
1734407444.5317078,45.8984375,-117.1875,-278.3203125,44.43359375,0.0
1734407444.5356126,49.8046875,-108.88671875,-148.92578125,84.9609375,0.0
1734407444.5395174,54.19921875,-109.375,-219.23828125,82.03125,0.0
1734407444.5434222,56.15234375,-114.2578125,-334.9609375,37.59765625,0.0
1734407444.547327,58.10546875,-95.21484375,-43.45703125,21.484375,0.0
1734407444.551232,44.921875,-90.33203125,165.0390625,50.29296875,0.0
1734407444.555137,53.22265625,-105.95703125,-145.99609375,83.49609375,0.0
1734407444.5590813,42.48046875,-100.09765625,-261.71875,82.03125,0.0
1734407444.5629861,41.9921875,-77.63671875,101.5625,36.62109375,0.0
1734407444.566891,62.98828125,-78.61328125,91.796875,22.94921875,0.0
1734407444.570796,57.6171875,-81.54296875,-85.9375,57.6171875,0.0
1734407444.5747008,50.78125,-75.68359375,-132.32421875,89.35546875,0.0
1734407444.5786057,54.19921875,-71.77734375,-193.359375,82.03125,0.0
1734407444.5825105,57.12890625,-65.91796875,-205.078125,54.19921875,0.0
1734407444.5864153,59.5703125,-75.1953125,-404.296875,38.0859375,0.0
1734407444.5903203,56.15234375,-68.84765625,-359.375,45.8984375,0.0
1734407444.5942252,60.546875,-42.96875,82.51953125,61.5234375,0.0
1734407444.59813,79.1015625,-45.41015625,59.5703125,67.87109375,0.0
1734407444.6020348,66.40625,-46.38671875,-43.9453125,47.36328125,0.0
1734407444.6059542,0.0,-41.015625,-2.44140625,26.3671875,0.0
1734407444.609859,0.0,-47.8515625,62.5,52.734375,0.0
1734407444.6137638,0.0,-53.7109375,-21.484375,80.078125,0.0
1734407444.6176689,0.0,-55.6640625,-125.48828125,83.49609375,0.0
1734407444.6215737,0.0,-58.10546875,-121.09375,57.12890625,0.0
1734407444.6254785,0.0,-58.10546875,-205.078125,18.5546875,0.0
1734407444.6293833,0.0,-63.96484375,-313.96484375,32.71484375,0.0
1734407444.6332881,0.0,-63.96484375,-414.0625,104.98046875,0.0
1734407444.6371932,0.0,-39.0625,-120.60546875,96.6796875,0.0
1734407444.641098,0.0,-33.69140625,115.72265625,41.50390625,0.0
1734407444.6450028,0.0,-41.9921875,-31.25,19.53125,0.0
1734407444.6489077,0.0,-39.55078125,-61.03515625,27.83203125,0.0
1734407444.6528037,67.87109375,-34.1796875,86.42578125,59.5703125,0.0
1734407444.6567087,75.1953125,-39.55078125,96.19140625,78.61328125,0.0
1734407444.6606135,60.546875,-48.33984375,-66.40625,42.48046875,0.0
1734407444.6645184,35.64453125,-39.0625,-32.71484375,3.41796875,0.0
1734407444.6684232,39.0625,-38.0859375,28.3203125,10.7421875,0.0
1734407444.6723282,44.921875,-46.875,-98.14453125,41.50390625,0.0
1734407444.676233,38.0859375,-47.8515625,-336.9140625,78.125,0.0
1734407444.6801379,38.0859375,-35.64453125,-291.015625,57.6171875,0.0
1734407444.6840427,42.96875,-23.92578125,82.51953125,16.6015625,0.0
1734407444.6879475,41.015625,-32.2265625,28.3203125,-10.25390625,0.0
1734407444.6918526,49.31640625,-32.2265625,-207.03125,16.6015625,0.0
1734407444.6957574,54.19921875,-18.06640625,-125.9765625,38.0859375,0.0
1734407444.6996343,0.0,-24.90234375,100.5859375,4.39453125,0.0
1734407444.7035391,0.0,-44.921875,-16.11328125,-6.34765625,0.0
1734407444.707444,0.0,-34.1796875,-159.66796875,12.20703125,0.0
1734407444.7113488,0.0,-19.04296875,-25.390625,43.45703125,0.0
1734407444.7152538,0.0,-13.18359375,-40.0390625,34.66796875,0.0
1734407444.7191586,0.0,-20.01953125,-278.80859375,21.484375,0.0
1734407444.7230635,0.0,-28.80859375,-321.2890625,7.32421875,0.0
1734407444.7269683,0.0,-15.13671875,-73.73046875,-30.76171875,0.0
1734407444.730873,0.0,-15.13671875,142.578125,-14.6484375,0.0
1734407444.7347782,0.0,-21.97265625,-84.47265625,38.57421875,0.0
1734407444.738683,0.0,-16.6015625,-278.3203125,15.625,0.0
1734407444.7425878,0.0,0.0,35.64453125,-72.265625,0.0
1734407444.7466257,-14.16015625,10.25390625,90.8203125,-73.73046875,0.0
1734407444.7505305,2.44140625,6.8359375,-120.1171875,-29.296875,0.0
1734407444.7544353,-6.34765625,8.7890625,-122.55859375,-7.32421875,0.0
1734407444.7583401,-9.765625,15.625,60.05859375,-22.4609375,0.0
1734407444.762245,-20.01953125,4.39453125,50.29296875,-75.1953125,0.0
1734407444.76615,-45.41015625,-9.765625,-186.5234375,-99.609375,0.0
1734407444.7700548,-65.91796875,1.953125,-236.328125,-86.9140625,0.0
1734407444.7739596,-67.3828125,14.16015625,29.296875,-81.0546875,0.0
1734407444.7778645,-63.4765625,7.8125,83.0078125,-88.37890625,0.0
1734407444.7817695,-80.078125,0.0,-175.78125,-110.83984375,0.0
1734407444.7856743,-88.8671875,3.41796875,-246.58203125,-156.25,0.0
1734407444.7895792,-87.40234375,14.6484375,42.96875,-143.5546875,0.0
1734407444.7935936,-76.66015625,12.20703125,32.71484375,-98.14453125,0.0
1734407444.7974987,-62.5,14.6484375,-86.42578125,-100.09765625,0.0
1734407444.8014035,-66.89453125,30.76171875,13.18359375,-119.62890625,0.0
1734407444.8053083,-85.44921875,27.34375,39.55078125,-145.01953125,0.0
1734407444.8092132,-77.63671875,21.97265625,-206.0546875,-134.27734375,0.0
1734407444.813118,-78.125,25.87890625,-312.01171875,-118.1640625,0.0
1734407444.817023,-92.7734375,25.87890625,-236.81640625,-116.2109375,0.0
1734407444.8209279,-89.35546875,31.73828125,-205.56640625,-143.06640625,0.0
1734407444.8248327,-94.23828125,23.4375,-325.68359375,-180.17578125,0.0
1734407444.8287375,-94.7265625,25.87890625,-399.90234375,-141.11328125,0.0
1734407444.8326423,-89.84375,43.45703125,-15.625,-86.9140625,0.0
1734407444.8365474,-72.265625,33.69140625,129.8828125,-82.03125,0.0
1734407444.8405347,0.0,33.203125,-72.265625,-107.421875,0.0
1734407444.8444395,0.0,39.0625,-68.359375,-143.06640625,0.0
1734407444.8483443,0.0,39.0625,71.77734375,-164.0625,0.0
1734407444.8522491,0.0,33.69140625,104.00390625,-113.76953125,0.0
1734407444.8561542,0.0,31.73828125,-39.55078125,-64.94140625,0.0
1734407444.860059,0.0,33.203125,-284.1796875,-82.03125,0.0
1734407444.8639638,0.0,39.0625,-200.68359375,-143.5546875,0.0
1734407444.8678687,0.0,42.48046875,66.89453125,-133.30078125,0.0
1734407444.8717735,0.0,21.97265625,-235.3515625,-52.734375,0.0
1734407444.8756785,0.0,20.99609375,-328.61328125,-51.7578125,0.0
1734407444.8795834,0.0,32.71484375,109.375,-80.078125,0.0
1734407444.8834882,0.0,20.01953125,34.66796875,-114.74609375,0.0
1734407444.8869512,-66.40625,23.4375,-156.25,-122.0703125,0.0
1734407444.890856,-72.265625,37.109375,-41.50390625,-63.96484375,0.0
1734407444.8947608,-71.77734375,27.34375,80.56640625,-42.48046875,0.0
1734407444.8986657,-65.91796875,19.53125,6.34765625,-14.16015625,0.0
1734407444.9025707,-54.19921875,25.87890625,-203.61328125,-23.92578125,0.0
1734407444.9064755,-61.03515625,25.87890625,-287.59765625,-69.3359375,0.0
1734407444.9103804,-70.80078125,31.73828125,-174.31640625,-67.87109375,0.0
1734407444.9142852,-61.03515625,25.87890625,-120.1171875,-14.16015625,0.0
1734407444.91819,-55.17578125,19.04296875,-265.625,33.203125,0.0
1734407444.922095,-52.734375,43.9453125,-60.546875,13.671875,0.0
1734407444.9259999,-40.52734375,36.1328125,99.609375,-31.25,0.0
1734407444.9299047,-38.57421875,17.08984375,-87.890625,-5.859375,0.0
1734407444.9333508,-38.0859375,26.3671875,-22.4609375,45.8984375,0.0
1734407444.9372559,-40.52734375,39.55078125,127.9296875,44.921875,0.0
1734407444.9411607,-31.73828125,37.59765625,112.3046875,-8.30078125,0.0
1734407444.9450655,-4.39453125,29.78515625,-52.734375,-46.38671875,0.0
1734407444.9489703,15.625,33.203125,-48.828125,-20.01953125,0.0
1734407444.9528751,4.39453125,30.2734375,-40.52734375,28.3203125,0.0
1734407444.9567802,-17.08984375,40.0390625,-143.5546875,26.85546875,0.0
1734407444.960685,-10.25390625,39.0625,-333.0078125,1.46484375,0.0
1734407444.9645898,2.9296875,44.43359375,-289.0625,-49.8046875,0.0
1734407444.9684947,32.2265625,63.4765625,118.65234375,-65.4296875,0.0
1734407444.9723995,42.48046875,47.8515625,86.9140625,-31.25,0.0
1734407444.9763045,13.671875,38.57421875,11.71875,-17.578125,0.0
1734407444.9797246,30.2734375,46.38671875,65.4296875,-53.7109375,0.0
1734407444.9836295,36.62109375,57.6171875,72.265625,-89.35546875,0.0
1734407444.9875343,13.671875,52.734375,-88.37890625,-59.08203125,0.0
1734407444.991439,8.30078125,53.7109375,-73.2421875,-16.11328125,0.0
1734407444.9953442,28.80859375,55.6640625,-31.73828125,-3.41796875,0.0
1734407444.999249,38.57421875,47.8515625,-157.71484375,-55.6640625,0.0
1734407445.0031538,37.109375,49.8046875,-256.8359375,-81.54296875,0.0
1734407445.0070586,25.87890625,52.24609375,-342.7734375,-69.82421875,0.0
1734407445.0109634,-0.48828125,68.84765625,-4.39453125,-62.98828125,0.0
1734407445.0148685,1.46484375,62.98828125,158.203125,-51.7578125,0.0
1734407445.0187733,7.32421875,44.43359375,-16.6015625,-58.10546875,0.0
1734407445.0226781,-6.34765625,53.22265625,-84.47265625,-81.54296875,0.0
1734407445.0265903,-23.4375,64.94140625,72.265625,-86.42578125,0.0
1734407445.0304952,0.0,59.08203125,138.671875,-57.6171875,0.0
1734407445.0344,-4.8828125,49.8046875,17.578125,-29.296875,0.0
1734407445.038305,-37.109375,51.26953125,44.921875,-45.8984375,0.0
1734407445.0422099,-35.15625,48.33984375,83.984375,-71.77734375,0.0
1734407445.0461147,-26.85546875,40.0390625,58.10546875,-60.05859375,0.0
1734407445.0500195,-45.8984375,35.64453125,-196.77734375,-46.38671875,0.0
1734407445.0539243,-52.24609375,51.26953125,-234.375,-38.57421875,0.0
1734407445.0578291,-41.015625,57.6171875,172.8515625,-46.875,0.0
1734407445.0617342,-17.08984375,37.109375,116.69921875,-63.4765625,0.0
1734407445.065639,-10.25390625,40.0390625,52.734375,-69.3359375,0.0
1734407445.0695438,-18.5546875,49.31640625,131.34765625,-46.38671875,0.0
1734407445.0734315,-4.8828125,57.6171875,179.6875,-16.11328125,0.0
1734407445.0773363,5.37109375,61.5234375,90.8203125,-24.90234375,0.0
1734407445.0812414,14.16015625,54.6875,56.15234375,-8.7890625,0.0
1734407445.0851462,45.8984375,52.734375,156.73828125,1.953125,0.0
1734407445.089051,69.82421875,55.17578125,157.71484375,22.4609375,0.0
1734407445.0929558,65.91796875,49.31640625,59.08203125,79.1015625,0.0
1734407445.0968606,85.9375,58.10546875,-47.8515625,71.77734375,0.0
1734407445.1007655,102.5390625,75.68359375,94.7265625,38.57421875,0.0
1734407445.1046705,96.19140625,59.08203125,185.546875,49.31640625,0.0
1734407445.1085753,107.91015625,33.69140625,3.90625,101.5625,0.0
1734407445.1124802,91.30859375,51.7578125,-21.97265625,106.93359375,0.0
1734407445.116385,76.66015625,77.1484375,183.59375,91.30859375,0.0
1734407445.1204433,101.5625,72.265625,199.21875,74.21875,0.0
1734407445.1243482,113.76953125,62.5,66.89453125,50.29296875,0.0
1734407445.1282532,123.53515625,65.91796875,83.0078125,93.75,0.0
1734407445.132158,126.953125,76.171875,215.8203125,146.484375,0.0
1734407445.1360629,126.953125,80.56640625,216.796875,146.97265625,0.0
1734407445.1399677,146.97265625,70.80078125,6.8359375,141.11328125,0.0
1734407445.1438725,153.3203125,71.2890625,-5.37109375,122.0703125,0.0
1734407445.1477773,148.92578125,87.40234375,196.2890625,128.41796875,0.0
1734407445.1516824,135.7421875,97.16796875,205.56640625,148.4375,0.0
1734407445.1555872,159.1796875,92.7734375,-54.19921875,156.73828125,0.0
1734407445.159492,187.5,101.5625,-30.2734375,163.0859375,0.0
1734407445.1633968,154.78515625,104.4921875,185.05859375,129.39453125,0.0
1734407445.1674292,0.0,101.07421875,89.84375,144.04296875,0.0
1734407445.171334,0.0,108.3984375,146.484375,193.359375,0.0
1734407445.175239,0.0,105.95703125,196.2890625,193.359375,0.0
1734407445.179144,0.0,102.5390625,205.078125,168.45703125,0.0
1734407445.1830487,0.0,94.7265625,111.81640625,161.1328125,0.0
1734407445.1869535,0.0,89.84375,29.78515625,162.109375,0.0
1734407445.1908584,0.0,91.30859375,85.44921875,186.5234375,0.0
1734407445.1947632,0.0,108.88671875,192.3828125,198.73046875,0.0
1734407445.1986682,0.0,104.4921875,110.83984375,181.15234375,0.0
1734407445.202573,0.0,101.5625,-166.50390625,187.01171875,0.0
1734407445.2064779,0.0,125.9765625,40.52734375,173.828125,0.0
1734407445.2103827,0.0,121.58203125,246.09375,173.828125,0.0
1734407445.2143831,149.4140625,112.79296875,0.0,203.125,0.0
1734407445.2182882,138.18359375,116.69921875,0.0,180.17578125,0.0
1734407445.222193,122.55859375,118.1640625,0.0,140.625,0.0
1734407445.2260978,133.7890625,121.58203125,0.0,136.23046875,0.0
1734407445.2300026,132.32421875,127.9296875,0.0,168.45703125,0.0
1734407445.2339075,115.234375,125.0,0.0,179.19921875,0.0
1734407445.2378125,112.79296875,132.8125,0.0,162.109375,0.0
1734407445.2417173,116.2109375,142.578125,0.0,119.140625,0.0
1734407445.2456222,118.1640625,124.51171875,0.0,119.140625,0.0
1734407445.249527,108.3984375,122.0703125,0.0,150.87890625,0.0
1734407445.2534318,99.12109375,135.25390625,0.0,154.78515625,0.0
1734407445.2573366,100.5859375,117.1875,0.0,139.6484375,0.0
1734407445.261313,94.23828125,104.98046875,79.1015625,96.6796875,0.0
1734407445.2652178,108.88671875,114.74609375,167.96875,84.9609375,0.0
1734407445.2691226,104.4921875,118.1640625,211.9140625,109.86328125,0.0
1734407445.2730274,102.5390625,114.74609375,172.8515625,157.2265625,0.0
1734407445.2769325,107.91015625,112.3046875,76.66015625,163.57421875,0.0
1734407445.2808373,91.30859375,116.69921875,67.3828125,117.67578125,0.0
1734407445.284742,87.890625,119.62890625,114.74609375,92.28515625,0.0
1734407445.288647,96.19140625,107.91015625,64.94140625,125.48828125,0.0
1734407445.2925518,101.07421875,104.98046875,-154.78515625,174.8046875,0.0
1734407445.2964568,90.33203125,118.65234375,31.25,174.8046875,0.0
1734407445.3003616,92.28515625,109.375,218.26171875,127.44140625,0.0
1734407445.3042665,99.12109375,102.05078125,49.8046875,84.47265625,0.0
1734407445.3082223,107.91015625,104.98046875,53.7109375,109.86328125,0.0
1734407445.312127,102.5390625,100.09765625,200.1953125,167.96875,0.0
1734407445.316032,91.30859375,94.23828125,172.36328125,161.62109375,0.0
1734407445.3199368,90.8203125,92.7734375,73.2421875,118.65234375,0.0
1734407445.3238418,72.75390625,89.84375,70.80078125,82.03125,0.0
1734407445.3277466,56.15234375,82.51953125,48.33984375,91.796875,0.0
1734407445.3316514,62.5,78.61328125,120.60546875,128.90625,0.0
1734407445.3355563,78.125,65.4296875,-138.671875,152.34375,0.0
1734407445.339461,82.03125,74.70703125,-258.30078125,136.71875,0.0
1734407445.343366,64.453125,90.8203125,149.4140625,71.77734375,0.0
1734407445.347271,54.6875,81.0546875,130.859375,59.5703125,0.0
1734407445.3511758,47.8515625,72.75390625,93.75,72.265625,0.0
1734407445.3551183,0.0,76.66015625,137.20703125,91.796875,0.0
1734407445.359023,0.0,83.49609375,136.71875,79.1015625,0.0
1734407445.362928,0.0,76.171875,27.34375,20.01953125,0.0
1734407445.3668327,0.0,84.47265625,-3.41796875,27.83203125,0.0
1734407445.3707378,0.0,81.0546875,16.11328125,69.82421875,0.0
1734407445.3746426,0.0,62.98828125,-16.6015625,57.6171875,0.0
1734407445.3785474,0.0,64.453125,-169.43359375,3.90625,0.0
1734407445.3824522,0.0,75.1953125,-369.140625,-66.40625,0.0
1734407445.386357,0.0,87.890625,-78.61328125,-110.83984375,0.0
1734407445.390262,0.0,78.125,113.76953125,-60.05859375,0.0
1734407445.394167,0.0,71.2890625,-46.875,-52.734375,0.0
1734407445.3980718,0.0,72.75390625,-221.19140625,-116.2109375,0.0
1734407445.401989,-125.0,80.078125,-198.2421875,-168.9453125,0.0
1734407445.4058938,-140.625,77.63671875,-53.7109375,-173.33984375,0.0
1734407445.4097986,-138.18359375,64.453125,-90.8203125,-128.90625,0.0
1734407445.4137034,-137.6953125,66.40625,-122.55859375,-103.515625,0.0
1734407445.4176085,-155.76171875,64.453125,-10.25390625,-139.16015625,0.0
1734407445.4215133,-160.15625,62.01171875,-154.296875,-192.87109375,0.0
1734407445.4254181,-153.80859375,42.48046875,-464.35546875,-179.6875,0.0
1734407445.429323,-150.87890625,31.25,-431.640625,-140.625,0.0
1734407445.4332278,-155.2734375,48.33984375,-145.99609375,-137.20703125,0.0
1734407445.4371326,-183.59375,52.24609375,-201.171875,-187.01171875,0.0
1734407445.4410377,-194.82421875,44.43359375,-283.203125,-248.046875,0.0
1734407445.4449425,-161.62109375,46.38671875,-301.7578125,-227.5390625,0.0
1734407445.448829,-135.7421875,55.17578125,-106.93359375,-161.62109375,0.0
1734407445.4527338,-123.046875,39.55078125,-16.11328125,-119.62890625,0.0
1734407445.4566386,-132.32421875,26.3671875,-184.08203125,-123.046875,0.0
1734407445.4605434,-154.78515625,31.25,-250.48828125,-189.94140625,0.0
1734407445.4644485,-183.10546875,20.5078125,-270.99609375,-194.3359375,0.0
1734407445.4683533,-165.0390625,12.20703125,-317.3828125,-150.390625,0.0
1734407445.472258,-119.140625,16.6015625,-326.171875,-117.67578125,0.0
1734407445.476163,-119.140625,20.5078125,-95.21484375,-103.02734375,0.0
1734407445.4800677,-146.97265625,8.30078125,83.49609375,-158.69140625,0.0
1734407445.4839728,-155.76171875,-1.46484375,-147.94921875,-156.73828125,0.0
1734407445.4878776,-131.8359375,10.25390625,-314.94140625,-107.421875,0.0
1734407445.4917824,-120.1171875,23.92578125,-14.16015625,-94.7265625,0.0
1734407445.4960134,0.0,13.671875,84.47265625,-97.65625,0.0
1734407445.4999182,0.0,-3.90625,-86.42578125,-123.53515625,0.0
1734407445.503823,0.0,-11.23046875,-136.23046875,-139.6484375,0.0
1734407445.5077279,0.0,-1.953125,76.171875,-150.87890625,0.0
1734407445.5116327,0.0,-9.27734375,57.6171875,-144.04296875,0.0
1734407445.5155377,0.0,-19.53125,-229.98046875,-75.1953125,0.0
1734407445.5194426,0.0,-1.46484375,-334.47265625,-55.6640625,0.0
1734407445.5233474,0.0,2.9296875,-146.484375,-121.58203125,0.0
1734407445.5272522,0.0,-2.44140625,19.53125,-122.55859375,0.0
1734407445.531157,0.0,-11.23046875,-99.609375,-68.84765625,0.0
1734407445.535062,0.0,0.0,-62.5,-53.7109375,0.0
1734407445.538967,0.0,9.765625,74.70703125,-85.44921875,0.0
1734407445.5429869,-90.8203125,-4.39453125,0.0,-114.74609375,0.0
1734407445.5468917,-82.51953125,0.0,0.0,-91.30859375,0.0
1734407445.5507967,-105.46875,6.34765625,0.0,-51.26953125,0.0
1734407445.5547016,-94.7265625,6.34765625,0.0,-45.41015625,0.0
1734407445.5586064,-74.21875,-1.953125,0.0,-53.7109375,0.0
1734407445.5625112,-69.82421875,-7.8125,0.0,-75.1953125,0.0
1734407445.566416,-94.23828125,-3.41796875,0.0,-91.796875,0.0
1734407445.570321,-77.1484375,7.32421875,0.0,-37.109375,0.0
1734407445.574226,-55.17578125,-0.9765625,0.0,30.76171875,0.0
1734407445.5781307,-75.68359375,-12.20703125,0.0,-4.39453125,0.0
1734407445.5820355,-67.87109375,0.0,0.0,-59.08203125,0.0
1734407445.5859404,-68.359375,-1.953125,0.0,-62.5,0.0
1734407445.5899355,-65.4296875,-4.8828125,-131.34765625,-11.23046875,0.0
1734407445.5938404,-14.16015625,8.30078125,-353.02734375,66.40625,0.0
1734407445.5977452,-20.99609375,26.85546875,-13.18359375,41.9921875,0.0
1734407445.60165,-51.26953125,15.13671875,128.90625,-40.0390625,0.0
1734407445.6055548,-43.9453125,-6.34765625,-77.1484375,-36.62109375,0.0
1734407445.6094599,-39.0625,-7.32421875,-212.40234375,4.39453125,0.0
1734407445.6133647,-30.76171875,3.41796875,-35.15625,32.71484375,0.0
1734407445.6172695,-11.71875,8.7890625,137.6953125,49.8046875,0.0
1734407445.6211743,-29.296875,-9.27734375,-220.703125,8.30078125,0.0
1734407445.6250792,-41.015625,-8.30078125,-287.109375,-15.13671875,0.0
1734407445.6289842,-28.3203125,9.765625,160.15625,10.25390625,0.0
1734407445.632889,-21.484375,2.44140625,95.21484375,57.6171875,0.0
1734407445.6368566,-5.859375,2.9296875,-88.8671875,57.12890625,0.0
1734407445.6407614,-18.06640625,10.7421875,-3.41796875,20.99609375,0.0
1734407445.6446662,-32.71484375,4.39453125,140.13671875,-13.671875,0.0
1734407445.648571,-23.92578125,-5.37109375,75.68359375,-2.44140625,0.0
1734407445.652476,-3.90625,-13.671875,-139.16015625,83.49609375,0.0
1734407445.656381,7.32421875,-3.41796875,-212.40234375,101.5625,0.0
1734407445.6602857,8.30078125,18.06640625,-15.13671875,23.92578125,0.0
1734407445.6641905,14.6484375,27.34375,-3.41796875,-2.44140625,0.0
1734407445.6680954,6.34765625,19.53125,-225.09765625,34.66796875,0.0
1734407445.6720004,-3.41796875,26.85546875,-22.94921875,70.3125,0.0
1734407445.6759052,9.27734375,37.59765625,223.14453125,89.84375,0.0
1734407445.67981,28.80859375,26.3671875,-21.97265625,65.91796875,0.0
1734407445.683757,17.08984375,17.08984375,-114.2578125,5.859375,0.0
1734407445.6876621,-14.6484375,21.97265625,143.06640625,0.48828125,0.0
1734407445.691567,-30.2734375,25.87890625,154.296875,31.73828125,0.0
1734407445.6954718,13.18359375,19.53125,26.3671875,73.73046875,0.0
1734407445.6993766,46.875,9.765625,-11.23046875,87.40234375,0.0
1734407445.7032816,8.30078125,16.6015625,-4.8828125,36.62109375,0.0
1734407445.7071865,1.46484375,30.2734375,73.2421875,40.0390625,0.0
1734407445.7110913,28.3203125,19.53125,-175.78125,127.44140625,0.0
1734407445.714996,26.85546875,24.4140625,-263.671875,121.09375,0.0
1734407445.718901,19.04296875,40.0390625,177.734375,62.5,0.0
1734407445.722806,33.69140625,25.390625,119.140625,47.36328125,0.0
1734407445.7267108,18.06640625,21.484375,56.15234375,55.17578125,0.0
1734407445.7306454,0.0,20.01953125,0.0,99.609375,0.0
1734407445.7345505,0.0,23.4375,0.0,126.46484375,0.0
1734407445.7384553,0.0,25.87890625,0.0,112.79296875,0.0
1734407445.74236,0.0,13.671875,0.0,92.28515625,0.0
1734407445.746265,0.0,17.08984375,0.0,116.2109375,0.0
1734407445.7501698,0.0,25.87890625,0.0,144.53125,0.0
1734407445.7540748,0.0,11.71875,0.0,144.53125,0.0
1734407445.7579796,0.0,6.34765625,0.0,144.04296875,0.0
1734407445.7618845,0.0,21.97265625,0.0,104.4921875,0.0
1734407445.7657893,0.0,31.73828125,0.0,115.234375,0.0
1734407445.769694,0.0,26.85546875,0.0,162.109375,0.0
1734407445.7735991,0.0,18.5546875,0.0,180.17578125,0.0
1734407445.7774966,105.46875,23.92578125,167.48046875,208.0078125,0.0
1734407445.7814014,101.5625,18.5546875,166.50390625,171.38671875,0.0
1734407445.7853062,96.19140625,7.8125,16.6015625,111.81640625,0.0
1734407445.789211,89.84375,6.8359375,68.359375,127.9296875,0.0
1734407445.7931159,92.28515625,4.39453125,117.1875,188.4765625,0.0
1734407445.797021,111.328125,2.9296875,86.42578125,213.37890625,0.0
1734407445.8009257,107.91015625,-1.46484375,-201.66015625,173.33984375,0.0
1734407445.8048306,97.65625,10.7421875,-261.23046875,134.27734375,0.0
1734407445.8087354,90.8203125,20.01953125,171.875,138.671875,0.0
1734407445.8126402,97.16796875,2.44140625,125.9765625,201.171875,0.0
1734407445.8165452,117.67578125,2.44140625,59.08203125,238.28125,0.0
1734407445.82045,114.74609375,6.34765625,93.26171875,163.57421875,0.0
1734407445.824331,130.37109375,0.0,107.421875,112.3046875,0.0
1734407445.828236,130.37109375,-4.8828125,71.2890625,159.66796875,0.0
1734407445.832141,140.13671875,-11.23046875,49.8046875,217.7734375,0.0
1734407445.8360457,161.62109375,-8.30078125,114.74609375,240.72265625,0.0
1734407445.8399506,146.97265625,-11.71875,96.19140625,212.40234375,0.0
1734407445.8438554,145.01953125,-26.3671875,-40.0390625,184.5703125,0.0
1734407445.8477604,158.203125,-34.66796875,-175.78125,202.1484375,0.0
1734407445.8516653,165.52734375,-16.11328125,20.01953125,254.8828125,0.0
1734407445.85557,176.7578125,-0.48828125,212.890625,250.0,0.0
1734407445.859475,178.22265625,-14.16015625,14.6484375,247.55859375,0.0
1734407445.8633797,192.87109375,-31.25,-138.18359375,236.81640625,0.0
1734407445.8672848,204.1015625,-8.30078125,110.3515625,232.91015625,0.0
1734407445.8713334,187.98828125,-3.41796875,175.78125,253.41796875,0.0
1734407445.8752382,168.45703125,-8.30078125,12.20703125,251.46484375,0.0
1734407445.879143,156.73828125,-1.953125,34.1796875,244.62890625,0.0
1734407445.8830478,178.22265625,-3.41796875,135.25390625,180.6640625,0.0
1734407445.8869526,164.0625,0.9765625,137.6953125,168.45703125,0.0
1734407445.8908577,155.76171875,-16.6015625,-178.22265625,236.328125,0.0
1734407445.8947625,161.1328125,-7.32421875,-206.0546875,232.421875,0.0
1734407445.8986673,141.11328125,10.7421875,190.91796875,178.7109375,0.0
1734407445.9025722,152.34375,4.39453125,118.1640625,116.2109375,0.0
1734407445.906477,155.2734375,10.25390625,-43.9453125,121.09375,0.0
1734407445.910382,125.48828125,11.23046875,64.453125,168.45703125,0.0
1734407445.9142869,120.60546875,5.37109375,197.75390625,160.15625,0.0
1734407445.9182978,125.9765625,1.46484375,85.9375,144.04296875,0.0
1734407445.9222026,127.44140625,3.41796875,70.80078125,155.76171875,0.0
1734407445.9261076,115.72265625,9.765625,127.9296875,125.48828125,0.0
1734407445.9300125,119.140625,10.25390625,149.90234375,103.515625,0.0
1734407445.9339173,142.08984375,8.7890625,59.5703125,149.4140625,0.0
1734407445.937822,125.0,8.30078125,-42.48046875,142.578125,0.0
1734407445.9417272,110.3515625,7.8125,27.34375,105.46875,0.0
1734407445.945632,110.3515625,19.04296875,161.62109375,112.3046875,0.0
1734407445.9495368,128.41796875,13.671875,113.76953125,120.1171875,0.0
1734407445.9534416,140.13671875,6.8359375,-133.7890625,121.09375,0.0
1734407445.9573464,107.421875,28.80859375,95.21484375,130.37109375,0.0
1734407445.9612515,121.09375,35.15625,253.41796875,85.9375,0.0
1734407445.9652436,121.09375,30.2734375,70.80078125,50.78125,0.0
1734407445.9691486,110.83984375,27.34375,76.171875,91.796875,0.0
1734407445.9730535,127.44140625,32.71484375,233.88671875,133.7890625,0.0
1734407445.9769583,118.1640625,36.1328125,226.5625,138.671875,0.0
1734407445.980863,115.72265625,31.25,147.4609375,121.09375,0.0
1734407445.984768,125.9765625,28.3203125,90.8203125,72.265625,0.0
1734407445.988673,103.515625,39.0625,141.11328125,59.08203125,0.0
1734407445.9925778,114.2578125,47.8515625,212.890625,104.00390625,0.0
1734407445.9964826,118.1640625,38.57421875,-112.3046875,101.07421875,0.0
1734407446.0003874,75.1953125,46.875,-156.73828125,54.6875,0.0
1734407446.0042925,64.94140625,61.5234375,242.67578125,28.80859375,0.0
1734407446.0081973,78.125,49.31640625,188.4765625,56.640625,0.0
1734407446.012173,94.7265625,48.33984375,154.78515625,77.1484375,0.0
1734407446.0160778,105.46875,66.89453125,204.58984375,94.7265625,0.0
1734407446.0199828,83.984375,71.2890625,220.703125,74.70703125,0.0
1734407446.0238876,99.609375,62.5,160.15625,51.26953125,0.0
1734407446.0277925,93.75,58.10546875,102.05078125,67.3828125,0.0
1734407446.0316973,88.37890625,57.12890625,135.25390625,90.8203125,0.0
1734407446.0356023,63.4765625,57.6171875,171.38671875,87.40234375,0.0
1734407446.0395072,69.82421875,47.8515625,162.59765625,79.58984375,0.0
1734407446.043412,92.7734375,43.45703125,-8.30078125,68.359375,0.0
1734407446.0473168,94.7265625,65.4296875,150.390625,56.640625,0.0
1734407446.0512216,81.54296875,53.22265625,262.20703125,93.26171875,0.0
1734407446.0551267,83.984375,49.8046875,127.44140625,123.53515625,0.0
1734407446.0590672,99.12109375,70.80078125,197.75390625,92.7734375,0.0
1734407446.062972,94.7265625,80.078125,283.69140625,31.73828125,0.0
1734407446.066877,89.35546875,83.984375,260.7421875,46.875,0.0
1734407446.070782,96.6796875,73.73046875,190.91796875,149.4140625,0.0
1734407446.0746868,44.921875,64.94140625,219.7265625,109.375,0.0
1734407446.0785916,87.890625,69.82421875,191.89453125,45.41015625,0.0
1734407446.0824964,69.82421875,75.1953125,225.5859375,39.0625,0.0
1734407446.0864012,53.22265625,68.84765625,51.26953125,-31.25,0.0
1734407446.0903063,92.28515625,69.82421875,67.3828125,65.91796875,0.0
1734407446.094211,41.50390625,88.8671875,437.5,48.33984375,0.0
1734407446.098116,71.77734375,85.9375,407.2265625,21.97265625,0.0
1734407446.1020207,72.265625,81.54296875,399.90234375,59.5703125,0.0
1734407446.105941,0.0,96.19140625,482.91015625,-58.10546875,0.0
1734407446.1098459,0.0,91.796875,522.4609375,4.39453125,0.0
1734407446.1137507,0.0,97.16796875,513.18359375,52.734375,0.0
1734407446.1176558,0.0,108.3984375,539.55078125,-55.6640625,0.0
1734407446.1215606,0.0,104.4921875,588.8671875,-31.73828125,0.0
1734407446.1254654,0.0,98.6328125,576.171875,-26.85546875,0.0
1734407446.1293702,0.0,109.86328125,588.37890625,17.578125,0.0
1734407446.133275,0.0,121.09375,586.9140625,-20.01953125,0.0
1734407446.13718,0.0,134.27734375,659.66796875,-65.91796875,0.0
1734407446.141085,0.0,141.11328125,699.21875,-100.5859375,0.0
1734407446.1449897,0.0,144.53125,625.0,-136.23046875,0.0
1734407446.1488945,0.0,139.16015625,641.11328125,-42.48046875,0.0
1734407446.1528027,65.4296875,151.3671875,703.125,-13.671875,0.0
1734407446.1567075,98.14453125,148.4375,684.5703125,23.92578125,0.0
1734407446.1606126,64.453125,151.85546875,590.8203125,-66.40625,0.0
1734407446.1645174,86.42578125,164.55078125,606.4453125,-111.328125,0.0
1734407446.1684222,59.5703125,159.1796875,638.18359375,-81.0546875,0.0
1734407446.172327,58.59375,160.15625,623.53515625,-13.18359375,0.0
1734407446.1762319,70.3125,149.90234375,497.0703125,53.7109375,0.0
1734407446.180137,58.59375,151.3671875,503.41796875,56.640625,0.0
1734407446.1840417,80.078125,183.59375,634.27734375,25.87890625,0.0
1734407446.1879466,70.80078125,174.31640625,606.4453125,34.66796875,0.0
1734407446.1918514,72.75390625,169.43359375,591.796875,51.26953125,0.0
1734407446.1957564,66.89453125,168.9453125,586.42578125,41.50390625,0.0
1734407446.199629,76.171875,170.41015625,593.26171875,2.44140625,0.0
1734407446.203534,58.10546875,161.62109375,523.92578125,2.44140625,0.0
1734407446.207439,65.4296875,152.34375,483.3984375,83.49609375,0.0
1734407446.2113438,95.21484375,165.52734375,541.50390625,89.84375,0.0
1734407446.2152486,55.6640625,153.80859375,486.328125,90.33203125,0.0
1734407446.2191534,56.640625,138.671875,434.08203125,42.96875,0.0
1734407446.2230582,45.8984375,145.01953125,392.578125,31.73828125,0.0
1734407446.2269633,29.78515625,147.4609375,402.83203125,84.9609375,0.0
1734407446.230868,44.43359375,147.4609375,457.51953125,123.046875,0.0
1734407446.234773,41.50390625,139.6484375,399.90234375,133.30078125,0.0
1734407446.2386777,68.359375,144.53125,357.421875,114.74609375,0.0
1734407446.2425828,60.05859375,159.1796875,430.6640625,74.21875,0.0
1734407446.2466147,50.78125,141.11328125,418.9453125,65.4296875,0.0
1734407446.2505195,81.54296875,133.30078125,309.5703125,130.859375,0.0
1734407446.2544243,82.03125,142.08984375,312.5,154.78515625,0.0
1734407446.2583292,76.66015625,140.13671875,392.08984375,105.95703125,0.0
1734407446.262234,76.66015625,130.37109375,319.82421875,89.35546875,0.0
1734407446.266139,76.66015625,116.2109375,84.9609375,109.86328125,0.0
1734407446.2700438,67.87109375,116.2109375,159.1796875,129.8828125,0.0
1734407446.2739487,57.12890625,122.0703125,364.74609375,159.1796875,0.0
1734407446.2778535,65.4296875,113.76953125,283.69140625,137.6953125,0.0
1734407446.2817585,62.5,95.703125,170.41015625,94.23828125,0.0
1734407446.2856634,62.01171875,93.75,134.27734375,91.796875,0.0
1734407446.2895682,68.359375,95.703125,178.7109375,128.90625,0.0
1734407446.2935872,0.0,86.9140625,177.734375,155.2734375,0.0
1734407446.297492,0.0,77.63671875,135.25390625,158.69140625,0.0
1734407446.3013968,0.0,86.42578125,132.8125,127.9296875,0.0
1734407446.305302,0.0,90.8203125,140.625,106.4453125,0.0
1734407446.3092067,0.0,70.3125,64.94140625,133.7890625,0.0
1734407446.3131115,0.0,56.15234375,-162.109375,167.48046875,0.0
1734407446.3170164,0.0,62.98828125,-277.83203125,155.2734375,0.0
1734407446.3209212,0.0,69.82421875,-64.453125,118.65234375,0.0
1734407446.3248262,0.0,53.22265625,-202.1484375,117.1875,0.0
1734407446.328731,0.0,47.8515625,-494.140625,163.0859375,0.0
1734407446.3326359,0.0,66.89453125,-300.78125,184.5703125,0.0
1734407446.3365407,0.0,64.94140625,-282.2265625,173.33984375,0.0
1734407446.3405342,51.7578125,56.640625,-372.0703125,147.4609375,0.0
1734407446.344439,48.828125,51.26953125,-470.703125,119.62890625,0.0
1734407446.348344,30.76171875,46.38671875,-479.00390625,147.4609375,0.0
1734407446.352249,44.43359375,50.78125,-416.015625,213.37890625,0.0
1734407446.3561537,51.7578125,40.0390625,-502.9296875,211.42578125,0.0
1734407446.3600585,38.57421875,26.85546875,-608.3984375,145.01953125,0.0
1734407446.3639636,36.62109375,30.76171875,-583.49609375,121.09375,0.0
1734407446.3678684,34.1796875,34.66796875,-540.52734375,147.4609375,0.0
1734407446.3717732,53.22265625,16.11328125,-741.69921875,216.30859375,0.0
1734407446.375678,60.546875,19.53125,-811.5234375,237.79296875,0.0
1734407446.379583,23.4375,31.73828125,-626.953125,202.1484375,0.0
1734407446.383488,24.4140625,14.6484375,-698.2421875,176.26953125,0.0
1734407446.3874621,0.0,4.39453125,-766.6015625,174.8046875,0.0
1734407446.391367,0.0,5.37109375,-743.65234375,222.65625,0.0
1734407446.3952718,0.0,-3.41796875,-749.51171875,264.16015625,0.0
1734407446.3991768,0.0,-19.53125,-782.2265625,225.09765625,0.0
1734407446.4030817,0.0,-31.73828125,-827.63671875,202.63671875,0.0
1734407446.4069865,0.0,-29.78515625,-834.9609375,227.5390625,0.0
1734407446.4108913,0.0,-35.64453125,-811.5234375,229.4921875,0.0
1734407446.414796,0.0,-58.59375,-869.140625,247.0703125,0.0
1734407446.4187012,0.0,-65.4296875,-894.04296875,238.28125,0.0
1734407446.422606,0.0,-49.8046875,-770.99609375,193.84765625,0.0
1734407446.4265108,0.0,-54.19921875,-750.48828125,188.96484375,0.0
1734407446.4304156,0.0,-64.94140625,-778.80859375,217.28515625,0.0
1734407446.4343657,21.97265625,-65.4296875,-769.04296875,246.58203125,0.0
1734407446.4382706,21.97265625,-62.01171875,-707.03125,220.703125,0.0
1734407446.4421756,28.80859375,-69.3359375,-715.33203125,173.828125,0.0
1734407446.4460804,34.66796875,-79.58984375,-717.7734375,182.12890625,0.0
1734407446.4499853,32.2265625,-74.70703125,-670.41015625,199.21875,0.0
1734407446.45389,38.0859375,-69.82421875,-725.09765625,191.40625,0.0
1734407446.4577951,22.4609375,-69.82421875,-702.63671875,155.2734375,0.0
1734407446.4617,33.69140625,-79.1015625,-787.109375,120.1171875,0.0
1734407446.4656048,42.48046875,-62.5,-800.78125,113.76953125,0.0
1734407446.4695096,5.859375,-36.1328125,-562.98828125,142.578125,0.0
1734407446.4734147,17.578125,-47.8515625,-581.0546875,181.640625,0.0
1734407446.4773195,24.4140625,-44.921875,-594.7265625,161.62109375,0.0
1734407446.4812415,20.01953125,-29.296875,-532.2265625,101.07421875,0.0
1734407446.4851465,21.484375,-21.484375,-498.046875,87.40234375,0.0
1734407446.4890513,17.578125,-26.3671875,-501.46484375,119.62890625,0.0
1734407446.4929562,24.90234375,-27.34375,-513.18359375,173.828125,0.0
1734407446.496861,43.45703125,-19.04296875,-522.94921875,169.921875,0.0
1734407446.500766,30.76171875,-20.5078125,-546.38671875,106.4453125,0.0
1734407446.5046709,6.8359375,-20.99609375,-588.37890625,92.7734375,0.0
1734407446.5085757,12.20703125,-21.97265625,-601.5625,117.1875,0.0
1734407446.5124805,24.4140625,-1.46484375,-416.50390625,145.01953125,0.0
1734407446.5163853,33.203125,12.20703125,-349.12109375,136.23046875,0.0
1734407446.5202904,36.1328125,1.46484375,-483.3984375,67.3828125,0.0
1734407446.5241952,38.57421875,-0.48828125,-531.25,65.91796875,0.0
1734407446.52809,33.203125,7.32421875,-351.5625,85.44921875,0.0
1734407446.5319948,34.66796875,1.953125,-308.10546875,118.1640625,0.0
1734407446.5358996,49.31640625,-12.20703125,-350.5859375,129.8828125,0.0
1734407446.5398045,25.87890625,-16.6015625,-333.49609375,97.16796875,0.0
1734407446.5437095,1.46484375,-12.20703125,-344.7265625,79.1015625,0.0
1734407446.5476143,12.20703125,-12.20703125,-367.67578125,112.3046875,0.0
1734407446.5515192,20.5078125,-22.4609375,-511.71875,152.83203125,0.0
1734407446.555424,20.01953125,-19.53125,-492.1875,122.0703125,0.0
1734407446.559329,14.16015625,-3.90625,-236.81640625,92.7734375,0.0
1734407446.5632339,17.578125,-8.30078125,-284.66796875,75.68359375,0.0
1734407446.5671387,21.484375,-9.27734375,-324.70703125,82.03125,0.0
1734407446.5710435,22.4609375,-5.37109375,-244.62890625,131.8359375,0.0
1734407446.5752685,0.0,-4.8828125,-167.96875,150.87890625,0.0
1734407446.5791736,0.0,-11.71875,-269.04296875,98.14453125,0.0
1734407446.5830784,0.0,-15.625,-346.6796875,62.01171875,0.0
1734407446.5869832,0.0,-4.8828125,-277.34375,70.3125,0.0
1734407446.590888,0.0,-1.953125,-250.9765625,101.07421875,0.0
1734407446.594793,0.0,-9.765625,-310.05859375,137.20703125,0.0
1734407446.598698,0.0,-12.20703125,-347.16796875,106.4453125,0.0
1734407446.6026027,0.0,-7.32421875,-243.1640625,62.98828125,0.0
1734407446.6065075,0.0,-1.46484375,-112.79296875,54.19921875,0.0
1734407446.6104126,0.0,-7.8125,-226.5625,85.44921875,0.0
1734407446.6143174,0.0,-20.01953125,-333.0078125,103.515625,0.0
1734407446.6182222,0.0,-11.23046875,-45.41015625,62.5,0.0
1734407446.6222584,17.578125,-9.765625,42.48046875,34.66796875,0.0
1734407446.6261632,8.30078125,-18.06640625,-156.73828125,32.2265625,0.0
1734407446.630068,11.71875,-9.27734375,-261.23046875,66.89453125,0.0
1734407446.633973,16.6015625,-0.9765625,-30.76171875,101.07421875,0.0
1734407446.637878,17.578125,-13.18359375,-38.0859375,74.70703125,0.0
1734407446.6417828,46.38671875,-25.390625,-302.24609375,39.55078125,0.0
1734407446.6456876,34.66796875,-22.94921875,-371.58203125,24.90234375,0.0
1734407446.6495924,3.41796875,-7.8125,-232.421875,38.0859375,0.0
1734407446.6534975,8.7890625,-10.25390625,-68.359375,79.58984375,0.0
1734407446.6574023,13.671875,-20.99609375,-222.16796875,84.9609375,0.0
1734407446.661307,7.8125,-7.32421875,-230.95703125,31.25,0.0
1734407446.665212,-2.44140625,-0.9765625,-54.6875,8.30078125,0.0
1734407446.6692233,0.0,-10.7421875,-5.859375,62.5,0.0
1734407446.6731281,0.0,-24.90234375,-307.6171875,106.4453125,0.0
1734407446.677033,0.0,-20.01953125,-319.82421875,80.56640625,0.0
1734407446.6809378,0.0,-8.7890625,65.4296875,37.59765625,0.0
1734407446.6848428,0.0,-16.6015625,-111.328125,8.7890625,0.0
1734407446.6887476,0.0,-19.04296875,-323.2421875,38.57421875,0.0
1734407446.6926525,0.0,-12.20703125,-263.18359375,90.33203125,0.0
1734407446.6965573,0.0,-7.32421875,-33.69140625,87.40234375,0.0
1734407446.7004623,0.0,-21.484375,-34.1796875,32.71484375,0.0
1734407446.7043672,0.0,-29.296875,-330.56640625,29.296875,0.0
1734407446.708272,0.0,2.9296875,-131.34765625,49.8046875,0.0
1734407446.7121768,0.0,3.41796875,75.68359375,63.4765625,0.0
1734407446.7161548,6.8359375,-8.30078125,-74.21875,87.40234375,0.0
1734407446.7200596,21.484375,-3.90625,-120.1171875,62.5,0.0
1734407446.7239645,13.18359375,-2.9296875,65.4296875,25.390625,0.0
1734407446.7278693,10.7421875,-5.37109375,90.8203125,30.2734375,0.0
1734407446.7317743,19.53125,-9.765625,-72.265625,71.2890625,0.0
1734407446.7356791,39.55078125,-8.30078125,-295.41015625,76.66015625,0.0
1734407446.739584,30.76171875,12.20703125,-148.92578125,34.1796875,0.0
1734407446.7434888,19.04296875,24.90234375,127.44140625,12.6953125,0.0
1734407446.7473938,37.59765625,11.23046875,-213.37890625,42.96875,0.0
1734407446.7512987,43.45703125,17.08984375,-320.80078125,76.171875,0.0
1734407446.7552035,40.52734375,37.59765625,104.4921875,63.96484375,0.0
1734407446.7591083,45.41015625,27.83203125,24.90234375,41.50390625,0.0
1734407446.7630608,30.76171875,22.4609375,-163.57421875,30.76171875,0.0
1734407446.7669656,24.90234375,28.80859375,-89.35546875,37.109375,0.0
1734407446.7708704,32.2265625,35.64453125,88.37890625,86.9140625,0.0
1734407446.7747753,29.78515625,32.2265625,4.8828125,97.65625,0.0
1734407446.7786803,35.15625,21.97265625,-202.1484375,57.6171875,0.0
1734407446.7825851,33.69140625,19.53125,-250.48828125,25.390625,0.0
1734407446.78649,57.12890625,18.5546875,-242.67578125,14.16015625,0.0
1734407446.7903948,66.89453125,19.53125,-245.1171875,73.73046875,0.0
1734407446.7942998,37.109375,22.4609375,-302.734375,103.02734375,0.0
1734407446.7982047,29.296875,35.15625,-41.50390625,52.734375,0.0
1734407446.8021095,18.5546875,32.2265625,135.7421875,-9.765625,0.0
1734407446.8060143,18.5546875,20.5078125,-53.22265625,-10.25390625,0.0
1734407446.8099415,0.0,23.4375,-82.03125,44.921875,0.0
1734407446.8138463,0.0,26.85546875,134.765625,51.26953125,0.0
1734407446.8177514,0.0,18.5546875,103.02734375,38.57421875,0.0
1734407446.8216562,0.0,16.11328125,-83.0078125,26.3671875,0.0
1734407446.825561,0.0,28.80859375,-41.9921875,22.94921875,0.0
1734407446.8294659,0.0,41.50390625,-116.2109375,75.1953125,0.0
1734407446.833371,0.0,39.0625,-49.31640625,95.21484375,0.0
1734407446.8372757,0.0,10.7421875,-170.41015625,68.359375,0.0
1734407446.8411806,0.0,14.16015625,-277.34375,38.57421875,0.0
1734407446.8450854,0.0,42.48046875,98.14453125,8.30078125,0.0
1734407446.8489904,0.0,36.62109375,27.83203125,61.5234375,0.0
1734407446.8528953,0.0,32.71484375,-23.4375,116.2109375,0.0
1734407446.856816,65.4296875,37.109375,43.9453125,124.51171875,0.0
1734407446.860721,69.3359375,40.52734375,91.30859375,55.17578125,0.0
1734407446.864626,65.4296875,41.015625,12.6953125,10.25390625,0.0
1734407446.8685308,53.7109375,41.50390625,-62.01171875,69.82421875,0.0
1734407446.8724356,63.96484375,37.109375,-13.671875,114.74609375,0.0
1734407446.8763406,69.3359375,31.25,-121.09375,98.6328125,0.0
1734407446.8802454,42.48046875,26.3671875,-267.08984375,60.05859375,0.0
1734407446.8841503,44.921875,27.83203125,-361.81640625,62.01171875,0.0
1734407446.888055,56.640625,47.8515625,-126.953125,74.70703125,0.0
1734407446.8919601,57.6171875,44.43359375,141.11328125,82.51953125,0.0
1734407446.895865,58.10546875,35.15625,-21.484375,102.5390625,0.0
1734407446.8997698,54.6875,46.875,-83.0078125,61.03515625,0.0
1734407446.903659,54.19921875,55.6640625,73.73046875,22.94921875,0.0
1734407446.9075642,57.12890625,48.828125,100.5859375,39.0625,0.0
1734407446.911469,55.17578125,37.59765625,-14.6484375,79.58984375,0.0
1734407446.9153738,59.08203125,38.0859375,-32.2265625,98.6328125,0.0
1734407446.9192786,52.734375,40.0390625,85.44921875,85.44921875,0.0
1734407446.9231837,61.5234375,38.57421875,-46.38671875,37.109375,0.0
1734407446.9270885,81.0546875,33.203125,-417.48046875,64.453125,0.0
1734407446.9309933,58.59375,34.1796875,-308.59375,119.62890625,0.0
1734407446.9348981,50.29296875,51.26953125,112.79296875,83.0078125,0.0
1734407446.9388032,60.05859375,44.921875,-51.26953125,61.03515625,0.0
1734407446.942708,64.453125,45.8984375,-176.26953125,46.875,0.0
1734407446.9466128,58.10546875,48.828125,-8.30078125,51.26953125,0.0
1734407446.9504905,46.38671875,42.48046875,120.1171875,70.3125,0.0
1734407446.9543953,41.9921875,32.2265625,45.8984375,97.65625,0.0
1734407446.9583,41.015625,32.71484375,-36.62109375,79.58984375,0.0
1734407446.962205,40.0390625,29.78515625,40.52734375,33.203125,0.0
1734407446.96611,44.921875,20.99609375,-34.1796875,39.0625,0.0
1734407446.9700148,49.8046875,22.4609375,-205.56640625,91.30859375,0.0
1734407446.9739196,56.15234375,20.5078125,-281.25,106.4453125,0.0
1734407446.9778244,60.546875,31.73828125,-22.4609375,72.265625,0.0
1734407446.9817295,40.0390625,29.296875,160.64453125,33.203125,0.0
1734407446.9856343,41.50390625,12.6953125,-89.84375,58.59375,0.0
1734407446.9895391,41.015625,11.71875,-125.0,82.51953125,0.0
1734407446.993444,41.50390625,27.34375,108.88671875,53.22265625,0.0
1734407446.9974597,51.26953125,23.4375,0.0,53.7109375,0.0
1734407447.0013645,46.38671875,17.08984375,0.0,22.94921875,0.0
1734407447.0052693,42.96875,25.390625,0.0,9.27734375,0.0
1734407447.0091743,39.55078125,23.4375,0.0,65.91796875,0.0
1734407447.0130792,45.41015625,14.16015625,0.0,81.54296875,0.0
1734407447.016984,47.8515625,-1.953125,0.0,63.96484375,0.0
1734407447.0208888,52.734375,0.9765625,0.0,30.76171875,0.0
1734407447.0247939,53.7109375,22.4609375,0.0,-12.6953125,0.0
1734407447.0286987,37.109375,19.53125,0.0,28.3203125,0.0
1734407447.0326035,43.45703125,8.7890625,0.0,98.6328125,0.0
1734407447.0365083,46.875,22.94921875,0.0,111.328125,0.0
1734407447.0404134,52.24609375,37.109375,0.0,56.640625,0.0
1734407447.0444198,65.91796875,37.109375,41.50390625,25.87890625,0.0
1734407447.0483246,70.3125,38.57421875,-19.53125,66.40625,0.0
1734407447.0522294,63.4765625,43.9453125,61.03515625,116.69921875,0.0
1734407447.0561342,62.01171875,39.0625,39.55078125,110.3515625,0.0
1734407447.0600393,55.17578125,33.69140625,-28.3203125,64.453125,0.0
1734407447.063944,54.19921875,33.203125,-179.19921875,38.0859375,0.0
1734407447.067849,61.5234375,42.48046875,-182.12890625,71.77734375,0.0
1734407447.0717537,65.4296875,50.78125,65.91796875,106.4453125,0.0
1734407447.0756588,63.4765625,40.52734375,8.7890625,102.05078125,0.0
1734407447.0795636,54.19921875,35.15625,-270.01953125,60.05859375,0.0
1734407447.0834684,66.89453125,60.546875,-33.203125,16.11328125,0.0
1734407447.0873735,73.73046875,60.546875,185.05859375,30.76171875,0.0
1734407447.091358,0.0,44.921875,-21.484375,84.47265625,0.0
1734407447.0952628,0.0,48.828125,-69.3359375,80.56640625,0.0
1734407447.0991676,0.0,50.29296875,88.8671875,25.87890625,0.0
1734407447.1030726,0.0,42.96875,97.65625,-14.16015625,0.0
1734407447.1069775,0.0,38.57421875,-71.2890625,2.9296875,0.0
1734407447.1108823,0.0,43.9453125,-165.0390625,56.15234375,0.0
1734407447.114787,0.0,48.33984375,-63.96484375,67.3828125,0.0
1734407447.1186922,0.0,49.31640625,59.5703125,46.875,0.0
1734407447.122597,0.0,38.0859375,-200.68359375,53.22265625,0.0
1734407447.1265018,0.0,46.38671875,-265.13671875,48.828125,0.0
1734407447.1304069,0.0,60.546875,93.75,55.6640625,0.0
1734407447.1343117,0.0,46.875,-14.16015625,100.09765625,0.0
1734407447.1382625,63.96484375,46.38671875,36.62109375,77.63671875,0.0
1734407447.1421673,39.55078125,42.48046875,77.63671875,32.2265625,0.0
1734407447.1460721,49.31640625,41.9921875,123.53515625,28.80859375,0.0
1734407447.149977,48.33984375,37.109375,42.48046875,66.89453125,0.0
1734407447.153882,43.9453125,28.80859375,-104.4921875,77.1484375,0.0
1734407447.1577868,40.0390625,30.76171875,-12.20703125,56.640625,0.0
1734407447.1616917,34.66796875,34.1796875,34.1796875,33.203125,0.0
1734407447.1655965,41.50390625,34.66796875,-41.9921875,42.96875,0.0
1734407447.1695015,46.875,34.1796875,-215.33203125,74.21875,0.0
1734407447.1734064,48.828125,48.33984375,-60.546875,86.9140625,0.0
1734407447.1773112,62.5,56.640625,136.23046875,68.84765625,0.0
1734407447.181216,60.05859375,47.36328125,16.6015625,21.97265625,0.0
1734407447.1851559,62.01171875,42.48046875,-36.62109375,17.578125,0.0
1734407447.1890607,62.5,49.31640625,109.375,46.38671875,0.0
1734407447.1929655,51.26953125,45.41015625,123.53515625,65.4296875,0.0
1734407447.1968706,52.734375,37.59765625,-9.27734375,53.22265625,0.0
1734407447.2007754,57.12890625,36.62109375,-20.99609375,19.53125,0.0
1734407447.2046802,61.03515625,32.2265625,-94.23828125,3.41796875,0.0
1734407447.2085853,40.52734375,32.2265625,-34.66796875,42.48046875,0.0
1734407447.21249,47.36328125,19.53125,-164.55078125,77.1484375,0.0
1734407447.216395,61.5234375,24.4140625,-273.4375,63.4765625,0.0
1734407447.2202997,42.96875,41.015625,146.97265625,36.62109375,0.0
1734407447.2242048,38.57421875,25.390625,81.54296875,26.85546875,0.0
1734407447.2281096,42.48046875,16.6015625,-29.296875,49.31640625,0.0
1734407447.232022,57.12890625,17.578125,-4.39453125,90.33203125,0.0
1734407447.235927,54.6875,21.484375,51.26953125,97.16796875,0.0
1734407447.239832,43.45703125,18.5546875,45.41015625,53.7109375,0.0
1734407447.2437367,46.38671875,11.23046875,40.52734375,13.671875,0.0
1734407447.2476416,57.12890625,15.13671875,10.7421875,38.57421875,0.0
1734407447.2515466,57.12890625,14.16015625,-48.33984375,86.42578125,0.0
1734407447.2554514,31.25,9.27734375,-64.94140625,80.56640625,0.0
1734407447.2593563,23.92578125,2.9296875,-257.8125,47.8515625,0.0
1734407447.263261,22.94921875,12.20703125,-39.55078125,23.4375,0.0
1734407447.2671661,25.390625,16.6015625,160.64453125,38.57421875,0.0
1734407447.271071,37.109375,4.39453125,4.8828125,85.9375,0.0
1734407447.2749758,45.8984375,12.6953125,-14.16015625,84.9609375,0.0
1734407447.278864,44.921875,21.484375,119.140625,62.01171875,0.0
1734407447.2827687,40.0390625,3.90625,102.05078125,37.109375,0.0
1734407447.2866735,48.33984375,-12.6953125,-5.37109375,45.41015625,0.0
1734407447.2905786,61.5234375,-4.8828125,-41.9921875,103.515625,0.0
1734407447.2944834,58.59375,16.11328125,16.11328125,92.28515625,0.0
1734407447.2983882,60.546875,13.671875,41.9921875,41.50390625,0.0
1734407447.3022933,56.640625,-4.39453125,-287.109375,41.50390625,0.0
1734407447.3061981,27.83203125,3.41796875,-298.33984375,18.06640625,0.0
1734407447.310103,20.01953125,25.390625,132.8125,32.2265625,0.0
1734407447.3140078,41.9921875,18.5546875,89.35546875,90.33203125,0.0
1734407447.3179128,41.9921875,19.53125,8.7890625,78.61328125,0.0
1734407447.3218176,9.765625,18.5546875,46.875,29.78515625,0.0
1734407447.325692,11.23046875,9.27734375,124.0234375,10.7421875,0.0
1734407447.3295968,27.34375,-1.953125,86.9140625,46.875,0.0
1734407447.3335018,27.34375,-5.37109375,62.98828125,77.1484375,0.0
1734407447.3374066,20.99609375,-1.953125,119.62890625,62.01171875,0.0
1734407447.3413115,20.99609375,-4.39453125,57.12890625,34.66796875,0.0
1734407447.3452163,28.80859375,-5.859375,3.90625,21.484375,0.0
1734407447.3491213,29.296875,-12.20703125,-155.2734375,69.3359375,0.0
1734407447.3530262,41.9921875,-3.41796875,-80.56640625,114.74609375,0.0
1734407447.356931,59.08203125,13.671875,158.69140625,96.6796875,0.0
1734407447.3608358,39.55078125,8.7890625,41.50390625,38.0859375,0.0
1734407447.3647408,34.66796875,9.765625,-34.1796875,26.85546875,0.0
1734407447.3686457,43.45703125,22.94921875,145.99609375,69.3359375,0.0
1734407447.3726742,50.78125,23.4375,178.7109375,101.07421875,0.0
1734407447.376579,58.59375,17.08984375,33.203125,92.28515625,0.0
1734407447.380484,48.33984375,20.5078125,10.25390625,79.1015625,0.0
1734407447.384389,41.015625,31.25,156.25,67.3828125,0.0
1734407447.3882937,51.26953125,28.80859375,173.33984375,77.63671875,0.0
1734407447.3921988,59.5703125,18.5546875,-150.390625,125.9765625,0.0
1734407447.3961036,48.33984375,27.34375,-193.359375,111.328125,0.0
1734407447.4000084,40.52734375,39.55078125,143.06640625,46.875,0.0
1734407447.4039133,52.734375,38.57421875,129.8828125,29.296875,0.0
1734407447.4078183,35.64453125,26.3671875,-99.609375,61.5234375,0.0
1734407447.4117231,24.4140625,28.3203125,-67.87109375,78.125,0.0
1734407447.415628,32.71484375,41.015625,158.203125,78.125,0.0
1734407447.4196222,0.0,27.83203125,80.078125,56.640625,0.0
1734407447.423527,0.0,18.5546875,-11.71875,29.296875,0.0
1734407447.4274318,0.0,29.78515625,66.89453125,60.05859375,0.0
1734407447.4313369,0.0,32.71484375,128.90625,104.00390625,0.0
1734407447.4352417,0.0,19.53125,14.16015625,85.9375,0.0
1734407447.4391465,0.0,16.11328125,-121.09375,49.31640625,0.0
1734407447.4430513,0.0,23.4375,-41.015625,10.7421875,0.0
1734407447.4469564,0.0,28.80859375,109.86328125,27.34375,0.0
1734407447.4508612,0.0,18.5546875,40.0390625,89.84375,0.0
1734407447.454766,0.0,12.20703125,-205.078125,112.3046875,0.0
1734407447.4586709,0.0,32.71484375,-20.5078125,66.40625,0.0
1734407447.462576,0.0,33.69140625,197.265625,29.296875,0.0
1734407447.4665477,47.36328125,22.94921875,16.11328125,45.8984375,0.0
1734407447.4704525,48.828125,14.16015625,-65.91796875,89.35546875,0.0
1734407447.4743574,43.45703125,18.5546875,83.984375,86.42578125,0.0
1734407447.4782622,47.8515625,26.85546875,149.4140625,63.96484375,0.0
1734407447.4821672,38.0859375,14.6484375,21.97265625,44.921875,0.0
1734407447.486072,32.2265625,6.8359375,-117.1875,53.22265625,0.0
1734407447.489977,55.17578125,18.06640625,24.90234375,91.30859375,0.0
1734407447.493882,49.8046875,22.4609375,206.54296875,91.30859375,0.0
1734407447.4977868,32.71484375,0.9765625,-132.32421875,80.078125,0.0
1734407447.5016916,33.203125,7.32421875,-245.1171875,76.171875,0.0
1734407447.5055964,34.1796875,25.390625,143.06640625,60.05859375,0.0
1734407447.5095015,40.0390625,15.625,99.12109375,69.3359375,0.0
1734407447.5134468,49.31640625,16.6015625,0.0,106.4453125,0.0
1734407447.5173516,53.22265625,16.11328125,0.0,79.1015625,0.0
1734407447.5212564,30.2734375,9.765625,0.0,4.8828125,0.0
1734407447.5251615,35.64453125,9.27734375,0.0,3.41796875,0.0
1734407447.5290663,43.45703125,8.30078125,0.0,67.3828125,0.0
1734407447.5329711,33.69140625,16.11328125,0.0,105.46875,0.0
1734407447.5368762,46.875,21.97265625,0.0,102.5390625,0.0
1734407447.540781,49.8046875,12.20703125,0.0,47.36328125,0.0
1734407447.5446858,46.38671875,4.39453125,0.0,5.859375,0.0
1734407447.5485907,39.0625,23.4375,0.0,44.921875,0.0
1734407447.5524957,42.96875,26.3671875,0.0,74.70703125,0.0
1734407447.5564005,42.48046875,7.8125,0.0,64.94140625,0.0
1734407447.5603285,0.0,17.578125,32.2265625,30.2734375,0.0
1734407447.5642333,0.0,25.87890625,141.6015625,7.32421875,0.0
1734407447.5681381,0.0,16.6015625,132.8125,53.22265625,0.0
1734407447.572043,0.0,17.08984375,57.12890625,88.37890625,0.0
1734407447.575948,0.0,22.4609375,0.9765625,78.61328125,0.0
1734407447.5798528,0.0,13.671875,20.01953125,45.41015625,0.0
1734407447.5837576,0.0,7.32421875,136.23046875,22.4609375,0.0
1734407447.5876627,0.0,-7.8125,-139.16015625,27.34375,0.0
1734407447.5915675,0.0,-8.7890625,-263.671875,62.5,0.0
1734407447.5954723,0.0,14.16015625,176.7578125,60.05859375,0.0
1734407447.5993772,0.0,9.27734375,133.7890625,26.85546875,0.0
1734407447.6032822,0.0,3.41796875,6.34765625,16.6015625,0.0
1734407447.6071858,39.55078125,10.25390625,0.0,37.109375,0.0
1734407447.6110907,50.78125,8.30078125,0.0,76.66015625,0.0
1734407447.6149955,52.24609375,-2.44140625,0.0,84.47265625,0.0
1734407447.6189005,40.52734375,2.9296875,0.0,70.3125,0.0
1734407447.6228054,32.2265625,2.9296875,0.0,35.64453125,0.0
1734407447.6267102,36.1328125,3.90625,0.0,27.83203125,0.0
1734407447.6306152,48.33984375,14.16015625,0.0,64.94140625,0.0
1734407447.63452,63.96484375,8.7890625,0.0,89.35546875,0.0
1734407447.6384249,63.96484375,22.4609375,0.0,58.10546875,0.0
1734407447.6423297,46.875,23.4375,0.0,20.5078125,0.0
1734407447.6462348,57.6171875,6.8359375,0.0,50.78125,0.0
1734407447.6501396,68.84765625,16.6015625,0.0,88.8671875,0.0
1734407447.6540346,58.59375,29.296875,135.25390625,95.703125,0.0
1734407447.6579394,69.3359375,24.90234375,140.625,74.21875,0.0
1734407447.6618443,90.33203125,17.08984375,-8.7890625,43.45703125,0.0
1734407447.665749,73.2421875,20.01953125,-27.83203125,38.0859375,0.0
1734407447.6696541,57.12890625,29.78515625,82.03125,67.87109375,0.0
1734407447.673559,55.6640625,19.53125,66.40625,104.00390625,0.0
1734407447.6774638,54.19921875,-2.44140625,-227.05078125,87.890625,0.0
1734407447.6813686,43.45703125,4.8828125,-281.25,47.36328125,0.0
1734407447.6852736,26.3671875,31.73828125,149.4140625,30.2734375,0.0
1734407447.6891785,38.57421875,31.73828125,141.6015625,59.08203125,0.0
1734407447.6930833,64.453125,35.64453125,63.4765625,84.9609375,0.0
1734407447.6969883,61.03515625,40.52734375,84.9609375,75.1953125,0.0
1734407447.7010293,37.59765625,36.1328125,128.90625,56.640625,0.0
1734407447.7049341,35.15625,31.73828125,37.59765625,31.73828125,0.0
1734407447.7088392,38.57421875,36.1328125,27.34375,52.734375,0.0
1734407447.712744,48.33984375,39.55078125,131.34765625,86.42578125,0.0
1734407447.7166488,48.33984375,29.296875,63.96484375,77.63671875,0.0
1734407447.7205536,50.78125,28.80859375,-56.640625,42.96875,0.0
1734407447.7244587,54.19921875,32.2265625,-217.28515625,25.87890625,0.0
1734407447.7283635,52.734375,52.734375,-17.08984375,53.22265625,0.0
1734407447.7322683,57.6171875,61.5234375,210.44921875,81.54296875,0.0
1734407447.7361734,58.10546875,47.8515625,6.8359375,88.8671875,0.0
1734407447.7400782,50.78125,42.96875,-98.14453125,54.6875,0.0
1734407447.743983,44.43359375,46.38671875,93.75,43.45703125,0.0
1734407447.7479954,46.38671875,44.43359375,0.0,71.2890625,0.0
1734407447.7519004,49.8046875,31.25,0.0,102.05078125,0.0
1734407447.7558053,44.921875,31.25,0.0,117.67578125,0.0
1734407447.75971,47.36328125,38.57421875,0.0,73.2421875,0.0
1734407447.763615,52.24609375,31.73828125,0.0,48.828125,0.0
1734407447.76752,34.1796875,25.87890625,0.0,59.5703125,0.0
1734407447.7714248,43.45703125,26.85546875,0.0,80.56640625,0.0
1734407447.7753296,49.31640625,32.71484375,0.0,83.984375,0.0
1734407447.7792346,40.0390625,34.1796875,0.0,44.921875,0.0
1734407447.7831395,44.43359375,14.16015625,0.0,34.66796875,0.0
1734407447.7870443,42.96875,18.5546875,0.0,52.24609375,0.0
1734407447.790949,46.875,38.57421875,0.0,51.7578125,0.0
1734407447.7949405,57.6171875,26.85546875,87.40234375,53.22265625,0.0
1734407447.7988453,56.15234375,27.83203125,23.92578125,38.0859375,0.0
1734407447.80275,41.015625,39.55078125,58.59375,5.859375,0.0
1734407447.8066552,24.4140625,31.73828125,76.171875,14.6484375,0.0
1734407447.81056,26.3671875,19.53125,-39.55078125,56.15234375,0.0
1734407447.8144648,35.64453125,20.5078125,-247.0703125,84.9609375,0.0
1734407447.8183696,38.57421875,22.94921875,-219.23828125,67.3828125,0.0
1734407447.8222747,29.78515625,21.484375,9.765625,38.57421875,0.0
1734407447.8261795,33.69140625,13.18359375,-73.73046875,61.5234375,0.0
1734407447.8300843,60.05859375,12.6953125,-270.99609375,120.60546875,0.0
1734407447.8339894,70.3125,35.15625,-9.765625,114.2578125,0.0
1734407447.8378942,66.89453125,45.8984375,161.62109375,95.21484375,0.0
1734407447.8418775,69.82421875,35.64453125,-84.9609375,72.75390625,0.0
1734407447.8457823,49.8046875,33.203125,-139.16015625,64.94140625,0.0
1734407447.849687,28.80859375,34.66796875,71.77734375,91.796875,0.0
1734407447.8535922,41.015625,33.69140625,95.703125,100.09765625,0.0
1734407447.857497,51.26953125,31.73828125,-68.84765625,106.93359375,0.0
1734407447.8614018,45.8984375,31.25,-274.4140625,75.1953125,0.0
1734407447.8653066,41.9921875,41.015625,-140.625,42.48046875,0.0
1734407447.8692117,36.62109375,44.921875,141.6015625,77.63671875,0.0
1734407447.8731165,52.734375,25.87890625,-176.26953125,126.953125,0.0
1734407447.8770213,74.21875,35.64453125,-346.6796875,110.3515625,0.0
1734407447.8809264,48.33984375,52.734375,67.87109375,51.26953125,0.0
1734407447.8848312,39.0625,33.69140625,-48.33984375,44.43359375,0.0
1734407447.8887868,43.9453125,41.50390625,-119.62890625,78.61328125,0.0
1734407447.8926916,36.62109375,50.29296875,38.57421875,83.49609375,0.0
1734407447.8965967,33.203125,47.8515625,132.8125,74.70703125,0.0
1734407447.9005015,16.6015625,40.0390625,50.78125,48.828125,0.0
1734407447.9044063,23.4375,30.2734375,-174.8046875,46.875,0.0
1734407447.9083114,37.109375,36.62109375,-261.71875,73.73046875,0.0
1734407447.9122162,29.296875,46.875,-133.7890625,106.4453125,0.0
1734407447.916121,41.015625,39.55078125,-47.8515625,116.2109375,0.0
1734407447.9200258,64.94140625,22.94921875,-270.01953125,87.40234375,0.0
1734407447.923931,51.7578125,40.52734375,-104.4921875,83.0078125,0.0
1734407447.9278357,51.7578125,56.15234375,160.64453125,88.37890625,0.0
1734407447.9317405,51.26953125,45.41015625,-20.99609375,110.83984375,0.0
1734407447.9356642,48.33984375,41.015625,0.0,115.72265625,0.0
1734407447.939569,57.6171875,46.875,0.0,90.33203125,0.0
1734407447.9434738,47.36328125,34.66796875,0.0,66.40625,0.0
1734407447.9473786,40.52734375,35.64453125,0.0,72.265625,0.0
1734407447.9512837,60.05859375,44.43359375,0.0,99.609375,0.0
1734407447.9551885,58.59375,37.109375,0.0,113.28125,0.0
1734407447.9590933,37.109375,39.55078125,0.0,73.2421875,0.0
1734407447.9629984,39.0625,27.34375,0.0,30.76171875,0.0
1734407447.9669032,46.38671875,28.3203125,0.0,52.24609375,0.0
1734407447.970808,35.64453125,45.41015625,0.0,70.3125,0.0
1734407447.9747128,35.15625,32.71484375,0.0,60.05859375,0.0
1734407447.978618,32.71484375,20.5078125,0.0,26.3671875,0.0
1734407447.982034,0.0,18.5546875,-104.4921875,-7.32421875,0.0
1734407447.9859388,0.0,24.4140625,91.30859375,8.7890625,0.0
1734407447.9898438,0.0,21.97265625,-85.9375,52.24609375,0.0
1734407447.9937487,0.0,21.97265625,-253.90625,53.22265625,0.0
1734407447.9976535,0.0,25.87890625,-41.50390625,5.859375,0.0
1734407448.0015583,0.0,24.90234375,-74.21875,-23.92578125,0.0
1734407448.0054634,0.0,20.99609375,-115.234375,-6.34765625,0.0
1734407448.0093682,0.0,16.11328125,-306.640625,67.87109375,0.0
1734407448.013273,0.0,34.1796875,-334.9609375,82.03125,0.0
1734407448.017178,0.0,37.109375,104.00390625,33.203125,0.0
1734407448.0210829,0.0,24.4140625,58.59375,20.01953125,0.0
1734407448.0249877,0.0,26.85546875,-156.25,38.0859375,0.0
1734407448.0290813,76.66015625,39.0625,91.796875,83.0078125,0.0
1734407448.0329862,75.68359375,41.9921875,126.953125,89.84375,0.0
1734407448.036891,79.1015625,35.64453125,-118.65234375,88.37890625,0.0
1734407448.0407958,89.84375,40.0390625,-143.5546875,48.828125,0.0
1734407448.0447009,78.125,37.59765625,28.3203125,20.01953125,0.0
1734407448.0486057,62.01171875,24.90234375,-120.60546875,51.7578125,0.0
1734407448.0525105,83.0078125,16.11328125,-399.90234375,73.73046875,0.0
1734407448.0564156,83.49609375,21.484375,-306.15234375,63.4765625,0.0
1734407448.0603204,61.03515625,41.9921875,0.0,9.765625,0.0
1734407448.0642252,49.31640625,32.71484375,-66.40625,-2.9296875,0.0
1734407448.06813,49.31640625,25.390625,-67.3828125,42.96875,0.0
1734407448.072035,67.3828125,31.25,-12.20703125,76.66015625,0.0
1734407448.0758858,66.89453125,31.73828125,65.4296875,45.8984375,0.0
1734407448.0797906,35.64453125,18.5546875,41.9921875,12.6953125,0.0
1734407448.0836957,29.78515625,11.71875,-123.046875,-3.41796875,0.0
1734407448.0876005,30.76171875,20.01953125,-22.4609375,13.671875,0.0
1734407448.0915053,39.55078125,15.625,28.3203125,41.015625,0.0
1734407448.09541,51.7578125,8.30078125,-276.85546875,58.10546875,0.0
1734407448.0993152,49.31640625,14.6484375,-333.49609375,36.1328125,0.0
1734407448.10322,47.36328125,29.296875,-63.96484375,-10.25390625,0.0
1734407448.1071248,54.6875,33.203125,110.83984375,29.78515625,0.0
1734407448.1110299,70.3125,18.5546875,-15.625,63.96484375,0.0
1734407448.1149347,94.23828125,13.18359375,-291.015625,61.03515625,0.0
1734407448.1188395,71.2890625,24.90234375,-246.58203125,20.99609375,0.0
1734407448.122854,52.734375,28.80859375,-62.98828125,0.48828125,0.0
1734407448.1267588,66.40625,21.97265625,-56.640625,20.5078125,0.0
1734407448.1306636,78.61328125,20.5078125,-76.66015625,43.45703125,0.0
1734407448.1345687,78.61328125,24.90234375,47.8515625,65.4296875,0.0
1734407448.1384735,67.3828125,20.5078125,90.8203125,22.4609375,0.0
1734407448.1423783,79.1015625,3.90625,-264.6484375,-10.25390625,0.0
1734407448.1462831,87.40234375,10.7421875,-354.00390625,2.9296875,0.0
1734407448.1501882,67.87109375,26.3671875,108.3984375,23.4375,0.0
1734407448.154093,72.265625,14.16015625,108.88671875,45.41015625,0.0
1734407448.1579978,73.2421875,6.34765625,-105.46875,38.0859375,0.0
1734407448.161903,66.89453125,13.18359375,-75.68359375,3.41796875,0.0
1734407448.1658077,64.94140625,17.578125,104.00390625,16.11328125,0.0
1734407448.1697867,62.98828125,5.859375,59.08203125,39.55078125,0.0
1734407448.1736915,68.359375,-1.953125,-79.58984375,42.96875,0.0
1734407448.1775963,66.89453125,2.44140625,-92.7734375,33.69140625,0.0
1734407448.1815012,57.6171875,5.859375,1.953125,-2.9296875,0.0
1734407448.1854062,68.359375,1.953125,-92.7734375,-3.90625,0.0
1734407448.189311,64.94140625,-0.9765625,-254.39453125,19.04296875,0.0
1734407448.1932158,53.22265625,1.46484375,-294.43359375,36.62109375,0.0
1734407448.197121,56.640625,5.859375,-134.27734375,19.04296875,0.0
1734407448.2010257,57.12890625,-1.46484375,-13.18359375,-10.25390625,0.0
1734407448.2049305,61.03515625,-11.23046875,-295.41015625,22.94921875,0.0
1734407448.2088354,62.5,5.37109375,-66.89453125,48.828125,0.0
1734407448.2127404,58.59375,3.90625,160.64453125,42.48046875,0.0
1734407448.2166991,53.7109375,-14.16015625,-96.6796875,21.97265625,0.0
1734407448.220604,51.7578125,-13.671875,-145.01953125,-5.37109375,0.0
1734407448.2245088,65.4296875,-8.7890625,77.63671875,-10.25390625,0.0
1734407448.2284136,66.89453125,-10.25390625,117.67578125,19.53125,0.0
1734407448.2323186,45.41015625,-18.06640625,-54.19921875,59.08203125,0.0
1734407448.2362235,53.7109375,-15.625,-253.41796875,45.41015625,0.0
1734407448.2401283,53.22265625,-7.32421875,-226.5625,12.6953125,0.0
1734407448.2440333,43.9453125,-4.8828125,-144.53125,-5.37109375,0.0
1734407448.2479382,45.41015625,-18.06640625,-345.21484375,27.34375,0.0
1734407448.251843,45.8984375,-22.94921875,-302.734375,57.12890625,0.0
1734407448.2557478,43.9453125,-1.46484375,72.265625,25.390625,0.0
1734407448.2596529,47.8515625,1.46484375,32.2265625,-5.859375,0.0
1734407448.2636018,47.36328125,-9.765625,-121.58203125,-13.18359375,0.0
1734407448.2675066,54.19921875,-13.18359375,-70.80078125,4.39453125,0.0
1734407448.2714114,55.6640625,-8.30078125,82.03125,19.53125,0.0
1734407448.2753165,40.52734375,-14.16015625,25.390625,27.83203125,0.0
1734407448.2792213,40.52734375,-23.4375,-173.828125,12.6953125,0.0
1734407448.283126,41.50390625,-15.13671875,-292.48046875,11.71875,0.0
1734407448.2870312,43.45703125,0.0,-187.98828125,26.85546875,0.0
1734407448.290936,54.6875,-4.39453125,-32.2265625,51.26953125,0.0
1734407448.2948408,52.734375,-24.90234375,-290.0390625,95.703125,0.0
1734407448.2987456,46.875,-7.8125,-203.125,45.8984375,0.0
1734407448.3026507,45.8984375,2.44140625,124.0234375,-16.6015625,0.0
1734407448.3065555,41.9921875,-11.23046875,-47.8515625,24.4140625,0.0
1734407448.310483,46.38671875,-1.953125,0.0,76.171875,0.0
1734407448.314388,59.08203125,5.859375,0.0,74.21875,0.0
1734407448.3182929,60.05859375,-4.39453125,0.0,41.015625,0.0
1734407448.3221977,67.87109375,-6.34765625,0.0,19.04296875,0.0
1734407448.3261025,61.03515625,-1.46484375,0.0,34.66796875,0.0
1734407448.3300076,53.22265625,-6.34765625,0.0,85.44921875,0.0
1734407448.3339124,53.7109375,-10.25390625,0.0,89.35546875,0.0
1734407448.3378172,49.31640625,-26.3671875,0.0,42.48046875,0.0
1734407448.3417222,54.6875,-22.94921875,0.0,10.25390625,0.0
1734407448.345627,48.828125,-2.9296875,0.0,8.7890625,0.0
1734407448.349532,50.78125,-7.32421875,0.0,46.38671875,0.0
1734407448.3534367,51.7578125,-8.7890625,0.0,63.4765625,0.0
1734407448.3573537,49.8046875,-3.41796875,-178.7109375,44.43359375,0.0
1734407448.3612585,50.29296875,3.41796875,-8.7890625,9.765625,0.0
1734407448.3651636,51.7578125,0.0,-0.48828125,11.71875,0.0
1734407448.3690684,55.17578125,-0.9765625,-92.7734375,53.22265625,0.0
1734407448.3729732,68.359375,0.48828125,-66.89453125,83.0078125,0.0
1734407448.3768783,58.10546875,-1.953125,-62.5,54.6875,0.0
1734407448.380783,38.0859375,-4.8828125,-210.44921875,8.30078125,0.0
1734407448.384688,45.8984375,-6.8359375,-353.02734375,21.484375,0.0
1734407448.3885927,44.921875,9.27734375,-36.62109375,55.6640625,0.0
1734407448.3924978,53.22265625,12.6953125,145.99609375,83.0078125,0.0
1734407448.3964026,62.5,0.0,-40.0390625,76.171875,0.0
1734407448.4003074,47.36328125,-2.44140625,-91.796875,28.80859375,0.0
1734407448.4042006,50.78125,4.8828125,70.3125,4.8828125,0.0
1734407448.4081054,57.6171875,3.90625,123.53515625,27.83203125,0.0
1734407448.4120104,55.6640625,-1.953125,-45.8984375,63.4765625,0.0
1734407448.4159153,57.6171875,1.46484375,-167.96875,49.8046875,0.0
1734407448.41982,50.29296875,7.32421875,-16.6015625,21.97265625,0.0
1734407448.4237251,74.70703125,8.7890625,-69.3359375,27.83203125,0.0
1734407448.42763,74.70703125,-5.37109375,-365.234375,69.82421875,0.0
1734407448.4315348,56.15234375,-9.27734375,-270.5078125,98.14453125,0.0
1734407448.4354396,61.03515625,17.578125,119.62890625,57.6171875,0.0
1734407448.4393446,61.03515625,13.18359375,85.44921875,14.16015625,0.0
1734407448.4432495,62.5,2.9296875,-31.73828125,0.48828125,0.0
1734407448.4471543,63.4765625,9.27734375,12.20703125,39.55078125,0.0
1734407448.451014,62.01171875,11.71875,106.93359375,68.84765625,0.0
1734407448.454919,75.1953125,2.9296875,42.48046875,58.59375,0.0
1734407448.458824,78.61328125,1.46484375,-40.0390625,26.3671875,0.0
1734407448.4627287,56.15234375,8.7890625,37.109375,12.6953125,0.0
1734407448.4666336,55.6640625,12.20703125,-58.59375,40.52734375,0.0
1734407448.4705386,62.98828125,6.8359375,-262.20703125,70.80078125,0.0
1734407448.4744434,60.05859375,-1.953125,-279.296875,81.54296875,0.0
1734407448.4783483,56.640625,6.34765625,-267.08984375,42.48046875,0.0
1734407448.4822533,55.17578125,23.4375,-74.21875,28.80859375,0.0
1734407448.4861581,57.12890625,12.6953125,-39.55078125,63.96484375,0.0
1734407448.490063,62.5,0.48828125,-212.890625,78.61328125,0.0
1734407448.4939678,52.24609375,14.6484375,-6.8359375,74.70703125,0.0
1734407448.4979854,69.3359375,17.08984375,122.0703125,49.31640625,0.0
1734407448.5018902,64.453125,13.18359375,-67.3828125,35.15625,0.0
1734407448.505795,53.22265625,22.4609375,-98.14453125,60.546875,0.0
1734407448.5097,66.89453125,26.85546875,82.03125,83.49609375,0.0
1734407448.5136049,60.05859375,19.53125,108.3984375,80.078125,0.0
1734407448.5175097,49.8046875,0.9765625,-234.375,68.84765625,0.0
1734407448.5214148,37.109375,8.7890625,-310.546875,50.29296875,0.0
1734407448.5253196,41.015625,34.1796875,93.26171875,34.1796875,0.0
1734407448.5292244,58.10546875,26.85546875,130.37109375,59.5703125,0.0
1734407448.5331292,60.546875,19.04296875,-79.1015625,76.171875,0.0
1734407448.5370343,53.22265625,25.87890625,-62.01171875,38.57421875,0.0
1734407448.540939,34.1796875,26.85546875,118.65234375,16.11328125,0.0
1734407448.5449393,40.0390625,24.4140625,48.828125,30.2734375,0.0
1734407448.548844,55.17578125,24.90234375,-41.50390625,53.7109375,0.0
1734407448.552749,51.7578125,34.66796875,18.06640625,62.01171875,0.0
1734407448.5566537,56.640625,40.0390625,95.703125,40.0390625,0.0
1734407448.5605588,71.2890625,29.296875,4.8828125,-15.625,0.0
1734407448.5644636,61.5234375,30.76171875,-195.3125,7.8125,0.0
1734407448.5683684,55.6640625,37.109375,-265.13671875,54.6875,0.0
1734407448.5722735,58.59375,45.8984375,-0.9765625,44.921875,0.0
1734407448.5761783,50.78125,34.66796875,19.04296875,34.1796875,0.0
1734407448.5800831,42.96875,20.5078125,-268.06640625,20.01953125,0.0
1734407448.583988,41.50390625,43.9453125,-82.51953125,10.7421875,0.0
1734407448.587893,48.33984375,49.8046875,141.11328125,24.4140625,0.0
1734407448.5918589,0.0,38.57421875,-17.578125,85.9375,0.0
1734407448.595764,0.0,39.0625,-113.28125,76.66015625,0.0
1734407448.5996687,0.0,45.8984375,57.12890625,21.484375,0.0
1734407448.6035736,0.0,44.43359375,112.79296875,23.4375,0.0
1734407448.6074786,0.0,38.0859375,-41.50390625,54.19921875,0.0
1734407448.6113834,0.0,33.203125,-207.51953125,97.65625,0.0
1734407448.6152883,0.0,38.57421875,-269.04296875,84.9609375,0.0
1734407448.619193,0.0,41.9921875,-86.9140625,40.52734375,0.0
1734407448.6230981,0.0,14.16015625,-205.078125,41.9921875,0.0
1734407448.627003,0.0,23.92578125,-314.94140625,91.30859375,0.0
1734407448.6309078,0.0,61.03515625,99.609375,94.7265625,0.0
1734407448.6348128,0.0,58.10546875,96.19140625,53.7109375,0.0
1734407448.6387646,41.9921875,58.10546875,0.0,15.13671875,0.0
1734407448.6426697,22.4609375,61.03515625,0.0,-13.671875,0.0
1734407448.6465745,25.87890625,59.5703125,0.0,15.13671875,0.0
1734407448.6504793,49.8046875,50.78125,0.0,61.5234375,0.0
1734407448.6543844,37.109375,47.36328125,0.0,82.51953125,0.0
1734407448.6582892,31.25,52.24609375,0.0,46.875,0.0
1734407448.662194,36.1328125,61.5234375,0.0,-9.27734375,0.0
1734407448.666099,17.578125,58.59375,0.0,-3.41796875,0.0
1734407448.670004,22.4609375,47.36328125,0.0,43.9453125,0.0
1734407448.6739087,41.50390625,64.453125,0.0,71.2890625,0.0
1734407448.6778135,47.36328125,71.2890625,0.0,42.96875,0.0
1734407448.6817186,61.5234375,57.6171875,0.0,-6.8359375,0.0
1734407448.6851695,0.0,56.640625,16.6015625,3.90625,0.0
1734407448.6890745,0.0,64.94140625,37.109375,60.05859375,0.0
1734407448.6929793,0.0,62.5,105.95703125,83.984375,0.0
1734407448.6968842,0.0,58.59375,36.62109375,54.6875,0.0
1734407448.700789,0.0,59.5703125,-146.97265625,29.78515625,0.0
1734407448.704694,0.0,53.7109375,-192.87109375,41.50390625,0.0
1734407448.7085989,0.0,51.26953125,-138.18359375,81.54296875,0.0
1734407448.7125037,0.0,37.59765625,-80.078125,124.0234375,0.0
1734407448.7164087,0.0,45.8984375,-215.8203125,86.9140625,0.0
1734407448.7203135,0.0,72.265625,-31.73828125,37.59765625,0.0
1734407448.7242184,0.0,60.05859375,179.19921875,63.96484375,0.0
1734407448.7281232,0.0,50.78125,-32.2265625,84.9609375,0.0
1734407448.7320316,49.8046875,50.78125,80.56640625,75.68359375,0.0
1734407448.7359364,47.36328125,45.41015625,146.484375,62.01171875,0.0
1734407448.7398412,41.9921875,38.57421875,58.59375,36.1328125,0.0
1734407448.7437463,47.8515625,31.73828125,10.7421875,36.1328125,0.0
1734407448.747651,43.45703125,29.78515625,85.9375,69.82421875,0.0
1734407448.751556,40.0390625,26.85546875,64.453125,83.984375,0.0
1734407448.755461,47.36328125,22.4609375,-45.41015625,57.6171875,0.0
1734407448.7593658,37.59765625,26.3671875,-21.484375,23.92578125,0.0
1734407448.7632706,35.64453125,37.109375,104.4921875,21.97265625,0.0
1734407448.7671754,45.8984375,35.64453125,124.0234375,69.3359375,0.0
1734407448.7710805,59.08203125,24.4140625,-7.8125,114.2578125,0.0
1734407448.7749853,68.359375,17.08984375,-209.47265625,109.86328125,0.0
1734407448.778882,56.640625,31.25,28.3203125,83.0078125,0.0
1734407448.7827868,55.17578125,32.71484375,200.1953125,63.4765625,0.0
1734407448.7866917,61.03515625,17.08984375,21.97265625,89.35546875,0.0
1734407448.7905967,67.87109375,20.01953125,57.12890625,120.60546875,0.0
1734407448.7945015,61.5234375,20.5078125,124.0234375,97.16796875,0.0
1734407448.7984064,58.59375,10.25390625,91.796875,52.734375,0.0
1734407448.8023112,59.5703125,-1.46484375,-200.1953125,36.62109375,0.0
1734407448.8062162,62.01171875,7.8125,-251.953125,82.03125,0.0
1734407448.810121,60.546875,19.04296875,174.8046875,86.9140625,0.0
1734407448.8140259,56.640625,-9.27734375,151.3671875,64.453125,0.0
1734407448.817931,62.98828125,-42.48046875,29.78515625,48.828125,0.0
1734407448.8218358,69.3359375,-57.6171875,60.05859375,10.7421875,0.0
1734407448.8257022,54.19921875,-64.94140625,119.62890625,21.484375,0.0
1734407448.8296072,42.96875,-80.56640625,58.10546875,73.73046875,0.0
1734407448.833512,45.41015625,-82.51953125,62.5,68.84765625,0.0
1734407448.837417,42.96875,-74.70703125,118.65234375,32.71484375,0.0
1734407448.8413217,36.1328125,-74.21875,82.51953125,7.32421875,0.0
1734407448.8452268,37.59765625,-76.171875,15.625,23.4375,0.0
1734407448.8491316,34.1796875,-82.03125,-115.234375,66.40625,0.0
1734407448.8530364,25.87890625,-83.49609375,-25.390625,51.7578125,0.0
1734407448.8569415,28.80859375,-80.56640625,178.7109375,28.3203125,0.0
1734407448.8608463,50.29296875,-86.9140625,24.90234375,18.5546875,0.0
1734407448.864751,46.38671875,-87.890625,-87.890625,19.04296875,0.0
1734407448.868656,28.3203125,-76.171875,98.14453125,40.52734375,0.0
1734407448.8726811,0.0,-85.9375,173.828125,78.125,0.0
1734407448.876586,0.0,-102.5390625,37.59765625,61.5234375,0.0
1734407448.8804908,0.0,-103.515625,18.06640625,29.296875,0.0
1734407448.8843958,0.0,-98.6328125,108.88671875,62.98828125,0.0
1734407448.8883007,0.0,-105.46875,115.234375,79.1015625,0.0
1734407448.8922055,0.0,-119.62890625,-177.734375,94.7265625,0.0
1734407448.8961103,0.0,-105.46875,-242.67578125,89.84375,0.0
1734407448.9000154,0.0,-88.8671875,126.953125,34.1796875,0.0
1734407448.9039202,0.0,-96.6796875,118.1640625,23.92578125,0.0
1734407448.907825,0.0,-98.6328125,15.625,77.63671875,0.0
1734407448.91173,0.0,-92.28515625,55.6640625,82.03125,0.0
1734407448.9156349,0.0,-86.42578125,168.9453125,56.15234375,0.0
1734407448.919626,64.94140625,-90.8203125,93.26171875,26.3671875,0.0
1734407448.923531,43.45703125,-89.84375,-0.9765625,17.08984375,0.0
1734407448.9274359,35.64453125,-83.984375,75.68359375,49.8046875,0.0
1734407448.9313407,42.96875,-81.54296875,159.1796875,80.078125,0.0
1734407448.9352455,44.921875,-89.35546875,77.1484375,83.49609375,0.0
1734407448.9391506,39.0625,-84.9609375,-45.41015625,32.2265625,0.0
1734407448.9430554,36.62109375,-73.2421875,-58.10546875,4.39453125,0.0
1734407448.9469602,45.41015625,-63.96484375,58.59375,51.7578125,0.0
1734407448.9508653,47.8515625,-60.05859375,35.15625,89.35546875,0.0
1734407448.95477,45.8984375,-69.3359375,-203.61328125,97.65625,0.0
1734407448.958675,30.2734375,-57.6171875,-16.11328125,36.1328125,0.0
1734407448.9625797,30.76171875,-52.24609375,181.640625,3.41796875,0.0
1734407448.9665546,44.921875,-55.17578125,15.625,54.19921875,0.0
1734407448.9704595,53.22265625,-43.9453125,20.01953125,86.42578125,0.0
1734407448.9743643,48.33984375,-35.64453125,129.8828125,114.74609375,0.0
1734407448.9782693,57.6171875,-35.64453125,136.23046875,75.68359375,0.0
1734407448.9821742,62.98828125,-40.0390625,-28.80859375,22.94921875,0.0
1734407448.986079,47.36328125,-37.59765625,-123.046875,62.01171875,0.0
1734407448.989984,67.3828125,-23.4375,41.9921875,96.19140625,0.0
1734407448.9938889,70.80078125,-6.34765625,176.7578125,97.16796875,0.0
1734407448.9977937,53.22265625,-23.4375,-159.66796875,83.0078125,0.0
1734407449.0016985,51.26953125,-19.04296875,-333.49609375,51.7578125,0.0
1734407449.0056036,54.6875,8.30078125,42.48046875,55.6640625,0.0
1734407449.0095084,56.640625,-0.48828125,85.44921875,78.125,0.0
1734407449.0134575,55.17578125,-1.46484375,22.4609375,73.2421875,0.0
1734407449.0173626,66.40625,1.46484375,64.453125,60.05859375,0.0
1734407449.0212674,63.4765625,-3.41796875,115.72265625,22.4609375,0.0
1734407449.0251722,69.3359375,-0.9765625,45.8984375,31.73828125,0.0
1734407449.0290773,74.70703125,-8.30078125,-99.609375,70.3125,0.0
1734407449.032982,63.96484375,-13.671875,-176.26953125,83.49609375,0.0
1734407449.036887,64.94140625,-8.30078125,-34.66796875,57.12890625,0.0
1734407449.040792,51.7578125,-14.16015625,-28.3203125,21.484375,0.0
1734407449.0446968,41.50390625,-17.578125,-232.91015625,37.109375,0.0
1734407449.0486016,54.6875,0.0,0.9765625,53.7109375,0.0
1734407449.0525064,47.8515625,2.44140625,178.7109375,66.40625,0.0
1734407449.0564115,42.96875,-10.25390625,5.859375,62.98828125,0.0
1734407449.0603473,49.31640625,-13.671875,-26.85546875,37.109375,0.0
1734407449.0642521,52.24609375,-10.25390625,45.8984375,41.50390625,0.0
1734407449.068157,60.05859375,-8.7890625,78.61328125,78.125,0.0
1734407449.072062,56.640625,-12.20703125,-6.34765625,82.51953125,0.0
1734407449.0759668,48.33984375,-15.13671875,-44.921875,62.5,0.0
1734407449.0798717,48.33984375,-17.08984375,-36.62109375,37.59765625,0.0
1734407449.0837767,44.921875,-3.90625,23.4375,5.37109375,0.0
1734407449.0876815,53.22265625,-9.765625,-157.71484375,51.26953125,0.0
1734407449.0915864,60.546875,-11.23046875,-347.16796875,89.84375,0.0
1734407449.0954912,55.17578125,10.25390625,78.125,46.38671875,0.0
1734407449.0993962,75.68359375,-1.953125,117.1875,25.87890625,0.0
1734407449.103301,75.68359375,-4.39453125,-22.94921875,12.20703125,0.0
1734407449.1072066,56.640625,5.37109375,36.62109375,24.90234375,0.0
1734407449.1111114,63.96484375,0.9765625,137.20703125,50.78125,0.0
1734407449.1150165,69.3359375,-3.41796875,105.46875,27.83203125,0.0
1734407449.1189213,58.59375,-9.765625,-128.41796875,-9.27734375,0.0
1734407449.122826,48.828125,-13.671875,-239.74609375,-27.34375,0.0
1734407449.1267312,46.38671875,-10.7421875,-158.203125,2.9296875,0.0
1734407449.130636,46.875,-9.27734375,-69.3359375,26.3671875,0.0
1734407449.1345408,59.5703125,-14.16015625,-288.0859375,32.2265625,0.0
1734407449.1384456,46.38671875,0.9765625,-200.68359375,0.0,0.0
1734407449.1423507,34.1796875,8.30078125,146.484375,-22.4609375,0.0
1734407449.1462555,54.6875,-4.39453125,-10.25390625,12.6953125,0.0
1734407449.1501603,68.359375,-3.41796875,-50.78125,78.125,0.0
1734407449.1540496,68.359375,8.7890625,99.609375,80.078125,0.0
1734407449.1579545,60.05859375,6.34765625,124.0234375,7.8125,0.0
1734407449.1618595,69.82421875,-2.44140625,-104.4921875,0.9765625,0.0
1734407449.1657643,70.3125,0.9765625,-138.18359375,43.45703125,0.0
1734407449.1696692,57.12890625,1.953125,76.171875,75.1953125,0.0
1734407449.1735742,51.7578125,-4.39453125,-82.51953125,66.40625,0.0
1734407449.177479,53.7109375,-21.97265625,-371.58203125,41.50390625,0.0
1734407449.1813838,62.01171875,-14.6484375,-460.44921875,47.8515625,0.0
1734407449.185289,55.6640625,21.97265625,-108.88671875,26.85546875,0.0
1734407449.1891937,55.6640625,14.6484375,102.05078125,32.71484375,0.0
1734407449.1930985,64.94140625,9.765625,-22.4609375,64.94140625,0.0
1734407449.1970034,79.1015625,22.94921875,-21.484375,42.96875,0.0
1734407449.2008662,61.03515625,14.6484375,69.82421875,0.9765625,0.0
1734407449.204771,48.828125,4.39453125,25.390625,6.34765625,0.0
1734407449.208676,54.6875,11.23046875,-39.55078125,54.6875,0.0
1734407449.212581,38.57421875,18.06640625,44.921875,61.03515625,0.0
1734407449.2164857,37.59765625,10.7421875,-44.921875,32.2265625,0.0
1734407449.2203908,34.1796875,7.8125,-256.34765625,18.06640625,0.0
1734407449.2242956,38.0859375,15.13671875,-291.015625,13.18359375,0.0
1734407449.2282004,43.9453125,25.87890625,-54.6875,35.64453125,0.0
1734407449.2321053,42.96875,26.85546875,142.578125,66.40625,0.0
1734407449.2360103,48.828125,13.18359375,-18.5546875,41.50390625,0.0
1734407449.2399151,53.22265625,0.9765625,-175.29296875,15.13671875,0.0
1734407449.24382,53.7109375,15.13671875,-102.5390625,12.6953125,0.0
1734407449.2480042,73.73046875,32.2265625,63.4765625,56.15234375,0.0
1734407449.251909,75.68359375,25.87890625,-12.20703125,79.1015625,0.0
1734407449.2558138,60.05859375,22.4609375,-86.9140625,54.19921875,0.0
1734407449.259719,63.4765625,33.69140625,61.03515625,34.66796875,0.0
1734407449.2636237,72.265625,40.0390625,56.640625,19.04296875,0.0
1734407449.2675285,75.68359375,20.99609375,-280.2734375,64.94140625,0.0
1734407449.2714336,67.87109375,23.4375,-282.2265625,97.16796875,0.0
1734407449.2753384,63.4765625,45.8984375,129.39453125,64.453125,0.0
1734407449.2792432,65.4296875,35.64453125,98.6328125,64.94140625,0.0
1734407449.2831483,67.3828125,32.2265625,-102.5390625,49.8046875,0.0
1734407449.287053,77.63671875,43.45703125,-10.7421875,36.62109375,0.0
1734407449.290958,67.3828125,45.41015625,153.80859375,83.49609375,0.0
1734407449.2949498,65.4296875,42.48046875,56.640625,86.9140625,0.0
1734407449.2988546,69.3359375,39.0625,-160.15625,38.0859375,0.0
1734407449.3027594,63.4765625,42.48046875,-255.37109375,8.7890625,0.0
1734407449.3066645,56.15234375,44.43359375,2.44140625,28.3203125,0.0
1734407449.3105693,53.22265625,32.71484375,-36.1328125,55.6640625,0.0
1734407449.314474,57.12890625,29.78515625,-269.04296875,53.22265625,0.0
1734407449.318379,70.80078125,34.66796875,-236.81640625,22.4609375,0.0
1734407449.322284,62.5,45.8984375,12.20703125,2.44140625,0.0
1734407449.3261888,46.875,40.52734375,-4.8828125,26.3671875,0.0
1734407449.3300936,46.38671875,35.15625,-89.84375,62.98828125,0.0
1734407449.3339987,52.734375,52.24609375,56.15234375,63.96484375,0.0
1734407449.3379035,56.15234375,58.10546875,109.375,30.2734375,0.0
1734407449.342039,52.734375,44.43359375,-72.75390625,20.01953125,0.0
1734407449.345944,61.03515625,43.9453125,-331.0546875,77.1484375,0.0
1734407449.3498487,71.2890625,74.21875,-0.9765625,91.30859375,0.0
1734407449.3537536,74.21875,68.84765625,163.0859375,71.77734375,0.0
1734407449.3576586,73.73046875,53.7109375,-74.70703125,53.22265625,0.0
1734407449.3615634,79.1015625,55.6640625,-247.55859375,43.9453125,0.0
1734407449.3654683,87.40234375,59.5703125,-220.703125,44.921875,0.0
1734407449.3693733,91.796875,67.87109375,62.5,71.77734375,0.0
1734407449.3732781,80.56640625,49.31640625,-145.99609375,108.3984375,0.0
1734407449.377183,73.2421875,42.48046875,-323.2421875,61.03515625,0.0
1734407449.381088,59.5703125,67.87109375,117.1875,8.7890625,0.0
1734407449.3849928,59.5703125,61.03515625,86.9140625,27.83203125,0.0
1734407449.3889382,65.4296875,53.22265625,26.3671875,58.10546875,0.0
1734407449.3928432,64.453125,61.03515625,52.24609375,85.9375,0.0
1734407449.396748,58.59375,62.01171875,98.14453125,60.546875,0.0
1734407449.400653,73.73046875,56.15234375,78.61328125,-5.859375,0.0
1734407449.4045577,85.9375,52.24609375,-138.671875,8.30078125,0.0
1734407449.4084628,61.03515625,48.33984375,-266.6015625,44.921875,0.0
1734407449.4123676,55.17578125,48.828125,-126.953125,58.10546875,0.0
1734407449.4162724,55.6640625,46.38671875,-38.0859375,32.71484375,0.0
1734407449.4201775,55.6640625,42.48046875,-203.125,1.953125,0.0
1734407449.4240823,46.38671875,51.7578125,-62.98828125,9.27734375,0.0
1734407449.427987,41.50390625,45.8984375,153.3203125,23.92578125,0.0
1734407449.4318922,52.734375,31.25,-28.3203125,44.43359375,0.0
1734407449.4358208,0.0,30.2734375,-315.91796875,47.8515625,0.0
1734407449.4397259,0.0,61.03515625,-29.78515625,0.48828125,0.0
1734407449.4436307,0.0,59.08203125,147.4609375,0.9765625,0.0
1734407449.4475355,0.0,41.015625,-17.08984375,55.6640625,0.0
1734407449.4514403,0.0,38.0859375,-4.39453125,78.125,0.0
1734407449.4553454,0.0,38.57421875,12.6953125,72.75390625,0.0
1734407449.4592502,0.0,46.38671875,5.37109375,36.1328125,0.0
1734407449.463155,0.0,35.64453125,-256.34765625,33.69140625,0.0
1734407449.46706,0.0,43.9453125,-292.48046875,77.63671875,0.0
1734407449.470965,0.0,64.453125,120.60546875,89.35546875,0.0
1734407449.4748697,0.0,49.31640625,112.3046875,71.2890625,0.0
1734407449.4787748,0.0,38.0859375,-75.68359375,30.2734375,0.0
1734407449.4822102,76.66015625,46.875,-26.3671875,12.6953125,0.0
1734407449.486115,72.265625,51.26953125,171.38671875,55.17578125,0.0
1734407449.4900198,46.38671875,43.45703125,91.30859375,61.5234375,0.0
1734407449.4939249,51.7578125,40.52734375,7.32421875,60.546875,0.0
1734407449.4978297,59.08203125,42.48046875,10.25390625,33.69140625,0.0
1734407449.5017345,58.10546875,51.26953125,23.4375,4.39453125,0.0
1734407449.5056393,78.125,58.59375,20.01953125,42.96875,0.0
1734407449.5095444,83.0078125,60.546875,-144.53125,86.9140625,0.0
1734407449.5134492,59.08203125,74.21875,-11.23046875,90.33203125,0.0
1734407449.517354,60.546875,68.84765625,179.19921875,38.0859375,0.0
1734407449.521259,70.80078125,49.8046875,13.18359375,14.6484375,0.0
1734407449.525164,74.70703125,47.8515625,-16.6015625,29.78515625,0.0
1734407449.5290477,55.6640625,49.8046875,132.8125,46.875,0.0
1734407449.5329528,66.89453125,56.15234375,154.78515625,58.59375,0.0
1734407449.5368576,84.9609375,54.6875,-33.69140625,49.8046875,0.0
1734407449.5407624,73.2421875,46.875,-85.44921875,36.1328125,0.0
1734407449.5446672,64.94140625,41.50390625,60.546875,36.1328125,0.0
1734407449.5485723,67.87109375,31.25,83.0078125,72.75390625,0.0
1734407449.5524771,68.84765625,12.6953125,-226.5625,97.16796875,0.0
1734407449.556382,78.125,19.04296875,-303.7109375,74.21875,0.0
1734407449.560287,72.75390625,42.96875,139.6484375,14.16015625,0.0
1734407449.5641918,83.984375,33.69140625,115.72265625,15.625,0.0
1734407449.5680966,90.33203125,31.25,38.57421875,60.546875,0.0
1734407449.5720015,62.01171875,29.296875,97.16796875,83.49609375,0.0
1734407449.575866,54.19921875,25.390625,134.27734375,56.15234375,0.0
1734407449.579771,65.91796875,20.5078125,72.265625,3.90625,0.0
1734407449.5836759,72.265625,25.390625,55.17578125,9.27734375,0.0
1734407449.5875807,71.77734375,34.66796875,89.84375,68.359375,0.0
1734407449.5914855,83.984375,32.2265625,20.5078125,91.796875,0.0
1734407449.5953906,77.1484375,28.3203125,-42.96875,44.43359375,0.0
1734407449.5992954,51.26953125,24.90234375,-221.6796875,18.5546875,0.0
1734407449.6032002,48.33984375,35.64453125,-169.921875,21.484375,0.0
1734407449.6071053,43.45703125,42.48046875,142.08984375,44.43359375,0.0
1734407449.61101,58.10546875,32.2265625,20.99609375,66.89453125,0.0
1734407449.614915,75.1953125,37.59765625,-88.37890625,78.125,0.0
1734407449.6188197,63.4765625,56.15234375,98.14453125,24.90234375,0.0
1734407449.6228426,0.0,41.9921875,137.6953125,14.16015625,0.0
