timestamps,TP9,AF7,AF8,TP10,Right AUX
1734584993.0680618,-15.625,-52.734375,0.9765625,-107.421875,0.0
1734584993.071968,-1.46484375,-53.22265625,-8.7890625,-86.9140625,0.0
1734584993.0758743,11.23046875,-56.640625,-17.578125,-39.55078125,0.0
1734584993.0797806,-27.83203125,-60.546875,-18.5546875,-20.01953125,0.0
1734584993.0836868,-34.66796875,-58.10546875,-18.5546875,-94.23828125,0.0
1734584993.087593,-29.296875,-55.17578125,-28.3203125,-127.44140625,0.0
1734584993.0914993,7.8125,-53.7109375,-27.34375,-67.3828125,0.0
1734584993.0954056,9.27734375,-53.22265625,-30.2734375,-46.38671875,0.0
1734584993.0993118,15.625,-43.45703125,-14.6484375,-79.58984375,0.0
1734584993.103218,-82.51953125,-41.9921875,-9.27734375,-86.9140625,0.0
1734584993.1071243,-93.26171875,-55.17578125,-29.78515625,-37.109375,0.0
1734584993.1363616,37.59765625,-61.5234375,-16.6015625,-18.06640625,0.0
1734584993.1402678,5.37109375,-50.78125,-9.27734375,-52.24609375,0.0
1734584993.144174,-39.55078125,-45.41015625,-14.16015625,-99.12109375,0.0
1734584993.1480803,-50.29296875,-44.921875,-14.6484375,-85.9375,0.0
1734584993.1519866,-56.15234375,-47.36328125,-20.01953125,-67.87109375,0.0
1734584993.1558928,-0.9765625,-49.8046875,-12.6953125,-49.31640625,0.0
1734584993.159799,34.66796875,-41.015625,-7.32421875,-42.48046875,0.0
1734584993.1637053,-54.19921875,-40.0390625,-12.6953125,-78.61328125,0.0
1734584993.1676116,-93.75,-36.1328125,-22.94921875,-99.609375,0.0
1734584993.1715178,-41.9921875,-44.921875,-16.11328125,-80.56640625,0.0
1734584993.175424,-45.41015625,-43.45703125,-12.20703125,-28.3203125,0.0
1734584993.1793303,-19.04296875,-32.71484375,-22.94921875,-42.48046875,0.0
1734584993.1574755,-9.27734375,-33.203125,-20.01953125,-85.9375,0.0
1734584993.1613817,-29.78515625,-38.0859375,-14.16015625,-68.359375,0.0
1734584993.165288,-11.71875,-48.33984375,-20.5078125,-37.59765625,0.0
1734584993.1691942,27.34375,-39.55078125,-25.87890625,-58.10546875,0.0
1734584993.1731005,10.7421875,-36.62109375,-30.2734375,-36.62109375,0.0
1734584993.1770067,-37.109375,-37.109375,-42.48046875,-34.1796875,0.0
1734584993.180913,-57.12890625,-49.8046875,-38.0859375,-80.078125,0.0
1734584993.1848192,-35.64453125,-58.10546875,-21.484375,-62.98828125,0.0
1734584993.1887255,47.8515625,-40.52734375,-19.53125,-37.109375,0.0
1734584993.1926317,55.6640625,-33.69140625,-14.16015625,-31.73828125,0.0
1734584993.196538,-44.921875,-47.36328125,-17.08984375,-38.0859375,0.0
1734584993.2004442,-63.4765625,-37.109375,-24.90234375,-61.03515625,0.0
1734584993.208147,-47.8515625,-34.1796875,-17.578125,-51.7578125,0.0
1734584993.2120533,-62.01171875,-45.8984375,-17.08984375,-33.69140625,0.0
1734584993.2159595,-23.4375,-45.8984375,-29.296875,-29.78515625,0.0
1734584993.2198658,21.97265625,-42.96875,-22.4609375,-18.06640625,0.0
1734584993.223772,-36.62109375,-26.85546875,-7.8125,-34.1796875,0.0
1734584993.2276783,-42.96875,-22.4609375,-27.34375,-41.9921875,0.0
1734584993.2315845,-3.90625,-47.8515625,-29.78515625,-16.6015625,0.0
1734584993.2354908,6.34765625,-49.31640625,-16.11328125,14.16015625,0.0
1734584993.239397,17.08984375,-33.69140625,-13.671875,7.32421875,0.0
1734584993.2433033,-0.48828125,-24.4140625,-33.203125,-39.55078125,0.0
1734584993.2472095,-27.34375,-15.13671875,-47.8515625,-52.24609375,0.0
1734584993.2511158,32.2265625,-32.2265625,-41.015625,-31.25,0.0
1734584993.272636,44.43359375,-43.45703125,-30.76171875,15.625,0.0
1734584993.2765422,-2.9296875,-40.52734375,-29.296875,21.97265625,0.0
1734584993.2804484,-41.015625,-40.0390625,-34.66796875,-51.26953125,0.0
1734584993.2843547,-54.19921875,-43.9453125,-37.109375,-47.36328125,0.0
1734584993.288261,-16.11328125,-50.29296875,-31.25,-18.5546875,0.0
1734584993.2921672,21.97265625,-46.38671875,-25.390625,34.1796875,0.0
1734584993.2960734,13.18359375,-40.52734375,-34.66796875,23.92578125,0.0
1734584993.2999797,-9.27734375,-36.1328125,-25.87890625,-12.20703125,0.0
1734584993.303886,-38.0859375,-46.875,-11.71875,-5.859375,0.0
1734584993.3077922,-8.30078125,-54.6875,-20.01953125,-3.41796875,0.0
1734584993.3116984,21.97265625,-39.55078125,-23.4375,32.2265625,0.0
1734584993.315605,-8.30078125,-35.64453125,-9.27734375,64.94140625,0.0
1734584993.2938209,-25.87890625,-48.33984375,-5.859375,29.78515625,0.0
1734584993.297727,-23.92578125,-50.29296875,-21.484375,9.27734375,0.0
1734584993.3016334,17.578125,-40.0390625,-25.390625,50.29296875,0.0
1734584993.3055396,3.90625,-39.55078125,-13.18359375,73.73046875,0.0
1734584993.3094459,-4.8828125,-52.734375,-6.8359375,12.6953125,0.0
1734584993.313352,27.83203125,-39.55078125,-27.34375,-21.97265625,0.0
1734584993.3172581,9.27734375,-39.55078125,-27.34375,-27.34375,0.0
1734584993.3211644,-20.99609375,-46.38671875,-19.53125,-14.6484375,0.0
1734584993.3250706,-49.8046875,-41.9921875,-15.625,11.23046875,0.0
1734584993.3289769,-55.17578125,-57.12890625,0.48828125,25.390625,0.0
1734584993.3328831,-33.69140625,-69.3359375,-7.32421875,22.94921875,0.0
1734584993.3367894,-43.9453125,-50.29296875,-23.4375,-16.6015625,0.0
1734584993.376239,0.0,-41.015625,-26.85546875,-14.6484375,0.0
1734584993.3801453,0.0,-43.9453125,-28.80859375,-23.92578125,0.0
1734584993.3840516,0.0,-42.96875,-16.6015625,-33.69140625,0.0
1734584993.3879578,0.0,-50.29296875,-15.13671875,-14.16015625,0.0
1734584993.391864,0.0,-55.6640625,-25.87890625,-5.37109375,0.0
1734584993.3957703,0.0,-52.734375,-25.87890625,-15.13671875,0.0
1734584993.3996766,0.0,-40.0390625,-18.06640625,-20.5078125,0.0
1734584993.4035828,0.0,-31.25,-13.18359375,20.5078125,0.0
1734584993.407489,0.0,-29.78515625,-21.97265625,26.3671875,0.0
1734584993.4113955,0.0,-37.59765625,-31.25,-12.20703125,0.0
1734584993.4153018,0.0,-43.45703125,-19.04296875,-32.71484375,0.0
1734584993.419208,0.0,-43.45703125,-20.5078125,6.8359375,0.0
1734584993.3993323,-24.4140625,-44.921875,-26.3671875,23.4375,0.0
1734584993.4032385,-27.34375,-41.9921875,-16.11328125,16.6015625,0.0
1734584993.4071448,-25.390625,-37.59765625,-17.08984375,-7.32421875,0.0
1734584993.411051,-31.73828125,-40.0390625,-25.87890625,-28.3203125,0.0
1734584993.4149573,-5.859375,-42.96875,-27.83203125,-24.4140625,0.0
1734584993.4188635,-6.34765625,-43.9453125,-24.4140625,-6.8359375,0.0
1734584993.4227698,-22.4609375,-40.52734375,-20.99609375,20.5078125,0.0
1734584993.426676,-32.2265625,-53.22265625,-25.390625,16.11328125,0.0
1734584993.4305823,-38.57421875,-56.640625,-30.2734375,-6.34765625,0.0
1734584993.4344885,-35.64453125,-49.31640625,-19.04296875,-9.27734375,0.0
1734584993.4383948,-8.30078125,-50.29296875,-14.6484375,-2.44140625,0.0
1734584993.442301,-4.8828125,-53.7109375,-17.578125,8.30078125,0.0
1734584993.4410584,-47.36328125,-62.98828125,-28.3203125,6.34765625,0.0
1734584993.4449646,-68.359375,-67.87109375,-23.4375,-15.625,0.0
1734584993.448871,-70.80078125,-65.4296875,-13.671875,-13.18359375,0.0
1734584993.4527771,-26.85546875,-58.59375,-8.30078125,14.16015625,0.0
1734584993.4566834,-10.7421875,-57.12890625,-17.578125,16.6015625,0.0
1734584993.4605896,-16.11328125,-58.10546875,-20.99609375,14.16015625,0.0
1734584993.464496,-18.06640625,-61.03515625,-14.16015625,-33.203125,0.0
1734584993.4684021,-78.125,-61.5234375,-20.5078125,-35.15625,0.0
1734584993.4723084,-10.7421875,-30.76171875,-28.80859375,10.7421875,0.0
1734584993.4762146,18.5546875,-13.18359375,-20.5078125,1.953125,0.0
1734584993.4801207,-65.91796875,-20.5078125,-18.06640625,-57.6171875,0.0
1734584993.484027,-81.0546875,-38.0859375,-22.94921875,-58.59375,0.0
1734584993.4864452,0.0,-35.15625,-24.4140625,0.0,0.0
1734584993.4903514,0.0,-31.73828125,-23.92578125,0.0,0.0
1734584993.4942577,0.0,-53.7109375,-20.01953125,0.0,0.0
1734584993.498164,0.0,-56.640625,-23.4375,0.0,0.0
1734584993.5020702,0.0,-44.921875,-28.3203125,0.0,0.0
1734584993.5059764,0.0,-44.921875,-32.71484375,0.0,0.0
1734584993.5098827,0.0,-51.26953125,-26.85546875,0.0,0.0
1734584993.513789,0.0,-55.6640625,-28.80859375,0.0,0.0
1734584993.5176952,0.0,-60.05859375,-32.71484375,0.0,0.0
1734584993.5216014,0.0,-58.10546875,-30.2734375,0.0,0.0
1734584993.5255077,0.0,-53.22265625,-37.109375,0.0,0.0
1734584993.529414,0.0,-49.31640625,-47.8515625,0.0,0.0
1734584993.5315347,-126.46484375,-56.15234375,-41.50390625,-126.953125,0.0
1734584993.535441,-111.328125,-61.03515625,-33.203125,-110.3515625,0.0
1734584993.5393472,-184.5703125,-62.01171875,-44.921875,-168.9453125,0.0
1734584993.5432534,-166.015625,-64.453125,-53.7109375,-177.734375,0.0
1734584993.5471597,-128.90625,-55.6640625,-48.828125,-154.296875,0.0
1734584993.551066,-167.96875,-45.8984375,-45.41015625,-169.921875,0.0
1734584993.5549722,-156.73828125,-48.828125,-50.78125,-180.6640625,0.0
1734584993.5588784,-102.5390625,-55.6640625,-68.84765625,-217.28515625,0.0
1734584993.5627847,-187.5,-67.87109375,-65.4296875,-251.46484375,0.0
1734584993.566691,-221.19140625,-61.03515625,-53.7109375,-258.30078125,0.0
1734584993.5705972,-200.1953125,-55.17578125,-62.01171875,-211.42578125,0.0
1734584993.5745034,-182.6171875,-56.15234375,-76.171875,-217.28515625,0.0
1734584993.6017668,-146.97265625,-70.80078125,-74.70703125,-268.5546875,0.0
1734584993.605673,-163.0859375,-62.5,-73.2421875,-265.625,0.0
1734584993.6095793,-178.7109375,-33.69140625,-82.03125,-245.1171875,0.0
1734584993.6134856,-120.1171875,-50.78125,-79.58984375,-248.53515625,0.0
1734584993.6173918,-107.421875,-83.49609375,-82.51953125,-245.60546875,0.0
1734584993.621298,-199.21875,-72.75390625,-100.5859375,-249.51171875,0.0
1734584993.6252043,-228.02734375,-37.59765625,-108.3984375,-288.57421875,0.0
1734584993.6291106,-162.109375,-24.4140625,-111.328125,-291.9921875,0.0
1734584993.6330168,-123.046875,-36.1328125,-104.98046875,-284.1796875,0.0
1734584993.636923,-113.76953125,-49.31640625,-99.12109375,-271.484375,0.0
1734584993.6408293,-92.28515625,-44.921875,-104.4921875,-252.9296875,0.0
1734584993.6447356,-63.96484375,-47.36328125,-99.12109375,-300.29296875,0.0
1734584993.6237488,-124.51171875,-53.7109375,-107.421875,-355.46875,0.0
1734584993.627655,-106.93359375,-49.31640625,-125.9765625,-310.546875,0.0
1734584993.6315613,-29.78515625,-42.48046875,-106.4453125,-250.9765625,0.0
1734584993.6354675,0.9765625,-34.1796875,-97.16796875,-326.171875,0.0
1734584993.6393738,-49.8046875,-56.15234375,-112.3046875,-372.0703125,0.0
1734584993.64328,-99.609375,-82.51953125,-60.05859375,-354.00390625,0.0
1734584993.6471863,-76.171875,-70.80078125,-104.4921875,-398.4375,0.0
1734584993.6510925,-121.58203125,-77.63671875,-126.953125,-274.4140625,0.0
1734584993.6549988,-134.27734375,-85.9375,-83.984375,-229.00390625,0.0
1734584993.658905,-109.375,-34.1796875,-92.7734375,-338.8671875,0.0
1734584993.6628113,-91.30859375,-16.6015625,-78.125,-417.48046875,0.0
1734584993.6667175,-68.359375,-83.49609375,-69.3359375,-330.078125,0.0
1734584993.667113,-15.625,-77.1484375,-104.00390625,-211.9140625,0.0
1734584993.6710193,-29.78515625,-50.29296875,-81.0546875,-194.3359375,0.0
1734584993.6749256,-47.36328125,-45.8984375,-88.8671875,-281.25,0.0
1734584993.6788318,-43.9453125,-45.8984375,-89.84375,-249.51171875,0.0
1734584993.682738,-39.0625,-57.6171875,-73.73046875,-237.3046875,0.0
1734584993.6866443,-16.6015625,-29.296875,-89.35546875,-178.22265625,0.0
1734584993.6905506,-77.63671875,-35.64453125,-95.21484375,-131.34765625,0.0
1734584993.6944568,-87.890625,-67.87109375,-60.546875,-169.43359375,0.0
1734584993.698363,-59.08203125,-46.38671875,-46.875,-172.36328125,0.0
1734584993.7022693,-38.0859375,-38.57421875,-88.8671875,-170.8984375,0.0
1734584993.7061756,25.87890625,-55.6640625,-72.75390625,-83.984375,0.0
1734584993.7100818,-20.01953125,-66.89453125,-24.90234375,-96.19140625,0.0
1734584993.7232444,9.27734375,-69.82421875,-58.59375,-112.79296875,0.0
1734584993.7271507,2.44140625,-69.82421875,-66.40625,-92.28515625,0.0
1734584993.731057,-20.01953125,-58.10546875,-28.3203125,-42.96875,0.0
1734584993.7349632,-64.453125,-49.8046875,-25.87890625,-31.73828125,0.0
1734584993.7388694,-67.3828125,-57.6171875,-44.921875,-7.32421875,0.0
1734584993.7427757,-66.40625,-69.3359375,-55.17578125,-12.20703125,0.0
1734584993.746682,-83.0078125,-64.453125,-45.8984375,-30.76171875,0.0
1734584993.7505882,-103.02734375,-54.6875,-30.2734375,26.85546875,0.0
1734584993.7544944,-105.46875,-45.8984375,-35.15625,11.71875,0.0
1734584993.7584007,-13.18359375,-45.8984375,-52.734375,57.6171875,0.0
1734584993.762307,-81.0546875,-43.9453125,-49.31640625,84.47265625,0.0
1734584993.7662132,-178.22265625,-52.24609375,-36.1328125,63.4765625,0.0
1734584993.7700636,-151.3671875,-63.96484375,-33.69140625,45.8984375,0.0
1734584993.77397,-137.20703125,-59.5703125,-41.50390625,60.05859375,0.0
1734584993.7778761,-58.10546875,-51.7578125,-42.96875,115.234375,0.0
1734584993.7817824,-60.05859375,-43.9453125,-42.48046875,105.46875,0.0
1734584993.7856886,-80.56640625,-57.12890625,-32.71484375,71.77734375,0.0
1734584993.789595,-56.15234375,-57.12890625,-24.4140625,107.91015625,0.0
1734584993.7935011,-59.5703125,-49.8046875,-21.484375,125.0,0.0
1734584993.7974074,-41.9921875,-43.45703125,-21.97265625,120.60546875,0.0
1734584993.8013136,-73.73046875,-34.66796875,-31.25,116.69921875,0.0
1734584993.80522,-141.11328125,-41.015625,-15.13671875,96.6796875,0.0
1734584993.8091261,-169.921875,-42.48046875,-9.27734375,71.77734375,0.0
1734584993.8130324,-159.1796875,-41.50390625,-19.04296875,167.96875,0.0
1734584993.8164499,-156.73828125,-44.43359375,-11.23046875,0.0,0.0
1734584993.8203561,-125.48828125,-45.41015625,-18.5546875,0.0,0.0
1734584993.8242624,-124.51171875,-48.828125,-30.2734375,0.0,0.0
1734584993.8281686,-131.8359375,-50.29296875,-35.15625,0.0,0.0
1734584993.8320749,-145.5078125,-45.41015625,-37.59765625,0.0,0.0
1734584993.8359811,-90.8203125,-41.015625,-22.4609375,0.0,0.0
1734584993.8398874,-129.8828125,-49.8046875,-22.4609375,0.0,0.0
1734584993.8437936,-185.546875,-49.31640625,-29.78515625,0.0,0.0
1734584993.8476999,-150.87890625,-48.828125,-36.62109375,0.0,0.0
1734584993.8516061,-113.76953125,-44.921875,-33.203125,0.0,0.0
1734584993.8555124,-53.7109375,-44.43359375,-21.97265625,0.0,0.0
1734584993.8594186,-34.1796875,-48.33984375,-30.76171875,0.0,0.0
1734584993.8603723,-96.6796875,-46.38671875,-40.0390625,-19.53125,0.0
1734584993.8642786,-99.609375,-46.875,-39.55078125,-16.11328125,0.0
1734584993.8681848,-98.14453125,-32.71484375,-41.9921875,0.48828125,0.0
1734584993.872091,-92.28515625,-45.8984375,-37.109375,48.828125,0.0
1734584993.8759973,-71.77734375,-69.3359375,-26.3671875,70.3125,0.0
1734584993.8799036,-68.84765625,-58.10546875,-41.50390625,6.34765625,0.0
1734584993.8838098,-103.515625,-47.36328125,-42.48046875,-52.24609375,0.0
1734584993.887716,-65.4296875,-53.7109375,-53.22265625,-37.109375,0.0
1734584993.8916223,-9.765625,-56.15234375,-55.6640625,9.765625,0.0
1734584993.8955283,-37.59765625,-54.19921875,-42.96875,-20.01953125,0.0
1734584993.8994346,-44.43359375,-61.5234375,-49.31640625,-31.25,0.0
1734584993.9033408,3.41796875,-58.59375,-49.31640625,26.3671875,0.0
1734584993.9048755,-52.24609375,-61.03515625,-50.29296875,5.37109375,0.0
1734584993.9087818,-7.8125,-52.24609375,-48.828125,21.97265625,0.0
1734584993.912688,39.55078125,-38.0859375,-45.8984375,33.69140625,0.0
1734584993.9165943,-23.92578125,-50.29296875,-54.19921875,-34.66796875,0.0
1734584993.9205005,-11.23046875,-54.19921875,-55.17578125,-74.70703125,0.0
1734584993.9244068,8.7890625,-42.48046875,-52.734375,-24.90234375,0.0
1734584993.928313,40.0390625,-43.45703125,-48.33984375,8.7890625,0.0
1734584993.9322193,103.02734375,-45.8984375,-50.78125,11.71875,0.0
1734584993.9361255,42.96875,-42.96875,-47.36328125,-10.7421875,0.0
1734584993.9400318,37.59765625,-48.828125,-46.875,-31.25,0.0
1734584993.943938,28.80859375,-46.38671875,-49.31640625,-12.6953125,0.0
1734584993.947844,25.390625,-36.62109375,-43.9453125,19.04296875,0.0
1734584993.9630048,82.51953125,-47.36328125,-38.0859375,86.9140625,0.0
1734584993.966911,36.62109375,-61.03515625,-40.52734375,56.15234375,0.0
1734584993.9708173,8.30078125,-52.24609375,-49.31640625,39.55078125,0.0
1734584993.9747236,62.01171875,-43.9453125,-47.36328125,33.203125,0.0
1734584993.9786298,90.33203125,-49.8046875,-46.875,38.0859375,0.0
1734584993.982536,1.46484375,-60.05859375,-42.96875,90.8203125,0.0
1734584993.9864423,-10.25390625,-61.03515625,-52.734375,78.61328125,0.0
1734584993.9903486,59.08203125,-50.29296875,-64.453125,33.69140625,0.0
1734584993.9942548,41.50390625,-41.9921875,-49.8046875,17.578125,0.0
1734584993.998161,-1.46484375,-49.31640625,-43.45703125,37.59765625,0.0
1734584994.0020673,42.48046875,-52.734375,-47.8515625,130.37109375,0.0
1734584994.0059736,43.45703125,-55.17578125,-43.45703125,146.97265625,0.0
1734584993.9968476,53.22265625,-45.8984375,-44.921875,31.25,0.0
1734584994.0007539,98.14453125,-44.921875,-43.45703125,-16.6015625,0.0
1734584994.0046601,48.828125,-51.26953125,-48.828125,9.765625,0.0
1734584994.0085664,1.953125,-51.26953125,-47.36328125,36.62109375,0.0
1734584994.0124726,-31.25,-50.29296875,-47.8515625,18.06640625,0.0
1734584994.0163789,-21.97265625,-45.8984375,-60.05859375,-3.41796875,0.0
1734584994.0202851,1.46484375,-45.8984375,-61.5234375,0.9765625,0.0
1734584994.0241911,29.296875,-48.33984375,-54.6875,28.3203125,0.0
1734584994.0280974,3.41796875,-49.31640625,-43.45703125,51.26953125,0.0
1734584994.0320036,-55.17578125,-52.24609375,-46.38671875,83.984375,0.0
1734584994.03591,-41.50390625,-47.36328125,-64.453125,18.5546875,0.0
1734584994.0398161,-51.7578125,-44.921875,-51.7578125,-25.87890625,0.0
1734584994.0407557,-22.94921875,-43.45703125,-47.36328125,13.671875,0.0
1734584994.044662,56.640625,-41.015625,-53.7109375,21.484375,0.0
1734584994.0485682,16.11328125,-45.8984375,-51.26953125,-6.8359375,0.0
1734584994.0524745,-58.10546875,-50.29296875,-55.17578125,-1.953125,0.0
1734584994.0563807,-86.9140625,-57.12890625,-59.08203125,-28.80859375,0.0
1734584994.060287,-68.359375,-54.19921875,-64.453125,-65.91796875,0.0
1734584994.0641932,-33.203125,-44.921875,-62.98828125,-23.4375,0.0
1734584994.0680995,-28.80859375,-45.8984375,-58.59375,-25.390625,0.0
1734584994.0720057,-46.38671875,-42.96875,-62.5,-14.6484375,0.0
1734584994.075912,-55.6640625,-43.45703125,-70.80078125,-35.15625,0.0
1734584994.0798182,-95.21484375,-56.640625,-49.31640625,-80.56640625,0.0
1734584994.0837245,-79.1015625,-61.5234375,-39.55078125,-28.3203125,0.0
1734584994.0974264,0.0,-53.22265625,-51.26953125,0.48828125,0.0
1734584994.1013327,0.0,-45.8984375,-53.22265625,-28.80859375,0.0
1734584994.105239,0.0,-45.8984375,-51.7578125,-76.171875,0.0
1734584994.1091452,0.0,-44.43359375,-57.6171875,-68.84765625,0.0
1734584994.1130514,0.0,-47.8515625,-65.91796875,-13.671875,0.0
1734584994.1169577,0.0,-48.828125,-65.4296875,-19.04296875,0.0
1734584994.120864,0.0,-47.36328125,-59.08203125,-38.0859375,0.0
1734584994.1247702,0.0,-46.875,-59.08203125,-42.96875,0.0
1734584994.1286764,0.0,-47.36328125,-68.84765625,-79.58984375,0.0
1734584994.1325827,0.0,-52.734375,-70.80078125,-113.76953125,0.0
1734584994.136489,0.0,-55.17578125,-64.94140625,-91.796875,0.0
1734584994.1403952,0.0,-47.8515625,-72.75390625,-143.06640625,0.0
1734584994.1445658,-22.94921875,-44.921875,-79.58984375,-244.140625,0.0
1734584994.148472,-23.4375,-46.875,-74.21875,-268.06640625,0.0
1734584994.1523783,-16.11328125,-44.43359375,-71.2890625,-250.0,0.0
1734584994.1562846,12.6953125,-42.48046875,-71.2890625,-251.953125,0.0
1734584994.1601908,-13.671875,-43.9453125,-79.1015625,-250.0,0.0
1734584994.164097,-20.5078125,-41.9921875,-84.47265625,-246.58203125,0.0
1734584994.1680033,6.34765625,-33.69140625,-82.51953125,-262.6953125,0.0
1734584994.1719096,27.34375,-29.296875,-80.078125,-286.62109375,0.0
1734584994.1758158,77.63671875,-30.76171875,-76.171875,-268.5546875,0.0
1734584994.179722,49.8046875,-26.85546875,-77.63671875,-276.3671875,0.0
1734584994.1836283,-29.296875,-33.203125,-71.77734375,-295.8984375,0.0
1734584994.1875346,-35.15625,-37.59765625,-79.58984375,-286.62109375,0.0
1734584994.202726,1.46484375,-30.76171875,-86.9140625,-295.41015625,0.0
1734584994.2066321,57.6171875,-31.73828125,-77.63671875,-258.30078125,0.0
1734584994.2105384,66.40625,-34.1796875,-80.56640625,-209.47265625,0.0
1734584994.2144446,11.23046875,-41.9921875,-82.51953125,-251.46484375,0.0
1734584994.218351,-6.8359375,-41.50390625,-80.078125,-239.74609375,0.0
1734584994.2222571,2.9296875,-42.96875,-76.171875,-169.921875,0.0
1734584994.2261634,38.0859375,-49.8046875,-67.87109375,-159.1796875,0.0
1734584994.2300696,13.671875,-43.9453125,-75.1953125,-174.8046875,0.0
1734584994.233976,-41.015625,-41.015625,-94.7265625,-140.13671875,0.0
1734584994.2378821,-64.94140625,-48.33984375,-74.70703125,-152.83203125,0.0
1734584994.2417886,-38.57421875,-43.45703125,-62.98828125,-157.71484375,0.0
1734584994.2456949,40.0390625,-45.8984375,-63.96484375,-35.64453125,0.0
1734584994.2369666,62.98828125,-51.26953125,-62.98828125,-11.23046875,0.0
1734584994.2408729,77.1484375,-38.0859375,-73.2421875,-63.96484375,0.0
1734584994.244779,28.3203125,-30.2734375,-77.63671875,-51.7578125,0.0
1734584994.2486854,-9.765625,-37.59765625,-76.171875,-27.83203125,0.0
1734584994.2525916,48.828125,-38.0859375,-74.21875,22.4609375,0.0
1734584994.2564979,75.68359375,-34.66796875,-77.1484375,61.5234375,0.0
1734584994.260404,43.45703125,-38.57421875,-80.078125,49.31640625,0.0
1734584994.2643104,83.0078125,-45.41015625,-80.078125,9.27734375,0.0
1734584994.2682166,91.796875,-40.52734375,-75.1953125,-10.25390625,0.0
1734584994.2721229,89.35546875,-48.828125,-57.12890625,18.5546875,0.0
1734584994.276029,120.1171875,-49.31640625,-53.7109375,30.2734375,0.0
1734584994.2799354,125.9765625,-45.8984375,-62.5,13.671875,0.0
1734584994.2815106,84.9609375,-45.41015625,-67.87109375,0.0,0.0
1734584994.2854168,67.87109375,-43.9453125,-66.40625,0.0,0.0
1734584994.289323,116.2109375,-45.41015625,-61.5234375,0.0,0.0
1734584994.2932293,144.04296875,-46.38671875,-52.24609375,0.0,0.0
1734584994.2971356,133.7890625,-39.55078125,-54.19921875,0.0,0.0
1734584994.3010418,100.5859375,-34.66796875,-66.89453125,0.0,0.0
1734584994.304948,92.7734375,-37.109375,-61.5234375,0.0,0.0
1734584994.3088543,109.86328125,-36.62109375,-57.12890625,0.0,0.0
1734584994.3127606,159.66796875,-34.66796875,-48.828125,0.0,0.0
1734584994.3166668,169.921875,-34.66796875,-52.24609375,0.0,0.0
1734584994.320573,141.6015625,-37.59765625,-69.3359375,0.0,0.0
1734584994.3244793,152.34375,-32.2265625,-66.89453125,0.0,0.0
1734584994.3262298,82.51953125,-33.203125,-47.8515625,-227.5390625,0.0
1734584994.330136,77.1484375,-39.55078125,-48.33984375,-236.81640625,0.0
1734584994.3340423,108.88671875,-36.62109375,-57.6171875,-201.171875,0.0
1734584994.3379486,114.2578125,-30.2734375,-60.546875,-188.96484375,0.0
1734584994.3418548,121.58203125,-33.203125,-59.08203125,-213.8671875,0.0
1734584994.345761,111.328125,-33.203125,-63.96484375,-234.86328125,0.0
1734584994.3496673,120.60546875,-35.15625,-71.77734375,-218.75,0.0
1734584994.3535736,130.859375,-39.0625,-68.359375,-214.35546875,0.0
1734584994.3574798,95.703125,-40.0390625,-54.6875,-276.85546875,0.0
1734584994.361386,89.84375,-44.43359375,-56.640625,-299.31640625,0.0
1734584994.3652923,111.328125,-47.8515625,-69.3359375,-295.41015625,0.0
1734584994.3691986,89.35546875,-45.41015625,-49.31640625,-278.80859375,0.0
1734584994.3705332,96.19140625,-50.29296875,-38.57421875,-249.51171875,0.0
1734584994.3744395,130.37109375,-43.45703125,-53.7109375,-262.6953125,0.0
1734584994.3783457,96.19140625,-41.50390625,-62.98828125,-270.01953125,0.0
1734584994.382252,41.9921875,-49.8046875,-52.734375,-247.55859375,0.0
1734584994.3861582,57.6171875,-43.9453125,-41.015625,-218.75,0.0
1734584994.3900645,92.28515625,-46.38671875,-44.43359375,-184.5703125,0.0
1734584994.3939707,96.19140625,-49.31640625,-53.22265625,-176.7578125,0.0
1734584994.397877,59.08203125,-48.33984375,-41.015625,-158.203125,0.0
1734584994.4017832,64.453125,-49.8046875,-39.55078125,-152.83203125,0.0
1734584994.4056892,92.7734375,-44.43359375,-43.9453125,-146.97265625,0.0
1734584994.4095955,110.83984375,-45.41015625,-41.50390625,-148.4375,0.0
1734584994.4135017,119.62890625,-46.38671875,-45.8984375,-111.328125,0.0
1734584994.4293077,0.0,-46.38671875,-43.9453125,-83.984375,0.0
1734584994.433214,0.0,-41.015625,-43.45703125,-114.2578125,0.0
1734584994.4371202,0.0,-35.64453125,-46.38671875,-83.984375,0.0
1734584994.4410264,0.0,-38.57421875,-36.1328125,-55.17578125,0.0
1734584994.4449327,0.0,-46.875,-39.0625,-44.43359375,0.0
1734584994.448839,0.0,-54.19921875,-47.36328125,-76.171875,0.0
1734584994.4527452,0.0,-55.17578125,-42.48046875,-57.6171875,0.0
1734584994.4566514,0.0,-44.921875,-42.48046875,-4.8828125,0.0
1734584994.4605577,0.0,-44.921875,-37.109375,-39.0625,0.0
1734584994.464464,0.0,-43.45703125,-50.29296875,-81.0546875,0.0
1734584994.4683702,0.0,-42.48046875,-41.9921875,-44.43359375,0.0
1734584994.4722764,0.0,-42.96875,-36.1328125,-53.22265625,0.0
1734584994.4759376,76.66015625,-51.26953125,-39.0625,-70.3125,0.0
1734584994.4798439,119.62890625,-51.7578125,-41.015625,-25.87890625,0.0
1734584994.48375,94.7265625,-53.7109375,-31.25,-4.39453125,0.0
1734584994.4876564,34.66796875,-56.15234375,-27.34375,-11.71875,0.0
1734584994.4915626,32.2265625,-49.8046875,-32.71484375,-4.39453125,0.0
1734584994.4954689,20.99609375,-46.38671875,-31.73828125,-20.5078125,0.0
1734584994.499375,57.12890625,-42.48046875,-23.4375,-17.578125,0.0
1734584994.5032814,27.34375,-46.875,-11.71875,9.27734375,0.0
1734584994.5071876,39.55078125,-48.828125,-12.20703125,9.765625,0.0
1734584994.5110939,60.05859375,-41.50390625,-29.296875,42.48046875,0.0
1734584994.515,32.71484375,-41.015625,-18.06640625,23.92578125,0.0
1734584994.5189064,42.48046875,-42.48046875,-8.30078125,5.37109375,0.0
1734584994.5219948,-4.39453125,-41.9921875,-9.765625,19.04296875,0.0
1734584994.525901,-0.48828125,-28.3203125,-15.625,42.96875,0.0
1734584994.5298073,-1.953125,-26.85546875,-17.578125,62.5,0.0
1734584994.5337136,-27.83203125,-43.45703125,-14.16015625,60.546875,0.0
1734584994.5376198,-2.44140625,-51.7578125,-18.5546875,53.7109375,0.0
1734584994.541526,14.16015625,-56.640625,-13.18359375,50.78125,0.0
1734584994.5454323,20.5078125,-51.7578125,-6.34765625,93.26171875,0.0
1734584994.5493386,-24.4140625,-54.19921875,-5.859375,61.5234375,0.0
1734584994.5532448,-20.01953125,-43.45703125,-14.16015625,34.1796875,0.0
1734584994.557151,39.0625,-48.828125,-12.20703125,74.70703125,0.0
1734584994.5610573,-41.015625,-50.29296875,-10.25390625,77.63671875,0.0
1734584994.5649636,-74.21875,-43.45703125,-16.11328125,36.62109375,0.0
1734584994.56703,-61.03515625,-46.38671875,-16.6015625,41.50390625,0.0
1734584994.5709362,-45.8984375,-44.921875,-12.6953125,57.6171875,0.0
1734584994.5748425,-21.97265625,-48.828125,-14.16015625,70.80078125,0.0
1734584994.5787487,-54.19921875,-49.31640625,-17.08984375,56.15234375,0.0
1734584994.582655,-57.6171875,-51.7578125,-19.53125,37.109375,0.0
1734584994.5865612,-56.15234375,-50.78125,-24.90234375,29.78515625,0.0
1734584994.5904675,-39.55078125,-46.875,-26.3671875,38.57421875,0.0
1734584994.5943737,-55.6640625,-43.45703125,-25.87890625,83.0078125,0.0
1734584994.59828,-116.69921875,-39.0625,-41.9921875,65.4296875,0.0
1734584994.6021862,-71.77734375,-36.62109375,-30.2734375,3.41796875,0.0
1734584994.6060925,-101.5625,-35.64453125,-22.94921875,22.4609375,0.0
1734584994.6099987,-134.765625,-31.25,-36.62109375,31.25,0.0
1734584994.6243672,-118.1640625,-33.69140625,-34.1796875,44.921875,0.0
1734584994.6282735,-97.16796875,-26.3671875,-35.15625,7.32421875,0.0
1734584994.6321797,-101.5625,-32.2265625,-41.50390625,0.48828125,0.0
1734584994.636086,-121.09375,-56.640625,-36.62109375,10.7421875,0.0
1734584994.6399922,-161.62109375,-20.01953125,-32.2265625,-9.27734375,0.0
1734584994.6438985,-166.50390625,4.8828125,-38.57421875,-14.6484375,0.0
1734584994.6478047,-136.71875,-35.64453125,-45.41015625,-9.765625,0.0
1734584994.651711,-153.80859375,-43.9453125,-54.6875,12.6953125,0.0
1734584994.6556172,-211.9140625,0.9765625,-45.8984375,0.9765625,0.0
1734584994.6595235,-180.17578125,-75.68359375,-0.9765625,23.92578125,0.0
1734584994.6634297,-83.984375,-106.4453125,-14.6484375,29.78515625,0.0
1734584994.667336,-96.19140625,-34.1796875,-53.22265625,-48.33984375,0.0
1734584994.6704302,0.0,-49.31640625,-38.57421875,12.20703125,0.0
1734584994.6743364,0.0,-61.03515625,-31.73828125,62.5,0.0
1734584994.6782427,0.0,-51.7578125,-26.3671875,36.1328125,0.0
1734584994.682149,0.0,-26.85546875,-29.78515625,33.203125,0.0
1734584994.6860552,0.0,-9.27734375,-31.73828125,8.7890625,0.0
1734584994.6899614,0.0,-64.453125,-17.08984375,64.94140625,0.0
1734584994.6938677,0.0,-54.6875,-27.83203125,104.00390625,0.0
1734584994.697774,0.0,-29.78515625,-23.4375,5.37109375,0.0
1734584994.7016802,0.0,-40.0390625,-20.99609375,26.85546875,0.0
1734584994.7055864,0.0,-48.33984375,-14.16015625,70.3125,0.0
1734584994.7094927,0.0,-41.015625,-24.4140625,38.57421875,0.0
1734584994.713399,0.0,-26.85546875,-33.69140625,46.38671875,0.0
1734584994.67886,-145.01953125,-34.66796875,-34.66796875,43.45703125,0.0
1734584994.6827662,-129.8828125,-43.9453125,-27.83203125,62.01171875,0.0
1734584994.6866724,-100.09765625,-46.38671875,-19.04296875,91.796875,0.0
1734584994.6905787,-167.96875,-49.31640625,-25.390625,83.984375,0.0
1734584994.694485,-201.66015625,-46.875,-31.25,41.9921875,0.0
1734584994.6983912,-128.90625,-41.015625,-31.73828125,49.8046875,0.0
1734584994.7022974,-117.1875,-42.96875,-35.64453125,70.80078125,0.0
1734584994.7062037,-118.1640625,-48.828125,-36.1328125,64.94140625,0.0
1734584994.7101097,-113.76953125,-45.41015625,-32.2265625,69.3359375,0.0
1734584994.714016,-132.32421875,-55.17578125,-29.78515625,93.75,0.0
1734584994.7179222,-150.87890625,-49.31640625,-41.9921875,91.796875,0.0
1734584994.7218285,-108.88671875,-32.71484375,-45.8984375,70.3125,0.0
1734584994.7424939,-175.29296875,-41.50390625,-35.64453125,65.4296875,0.0
1734584994.7464,-229.98046875,-53.22265625,-38.57421875,43.45703125,0.0
1734584994.7503064,-226.07421875,-43.9453125,-50.78125,21.97265625,0.0
1734584994.7542126,-176.26953125,-42.48046875,-51.26953125,34.1796875,0.0
1734584994.7581189,-179.19921875,-49.8046875,-49.8046875,30.76171875,0.0
1734584994.762025,-183.59375,-46.38671875,-64.94140625,-21.97265625,0.0
1734584994.7659314,-226.5625,-57.12890625,-65.91796875,-24.90234375,0.0
1734584994.7698376,-248.046875,-56.15234375,-55.17578125,-39.0625,0.0
1734584994.7737439,-249.0234375,-49.8046875,-49.31640625,-74.21875,0.0
1734584994.77765,-232.91015625,-60.05859375,-42.96875,-58.10546875,0.0
1734584994.7815564,-179.19921875,-55.6640625,-53.22265625,-39.55078125,0.0
1734584994.7854624,-164.55078125,-46.38671875,-54.6875,-16.6015625,0.0
1734584994.7905743,-210.44921875,-53.7109375,-54.19921875,-4.39453125,0.0
1734584994.7944806,-182.12890625,-55.17578125,-63.4765625,-36.1328125,0.0
1734584994.7983868,-187.98828125,-44.921875,-63.4765625,-78.61328125,0.0
1734584994.802293,-250.0,-39.0625,-65.91796875,-95.703125,0.0
1734584994.8061993,-228.02734375,-41.015625,-69.3359375,-48.33984375,0.0
1734584994.8101056,-199.21875,-40.52734375,-74.21875,-28.80859375,0.0
1734584994.8140118,-208.0078125,-51.26953125,-75.68359375,-72.75390625,0.0
1734584994.817918,-145.99609375,-46.875,-74.70703125,-36.62109375,0.0
1734584994.8218243,-166.50390625,-41.015625,-64.94140625,-2.44140625,0.0
1734584994.8257306,-204.1015625,-40.0390625,-64.94140625,-36.1328125,0.0
1734584994.8296368,-188.96484375,-38.0859375,-70.3125,-20.01953125,0.0
1734584994.833543,-188.4765625,-47.36328125,-62.98828125,-12.6953125,0.0
1734584994.8488364,-206.54296875,-47.36328125,-67.87109375,-19.04296875,0.0
1734584994.8527427,-202.63671875,-49.31640625,-85.9375,12.20703125,0.0
1734584994.856649,-176.7578125,-48.33984375,-82.03125,23.92578125,0.0
1734584994.8605552,-173.828125,-49.31640625,-70.80078125,2.9296875,0.0
1734584994.8644614,-158.203125,-41.50390625,-83.49609375,17.578125,0.0
1734584994.8683677,-142.08984375,-38.57421875,-91.796875,26.85546875,0.0
1734584994.872274,-175.29296875,-55.17578125,-78.125,26.85546875,0.0
1734584994.87618,-145.5078125,-52.24609375,-69.82421875,38.57421875,0.0
1734584994.8800862,-136.71875,-43.45703125,-81.54296875,61.5234375,0.0
1734584994.8839924,-164.0625,-47.8515625,-92.7734375,35.64453125,0.0
1734584994.8878987,-130.859375,-44.921875,-74.70703125,19.53125,0.0
1734584994.891805,-144.04296875,-41.9921875,-68.84765625,36.62109375,0.0
1734584994.908762,-172.8515625,-41.9921875,-74.70703125,40.0390625,0.0
1734584994.9126682,-176.7578125,-36.62109375,-72.265625,2.44140625,0.0
1734584994.9165745,-164.55078125,-43.45703125,-70.80078125,-76.171875,0.0
1734584994.920481,-136.23046875,-50.29296875,-65.4296875,-41.015625,0.0
1734584994.9243872,-138.671875,-45.41015625,-67.3828125,-40.52734375,0.0
1734584994.9282935,-106.93359375,-39.55078125,-80.56640625,-57.6171875,0.0
1734584994.9321997,-82.03125,-39.0625,-80.078125,-43.9453125,0.0
1734584994.936106,-94.23828125,-49.8046875,-61.5234375,-97.65625,0.0
1734584994.9400122,-124.0234375,-50.78125,-60.05859375,-73.2421875,0.0
1734584994.9439185,-117.67578125,-44.921875,-64.453125,-82.03125,0.0
1734584994.9478247,-118.1640625,-38.57421875,-58.10546875,-143.06640625,0.0
1734584994.951731,-128.41796875,-37.59765625,-54.19921875,-123.53515625,0.0
1734584994.9428625,-119.62890625,-36.62109375,-63.96484375,-112.3046875,0.0
1734584994.9467688,-143.06640625,-40.52734375,-63.96484375,-154.296875,0.0
1734584994.950675,-130.859375,-41.50390625,-61.03515625,-131.8359375,0.0
1734584994.9545813,-19.53125,-32.71484375,-68.359375,-124.0234375,0.0
1734584994.9584873,-48.828125,-35.15625,-63.96484375,-140.13671875,0.0
1734584994.9623935,-57.12890625,-35.15625,-59.08203125,-100.09765625,0.0
1734584994.9662998,-41.015625,-40.0390625,-52.734375,-104.98046875,0.0
1734584994.970206,-28.80859375,-47.8515625,-47.8515625,-107.91015625,0.0
1734584994.9741123,21.484375,-52.24609375,-57.12890625,-109.86328125,0.0
1734584994.9780185,-53.22265625,-42.48046875,-61.5234375,-90.33203125,0.0
1734584994.9819248,-71.77734375,-43.9453125,-59.08203125,-69.82421875,0.0
1734584994.985831,-55.6640625,-52.734375,-56.640625,-65.91796875,0.0
1734584994.986091,0.0,-47.8515625,-64.453125,-43.9453125,0.0
1734584994.9899971,0.0,-52.734375,-57.12890625,-2.9296875,0.0
1734584994.9939034,0.0,-65.91796875,-51.26953125,-13.671875,0.0
1734584994.9978096,0.0,-54.19921875,-54.19921875,-47.36328125,0.0
1734584995.001716,0.0,-41.9921875,-55.17578125,-22.4609375,0.0
1734584995.0056221,0.0,-37.109375,-48.828125,23.4375,0.0
1734584995.0095284,0.0,-30.2734375,-56.15234375,26.85546875,0.0
1734584995.0134346,0.0,-34.66796875,-66.40625,39.55078125,0.0
1734584995.017341,0.0,-42.48046875,-59.08203125,82.03125,0.0
1734584995.0212471,0.0,-45.8984375,-46.38671875,91.796875,0.0
1734584995.0251534,0.0,-38.0859375,-54.6875,34.1796875,0.0
1734584995.0290594,0.0,-32.2265625,-60.546875,39.55078125,0.0
1734584995.0309033,-17.08984375,-25.390625,-61.5234375,62.98828125,0.0
1734584995.0348096,-45.8984375,-35.15625,-59.5703125,75.68359375,0.0
1734584995.0387158,-31.25,-42.96875,-55.17578125,48.828125,0.0
1734584995.042622,-17.08984375,-44.43359375,-48.828125,45.8984375,0.0
1734584995.0465283,-20.01953125,-48.828125,-38.57421875,47.8515625,0.0
1734584995.0504346,32.71484375,-33.203125,-54.6875,38.0859375,0.0
1734584995.0543408,-12.20703125,-37.59765625,-53.7109375,41.50390625,0.0
1734584995.058247,-34.1796875,-39.0625,-55.17578125,42.48046875,0.0
1734584995.0621533,4.39453125,-35.64453125,-51.7578125,64.94140625,0.0
1734584995.0660596,-8.30078125,-37.109375,-41.50390625,75.68359375,0.0
1734584995.0699658,-10.7421875,-34.66796875,-48.33984375,73.73046875,0.0
1734584995.073872,-25.390625,-46.875,-41.015625,49.31640625,0.0
1734584995.0752213,-31.73828125,-46.38671875,-39.55078125,39.55078125,0.0
1734584995.0791276,-24.90234375,-44.43359375,-41.50390625,40.52734375,0.0
1734584995.0830338,-31.73828125,-48.828125,-44.921875,23.4375,0.0
1734584995.08694,-26.85546875,-47.8515625,-46.875,35.64453125,0.0
1734584995.0908463,-14.6484375,-37.59765625,-49.31640625,15.625,0.0
1734584995.0947526,-30.76171875,-37.59765625,-51.26953125,21.97265625,0.0
1734584995.0986588,-48.828125,-47.8515625,-51.7578125,21.484375,0.0
1734584995.102565,-26.3671875,-50.78125,-44.43359375,17.08984375,0.0
1734584995.1064713,-38.57421875,-47.8515625,-30.2734375,13.18359375,0.0
1734584995.1103776,-53.7109375,-42.96875,-38.0859375,1.46484375,0.0
1734584995.1142838,-48.828125,-44.43359375,-45.41015625,0.9765625,0.0
1734584995.11819,-38.57421875,-38.57421875,-48.33984375,27.83203125,0.0
1734584995.1332767,-22.4609375,-36.62109375,-54.19921875,42.96875,0.0
1734584995.137183,-20.5078125,-48.828125,-57.6171875,5.37109375,0.0
1734584995.1410892,-19.04296875,-42.48046875,-64.94140625,3.41796875,0.0
1734584995.1449955,-53.7109375,-50.29296875,-63.4765625,17.08984375,0.0
1734584995.1489017,-79.58984375,-58.59375,-55.6640625,38.57421875,0.0
1734584995.152808,-20.5078125,-38.57421875,-63.4765625,31.25,0.0
1734584995.1567142,-12.20703125,-40.52734375,-70.80078125,-1.46484375,0.0
1734584995.1606205,-11.23046875,-46.875,-62.5,-11.23046875,0.0
1734584995.1645267,10.7421875,-46.875,-58.10546875,28.80859375,0.0
1734584995.168433,-44.921875,-59.5703125,-57.12890625,41.50390625,0.0
1734584995.1723392,-45.41015625,-54.6875,-57.12890625,47.8515625,0.0
1734584995.1762455,25.87890625,-43.9453125,-61.03515625,95.21484375,0.0
1734584995.1674197,12.20703125,-44.921875,-62.01171875,96.19140625,0.0
1734584995.171326,-35.15625,-41.9921875,-60.05859375,97.65625,0.0
1734584995.1752322,1.46484375,-41.50390625,-56.15234375,137.6953125,0.0
1734584995.1791384,48.33984375,-49.8046875,-54.19921875,145.99609375,0.0
1734584995.1830447,1.953125,-38.57421875,-56.15234375,176.7578125,0.0
1734584995.186951,-1.953125,-43.45703125,-51.7578125,244.62890625,0.0
1734584995.1908572,62.98828125,-42.48046875,-57.12890625,238.28125,0.0
1734584995.1947634,56.15234375,-35.15625,-57.12890625,265.625,0.0
1734584995.1986697,9.765625,-33.203125,-43.9453125,287.109375,0.0
1734584995.202576,15.13671875,-46.875,-49.8046875,306.640625,0.0
1734584995.2064822,15.625,-57.12890625,-61.5234375,355.46875,0.0
1734584995.2103884,62.98828125,-44.43359375,-48.33984375,319.3359375,0.0
1734584995.2227516,84.47265625,-29.78515625,-43.45703125,316.40625,0.0
1734584995.2266579,123.046875,-39.0625,-47.8515625,408.203125,0.0
1734584995.230564,138.671875,-33.203125,-50.29296875,478.515625,0.0
1734584995.2344704,144.04296875,-32.71484375,-45.8984375,487.3046875,0.0
1734584995.2383766,146.484375,-33.69140625,-52.24609375,491.2109375,0.0
1734584995.2422829,141.11328125,-27.34375,-71.77734375,518.5546875,0.0
1734584995.246189,119.62890625,-34.66796875,-66.89453125,540.0390625,0.0
1734584995.2500954,85.9375,-28.3203125,-66.40625,533.69140625,0.0
1734584995.2540016,52.734375,-28.3203125,-83.0078125,553.7109375,0.0
1734584995.2579079,55.17578125,-39.55078125,-85.44921875,581.54296875,0.0
1734584995.261814,86.42578125,-23.92578125,-78.125,577.63671875,0.0
1734584995.2657204,118.1640625,-29.78515625,-72.265625,615.234375,0.0
1734584995.270336,133.7890625,-40.0390625,-62.98828125,680.6640625,0.0
1734584995.2742422,135.25390625,-25.390625,-67.87109375,662.109375,0.0
1734584995.2781484,88.37890625,-24.90234375,-86.9140625,634.27734375,0.0
1734584995.2820547,78.61328125,-42.96875,-75.68359375,643.5546875,0.0
1734584995.285961,112.3046875,-26.85546875,-71.77734375,630.859375,0.0
1734584995.2898672,118.65234375,-43.9453125,-78.61328125,650.390625,0.0
1734584995.2937734,107.421875,-53.22265625,-76.171875,658.69140625,0.0
1734584995.2976797,115.234375,-39.55078125,-75.1953125,656.25,0.0
1734584995.301586,132.32421875,-39.0625,-82.51953125,632.32421875,0.0
1734584995.3054922,111.328125,-30.76171875,-84.9609375,583.984375,0.0
1734584995.3093984,97.16796875,-35.15625,-77.63671875,595.703125,0.0
1734584995.3133047,94.23828125,-32.71484375,-87.40234375,573.2421875,0.0
1734584995.314844,66.89453125,-40.0390625,-91.30859375,558.10546875,0.0
1734584995.3187501,37.59765625,-47.36328125,-79.1015625,543.45703125,0.0
1734584995.3226564,32.71484375,-41.50390625,-84.47265625,500.48828125,0.0
1734584995.3265626,12.6953125,-46.38671875,-90.8203125,488.28125,0.0
1734584995.330469,-19.53125,-43.45703125,-98.6328125,459.9609375,0.0
1734584995.3343751,-30.2734375,-37.109375,-97.65625,460.9375,0.0
1734584995.3382814,-31.25,-26.3671875,-93.26171875,494.62890625,0.0
1734584995.3421876,-19.53125,-37.109375,-97.16796875,502.44140625,0.0
1734584995.346094,1.953125,-46.38671875,-107.421875,535.64453125,0.0
1734584995.3500001,-21.484375,-40.52734375,-100.09765625,525.390625,0.0
1734584995.3539064,-74.21875,-34.1796875,-85.9375,503.41796875,0.0
1734584995.3578126,-78.125,-38.0859375,-95.21484375,503.41796875,0.0
1734584995.3731837,-97.65625,-49.31640625,-99.12109375,478.515625,0.0
1734584995.37709,-124.51171875,-43.9453125,-100.09765625,449.21875,0.0
1734584995.3809962,-90.33203125,-31.73828125,-110.83984375,414.55078125,0.0
1734584995.3849025,-73.73046875,-32.71484375,-118.65234375,424.8046875,0.0
1734584995.3888087,-86.9140625,-47.36328125,-127.9296875,379.8828125,0.0
1734584995.392715,-82.51953125,-46.38671875,-134.27734375,294.43359375,0.0
1734584995.3966212,-70.3125,-43.45703125,-136.71875,282.2265625,0.0
1734584995.4005275,-54.6875,-43.9453125,-147.94921875,208.984375,0.0
1734584995.4044337,-87.40234375,-37.59765625,-152.34375,137.6953125,0.0
1734584995.40834,-105.46875,-31.25,-150.390625,134.27734375,0.0
1734584995.4122462,-91.796875,-32.71484375,-156.25,68.84765625,0.0
1734584995.4161525,-70.80078125,-38.0859375,-158.69140625,35.64453125,0.0
1734584995.4070487,-61.5234375,-34.66796875,-157.2265625,-1.953125,0.0
1734584995.410955,-46.875,-24.90234375,-158.69140625,-83.49609375,0.0
1734584995.4148612,-34.66796875,-25.87890625,-162.59765625,-120.60546875,0.0
1734584995.4187675,-63.4765625,-44.43359375,-176.7578125,-171.875,0.0
1734584995.4226737,-84.47265625,-53.22265625,-185.546875,-207.51953125,0.0
1734584995.42658,-69.82421875,-50.29296875,-187.98828125,-233.88671875,0.0
1734584995.4304862,-30.2734375,-49.8046875,-196.77734375,-252.44140625,0.0
1734584995.4343925,14.6484375,-38.0859375,-204.1015625,-260.7421875,0.0
1734584995.4382987,-33.203125,-39.55078125,-202.63671875,-286.62109375,0.0
1734584995.442205,-50.78125,-51.7578125,-205.56640625,-311.03515625,0.0
1734584995.4461112,-5.859375,-42.48046875,-217.7734375,-318.359375,0.0
1734584995.4500175,9.27734375,-46.38671875,-237.3046875,-327.1484375,0.0
1734584995.4518802,1.46484375,-53.7109375,-224.609375,-377.44140625,0.0
1734584995.4557865,-11.71875,-37.59765625,-225.5859375,-393.5546875,0.0
1734584995.4596927,34.1796875,-46.875,-236.328125,-373.046875,0.0
1734584995.463599,83.0078125,-50.78125,-230.46875,-353.02734375,0.0
1734584995.4675052,48.828125,-38.57421875,-235.3515625,-367.1875,0.0
1734584995.4714115,54.19921875,-38.57421875,-246.58203125,-367.1875,0.0
1734584995.4753175,102.05078125,-39.0625,-252.9296875,-370.1171875,0.0
1734584995.4792237,118.65234375,-40.0390625,-248.53515625,-351.07421875,0.0
1734584995.48313,108.3984375,-39.55078125,-242.1875,-344.23828125,0.0
1734584995.4870362,100.09765625,-27.34375,-250.48828125,-333.49609375,0.0
1734584995.4909425,124.0234375,-30.76171875,-244.62890625,-331.0546875,0.0
1734584995.4948487,152.34375,-51.26953125,-222.16796875,-306.640625,0.0
1734584995.5084398,188.4765625,-56.15234375,-217.28515625,-295.8984375,0.0
1734584995.512346,179.19921875,-45.8984375,-228.02734375,-303.7109375,0.0
1734584995.5162523,167.96875,-46.38671875,-233.3984375,-264.6484375,0.0
1734584995.5201585,217.28515625,-54.6875,-229.00390625,-259.27734375,0.0
1734584995.5240648,204.1015625,-55.6640625,-225.09765625,-277.83203125,0.0
1734584995.527971,198.73046875,-48.828125,-229.00390625,-295.8984375,0.0
1734584995.5318773,182.12890625,-47.8515625,-243.1640625,-319.3359375,0.0
1734584995.5357835,180.6640625,-53.22265625,-228.515625,-353.02734375,0.0
1734584995.5396898,210.44921875,-49.8046875,-209.9609375,-368.65234375,0.0
1734584995.543596,170.41015625,-45.41015625,-207.51953125,-373.046875,0.0
1734584995.5475023,183.59375,-48.33984375,-205.078125,-366.2109375,0.0
1734584995.5514085,191.40625,-59.08203125,-199.21875,-363.28125,0.0
1734584995.542245,166.015625,-56.640625,-195.3125,-372.0703125,0.0
1734584995.5461512,167.96875,-45.41015625,-193.359375,-361.81640625,0.0
1734584995.5500572,161.1328125,-56.15234375,-188.4765625,-379.8828125,0.0
1734584995.5539634,126.46484375,-53.22265625,-182.12890625,-378.41796875,0.0
1734584995.5578697,93.26171875,-57.6171875,-182.6171875,-402.34375,0.0
1734584995.561776,113.28125,-56.640625,-182.6171875,-414.0625,0.0
1734584995.5656822,89.84375,-63.96484375,-173.33984375,-442.3828125,0.0
1734584995.5695884,69.82421875,-72.265625,-166.50390625,-435.546875,0.0
1734584995.5734947,96.19140625,-57.12890625,-161.1328125,-390.625,0.0
1734584995.577401,78.61328125,-50.78125,-162.109375,-420.41015625,0.0
1734584995.5813072,80.56640625,-46.38671875,-153.80859375,-474.12109375,0.0
1734584995.5852134,90.8203125,-55.17578125,-141.11328125,-459.9609375,0.0
1734584995.6120415,61.5234375,-60.05859375,-137.6953125,-445.80078125,0.0
1734584995.6159477,34.1796875,-54.6875,-145.99609375,-447.75390625,0.0
1734584995.619854,-6.34765625,-57.12890625,-144.53125,-405.2734375,0.0
1734584995.6237602,-6.8359375,-49.31640625,-128.90625,-333.0078125,0.0
1734584995.6276665,-18.06640625,-49.8046875,-132.32421875,-288.57421875,0.0
1734584995.6315727,-37.109375,-48.33984375,-141.6015625,-265.625,0.0
1734584995.635479,-20.99609375,-49.8046875,-134.27734375,-249.0234375,0.0
1734584995.6393852,-45.8984375,-53.7109375,-121.09375,-232.91015625,0.0
1734584995.6432915,-75.1953125,-43.9453125,-125.9765625,-208.49609375,0.0
1734584995.6471977,-46.38671875,-41.015625,-142.08984375,-241.2109375,0.0
1734584995.651104,-36.62109375,-52.734375,-124.0234375,-250.48828125,0.0
1734584995.6550102,-76.66015625,-56.15234375,-116.69921875,-220.21484375,0.0
1734584995.6467137,-91.30859375,-55.17578125,-124.0234375,-252.9296875,0.0
1734584995.65062,-77.1484375,-58.10546875,-116.69921875,-291.50390625,0.0
1734584995.6545262,-42.48046875,-56.15234375,-118.65234375,-260.25390625,0.0
1734584995.6584325,-24.90234375,-59.5703125,-120.60546875,-287.109375,0.0
1734584995.6623387,-29.296875,-53.22265625,-123.53515625,-324.21875,0.0
1734584995.666245,27.83203125,-48.33984375,-132.32421875,-320.3125,0.0
1734584995.670151,10.25390625,-54.6875,-126.46484375,-287.59765625,0.0
1734584995.6740572,-5.859375,-58.10546875,-118.1640625,-250.0,0.0
1734584995.6779635,-21.484375,-56.640625,-119.140625,-226.5625,0.0
1734584995.6818697,-47.8515625,-62.01171875,-114.74609375,-222.65625,0.0
1734584995.685776,-26.85546875,-62.98828125,-105.46875,-204.58984375,0.0
1734584995.6896822,-18.06640625,-52.734375,-112.3046875,-98.6328125,0.0
1734584995.6908267,-42.48046875,-50.78125,-122.0703125,-6.8359375,0.0
1734584995.694733,-73.2421875,-54.19921875,-110.3515625,-5.859375,0.0
1734584995.6986392,-49.8046875,-52.24609375,-105.95703125,-26.85546875,0.0
1734584995.7025454,-37.109375,-51.26953125,-112.79296875,-8.7890625,0.0
1734584995.7064517,-68.359375,-50.78125,-113.76953125,20.5078125,0.0
1734584995.7103577,-57.12890625,-47.8515625,-112.3046875,46.38671875,0.0
1734584995.714264,-58.59375,-42.96875,-105.46875,66.89453125,0.0
1734584995.7181702,-90.8203125,-51.7578125,-103.02734375,100.5859375,0.0
1734584995.7220764,-112.3046875,-55.17578125,-114.74609375,143.06640625,0.0
1734584995.7259827,-118.65234375,-52.734375,-104.98046875,197.75390625,0.0
1734584995.729889,-92.28515625,-58.10546875,-102.05078125,241.69921875,0.0
1734584995.7337952,-68.84765625,-59.5703125,-114.74609375,310.546875,0.0
1734584995.736223,-83.0078125,-57.12890625,-115.72265625,505.859375,0.0
1734584995.7401292,-63.4765625,-52.734375,-112.3046875,713.37890625,0.0
1734584995.7440355,-72.75390625,-51.26953125,-119.140625,751.953125,0.0
1734584995.7479417,-76.66015625,-54.6875,-127.44140625,692.3828125,0.0
1734584995.751848,-51.26953125,-54.19921875,-124.0234375,750.0,0.0
1734584995.7557542,-26.3671875,-53.7109375,-128.90625,861.81640625,0.0
1734584995.7596605,-37.59765625,-56.640625,-128.90625,895.99609375,0.0
1734584995.7635667,-52.734375,-56.640625,-130.37109375,919.921875,0.0
1734584995.767473,-51.26953125,-58.59375,-125.48828125,958.984375,0.0
1734584995.7713792,-25.87890625,-58.59375,-108.3984375,971.6796875,0.0
1734584995.7752855,3.90625,-58.59375,-114.74609375,967.7734375,0.0
1734584995.7791917,-9.27734375,-56.640625,-121.58203125,969.7265625,0.0
1734584995.7819264,-8.7890625,-51.26953125,-115.234375,969.23828125,0.0
1734584995.7858326,24.4140625,-51.26953125,-116.2109375,969.23828125,0.0
1734584995.789739,39.55078125,-51.7578125,-121.09375,969.23828125,0.0
1734584995.7936451,9.27734375,-50.29296875,-125.0,969.23828125,0.0
1734584995.7975514,0.48828125,-50.78125,-120.1171875,969.23828125,0.0
1734584995.8014576,15.625,-45.8984375,-121.09375,969.23828125,0.0
1734584995.805364,0.9765625,-45.41015625,-125.48828125,969.23828125,0.0
1734584995.8092701,-27.34375,-51.26953125,-132.32421875,971.19140625,0.0
1734584995.8131764,-30.76171875,-54.19921875,-115.72265625,962.890625,0.0
1734584995.8170826,-20.99609375,-60.546875,-110.3515625,974.12109375,0.0
1734584995.820989,-22.4609375,-59.08203125,-125.48828125,954.58984375,0.0
1734584995.8248951,-7.32421875,-55.17578125,-122.55859375,757.8125,0.0
1734584995.8257556,0.0,-57.12890625,-120.60546875,601.07421875,0.0
1734584995.8296618,0.0,-56.15234375,-120.60546875,518.5546875,0.0
1734584995.833568,0.0,-55.6640625,-118.65234375,414.0625,0.0
1734584995.8374743,0.0,-59.5703125,-112.79296875,243.65234375,0.0
1734584995.8413806,0.0,-62.01171875,-107.421875,18.06640625,0.0
1734584995.8452868,0.0,-57.6171875,-106.4453125,-167.96875,0.0
1734584995.849193,0.0,-51.26953125,-110.3515625,-344.23828125,0.0
1734584995.8530993,0.0,-51.7578125,-114.74609375,-466.30859375,0.0
1734584995.8570056,0.0,-59.08203125,-103.515625,-587.40234375,0.0
1734584995.8609118,0.0,-60.05859375,-104.00390625,-668.45703125,0.0
1734584995.864818,0.0,-57.12890625,-101.5625,-779.78515625,0.0
1734584995.8687243,0.0,-55.6640625,-93.75,-952.1484375,0.0
1734584995.8725698,-129.39453125,-52.734375,-92.7734375,-1000.0,0.0
1734584995.876476,-110.3515625,-50.29296875,-94.23828125,-995.60546875,0.0
1734584995.8803823,-97.16796875,-50.78125,-98.14453125,-1000.0,0.0
1734584995.8842885,-97.65625,-56.15234375,-94.23828125,-1000.0,0.0
1734584995.8881948,-87.40234375,-58.59375,-88.8671875,-1000.0,0.0
1734584995.892101,-61.03515625,-54.6875,-89.84375,-1000.0,0.0
1734584995.8960073,-57.12890625,-48.33984375,-96.19140625,-1000.0,0.0
1734584995.8999135,-64.94140625,-46.38671875,-83.49609375,-1000.0,0.0
1734584995.9038198,-41.015625,-51.7578125,-74.21875,-1000.0,0.0
1734584995.907726,-121.58203125,-54.6875,-85.44921875,-1000.0,0.0
1734584995.9116323,-202.63671875,-55.6640625,-83.984375,-1000.0,0.0
1734584995.9155385,-159.66796875,-61.5234375,-72.265625,-1000.0,0.0
1734584995.915502,-136.71875,-62.5,-78.125,-1000.0,0.0
1734584995.9194083,-145.01953125,-57.12890625,-78.61328125,-1000.0,0.0
1734584995.9233146,-127.44140625,-56.640625,-72.75390625,-1000.0,0.0
1734584995.9272208,-201.171875,-61.5234375,-73.73046875,-1000.0,0.0
1734584995.931127,-314.453125,-62.01171875,-77.1484375,-1000.0,0.0
1734584995.9350333,-336.42578125,-59.08203125,-83.984375,-1000.0,0.0
1734584995.9389396,-268.06640625,-58.10546875,-83.984375,-1000.0,0.0
1734584995.9428458,-160.15625,-56.15234375,-76.171875,-1000.0,0.0
1734584995.946752,-133.30078125,-54.6875,-76.171875,-1000.0,0.0
1734584995.9506583,-220.703125,-52.24609375,-79.58984375,-1000.0,0.0
1734584995.9545646,-238.28125,-47.8515625,-77.1484375,-1000.0,0.0
1734584995.9584706,-208.49609375,-53.22265625,-77.1484375,-1000.0,0.0
1734584995.9730256,-142.08984375,-56.15234375,-73.2421875,-1000.0,0.0
1734584995.9769318,-6.8359375,-49.31640625,-72.265625,-1000.0,0.0
1734584995.980838,-16.11328125,-50.78125,-67.87109375,-1000.0,0.0
1734584995.9847443,-101.5625,-54.19921875,-62.5,-1000.0,0.0
1734584995.9886506,-47.36328125,-51.26953125,-66.89453125,-1000.0,0.0
1734584995.9925568,-38.0859375,-48.828125,-75.1953125,-995.60546875,0.0
1734584995.996463,-59.5703125,-49.8046875,-71.2890625,-1000.0,0.0
1734584996.0003693,-45.8984375,-51.26953125,-62.5,-970.21484375,0.0
1734584996.0042756,-82.03125,-49.8046875,-70.3125,-790.52734375,0.0
1734584996.0081818,-115.234375,-46.875,-77.1484375,-621.09375,0.0
1734584996.012088,-110.3515625,-50.29296875,-69.82421875,-543.45703125,0.0
1734584996.0159943,-107.91015625,-45.8984375,-67.87109375,-396.484375,0.0
1734584996.019316,-116.2109375,-40.0390625,-76.171875,-285.64453125,0.0
1734584996.0232222,-111.81640625,-50.29296875,-76.66015625,-317.87109375,0.0
1734584996.0271285,-86.42578125,-58.59375,-68.84765625,-333.49609375,0.0
1734584996.0310347,-92.28515625,-58.59375,-73.2421875,-202.63671875,0.0
1734584996.034941,-137.20703125,-52.734375,-79.1015625,-5.37109375,0.0
1734584996.0388472,-182.12890625,-54.6875,-77.1484375,48.33984375,0.0
1734584996.0427535,-208.49609375,-53.7109375,-79.1015625,124.51171875,0.0
1734584996.0466597,-197.265625,-53.22265625,-78.125,283.203125,0.0
1734584996.050566,-168.9453125,-57.12890625,-82.51953125,379.39453125,0.0
1734584996.0544722,-201.66015625,-53.7109375,-86.42578125,425.78125,0.0
1734584996.0583785,-261.71875,-46.38671875,-83.0078125,418.45703125,0.0
1734584996.0622847,-250.9765625,-51.26953125,-83.984375,472.16796875,0.0
1734584996.0920832,-208.0078125,-60.05859375,-92.28515625,498.53515625,0.0
1734584996.0959897,-291.9921875,-62.98828125,-92.28515625,538.0859375,0.0
1734584996.099896,-350.5859375,-58.10546875,-86.42578125,511.23046875,0.0
1734584996.1038022,-312.5,-50.78125,-88.8671875,459.47265625,0.0
1734584996.1077085,-283.203125,-47.36328125,-87.40234375,520.01953125,0.0
1734584996.1116147,-270.99609375,-46.875,-86.9140625,555.17578125,0.0
1734584996.115521,-225.09765625,-45.41015625,-91.30859375,546.875,0.0
1734584996.1194272,-191.40625,-50.29296875,-89.35546875,528.80859375,0.0
1734584996.1233335,-220.703125,-57.6171875,-93.75,537.109375,0.0
1734584996.1272397,-308.10546875,-51.7578125,-88.8671875,520.5078125,0.0
1734584996.131146,-333.0078125,-49.31640625,-85.9375,567.3828125,0.0
1734584996.1350522,-290.0390625,-48.828125,-81.54296875,615.72265625,0.0
1734584996.1136193,-352.05078125,-47.36328125,-83.49609375,564.453125,0.0
1734584996.1175256,-385.7421875,-49.31640625,-86.9140625,515.13671875,0.0
1734584996.1214318,-330.56640625,-45.41015625,-85.44921875,523.4375,0.0
1734584996.125338,-406.25,-46.38671875,-84.9609375,559.08203125,0.0
1734584996.1292443,-507.8125,-48.33984375,-80.078125,573.73046875,0.0
1734584996.1331506,-435.05859375,-46.38671875,-78.61328125,604.4921875,0.0
1734584996.1370568,-375.0,-51.7578125,-73.73046875,622.55859375,0.0
1734584996.140963,-423.828125,-47.36328125,-76.66015625,753.90625,0.0
1734584996.1448693,-399.90234375,-46.38671875,-79.58984375,904.296875,0.0
1734584996.1487756,-295.41015625,-54.19921875,-70.3125,829.58984375,0.0
1734584996.1526818,-240.234375,-49.31640625,-68.84765625,765.625,0.0
1734584996.156588,-354.4921875,-44.921875,-78.61328125,735.83984375,0.0
1734584996.155632,-375.9765625,-54.19921875,-74.21875,739.74609375,0.0
1734584996.1595383,-448.73046875,-56.640625,-69.3359375,725.5859375,0.0
1734584996.1634443,-478.02734375,-49.8046875,-71.77734375,685.546875,0.0
1734584996.1673505,-246.09375,-46.875,-82.51953125,610.83984375,0.0
1734584996.1712568,16.6015625,-47.8515625,-78.61328125,497.55859375,0.0
1734584996.175163,242.67578125,-47.8515625,-72.75390625,486.328125,0.0
1734584996.1790693,347.65625,-45.8984375,-76.171875,487.79296875,0.0
1734584996.1829755,171.875,-46.38671875,-84.47265625,430.6640625,0.0
1734584996.1868818,127.44140625,-48.33984375,-74.70703125,337.890625,0.0
1734584996.190788,110.3515625,-48.828125,-64.94140625,264.16015625,0.0
1734584996.1946943,238.28125,-51.26953125,-67.3828125,202.63671875,0.0
1734584996.1986005,441.89453125,-46.38671875,-65.4296875,118.65234375,0.0
1734584996.2264693,518.5546875,-43.9453125,-69.82421875,96.19140625,0.0
1734584996.2303755,610.83984375,-47.8515625,-79.1015625,83.984375,0.0
1734584996.2342818,597.16796875,-43.9453125,-79.58984375,109.86328125,0.0
1734584996.238188,683.59375,-40.0390625,-75.68359375,140.625,0.0
1734584996.2420943,781.73828125,-41.50390625,-75.1953125,121.58203125,0.0
1734584996.2460008,790.52734375,-42.48046875,-75.1953125,100.09765625,0.0
1734584996.249907,869.62890625,-43.9453125,-78.61328125,143.5546875,0.0
1734584996.2538133,910.15625,-41.015625,-76.171875,185.546875,0.0
1734584996.2577195,936.03515625,-41.50390625,-66.40625,181.15234375,0.0
1734584996.2616258,959.47265625,-54.19921875,-65.91796875,154.78515625,0.0
1734584996.265532,965.33203125,-52.734375,-72.75390625,106.4453125,0.0
1734584996.2694383,968.26171875,-41.50390625,-69.82421875,80.56640625,0.0
1734584996.2616694,963.8671875,-44.43359375,-62.98828125,4.8828125,0.0
1734584996.2655756,807.6171875,-45.41015625,-67.3828125,-126.953125,0.0
1734584996.269482,600.09765625,-47.8515625,-72.265625,-273.92578125,0.0
1734584996.2733881,468.26171875,-61.03515625,-65.91796875,-412.109375,0.0
1734584996.2772944,266.6015625,-45.41015625,-66.89453125,-591.30859375,0.0
1734584996.2812006,143.06640625,-27.83203125,-77.1484375,-870.1171875,0.0
1734584996.285107,164.55078125,-32.71484375,-79.1015625,-1000.0,0.0
1734584996.2890131,163.0859375,-41.015625,-62.98828125,-991.2109375,0.0
1734584996.2929194,214.84375,-45.41015625,-48.828125,-1000.0,0.0
1734584996.2968256,316.89453125,-40.52734375,-54.19921875,-994.140625,0.0
1734584996.300732,336.9140625,-39.55078125,-53.22265625,-875.48828125,0.0
1734584996.3046381,349.12109375,-44.43359375,-43.45703125,-723.14453125,0.0
1734584996.29235,323.73046875,-43.45703125,-44.921875,-555.17578125,0.0
1734584996.2962563,163.0859375,-41.015625,-54.6875,-308.10546875,0.0
1734584996.3001626,-59.5703125,-39.55078125,-65.91796875,47.36328125,0.0
1734584996.3040688,-278.3203125,-39.0625,-44.921875,277.83203125,0.0
1734584996.307975,-420.8984375,-42.96875,-34.66796875,327.1484375,0.0
1734584996.3118813,-464.84375,-46.38671875,-47.8515625,470.21484375,0.0
1734584996.3157876,-449.70703125,-40.0390625,-49.8046875,562.01171875,0.0
1734584996.3196938,-419.921875,-27.83203125,-34.66796875,513.671875,0.0
1734584996.3236,-413.57421875,-37.59765625,-45.41015625,562.01171875,0.0
1734584996.3275063,-404.296875,-59.08203125,-56.640625,534.66796875,0.0
1734584996.3314126,-404.296875,-55.6640625,-46.38671875,413.0859375,0.0
1734584996.3353188,-411.62109375,-39.0625,-53.7109375,364.74609375,0.0
1734584996.3491344,-374.51171875,-43.45703125,-54.19921875,331.0546875,0.0
1734584996.3530407,-443.359375,-41.9921875,-60.546875,265.13671875,0.0
1734584996.356947,-497.0703125,-44.921875,-63.96484375,237.3046875,0.0
1734584996.3608532,-528.3203125,-35.15625,-53.22265625,225.5859375,0.0
1734584996.3647594,-527.34375,-31.73828125,-51.7578125,166.50390625,0.0
1734584996.3686657,-501.953125,-25.390625,-63.4765625,128.90625,0.0
1734584996.372572,-465.33203125,-31.73828125,-64.94140625,100.5859375,0.0
1734584996.3764782,-512.6953125,-47.36328125,-51.7578125,-6.34765625,0.0
1734584996.3803844,-516.11328125,-34.66796875,-57.12890625,-37.59765625,0.0
1734584996.3842907,-443.359375,-30.76171875,-55.6640625,-33.69140625,0.0
1734584996.388197,-434.08203125,-45.41015625,-40.52734375,0.0,0.0
1734584996.3921032,-513.18359375,-50.29296875,-36.1328125,114.74609375,0.0
1734584996.3952193,-583.984375,-29.296875,-46.38671875,169.921875,0.0
1734584996.3991256,-680.6640625,-21.484375,-47.36328125,179.19921875,0.0
1734584996.4030318,-818.84765625,-17.08984375,-36.62109375,185.05859375,0.0
1734584996.406938,-831.54296875,9.27734375,-50.78125,242.1875,0.0
1734584996.4108443,-749.0234375,-29.78515625,-50.29296875,386.23046875,0.0
1734584996.4147506,-599.609375,-50.78125,-40.0390625,427.24609375,0.0
1734584996.4186568,-440.91796875,-43.45703125,-34.1796875,407.2265625,0.0
1734584996.422563,-432.12890625,-44.921875,-35.15625,341.796875,0.0
1734584996.4264693,-416.50390625,-34.66796875,-45.8984375,343.75,0.0
1734584996.4303756,-331.0546875,-38.0859375,-41.9921875,364.74609375,0.0
1734584996.4342818,-270.5078125,-35.15625,-38.0859375,316.89453125,0.0
1734584996.438188,-285.64453125,-49.8046875,-44.43359375,330.56640625,0.0
1734584996.4399333,-353.02734375,-49.31640625,-49.31640625,268.5546875,0.0
1734584996.4438396,-381.34765625,-45.8984375,-52.24609375,158.69140625,0.0
1734584996.4477458,-384.27734375,-76.171875,-34.66796875,139.16015625,0.0
1734584996.451652,-391.11328125,-36.1328125,-37.59765625,122.55859375,0.0
1734584996.4555583,-376.46484375,-3.90625,-51.26953125,69.3359375,0.0
1734584996.4594646,-350.09765625,-30.2734375,-43.45703125,21.484375,0.0
1734584996.4633708,-366.2109375,-56.15234375,-50.29296875,-11.23046875,0.0
1734584996.467277,-351.5625,-41.9921875,-59.5703125,-96.19140625,0.0
1734584996.471183,-274.4140625,-30.76171875,-59.5703125,-108.88671875,0.0
1734584996.4750893,-252.44140625,-41.50390625,-45.8984375,-97.16796875,0.0
1734584996.4789956,-174.8046875,-45.41015625,-46.38671875,-172.8515625,0.0
1734584996.4829018,-118.65234375,-40.0390625,-56.640625,-166.9921875,0.0
1734584996.486138,-157.2265625,-23.92578125,-55.17578125,-195.3125,0.0
1734584996.4900444,-116.69921875,-55.17578125,-54.6875,-255.37109375,0.0
1734584996.4939506,-37.109375,-62.5,-53.7109375,-241.69921875,0.0
1734584996.4978569,-32.2265625,-34.66796875,-59.08203125,-261.23046875,0.0
1734584996.501763,-73.2421875,-39.0625,-60.546875,-276.3671875,0.0
1734584996.5056694,-47.8515625,-41.015625,-55.6640625,-269.04296875,0.0
1734584996.5095756,2.44140625,-33.69140625,-48.33984375,-292.48046875,0.0
1734584996.5134819,41.9921875,-42.96875,-42.48046875,-323.2421875,0.0
1734584996.517388,13.18359375,-55.17578125,-40.0390625,-332.03125,0.0
1734584996.5212944,10.7421875,-51.7578125,-35.64453125,-336.42578125,0.0
1734584996.5252006,33.203125,-51.7578125,-38.0859375,-300.29296875,0.0
1734584996.5291069,26.85546875,-49.8046875,-41.9921875,-283.203125,0.0
1734584996.5300248,12.20703125,-55.17578125,-32.2265625,-254.39453125,0.0
1734584996.533931,43.9453125,-56.640625,-28.3203125,-191.40625,0.0
1734584996.5378373,116.2109375,-46.875,-41.9921875,-189.453125,0.0
1734584996.5417435,83.49609375,-53.22265625,-43.45703125,-164.55078125,0.0
1734584996.5456498,35.64453125,-52.734375,-41.015625,-124.51171875,0.0
1734584996.549556,42.48046875,-54.6875,-41.015625,-94.23828125,0.0
1734584996.5534623,49.8046875,-61.03515625,-42.96875,-34.66796875,0.0
1734584996.5573685,87.890625,-61.03515625,-43.9453125,-10.7421875,0.0
1734584996.5612748,77.1484375,-69.3359375,-33.69140625,-0.48828125,0.0
1734584996.565181,26.3671875,-67.87109375,-30.76171875,22.94921875,0.0
1734584996.5690873,24.90234375,-53.22265625,-32.2265625,70.3125,0.0
1734584996.5729935,-1.953125,-49.31640625,-28.80859375,127.9296875,0.0
1734584996.574604,43.45703125,-53.7109375,-14.6484375,54.6875,0.0
1734584996.57851,37.59765625,-41.015625,-14.16015625,50.29296875,0.0
1734584996.5824163,32.71484375,-31.73828125,-21.484375,89.84375,0.0
1734584996.5863225,-7.32421875,-36.62109375,-15.625,33.203125,0.0
1734584996.5902288,-37.59765625,-46.38671875,-5.37109375,23.4375,0.0
1734584996.594135,3.90625,-40.0390625,-12.20703125,13.18359375,0.0
1734584996.5980413,38.0859375,-35.15625,-23.92578125,11.23046875,0.0
1734584996.6019475,-13.18359375,-53.7109375,-21.484375,12.20703125,0.0
1734584996.6058538,-47.8515625,-62.01171875,-12.6953125,9.27734375,0.0
1734584996.60976,-30.76171875,-71.77734375,-7.32421875,-1.46484375,0.0
1734584996.6136663,-35.64453125,-97.65625,-11.23046875,20.01953125,0.0
1734584996.6175725,-56.640625,-95.703125,-11.23046875,59.5703125,0.0
1734584996.6335278,-65.4296875,-68.359375,-3.90625,20.01953125,0.0
1734584996.637434,-80.56640625,-56.640625,-14.6484375,14.6484375,0.0
1734584996.6413403,-85.9375,-24.4140625,-11.71875,38.0859375,0.0
1734584996.6452465,-62.01171875,10.7421875,-9.27734375,17.08984375,0.0
1734584996.6491528,-51.26953125,-16.11328125,-12.20703125,24.4140625,0.0
1734584996.653059,-61.03515625,-40.52734375,-3.41796875,-22.94921875,0.0
1734584996.6569653,-98.14453125,-22.94921875,-9.27734375,-22.94921875,0.0
1734584996.6608715,-92.7734375,-5.859375,10.25390625,8.7890625,0.0
1734584996.6647778,-125.0,-2.44140625,11.23046875,-53.22265625,0.0
1734584996.668684,-137.20703125,-15.625,0.48828125,-73.73046875,0.0
1734584996.6725903,-94.23828125,-18.06640625,0.0,-41.50390625,0.0
1734584996.6764965,-71.77734375,-49.31640625,-3.41796875,-40.0390625,0.0
1734584996.6799514,-113.28125,-83.984375,7.8125,-38.57421875,0.0
1734584996.6838577,-113.28125,-53.22265625,-0.48828125,-88.37890625,0.0
1734584996.687764,-104.00390625,-35.15625,-13.671875,-134.27734375,0.0
1734584996.6916702,-111.328125,-41.015625,5.859375,-128.41796875,0.0
1734584996.6955764,-94.23828125,-35.64453125,14.16015625,-153.80859375,0.0
1734584996.6994827,-69.3359375,-41.015625,-1.953125,-147.94921875,0.0
1734584996.703389,-43.9453125,-53.7109375,-3.90625,-167.96875,0.0
1734584996.7072952,-74.70703125,-53.22265625,-0.9765625,-174.31640625,0.0
1734584996.7112014,-135.7421875,-54.19921875,0.0,-145.99609375,0.0
1734584996.7151077,-131.34765625,-56.15234375,-11.23046875,-145.01953125,0.0
1734584996.719014,-62.5,-51.7578125,-11.71875,-162.109375,0.0
1734584996.7229202,-65.4296875,-51.26953125,1.953125,-152.83203125,0.0
1734584996.7244442,-52.734375,-56.15234375,-7.32421875,-153.80859375,0.0
1734584996.7283504,-36.62109375,-64.94140625,-17.578125,-158.69140625,0.0
1734584996.7322567,-41.9921875,-73.73046875,-5.37109375,-129.8828125,0.0
1734584996.736163,-26.85546875,-66.40625,2.44140625,-151.3671875,0.0
1734584996.7400692,-83.984375,-78.61328125,-2.9296875,-156.73828125,0.0
1734584996.7439754,-77.1484375,-98.14453125,-12.6953125,-153.80859375,0.0
1734584996.7478817,-53.7109375,-83.0078125,-7.8125,-171.875,0.0
1734584996.751788,-62.01171875,-70.80078125,1.46484375,-144.53125,0.0
1734584996.7556942,-48.33984375,-74.21875,-9.27734375,-146.484375,0.0
1734584996.7596004,-62.5,-70.80078125,-23.4375,-133.7890625,0.0
1734584996.7635067,-66.89453125,-75.68359375,-8.30078125,-147.4609375,0.0
1734584996.767413,-50.78125,-79.58984375,-1.953125,-183.59375,0.0
1734584996.769656,-39.0625,-77.1484375,-10.25390625,-171.875,0.0
1734584996.7735622,-79.1015625,-73.73046875,-10.25390625,-172.8515625,0.0
1734584996.7774684,-112.79296875,-79.1015625,-11.23046875,-152.34375,0.0
1734584996.7813747,-89.84375,-88.37890625,-13.671875,-158.69140625,0.0
1734584996.785281,-99.12109375,-79.1015625,-16.6015625,-177.734375,0.0
1734584996.7891872,-109.375,-76.171875,-17.08984375,-157.71484375,0.0
1734584996.7930934,-68.359375,-60.546875,-13.18359375,-174.8046875,0.0
1734584996.7969997,-48.828125,-46.875,-7.8125,-150.390625,0.0
1734584996.800906,-141.11328125,-60.546875,-15.625,-99.609375,0.0
1734584996.8048122,-173.33984375,-64.453125,-16.11328125,-79.58984375,0.0
1734584996.8087184,-155.2734375,-70.3125,4.39453125,-46.875,0.0
1734584996.8126247,-136.23046875,-73.73046875,-3.41796875,-14.16015625,0.0
1734584996.8144393,-135.7421875,-53.7109375,-14.16015625,-26.85546875,0.0
1734584996.8183455,-172.8515625,-52.734375,-11.23046875,-55.6640625,0.0
1734584996.8222518,-178.22265625,-59.08203125,-14.16015625,-9.765625,0.0
1734584996.826158,-152.83203125,-56.640625,-20.99609375,41.50390625,0.0
1734584996.8300643,-122.55859375,-52.24609375,-28.3203125,47.36328125,0.0
1734584996.8339705,-136.23046875,-60.05859375,-34.1796875,70.80078125,0.0
1734584996.8378768,-180.17578125,-60.05859375,-27.34375,90.8203125,0.0
1734584996.841783,-162.59765625,-59.08203125,-25.87890625,94.7265625,0.0
1734584996.8456893,-133.7890625,-64.453125,-41.9921875,120.1171875,0.0
1734584996.8495955,-161.1328125,-48.828125,-29.78515625,109.86328125,0.0
1734584996.8535018,-181.640625,-44.921875,-31.73828125,125.0,0.0
1734584996.857408,-167.48046875,-49.31640625,-45.41015625,137.20703125,0.0
1734584996.8598094,-172.8515625,-42.48046875,-41.50390625,117.67578125,0.0
1734584996.8637156,-180.17578125,-50.78125,-33.203125,119.140625,0.0
1734584996.867622,-171.38671875,-59.5703125,-46.38671875,138.18359375,0.0
1734584996.8715281,-112.79296875,-43.45703125,-53.7109375,144.53125,0.0
1734584996.8754344,-117.1875,-46.38671875,-35.15625,123.046875,0.0
1734584996.8793406,-186.03515625,-41.9921875,-32.71484375,158.69140625,0.0
1734584996.883247,-198.73046875,-26.3671875,-35.15625,178.22265625,0.0
1734584996.8871531,-177.734375,-48.33984375,-34.66796875,162.59765625,0.0
1734584996.8910594,-193.84765625,-62.5,-39.55078125,174.8046875,0.0
1734584996.8949656,-217.28515625,-56.15234375,-31.25,146.484375,0.0
1734584996.898872,-187.5,-59.08203125,-32.2265625,133.30078125,0.0
1734584996.9027781,-173.828125,-39.55078125,-33.203125,138.671875,0.0
1734584996.9184575,-209.47265625,-33.69140625,-40.0390625,125.48828125,0.0
1734584996.922364,-215.33203125,-56.640625,-36.1328125,156.73828125,0.0
1734584996.9262702,-213.37890625,-53.7109375,-35.15625,158.203125,0.0
1734584996.9301765,-231.4453125,-45.8984375,-37.59765625,115.234375,0.0
1734584996.9340827,-231.93359375,-38.0859375,-26.3671875,138.671875,0.0
1734584996.937989,-232.421875,-44.921875,-27.34375,125.9765625,0.0
1734584996.9418952,-199.21875,-52.24609375,-39.55078125,101.5625,0.0
1734584996.9458015,-166.9921875,-57.12890625,-40.0390625,124.51171875,0.0
1734584996.9497077,-209.47265625,-60.05859375,-19.04296875,153.3203125,0.0
1734584996.953614,-224.12109375,-50.78125,-20.5078125,168.9453125,0.0
1734584996.9575202,-194.3359375,-48.33984375,-28.80859375,181.15234375,0.0
1734584996.9614265,-203.61328125,-43.9453125,-28.3203125,171.38671875,0.0
1734584996.9510682,-222.16796875,-53.22265625,-36.62109375,166.9921875,0.0
1734584996.9549744,-227.5390625,-48.33984375,-41.9921875,176.7578125,0.0
1734584996.9588807,-201.171875,-40.52734375,-41.50390625,164.0625,0.0
1734584996.962787,-152.83203125,-50.29296875,-47.8515625,168.9453125,0.0
1734584996.9666932,-157.71484375,-35.15625,-50.29296875,170.8984375,0.0
1734584996.9705994,-183.59375,-47.8515625,-47.36328125,189.94140625,0.0
1734584996.9745057,-166.9921875,-52.24609375,-50.78125,199.21875,0.0
1734584996.978412,-138.671875,-33.203125,-50.29296875,182.12890625,0.0
1734584996.9823182,-138.18359375,-39.55078125,-41.50390625,189.94140625,0.0
1734584996.9862244,-145.99609375,-41.9921875,-53.22265625,152.83203125,0.0
1734584996.9901307,-132.8125,-43.9453125,-67.3828125,143.06640625,0.0
1734584996.994037,-120.60546875,-51.26953125,-60.05859375,140.625,0.0
1734584996.9950316,-109.86328125,-51.26953125,-53.7109375,100.5859375,0.0
1734584996.9989378,-96.6796875,-54.19921875,-55.17578125,77.1484375,0.0
1734584997.002844,-62.01171875,-53.7109375,-58.59375,72.75390625,0.0
1734584997.0067503,-45.8984375,-47.36328125,-62.5,59.5703125,0.0
1734584997.0106566,-43.45703125,-47.36328125,-61.03515625,35.64453125,0.0
1734584997.0145628,-34.66796875,-48.828125,-62.98828125,24.4140625,0.0
1734584997.018469,-45.41015625,-54.19921875,-67.87109375,-5.37109375,0.0
1734584997.0223753,-43.9453125,-52.24609375,-56.15234375,-39.0625,0.0
1734584997.0262816,-7.8125,-44.43359375,-54.19921875,-62.01171875,0.0
1734584997.0301878,3.41796875,-36.62109375,-64.94140625,-110.3515625,0.0
1734584997.034094,-10.7421875,-51.26953125,-62.5,-156.73828125,0.0
1734584997.038,-7.8125,-57.6171875,-56.640625,-178.22265625,0.0
1734584997.0402985,-6.8359375,-54.19921875,-58.59375,-212.890625,0.0
1734584997.0442045,7.32421875,-51.26953125,-58.59375,-221.6796875,0.0
1734584997.0481107,10.25390625,-44.43359375,-59.08203125,-211.9140625,0.0
1734584997.052017,-16.6015625,-36.1328125,-62.5,-236.81640625,0.0
1734584997.0559232,-10.7421875,-38.57421875,-62.5,-250.9765625,0.0
1734584997.0598295,4.8828125,-47.36328125,-64.94140625,-223.14453125,0.0
1734584997.0637357,-12.6953125,-43.9453125,-69.3359375,-206.54296875,0.0
1734584997.067642,-33.69140625,-42.96875,-58.59375,-201.66015625,0.0
1734584997.0715482,-30.2734375,-43.9453125,-59.5703125,-169.921875,0.0
1734584997.0754545,12.6953125,-43.45703125,-83.0078125,-163.0859375,0.0
1734584997.0793607,16.6015625,-53.22265625,-59.5703125,-158.69140625,0.0
1734584997.083267,-26.3671875,-55.6640625,-35.15625,-232.91015625,0.0
1734584997.0982006,-48.33984375,-57.12890625,-41.015625,-281.73828125,0.0
1734584997.1021068,-36.62109375,-57.12890625,-45.8984375,-247.0703125,0.0
1734584997.106013,1.953125,-56.15234375,-46.38671875,-238.28125,0.0
1734584997.1099193,-24.90234375,-69.82421875,-42.48046875,-251.953125,0.0
1734584997.1138256,-87.890625,-66.89453125,-59.5703125,-282.71484375,0.0
1734584997.1177318,-97.65625,-59.5703125,-80.078125,-298.828125,0.0
1734584997.121638,-63.96484375,-63.4765625,-69.3359375,-307.6171875,0.0
1734584997.1255443,-52.734375,-65.91796875,-62.98828125,-301.26953125,0.0
1734584997.1294506,-62.01171875,-73.2421875,-68.359375,-271.484375,0.0
1734584997.1333568,-34.1796875,-69.3359375,-68.84765625,-254.8828125,0.0
1734584997.137263,-53.7109375,-63.4765625,-61.03515625,-219.23828125,0.0
1734584997.141169,-30.76171875,-61.5234375,-67.3828125,-194.3359375,0.0
1734584997.1588786,-1.953125,-57.12890625,-69.82421875,-181.15234375,0.0
1734584997.1627848,-50.78125,-63.96484375,-73.73046875,-133.30078125,0.0
1734584997.166691,-41.015625,-60.546875,-80.078125,-127.44140625,0.0
1734584997.1705973,-18.06640625,-66.40625,-76.66015625,-101.5625,0.0
1734584997.1745036,-13.671875,-74.21875,-84.47265625,-63.96484375,0.0
1734584997.1784098,-8.30078125,-65.91796875,-92.28515625,-56.640625,0.0
1734584997.182316,15.625,-67.3828125,-93.26171875,-17.578125,0.0
1734584997.1862223,44.43359375,-62.5,-98.6328125,-8.30078125,0.0
1734584997.1901286,86.42578125,-53.7109375,-109.86328125,22.4609375,0.0
1734584997.1940348,86.42578125,-57.12890625,-107.91015625,89.35546875,0.0
1734584997.197941,68.84765625,-59.08203125,-106.93359375,94.7265625,0.0
1734584997.2018476,77.63671875,-60.05859375,-117.1875,74.21875,0.0
1734584997.1922364,0.0,-59.08203125,-132.32421875,92.28515625,0.0
1734584997.1961427,0.0,-46.875,-141.6015625,110.3515625,0.0
1734584997.200049,0.0,-51.26953125,-141.11328125,121.58203125,0.0
1734584997.203955,0.0,-59.5703125,-149.4140625,164.55078125,0.0
1734584997.2078612,0.0,-56.15234375,-164.0625,162.109375,0.0
1734584997.2117674,0.0,-60.05859375,-179.6875,150.87890625,0.0
1734584997.2156737,0.0,-60.546875,-192.87109375,201.66015625,0.0
1734584997.21958,0.0,-47.36328125,-217.28515625,244.140625,0.0
1734584997.2234862,0.0,-48.33984375,-243.65234375,213.8671875,0.0
1734584997.2273924,0.0,-60.546875,-250.9765625,195.3125,0.0
1734584997.2312987,0.0,-61.03515625,-253.90625,246.58203125,0.0
1734584997.235205,0.0,-56.15234375,-266.6015625,259.27734375,0.0
1734584997.2352574,14.16015625,-51.26953125,-273.92578125,255.859375,0.0
1734584997.2391636,15.13671875,-58.59375,-251.953125,295.41015625,0.0
1734584997.24307,7.8125,-59.5703125,-251.46484375,284.66796875,0.0
1734584997.246976,13.18359375,-48.828125,-277.34375,262.20703125,0.0
1734584997.2508821,4.39453125,-56.640625,-288.0859375,252.44140625,0.0
1734584997.2547884,2.44140625,-61.5234375,-283.69140625,293.9453125,0.0
1734584997.2586946,-5.37109375,-63.96484375,-291.50390625,269.04296875,0.0
1734584997.262601,-31.25,-63.4765625,-311.5234375,205.56640625,0.0
1734584997.2665071,-4.39453125,-54.19921875,-316.89453125,194.3359375,0.0
1734584997.2704134,4.8828125,-62.98828125,-319.3359375,174.31640625,0.0
1734584997.2743196,5.37109375,-64.94140625,-335.9375,172.36328125,0.0
1734584997.278226,9.27734375,-63.96484375,-364.74609375,142.08984375,0.0
1734584997.279876,-42.48046875,-62.01171875,-390.625,75.1953125,0.0
1734584997.2837822,-27.34375,-55.6640625,-399.4140625,19.53125,0.0
1734584997.2876885,-10.7421875,-58.10546875,-411.1328125,-22.94921875,0.0
1734584997.2915945,-27.34375,-60.05859375,-424.31640625,-26.85546875,0.0
1734584997.2955008,-24.4140625,-51.7578125,-425.29296875,-22.94921875,0.0
1734584997.299407,-14.6484375,-51.26953125,-437.5,-69.3359375,0.0
1734584997.3033133,-45.8984375,-51.26953125,-452.63671875,-61.5234375,0.0
1734584997.3072195,-47.8515625,-38.57421875,-461.9140625,-20.5078125,0.0
1734584997.3111258,-8.7890625,-41.50390625,-444.3359375,-13.18359375,0.0
1734584997.315032,-10.25390625,-49.8046875,-427.24609375,25.390625,0.0
1734584997.3189383,-46.875,-48.828125,-433.10546875,14.6484375,0.0
1734584997.3228445,-68.84765625,-50.78125,-437.01171875,-18.5546875,0.0
1734584997.3250186,-75.68359375,-54.19921875,-427.24609375,2.44140625,0.0
1734584997.328925,-50.78125,-50.29296875,-415.52734375,11.23046875,0.0
1734584997.3328311,-16.11328125,-36.1328125,-406.73828125,2.9296875,0.0
1734584997.3367374,-20.5078125,-41.015625,-404.78515625,-3.90625,0.0
1734584997.3406436,-49.31640625,-52.24609375,-395.5078125,19.53125,0.0
1734584997.34455,-39.0625,-54.19921875,-391.11328125,60.05859375,0.0
1734584997.3484561,-37.59765625,-52.24609375,-377.9296875,59.08203125,0.0
1734584997.3523624,-117.67578125,-45.8984375,-362.79296875,8.7890625,0.0
1734584997.3562686,-138.18359375,-37.59765625,-367.67578125,-26.85546875,0.0
1734584997.360175,-124.0234375,-42.96875,-362.79296875,-2.44140625,0.0
1734584997.3640811,-139.16015625,-50.29296875,-346.19140625,15.13671875,0.0
1734584997.3679874,-130.37109375,-47.36328125,-331.54296875,-23.92578125,0.0
1734584997.3834817,-99.12109375,-45.8984375,-329.1015625,2.9296875,0.0
1734584997.387388,-93.75,-39.55078125,-327.63671875,24.4140625,0.0
1734584997.3912942,-82.03125,-43.9453125,-319.3359375,-19.04296875,0.0
1734584997.3952005,-88.37890625,-49.31640625,-304.19921875,-28.3203125,0.0
1734584997.3991067,-124.51171875,-51.26953125,-289.55078125,-32.71484375,0.0
1734584997.403013,-121.09375,-50.78125,-289.55078125,-19.53125,0.0
1734584997.4069192,-99.12109375,-46.38671875,-295.8984375,-5.859375,0.0
1734584997.4108255,-104.00390625,-49.8046875,-277.83203125,-52.24609375,0.0
1734584997.4147317,-60.546875,-38.57421875,-251.953125,-66.89453125,0.0
1734584997.418638,-33.203125,-40.0390625,-247.0703125,-39.55078125,0.0
1734584997.4225442,-64.453125,-47.8515625,-238.28125,-3.90625,0.0
1734584997.4264505,-79.58984375,-51.7578125,-227.5390625,-18.06640625,0.0
1734584997.4165537,-99.609375,-54.19921875,-227.05078125,-50.78125,0.0
1734584997.42046,-79.1015625,-46.875,-227.5390625,-42.96875,0.0
1734584997.4243662,-66.40625,-46.875,-223.14453125,-41.50390625,0.0
1734584997.4282725,-56.640625,-48.33984375,-210.44921875,-29.296875,0.0
1734584997.4321787,-54.6875,-41.9921875,-200.1953125,-39.0625,0.0
1734584997.4360847,-43.45703125,-47.8515625,-202.1484375,-47.8515625,0.0
1734584997.439991,-91.30859375,-52.734375,-198.2421875,-60.546875,0.0
1734584997.4438972,-118.65234375,-37.59765625,-185.546875,-74.21875,0.0
1734584997.4478035,-82.03125,-33.203125,-177.24609375,-49.8046875,0.0
1734584997.4517097,-97.65625,-48.828125,-181.15234375,-25.87890625,0.0
1734584997.455616,-98.14453125,-55.17578125,-180.6640625,-49.8046875,0.0
1734584997.4595222,-68.359375,-48.33984375,-162.109375,-69.82421875,0.0
1734584997.4738255,-79.58984375,-52.24609375,-158.69140625,-69.82421875,0.0
1734584997.4777317,-62.5,-50.78125,-164.55078125,-41.9921875,0.0
1734584997.481638,-53.7109375,-45.41015625,-158.203125,-11.71875,0.0
1734584997.4855442,-73.2421875,-47.8515625,-149.90234375,-60.05859375,0.0
1734584997.4894505,-85.44921875,-40.0390625,-152.34375,-83.984375,0.0
1734584997.4933567,-115.72265625,-47.8515625,-149.90234375,-70.3125,0.0
1734584997.497263,-116.69921875,-52.24609375,-138.18359375,-44.921875,0.0
1734584997.5011692,-92.28515625,-43.9453125,-125.0,-38.57421875,0.0
1734584997.5050755,-72.75390625,-49.31640625,-133.30078125,-78.61328125,0.0
1734584997.5089817,-74.70703125,-47.36328125,-148.92578125,-104.98046875,0.0
1734584997.512888,-98.14453125,-50.29296875,-124.0234375,-93.75,0.0
1734584997.5167942,-104.98046875,-54.19921875,-112.79296875,-71.2890625,0.0
1734584997.5196126,-63.96484375,-49.8046875,-126.953125,-96.19140625,0.0
1734584997.5235188,-105.95703125,-42.48046875,-133.30078125,-138.671875,0.0
1734584997.527425,-150.87890625,-40.52734375,-122.0703125,-162.59765625,0.0
1734584997.5313313,-113.76953125,-46.875,-109.375,-131.34765625,0.0
1734584997.5352376,-99.12109375,-57.12890625,-109.86328125,-91.796875,0.0
1734584997.5391438,-70.3125,-59.5703125,-110.83984375,-93.75,0.0
1734584997.54305,-61.03515625,-50.29296875,-109.375,-105.95703125,0.0
1734584997.5469563,-96.19140625,-43.9453125,-107.91015625,-88.8671875,0.0
1734584997.5508626,-103.02734375,-44.43359375,-107.421875,-111.81640625,0.0
1734584997.5547688,-84.9609375,-47.8515625,-104.98046875,-98.6328125,0.0
1734584997.558675,-103.515625,-55.6640625,-91.796875,-78.61328125,0.0
1734584997.5625813,-114.74609375,-51.7578125,-97.65625,-83.0078125,0.0
1734584997.5648425,-96.6796875,-52.734375,-111.81640625,-111.328125,0.0
1734584997.5687487,-118.1640625,-60.546875,-100.5859375,-138.18359375,0.0
1734584997.572655,-141.11328125,-52.734375,-98.14453125,-116.69921875,0.0
1734584997.5765612,-124.51171875,-40.0390625,-103.515625,-90.33203125,0.0
1734584997.5804675,-126.46484375,-39.55078125,-107.421875,-111.81640625,0.0
1734584997.5843737,-114.2578125,-45.8984375,-112.79296875,-135.25390625,0.0
1734584997.58828,-98.14453125,-47.36328125,-107.421875,-138.671875,0.0
1734584997.5921862,-119.140625,-50.29296875,-99.609375,-112.3046875,0.0
1734584997.5960925,-125.0,-48.33984375,-106.4453125,-101.07421875,0.0
1734584997.5999987,-114.2578125,-39.55078125,-95.21484375,-109.375,0.0
1734584997.603905,-103.515625,-41.015625,-82.51953125,-113.28125,0.0
1734584997.6078112,-110.83984375,-40.0390625,-93.75,-155.76171875,0.0
1734584997.6232107,-143.06640625,-43.9453125,-99.609375,-156.25,0.0
1734584997.627117,-141.6015625,-44.921875,-89.84375,-123.046875,0.0
1734584997.6310232,-129.8828125,-49.8046875,-93.26171875,-128.90625,0.0
1734584997.6349294,-83.0078125,-46.38671875,-115.72265625,-110.3515625,0.0
1734584997.6388357,-53.7109375,-41.50390625,-107.421875,-120.1171875,0.0
1734584997.642742,-124.51171875,-53.22265625,-79.58984375,-135.7421875,0.0
1734584997.6466482,-129.8828125,-48.828125,-78.125,-97.65625,0.0
1734584997.6505544,-85.44921875,-41.50390625,-90.8203125,-81.0546875,0.0
1734584997.6544607,-76.171875,-45.41015625,-92.28515625,-91.796875,0.0
1734584997.658367,-72.265625,-46.875,-78.61328125,-88.37890625,0.0
1734584997.6622732,-73.73046875,-47.8515625,-74.21875,-86.42578125,0.0
1734584997.6661794,-57.6171875,-45.41015625,-79.58984375,-64.94140625,0.0
1734584997.6564848,-64.453125,-42.48046875,-80.56640625,-42.48046875,0.0
1734584997.660391,-72.75390625,-45.8984375,-84.9609375,-62.01171875,0.0
1734584997.6642973,-58.10546875,-51.26953125,-90.33203125,-40.0390625,0.0
1734584997.6682036,-58.59375,-50.29296875,-91.796875,-34.1796875,0.0
1734584997.6721098,-62.01171875,-43.9453125,-90.33203125,-49.31640625,0.0
1734584997.676016,-20.01953125,-43.9453125,-87.40234375,-20.01953125,0.0
1734584997.6799223,-44.43359375,-46.38671875,-93.75,-28.3203125,0.0
1734584997.6838286,-64.94140625,-48.33984375,-96.19140625,-44.43359375,0.0
1734584997.6877348,-51.7578125,-49.8046875,-81.0546875,-36.62109375,0.0
1734584997.691641,-56.15234375,-46.875,-75.1953125,-29.296875,0.0
1734584997.6955473,-31.25,-44.921875,-85.44921875,-2.9296875,0.0
1734584997.6994536,-71.77734375,-50.29296875,-97.16796875,3.41796875,0.0
1734584997.699511,-103.02734375,-53.7109375,-87.890625,-14.6484375,0.0
1734584997.7034173,-84.9609375,-52.24609375,-75.68359375,0.9765625,0.0
1734584997.7073236,-71.77734375,-51.26953125,-74.70703125,3.90625,0.0
1734584997.7112298,-47.8515625,-48.33984375,-67.3828125,-0.48828125,0.0
1734584997.715136,-32.71484375,-43.45703125,-73.2421875,-1.953125,0.0
1734584997.7190423,-31.25,-42.48046875,-80.078125,-28.80859375,0.0
1734584997.7229486,-64.94140625,-39.0625,-83.984375,-29.78515625,0.0
1734584997.7268548,-94.7265625,-44.921875,-84.47265625,4.39453125,0.0
1734584997.730761,-77.1484375,-51.7578125,-62.98828125,6.34765625,0.0
1734584997.7346673,-69.82421875,-46.875,-68.359375,-33.69140625,0.0
1734584997.7385736,-82.51953125,-46.875,-78.125,-69.82421875,0.0
1734584997.7424796,-84.9609375,-48.33984375,-68.84765625,-63.96484375,0.0
1734584997.7581778,-81.54296875,-52.734375,-72.75390625,-52.734375,0.0
1734584997.762084,-73.2421875,-55.17578125,-74.70703125,-42.96875,0.0
1734584997.7659903,-83.49609375,-51.7578125,-69.3359375,-40.52734375,0.0
1734584997.7698965,-85.44921875,-47.8515625,-68.84765625,-82.03125,0.0
1734584997.7738028,-61.5234375,-50.29296875,-59.08203125,-116.69921875,0.0
1734584997.777709,-61.5234375,-45.41015625,-60.546875,-113.76953125,0.0
1734584997.7816153,-82.51953125,-44.921875,-69.82421875,-75.1953125,0.0
1734584997.7855215,-82.03125,-59.08203125,-54.19921875,-83.49609375,0.0
1734584997.7894278,-62.98828125,-49.31640625,-53.22265625,-99.609375,0.0
1734584997.793334,-86.9140625,-41.9921875,-58.59375,-84.47265625,0.0
1734584997.7972403,-93.26171875,-42.96875,-58.59375,-93.26171875,0.0
1734584997.8011465,-75.1953125,-41.50390625,-54.19921875,-103.02734375,0.0
1734584997.7915268,-83.0078125,-47.36328125,-55.17578125,-107.91015625,0.0
1734584997.795433,-78.125,-45.41015625,-67.3828125,-132.32421875,0.0
1734584997.7993393,-57.6171875,-46.38671875,-73.2421875,-143.06640625,0.0
1734584997.8032455,-61.03515625,-44.921875,-64.453125,-99.609375,0.0
1734584997.8071518,-54.19921875,-39.55078125,-62.5,-74.21875,0.0
1734584997.811058,-66.89453125,-44.921875,-71.77734375,-80.078125,0.0
1734584997.8149643,-99.609375,-49.31640625,-75.1953125,-117.67578125,0.0
1734584997.8188705,-77.1484375,-44.43359375,-80.078125,-110.83984375,0.0
1734584997.8227768,-66.89453125,-44.921875,-75.68359375,-93.26171875,0.0
1734584997.826683,-86.9140625,-50.78125,-77.1484375,-113.28125,0.0
1734584997.8305893,-76.171875,-57.12890625,-75.1953125,-88.8671875,0.0
1734584997.8344955,-44.43359375,-55.17578125,-62.98828125,-62.5,0.0
1734584997.847767,-45.8984375,-44.43359375,-68.359375,-87.890625,0.0
1734584997.8516734,-83.0078125,-46.38671875,-75.1953125,-104.4921875,0.0
1734584997.8555796,-67.87109375,-51.26953125,-63.4765625,-92.7734375,0.0
1734584997.8594859,-62.5,-47.8515625,-60.546875,-80.078125,0.0
1734584997.863392,-80.078125,-44.921875,-72.265625,-94.23828125,0.0
1734584997.8672984,-91.796875,-48.828125,-83.0078125,-89.84375,0.0
1734584997.8712046,-88.37890625,-51.7578125,-71.77734375,-54.6875,0.0
1734584997.8751109,-72.75390625,-47.8515625,-65.91796875,-88.8671875,0.0
1734584997.879017,-62.98828125,-45.41015625,-74.21875,-73.73046875,0.0
1734584997.8829234,-67.87109375,-51.26953125,-84.47265625,-49.8046875,0.0
1734584997.8868296,-62.98828125,-57.6171875,-77.1484375,-76.171875,0.0
1734584997.8907359,-47.36328125,-54.19921875,-73.2421875,-96.6796875,0.0
1734584997.8950434,-35.15625,-52.24609375,-83.984375,-85.9375,0.0
1734584997.8989496,-42.96875,-52.734375,-75.1953125,-58.59375,0.0
1734584997.9028559,-78.61328125,-49.31640625,-65.4296875,-70.3125,0.0
1734584997.9067621,-92.7734375,-46.875,-72.75390625,-101.5625,0.0
1734584997.9106684,-52.24609375,-45.8984375,-81.54296875,-89.35546875,0.0
1734584997.9145746,-67.3828125,-49.8046875,-78.125,-72.265625,0.0
1734584997.9184809,-75.1953125,-52.24609375,-73.73046875,-75.1953125,0.0
1734584997.9223871,-46.38671875,-50.78125,-72.75390625,-67.87109375,0.0
1734584997.9262934,-50.78125,-45.8984375,-83.984375,-93.26171875,0.0
1734584997.9301996,-55.17578125,-47.8515625,-80.078125,-105.46875,0.0
1734584997.9341059,-84.9609375,-48.33984375,-64.453125,-82.03125,0.0
1734584997.9380121,-61.5234375,-46.875,-69.3359375,-63.96484375,0.0
1734584997.940245,-66.89453125,-52.734375,-70.80078125,-91.30859375,0.0
1734584997.9441512,-98.14453125,-47.8515625,-74.21875,-116.2109375,0.0
1734584997.9480574,-81.54296875,-41.015625,-79.1015625,-109.86328125,0.0
1734584997.9519637,-62.98828125,-46.875,-79.58984375,-99.12109375,0.0
1734584997.95587,-58.10546875,-48.33984375,-78.125,-93.75,0.0
1734584997.959776,-76.66015625,-47.36328125,-80.078125,-84.9609375,0.0
1734584997.9636822,-85.44921875,-50.78125,-72.75390625,-75.68359375,0.0
1734584997.9675884,-69.82421875,-46.875,-71.77734375,-75.68359375,0.0
1734584997.9714947,-55.6640625,-44.43359375,-83.0078125,-73.73046875,0.0
1734584997.975401,-52.734375,-45.41015625,-68.359375,-62.01171875,0.0
1734584997.9793072,-62.01171875,-40.52734375,-54.19921875,-61.03515625,0.0
1734584997.9832134,-90.33203125,-40.52734375,-64.94140625,-90.8203125,0.0
1734584997.9851782,-69.82421875,-48.33984375,-70.80078125,-63.96484375,0.0
1734584997.9890845,-32.2265625,-43.45703125,-67.87109375,-58.59375,0.0
1734584997.9929907,-49.8046875,-30.2734375,-77.63671875,-114.74609375,0.0
1734584997.996897,-71.2890625,-40.52734375,-75.68359375,-81.0546875,0.0
1734584998.0008032,-66.40625,-41.9921875,-69.3359375,-76.171875,0.0
1734584998.0047095,-69.82421875,-38.57421875,-80.078125,-92.28515625,0.0
1734584998.0086157,-52.734375,-44.921875,-79.58984375,-55.6640625,0.0
1734584998.012522,-46.38671875,-38.57421875,-74.21875,-52.24609375,0.0
1734584998.016428,-55.6640625,-41.015625,-79.58984375,-59.08203125,0.0
1734584998.0203342,-41.9921875,-42.48046875,-62.98828125,-59.08203125,0.0
1734584998.0242405,-50.29296875,-34.66796875,-69.3359375,-74.21875,0.0
1734584998.0281467,-57.6171875,-37.109375,-88.8671875,-84.9609375,0.0
1734584998.0295835,-56.15234375,-43.9453125,-73.2421875,-68.359375,0.0
1734584998.0334897,-42.96875,-43.9453125,-57.6171875,-67.87109375,0.0
1734584998.037396,-49.8046875,-42.96875,-64.453125,-60.05859375,0.0
1734584998.0413022,-77.1484375,-40.52734375,-72.75390625,-68.359375,0.0
1734584998.0452085,-68.84765625,-37.109375,-61.03515625,-97.16796875,0.0
1734584998.0491147,-31.25,-41.9921875,-55.6640625,-106.93359375,0.0
1734584998.053021,-33.69140625,-40.52734375,-61.5234375,-111.81640625,0.0
1734584998.0569272,-67.87109375,-40.0390625,-68.359375,-98.6328125,0.0
1734584998.0608335,-75.1953125,-50.29296875,-61.03515625,-122.0703125,0.0
1734584998.0647397,-63.4765625,-51.26953125,-46.38671875,-133.30078125,0.0
1734584998.068646,-55.17578125,-39.0625,-50.78125,-105.46875,0.0
1734584998.0725522,-19.53125,-43.9453125,-60.546875,-90.33203125,0.0
1734584998.101752,0.0,-42.48046875,-60.05859375,-91.796875,0.0
1734584998.1056583,-18.5546875,-40.52734375,-62.5,-102.05078125,0.0
1734584998.1095645,-29.78515625,-47.36328125,-66.89453125,-95.703125,0.0
1734584998.1134708,-49.8046875,-45.41015625,-63.4765625,-75.68359375,0.0
1734584998.117377,-54.6875,-41.50390625,-63.96484375,-83.0078125,0.0
1734584998.1212833,-42.96875,-41.015625,-57.6171875,-103.02734375,0.0
1734584998.1251895,-40.0390625,-38.0859375,-62.5,-104.4921875,0.0
1734584998.1290958,-41.015625,-33.69140625,-82.51953125,-59.5703125,0.0
1734584998.133002,-61.03515625,-43.45703125,-67.87109375,-64.94140625,0.0
1734584998.1369083,-55.17578125,-45.41015625,-57.12890625,-81.0546875,0.0
1734584998.1408145,-55.6640625,-46.875,-65.4296875,-48.33984375,0.0
1734584998.1447208,-59.08203125,-48.33984375,-69.3359375,-63.4765625,0.0
1734584998.1228368,-67.87109375,-47.8515625,-69.82421875,-97.16796875,0.0
1734584998.126743,-59.5703125,-43.45703125,-77.1484375,-81.0546875,0.0
1734584998.1306493,-74.70703125,-43.45703125,-81.0546875,-50.29296875,0.0
1734584998.1345556,-101.5625,-46.38671875,-70.80078125,-33.203125,0.0
1734584998.1384618,-97.65625,-45.8984375,-74.21875,-62.01171875,0.0
1734584998.142368,-126.46484375,-49.31640625,-83.49609375,-82.51953125,0.0
1734584998.1462743,-134.765625,-50.78125,-83.984375,-48.33984375,0.0
1734584998.1501806,-117.67578125,-54.6875,-72.265625,-20.5078125,0.0
1734584998.1540868,-114.2578125,-55.6640625,-69.3359375,-9.765625,0.0
1734584998.157993,-123.046875,-50.29296875,-80.56640625,-28.80859375,0.0
1734584998.1618993,-129.8828125,-45.8984375,-80.078125,-80.078125,0.0
1734584998.1658056,-157.2265625,-44.43359375,-74.21875,-84.9609375,0.0
1734584998.1798992,-184.08203125,-43.45703125,-66.40625,0.0,0.0
1734584998.1838055,-166.9921875,-46.38671875,-64.94140625,0.0,0.0
1734584998.1877117,-154.296875,-48.33984375,-78.61328125,0.0,0.0
1734584998.191618,-179.6875,-49.31640625,-67.87109375,0.0,0.0
1734584998.1955242,-189.453125,-57.6171875,-60.05859375,0.0,0.0
1734584998.1994305,-165.52734375,-60.05859375,-70.3125,0.0,0.0
1734584998.2033367,-175.29296875,-62.01171875,-66.89453125,0.0,0.0
1734584998.207243,-179.19921875,-62.98828125,-61.5234375,0.0,0.0
1734584998.2111492,-181.15234375,-55.17578125,-66.40625,0.0,0.0
1734584998.2150555,-190.4296875,-51.26953125,-68.84765625,0.0,0.0
1734584998.2189617,-164.0625,-55.17578125,-61.5234375,0.0,0.0
1734584998.222868,-175.78125,-60.05859375,-51.7578125,0.0,0.0
1734584998.2246633,-179.6875,-57.6171875,-56.640625,-41.015625,0.0
1734584998.2285695,-145.5078125,-52.734375,-62.01171875,-47.8515625,0.0
1734584998.2324758,-174.8046875,-48.828125,-59.08203125,-69.82421875,0.0
1734584998.236382,-169.43359375,-54.19921875,-55.6640625,-73.2421875,0.0
1734584998.2402883,-151.85546875,-64.94140625,-43.45703125,-30.76171875,0.0
1734584998.2441945,-138.18359375,-61.5234375,-51.7578125,-45.41015625,0.0
1734584998.2481008,-153.80859375,-61.03515625,-47.8515625,-82.51953125,0.0
1734584998.252007,-155.2734375,-67.3828125,-35.15625,-85.44921875,0.0
1734584998.2559133,-112.3046875,-60.546875,-39.0625,-88.37890625,0.0
1734584998.2598195,-90.8203125,-58.10546875,-44.921875,-60.05859375,0.0
1734584998.2637258,-115.234375,-63.4765625,-27.34375,-78.125,0.0
1734584998.267632,-129.8828125,-59.5703125,-27.34375,-141.6015625,0.0
1734584998.2834854,-155.2734375,-56.15234375,-44.43359375,-127.9296875,0.0
1734584998.2873917,-168.9453125,-60.546875,-41.9921875,-117.67578125,0.0
1734584998.291298,-156.73828125,-62.01171875,-31.73828125,-141.11328125,0.0
1734584998.2952042,-159.1796875,-55.17578125,-25.390625,-130.859375,0.0
1734584998.2991104,-170.8984375,-56.640625,-26.3671875,-122.0703125,0.0
1734584998.3030167,-164.0625,-64.94140625,-29.296875,-133.7890625,0.0
1734584998.306923,-121.09375,-62.98828125,-30.2734375,-125.48828125,0.0
1734584998.3108292,-101.5625,-60.546875,-23.4375,-102.5390625,0.0
1734584998.3147354,-144.53125,-59.08203125,-25.87890625,-56.15234375,0.0
1734584998.3186417,-139.16015625,-56.640625,-32.2265625,-37.59765625,0.0
1734584998.322548,-129.8828125,-61.5234375,-23.92578125,-66.89453125,0.0
1734584998.3264542,-138.18359375,-59.08203125,-26.3671875,-60.546875,0.0
1734584998.331173,0.0,-59.5703125,-34.1796875,-18.06640625,0.0
1734584998.3350792,0.0,-57.12890625,-28.80859375,-27.83203125,0.0
1734584998.3389854,0.0,-58.10546875,-30.2734375,-66.40625,0.0
1734584998.3428917,0.0,-62.01171875,-38.0859375,-62.01171875,0.0
1734584998.346798,0.0,-57.6171875,-46.38671875,-60.05859375,0.0
1734584998.3507042,0.0,-63.96484375,-41.9921875,-46.38671875,0.0
1734584998.3546104,0.0,-60.546875,-34.1796875,-21.97265625,0.0
1734584998.3585167,0.0,-55.17578125,-52.24609375,-49.31640625,0.0
1734584998.362423,0.0,-59.08203125,-78.125,-65.91796875,0.0
1734584998.3663292,0.0,-57.6171875,-72.265625,-65.4296875,0.0
1734584998.3702354,0.0,-57.6171875,-62.01171875,-57.6171875,0.0
1734584998.3741417,0.0,-56.15234375,-73.73046875,-29.78515625,0.0
1734584998.362042,-105.46875,-54.6875,-86.42578125,-30.76171875,0.0
1734584998.3659482,-125.0,-57.12890625,-73.73046875,-58.59375,0.0
1734584998.3698545,-68.359375,-59.08203125,-73.2421875,-42.48046875,0.0
1734584998.3737607,-12.6953125,-47.36328125,-67.87109375,-3.41796875,0.0
1734584998.377667,-91.796875,-41.9921875,-50.29296875,-39.0625,0.0
1734584998.3815732,-130.859375,-54.19921875,-63.4765625,-97.65625,0.0
1734584998.3854795,-118.1640625,-56.640625,-68.359375,-110.83984375,0.0
1734584998.3893857,-167.48046875,-44.921875,-57.12890625,-146.484375,0.0
1734584998.393292,-204.1015625,-37.109375,-50.29296875,-177.24609375,0.0
1734584998.3971982,-186.03515625,-38.0859375,-48.828125,-158.203125,0.0
1734584998.4011045,-174.31640625,-40.52734375,-58.10546875,-181.640625,0.0
1734584998.4050107,-162.59765625,-51.26953125,-66.89453125,-215.8203125,0.0
1734584998.4066985,-159.66796875,-54.6875,-62.01171875,-210.9375,0.0
1734584998.4106047,-149.90234375,-56.15234375,-50.29296875,-212.890625,0.0
1734584998.414511,-120.1171875,-59.5703125,-47.8515625,-189.453125,0.0
1734584998.4184172,-103.02734375,-54.19921875,-50.29296875,-212.40234375,0.0
1734584998.4223232,-87.890625,-44.43359375,-47.8515625,-268.06640625,0.0
1734584998.4262295,-116.69921875,-39.55078125,-45.41015625,-300.78125,0.0
1734584998.4301357,-134.27734375,-46.875,-46.875,-332.03125,0.0
1734584998.434042,-99.12109375,-48.828125,-47.8515625,-316.40625,0.0
1734584998.4379482,-87.40234375,-48.33984375,-37.109375,-307.6171875,0.0
1734584998.4418545,-68.84765625,-49.31640625,-37.109375,-352.5390625,0.0
1734584998.4457607,-82.51953125,-49.31640625,-48.828125,-392.08984375,0.0
1734584998.449667,-96.6796875,-48.33984375,-54.19921875,-432.12890625,0.0
1734584998.463375,-74.70703125,-55.6640625,-48.828125,-408.203125,0.0
1734584998.4672813,-56.15234375,-47.36328125,-48.828125,-392.578125,0.0
1734584998.4711876,-48.33984375,-42.96875,-64.453125,-398.92578125,0.0
1734584998.4750938,-42.48046875,-73.2421875,-69.82421875,-417.96875,0.0
1734584998.479,-55.6640625,-61.5234375,-59.08203125,-421.875,0.0
1734584998.4829063,-81.54296875,-49.31640625,-56.640625,-374.0234375,0.0
1734584998.4868126,-76.66015625,-50.29296875,-59.08203125,-317.3828125,0.0
1734584998.4907188,-54.19921875,-34.66796875,-64.94140625,-317.87109375,0.0
1734584998.494625,-36.1328125,-29.296875,-55.17578125,-330.078125,0.0
1734584998.4985313,-50.78125,-28.3203125,-63.4765625,-311.5234375,0.0
1734584998.5024376,-44.43359375,-37.59765625,-73.2421875,-305.6640625,0.0
1734584998.5063438,-8.7890625,-42.48046875,-64.94140625,-264.6484375,0.0
1734584998.496739,-20.01953125,-30.76171875,-56.15234375,-249.0234375,0.0
1734584998.5006452,-46.875,-34.1796875,-56.15234375,-263.18359375,0.0
1734584998.5045514,-10.25390625,-32.2265625,-54.6875,-292.96875,0.0
1734584998.5084577,39.55078125,-29.78515625,-44.43359375,-283.69140625,0.0
1734584998.512364,13.18359375,-36.62109375,-37.109375,-246.58203125,0.0
1734584998.51627,-27.34375,-38.0859375,-41.9921875,-232.421875,0.0
1734584998.5201762,-3.90625,-35.64453125,-49.8046875,-236.328125,0.0
1734584998.5240824,-6.8359375,-37.109375,-35.64453125,-219.23828125,0.0
1734584998.5279887,-17.08984375,-35.64453125,-20.01953125,-152.34375,0.0
1734584998.531895,32.71484375,-36.62109375,-23.92578125,-161.62109375,0.0
1734584998.5358012,47.8515625,-38.0859375,-42.48046875,-134.765625,0.0
1734584998.5397074,-20.01953125,-40.0390625,-30.2734375,-111.328125,0.0
1734584998.540388,-29.296875,-43.9453125,-19.53125,-144.53125,0.0
1734584998.5442944,-17.578125,-37.109375,-29.296875,-117.67578125,0.0
1734584998.5482006,1.953125,-36.62109375,-23.92578125,-92.7734375,0.0
1734584998.5521069,-20.01953125,-43.45703125,-18.5546875,-100.09765625,0.0
1734584998.556013,-33.203125,-42.96875,-19.53125,-70.3125,0.0
1734584998.559919,-1.953125,-44.43359375,-25.390625,-35.15625,0.0
1734584998.5638254,7.32421875,-45.41015625,-19.53125,-52.734375,0.0
1734584998.5677316,-9.27734375,-38.0859375,1.46484375,13.18359375,0.0
1734584998.5716379,15.13671875,-29.296875,-0.48828125,9.765625,0.0
1734584998.575544,53.22265625,-27.83203125,-11.71875,-39.0625,0.0
1734584998.5794504,32.2265625,-33.69140625,-2.44140625,-10.25390625,0.0
1734584998.5833566,21.97265625,-31.25,6.34765625,-11.23046875,0.0
1734584998.5986686,-27.83203125,-30.76171875,3.41796875,-1.953125,0.0
1734584998.6025748,-26.3671875,-33.203125,-3.41796875,25.87890625,0.0
1734584998.606481,-5.37109375,-33.203125,-2.44140625,13.671875,0.0
1734584998.6103873,-22.4609375,-39.55078125,4.8828125,14.6484375,0.0
1734584998.6142936,-33.203125,-42.48046875,7.32421875,15.625,0.0
1734584998.6181998,-0.9765625,-37.109375,15.13671875,13.671875,0.0
1734584998.622106,48.33984375,-31.73828125,27.83203125,33.69140625,0.0
1734584998.6260123,30.2734375,-32.71484375,28.80859375,23.4375,0.0
1734584998.6299186,59.5703125,-34.66796875,23.92578125,-3.90625,0.0
1734584998.6338248,7.8125,-34.1796875,26.3671875,15.625,0.0
1734584998.637731,-42.96875,-38.57421875,43.9453125,47.8515625,0.0
1734584998.6416373,1.953125,-38.57421875,53.22265625,63.4765625,0.0
1734584998.6445482,-10.7421875,-32.2265625,39.0625,26.3671875,0.0
1734584998.6484544,-43.45703125,-29.296875,22.4609375,19.53125,0.0
1734584998.6523607,-40.0390625,-35.15625,38.0859375,16.11328125,0.0
1734584998.656267,20.5078125,-33.69140625,48.33984375,41.50390625,0.0
1734584998.6601732,39.0625,-22.94921875,55.17578125,66.89453125,0.0
1734584998.6640794,-12.6953125,-25.87890625,60.546875,11.23046875,0.0
1734584998.6679857,-22.94921875,-33.69140625,52.24609375,-59.08203125,0.0
1734584998.671892,-10.7421875,-21.97265625,54.6875,-56.15234375,0.0
1734584998.6757982,-29.296875,-23.92578125,50.29296875,-71.2890625,0.0
1734584998.6797044,-31.25,-28.80859375,48.828125,-68.84765625,0.0
1734584998.6836107,-0.48828125,-24.4140625,60.546875,-36.1328125,0.0
1734584998.687517,5.37109375,-22.94921875,58.10546875,-48.33984375,0.0
1734584998.690851,-8.7890625,-25.390625,58.59375,-51.7578125,0.0
1734584998.6947572,-8.7890625,-27.83203125,57.6171875,-32.71484375,0.0
1734584998.6986635,-16.11328125,-32.2265625,60.05859375,-22.4609375,0.0
1734584998.7025697,-18.5546875,-27.83203125,59.5703125,-5.859375,0.0
1734584998.706476,-16.11328125,-23.92578125,47.8515625,-48.33984375,0.0
1734584998.7103822,-13.18359375,-27.34375,50.78125,-24.90234375,0.0
1734584998.7142885,4.8828125,-22.94921875,61.5234375,4.8828125,0.0
1734584998.7181947,8.7890625,-27.34375,56.640625,-14.6484375,0.0
1734584998.722101,65.4296875,-27.83203125,48.828125,-8.30078125,0.0
1734584998.7260072,-6.8359375,-26.3671875,68.359375,-18.5546875,0.0
1734584998.7299135,-47.8515625,-32.2265625,73.73046875,-15.625,0.0
1734584998.7338197,-9.27734375,-37.109375,71.2890625,3.41796875,0.0
1734584998.7354097,25.390625,-30.2734375,77.63671875,19.04296875,0.0
1734584998.739316,24.4140625,-23.92578125,73.2421875,14.16015625,0.0
1734584998.7432222,-19.53125,-24.4140625,70.3125,9.765625,0.0
1734584998.7471285,16.6015625,-25.87890625,72.75390625,-29.78515625,0.0
1734584998.7510347,33.69140625,-22.94921875,78.125,-28.80859375,0.0
1734584998.754941,-9.27734375,-28.3203125,82.51953125,50.78125,0.0
1734584998.7588472,28.80859375,-30.2734375,77.63671875,16.11328125,0.0
1734584998.7627535,15.625,-24.90234375,63.4765625,-34.1796875,0.0
1734584998.7666597,-44.921875,-27.83203125,59.5703125,16.11328125,0.0
1734584998.770566,-37.109375,-34.66796875,71.77734375,16.11328125,0.0
1734584998.7744722,-40.52734375,-31.25,71.77734375,18.5546875,0.0
1734584998.7783785,-1.46484375,-27.34375,63.4765625,8.7890625,0.0
1734584998.8068292,20.99609375,-25.390625,53.22265625,-16.6015625,0.0
1734584998.8107355,-20.99609375,-14.16015625,58.59375,-5.859375,0.0
1734584998.8146417,-20.01953125,-7.8125,66.89453125,-20.5078125,0.0
1734584998.818548,2.9296875,-8.30078125,60.05859375,-24.4140625,0.0
1734584998.8224542,-5.859375,-11.23046875,62.5,3.41796875,0.0
1734584998.8263605,-9.765625,-16.11328125,65.4296875,30.76171875,0.0
1734584998.8302667,-15.625,-15.13671875,57.6171875,38.0859375,0.0
1734584998.834173,5.859375,-11.23046875,55.17578125,-0.9765625,0.0
1734584998.8380792,0.48828125,-9.27734375,74.70703125,-9.765625,0.0
1734584998.8419855,-27.83203125,-5.859375,89.84375,42.96875,0.0
1734584998.8458917,-13.671875,-2.9296875,87.890625,9.765625,0.0
1734584998.849798,-15.13671875,0.0,87.890625,-11.23046875,0.0
1734584998.827928,-17.08984375,11.71875,94.7265625,-6.34765625,0.0
1734584998.8318343,-2.44140625,20.99609375,97.16796875,21.484375,0.0
1734584998.8357406,11.23046875,20.01953125,102.05078125,14.16015625,0.0
1734584998.8396468,16.11328125,16.6015625,125.48828125,-26.85546875,0.0
1734584998.843553,-25.87890625,17.08984375,135.7421875,-6.34765625,0.0
1734584998.8474593,-27.83203125,22.4609375,129.39453125,-20.01953125,0.0
1734584998.8513656,67.87109375,30.76171875,125.48828125,-38.0859375,0.0
1734584998.8552716,51.7578125,37.109375,130.37109375,39.0625,0.0
1734584998.8591778,-12.20703125,31.73828125,134.27734375,10.25390625,0.0
1734584998.863084,6.34765625,26.85546875,138.671875,-46.875,0.0
1734584998.8669903,-0.9765625,25.87890625,153.80859375,-32.71484375,0.0
1734584998.8708966,-6.34765625,21.484375,159.1796875,-45.41015625,0.0
1734584998.8703613,23.92578125,18.5546875,157.71484375,-0.48828125,0.0
1734584998.8742676,61.03515625,20.5078125,152.83203125,-42.48046875,0.0
1734584998.8781738,82.51953125,21.97265625,146.484375,-68.359375,0.0
1734584998.88208,83.0078125,19.53125,147.94921875,-40.0390625,0.0
1734584998.8859863,110.3515625,19.04296875,153.80859375,-11.71875,0.0
1734584998.8898926,86.9140625,25.390625,145.01953125,23.4375,0.0
1734584998.8937988,42.48046875,26.3671875,129.39453125,-6.8359375,0.0
1734584998.897705,31.25,20.99609375,132.8125,-38.0859375,0.0
1734584998.9016113,-22.4609375,16.11328125,136.23046875,-16.6015625,0.0
1734584998.9055176,-28.80859375,15.13671875,126.953125,6.34765625,0.0
1734584998.9094238,-12.6953125,20.99609375,128.41796875,56.15234375,0.0
1734584998.91333,-7.8125,18.5546875,135.25390625,70.3125,0.0
1734584998.928607,3.41796875,11.23046875,124.0234375,22.4609375,0.0
1734584998.9325132,42.96875,4.39453125,113.28125,45.8984375,0.0
1734584998.9364195,23.92578125,6.8359375,113.76953125,44.43359375,0.0
1734584998.9403257,0.48828125,4.8828125,122.55859375,24.4140625,0.0
1734584998.944232,32.2265625,1.953125,133.30078125,33.69140625,0.0
1734584998.9481382,60.546875,5.859375,104.98046875,23.4375,0.0
1734584998.9520445,62.01171875,0.48828125,84.9609375,2.9296875,0.0
1734584998.9559507,20.99609375,-0.48828125,112.79296875,-3.90625,0.0
1734584998.959857,43.9453125,9.765625,121.58203125,62.98828125,0.0
1734584998.9637632,25.390625,6.34765625,117.1875,54.19921875,0.0
1734584998.9676695,-42.48046875,-1.46484375,117.1875,4.39453125,0.0
1734584998.9715757,-41.015625,-1.953125,115.234375,-35.64453125,0.0
1734584998.974833,0.9765625,-11.71875,114.2578125,-16.11328125,0.0
1734584998.9787393,-6.34765625,-20.5078125,105.95703125,22.4609375,0.0
1734584998.9826455,-13.18359375,-15.625,118.1640625,5.859375,0.0
1734584998.9865518,-27.34375,-20.5078125,125.0,-44.921875,0.0
1734584998.990458,-72.75390625,-20.5078125,114.74609375,-85.9375,0.0
1734584998.9943643,-50.29296875,-13.671875,105.46875,-101.5625,0.0
1734584998.9982705,-40.52734375,-16.6015625,108.88671875,-122.55859375,0.0
1734584999.0021768,-33.203125,-13.18359375,116.2109375,-66.89453125,0.0
1734584999.006083,-20.01953125,-15.13671875,126.953125,-89.84375,0.0
1734584999.0099893,-11.23046875,-15.13671875,107.421875,-165.52734375,0.0
1734584999.0138955,-19.04296875,-21.97265625,107.421875,-142.08984375,0.0
1734584999.0178018,-47.36328125,-27.34375,119.62890625,-141.6015625,0.0
1734584999.047084,-8.7890625,-27.34375,104.00390625,-122.55859375,0.0
1734584999.0509903,3.41796875,-31.73828125,94.23828125,-128.90625,0.0
1734584999.0548966,-6.34765625,-31.25,91.796875,-164.55078125,0.0
1734584999.0588028,1.46484375,-29.78515625,91.796875,-151.85546875,0.0
1734584999.0627093,0.48828125,-29.78515625,94.7265625,-163.0859375,0.0
1734584999.0666156,-2.44140625,-30.76171875,97.65625,-141.11328125,0.0
1734584999.0705218,-24.4140625,-28.80859375,98.14453125,-98.6328125,0.0
1734584999.074428,-25.87890625,-22.94921875,98.14453125,-141.6015625,0.0
1734584999.0783343,4.8828125,-33.203125,96.19140625,-147.4609375,0.0
1734584999.0822406,15.625,-38.57421875,96.6796875,-84.47265625,0.0
1734584999.0861468,-13.18359375,-29.296875,98.14453125,-59.5703125,0.0
1734584999.090053,-27.34375,-30.76171875,96.6796875,-47.36328125,0.0
1734584999.0684428,0.0,-35.15625,0.0,-58.10546875,0.0
1734584999.072349,0.0,-30.76171875,0.0,-103.02734375,0.0
1734584999.0762553,0.0,-37.109375,0.0,-127.44140625,0.0
1734584999.0801616,0.0,-41.9921875,0.0,-82.51953125,0.0
1734584999.0840678,0.0,-27.34375,0.0,-40.0390625,0.0
1734584999.087974,0.0,-27.83203125,0.0,-77.63671875,0.0
1734584999.0918803,0.0,-29.296875,0.0,-74.21875,0.0
1734584999.0957866,0.0,-19.53125,0.0,-61.03515625,0.0
1734584999.0996928,0.0,-31.25,0.0,-66.40625,0.0
1734584999.103599,0.0,-30.2734375,0.0,-10.7421875,0.0
1734584999.1075053,0.0,-43.9453125,0.0,-41.50390625,0.0
1734584999.1114116,0.0,-22.4609375,0.0,-68.84765625,0.0
1734584999.1100852,-18.06640625,-2.44140625,47.36328125,-60.05859375,0.0
1734584999.1139915,-75.1953125,-10.25390625,47.8515625,-84.9609375,0.0
1734584999.1178977,-69.82421875,68.359375,46.38671875,-120.1171875,0.0
1734584999.121804,-72.75390625,30.76171875,66.40625,-126.46484375,0.0
1734584999.1257102,18.5546875,-74.70703125,60.546875,-85.9375,0.0
1734584999.1296165,-35.64453125,-23.4375,48.33984375,-50.78125,0.0
1734584999.1335227,-48.828125,25.87890625,33.69140625,-92.28515625,0.0
1734584999.1374288,25.87890625,-55.6640625,36.62109375,-69.3359375,0.0
1734584999.141335,36.1328125,-50.78125,74.70703125,-90.8203125,0.0
1734584999.1452413,-30.76171875,-29.296875,87.40234375,-139.16015625,0.0
1734584999.1491475,-42.48046875,-39.0625,50.78125,-94.23828125,0.0
1734584999.1530538,-46.38671875,-41.015625,47.8515625,-112.79296875,0.0
1734584999.155262,-21.97265625,-36.62109375,72.75390625,-115.234375,0.0
1734584999.1591682,-11.23046875,-10.7421875,43.9453125,-40.0390625,0.0
1734584999.1630745,14.16015625,-15.13671875,18.5546875,-69.82421875,0.0
1734584999.1669807,4.39453125,-30.76171875,22.4609375,-95.703125,0.0
1734584999.170887,-42.96875,-28.3203125,21.484375,-78.125,0.0
1734584999.1747932,-33.203125,-23.4375,11.71875,-52.24609375,0.0
1734584999.1786995,-3.41796875,-22.4609375,18.5546875,-22.4609375,0.0
1734584999.1826057,-2.9296875,-30.76171875,16.6015625,-87.40234375,0.0
1734584999.186512,-55.17578125,-34.1796875,21.97265625,-85.9375,0.0
1734584999.1904182,-19.53125,-31.25,32.2265625,-46.875,0.0
1734584999.1943245,33.69140625,-24.90234375,17.578125,-40.0390625,0.0
1734584999.1982307,-53.7109375,-27.83203125,12.20703125,-66.89453125,0.0
1734584999.199871,0.0,-32.71484375,21.97265625,-70.3125,0.0
1734584999.2037773,0.0,-24.90234375,20.01953125,-41.9921875,0.0
1734584999.2076836,0.0,-28.80859375,4.8828125,-17.578125,0.0
1734584999.2115898,0.0,-41.50390625,10.25390625,-33.69140625,0.0
1734584999.215496,0.0,-41.9921875,18.5546875,-32.71484375,0.0
1734584999.2194023,0.0,-37.109375,17.578125,3.90625,0.0
1734584999.2233086,0.0,-34.1796875,5.859375,-4.8828125,0.0
1734584999.2272148,0.0,-37.59765625,-7.8125,-24.90234375,0.0
1734584999.231121,0.0,-41.50390625,3.41796875,-28.80859375,0.0
1734584999.2350273,0.0,-31.73828125,-0.9765625,-6.34765625,0.0
1734584999.2389336,0.0,-29.78515625,-6.34765625,26.3671875,0.0
1734584999.2428398,0.0,-40.0390625,0.0,-20.01953125,0.0
1734584999.2446558,-34.66796875,-37.59765625,0.9765625,-23.4375,0.0
1734584999.248562,-45.41015625,-38.57421875,4.8828125,45.41015625,0.0
1734584999.2524683,-18.06640625,-43.9453125,-0.9765625,65.91796875,0.0
1734584999.2563746,-47.36328125,-39.0625,-5.859375,23.4375,0.0
1734584999.2602806,-34.1796875,-41.50390625,0.0,5.37109375,0.0
1734584999.2641869,-52.734375,-41.9921875,12.6953125,30.2734375,0.0
1734584999.268093,-13.18359375,-41.015625,-6.34765625,51.26953125,0.0
1734584999.2719994,55.17578125,-42.96875,-4.8828125,63.4765625,0.0
1734584999.2759056,-3.41796875,-38.57421875,4.8828125,67.3828125,0.0
1734584999.2798119,-42.48046875,-41.015625,-8.30078125,53.7109375,0.0
1734584999.283718,-30.2734375,-39.55078125,-15.625,54.6875,0.0
1734584999.2876244,-40.52734375,-31.73828125,-7.8125,48.33984375,0.0
1734584999.2902286,-40.52734375,-31.25,-1.953125,73.73046875,0.0
1734584999.2941349,-28.3203125,-36.1328125,-6.34765625,95.21484375,0.0
1734584999.298041,8.7890625,-40.0390625,-1.46484375,62.01171875,0.0
1734584999.3019474,-35.64453125,-44.921875,-8.30078125,52.734375,0.0
1734584999.3058536,-96.19140625,-43.9453125,-6.34765625,74.21875,0.0
1734584999.3097599,-32.71484375,-32.2265625,-5.859375,123.53515625,0.0
1734584999.313666,20.5078125,-37.59765625,-34.1796875,113.76953125,0.0
1734584999.3175724,-28.80859375,-44.921875,-28.80859375,59.5703125,0.0
1734584999.3214786,-72.75390625,-45.8984375,-9.27734375,68.359375,0.0
1734584999.3253846,-58.59375,-41.015625,-20.01953125,118.1640625,0.0
1734584999.3292909,-34.1796875,-37.59765625,-7.8125,122.55859375,0.0
1734584999.333197,-70.80078125,-44.921875,3.90625,107.91015625,0.0
1734584999.349219,-27.34375,-40.0390625,-16.11328125,61.5234375,0.0
1734584999.3531253,20.01953125,-38.0859375,-30.2734375,38.0859375,0.0
1734584999.3570316,-77.63671875,-50.78125,-22.94921875,86.42578125,0.0
1734584999.3609378,-23.92578125,-46.875,-7.8125,135.7421875,0.0
1734584999.364844,-22.94921875,-34.1796875,-15.625,108.3984375,0.0
1734584999.3687503,-60.546875,-27.83203125,-23.4375,72.75390625,0.0
1734584999.3726566,-55.17578125,-35.15625,-12.20703125,102.05078125,0.0
1734584999.3765628,-50.29296875,-40.52734375,-2.44140625,67.3828125,0.0
1734584999.380469,-9.765625,-37.109375,5.37109375,96.6796875,0.0
1734584999.3843753,-34.1796875,-28.3203125,-12.20703125,89.35546875,0.0
1734584999.3882813,-23.92578125,-20.99609375,-29.78515625,77.63671875,0.0
1734584999.3921876,-51.26953125,-25.87890625,-10.25390625,62.98828125,0.0
1734584999.3956933,0.0,-40.0390625,0.9765625,62.5,0.0
1734584999.3995996,0.0,-42.48046875,-20.5078125,76.66015625,0.0
1734584999.4035058,0.0,-38.0859375,-9.27734375,78.61328125,0.0
1734584999.407412,0.0,-39.55078125,-12.6953125,32.71484375,0.0
1734584999.4113183,0.0,-36.1328125,-17.578125,10.7421875,0.0
1734584999.4152246,0.0,-32.71484375,-2.44140625,68.84765625,0.0
1734584999.4191308,0.0,-35.64453125,0.0,80.56640625,0.0
1734584999.4230368,0.0,-34.1796875,-8.7890625,37.59765625,0.0
1734584999.426943,0.0,-30.2734375,-17.578125,9.27734375,0.0
1734584999.4308493,0.0,-37.109375,-5.37109375,24.4140625,0.0
1734584999.4347556,0.0,-38.0859375,7.32421875,26.3671875,0.0
1734584999.4386618,0.0,-33.69140625,-18.5546875,26.3671875,0.0
1734584999.4405756,-48.33984375,-31.73828125,-28.80859375,58.10546875,0.0
1734584999.4444818,-35.15625,-24.90234375,-18.06640625,-6.34765625,0.0
1734584999.448388,-52.734375,-28.3203125,-3.41796875,-55.6640625,0.0
1734584999.4522943,-52.24609375,-29.296875,-1.46484375,24.4140625,0.0
1734584999.4562006,-30.76171875,-25.390625,-27.34375,29.296875,0.0
1734584999.4601068,-4.8828125,-26.85546875,-24.90234375,7.8125,0.0
1734584999.464013,9.765625,-25.390625,-14.16015625,14.16015625,0.0
1734584999.4679193,46.38671875,-22.94921875,-19.04296875,-26.85546875,0.0
1734584999.4718256,-22.4609375,-18.06640625,-41.9921875,-17.08984375,0.0
1734584999.4757318,-49.8046875,-27.83203125,-25.390625,-1.46484375,0.0
1734584999.479638,-23.4375,-30.2734375,-4.8828125,18.06640625,0.0
1734584999.4835443,-40.52734375,-28.3203125,-11.23046875,-6.34765625,0.0
1734584999.4861476,-26.85546875,-21.97265625,-12.6953125,-33.203125,0.0
1734584999.490054,7.8125,-28.80859375,-9.765625,-21.97265625,0.0
1734584999.4939601,-15.13671875,-37.59765625,-10.25390625,-11.71875,0.0
1734584999.4978664,14.16015625,-31.25,-19.53125,16.11328125,0.0
1734584999.5017726,-20.01953125,-31.73828125,-18.5546875,11.23046875,0.0
1734584999.505679,-53.22265625,-28.80859375,-17.578125,-27.83203125,0.0
1734584999.5095851,-11.23046875,-15.13671875,-13.18359375,-38.0859375,0.0
1734584999.5134914,-54.19921875,11.71875,-33.203125,-41.015625,0.0
1734584999.5173976,-45.8984375,-4.39453125,-29.78515625,0.0,0.0
1734584999.521304,4.8828125,-52.734375,-0.9765625,-2.9296875,0.0
1734584999.5252101,-37.59765625,13.671875,-23.92578125,-36.62109375,0.0
1734584999.5291164,-50.78125,12.6953125,-25.87890625,-12.20703125,0.0
1734584999.5305367,9.27734375,-62.98828125,-2.44140625,46.38671875,0.0
1734584999.534443,65.4296875,-61.03515625,-0.48828125,49.8046875,0.0
1734584999.5383492,16.11328125,-13.18359375,-25.87890625,15.625,0.0
1734584999.5422554,-55.6640625,-14.16015625,-38.0859375,-29.78515625,0.0
1734584999.5461617,-34.1796875,-46.38671875,-8.7890625,-17.08984375,0.0
1734584999.550068,-12.20703125,-57.12890625,-12.6953125,37.109375,0.0
1734584999.5539742,50.78125,-52.734375,-24.4140625,38.0859375,0.0
1734584999.5578804,68.359375,-48.828125,-23.4375,19.04296875,0.0
1734584999.5617867,-28.80859375,-34.1796875,-11.23046875,7.8125,0.0
1734584999.565693,-48.33984375,1.46484375,-14.6484375,-17.578125,0.0
1734584999.5695992,-13.671875,-37.59765625,-32.71484375,-33.69140625,0.0
1734584999.5735054,15.13671875,-43.9453125,-43.45703125,3.90625,0.0
1734584999.5756695,44.43359375,-15.13671875,-33.69140625,-9.27734375,0.0
1734584999.5795758,45.8984375,-56.15234375,-15.13671875,-13.18359375,0.0
1734584999.583482,28.80859375,-46.875,-14.6484375,9.765625,0.0
1734584999.5873883,68.359375,-20.5078125,-25.390625,-13.18359375,0.0
1734584999.5912945,43.45703125,-29.78515625,-14.6484375,37.59765625,0.0
1734584999.5952008,6.8359375,-27.83203125,-7.8125,35.64453125,0.0
1734584999.599107,-42.96875,-32.71484375,-21.484375,-44.43359375,0.0
1734584999.6030133,-22.94921875,-26.3671875,-30.76171875,-16.6015625,0.0
1734584999.6069195,6.8359375,-30.76171875,-25.87890625,-28.3203125,0.0
1734584999.6108258,45.41015625,-31.25,-25.87890625,-20.99609375,0.0
1734584999.614732,62.5,-21.97265625,-27.83203125,35.15625,0.0
1734584999.6186383,41.50390625,-24.4140625,-33.203125,24.90234375,0.0
1734584999.6335983,-23.4375,-34.66796875,-13.18359375,-20.01953125,0.0
1734584999.6375046,-29.78515625,-28.80859375,3.41796875,-37.59765625,0.0
1734584999.6414108,-6.34765625,-24.90234375,-42.96875,-2.44140625,0.0
1734584999.645317,15.625,-24.4140625,-43.45703125,19.53125,0.0
1734584999.6492233,64.94140625,-21.97265625,-29.296875,18.5546875,0.0
1734584999.6531296,-8.7890625,-37.59765625,-34.66796875,33.69140625,0.0
1734584999.6570358,-28.80859375,-29.78515625,-51.26953125,34.66796875,0.0
1734584999.660942,43.45703125,-32.2265625,-41.9921875,34.1796875,0.0
1734584999.6648483,-11.23046875,-42.48046875,-19.04296875,65.91796875,0.0
1734584999.6687546,-62.98828125,-42.48046875,-27.83203125,63.4765625,0.0
1734584999.6726608,-60.05859375,-44.43359375,-34.66796875,36.1328125,0.0
1734584999.676567,-52.24609375,-47.8515625,-30.2734375,15.13671875,0.0
1734584999.6670177,-25.87890625,-42.48046875,-23.92578125,20.99609375,0.0
1734584999.670924,-8.30078125,-31.25,-24.4140625,25.87890625,0.0
1734584999.6748302,18.06640625,-26.3671875,-40.52734375,-4.39453125,0.0
1734584999.6787364,-7.8125,-52.734375,-40.0390625,-29.296875,0.0
1734584999.6826427,-34.1796875,-65.4296875,-41.015625,-2.9296875,0.0
1734584999.686549,24.4140625,-41.015625,-52.734375,19.04296875,0.0
1734584999.690455,-20.01953125,-32.2265625,-44.43359375,53.22265625,0.0
1734584999.6943612,-23.4375,-40.52734375,-39.55078125,84.47265625,0.0
1734584999.6982675,-13.18359375,-50.29296875,-41.9921875,48.828125,0.0
1734584999.7021737,-25.87890625,-42.96875,-54.19921875,41.015625,0.0
1734584999.70608,10.25390625,-32.71484375,-53.22265625,59.08203125,0.0
1734584999.7099862,19.53125,-41.015625,-33.69140625,37.59765625,0.0
1734584999.724346,13.18359375,-34.1796875,-48.33984375,32.71484375,0.0
1734584999.7282522,9.765625,-33.203125,-41.015625,43.9453125,0.0
1734584999.7321584,-18.06640625,-33.203125,-20.01953125,9.27734375,0.0
1734584999.7360647,36.62109375,-27.34375,-45.8984375,31.73828125,0.0
1734584999.739971,38.57421875,-44.921875,-41.50390625,72.265625,0.0
1734584999.7438772,-32.71484375,-47.36328125,-32.71484375,40.52734375,0.0
1734584999.7477834,15.13671875,-30.76171875,-39.55078125,25.390625,0.0
1734584999.7516897,13.18359375,-32.2265625,-44.921875,5.859375,0.0
1734584999.755596,-51.26953125,-46.38671875,-45.41015625,0.48828125,0.0
1734584999.7595022,-11.71875,-53.22265625,-48.33984375,20.99609375,0.0
1734584999.7634084,11.71875,-45.8984375,-36.62109375,25.390625,0.0
1734584999.7673147,13.18359375,-41.015625,-30.76171875,18.5546875,0.0
1734584999.770848,21.484375,-32.2265625,-43.9453125,-48.33984375,0.0
1734584999.7747543,0.0,-34.1796875,-37.109375,-55.6640625,0.0
1734584999.7786605,67.3828125,-40.52734375,-21.484375,-28.3203125,0.0
1734584999.7825668,43.45703125,-33.203125,-27.34375,-25.87890625,0.0
1734584999.786473,-10.25390625,-38.0859375,-30.2734375,-24.4140625,0.0
1734584999.7903793,-4.39453125,-42.48046875,-32.71484375,-66.89453125,0.0
1734584999.7942855,42.96875,-39.0625,-28.80859375,-45.41015625,0.0
1734584999.7981918,58.10546875,-40.52734375,-23.4375,-47.8515625,0.0
