timestamps,TP9,AF7,AF8,TP10,Right AUX
1734409911.521376,161.1328125,109.86328125,75.68359375,-960.9375,0.0
1734409911.5252821,71.2890625,-297.36328125,-83.984375,917.96875,0.0
1734409911.5291882,-97.16796875,-123.53515625,-14.16015625,-328.125,0.0
1734409911.5330942,-159.66796875,195.3125,98.14453125,-1000.0,0.0
1734409911.5370002,-3.41796875,-116.69921875,-64.94140625,-180.17578125,0.0
1734409911.5409062,146.97265625,-425.29296875,-136.71875,966.30859375,0.0
1734409911.5448124,109.375,-50.78125,33.69140625,-969.7265625,0.0
1734409911.5487185,-57.12890625,328.61328125,140.13671875,-63.4765625,0.0
1734409911.5526245,-168.9453125,115.72265625,34.66796875,-1000.0,0.0
1734409911.5565305,-31.73828125,-537.109375,-195.80078125,-359.375,0.0
1734409911.5604365,137.6953125,-218.26171875,8.7890625,912.109375,0.0
1734409911.5652854,144.53125,156.25,126.46484375,-890.13671875,0.0
1734409911.5691915,-21.484375,-310.546875,-94.7265625,43.45703125,0.0
1734409911.5730975,-138.671875,-173.33984375,-65.4296875,-1000.0,0.0
1734409911.5770035,-18.06640625,77.63671875,4.39453125,-353.515625,0.0
1734409911.5809095,132.8125,129.39453125,69.82421875,743.65234375,0.0
1734409911.5848157,149.90234375,-264.6484375,-101.07421875,-861.81640625,0.0
1734409911.5887218,-18.5546875,-571.2890625,-215.8203125,161.1328125,0.0
1734409911.5926278,-155.2734375,79.58984375,99.609375,-1000.0,0.0
1734409911.5965338,-51.7578125,293.9453125,101.07421875,-789.0625,0.0
1734409911.6004398,118.65234375,-84.9609375,-38.0859375,522.4609375,0.0
1734409911.604346,144.04296875,-73.73046875,17.08984375,-813.4765625,0.0
1734409911.608252,-1.953125,286.1328125,98.14453125,189.453125,0.0
1734409911.6125815,-129.39453125,182.6171875,49.31640625,-1000.0,0.0
1734409911.6164875,-74.21875,-116.69921875,-58.10546875,-943.84765625,0.0
1734409911.6203935,85.9375,21.484375,14.6484375,286.62109375,0.0
1734409911.6242995,138.671875,354.00390625,166.50390625,-793.9453125,0.0
1734409911.6282055,-7.32421875,252.9296875,47.36328125,268.5546875,0.0
1734409911.6321118,-141.6015625,-395.01953125,-195.80078125,-1000.0,0.0
1734409911.6360178,-100.5859375,-630.859375,-196.2890625,-1000.0,0.0
1734409911.6399238,81.0546875,-31.73828125,62.98828125,96.6796875,0.0
1734409911.6438298,159.1796875,266.11328125,111.81640625,-809.08203125,0.0
1734409911.6477358,10.7421875,-453.125,-191.40625,427.734375,0.0
1734409911.651642,-155.2734375,-444.82421875,-95.21484375,-875.0,0.0
1734409911.655548,-136.23046875,244.140625,162.59765625,-1000.0,0.0
1734409911.6589723,59.5703125,-40.0390625,15.13671875,-87.40234375,0.0
1734409911.6628783,168.9453125,-105.95703125,8.30078125,-852.5390625,0.0
1734409911.6667843,57.6171875,311.03515625,117.1875,588.8671875,0.0
1734409911.6706903,-109.86328125,299.8046875,116.69921875,-736.328125,0.0
1734409911.6745963,-125.48828125,-52.734375,-10.25390625,-1000.0,0.0
1734409911.6785026,58.59375,-358.3984375,-132.32421875,-145.5078125,0.0
1734409911.6824086,185.546875,-71.2890625,44.921875,-909.1796875,0.0
1734409911.6863146,86.9140625,400.87890625,210.44921875,784.66796875,0.0
1734409911.6902206,-82.03125,-183.59375,-133.7890625,-497.55859375,0.0
1734409911.6941266,-118.1640625,-872.0703125,-428.22265625,-1000.0,0.0
1734409911.6980329,45.8984375,-67.87109375,27.34375,-213.8671875,0.0
1734409911.7019389,166.50390625,410.15625,184.08203125,-961.9140625,0.0
1734409911.7050073,100.09765625,58.59375,-3.41796875,914.55078125,0.0
1734409911.7089133,-60.546875,-124.51171875,-49.8046875,-306.15234375,0.0
1734409911.7128193,-140.13671875,21.97265625,50.78125,-1000.0,0.0
1734409911.7167256,19.04296875,97.65625,36.62109375,-283.203125,0.0
1734409911.7206316,180.6640625,-69.3359375,17.08984375,966.796875,0.0
1734409911.7245376,118.65234375,-313.96484375,-22.94921875,-959.9609375,0.0
1734409911.7284436,-62.5,-223.14453125,3.90625,-50.29296875,0.0
1734409911.7323496,-148.4375,21.484375,30.76171875,-1000.0,0.0
1734409911.736256,-8.7890625,-537.109375,-245.1171875,-378.41796875,0.0
1734409911.740162,159.66796875,-342.28515625,-70.80078125,907.2265625,0.0
1734409911.744068,126.46484375,344.23828125,173.828125,-903.80859375,0.0
1734409911.747974,-36.1328125,-145.99609375,-118.1640625,84.9609375,0.0
1734409911.7506015,-143.5546875,-507.32421875,-261.23046875,-1000.0,0.0
1734409911.7545075,-41.015625,-313.4765625,-129.39453125,-618.1640625,0.0
1734409911.7584136,135.25390625,175.78125,98.6328125,709.47265625,0.0
1734409911.7623196,141.6015625,124.51171875,50.78125,-848.6328125,0.0
1734409911.7662256,-26.3671875,-104.4921875,-51.7578125,141.6015625,0.0
1734409911.7701318,-128.90625,-182.12890625,-23.4375,-1000.0,0.0
1734409911.7740378,-35.64453125,-65.4296875,67.87109375,-799.31640625,0.0
1734409911.7779438,124.0234375,-148.4375,-108.3984375,504.39453125,0.0
1734409911.7818499,161.62109375,-568.359375,-219.7265625,-812.01171875,0.0
1734409911.7857559,4.8828125,45.8984375,113.76953125,189.94140625,0.0
1734409911.7896621,-128.41796875,267.578125,88.8671875,-1000.0,0.0
1734409911.7935681,-44.921875,-63.4765625,-21.97265625,-948.73046875,0.0
1734409911.8023958,140.13671875,87.890625,41.50390625,308.10546875,0.0
1734409911.8063018,180.17578125,416.50390625,147.4609375,-851.5625,0.0
1734409911.810208,36.62109375,115.72265625,-4.39453125,189.94140625,0.0
1734409911.814114,-101.07421875,-234.375,-126.46484375,-983.88671875,0.0
1734409911.81802,-66.40625,-24.90234375,-3.90625,-1000.0,0.0
1734409911.821926,109.86328125,4.39453125,27.34375,81.54296875,0.0
1734409911.8258321,191.40625,-133.7890625,16.6015625,-813.4765625,0.0
1734409911.8297384,57.6171875,-602.5390625,-234.375,447.75390625,0.0
1734409911.8336444,-99.12109375,-504.39453125,-191.89453125,-857.421875,0.0
1734409911.8375504,-94.23828125,242.1875,139.16015625,-1000.0,0.0
1734409911.8414564,80.078125,183.59375,37.109375,-88.37890625,0.0
1734409911.8453627,181.640625,35.64453125,40.0390625,-857.91015625,0.0
1734409911.8461206,72.265625,-101.07421875,-7.8125,618.1640625,0.0
1734409911.8500268,-88.37890625,-34.66796875,16.11328125,-705.56640625,0.0
1734409911.8539329,-125.0,-46.875,-1.953125,-1000.0,0.0
1734409911.8578389,43.9453125,-67.87109375,-57.6171875,-165.52734375,0.0
1734409911.8617449,165.52734375,232.91015625,62.98828125,-914.0625,0.0
1734409911.865651,71.2890625,-5.859375,13.671875,790.0390625,0.0
1734409911.8695571,-80.078125,-525.390625,-228.515625,-493.1640625,0.0
1734409911.8734632,-123.53515625,-522.4609375,-237.3046875,-1000.0,0.0
1734409911.8773692,33.69140625,144.04296875,85.9375,-219.23828125,0.0
1734409911.8812752,178.22265625,423.828125,179.6875,-980.46875,0.0
1734409911.8851814,109.375,-262.6953125,-166.015625,958.984375,0.0
1734409911.8890874,-60.546875,-686.03515625,-319.82421875,-222.65625,0.0
1734409911.8903553,-146.97265625,99.12109375,115.234375,-1000.0,0.0
1734409911.8942614,0.0,319.3359375,94.23828125,-290.0390625,0.0
1734409911.8981676,163.0859375,63.4765625,49.31640625,966.30859375,0.0
1734409911.9020736,118.65234375,159.66796875,111.81640625,-955.56640625,0.0
1734409911.9059796,-44.921875,264.6484375,59.08203125,-39.0625,0.0
1734409911.9098856,-133.7890625,-80.078125,-7.32421875,-1000.0,0.0
1734409911.9137917,-3.90625,-653.3203125,-243.1640625,-389.16015625,0.0
1734409911.9176977,155.2734375,-474.609375,-158.203125,898.92578125,0.0
1734409911.921604,131.8359375,117.1875,122.0703125,-899.4140625,0.0
1734409911.92551,-38.0859375,20.01953125,-5.37109375,100.5859375,0.0
1734409911.929416,-147.4609375,-19.53125,5.859375,-1000.0,0.0
1734409911.933322,-31.73828125,201.66015625,81.54296875,-625.48828125,0.0
1734409911.9348083,140.13671875,16.11328125,-0.48828125,704.1015625,0.0
1734409911.9387143,141.6015625,-229.98046875,-35.15625,-847.16796875,0.0
1734409911.9426203,-29.296875,-116.69921875,-47.36328125,145.01953125,0.0
1734409911.9465265,-155.76171875,101.5625,29.296875,-1000.0,0.0
1734409911.9504325,-68.359375,227.5390625,81.0546875,-816.89453125,0.0
1734409911.9543386,118.65234375,-291.9921875,-185.05859375,483.88671875,0.0
1734409911.9582446,147.94921875,-677.734375,-278.3203125,-807.6171875,0.0
1734409911.9621506,-12.6953125,14.16015625,47.36328125,203.61328125,0.0
1734409911.9660566,-137.6953125,289.0625,101.07421875,-1000.0,0.0
1734409911.9699628,-92.28515625,-155.2734375,-39.55078125,-961.42578125,0.0
1734409911.9738688,70.3125,-214.35546875,-37.109375,254.39453125,0.0
1734409911.9777749,140.625,49.31640625,96.19140625,-794.43359375,0.0
1734409911.983467,3.41796875,152.83203125,70.3125,277.83203125,0.0
1734409911.987373,-151.3671875,-224.12109375,-104.00390625,-988.28125,0.0
1734409911.9912791,-123.046875,-268.06640625,-36.62109375,-1000.0,0.0
1734409911.9951851,78.61328125,257.32421875,126.953125,29.296875,0.0
1734409911.9990911,167.48046875,330.56640625,123.046875,-816.40625,0.0
1734409912.0029974,32.2265625,-233.88671875,-128.41796875,445.3125,0.0
1734409912.0069034,-123.046875,-342.28515625,-125.0,-865.234375,0.0
1734409912.0108094,-120.60546875,140.13671875,106.4453125,-1000.0,0.0
1734409912.0147154,66.40625,149.90234375,28.3203125,-102.5390625,0.0
1734409912.0186214,163.57421875,-352.05078125,-122.55859375,-861.81640625,0.0
1734409912.0225277,39.55078125,-163.57421875,-15.625,625.0,0.0
1734409912.0264337,-106.93359375,297.36328125,104.4921875,-695.3125,0.0
1734409912.0352032,-121.58203125,-176.7578125,-106.4453125,-1000.0,0.0
1734409912.0391092,41.50390625,-432.6171875,-177.734375,-170.41015625,0.0
1734409912.0430152,152.34375,-44.921875,31.25,-917.96875,0.0
1734409912.0469213,60.05859375,290.0390625,116.69921875,802.734375,0.0
1734409912.0508275,-98.6328125,-18.5546875,-48.828125,-481.4453125,0.0
1734409912.0547335,-145.01953125,-533.69140625,-298.828125,-1000.0,0.0
1734409912.0586395,5.859375,-270.01953125,-131.34765625,-197.75390625,0.0
1734409912.0625455,142.08984375,371.09375,197.265625,-980.46875,0.0
1734409912.0664515,88.37890625,-117.1875,-130.37109375,972.65625,0.0
1734409912.0703578,-79.58984375,-704.1015625,-378.90625,-182.12890625,0.0
1734409912.0742638,-161.62109375,-68.84765625,25.87890625,-1000.0,0.0
1734409912.0781698,-15.625,206.0546875,94.23828125,-301.7578125,0.0
1734409912.0810657,136.23046875,15.625,-13.671875,956.54296875,0.0
1734409912.0849717,93.75,72.265625,43.45703125,-940.91796875,0.0
1734409912.088878,-76.171875,291.9921875,91.30859375,0.0,0.0
1734409912.092784,-170.41015625,126.953125,21.484375,-1000.0,0.0
1734409912.09669,-37.109375,-177.734375,-79.58984375,-394.53125,0.0
1734409912.100596,125.0,-226.07421875,-43.9453125,896.97265625,0.0
1734409912.104502,118.65234375,62.01171875,101.5625,-897.94921875,0.0
1734409912.1084082,-37.59765625,144.04296875,30.2734375,109.86328125,0.0
1734409912.1123142,-161.1328125,-323.73046875,-160.64453125,-1000.0,0.0
1734409912.1162202,-56.640625,-155.76171875,-34.66796875,-624.51171875,0.0
1734409912.1201262,122.0703125,354.4921875,159.1796875,705.078125,0.0
1734409912.1240323,126.953125,243.65234375,65.91796875,-844.7265625,0.0
1734409912.1269574,0.0,-559.08203125,-252.44140625,172.8515625,0.0
1734409912.1308634,0.0,-450.68359375,-83.984375,-1000.0,0.0
1734409912.1347694,0.0,253.41796875,154.296875,-820.3125,0.0
1734409912.1386755,0.0,79.58984375,6.34765625,479.4921875,0.0
1734409912.1425817,0.0,-69.82421875,-31.73828125,-809.5703125,0.0
1734409912.1464877,0.0,-130.37109375,-47.36328125,229.98046875,0.0
1734409912.1503937,0.0,-143.5546875,21.97265625,-1000.0,0.0
1734409912.1542997,0.0,-415.52734375,-166.50390625,-954.58984375,0.0
1734409912.1582057,0.0,-675.29296875,-324.70703125,282.2265625,0.0
1734409912.162112,0.0,181.640625,115.234375,-794.43359375,0.0
1734409912.166018,0.0,322.265625,57.12890625,288.57421875,0.0
1734409912.169924,0.0,-282.2265625,-203.125,-977.05078125,0.0
1734409912.1726882,-123.53515625,-127.44140625,-39.55078125,-1000.0,0.0
1734409912.1765943,58.59375,302.734375,105.95703125,7.32421875,0.0
1734409912.1805003,144.04296875,317.3828125,91.796875,-819.3359375,0.0
1734409912.1844063,11.23046875,48.33984375,-3.41796875,454.58984375,0.0
1734409912.1883125,-134.765625,-52.734375,-14.6484375,-855.46875,0.0
1734409912.1922185,-108.88671875,-196.2890625,-47.8515625,-1000.0,0.0
1734409912.1961246,66.89453125,-174.8046875,-11.23046875,-117.1875,0.0
1734409912.2000306,154.78515625,-515.625,-159.1796875,-869.62890625,0.0
1734409912.2039366,48.33984375,-420.8984375,-140.625,651.3671875,0.0
1734409912.2078428,-104.98046875,89.84375,64.94140625,-667.96875,0.0
1734409912.2117488,-142.08984375,-217.7734375,-49.31640625,-1000.0,0.0
1734409912.2156549,21.484375,-143.5546875,-8.7890625,-171.875,0.0
1734409912.2184153,147.94921875,-65.91796875,34.66796875,-923.33984375,0.0
1734409912.2223213,46.875,178.22265625,106.93359375,819.82421875,0.0
1734409912.2262273,-111.81640625,-5.859375,-35.64453125,-450.1953125,0.0
1734409912.2301333,-156.25,-363.76953125,-145.01953125,-1000.0,0.0
1734409912.2340393,5.859375,112.79296875,49.31640625,-222.16796875,0.0
1734409912.2379456,160.15625,112.79296875,79.1015625,-991.69921875,0.0
1734409912.2418516,75.1953125,-430.6640625,-170.8984375,986.328125,0.0
1734409912.2457576,-110.83984375,-691.89453125,-372.0703125,-156.25,0.0
1734409912.2496636,-184.5703125,-25.390625,13.18359375,-1000.0,0.0
1734409912.2535696,-25.390625,389.6484375,159.1796875,-314.94140625,0.0
1734409912.2574756,148.4375,-66.40625,-8.7890625,950.68359375,0.0
1734409912.2613819,105.46875,-107.421875,0.0,-937.01171875,0.0
1734409912.2768312,-69.3359375,92.7734375,45.8984375,-837.890625,0.0
1734409912.2807374,-151.85546875,-48.828125,-27.83203125,449.70703125,0.0
1734409912.2846434,-22.94921875,-41.9921875,-20.01953125,-807.6171875,0.0
1734409912.2885494,131.8359375,175.78125,27.34375,237.3046875,0.0
1734409912.2924554,119.140625,349.12109375,74.21875,-1000.0,0.0
1734409912.2963617,-43.9453125,-15.625,-119.140625,-935.05859375,0.0
1734409912.3002677,-157.71484375,-663.57421875,-162.59765625,315.4296875,0.0
1734409912.3041737,-57.6171875,-518.06640625,165.0390625,-799.8046875,0.0
1734409912.3080797,124.51171875,358.88671875,147.4609375,320.80078125,0.0
1734409912.311986,146.97265625,248.53515625,-89.84375,-957.51953125,0.0
1734409912.315892,-26.3671875,-65.91796875,-116.2109375,-1000.0,0.0
1734409912.319798,-158.69140625,112.79296875,160.15625,23.4375,0.0
1734409912.3199282,-72.265625,37.109375,0.0,0.0,0.0
1734409912.3238342,95.703125,-235.83984375,0.0,0.0,0.0
1734409912.3277404,126.953125,-215.8203125,0.0,0.0,0.0
1734409912.3316464,-31.25,-56.640625,0.0,0.0,0.0
1734409912.3355525,-160.15625,144.53125,0.0,0.0,0.0
1734409912.3394585,-96.6796875,-200.1953125,0.0,0.0,0.0
1734409912.3433647,74.21875,-414.0625,0.0,0.0,0.0
1734409912.3472707,140.625,242.67578125,0.0,0.0,0.0
1734409912.3511767,-1.953125,458.0078125,0.0,0.0,0.0
1734409912.3550828,-148.92578125,-153.80859375,0.0,0.0,0.0
1734409912.3589888,-121.09375,-368.65234375,0.0,0.0,0.0
1734409912.362895,60.05859375,382.32421875,0.0,0.0,0.0
1734409912.3663454,154.296875,552.24609375,184.08203125,-829.58984375,0.0
1734409912.3702514,27.34375,-15.625,-25.390625,526.85546875,0.0
1734409912.3741574,-131.34765625,-84.47265625,5.859375,-789.55078125,0.0
1734409912.3780634,-116.69921875,287.59765625,100.5859375,-1000.0,0.0
1734409912.3819695,57.6171875,265.13671875,76.66015625,-120.1171875,0.0
1734409912.3858757,159.66796875,-419.921875,-211.42578125,-877.9296875,0.0
1734409912.3897817,52.24609375,-1000.0,-467.28515625,688.96484375,0.0
1734409912.3936877,-111.81640625,-358.88671875,-60.05859375,-630.37109375,0.0
1734409912.3975937,-131.34765625,64.94140625,68.359375,-1000.0,0.0
1734409912.4015,33.203125,-17.578125,3.90625,-176.26953125,0.0
1734409912.405406,157.71484375,276.85546875,149.4140625,-929.19921875,0.0
1734409912.409312,61.5234375,457.51953125,158.203125,836.42578125,0.0
1734409912.412209,-106.4453125,10.7421875,-19.53125,-427.734375,0.0
1734409912.416115,-153.3203125,-163.57421875,-56.15234375,-1000.0,0.0
1734409912.420021,-7.8125,256.34765625,108.88671875,-230.95703125,0.0
1734409912.423927,134.765625,427.734375,162.109375,999.0234375,0.0
1734409912.4278333,73.73046875,141.11328125,22.94921875,-994.62890625,0.0
1734409912.4317393,-89.35546875,-398.4375,-246.58203125,-124.51171875,0.0
1734409912.4356453,-170.41015625,-235.83984375,-121.58203125,-1000.0,0.0
1734409912.4395514,-25.87890625,350.09765625,184.5703125,-312.5,0.0
1734409912.4434574,144.04296875,-103.515625,-114.2578125,950.1953125,0.0
1734409912.4473636,97.65625,-635.7421875,-291.9921875,-931.15234375,0.0
1734409912.4512696,-84.47265625,70.80078125,109.375,26.3671875,0.0
1734409912.4551756,-201.66015625,311.03515625,114.2578125,-1000.0,0.0
1734409912.4576209,-63.96484375,-237.3046875,-88.37890625,-438.96484375,0.0
1734409912.461527,124.0234375,-174.31640625,2.44140625,862.79296875,0.0
1734409912.4654331,123.046875,392.578125,151.85546875,-886.23046875,0.0
1734409912.4693391,-37.109375,317.87109375,78.61328125,127.44140625,0.0
1734409912.4732451,-154.78515625,-180.6640625,-98.6328125,-1000.0,0.0
1734409912.4771512,-69.82421875,-504.39453125,-242.67578125,-630.37109375,0.0
1734409912.4810574,94.7265625,-117.67578125,-30.2734375,700.1953125,0.0
1734409912.4849634,128.41796875,303.22265625,116.2109375,-843.26171875,0.0
1734409912.4888694,-22.94921875,-408.203125,-231.4453125,188.4765625,0.0
1734409912.4927754,-166.50390625,-478.02734375,-172.36328125,-1000.0,0.0
1734409912.4966817,-81.0546875,290.52734375,145.01953125,-856.4453125,0.0
1734409912.5005877,105.46875,94.23828125,14.6484375,435.546875,0.0
1734409912.5027552,127.9296875,-264.6484375,-78.125,-804.19921875,0.0
1734409912.5066614,-34.1796875,-55.17578125,20.5078125,216.796875,0.0
1734409912.5105674,-174.8046875,260.25390625,107.91015625,-1000.0,0.0
1734409912.5144734,-109.375,-13.18359375,-25.87890625,-987.79296875,0.0
1734409912.5183794,72.265625,-107.421875,-72.75390625,206.0546875,0.0
1734409912.5222855,134.765625,-52.24609375,23.92578125,-796.875,0.0
1734409912.5261917,4.8828125,83.49609375,118.65234375,331.54296875,0.0
1734409912.5300977,-156.25,-135.7421875,-101.5625,-948.2421875,0.0
1734409912.5340037,-151.3671875,-703.61328125,-355.95703125,-1000.0,0.0
1734409912.5379097,40.0390625,10.7421875,32.71484375,-21.484375,0.0
1734409912.5418158,165.0390625,482.91015625,164.55078125,-830.078125,0.0
1734409912.545722,45.8984375,107.91015625,23.4375,510.25390625,0.0
1734409912.5480475,0.0,40.0390625,26.3671875,-809.5703125,0.0
1734409912.5519538,0.0,236.328125,88.8671875,-1000.0,0.0
1734409912.5558598,0.0,18.5546875,26.3671875,-114.74609375,0.0
1734409912.5597658,0.0,-53.7109375,76.171875,-879.39453125,0.0
1734409912.5636718,0.0,147.4609375,91.30859375,693.359375,0.0
1734409912.5675778,0.0,-98.6328125,-112.3046875,-618.65234375,0.0
1734409912.571484,0.0,-279.296875,-165.52734375,-1000.0,0.0
1734409912.57539,0.0,-594.7265625,-262.6953125,-169.921875,0.0
1734409912.579296,0.0,-408.203125,-126.953125,-937.01171875,0.0
1734409912.5832021,0.0,408.203125,172.36328125,866.69921875,0.0
1734409912.5871081,0.0,191.89453125,5.37109375,-377.44140625,0.0
1734409912.5910144,0.0,-265.625,-71.2890625,-1000.0,0.0
1734409912.593034,-3.41796875,-228.515625,17.578125,-218.75,0.0
1734409912.5969403,141.6015625,149.90234375,125.0,-995.60546875,0.0
1734409912.6008463,71.2890625,158.203125,24.4140625,-996.09375,0.0
1734409912.6047523,-91.30859375,-80.078125,-77.1484375,-117.67578125,0.0
1734409912.6086583,-171.38671875,-34.66796875,-6.34765625,-1000.0,0.0
1734409912.6125643,-31.25,-97.16796875,-6.34765625,-319.3359375,0.0
1734409912.6164703,145.99609375,-371.58203125,-127.44140625,946.2890625,0.0
1734409912.6203766,105.95703125,-595.21484375,-236.328125,-929.19921875,0.0
1734409912.6242826,-81.0546875,3.90625,42.96875,34.1796875,0.0
1734409912.6281886,-166.50390625,251.46484375,82.03125,-1000.0,0.0
1734409912.6320946,-40.52734375,-41.50390625,-40.0390625,-466.796875,0.0
1734409912.6360006,130.37109375,117.1875,50.78125,843.26171875,0.0
1734409912.6377347,129.39453125,487.79296875,168.9453125,-880.37109375,0.0
1734409912.6416407,-37.109375,322.265625,65.4296875,133.7890625,0.0
1734409912.6455467,-154.78515625,-80.56640625,-46.38671875,-1000.0,0.0
1734409912.6494527,-68.84765625,70.3125,46.38671875,-672.8515625,0.0
1734409912.6533587,97.16796875,340.8203125,103.02734375,658.203125,0.0
1734409912.6572647,131.34765625,91.30859375,52.734375,-835.9375,0.0
1734409912.661171,-43.9453125,-559.5703125,-248.046875,186.03515625,0.0
1734409912.665077,-175.29296875,-743.65234375,-356.4453125,-1000.0,0.0
1734409912.668983,-80.078125,10.7421875,20.99609375,-876.46484375,0.0
1734409912.672889,77.63671875,225.5859375,64.453125,400.87890625,0.0
1734409912.676795,110.3515625,40.52734375,31.73828125,-801.7578125,0.0
1734409912.6807013,-33.69140625,209.47265625,95.703125,246.09375,0.0
1734409912.682642,-168.45703125,40.52734375,16.11328125,-1000.0,0.0
1734409912.686548,-116.2109375,-347.16796875,-96.6796875,-993.65234375,0.0
1734409912.690454,62.5,-263.18359375,-44.43359375,210.44921875,0.0
1734409912.69436,141.6015625,263.18359375,140.13671875,-795.41015625,0.0
1734409912.698266,1.46484375,294.921875,92.7734375,331.54296875,0.0
1734409912.702172,-155.76171875,-411.1328125,-209.47265625,-951.66015625,0.0
1734409912.7060783,-138.671875,-641.6015625,-255.859375,-1000.0,0.0
1734409912.7099843,44.43359375,76.66015625,90.8203125,-23.92578125,0.0
1734409912.7138903,141.6015625,494.140625,173.828125,-835.44921875,0.0
1734409912.7177963,15.13671875,6.8359375,-50.29296875,533.69140625,0.0
1734409912.7217023,-145.99609375,-416.9921875,-190.4296875,-784.1796875,0.0
1734409912.7256083,-148.4375,40.52734375,21.97265625,-1000.0,0.0
1734409912.7363515,38.0859375,372.55859375,137.20703125,-127.44140625,0.0
1734409912.7402575,152.34375,273.4375,153.80859375,-895.01953125,0.0
1734409912.7441635,42.48046875,261.23046875,135.25390625,744.62890625,0.0
1734409912.7480698,-107.91015625,435.05859375,144.04296875,-552.734375,0.0
1734409912.7519758,-148.92578125,372.55859375,119.62890625,-1000.0,0.0
1734409912.7558818,-8.30078125,-76.171875,-51.7578125,-170.8984375,0.0
1734409912.7597878,121.09375,-61.03515625,14.16015625,-945.3125,0.0
1734409912.7636938,57.12890625,418.9453125,189.453125,897.94921875,0.0
1734409912.7676,-101.5625,319.3359375,58.59375,-326.171875,0.0
1734409912.771506,-184.08203125,-427.24609375,-174.31640625,-1000.0,0.0
1734409912.775412,-37.109375,-215.33203125,4.39453125,-233.88671875,0.0
1734409912.779318,121.58203125,432.6171875,172.36328125,992.1875,0.0
1734409912.7832437,67.87109375,-36.62109375,-3.41796875,-974.609375,0.0
1734409912.78715,-110.83984375,-386.71875,-157.2265625,-73.2421875,0.0
1734409912.791056,-195.80078125,-36.62109375,-13.18359375,-1000.0,0.0
1734409912.794962,-35.15625,366.69921875,142.578125,-319.3359375,0.0
1734409912.798868,118.1640625,196.2890625,21.484375,947.265625,0.0
1734409912.802774,77.63671875,-240.72265625,-112.3046875,-925.78125,0.0
1734409912.8066802,-83.0078125,-275.390625,-77.1484375,51.26953125,0.0
1734409912.8105862,-189.453125,57.6171875,82.51953125,-1000.0,0.0
1734409912.8144922,-66.40625,-170.8984375,-103.02734375,-480.95703125,0.0
1734409912.8183982,116.69921875,-310.05859375,-152.83203125,835.44921875,0.0
1734409912.8223042,114.74609375,246.09375,123.046875,-877.44140625,0.0
1734409912.8262105,-47.36328125,372.55859375,117.67578125,134.27734375,0.0
1734409912.8298302,-149.90234375,-398.4375,-215.8203125,-1000.0,0.0
1734409912.8337362,-62.5,-687.98828125,-285.15625,-688.96484375,0.0
1734409912.8376422,106.4453125,242.67578125,139.16015625,639.16015625,0.0
1734409912.8415484,132.8125,193.359375,86.9140625,-832.51953125,0.0
1734409912.8454545,-30.76171875,-169.43359375,-73.2421875,179.19921875,0.0
1734409912.8493605,-163.0859375,-307.6171875,-108.3984375,-1000.0,0.0
1734409912.8532665,-99.12109375,-149.90234375,31.73828125,-879.8828125,0.0
1734409912.8571725,83.49609375,273.4375,125.9765625,393.06640625,0.0
1734409912.8610787,125.0,-400.390625,-169.921875,-799.8046875,0.0
1734409912.8649848,-17.08984375,-412.109375,-109.86328125,244.140625,0.0
1734409912.8688908,-143.06640625,345.703125,156.73828125,-1000.0,0.0
1734409912.8727968,-113.28125,51.26953125,4.8828125,-1000.0,0.0
1734409912.8760796,62.01171875,-433.59375,-196.77734375,130.859375,0.0
1734409912.8799856,131.8359375,-167.48046875,-47.8515625,-796.38671875,0.0
1734409912.8838918,-5.859375,308.10546875,126.953125,341.796875,0.0
1734409912.8877978,-155.2734375,-48.828125,-31.25,-940.4296875,0.0
1734409912.8917038,-152.34375,-361.81640625,-132.8125,-1000.0,0.0
1734409912.8956099,35.15625,-327.63671875,-180.17578125,-54.6875,0.0
1734409912.8995159,150.390625,-242.67578125,-39.0625,-841.796875,0.0
1734409912.903422,31.25,-460.44921875,-158.203125,548.33984375,0.0
1734409912.9073281,-123.046875,-736.328125,-374.0234375,-769.04296875,0.0
1734409912.9112341,-149.90234375,-104.98046875,19.04296875,-1000.0,0.0
1734409912.9151402,32.2265625,250.9765625,130.859375,-133.30078125,0.0
1734409912.9190462,168.9453125,8.30078125,32.71484375,-896.97265625,0.0
1734409912.9220042,0.0,71.77734375,0.0,750.0,0.0
1734409912.9259105,0.0,300.29296875,0.0,-546.38671875,0.0
1734409912.9298165,0.0,196.77734375,0.0,-1000.0,0.0
1734409912.9337225,0.0,-211.42578125,0.0,-184.08203125,0.0
1734409912.9376285,0.0,-142.578125,0.0,-945.80078125,0.0
1734409912.9415345,0.0,-52.734375,0.0,886.23046875,0.0
1734409912.9454408,0.0,-255.859375,0.0,-340.8203125,0.0
1734409912.9493468,0.0,-633.7890625,0.0,-1000.0,0.0
1734409912.9532528,0.0,-580.078125,0.0,-251.46484375,0.0
1734409912.9571588,0.0,36.1328125,0.0,987.79296875,0.0
1734409912.9610648,0.0,82.51953125,0.0,-980.95703125,0.0
1734409912.964971,0.0,-75.68359375,0.0,-87.40234375,0.0
1734409912.9676826,-183.10546875,-210.9375,7.8125,-1000.0,0.0
1734409912.9715886,-52.734375,75.68359375,91.30859375,-345.21484375,0.0
1734409912.9754949,101.07421875,164.0625,50.78125,929.6875,0.0
1734409912.9794009,77.63671875,-1.46484375,32.2265625,-916.015625,0.0
1734409912.983307,-85.44921875,175.29296875,47.36328125,66.40625,0.0
1734409912.987213,-179.6875,-87.40234375,-19.04296875,-1000.0,0.0
1734409912.991119,-48.828125,-505.859375,-165.52734375,-502.9296875,0.0
1734409912.995025,110.83984375,-634.27734375,-230.95703125,818.84765625,0.0
1734409912.9989312,115.234375,59.5703125,100.5859375,-872.55859375,0.0
1734409913.0028372,-44.921875,420.41015625,142.08984375,142.578125,0.0
1734409913.0067432,-164.0625,-73.73046875,-74.21875,-1000.0,0.0
1734409913.0106492,-50.78125,-320.3125,-131.34765625,-685.546875,0.0
1734409913.0128858,125.48828125,82.51953125,82.51953125,642.578125,0.0
1734409913.0167918,152.83203125,356.4453125,156.73828125,-832.51953125,0.0
1734409913.020698,2.9296875,69.82421875,-6.8359375,201.66015625,0.0
1734409913.024604,-136.23046875,-56.15234375,-17.578125,-1000.0,0.0
1734409913.02851,-74.21875,74.70703125,42.48046875,-898.92578125,0.0
1734409913.032416,92.7734375,-10.7421875,32.2265625,368.1640625,0.0
1734409913.036322,147.4609375,-586.9140625,-221.19140625,-799.31640625,0.0
1734409913.0402284,1.953125,-565.4296875,-241.69921875,262.20703125,0.0
1734409913.0441344,-152.83203125,157.71484375,115.72265625,-1000.0,0.0
1734409913.0480404,-120.60546875,109.86328125,29.78515625,-1000.0,0.0
1734409913.0519464,53.22265625,-160.15625,-46.38671875,167.48046875,0.0
1734409913.0558524,133.30078125,88.8671875,72.265625,-799.31640625,0.0
1734409913.0608406,0.0,50.29296875,16.11328125,368.1640625,0.0
1734409913.0647466,0.0,-323.73046875,-87.890625,-924.31640625,0.0
1734409913.0686526,0.0,-399.90234375,-104.00390625,-1000.0,0.0
1734409913.0725586,0.0,46.38671875,49.8046875,-37.109375,0.0
1734409913.076465,0.0,467.28515625,172.8515625,-852.05078125,0.0
1734409913.080371,0.0,-161.62109375,-118.1640625,598.14453125,0.0
1734409913.084277,0.0,-644.53125,-239.2578125,-708.49609375,0.0
1734409913.088183,0.0,24.90234375,95.703125,-1000.0,0.0
1734409913.092089,0.0,473.6328125,166.015625,-138.671875,0.0
1734409913.0959952,0.0,148.92578125,17.08984375,-895.5078125,0.0
1734409913.0999012,0.0,-9.27734375,-35.15625,745.1171875,0.0
1734409913.1038072,0.0,216.30859375,91.796875,-554.19921875,0.0
1734409913.109421,-138.18359375,155.76171875,81.54296875,-1000.0,0.0
1734409913.113327,29.296875,-35.64453125,-27.34375,-193.84765625,0.0
1734409913.1172333,152.34375,103.02734375,41.015625,-955.56640625,0.0
1734409913.1211393,62.98828125,356.4453125,116.2109375,910.64453125,0.0
1734409913.1250453,-97.16796875,156.73828125,44.921875,-309.5703125,0.0
1734409913.1289513,-158.203125,-361.81640625,-141.11328125,-1000.0,0.0
1734409913.1328573,-5.859375,-492.67578125,-152.83203125,-234.86328125,0.0
1734409913.1367636,139.6484375,41.015625,118.65234375,990.72265625,0.0
1734409913.1406696,83.49609375,351.5625,104.00390625,-973.14453125,0.0
1734409913.1445756,-75.68359375,-344.7265625,-171.38671875,-56.640625,0.0
1734409913.1484816,-161.1328125,-340.33203125,-51.26953125,-1000.0,0.0
1734409913.1523876,-32.71484375,304.6875,136.71875,-362.79296875,0.0
1734409913.1571224,0.0,-7.8125,12.6953125,919.921875,0.0
1734409913.1610284,0.0,-169.921875,-18.06640625,-911.62109375,0.0
1734409913.1649344,0.0,94.23828125,50.78125,74.70703125,0.0
1734409913.1688404,0.0,208.0078125,106.4453125,-1000.0,0.0
1734409913.1727467,0.0,-81.54296875,-61.5234375,-528.80859375,0.0
1734409913.1766527,0.0,-573.73046875,-225.5859375,825.68359375,0.0
1734409913.1805587,0.0,-174.31640625,20.99609375,-924.8046875,0.0
1734409913.1844647,0.0,111.81640625,77.1484375,52.24609375,0.0
1734409913.1883707,0.0,-507.8125,-227.5390625,-1000.0,0.0
1734409913.192277,0.0,-722.16796875,-309.08203125,-737.79296875,0.0
1734409913.196183,0.0,148.92578125,128.41796875,582.51953125,0.0
1734409913.200089,0.0,459.47265625,167.48046875,-822.75390625,0.0
1734409913.21619,-29.296875,-199.21875,-70.80078125,196.77734375,0.0
1734409913.2200963,-160.64453125,-247.55859375,-14.6484375,-1000.0,0.0
1734409913.2240024,-83.984375,273.4375,115.234375,-918.9453125,0.0
1734409913.2279084,94.23828125,315.91796875,98.14453125,363.28125,0.0
1734409913.2318146,142.578125,48.33984375,84.9609375,-854.4921875,0.0
1734409913.2357206,-17.578125,-253.41796875,-37.59765625,186.03515625,0.0
1734409913.2396266,-165.0390625,-259.765625,-40.52734375,-990.72265625,0.0
1734409913.2435327,-122.55859375,50.29296875,67.87109375,-1000.0,0.0
1734409913.247439,59.5703125,-437.5,-205.56640625,115.72265625,0.0
1734409913.251345,126.46484375,-430.6640625,-104.4921875,-806.640625,0.0
1734409913.255251,-11.71875,190.4296875,110.3515625,409.66796875,0.0
1734409913.259157,-156.73828125,-199.21875,-70.3125,-896.484375,0.0
1734409913.259444,-142.578125,-387.6953125,-101.07421875,-1000.0,0.0
1734409913.2633502,35.64453125,63.96484375,39.0625,-52.734375,0.0
1734409913.2672563,151.85546875,450.68359375,168.45703125,-849.609375,0.0
1734409913.2711623,31.25,98.6328125,10.25390625,583.49609375,0.0
1734409913.2750683,-139.6484375,-138.671875,-91.796875,-733.3984375,0.0
1734409913.2789745,-143.06640625,-192.3828125,-25.87890625,-1000.0,0.0
1734409913.2828805,26.3671875,57.12890625,100.5859375,-138.18359375,0.0
1734409913.2867866,137.6953125,-58.59375,-78.61328125,-904.296875,0.0
1734409913.2906926,50.29296875,-290.0390625,-185.546875,774.4140625,0.0
1734409913.2945988,-111.328125,200.1953125,106.93359375,-514.16015625,0.0
1734409913.2985048,-152.83203125,257.32421875,98.14453125,-1000.0,0.0
1734409913.3024108,7.8125,-201.66015625,-55.6640625,-199.70703125,0.0
1734409913.3028355,137.6953125,-220.21484375,5.859375,-958.49609375,0.0
1734409913.3067417,72.265625,48.33984375,92.7734375,915.0390625,0.0
1734409913.3106477,-92.28515625,27.34375,33.69140625,-299.31640625,0.0
1734409913.3145537,-159.66796875,-249.0234375,-66.40625,-1000.0,0.0
1734409913.3184597,-9.27734375,-173.828125,-25.390625,-260.7421875,0.0
1734409913.322366,140.625,8.7890625,60.05859375,982.91015625,0.0
1734409913.326272,84.47265625,-96.6796875,68.359375,-977.05078125,0.0
1734409913.330178,-93.75,-509.765625,-247.55859375,-73.2421875,0.0
1734409913.334084,-191.89453125,-981.4453125,-429.19921875,-1000.0,0.0
1734409913.33799,-56.640625,-75.68359375,77.1484375,-388.18359375,0.0
1734409913.3418963,117.1875,310.546875,145.01953125,902.83203125,0.0
1734409913.3458023,97.65625,68.84765625,46.38671875,-907.2265625,0.0
1734409913.3508832,-54.19921875,-71.77734375,1.46484375,68.359375,0.0
1734409913.3547893,-171.875,3.90625,42.96875,-1000.0,0.0
1734409913.3586953,-71.2890625,166.9921875,44.921875,-556.15234375,0.0
1734409913.3626013,110.83984375,17.578125,-12.20703125,770.5078125,0.0
1734409913.3665075,113.28125,76.171875,93.26171875,-860.3515625,0.0
1734409913.3704135,-54.6875,13.671875,81.0546875,146.97265625,0.0
1734409913.3743196,-162.109375,-366.2109375,-140.625,-1000.0,0.0
1734409913.3782256,-63.4765625,-650.390625,-270.99609375,-770.01953125,0.0
1734409913.3821318,112.79296875,56.15234375,69.82421875,543.9453125,0.0
1734409913.3860378,153.80859375,572.75390625,185.546875,-816.89453125,0.0
1734409913.3899438,-10.25390625,122.55859375,-21.484375,196.2890625,0.0
1734409913.3938498,-150.390625,-13.18359375,-2.44140625,-1000.0,0.0
1734409913.394129,0.0,345.21484375,140.625,-929.19921875,0.0
1734409913.398035,0.0,421.38671875,128.41796875,318.359375,0.0
1734409913.401941,0.0,-19.53125,-9.27734375,-794.921875,0.0
1734409913.405847,0.0,-82.03125,7.8125,262.6953125,0.0
1734409913.409753,0.0,218.75,86.42578125,-1000.0,0.0
1734409913.4136593,0.0,-118.1640625,-30.2734375,-1000.0,0.0
1734409913.4175653,0.0,-481.93359375,-165.52734375,109.86328125,0.0
1734409913.4214714,0.0,-155.76171875,-9.27734375,-806.15234375,0.0
1734409913.4253774,0.0,360.3515625,155.76171875,401.3671875,0.0
1734409913.4292836,0.0,250.0,65.4296875,-901.3671875,0.0
1734409913.4331896,0.0,-554.19921875,-222.65625,-1000.0,0.0
1734409913.4370956,0.0,-376.46484375,-107.421875,-49.31640625,0.0
1734409913.4375646,174.8046875,239.74609375,156.73828125,-853.02734375,0.0
1734409913.4414706,49.31640625,-138.18359375,-24.4140625,604.98046875,0.0
1734409913.4453766,-113.76953125,-114.2578125,-24.4140625,-709.9609375,0.0
1734409913.4492826,-128.90625,153.80859375,94.23828125,-1000.0,0.0
1734409913.453189,50.29296875,312.5,120.60546875,-155.76171875,0.0
1734409913.457095,174.31640625,-101.5625,-72.265625,-905.2734375,0.0
1734409913.461001,60.546875,-678.7109375,-301.26953125,767.578125,0.0
1734409913.464907,-111.81640625,-132.8125,-16.11328125,-525.390625,0.0
1734409913.468813,-147.4609375,257.8125,131.8359375,-1000.0,0.0
1734409913.4727192,19.04296875,-73.73046875,-34.1796875,-202.63671875,0.0
1734409913.4766252,155.76171875,21.97265625,36.1328125,-964.35546875,0.0
1734409913.4805312,89.84375,402.34375,148.92578125,926.7578125,0.0
1734409913.4856856,-72.75390625,317.3828125,80.078125,-274.90234375,0.0
1734409913.4895916,-148.4375,-139.6484375,-61.5234375,-1000.0,0.0
1734409913.4934976,-11.71875,-79.58984375,-7.8125,-274.90234375,0.0
1734409913.4974036,136.23046875,384.27734375,169.921875,970.703125,0.0
1734409913.5013099,87.40234375,362.3046875,119.62890625,-958.0078125,0.0
1734409913.505216,-76.66015625,-197.75390625,-106.93359375,-32.71484375,0.0
1734409913.509122,-162.59765625,-349.12109375,-76.66015625,-1000.0,0.0
1734409913.513028,-39.0625,231.4453125,150.390625,-392.08984375,0.0
1734409913.516934,122.55859375,403.3203125,114.2578125,899.90234375,0.0
1734409913.5208402,103.02734375,-311.03515625,-118.1640625,-900.390625,0.0
1734409913.5247462,-68.359375,-297.8515625,-51.26953125,90.8203125,0.0
1734409913.5286522,-179.19921875,199.70703125,107.91015625,-1000.0,0.0
1734409913.5333698,0.0,-160.64453125,0.0,0.0,0.0
1734409913.5372758,0.0,-425.29296875,0.0,0.0,0.0
1734409913.5411818,0.0,52.734375,0.0,0.0,0.0
1734409913.5450878,0.0,404.296875,0.0,0.0,0.0
1734409913.548994,0.0,-113.76953125,0.0,0.0,0.0
1734409913.5529,0.0,-657.71484375,0.0,0.0,0.0
1734409913.556806,0.0,-119.62890625,0.0,0.0,0.0
1734409913.560712,0.0,515.13671875,0.0,0.0,0.0
1734409913.564618,0.0,-78.125,0.0,0.0,0.0
1734409913.5685244,0.0,-716.30859375,0.0,0.0,0.0
1734409913.5724304,0.0,15.13671875,0.0,0.0,0.0
1734409913.5763364,0.0,423.33984375,0.0,0.0,0.0
1734409913.5797312,138.18359375,90.8203125,49.8046875,-794.921875,0.0
1734409913.5836372,-9.27734375,83.984375,80.56640625,278.3203125,0.0
1734409913.5875435,-154.78515625,91.796875,43.9453125,-988.28125,0.0
1734409913.5914495,-112.79296875,-228.02734375,-55.17578125,-1000.0,0.0
1734409913.5953555,49.8046875,-176.7578125,43.9453125,44.43359375,0.0
1734409913.5992615,116.69921875,-191.89453125,43.9453125,-810.546875,0.0
1734409913.6031675,-3.90625,-136.71875,0.9765625,409.66796875,0.0
1734409913.6070738,-149.90234375,92.28515625,57.6171875,-892.578125,0.0
1734409913.6109798,-133.7890625,-524.4140625,-248.53515625,-1000.0,0.0
1734409913.6148858,45.8984375,-443.359375,-199.70703125,-99.12109375,0.0
1734409913.6187918,153.3203125,404.78515625,192.87109375,-857.421875,0.0
1734409913.6226978,45.41015625,206.0546875,50.78125,601.5625,0.0
1734409913.6260529,-119.62890625,-488.76953125,-223.14453125,-717.28515625,0.0
1734409913.6299589,-135.7421875,-355.46875,-78.61328125,-1000.0,0.0
1734409913.6338649,41.015625,338.8671875,173.33984375,-166.9921875,0.0
1734409913.6377711,157.2265625,131.34765625,24.90234375,-915.0390625,0.0
1734409913.6416771,63.4765625,-280.2734375,-96.19140625,795.41015625,0.0
1734409913.6455832,-102.05078125,-196.77734375,-22.94921875,-487.79296875,0.0
1734409913.6494892,-146.97265625,-171.875,25.87890625,-1000.0,0.0
1734409913.6533952,16.6015625,-439.453125,-135.25390625,-194.82421875,0.0
1734409913.6573014,150.390625,-615.72265625,-218.75,-964.35546875,0.0
1734409913.6612074,79.1015625,57.6171875,107.91015625,936.03515625,0.0
1734409913.6651134,-78.61328125,331.54296875,119.62890625,-257.8125,0.0
1734409913.6690195,-149.4140625,-34.1796875,-9.765625,-1000.0,0.0
1734409913.6719513,-11.71875,31.25,39.55078125,-290.52734375,0.0
1734409913.6758573,129.39453125,468.26171875,160.64453125,963.8671875,0.0
1734409913.6797633,79.1015625,401.3671875,115.234375,-955.078125,0.0
1734409913.6836693,-87.890625,40.0390625,-15.13671875,-40.0390625,0.0
1734409913.6875756,-184.08203125,-4.8828125,-32.71484375,-1000.0,0.0
1734409913.6914816,-52.24609375,-87.890625,2.44140625,-419.921875,0.0
1734409913.6953876,114.2578125,-37.109375,78.125,879.39453125,0.0
1734409913.6992936,100.09765625,-445.3125,-163.57421875,-896.484375,0.0
1734409913.7031996,-59.08203125,-774.4140625,-329.58984375,84.47265625,0.0
1734409913.7071056,-167.96875,-7.32421875,41.015625,-1000.0,0.0
1734409913.711012,-59.5703125,185.05859375,66.89453125,-621.58203125,0.0
1734409913.714918,110.3515625,51.7578125,29.78515625,707.03125,0.0
1734409913.7179954,0.0,-24.4140625,70.80078125,-845.703125,0.0
1734409913.7219014,0.0,-19.04296875,54.6875,155.76171875,0.0
1734409913.7258074,0.0,-24.4140625,14.16015625,-1000.0,0.0
1734409913.7297134,0.0,-79.1015625,-15.13671875,-811.5234375,0.0
1734409913.7336197,0.0,230.95703125,90.8203125,492.67578125,0.0
1734409913.7375257,0.0,62.01171875,91.30859375,-809.5703125,0.0
1734409913.7414317,0.0,-403.80859375,-142.08984375,205.078125,0.0
1734409913.7453377,0.0,-692.87109375,-333.984375,-1000.0,0.0
1734409913.7492437,0.0,-39.55078125,25.390625,-945.80078125,0.0
1734409913.75315,0.0,533.203125,200.68359375,281.73828125,0.0
1734409913.757056,0.0,-84.47265625,-59.5703125,-795.8984375,0.0
1734409913.760962,0.0,-364.2578125,-114.2578125,291.50390625,0.0
1734409913.7678313,-157.2265625,218.75,128.41796875,-979.00390625,0.0
1734409913.7717376,-133.7890625,300.29296875,108.3984375,-1000.0,0.0
1734409913.7756436,46.38671875,30.2734375,6.34765625,23.4375,0.0
1734409913.7795496,139.6484375,131.8359375,95.21484375,-813.4765625,0.0
1734409913.7834556,3.41796875,313.96484375,109.375,422.36328125,0.0
1734409913.7873616,-159.1796875,-47.36328125,2.44140625,-880.37109375,0.0
1734409913.7912679,-157.71484375,-638.18359375,-217.28515625,-1000.0,0.0
1734409913.795174,10.7421875,-437.01171875,-165.0390625,-123.53515625,0.0
1734409913.79908,131.8359375,343.75,163.57421875,-864.2578125,0.0
1734409913.802986,39.0625,277.83203125,64.94140625,626.46484375,0.0
1734409913.806892,-121.58203125,-245.60546875,-139.6484375,-699.70703125,0.0
1734409913.8107982,-148.4375,-122.0703125,-33.203125,-1000.0,0.0
1734409913.8161128,23.92578125,17.08984375,40.52734375,-160.64453125,0.0
1734409913.8200188,157.71484375,-271.484375,-39.55078125,-916.50390625,0.0
1734409913.8239248,71.2890625,-155.2734375,-4.39453125,801.7578125,0.0
1734409913.8278308,-99.12109375,150.390625,69.82421875,-476.07421875,0.0
1734409913.831737,-154.296875,220.21484375,100.5859375,-1000.0,0.0
1734409913.835643,14.16015625,-322.265625,-146.97265625,-226.5625,0.0
1734409913.839549,155.2734375,-485.83984375,-179.19921875,-979.00390625,0.0
1734409913.843455,79.1015625,193.84765625,104.00390625,950.1953125,0.0
1734409913.847361,-82.51953125,353.02734375,125.48828125,-238.28125,0.0
1734409913.8512673,-154.78515625,-295.41015625,-169.43359375,-1000.0,0.0
1734409913.8551733,-27.34375,-811.03515625,-374.51171875,-311.5234375,0.0
1734409913.8590794,114.74609375,-127.9296875,53.7109375,951.66015625,0.0
1734409913.8750947,82.51953125,369.62890625,163.57421875,-1000.0,0.0
1734409913.8790007,-84.9609375,-173.828125,-78.125,-815.91796875,0.0
1734409913.8829067,-184.5703125,-251.953125,-6.8359375,482.421875,0.0
1734409913.8868127,-36.1328125,306.15234375,155.2734375,-808.10546875,0.0
1734409913.890719,121.58203125,146.484375,89.35546875,218.75,0.0
1734409913.894625,81.0546875,-402.34375,-96.6796875,-1000.0,0.0
1734409913.898531,-80.56640625,-357.91015625,-62.01171875,-984.86328125,0.0
1734409913.9024372,-192.87109375,153.3203125,131.34765625,223.14453125,0.0
1734409913.9063432,-88.8671875,220.703125,91.30859375,-792.48046875,0.0
1734409913.9102492,88.8671875,-476.5625,-171.875,306.15234375,0.0
1734409913.9141555,100.5859375,-355.95703125,-64.453125,-969.7265625,0.0
1734409913.9180615,-55.6640625,437.01171875,183.59375,-1000.0,0.0
1734409913.9267998,-160.15625,56.640625,47.8515625,0.0,0.0
1734409913.9307058,-79.58984375,-78.125,66.40625,0.0,0.0
1734409913.934612,92.7734375,425.78125,172.8515625,0.0,0.0
1734409913.938518,130.37109375,648.4375,208.0078125,0.0,0.0
1734409913.942424,-24.90234375,309.5703125,69.3359375,0.0,0.0
1734409913.9463303,-175.29296875,-249.0234375,-76.171875,0.0,0.0
1734409913.9502363,-125.48828125,-172.36328125,40.0390625,0.0,0.0
1734409913.9541423,80.078125,101.07421875,137.6953125,0.0,0.0
1734409913.9580486,165.52734375,-147.4609375,-26.85546875,0.0,0.0
1734409913.9619546,7.8125,-116.2109375,-37.59765625,0.0,0.0
1734409913.9658606,-142.578125,252.9296875,122.0703125,0.0,0.0
1734409913.9697669,-112.79296875,375.0,171.875,0.0,0.0
1734409913.968477,67.87109375,-210.9375,-106.93359375,0.0,0.0
1734409913.972383,153.3203125,-584.47265625,-207.03125,0.0,0.0
1734409913.976289,15.13671875,271.97265625,175.78125,0.0,0.0
1734409913.9801953,-122.0703125,342.7734375,104.4921875,0.0,0.0
1734409913.9841013,-133.30078125,-101.07421875,19.53125,0.0,0.0
1734409913.9880073,26.3671875,-260.7421875,6.34765625,0.0,0.0
1734409913.9919133,145.99609375,83.49609375,132.32421875,0.0,0.0
1734409913.9958196,36.1328125,319.3359375,102.5390625,0.0,0.0
1734409913.9997256,-125.9765625,-292.96875,-135.7421875,0.0,0.0
1734409914.0036316,-157.2265625,-419.43359375,-34.1796875,0.0,0.0
1734409914.0075378,11.23046875,136.23046875,121.58203125,0.0,0.0
1734409914.0114439,140.13671875,300.29296875,119.140625,0.0,0.0
1734409914.010974,48.828125,-202.63671875,-22.4609375,814.453125,0.0
1734409914.01488,-115.234375,-206.54296875,13.671875,-454.58984375,0.0
1734409914.018786,-162.109375,248.046875,143.5546875,-1000.0,0.0
1734409914.0226922,-4.39453125,123.046875,32.2265625,-247.0703125,0.0
1734409914.0265982,148.4375,-365.72265625,-42.96875,-992.67578125,0.0
1734409914.0305042,80.56640625,-303.7109375,39.0625,968.26171875,0.0
1734409914.0344102,-98.6328125,87.890625,121.09375,-203.125,0.0
1734409914.0383165,-164.0625,-147.4609375,-55.17578125,-1000.0,0.0
1734409914.0422225,-21.97265625,-627.9296875,-261.71875,-349.12109375,0.0
1734409914.0461285,140.13671875,-17.578125,74.21875,939.453125,0.0
1734409914.0500345,108.3984375,416.9921875,152.34375,-952.1484375,0.0
1734409914.0539408,-76.171875,-208.49609375,-88.37890625,-63.4765625,0.0
1734409914.058414,-180.17578125,-619.62890625,-123.046875,-1000.0,0.0
1734409914.0623202,-62.01171875,-40.52734375,89.84375,-533.69140625,0.0
1734409914.0662262,104.98046875,299.8046875,122.55859375,784.66796875,0.0
1734409914.0701323,113.28125,60.05859375,53.7109375,-875.9765625,0.0
1734409914.0740385,-57.12890625,-58.10546875,-3.41796875,59.08203125,0.0
1734409914.0779445,-181.15234375,-273.92578125,-121.09375,-1000.0,0.0
1734409914.0818505,-68.359375,-325.68359375,-83.0078125,-741.2109375,0.0
1734409914.0857565,102.5390625,-645.99609375,-225.09765625,561.5234375,0.0
1734409914.0896628,100.09765625,-497.55859375,-139.16015625,-824.70703125,0.0
1734409914.0935688,-57.6171875,247.55859375,149.90234375,119.62890625,0.0
1734409914.0974748,-169.921875,90.8203125,41.015625,-1000.0,0.0
1734409914.1013808,-89.84375,-136.71875,13.18359375,-924.8046875,0.0
1734409914.1008072,107.91015625,-173.33984375,39.0625,311.03515625,0.0
1734409914.1047134,139.6484375,133.30078125,104.98046875,-791.015625,0.0
1734409914.1086195,-27.83203125,68.359375,12.20703125,168.45703125,0.0
1734409914.1125255,-155.76171875,-346.6796875,-122.55859375,-1000.0,0.0
1734409914.1164315,-117.1875,-2.9296875,21.97265625,-1000.0,0.0
1734409914.1203375,69.3359375,94.7265625,91.796875,70.80078125,0.0
1734409914.1242437,146.484375,-333.0078125,-93.26171875,-791.50390625,0.0
1734409914.1281497,-6.34765625,-385.7421875,-152.34375,235.83984375,0.0
1734409914.1320558,-145.5078125,41.015625,82.51953125,-995.60546875,0.0
1734409914.1359618,-121.58203125,299.8046875,163.0859375,-1000.0,0.0
1734409914.139868,58.59375,-225.5859375,-141.11328125,-125.48828125,0.0
1734409914.143774,146.97265625,-651.3671875,-226.5625,-812.98828125,0.0
1734409914.1441774,3.90625,76.66015625,139.16015625,331.0546875,0.0
1734409914.1480837,-144.04296875,266.11328125,121.58203125,-949.21875,0.0
1734409914.1519897,-137.20703125,-99.12109375,-10.25390625,-1000.0,0.0
1734409914.1558957,41.9921875,40.0390625,38.57421875,-191.40625,0.0
1734409914.1598017,134.27734375,320.80078125,124.51171875,-932.6171875,0.0
1734409914.1637077,25.87890625,31.73828125,57.12890625,413.0859375,0.0
1734409914.167614,-123.046875,-638.671875,-262.20703125,-780.2734375,0.0
1734409914.17152,-173.828125,-637.20703125,-257.8125,-1000.0,0.0
1734409914.175426,3.90625,297.36328125,181.15234375,-285.64453125,0.0
1734409914.179332,154.78515625,299.31640625,87.890625,-913.57421875,0.0
1734409914.1832383,66.40625,-50.29296875,4.8828125,669.43359375,0.0
1734409914.1871443,-103.02734375,141.6015625,103.02734375,-669.43359375,0.0
1734409914.1876588,-145.01953125,-14.6484375,0.0,-1000.0,0.0
1734409914.1915648,3.41796875,-256.34765625,0.0,-400.390625,0.0
1734409914.195471,135.7421875,-75.1953125,0.0,983.88671875,0.0
1734409914.199377,66.89453125,191.89453125,0.0,808.59375,0.0
1734409914.203283,-112.3046875,235.3515625,0.0,-525.390625,0.0
1734409914.207189,-187.01171875,-326.171875,0.0,-1000.0,0.0
1734409914.211095,-37.109375,-758.30078125,0.0,-558.10546875,0.0
1734409914.215001,120.1171875,-18.06640625,0.0,797.36328125,0.0
1734409914.2189074,99.609375,284.1796875,0.0,984.86328125,0.0
1734409914.2228134,-56.15234375,-431.640625,0.0,-302.24609375,0.0
1734409914.2267194,-160.15625,-408.203125,0.0,-1000.0,0.0
1734409914.2306254,-42.96875,262.20703125,0.0,-708.0078125,0.0
1734409914.2360864,0.0,354.4921875,128.90625,590.8203125,0.0
1734409914.2399924,0.0,21.484375,33.203125,-868.1640625,0.0
1734409914.2438984,0.0,34.66796875,34.1796875,-53.7109375,0.0
1734409914.2478046,0.0,279.78515625,103.02734375,-1000.0,0.0
1734409914.2517107,0.0,268.5546875,81.54296875,-871.09375,0.0
1734409914.2556167,0.0,-218.75,-81.54296875,373.046875,0.0
1734409914.2595227,0.0,-280.76171875,-23.4375,-809.5703125,0.0
1734409914.2634287,0.0,233.3984375,123.53515625,51.26953125,0.0
1734409914.267335,0.0,128.41796875,18.5546875,-1000.0,0.0
1734409914.271241,0.0,-446.77734375,-155.2734375,-1000.0,0.0
1734409914.275147,0.0,-306.15234375,-41.50390625,83.49609375,0.0
1734409914.279053,0.0,58.10546875,120.60546875,-800.78125,0.0
1734409914.287077,-21.484375,-207.03125,-32.2265625,74.70703125,0.0
1734409914.290983,-166.9921875,-209.9609375,-42.96875,-1000.0,0.0
1734409914.2948892,-129.39453125,166.9921875,105.46875,-1000.0,0.0
1734409914.2987952,47.36328125,360.83984375,149.4140625,-125.0,0.0
1734409914.3027012,125.0,142.578125,47.36328125,991.2109375,0.0
1734409914.3066072,4.39453125,-351.5625,-170.41015625,-213.37890625,0.0
1734409914.3105135,-144.53125,-243.1640625,-45.41015625,-1000.0,0.0
1734409914.3144195,-145.99609375,248.046875,156.25,-1000.0,0.0
1734409914.3183255,40.52734375,-112.79296875,-100.09765625,-398.4375,0.0
1734409914.3222315,136.23046875,-743.65234375,-323.73046875,656.25,0.0
1734409914.3261375,7.32421875,-98.6328125,27.83203125,-390.625,0.0
1734409914.3300438,-145.99609375,283.203125,128.41796875,-1000.0,0.0
1734409914.3325493,-164.0625,-111.81640625,-58.59375,-1000.0,0.0
1734409914.3364553,16.11328125,-82.03125,-9.765625,-544.43359375,0.0
1734409914.3403616,143.5546875,86.42578125,124.51171875,556.640625,0.0
1734409914.3442676,42.48046875,159.66796875,83.49609375,-288.57421875,0.0
1734409914.3481736,-114.74609375,-34.66796875,-44.43359375,-1000.0,0.0
1734409914.3520796,-148.4375,-407.71484375,-170.8984375,-1000.0,0.0
1734409914.3559859,8.30078125,-122.55859375,-10.7421875,-713.8671875,0.0
1734409914.359892,139.16015625,224.609375,109.375,245.1171875,0.0
1734409914.363798,64.453125,-70.80078125,-36.1328125,-340.33203125,0.0
1734409914.367704,-108.88671875,-37.59765625,12.20703125,-1000.0,0.0
1734409914.37161,-176.26953125,210.9375,96.19140625,-1000.0,0.0
1734409914.3755162,-19.53125,124.0234375,48.33984375,-884.765625,0.0
1734409914.378044,0.0,-493.1640625,27.34375,210.44921875,0.0
1734409914.3819501,0.0,-303.7109375,99.12109375,-136.71875,0.0
1734409914.3858562,0.0,318.359375,62.01171875,-1000.0,0.0
1734409914.3897622,0.0,-41.015625,28.80859375,-1000.0,0.0
1734409914.3936682,0.0,-289.0625,81.0546875,-937.5,0.0
1734409914.3975742,0.0,-117.67578125,28.80859375,391.11328125,0.0
1734409914.4014804,0.0,-54.6875,-17.578125,509.27734375,0.0
1734409914.4053864,0.0,-350.09765625,-128.90625,-812.98828125,0.0
1734409914.4092925,0.0,-701.66015625,20.5078125,-1000.0,0.0
1734409914.4131985,0.0,-50.29296875,208.49609375,-889.6484375,0.0
1734409914.4171045,0.0,467.28515625,52.734375,358.3984375,0.0
1734409914.4210107,0.0,105.95703125,-59.08203125,-914.0625,0.0
1734409914.4254072,0.0,5.37109375,0.0,0.0,0.0
1734409914.4293132,0.0,213.37890625,0.0,0.0,0.0
1734409914.4332194,0.0,146.97265625,0.0,0.0,0.0
1734409914.4371254,0.0,-11.23046875,0.0,0.0,0.0
1734409914.4410315,0.0,100.5859375,0.0,0.0,0.0
1734409914.4449375,0.0,18.06640625,0.0,0.0,0.0
1734409914.4488437,0.0,-283.69140625,0.0,0.0,0.0
1734409914.4527497,0.0,-552.734375,0.0,0.0,0.0
1734409914.4566557,0.0,-138.671875,0.0,0.0,0.0
1734409914.4605618,0.0,492.67578125,0.0,0.0,0.0
1734409914.4644678,0.0,242.67578125,0.0,0.0,0.0
1734409914.468374,0.0,-223.6328125,0.0,0.0,0.0
1734409914.4704077,-119.62890625,-305.6640625,-25.390625,-936.5234375,0.0
1734409914.474314,56.640625,114.74609375,114.74609375,357.91015625,0.0
1734409914.47822,132.32421875,162.59765625,60.546875,-846.19140625,0.0
1734409914.482126,-10.25390625,-200.68359375,-66.89453125,589.84375,0.0
1734409914.486032,-167.96875,-8.30078125,50.78125,-764.16015625,0.0
1734409914.489938,-148.4375,-87.890625,41.015625,-1000.0,0.0
1734409914.4938443,33.69140625,-261.71875,-33.69140625,295.41015625,0.0
1734409914.4977503,138.671875,-861.328125,-354.4921875,-897.4609375,0.0
1734409914.5016563,11.23046875,-533.203125,-180.6640625,814.94140625,0.0
1734409914.5055623,-145.01953125,284.66796875,167.96875,-423.828125,0.0
1734409914.5094683,-152.34375,-111.81640625,-27.83203125,-1000.0,0.0
1734409914.5133746,23.4375,3.90625,36.1328125,122.55859375,0.0
1734409914.5186288,147.94921875,480.46875,202.63671875,-943.359375,0.0
1734409914.522535,33.203125,443.84765625,131.34765625,975.09765625,0.0
1734409914.526441,-128.90625,9.765625,-26.3671875,-117.1875,0.0
1734409914.530347,-163.0859375,-9.765625,18.06640625,-1000.0,0.0
1734409914.5342531,-5.37109375,264.6484375,89.84375,1.46484375,0.0
1734409914.5381591,129.39453125,121.09375,99.609375,-971.6796875,0.0
1734409914.5420654,53.7109375,-553.7109375,-221.19140625,-949.70703125,0.0
1734409914.5459714,-108.3984375,-616.2109375,-258.30078125,83.0078125,0.0
1734409914.5498774,-157.71484375,207.03125,162.109375,-1000.0,0.0
1734409914.5537834,-7.8125,206.0546875,53.7109375,-118.65234375,0.0
1734409914.5576894,145.01953125,81.0546875,44.921875,-931.640625,0.0
1734409914.5615957,64.94140625,201.66015625,92.7734375,927.24609375,0.0
1734409914.561876,-125.9765625,-20.01953125,1.953125,-72.265625,0.0
1734409914.565782,-170.8984375,-329.58984375,-74.21875,-1000.0,0.0
1734409914.569688,-41.50390625,-333.0078125,-41.9921875,-143.5546875,0.0
1734409914.573594,112.79296875,249.0234375,151.3671875,-983.3984375,0.0
1734409914.5775,95.21484375,497.0703125,159.66796875,-981.93359375,0.0
1734409914.5814064,-81.54296875,-229.98046875,-137.20703125,245.60546875,0.0
1734409914.5853124,-188.96484375,-504.8828125,-182.6171875,-1000.0,0.0
1734409914.5892184,-55.6640625,163.0859375,109.375,-247.0703125,0.0
1734409914.5931244,123.046875,586.9140625,227.05078125,989.74609375,0.0
1734409914.5970304,119.62890625,18.5546875,-110.3515625,-931.640625,0.0
1734409914.6009367,-45.41015625,-647.94921875,-338.8671875,417.96875,0.0
1734409914.6048427,-173.828125,49.31640625,92.7734375,-1000.0,0.0
1734409914.610115,-70.3125,364.74609375,123.046875,-389.16015625,0.0
1734409914.614021,98.14453125,45.41015625,20.01953125,945.80078125,0.0
1734409914.6179273,108.3984375,118.65234375,84.9609375,-928.7109375,0.0
1734409914.6218333,-52.734375,151.85546875,63.96484375,503.90625,0.0
1734409914.6257393,-194.82421875,-162.109375,-33.203125,-983.3984375,0.0
1734409914.6296453,-116.2109375,-539.0625,-164.0625,-579.1015625,0.0
1734409914.6335514,77.1484375,-319.82421875,-65.91796875,823.2421875,0.0
1734409914.6374576,126.46484375,355.46875,164.0625,-916.50390625,0.0
1734409914.6413636,-21.484375,258.7890625,38.0859375,600.5859375,0.0
1734409914.6452696,-158.69140625,-302.24609375,-172.36328125,-810.546875,0.0
1734409914.6491756,-120.1171875,-147.4609375,-35.15625,-875.48828125,0.0
1734409914.6530817,63.96484375,335.44921875,128.41796875,536.62109375,0.0
1734409914.6570315,141.11328125,-82.03125,-20.99609375,-879.8828125,0.0
1734409914.6609375,0.0,-296.875,-54.6875,664.0625,0.0
1734409914.6648436,-137.20703125,111.328125,86.9140625,-648.4375,0.0
1734409914.6687498,-139.6484375,289.55078125,105.46875,-1000.0,0.0
1734409914.6726558,22.94921875,95.703125,8.30078125,203.125,0.0
1734409914.6765618,137.6953125,-265.625,-113.76953125,-878.90625,0.0
1734409914.6804678,18.06640625,-326.66015625,-89.35546875,765.13671875,0.0
1734409914.6843739,-130.37109375,-48.828125,52.734375,-496.09375,0.0
1734409914.68828,-143.06640625,-250.9765625,-138.18359375,-1000.0,0.0
1734409914.692186,23.92578125,-596.6796875,-292.48046875,11.71875,0.0
1734409914.6960921,157.2265625,91.796875,90.8203125,-916.015625,0.0
1734409914.6999981,61.03515625,295.8984375,88.8671875,873.046875,0.0
1734409914.7039516,-107.421875,-251.953125,-95.703125,-322.75390625,0.0
1734409914.7078576,-161.1328125,-290.0390625,-37.59765625,-1000.0,0.0
1734409914.7117639,0.48828125,293.45703125,106.93359375,-146.484375,0.0
1734409914.7156699,142.578125,356.4453125,110.3515625,-961.9140625,0.0
1734409914.719576,58.59375,24.4140625,-16.11328125,970.703125,0.0
1734409914.723482,-104.4921875,-353.515625,-251.953125,-161.62109375,0.0
1734409914.727388,-168.9453125,-196.2890625,-103.515625,-1000.0,0.0
1734409914.731294,-4.8828125,308.59375,138.18359375,-214.35546875,0.0
1734409914.7352002,149.4140625,-378.41796875,-207.51953125,997.0703125,0.0
1734409914.7391062,95.21484375,-615.72265625,-223.14453125,-957.03125,0.0
1734409914.7430122,-73.2421875,267.578125,138.18359375,9.765625,0.0
1734409914.7469182,-164.55078125,180.17578125,20.5078125,-1000.0,0.0
1734409914.7539194,-27.83203125,-292.48046875,-190.91796875,-335.9375,0.0
1734409914.7578254,122.55859375,-77.63671875,-44.921875,937.5,0.0
1734409914.7617314,86.42578125,400.390625,136.23046875,-910.15625,0.0
1734409914.7656374,-68.84765625,100.09765625,-31.73828125,110.3515625,0.0
1734409914.7695434,-162.59765625,-170.8984375,-97.65625,-1000.0,0.0
1734409914.7734497,-56.15234375,-258.7890625,-154.296875,-499.0234375,0.0
1734409914.7773557,110.3515625,-41.50390625,-26.85546875,822.75390625,0.0
1734409914.7812617,115.72265625,-37.109375,-46.875,-871.09375,0.0
1734409914.7851677,-46.875,-630.37109375,-343.75,176.26953125,0.0
1734409914.7890737,-161.1328125,-72.265625,-7.8125,-1000.0,0.0
1734409914.79298,-71.2890625,381.8359375,132.32421875,-705.56640625,0.0
1734409914.796886,111.328125,-30.2734375,-38.0859375,626.953125,0.0
1734409914.7985506,141.6015625,-51.7578125,19.04296875,-830.078125,0.0
1734409914.8024566,-22.94921875,390.625,128.90625,225.09765625,0.0
1734409914.8063626,-154.296875,302.734375,47.8515625,-1000.0,0.0
1734409914.8102689,-91.796875,-68.359375,-76.171875,-900.87890625,0.0
1734409914.814175,79.1015625,-19.04296875,-35.15625,374.0234375,0.0
1734409914.818081,132.32421875,-14.16015625,24.4140625,-798.828125,0.0
1734409914.821987,-20.01953125,-254.39453125,-108.88671875,265.625,0.0
1734409914.825893,-160.64453125,-364.74609375,-214.84375,-995.60546875,0.0
1734409914.8297992,-116.69921875,-182.6171875,-51.26953125,-1000.0,0.0
1734409914.8337052,75.1953125,222.65625,112.79296875,69.3359375,0.0
1734409914.8376112,179.19921875,313.4765625,76.66015625,-808.10546875,0.0
1734409914.8415172,29.78515625,-446.2890625,-226.5625,398.4375,0.0
1734409914.8432515,-148.4375,-743.65234375,-321.77734375,-906.25,0.0
1734409914.8471575,-116.69921875,-61.5234375,-16.11328125,-1000.0,0.0
1734409914.8510637,57.6171875,-33.203125,-15.13671875,-55.6640625,0.0
1734409914.8549697,141.11328125,-75.68359375,-53.22265625,-864.74609375,0.0
1734409914.8588758,33.69140625,233.88671875,55.17578125,656.73828125,0.0
1734409914.8627818,-127.44140625,-10.7421875,-81.54296875,-663.57421875,0.0
1734409914.8666878,-146.484375,-482.421875,-347.65625,-1000.0,0.0
1734409914.870594,24.90234375,-689.94140625,-398.92578125,-77.63671875,0.0
1734409914.8745,137.6953125,-5.37109375,25.390625,-923.828125,0.0
1734409914.878406,43.45703125,435.05859375,131.34765625,864.74609375,0.0
1734409914.882312,-109.86328125,-239.2578125,-191.40625,-354.98046875,0.0
1734409914.886218,-157.2265625,-507.32421875,-227.5390625,-1000.0,0.0
1734409914.888152,2.44140625,154.78515625,70.80078125,-156.25,0.0
1734409914.8920581,162.59765625,355.46875,105.46875,-972.65625,0.0
1734409914.8959641,100.09765625,39.55078125,-39.55078125,994.140625,0.0
1734409914.8998702,-88.37890625,11.71875,-24.90234375,-148.92578125,0.0
1734409914.9037762,-153.3203125,100.5859375,39.55078125,-1000.0,0.0
1734409914.9076822,7.32421875,-79.58984375,-79.1015625,-146.97265625,0.0
1734409914.9115882,143.5546875,-639.6484375,-376.46484375,979.00390625,0.0
1734409914.9154944,96.19140625,-672.8515625,-267.08984375,-952.63671875,0.0
1734409914.9194005,-75.68359375,196.77734375,127.9296875,14.6484375,0.0
1734409914.9233065,-144.53125,145.5078125,-6.8359375,-1000.0,0.0
1734409914.9272125,5.37109375,-84.47265625,-42.48046875,-354.4921875,0.0
1734409914.9311185,145.99609375,219.7265625,83.0078125,925.78125,0.0
1734409914.9330242,112.3046875,139.16015625,44.921875,-905.2734375,0.0
1734409914.9369302,-62.01171875,-273.92578125,-151.3671875,115.72265625,0.0
1734409914.9408364,-185.05859375,-410.64453125,-157.2265625,-1000.0,0.0
1734409914.9447424,-65.4296875,82.51953125,76.66015625,-512.6953125,0.0
1734409914.9486485,109.375,457.03125,126.953125,812.01171875,0.0
1734409914.9525545,113.76953125,-111.81640625,-110.83984375,-867.1875,0.0
1734409914.9564605,-39.0625,-563.4765625,-312.01171875,185.546875,0.0
1734409914.9603665,-158.203125,-214.84375,-103.02734375,-1000.0,0.0
1734409914.9642727,-84.47265625,4.39453125,24.4140625,-746.58203125,0.0
1734409914.9681787,82.51953125,-96.19140625,-69.3359375,583.984375,0.0
1734409914.9720848,123.046875,-45.8984375,-51.7578125,-822.75390625,0.0
1734409914.9759908,-35.15625,300.29296875,71.2890625,227.05078125,0.0
1734409914.9863834,-175.29296875,259.765625,46.875,-1000.0,0.0
1734409914.9902894,-104.00390625,-239.2578125,-94.7265625,-921.875,0.0
1734409914.9941957,75.68359375,-183.59375,-41.9921875,339.84375,0.0
1734409914.9981017,138.671875,425.78125,157.71484375,-796.875,0.0
1734409915.0020077,-8.7890625,278.3203125,21.97265625,277.83203125,0.0
1734409915.0059137,-158.203125,-374.51171875,-258.30078125,-984.86328125,0.0
1734409915.0098197,-103.02734375,-410.15625,-176.7578125,-1000.0,0.0
1734409915.013726,69.3359375,225.09765625,92.28515625,37.109375,0.0
1734409915.017632,134.765625,341.30859375,72.75390625,-805.17578125,0.0
1734409915.021538,11.23046875,-333.0078125,-179.6875,376.46484375,0.0
1734409915.025444,-151.3671875,-554.6875,-141.11328125,-913.57421875,0.0
1734409915.02935,-157.71484375,41.015625,69.82421875,-1000.0,0.0
1734409915.0334246,25.390625,73.73046875,34.66796875,-141.6015625,0.0
1734409915.0373306,139.16015625,-21.484375,39.55078125,-844.7265625,0.0
1734409915.0412366,7.32421875,306.640625,96.19140625,525.390625,0.0
1734409915.0451427,-152.83203125,363.28125,97.16796875,-807.6171875,0.0
1734409915.049049,-166.9921875,94.7265625,2.44140625,-1000.0,0.0
1734409915.052955,12.20703125,-285.64453125,-137.6953125,-185.546875,0.0
1734409915.056861,138.18359375,-8.30078125,28.3203125,-902.34375,0.0
1734409915.060767,46.875,420.8984375,160.64453125,736.81640625,0.0
1734409915.0646732,-106.93359375,-106.4453125,-137.6953125,-574.21875,0.0
1734409915.0685792,-157.71484375,-398.4375,-244.140625,-1000.0,0.0
1734409915.0724852,-3.41796875,219.23828125,86.9140625,-218.75,0.0
1734409915.0763912,129.39453125,538.57421875,198.73046875,-982.91015625,0.0
1734409915.0795374,61.03515625,-188.96484375,-167.96875,960.44921875,0.0
1734409915.0834434,-112.79296875,-836.42578125,-456.54296875,-220.21484375,0.0
1734409915.0873494,-173.33984375,-91.30859375,-24.4140625,-1000.0,0.0
1734409915.0912554,-12.6953125,259.765625,107.421875,-270.5078125,0.0
1734409915.0951614,125.9765625,8.30078125,-25.390625,969.23828125,0.0
1734409915.0990677,81.0546875,-251.46484375,-69.3359375,-947.265625,0.0
1734409915.1029737,-78.125,-87.890625,1.953125,1.953125,0.0
1734409915.1068797,-161.1328125,224.609375,61.03515625,-1000.0,0.0
1734409915.1107857,-30.76171875,-456.0546875,-259.27734375,-379.8828125,0.0
1734409915.1146917,108.88671875,-498.53515625,-219.23828125,908.203125,0.0
1734409915.118598,91.796875,305.17578125,143.06640625,-902.34375,0.0
1734409915.122504,-46.38671875,-8.30078125,-37.109375,103.02734375,0.0
1734409915.1255634,-161.62109375,-402.83203125,-145.99609375,-1000.0,0.0
1734409915.1294694,-63.4765625,-40.52734375,19.04296875,-585.9375,0.0
1734409915.1333754,109.375,427.24609375,142.578125,741.69921875,0.0
1734409915.1372814,114.74609375,149.4140625,10.7421875,-853.02734375,0.0
1734409915.1411877,-21.97265625,-158.203125,-87.40234375,168.45703125,0.0
1734409915.1450937,-135.7421875,-268.5546875,-79.58984375,-1000.0,0.0
1734409915.1489997,-81.0546875,-55.6640625,30.76171875,-790.0390625,0.0
1734409915.1529057,76.66015625,12.20703125,-28.80859375,522.4609375,0.0
1734409915.1568117,116.69921875,-522.4609375,-249.0234375,-813.96484375,0.0
1734409915.160718,-32.71484375,-18.06640625,27.83203125,212.890625,0.0
1734409915.164624,-162.109375,382.8125,127.9296875,-1000.0,0.0
1734409915.16853,-96.6796875,-166.015625,-97.16796875,-939.94140625,0.0
1734409915.1710858,85.44921875,-220.703125,-91.796875,294.921875,0.0
1734409915.1749918,147.94921875,345.703125,147.4609375,-796.875,0.0
1734409915.1788979,2.44140625,364.2578125,77.63671875,294.43359375,0.0
1734409915.182804,-149.90234375,-173.33984375,-101.5625,-982.91015625,0.0
1734409915.1867101,-125.9765625,-186.03515625,-33.69140625,-1000.0,0.0
1734409915.1906161,62.5,52.24609375,27.34375,60.546875,0.0
1734409915.1945221,150.390625,-146.484375,-18.06640625,-809.5703125,0.0
1734409915.1984282,20.99609375,-287.59765625,-96.19140625,426.26953125,0.0
1734409915.2023344,-142.08984375,-78.61328125,-38.57421875,-874.0234375,0.0
1734409915.2062404,-136.23046875,302.734375,115.234375,-1000.0,0.0
1734409915.2101464,53.7109375,200.68359375,28.3203125,-112.79296875,0.0
1734409915.2140524,147.94921875,-106.4453125,-41.015625,-862.79296875,0.0
1734409915.2246623,30.76171875,-202.1484375,-28.3203125,630.37109375,0.0
1734409915.2285683,-128.41796875,16.6015625,46.38671875,-695.80078125,0.0
1734409915.2324743,-162.109375,71.2890625,14.6484375,-1000.0,0.0
1734409915.2363803,14.6484375,-401.3671875,-187.98828125,-164.0625,0.0
1734409915.2402866,145.5078125,-75.68359375,-7.32421875,-916.9921875,0.0
1734409915.2441926,61.03515625,132.8125,74.21875,805.6640625,0.0
1734409915.2480986,-93.75,-333.0078125,-133.7890625,-477.5390625,0.0
1734409915.2520046,-158.69140625,-676.7578125,-301.7578125,-1000.0,0.0
1734409915.2559109,-5.859375,-40.0390625,-5.859375,-238.76953125,0.0
1734409915.259817,144.04296875,274.90234375,123.53515625,-977.05078125,0.0
1734409915.263723,66.89453125,-105.95703125,-44.921875,934.5703125,0.0
1734409915.267629,-106.93359375,42.96875,0.9765625,-276.3671875,0.0
1734409915.2719936,-161.1328125,335.44921875,120.1171875,-1000.0,0.0
1734409915.2758996,-5.859375,320.80078125,94.23828125,-317.3828125,0.0
1734409915.279806,139.6484375,52.734375,14.16015625,950.68359375,0.0
1734409915.283712,108.88671875,181.640625,79.1015625,-951.66015625,0.0
1734409915.287618,-58.59375,313.4765625,63.96484375,-47.8515625,0.0
1734409915.291524,-164.0625,-130.37109375,-81.54296875,-1000.0,0.0
1734409915.29543,-40.52734375,-407.2265625,-139.6484375,-438.4765625,0.0
1734409915.2993362,119.140625,2.9296875,18.5546875,858.3984375,0.0
1734409915.3032422,104.00390625,431.640625,141.6015625,-889.6484375,0.0
1734409915.3071482,-58.10546875,228.515625,-20.01953125,96.19140625,0.0
1734409915.3110542,-170.41015625,-207.03125,-151.3671875,-1000.0,0.0
1734409915.3149605,-68.359375,-66.40625,-24.90234375,-631.8359375,0.0
1734409915.3172123,113.28125,89.35546875,72.265625,696.2890625,0.0
1734409915.3211186,125.48828125,-127.9296875,5.37109375,-843.26171875,0.0
1734409915.3250246,-50.29296875,-573.73046875,-221.19140625,159.1796875,0.0
1734409915.3289306,-179.6875,-287.59765625,-51.26953125,-1000.0,0.0
1734409915.3328366,-80.078125,274.4140625,129.8828125,-848.6328125,0.0
1734409915.3367426,104.00390625,-96.6796875,-69.3359375,438.4765625,0.0
1734409915.340649,129.8828125,-292.96875,-74.21875,-803.7109375,0.0
1734409915.344555,-27.83203125,160.15625,82.51953125,204.1015625,0.0
1734409915.348461,-160.15625,403.3203125,139.16015625,-1000.0,0.0
1734409915.352367,-103.515625,-186.03515625,-146.484375,-975.09765625,0.0
1734409915.3562732,84.47265625,-654.296875,-339.84375,230.46875,0.0
1734409915.3601792,151.3671875,117.67578125,86.42578125,-792.48046875,0.0
1734409915.3642757,-0.48828125,455.56640625,137.20703125,284.1796875,0.0
1734409915.3681817,-150.87890625,7.8125,-60.05859375,-979.00390625,0.0
1734409915.372088,-119.140625,-250.9765625,-97.65625,-1000.0,0.0
1734409915.375994,62.01171875,27.83203125,48.33984375,-9.27734375,0.0
1734409915.3799,152.34375,305.6640625,99.609375,-817.87109375,0.0
1734409915.383806,22.4609375,-193.84765625,-159.1796875,449.70703125,0.0
1734409915.3877122,-140.13671875,-356.93359375,-123.046875,-863.76953125,0.0
1734409915.3916183,-144.04296875,179.6875,122.0703125,-1000.0,0.0
1734409915.3955243,40.0390625,299.8046875,58.59375,-129.8828125,0.0
1734409915.3994303,154.296875,-50.29296875,-74.21875,-866.2109375,0.0
1734409915.4033363,38.0859375,61.03515625,16.6015625,629.39453125,0.0
1734409915.4072425,-126.46484375,270.99609375,79.58984375,-698.2421875,0.0
1734409915.4101033,-149.4140625,-186.03515625,-81.0546875,-1000.0,0.0
1734409915.4140093,19.04296875,-313.96484375,-49.8046875,-167.48046875,0.0
1734409915.4179153,150.87890625,205.078125,120.1171875,-917.96875,0.0
1734409915.4218216,62.5,485.3515625,125.48828125,805.6640625,0.0
1734409915.4257276,-102.05078125,-31.73828125,-127.44140625,-475.5859375,0.0
1734409915.4296336,-156.73828125,-647.94921875,-350.5859375,-1000.0,0.0
1734409915.4335396,5.37109375,-430.17578125,-193.84765625,-228.515625,0.0
1734409915.4374456,156.73828125,91.796875,79.1015625,-995.1171875,0.0
1734409915.441352,94.23828125,36.62109375,-33.203125,987.79296875,0.0
1734409915.445258,-78.61328125,-882.32421875,-488.28125,-162.59765625,0.0
1734409915.449164,-162.59765625,-459.47265625,-157.2265625,-1000.0,0.0
1734409915.45307,-1.953125,477.5390625,192.87109375,-311.03515625,0.0
1734409915.4600513,157.2265625,-48.828125,-97.65625,954.1015625,0.0
1734409915.4639573,128.90625,-264.16015625,-136.71875,-941.89453125,0.0
1734409915.4678633,-46.875,275.390625,109.375,-5.859375,0.0
1734409915.4717693,-156.73828125,211.9140625,69.3359375,-1000.0,0.0
1734409915.4756756,-33.69140625,33.69140625,-10.7421875,-443.359375,0.0
1734409915.4795816,130.37109375,-112.79296875,-12.6953125,857.91015625,0.0
1734409915.4834876,111.328125,32.2265625,70.80078125,-885.7421875,0.0
1734409915.4873936,-54.19921875,296.875,89.35546875,121.09375,0.0
1734409915.4912996,-162.109375,-463.8671875,-244.140625,-1000.0,0.0
1734409915.4952059,-67.3828125,-543.45703125,-214.84375,-661.1328125,0.0
1734409915.499112,103.02734375,412.109375,172.36328125,669.43359375,0.0
1734409915.503018,128.90625,394.53125,90.8203125,-837.890625,0.0
1734409915.5044804,-26.85546875,-312.98828125,-157.2265625,172.8515625,0.0
1734409915.5083864,-169.43359375,-242.67578125,-59.5703125,-1000.0,0.0
1734409915.5122926,-74.21875,331.54296875,114.2578125,-839.35546875,0.0
1734409915.5161986,94.23828125,200.1953125,52.734375,455.078125,0.0
1734409915.5201046,116.69921875,36.62109375,39.0625,-806.640625,0.0
1734409915.5240107,-27.34375,-137.6953125,-115.234375,230.46875,0.0
1734409915.527917,-172.8515625,-62.5,-44.921875,-1000.0,0.0
1734409915.531823,-125.0,-143.06640625,-77.1484375,-960.44921875,0.0
1734409915.535729,62.98828125,-256.8359375,-159.1796875,261.71875,0.0
1734409915.539635,135.7421875,382.32421875,159.1796875,-799.31640625,0.0
1734409915.543541,1.953125,414.55078125,104.4921875,327.63671875,0.0
1734409915.5474472,-142.578125,-429.6875,-271.97265625,-955.56640625,0.0
1734409915.5490885,-118.65234375,-714.35546875,-270.5078125,-1000.0,0.0
1734409915.5529945,46.38671875,205.56640625,150.390625,11.23046875,0.0
1734409915.5569007,143.5546875,456.54296875,145.99609375,-821.2890625,0.0
1734409915.5608068,18.5546875,32.71484375,-32.2265625,468.75,0.0
1734409915.5647128,-151.3671875,-48.33984375,-53.7109375,-843.75,0.0
1734409915.5686188,-151.85546875,-111.328125,-9.27734375,-1000.0,0.0
1734409915.5725248,26.3671875,-81.54296875,49.8046875,-131.34765625,0.0
1734409915.576431,153.80859375,-474.12109375,-197.75390625,-873.53515625,0.0
1734409915.580337,42.96875,-583.49609375,-256.34765625,657.71484375,0.0
1734409915.584243,-125.48828125,215.8203125,124.51171875,-661.62109375,0.0
1734409915.588149,-147.94921875,151.85546875,15.13671875,-1000.0,0.0
1734409915.592055,20.01953125,-90.33203125,-46.875,-181.15234375,0.0
1734409915.5935795,144.04296875,-84.47265625,42.48046875,-934.5703125,0.0
1734409915.5974855,52.24609375,-21.484375,32.71484375,848.14453125,0.0
1734409915.6013916,-100.09765625,-167.96875,-39.0625,-406.73828125,0.0
1734409915.6052976,-145.99609375,-68.84765625,12.20703125,-1000.0,0.0
1734409915.6092038,-12.20703125,316.89453125,90.8203125,-235.83984375,0.0
1734409915.6131098,123.046875,172.36328125,86.42578125,-997.55859375,0.0
1734409915.6170158,74.21875,-205.078125,-73.2421875,992.67578125,0.0
1734409915.6209219,-99.12109375,-579.1015625,-236.81640625,-147.4609375,0.0
1734409915.6248279,-183.59375,-110.3515625,9.27734375,-1000.0,0.0
1734409915.628734,-33.203125,394.53125,104.98046875,-360.3515625,0.0
1734409915.6326401,135.7421875,-2.9296875,-42.48046875,930.17578125,0.0
1734409915.6365461,95.703125,-73.2421875,-5.859375,-938.4765625,0.0
1734409915.6383314,-83.984375,251.953125,105.46875,-28.3203125,0.0
1734409915.6422374,-167.96875,257.8125,66.40625,-1000.0,0.0
1734409915.6461434,-27.83203125,-181.640625,-75.68359375,-486.328125,0.0
1734409915.6500497,130.37109375,-154.78515625,10.7421875,823.2421875,0.0
1734409915.6539557,111.81640625,66.40625,52.734375,-879.39453125,0.0
1734409915.6578617,-48.828125,-179.6875,-65.91796875,97.65625,0.0
1734409915.6617677,-166.50390625,-666.50390625,-337.40234375,-1000.0,0.0
1734409915.6656737,-68.84765625,-606.93359375,-273.4375,-722.16796875,0.0
1734409915.6695797,114.74609375,324.70703125,176.7578125,596.19140625,0.0
1734409915.673486,144.53125,340.8203125,89.84375,-826.171875,0.0
1734409915.677392,-20.99609375,-12.20703125,-25.87890625,157.2265625,0.0
1734409915.681298,-154.296875,73.73046875,41.50390625,-1000.0,0.0
1734409915.6829422,-82.51953125,-37.59765625,-4.8828125,-886.71875,0.0
1734409915.6868482,96.19140625,-273.4375,-51.7578125,381.8359375,0.0
1734409915.6907542,148.92578125,-72.75390625,45.8984375,-797.8515625,0.0
1734409915.6946602,-19.53125,239.2578125,89.84375,227.05078125,0.0
1734409915.6985662,-165.0390625,258.7890625,71.2890625,-1000.0,0.0
1734409915.7024724,-93.75,-187.5,-97.16796875,-993.65234375,0.0
1734409915.7063785,91.796875,-714.35546875,-307.12890625,208.49609375,0.0
1734409915.7102845,155.2734375,-285.15625,0.0,-792.48046875,0.0
1734409915.7141905,13.671875,307.12890625,150.87890625,312.98828125,0.0
1734409915.7180965,-148.92578125,7.32421875,-45.8984375,-957.03125,0.0
1734409915.7220025,-134.27734375,-97.16796875,-27.83203125,-1000.0,0.0
1734409915.7259085,57.6171875,306.15234375,125.0,-39.0625,0.0
1734409915.732008,158.69140625,461.9140625,145.99609375,-832.03125,0.0
1734409915.735914,31.25,169.921875,29.78515625,519.04296875,0.0
1734409915.73982,-139.6484375,42.96875,11.71875,-800.78125,0.0
1734409915.743726,-148.4375,225.09765625,83.984375,-1000.0,0.0
1734409915.747632,32.2265625,280.76171875,80.078125,-140.625,0.0
1734409915.751538,153.80859375,-214.84375,-70.3125,-883.30078125,0.0
1734409915.7554443,52.734375,-519.53125,-78.125,698.2421875,0.0
1734409915.7593503,-114.2578125,81.54296875,93.75,-621.09375,0.0
1734409915.7632563,-153.3203125,234.375,35.15625,-1000.0,0.0
1734409915.7671623,23.92578125,-305.17578125,-156.25,-186.5234375,0.0
1734409915.7710683,152.34375,-159.66796875,-2.9296875,-938.4765625,0.0
1734409915.7749746,60.05859375,420.41015625,150.87890625,859.86328125,0.0
1734409915.7798657,-117.67578125,29.296875,-41.50390625,-395.01953125,0.0
1734409915.7837718,-173.828125,-483.88671875,-173.828125,-1000.0,0.0
1734409915.7876778,-5.859375,-42.48046875,7.8125,-234.86328125,0.0
1734409915.791584,139.16015625,479.00390625,167.96875,990.234375,0.0
1734409915.79549,87.40234375,116.69921875,-21.484375,-978.515625,0.0
1734409915.799396,-73.2421875,-562.01171875,-297.8515625,-79.58984375,0.0
1734409915.803302,-170.41015625,-364.74609375,-118.65234375,-1000.0,0.0
1734409915.807208,-47.8515625,268.06640625,154.296875,-343.75,0.0
1734409915.8111143,114.74609375,71.2890625,-39.55078125,937.01171875,0.0
1734409915.8150203,91.30859375,-577.63671875,-279.296875,-925.29296875,0.0
1734409915.8189263,-83.984375,-58.10546875,12.6953125,34.1796875,0.0
1734409915.8228323,-188.96484375,317.3828125,131.8359375,-1000.0,0.0
1734409915.8308718,-53.22265625,-112.79296875,-38.0859375,-479.00390625,0.0
1734409915.834778,121.58203125,-12.20703125,28.3203125,833.49609375,0.0
1734409915.838684,100.09765625,396.97265625,151.3671875,-871.58203125,0.0
1734409915.84259,-61.03515625,302.24609375,71.2890625,105.95703125,0.0
1734409915.846496,-165.0390625,-147.94921875,-100.5859375,-1000.0,0.0
1734409915.850402,-72.75390625,-404.296875,-186.03515625,-603.02734375,0.0
1734409915.8543084,90.33203125,-59.08203125,40.0390625,625.48828125,0.0
1734409915.8582144,120.1171875,353.02734375,184.5703125,-832.03125,0.0
1734409915.8621204,-34.66796875,-372.55859375,-219.23828125,173.33984375,0.0
1734409915.8660264,-166.015625,-614.2578125,-225.5859375,-1000.0,0.0
1734409915.8699324,-93.26171875,276.85546875,159.66796875,-887.6953125,0.0
1734409915.8738387,104.00390625,339.35546875,84.47265625,376.953125,0.0
1734409915.8762662,153.3203125,-32.71484375,15.625,-798.828125,0.0
1734409915.8801723,-9.765625,108.3984375,69.3359375,239.2578125,0.0
1734409915.8840785,-149.4140625,331.0546875,122.55859375,-1000.0,0.0
1734409915.8879845,-113.28125,-103.515625,-21.484375,-1000.0,0.0
1734409915.8918905,78.125,-292.96875,-71.2890625,148.92578125,0.0
1734409915.8957965,157.71484375,-92.7734375,63.96484375,-796.38671875,0.0
1734409915.8997025,7.32421875,118.1640625,99.609375,341.30859375,0.0
1734409915.9036088,-133.7890625,-114.74609375,-66.40625,-942.3828125,0.0
1734409915.9075148,-106.93359375,-364.2578125,-141.11328125,-1000.0,0.0
1734409915.9114208,63.96484375,282.71484375,122.0703125,-50.29296875,0.0
1734409915.9153268,156.73828125,610.83984375,216.796875,-836.42578125,0.0
1734409915.9192328,27.83203125,-52.734375,-133.30078125,526.85546875,0.0
1734409915.921688,-124.0234375,-653.3203125,-308.59375,-789.55078125,0.0
1734409915.9255943,-126.953125,95.703125,120.1171875,-1000.0,0.0
1734409915.9295003,50.29296875,456.0546875,140.13671875,-151.85546875,0.0
1734409915.9334064,186.03515625,194.82421875,80.56640625,-886.71875,0.0
1734409915.9373124,93.26171875,104.4921875,56.15234375,699.21875,0.0
1734409915.9412184,-83.49609375,-74.70703125,-68.84765625,-616.2109375,0.0
1734409915.9451246,-145.01953125,-148.4375,-0.48828125,-1000.0,0.0
1734409915.9490306,28.80859375,-572.75390625,-214.84375,-191.89453125,0.0
1734409915.9529366,167.96875,-540.0390625,-208.49609375,-944.3359375,0.0
1734409915.9568427,87.40234375,367.1875,177.734375,874.51171875,0.0
1734409915.9607487,-63.96484375,186.03515625,30.76171875,-370.1171875,0.0
1734409915.964655,-127.9296875,-149.90234375,-13.18359375,-1000.0,0.0
1734409915.9668422,15.13671875,-175.78125,34.1796875,-270.5078125,0.0
1734409915.9707482,168.9453125,94.23828125,109.375,986.81640625,0.0
1734409915.9746542,128.90625,162.59765625,64.94140625,-998.046875,0.0
1734409915.9785604,-44.43359375,-132.32421875,-38.57421875,-143.06640625,0.0
1734409915.9824665,-130.37109375,106.93359375,90.33203125,-1000.0,0.0
1734409915.9863725,28.80859375,68.359375,87.40234375,-354.98046875,0.0
1734409915.9902785,181.15234375,-261.71875,-34.1796875,920.8984375,0.0
1734409915.9941845,126.46484375,-330.56640625,-24.90234375,-918.45703125,0.0
1734409915.9980905,-29.296875,-112.79296875,75.1953125,43.45703125,0.0
1734409916.0019968,-119.140625,76.66015625,107.421875,-1000.0,0.0
1734409916.0059028,-4.39453125,-185.05859375,-81.54296875,-546.875,0.0
1734409916.0098088,157.71484375,-250.0,-110.3515625,779.78515625,0.0
1734409916.0119236,158.203125,305.6640625,188.96484375,-864.74609375,0.0
1734409916.0158296,10.7421875,321.2890625,153.3203125,122.0703125,0.0
1734409916.0197358,-114.2578125,-378.90625,-125.0,-1000.0,0.0
1734409916.0236418,-28.80859375,-488.76953125,-102.05078125,-748.53515625,0.0
1734409916.0275478,137.6953125,185.05859375,156.25,567.87109375,0.0
1734409916.0314538,161.62109375,-35.15625,102.5390625,-820.80078125,0.0
1734409916.0353599,30.2734375,-687.5,-238.28125,184.08203125,0.0
1734409916.0392659,-99.609375,-705.078125,-242.67578125,-1000.0,0.0
1734409916.0431721,-41.9921875,77.63671875,181.640625,-905.76171875,0.0
1734409916.0470781,145.01953125,248.046875,149.4140625,352.5390625,0.0
1734409916.0509841,190.91796875,35.15625,122.0703125,-797.8515625,0.0
1734409916.0548902,24.4140625,-138.671875,101.07421875,254.8828125,0.0
1734409916.0573459,-105.95703125,-297.36328125,56.15234375,-1000.0,0.0
1734409916.0612519,-60.546875,-333.49609375,95.703125,-1000.0,0.0
1734409916.0651581,127.44140625,-149.90234375,147.94921875,140.625,0.0
1734409916.0690641,223.14453125,162.109375,207.51953125,-799.8046875,0.0
1734409916.0729702,83.984375,216.30859375,199.21875,359.86328125,0.0
1734409916.0768762,-56.15234375,-338.37890625,7.32421875,-926.7578125,0.0
1734409916.0807822,-45.8984375,-850.5859375,-173.828125,-1000.0,0.0
1734409916.0846882,123.53515625,-246.58203125,89.84375,-67.87109375,0.0
1734409916.0885944,235.83984375,351.5625,318.359375,-844.7265625,0.0
1734409916.0925004,131.8359375,-169.921875,14.16015625,556.640625,0.0
1734409916.0964065,-18.06640625,-492.67578125,-63.4765625,-761.23046875,0.0
1734409916.1003125,-43.9453125,-8.7890625,210.44921875,-1000.0,0.0
1734409916.1064672,132.8125,224.609375,248.046875,-151.85546875,0.0
1734409916.1103735,252.44140625,-311.03515625,69.82421875,-897.94921875,0.0
1734409916.1142795,163.0859375,-593.75,47.36328125,741.69921875,0.0
1734409916.1181855,5.859375,-14.16015625,245.1171875,-559.5703125,0.0
1734409916.1220915,-15.13671875,22.4609375,196.77734375,-1000.0,0.0
1734409916.1259975,166.50390625,-533.69140625,14.6484375,-198.2421875,0.0
1734409916.1299036,291.50390625,-540.52734375,95.21484375,-949.21875,0.0
1734409916.1338098,221.19140625,108.88671875,281.73828125,887.20703125,0.0
1734409916.1377158,56.640625,75.1953125,179.19921875,-349.609375,0.0
1734409916.1416218,-20.01953125,-508.30078125,60.546875,-1000.0,0.0
1734409916.1455278,133.7890625,-325.1953125,172.36328125,-270.99609375,0.0
1734409916.1494339,304.6875,176.7578125,271.97265625,976.07421875,0.0
1734409916.1628878,249.51171875,-133.7890625,173.828125,-972.65625,0.0
1734409916.1667938,68.84765625,-258.7890625,174.8046875,-79.58984375,0.0
1734409916.1706998,-16.11328125,13.18359375,231.93359375,-1000.0,0.0
1734409916.1746058,117.1875,167.96875,231.4453125,-401.85546875,0.0
1734409916.178512,276.3671875,-4.39453125,188.4765625,892.578125,0.0
1734409916.182418,259.27734375,-353.02734375,154.296875,-906.73828125,0.0
1734409916.1863241,108.3984375,-443.359375,118.1640625,52.24609375,0.0
1734409916.1902301,0.48828125,-58.59375,222.16796875,-1000.0,0.0
1734409916.1941364,104.00390625,-119.62890625,91.796875,-588.8671875,0.0
1734409916.1980424,262.20703125,-604.00390625,14.16015625,739.74609375,0.0
1734409916.2019484,268.5546875,110.83984375,316.40625,-855.95703125,0.0
1734409916.2058544,114.74609375,501.46484375,268.5546875,116.69921875,0.0
1734409916.2076442,-16.11328125,36.62109375,120.1171875,-1000.0,0.0
1734409916.2115502,71.77734375,-39.0625,150.87890625,-818.359375,0.0
1734409916.2154565,258.30078125,349.609375,258.7890625,473.14453125,0.0
1734409916.2193625,284.66796875,478.515625,261.71875,-808.59375,0.0
1734409916.2232685,138.671875,109.375,188.96484375,145.99609375,0.0
1734409916.2271745,11.23046875,-324.21875,78.61328125,-1000.0,0.0
1734409916.2310805,82.51953125,-267.578125,95.703125,-989.74609375,0.0
1734409916.2349868,275.87890625,-149.4140625,121.09375,178.7109375,0.0
1734409916.2388928,312.5,-313.96484375,64.453125,-790.0390625,0.0
1734409916.2427988,147.4609375,-99.609375,110.83984375,196.2890625,0.0
1734409916.2467048,8.7890625,170.41015625,173.828125,-1000.0,0.0
1734409916.250611,65.91796875,19.53125,92.7734375,-1000.0,0.0
1734409916.2571054,235.3515625,-442.3828125,-11.71875,-19.53125,0.0
1734409916.2610116,321.2890625,-213.8671875,118.65234375,-803.7109375,0.0
1734409916.2649176,209.9609375,349.609375,209.9609375,334.9609375,0.0
1734409916.2688236,32.2265625,59.5703125,87.40234375,-996.09375,0.0
1734409916.2727296,44.43359375,-650.87890625,-154.78515625,-1000.0,0.0
1734409916.276636,246.09375,-572.265625,-32.2265625,46.38671875,0.0
1734409916.280542,330.56640625,5.859375,226.5625,-854.00390625,0.0
1734409916.284448,209.9609375,-88.8671875,64.453125,468.26171875,0.0
1734409916.288354,56.640625,-668.45703125,-197.75390625,-841.30859375,0.0
1734409916.2922602,45.41015625,-270.01953125,74.21875,-1000.0,0.0
1734409916.2961662,212.890625,-72.265625,139.6484375,-217.7734375,0.0
1734409916.3000722,323.73046875,-281.25,42.96875,-883.30078125,0.0
1734409916.305365,225.5859375,-41.50390625,126.46484375,635.7421875,0.0
1734409916.3092713,56.640625,217.28515625,178.7109375,-698.73046875,0.0
1734409916.3131773,17.08984375,146.97265625,154.296875,-1000.0,0.0
1734409916.3170834,194.3359375,-56.640625,168.9453125,-275.390625,0.0
1734409916.3209894,362.3046875,65.4296875,178.7109375,-961.42578125,0.0
1734409916.3248956,289.55078125,-22.94921875,104.4921875,848.14453125,0.0
1734409916.3288016,93.26171875,-333.984375,61.03515625,-442.3828125,0.0
1734409916.3327076,17.08984375,-452.63671875,28.80859375,-1000.0,0.0
1734409916.3366137,166.015625,-111.328125,125.48828125,-373.53515625,0.0
1734409916.34052,327.1484375,351.07421875,255.859375,942.3828125,0.0
1734409916.344426,271.97265625,272.94921875,169.921875,980.95703125,0.0
1734409916.348332,97.65625,-388.671875,-62.5,-236.328125,0.0
1734409916.3482392,11.71875,-590.33203125,4.39453125,-1000.0,0.0
1734409916.3521452,146.484375,-281.73828125,109.86328125,-537.109375,0.0
1734409916.3560512,337.890625,-260.25390625,120.1171875,778.80859375,0.0
1734409916.3599572,322.265625,-218.26171875,169.921875,-901.85546875,0.0
1734409916.3638632,138.18359375,-56.640625,131.34765625,-39.55078125,0.0
1734409916.3677695,0.0,-237.79296875,121.58203125,-1000.0,0.0
1734409916.3716755,124.0234375,-517.578125,33.203125,-698.73046875,0.0
1734409916.3755815,301.7578125,-342.7734375,66.89453125,616.2109375,0.0
1734409916.3794875,275.87890625,185.05859375,215.33203125,-835.44921875,0.0
1734409916.3833938,140.625,273.92578125,218.75,83.984375,0.0
1734409916.3872998,32.2265625,-272.4609375,-22.94921875,-1000.0,0.0
1734409916.3912058,115.234375,-1000.0,-430.17578125,-863.28125,0.0
1734409916.3917878,290.0390625,-422.36328125,-40.0390625,393.5546875,0.0
1734409916.3956938,311.5234375,374.51171875,257.8125,-801.7578125,0.0
1734409916.3995998,162.109375,2.9296875,80.078125,143.5546875,0.0
1734409916.4035058,45.41015625,-341.796875,41.50390625,-1000.0,0.0
1734409916.4074118,149.4140625,-245.60546875,44.43359375,-1000.0,0.0
1734409916.411318,368.1640625,-126.953125,114.74609375,131.34765625,0.0
1734409916.415224,416.015625,-599.609375,-122.55859375,-791.015625,0.0
1734409916.41913,271.97265625,-680.17578125,-169.43359375,227.5390625,0.0
1734409916.423036,177.24609375,120.1171875,209.47265625,-1000.0,0.0
1734409916.426942,226.07421875,192.87109375,128.90625,-1000.0,0.0
1734409916.4308484,383.30078125,88.37890625,137.20703125,-8.30078125,0.0
1734409916.4347544,466.30859375,398.4375,255.859375,-807.12890625,0.0
1734409916.4356852,352.05078125,163.0859375,130.859375,382.32421875,0.0
1734409916.4395912,210.9375,-236.81640625,82.51953125,-919.43359375,0.0
1734409916.4434974,231.4453125,-82.03125,145.99609375,-1000.0,0.0
1734409916.4474034,421.38671875,302.734375,193.84765625,-107.91015625,0.0
1734409916.4513094,548.828125,499.0234375,243.65234375,-866.69921875,0.0
1734409916.4552155,458.49609375,-4.39453125,62.5,634.27734375,0.0
1734409916.4591215,304.6875,-685.05859375,-130.37109375,-677.734375,0.0
1734409916.4630275,285.64453125,-290.52734375,91.30859375,-1000.0,0.0
1734409916.4669337,450.1953125,439.453125,290.52734375,-163.57421875,0.0
1734409916.4708397,579.1015625,173.33984375,120.1171875,-918.45703125,0.0
1734409916.4747458,489.74609375,-113.76953125,70.80078125,810.546875,0.0
1734409916.4786518,312.01171875,295.41015625,248.53515625,-468.26171875,0.0
1734409916.4799547,264.16015625,377.9296875,219.23828125,-1000.0,0.0
1734409916.483861,387.20703125,91.30859375,139.16015625,-187.98828125,0.0
1734409916.487767,458.984375,233.3984375,228.515625,-978.02734375,0.0
1734409916.491673,369.62890625,601.5625,329.1015625,977.5390625,0.0
1734409916.495579,206.0546875,494.140625,257.8125,-168.9453125,0.0
1734409916.499485,116.69921875,-59.5703125,164.0625,-1000.0,0.0
1734409916.503391,274.4140625,-167.96875,207.51953125,-248.046875,0.0
1734409916.5072973,446.2890625,427.734375,306.15234375,975.5859375,0.0
1734409916.5112033,451.171875,518.06640625,256.34765625,-937.98828125,0.0
1734409916.5151093,505.859375,-267.08984375,21.484375,44.43359375,0.0
1734409916.5190153,571.77734375,-283.69140625,87.40234375,-1000.0,0.0
1734409916.5229213,710.9375,525.390625,304.6875,-346.6796875,0.0
1734409916.5286074,899.4140625,280.2734375,214.35546875,931.15234375,0.0
1734409916.5325134,914.0625,-103.515625,158.203125,-903.3203125,0.0
1734409916.5364194,743.65234375,206.0546875,231.4453125,142.08984375,0.0
1734409916.5403256,605.46875,440.4296875,267.08984375,-1000.0,0.0
1734409916.5442317,708.984375,236.328125,229.98046875,-521.484375,0.0
1734409916.5481377,865.72265625,-220.21484375,185.05859375,807.12890625,0.0
1734409916.5520437,871.09375,17.08984375,261.71875,-865.72265625,0.0
1734409916.5559497,682.6171875,565.91796875,352.05078125,190.91796875,0.0
1734409916.5598557,540.52734375,73.2421875,155.76171875,-1000.0,0.0
1734409916.563762,469.7265625,-500.9765625,77.63671875,-787.59765625,0.0
1734409916.567668,385.7421875,165.52734375,332.03125,530.2734375,0.0
1734409916.571574,355.95703125,316.40625,297.36328125,-814.94140625,0.0
1734409916.576244,217.7734375,-161.1328125,153.3203125,215.33203125,0.0
1734409916.5801501,96.19140625,-59.08203125,215.33203125,-1000.0,0.0
1734409916.5840561,167.48046875,283.69140625,308.59375,-965.8203125,0.0
1734409916.5879624,373.53515625,390.13671875,321.2890625,251.46484375,0.0
1734409916.5918684,460.9375,-95.21484375,238.28125,-793.9453125,0.0
1734409916.5957744,320.80078125,-461.9140625,141.11328125,280.2734375,0.0
1734409916.5996804,165.52734375,-245.60546875,209.9609375,-978.515625,0.0
1734409916.6035864,197.75390625,106.4453125,284.1796875,-1000.0,0.0
1734409916.6074927,372.55859375,-429.19921875,44.921875,-19.53125,0.0
1734409916.6113987,446.2890625,-539.0625,103.515625,-810.05859375,0.0
1734409916.6153047,295.41015625,370.1171875,352.5390625,383.30078125,0.0
1734409916.6192107,143.5546875,181.640625,186.5234375,-915.0390625,0.0
1734409916.6231132,158.203125,-318.84765625,112.3046875,-1000.0,0.0
1734409916.6270192,318.84765625,35.64453125,259.27734375,-139.16015625,0.0
1734409916.6309252,417.96875,195.80078125,242.1875,-855.95703125,0.0
1734409916.6348312,304.6875,-152.34375,162.109375,573.73046875,0.0
1734409916.6387372,143.5546875,-149.4140625,195.80078125,-750.9765625,0.0
1734409916.6426435,107.91015625,-219.23828125,133.30078125,-1000.0,0.0
1734409916.6465495,161.1328125,-41.015625,206.0546875,-199.21875,0.0
1734409916.6504555,85.44921875,1.953125,174.31640625,-913.57421875,0.0
1734409916.6543615,-95.703125,-579.1015625,62.01171875,768.06640625,0.0
1734409916.6582675,-281.73828125,-190.91796875,236.328125,-536.1328125,0.0
1734409916.6621735,-325.1953125,291.9921875,269.04296875,-1000.0,0.0
1734409916.6660798,-40.0390625,27.34375,162.109375,-227.05078125,0.0
1734409916.669222,235.3515625,69.3359375,208.984375,-984.86328125,0.0
1734409916.6731281,241.2109375,437.5,322.265625,962.40234375,0.0
1734409916.6770341,115.234375,374.0234375,246.58203125,-218.75,0.0
1734409916.6809404,7.8125,-59.5703125,193.359375,-1000.0,0.0
1734409916.6848464,160.15625,-68.359375,218.75,-280.76171875,0.0
1734409916.6887524,336.42578125,32.2265625,200.1953125,958.49609375,0.0
1734409916.6926584,281.25,-72.75390625,229.00390625,-933.59375,0.0
1734409916.6965644,113.28125,-576.171875,-79.1015625,34.1796875,0.0
1734409916.7004704,15.625,-643.06640625,-118.65234375,-1000.0,0.0
1734409916.7043767,149.90234375,163.0859375,288.0859375,-398.92578125,0.0
1734409916.7082827,329.1015625,253.41796875,222.16796875,915.52734375,0.0
1734409916.7121887,320.80078125,-100.09765625,152.34375,-948.2421875,0.0
1734409916.715063,195.3125,-291.50390625,151.3671875,70.3125,0.0
1734409916.718969,125.48828125,27.34375,200.68359375,-1000.0,0.0
1734409916.7228754,242.1875,80.078125,198.73046875,-528.80859375,0.0
1734409916.7267814,432.12890625,-23.4375,184.5703125,800.29296875,0.0
1734409916.7306874,453.61328125,265.625,223.14453125,-865.234375,0.0
1734409916.7345934,279.296875,61.03515625,161.62109375,229.4921875,0.0
1734409916.7384994,167.96875,-339.84375,70.80078125,-1000.0,0.0
1734409916.7424054,272.94921875,-791.50390625,-141.11328125,-735.3515625,0.0
1734409916.7463117,420.41015625,-314.453125,83.984375,602.05078125,0.0
1734409916.7502177,409.66796875,444.82421875,299.31640625,-829.58984375,0.0
1734409916.7541237,250.9765625,62.01171875,73.2421875,294.43359375,0.0
1734409916.7580297,104.98046875,-179.6875,46.875,-1000.0,0.0
1734409916.7692082,96.19140625,125.9765625,180.6640625,-914.0625,0.0
1734409916.7731142,217.7734375,262.20703125,190.4296875,375.48828125,0.0
1734409916.7770202,258.7890625,-28.3203125,124.0234375,-817.87109375,0.0
1734409916.7809265,118.65234375,-44.921875,136.71875,415.52734375,0.0
1734409916.7848325,-23.4375,119.140625,149.4140625,-912.109375,0.0
1734409916.7887385,-0.48828125,-145.99609375,134.27734375,-1000.0,0.0
1734409916.7926445,210.9375,-680.6640625,-121.09375,183.10546875,0.0
1734409916.7965505,355.46875,-642.08984375,-121.09375,-835.9375,0.0
1734409916.8004568,275.87890625,176.26953125,247.55859375,574.70703125,0.0
1734409916.8043628,186.03515625,116.2109375,139.6484375,-728.02734375,0.0
1734409916.8082688,225.5859375,-444.3359375,35.15625,-1000.0,0.0
1734409916.8121748,417.96875,-280.76171875,148.4375,-39.0625,0.0
1734409916.8123674,538.57421875,13.18359375,205.56640625,-885.7421875,0.0
1734409916.8162735,407.71484375,-187.98828125,126.953125,748.046875,0.0
1734409916.8201797,277.34375,-215.33203125,146.97265625,-531.25,0.0
1734409916.8240857,245.60546875,61.03515625,198.73046875,-1000.0,0.0
1734409916.8279917,374.51171875,313.96484375,225.09765625,-128.90625,0.0
1734409916.8318977,477.05078125,-131.34765625,92.28515625,-940.4296875,0.0
1734409916.8358037,362.79296875,-408.203125,31.73828125,903.3203125,0.0
1734409916.83971,186.5234375,2.9296875,186.03515625,-298.33984375,0.0
1734409916.843616,116.2109375,190.91796875,228.515625,-1000.0,0.0
1734409916.847522,238.28125,-162.59765625,49.31640625,-181.640625,0.0
1734409916.851428,368.1640625,-274.4140625,69.82421875,-991.69921875,0.0
1734409916.855334,323.2421875,283.203125,238.76953125,-972.65625,0.0
1734409916.8560343,112.3046875,292.96875,224.12109375,-36.1328125,0.0
1734409916.8599403,-11.71875,-441.40625,-83.0078125,-1000.0,0.0
1734409916.8638465,112.3046875,-716.796875,-181.15234375,-246.58203125,0.0
1734409916.8677526,246.09375,127.9296875,259.27734375,976.07421875,0.0
1734409916.8716586,196.2890625,295.8984375,227.05078125,-923.828125,0.0
1734409916.8755646,-6.8359375,-423.33984375,-32.71484375,111.81640625,0.0
1734409916.8794706,-118.1640625,-555.17578125,26.3671875,-1000.0,0.0
1734409916.8833766,3.90625,98.14453125,208.984375,-367.67578125,0.0
1734409916.8872828,146.484375,249.0234375,181.640625,921.875,0.0
1734409916.8911889,112.3046875,-243.65234375,40.52734375,-897.94921875,0.0
1734409916.8950949,-105.95703125,-246.58203125,76.171875,171.875,0.0
1734409916.899001,-239.2578125,65.91796875,156.73828125,-1000.0,0.0
1734409916.9042838,-122.0703125,-315.91796875,32.71484375,-544.43359375,0.0
1734409916.9081898,17.08984375,-370.1171875,85.9375,788.57421875,0.0
1734409916.9120958,2.44140625,60.05859375,187.98828125,-861.81640625,0.0
1734409916.9160018,-166.50390625,110.3515625,141.11328125,225.5859375,0.0
1734409916.9199078,-260.7421875,-363.76953125,-7.32421875,-1000.0,0.0
1734409916.923814,-185.546875,-809.5703125,-206.54296875,-788.0859375,0.0
1734409916.92772,-49.8046875,-473.6328125,-29.78515625,539.55078125,0.0
1734409916.931626,-26.3671875,42.96875,198.2421875,-817.3828125,0.0
1734409916.935532,-168.9453125,-400.87890625,-93.26171875,268.06640625,0.0
1734409916.939438,-284.66796875,-743.65234375,-203.61328125,-1000.0,0.0
1734409916.9433444,-229.00390625,-213.37890625,104.4921875,-961.9140625,0.0
1734409916.9472504,-54.6875,139.6484375,155.2734375,283.69140625,0.0
1734409916.9518435,-11.71875,-288.57421875,-48.33984375,-802.734375,0.0
1734409916.9557495,-204.1015625,-555.17578125,-89.35546875,366.2109375,0.0
1734409916.9596558,-379.8828125,-71.77734375,123.046875,-929.19921875,0.0
1734409916.9635618,-389.16015625,0.9765625,116.2109375,-1000.0,0.0
1734409916.9674678,-255.37109375,-324.70703125,-2.44140625,32.71484375,0.0
1734409916.9713738,-171.38671875,-562.98828125,-6.8359375,-832.51953125,0.0
1734409916.9752798,-311.5234375,-452.1484375,36.1328125,528.3203125,0.0
1734409916.979186,-497.0703125,-327.1484375,100.5859375,-782.2265625,0.0
1734409916.983092,-531.73828125,-697.265625,-147.94921875,-1000.0,0.0
1734409916.986998,-415.0390625,-617.67578125,-178.22265625,-115.72265625,0.0
1734409916.990904,-319.82421875,182.12890625,226.07421875,-875.48828125,0.0
1734409916.99481,-435.05859375,102.05078125,105.95703125,675.29296875,0.0
1734409917.0025182,-653.3203125,-427.24609375,-39.55078125,-636.71875,0.0
1734409917.0064242,-739.2578125,-289.55078125,69.3359375,-1000.0,0.0
1734409917.0103302,-615.72265625,198.73046875,168.9453125,-188.96484375,0.0
1734409917.0142362,-522.4609375,60.05859375,115.234375,-935.05859375,0.0
1734409917.0181425,-640.625,-166.015625,61.5234375,845.21484375,0.0
1734409917.0220485,-797.8515625,-246.58203125,47.8515625,-412.109375,0.0
1734409917.0259545,-802.734375,-349.609375,64.94140625,-1000.0,0.0
1734409917.0298605,-586.9140625,-415.52734375,-36.1328125,-240.72265625,0.0
1734409917.0337665,-386.23046875,-658.203125,-165.0390625,997.55859375,0.0
1734409917.0376728,-421.38671875,-287.59765625,59.08203125,-999.0234375,0.0
1734409917.0415788,-593.75,183.59375,166.015625,-131.8359375,0.0
1734409917.0454848,-688.4765625,-69.3359375,24.4140625,-1000.0,0.0
1734409917.0477576,-584.9609375,-103.515625,66.40625,-329.1015625,0.0
1734409917.0516636,-480.95703125,316.89453125,211.9140625,940.91796875,0.0
1734409917.0555696,-536.1328125,398.92578125,193.84765625,-926.26953125,0.0
1734409917.0594757,-746.58203125,-165.0390625,15.13671875,31.73828125,0.0
1734409917.063382,-911.62109375,-354.98046875,11.23046875,-1000.0,0.0
1734409917.067288,-758.7890625,-103.515625,112.3046875,-479.00390625,0.0
1734409917.071194,-568.84765625,-164.55078125,108.3984375,833.984375,0.0
1734409917.0751,-569.3359375,-216.796875,94.7265625,-879.39453125,0.0
1734409917.079006,-713.8671875,-25.87890625,119.140625,117.67578125,0.0
1734409917.0829122,-894.53125,223.14453125,163.57421875,-1000.0,0.0
1734409917.0868182,-823.2421875,225.09765625,142.578125,-707.03125,0.0
1734409917.0907242,-632.8125,-430.17578125,-125.0,618.65234375,0.0
1734409917.0924551,-581.0546875,-717.28515625,-115.234375,-828.61328125,0.0
1734409917.0963614,-658.203125,-158.69140625,125.0,161.1328125,0.0
1734409917.1002674,-828.61328125,-90.33203125,61.5234375,-1000.0,0.0
1734409917.1041734,-854.00390625,-134.27734375,67.87109375,-901.85546875,0.0
1734409917.1080794,-716.30859375,132.32421875,123.046875,350.09765625,0.0
1734409917.1119854,-720.21484375,52.24609375,94.7265625,-796.38671875,0.0
1734409917.1158917,-904.296875,-297.8515625,-45.8984375,221.6796875,0.0
1734409917.1197977,-1000.0,-684.5703125,-239.74609375,-1000.0,0.0
1734409917.1237037,-996.09375,-298.33984375,-14.6484375,-1000.0,0.0
1734409917.1276097,-999.0234375,279.78515625,181.640625,139.16015625,0.0
1734409917.1315157,-1000.0,23.4375,28.80859375,-794.43359375,0.0
1734409917.1354218,-1000.0,-177.734375,-42.96875,307.12890625,0.0
1734409917.1372721,-1000.0,35.15625,67.87109375,-968.26171875,0.0
1734409917.1411784,-1000.0,125.0,99.12109375,-1000.0,0.0
1734409917.1450844,-1000.0,-232.421875,-88.8671875,-44.921875,0.0
1734409917.1489904,-1000.0,-270.5078125,-62.98828125,-822.75390625,0.0
1734409917.1528964,-1000.0,85.44921875,62.5,453.61328125,0.0
1734409917.1568024,-1000.0,-207.51953125,-80.078125,-857.91015625,0.0
1734409917.1607084,-1000.0,-792.96875,-407.2265625,-1000.0,0.0
1734409917.1646147,-1000.0,-675.29296875,-323.2421875,-158.203125,0.0
1734409917.1685207,-1000.0,148.4375,137.6953125,-880.37109375,0.0
1734409917.1724267,-1000.0,128.41796875,-0.48828125,670.41015625,0.0
1734409917.1763327,-1000.0,-348.14453125,-215.8203125,-655.2734375,0.0
1734409917.1802387,-1000.0,-270.99609375,-98.6328125,-1000.0,0.0
1734409917.1823103,-1000.0,-168.9453125,-96.19140625,-168.9453125,0.0
1734409917.1862164,-1000.0,-305.17578125,-126.953125,-939.94140625,0.0
1734409917.1901224,-1000.0,-392.578125,-97.65625,872.0703125,0.0
1734409917.1940286,-998.53515625,-111.81640625,-32.2265625,-365.72265625,0.0
1734409917.1979346,-1000.0,41.9921875,7.8125,-1000.0,0.0
1734409917.2018406,-995.60546875,-346.19140625,-261.71875,-225.5859375,0.0
1734409917.2057467,-945.3125,-790.52734375,-413.57421875,995.1171875,0.0
1734409917.2096527,-938.4765625,-391.11328125,-116.69921875,-979.00390625,0.0
1734409917.2135587,-983.3984375,197.265625,67.3828125,-73.73046875,0.0
1734409917.217465,-1000.0,-131.8359375,-153.80859375,-1000.0,0.0
1734409917.221371,-981.93359375,-246.58203125,-190.91796875,-305.17578125,0.0
1734409917.225277,-933.10546875,100.5859375,49.31640625,947.75390625,0.0
1734409917.235773,-977.5390625,236.328125,57.12890625,-916.9921875,0.0
1734409917.239679,-1000.0,-107.91015625,-123.53515625,92.7734375,0.0
1734409917.243585,-1000.0,-318.359375,-150.390625,-1000.0,0.0
1734409917.2474911,-992.1875,32.2265625,5.37109375,-460.9375,0.0
1734409917.2513974,-844.7265625,186.5234375,27.83203125,854.00390625,0.0
1734409917.2553034,-819.3359375,-336.9140625,-186.03515625,-880.37109375,0.0
1734409917.2592094,-954.1015625,-458.0078125,-261.23046875,154.296875,0.0
1734409917.2631154,-1000.0,11.71875,-18.5546875,-1000.0,0.0
1734409917.2670214,-1000.0,-94.23828125,-101.5625,-659.1796875,0.0
1734409917.2709277,-887.20703125,-596.6796875,-324.70703125,676.26953125,0.0
1734409917.2748337,-749.0234375,-331.0546875,-74.70703125,-838.8671875,0.0
1734409917.2787397,-813.96484375,203.61328125,51.7578125,191.89453125,0.0
1734409917.282815,-797.36328125,-267.08984375,-220.21484375,-1000.0,0.0
1734409917.286721,-546.875,-405.2734375,-208.984375,-865.72265625,0.0
1734409917.290627,-291.9921875,117.1875,23.92578125,420.41015625,0.0
1734409917.2945333,-257.32421875,363.76953125,113.76953125,-803.22265625,0.0
1734409917.2984393,-418.9453125,29.296875,-63.96484375,271.97265625,0.0
1734409917.3023453,-558.59375,-619.62890625,-345.21484375,-1000.0,0.0
1734409917.3062513,-568.84765625,-441.40625,-270.01953125,-1000.0,0.0
1734409917.3101573,-516.6015625,209.47265625,39.55078125,184.5703125,0.0
1734409917.3140635,-525.87890625,-69.82421875,-153.80859375,-802.734375,0.0
1734409917.3179696,-792.48046875,-438.96484375,-337.890625,375.48828125,0.0
1734409917.3218756,-1000.0,-172.36328125,-157.71484375,-920.8984375,0.0
1734409917.3257816,-1000.0,-289.55078125,-257.32421875,-1000.0,0.0
1734409917.3291655,-975.09765625,-635.7421875,-383.7890625,-20.99609375,0.0
1734409917.3330715,-973.14453125,-695.80078125,-374.0234375,-844.23828125,0.0
1734409917.3369775,-1000.0,-45.8984375,-43.9453125,572.75390625,0.0
1734409917.3408835,-1000.0,82.51953125,-8.30078125,-745.60546875,0.0
1734409917.3447897,-999.51171875,-283.203125,-222.65625,-1000.0,0.0
1734409917.3486958,-1000.0,-524.4140625,-351.07421875,-114.2578125,0.0
1734409917.3526018,-1000.0,-199.21875,-131.8359375,-901.85546875,0.0
1734409917.3565078,-1000.0,117.67578125,4.8828125,777.83203125,0.0
1734409917.3604138,-1000.0,-569.82421875,-425.78125,-503.41796875,0.0
1734409917.36432,-1000.0,-709.47265625,-402.83203125,-1000.0,0.0
1734409917.368226,-1000.0,126.953125,38.0859375,-169.921875,0.0
1734409917.372132,-1000.0,144.04296875,-39.55078125,-955.56640625,0.0
1734409917.375458,-1000.0,-392.08984375,-231.93359375,927.24609375,0.0
1734409917.379364,-1000.0,-479.4921875,-280.2734375,-266.6015625,0.0
1734409917.38327,-1000.0,-159.66796875,-215.8203125,-1000.0,0.0
1734409917.3871763,-1000.0,-89.84375,-231.4453125,-244.140625,0.0
1734409917.3910823,-1000.0,-339.84375,-218.26171875,992.67578125,0.0
1734409917.3949883,-1000.0,-398.92578125,-199.21875,-981.93359375,0.0
1734409917.3988943,-999.51171875,-193.84765625,-208.49609375,-73.73046875,0.0
1734409917.4028003,-1000.0,-244.140625,-325.1953125,-1000.0,0.0
1734409917.4067066,-1000.0,-744.62890625,-503.90625,-398.92578125,0.0
1734409917.4106126,-977.5390625,-187.01171875,-104.98046875,901.3671875,0.0
1734409917.4145186,-988.28125,325.1953125,67.3828125,-915.0390625,0.0
1734409917.4184246,-1000.0,-305.17578125,-261.23046875,25.390625,0.0
1734409917.4213245,-999.51171875,-530.76171875,-398.92578125,-1000.0,0.0
1734409917.4252305,-1000.0,69.82421875,-199.21875,-575.1953125,0.0
1734409917.4291365,-956.0546875,231.93359375,-128.90625,750.48828125,0.0
1734409917.4330425,-970.21484375,-108.88671875,-185.05859375,-862.3046875,0.0
1734409917.4369488,-1000.0,-438.96484375,-303.22265625,92.7734375,0.0
1734409917.4408548,-998.046875,-482.421875,-343.75,-1000.0,0.0
1734409917.4447608,-1000.0,-361.328125,-284.1796875,-783.69140625,0.0
1734409917.4486668,-1000.0,-659.66796875,-452.1484375,514.6484375,0.0
1734409917.4525728,-1000.0,-687.5,-363.28125,-815.91796875,0.0
1734409917.456479,-1000.0,71.2890625,4.39453125,140.13671875,0.0
1734409917.460385,-1000.0,43.9453125,-121.58203125,-1000.0,0.0
1734409917.464291,-1000.0,-217.28515625,-252.44140625,-921.38671875,0.0
1734409917.4707825,-1000.0,-221.6796875,-267.08984375,300.29296875,0.0
1734409917.4746885,-1000.0,85.9375,-20.99609375,-797.36328125,0.0
1734409917.4785948,-1000.0,114.2578125,-41.015625,187.5,0.0
1734409917.4825008,-1000.0,-287.109375,-215.8203125,-1000.0,0.0
1734409917.4864068,-1000.0,-55.17578125,-63.4765625,-1000.0,0.0
1734409917.4903128,-1000.0,-8.7890625,-126.953125,-21.97265625,0.0
1734409917.4942188,-1000.0,-312.5,-303.22265625,-796.875,0.0
1734409917.498125,-1000.0,-694.82421875,-409.66796875,290.0390625,0.0
1734409917.502031,-998.046875,-249.51171875,-90.33203125,-971.19140625,0.0
1734409917.505937,-1000.0,306.15234375,78.61328125,-1000.0,0.0
1734409917.509843,-981.4453125,-14.16015625,-132.32421875,-164.55078125,0.0
1734409917.5137491,-958.984375,-93.26171875,-103.02734375,-826.171875,0.0
1734409917.5146737,-998.046875,237.3046875,51.7578125,398.92578125,0.0
1734409917.5185797,-1000.0,173.33984375,-9.27734375,-909.66796875,0.0
1734409917.5224857,-998.53515625,-246.58203125,-149.90234375,-1000.0,0.0
1734409917.526392,-1000.0,-159.66796875,-71.77734375,-244.140625,0.0
1734409917.530298,-1000.0,171.875,60.546875,-877.44140625,0.0
1734409917.534204,-1000.0,-181.15234375,-206.0546875,588.8671875,0.0
1734409917.53811,-1000.0,-615.72265625,-331.54296875,-756.34765625,0.0
1734409917.542016,-1000.0,-327.63671875,-64.453125,-1000.0,0.0
1734409917.5459223,-1000.0,198.2421875,76.171875,-297.36328125,0.0
1734409917.5498283,-1000.0,155.2734375,55.6640625,-956.0546875,0.0
1734409917.5537343,-1000.0,-589.84375,-288.57421875,799.31640625,0.0
1734409917.5576403,-995.1171875,-584.9609375,-279.296875,-515.625,0.0
1734409917.5619867,-1000.0,-136.71875,-21.484375,-1000.0,0.0
1734409917.5658927,-977.05078125,-339.35546875,-190.4296875,-387.20703125,0.0
1734409917.5697987,-860.83984375,-170.41015625,-81.54296875,940.91796875,0.0
1734409917.5737047,-854.00390625,229.00390625,89.84375,964.84375,0.0
1734409917.577611,-944.3359375,218.26171875,17.578125,-282.2265625,0.0
1734409917.581517,-1000.0,-317.3828125,-260.25390625,-1000.0,0.0
1734409917.585423,-935.05859375,-774.90234375,-388.671875,-491.69921875,0.0
1734409917.589329,-763.18359375,-202.63671875,-20.99609375,814.94140625,0.0
1734409917.593235,-732.421875,415.52734375,142.578125,-910.64453125,0.0
1734409917.5971413,-839.84375,25.390625,-106.93359375,-38.57421875,0.0
1734409917.6010473,-934.08203125,-193.359375,-159.66796875,-1000.0,0.0
1734409917.6049533,-792.96875,163.57421875,50.78125,-673.828125,0.0
1734409917.6056383,-601.5625,95.21484375,26.85546875,637.6953125,0.0
1734409917.6095443,-622.0703125,-218.75,-69.3359375,-840.8203125,0.0
1734409917.6134503,-836.9140625,-89.35546875,-63.96484375,92.7734375,0.0
1734409917.6173563,-965.33203125,144.53125,23.92578125,-1000.0,0.0
1734409917.6212626,-830.078125,115.72265625,-9.27734375,-837.890625,0.0
1734409917.6251686,-610.83984375,-331.54296875,-236.81640625,447.75390625,0.0
1734409917.6290746,-553.22265625,-309.08203125,-148.4375,-804.19921875,0.0
1734409917.6329806,-740.72265625,187.01171875,43.9453125,157.2265625,0.0
1734409917.6368866,-864.2578125,174.31640625,-2.44140625,-1000.0,0.0
1734409917.6407926,-767.08984375,-455.078125,-230.46875,-958.0078125,0.0
1734409917.6446989,-616.69921875,-432.6171875,-183.10546875,242.67578125,0.0
1734409917.6486049,-539.55078125,130.37109375,48.33984375,-791.50390625,0.0
1734409917.654111,-644.53125,-146.97265625,-134.765625,242.67578125,0.0
1734409917.658017,-811.03515625,-413.57421875,-227.5390625,-1000.0,0.0
1734409917.661923,-802.24609375,-90.33203125,-35.15625,-1000.0,0.0
1734409917.665829,-623.046875,35.64453125,5.37109375,21.97265625,0.0
1734409917.669735,-539.0625,-64.453125,-58.59375,-804.19921875,0.0
1734409917.6736412,-667.48046875,-422.8515625,-264.16015625,367.67578125,0.0
1734409917.6775472,-800.29296875,-332.51953125,-223.14453125,-922.8515625,0.0
1734409917.6814532,-798.828125,131.8359375,20.01953125,-1000.0,0.0
1734409917.6853592,-612.79296875,-120.60546875,-123.046875,-128.90625,0.0
1734409917.6892653,-489.2578125,-509.765625,-273.92578125,-844.7265625,0.0
1734409917.6931713,-597.65625,-12.6953125,-14.16015625,529.78515625,0.0
1734409917.6970775,-721.6796875,259.765625,46.875,-797.36328125,0.0
1734409917.7100837,-705.078125,-166.015625,-149.90234375,-1000.0,0.0
1734409917.7139897,-523.4375,-98.14453125,-114.2578125,-176.26953125,0.0
1734409917.7178957,-399.90234375,344.7265625,91.796875,-906.73828125,0.0
1734409917.721802,-479.98046875,296.38671875,25.87890625,761.71875,0.0
1734409917.725708,-575.68359375,-114.2578125,-199.21875,-565.91796875,0.0
1734409917.729614,-536.62109375,-485.3515625,-325.68359375,-1000.0,0.0
1734409917.73352,-354.98046875,-437.98828125,-306.640625,-135.25390625,0.0
1734409917.737426,-243.65234375,-195.80078125,-202.1484375,-979.4921875,0.0
1734409917.7413323,-368.65234375,-566.40625,-394.53125,920.8984375,0.0
1734409917.7452383,-562.01171875,-707.51953125,-379.39453125,-296.38671875,0.0
1734409917.7491443,-614.2578125,-1.953125,-2.9296875,-1000.0,0.0
1734409917.7530503,-451.66015625,116.69921875,-35.64453125,-290.0390625,0.0
1734409917.754284,-261.23046875,-230.46875,-176.7578125,970.21484375,0.0
1734409917.75819,-269.53125,-73.73046875,-89.35546875,-971.6796875,0.0
1734409917.7620962,-375.48828125,223.14453125,26.85546875,-84.47265625,0.0
1734409917.7660022,-403.3203125,-122.0703125,-162.109375,-1000.0,0.0
1734409917.7699082,-238.76953125,-232.421875,-221.19140625,-422.36328125,0.0
1734409917.7738142,-55.6640625,-178.22265625,-179.6875,876.46484375,0.0
1734409917.7777205,-94.7265625,-141.11328125,-203.125,-900.87890625,0.0
1734409917.7816265,-215.8203125,-246.58203125,-335.9375,59.5703125,0.0
1734409917.7855325,-233.88671875,-719.7265625,-498.53515625,-1000.0,0.0
1734409917.7894385,-101.5625,-332.51953125,-253.90625,-627.9296875,0.0
1734409917.7933445,67.3828125,248.046875,10.7421875,698.73046875,0.0
1734409917.7972507,101.5625,-199.70703125,-185.546875,-847.65625,0.0
1734409917.7989552,-23.92578125,-488.76953125,-377.44140625,122.0703125,0.0
1734409917.8028612,-143.5546875,-27.83203125,-101.07421875,-1000.0,0.0
1734409917.8067675,-62.5,219.23828125,71.2890625,-826.171875,0.0
1734409917.8106735,102.5390625,-353.02734375,-251.46484375,464.35546875,0.0
1734409917.8145795,107.421875,-733.3984375,-377.9296875,-806.15234375,0.0
1734409917.8184855,-66.89453125,-360.83984375,-190.91796875,173.33984375,0.0
1734409917.8223915,-221.19140625,-311.03515625,-232.421875,-1000.0,0.0
1734409917.8262978,-166.9921875,-640.625,-416.50390625,-968.75,0.0
1734409917.8302038,0.0,-661.62109375,-337.40234375,223.6328125,0.0
1734409917.8341098,88.8671875,211.42578125,123.53515625,-791.50390625,0.0
1734409917.8380158,38.0859375,227.5390625,12.6953125,231.4453125,0.0
1734409917.8419218,-59.5703125,-307.6171875,-253.90625,-998.53515625,0.0
1734409917.8434308,-80.56640625,-451.66015625,-299.31640625,-1000.0,0.0
1734409917.8473368,50.78125,33.203125,-25.87890625,-56.15234375,0.0
1734409917.8512428,122.0703125,210.44921875,26.3671875,-804.19921875,0.0
1734409917.8551488,-65.4296875,-114.2578125,-118.65234375,307.6171875,0.0
1734409917.8590548,-268.06640625,-69.82421875,-62.5,-964.35546875,0.0
1734409917.862961,-299.31640625,-250.0,-183.10546875,-1000.0,0.0
1734409917.866867,-152.34375,-489.2578125,-362.3046875,-178.22265625,0.0
1734409917.870773,-87.890625,-680.6640625,-376.953125,-837.890625,0.0
1734409917.874679,-288.0859375,-272.94921875,-97.16796875,456.0546875,0.0
1734409917.878585,-527.34375,187.98828125,-48.33984375,-864.2578125,0.0
1734409917.882491,-595.21484375,-204.1015625,-287.59765625,-1000.0,0.0
1734409917.8863974,-436.5234375,-259.27734375,-328.125,-255.37109375,0.0
1734409917.888089,-303.7109375,204.1015625,-176.26953125,-886.23046875,0.0
1734409917.891995,-422.36328125,157.2265625,-277.83203125,599.609375,0.0
1734409917.895901,-632.32421875,-492.67578125,-445.3125,-743.65234375,0.0
1734409917.899807,-702.63671875,-451.171875,-330.56640625,-1000.0,0.0
1734409917.9037132,-492.67578125,65.4296875,-305.6640625,-366.69921875,0.0
1734409917.9076192,-337.40234375,-75.1953125,-339.84375,-984.375,0.0
1734409917.9115252,-410.15625,-656.73828125,-516.11328125,774.90234375,0.0
1734409917.9154313,-487.79296875,-718.26171875,-543.9453125,-564.94140625,0.0
1734409917.9193373,-494.140625,16.11328125,-250.0,-1000.0,0.0
1734409917.9232433,-330.078125,98.14453125,-301.7578125,-513.18359375,0.0
1734409917.9271495,-167.48046875,-53.7109375,-301.26953125,849.609375,0.0
1734409917.9310555,-203.125,73.73046875,-243.65234375,949.70703125,0.0
1734409917.9415145,-366.2109375,-58.59375,-328.61328125,-343.75,0.0
1734409917.9454205,-447.265625,-325.68359375,-344.7265625,-1000.0,0.0
1734409917.9493265,-314.453125,-199.21875,-263.671875,-615.72265625,0.0
1734409917.9532325,-159.66796875,194.3359375,-61.03515625,685.05859375,0.0
1734409917.9571388,-211.9140625,253.41796875,34.1796875,-871.58203125,0.0
1734409917.9610448,-322.265625,-116.69921875,-170.41015625,-4.39453125,0.0
1734409917.9649508,-353.515625,-547.8515625,-311.03515625,-1000.0,0.0
1734409917.9688568,-234.86328125,-18.5546875,-9.27734375,-728.515625,0.0
1734409917.9727628,-22.94921875,618.1640625,190.4296875,576.171875,0.0
1734409917.976669,42.96875,191.40625,2.44140625,-827.63671875,0.0
1734409917.980575,-118.65234375,-51.7578125,-90.8203125,107.421875,0.0
1734409917.984481,-217.7734375,354.98046875,113.28125,-1000.0,0.0
1734409917.9869003,-89.84375,436.03515625,111.328125,-868.65234375,0.0
1734409917.9908063,80.078125,86.42578125,-15.13671875,395.01953125,0.0
1734409917.9947126,81.54296875,59.5703125,52.734375,-800.29296875,0.0
1734409917.9986186,-132.32421875,348.6328125,139.6484375,181.15234375,0.0
1734409918.0025246,-242.1875,254.39453125,72.75390625,-1000.0,0.0
1734409918.0064306,-121.58203125,-400.87890625,-131.8359375,-976.07421875,0.0
1734409918.0103366,50.78125,-417.96875,-29.296875,222.65625,0.0
1734409918.014243,105.95703125,92.28515625,147.94921875,-790.52734375,0.0
1734409918.018149,-38.0859375,86.9140625,85.44921875,276.85546875,0.0
1734409918.022055,-221.19140625,-206.54296875,-17.578125,-983.88671875,0.0
1734409918.025961,-217.28515625,-169.43359375,35.64453125,-1000.0,0.0
1734409918.029867,-65.4296875,251.46484375,196.77734375,-3.90625,0.0
1734409918.0338914,0.48828125,105.46875,164.0625,-817.3828125,0.0
1734409918.0377975,-152.34375,-576.66015625,-110.83984375,442.3828125,0.0
1734409918.0417035,-357.421875,-434.08203125,-10.25390625,-867.1875,0.0
1734409918.0456097,-384.27734375,300.29296875,253.90625,-1000.0,0.0
1734409918.0495157,-175.78125,109.86328125,148.4375,-127.44140625,0.0
1734409918.0534217,-28.3203125,-382.8125,95.703125,-856.4453125,0.0
1734409918.0573277,-157.71484375,-230.46875,122.0703125,592.28515625,0.0
1734409918.0612338,-324.70703125,201.171875,215.8203125,-740.72265625,0.0
1734409918.06514,-305.6640625,-113.28125,78.125,-1000.0,0.0
1734409918.069046,-52.24609375,-546.38671875,-25.390625,-171.875,0.0
1734409918.072952,134.765625,-214.84375,171.38671875,-916.015625,0.0
1734409918.076858,46.875,85.44921875,174.8046875,791.50390625,0.0
1734409918.0841348,-135.7421875,-53.7109375,66.89453125,-492.67578125,0.0
1734409918.088041,-199.70703125,-149.4140625,82.51953125,-1000.0,0.0
1734409918.091947,-62.01171875,150.87890625,178.7109375,-229.00390625,0.0
1734409918.095853,-29.296875,281.73828125,181.640625,-984.375,0.0
1734409918.099759,-192.87109375,-43.45703125,128.41796875,959.9609375,0.0
1734409918.1036654,-466.30859375,-490.72265625,26.85546875,-218.75,0.0
1734409918.1075714,-616.2109375,-317.87109375,64.94140625,-1000.0,0.0
1734409918.1114774,-457.03125,122.55859375,194.82421875,-314.94140625,0.0
1734409918.1153834,-303.22265625,-446.2890625,-115.234375,954.58984375,0.0
1734409918.1192894,-372.55859375,-686.03515625,-178.7109375,-952.63671875,0.0
1734409918.1231956,-567.3828125,66.40625,190.91796875,-41.50390625,0.0
1734409918.1271017,-666.50390625,50.29296875,117.67578125,-1000.0,0.0
1734409918.1285949,-472.65625,-459.9609375,-54.6875,-454.1015625,0.0
1734409918.132501,-218.26171875,-452.1484375,47.36328125,850.5859375,0.0
1734409918.136407,-180.6640625,194.82421875,255.37109375,-883.7890625,0.0
1734409918.1403131,-321.77734375,195.3125,168.45703125,86.9140625,0.0
1734409918.1442192,-424.8046875,-338.37890625,58.10546875,-1000.0,0.0
1734409918.1481252,-305.6640625,-409.1796875,72.75390625,-609.86328125,0.0
1734409918.1520312,-91.30859375,-0.9765625,195.80078125,674.31640625,0.0
1734409918.1559374,-8.7890625,-43.45703125,117.67578125,-841.30859375,0.0
1734409918.1598434,-184.5703125,-359.375,-13.671875,139.16015625,0.0
1734409918.1637495,-313.96484375,-36.1328125,133.7890625,-1000.0,0.0
1734409918.1676555,-204.1015625,234.86328125,221.6796875,-856.93359375,0.0
1734409918.1715615,-37.109375,-67.3828125,19.04296875,422.36328125,0.0
1734409918.1819923,-14.16015625,-762.6953125,-226.07421875,-801.26953125,0.0
1734409918.1858985,-164.55078125,-187.98828125,98.6328125,192.87109375,0.0
1734409918.1898046,-279.78515625,177.24609375,185.05859375,-1000.0,0.0
1734409918.1937106,-320.3125,-312.98828125,45.8984375,-987.3046875,0.0
1734409918.1976166,-380.37109375,-204.58984375,92.28515625,191.40625,0.0
1734409918.2015228,-475.09765625,-120.1171875,98.14453125,-793.9453125,0.0
1734409918.2054288,-575.1953125,-257.32421875,116.69921875,267.08984375,0.0
1734409918.2093349,-638.671875,-632.32421875,-183.59375,-988.28125,0.0
1734409918.2132409,-573.2421875,-717.28515625,-240.72265625,-1000.0,0.0
1734409918.217147,-380.37109375,146.484375,213.37890625,-27.34375,0.0
1734409918.2210531,-303.22265625,262.20703125,162.59765625,-815.4296875,0.0
1734409918.2249591,-481.93359375,-182.12890625,-2.9296875,422.8515625,0.0
1734409918.2245984,-687.01171875,-474.12109375,-14.16015625,-885.25390625,0.0
1734409918.2285044,-721.6796875,-206.0546875,101.5625,-1000.0,0.0
1734409918.2324104,-557.6171875,17.578125,86.42578125,-148.4375,0.0
1734409918.2363164,-525.87890625,-108.88671875,75.1953125,-856.4453125,0.0
1734409918.2402227,-691.40625,32.2265625,90.8203125,576.171875,0.0
1734409918.2441287,-864.2578125,-233.3984375,-47.8515625,-755.859375,0.0
1734409918.2480347,-952.1484375,-662.59765625,-169.921875,-1000.0,0.0
1734409918.2519407,-770.5078125,-518.5546875,-93.26171875,-203.125,0.0
1734409918.255847,-612.3046875,75.68359375,117.67578125,-918.45703125,0.0
1734409918.259753,-687.98828125,328.125,165.52734375,774.4140625,0.0
1734409918.263659,-801.7578125,-265.625,-149.90234375,-520.5078125,0.0
1734409918.267565,-796.875,-584.47265625,-258.30078125,-1000.0,0.0
1734409918.2676048,-561.5234375,55.6640625,88.37890625,-265.625,0.0
1734409918.271511,-306.15234375,330.078125,173.33984375,996.58203125,0.0
1734409918.275417,-314.94140625,-340.33203125,-191.40625,975.09765625,0.0
1734409918.279323,-479.00390625,-786.1328125,-362.79296875,-205.078125,0.0
1734409918.283229,-542.48046875,-76.171875,46.38671875,-1000.0,0.0
