timestamps,TP9,AF7,AF8,TP10,Right AUX
1733975110.0385926,104.4921875,-9.765625,-34.66796875,84.9609375,0.0
1733975110.042497,-103.02734375,-14.6484375,-45.41015625,-60.05859375,0.0
1733975110.0464015,-146.97265625,-18.5546875,-55.17578125,-112.3046875,0.0
1733975110.0503058,-16.6015625,-22.4609375,-44.921875,-39.0625,0.0
1733975110.0542104,154.78515625,-17.578125,-31.73828125,69.82421875,0.0
1733975110.0581148,139.6484375,-12.20703125,-40.0390625,76.66015625,0.0
1733975110.0620193,-39.0625,-17.578125,-47.8515625,-30.2734375,0.0
1733975110.0659237,-120.60546875,-23.92578125,-64.453125,-87.40234375,0.0
1733975110.0698283,-17.578125,-13.671875,-46.38671875,-56.640625,0.0
1733975110.0737326,177.734375,-7.32421875,-26.3671875,67.3828125,0.0
1733975110.0776372,206.54296875,-15.13671875,-40.52734375,136.23046875,0.0
1733975110.0815396,20.5078125,-13.671875,-50.78125,30.2734375,0.0
1733975110.085444,-95.21484375,-11.23046875,-62.5,-59.5703125,0.0
1733975110.0893486,-11.71875,-16.11328125,-59.08203125,-19.04296875,0.0
1733975110.093253,196.77734375,-12.20703125,-43.45703125,123.53515625,0.0
1733975110.0971575,250.9765625,-4.39453125,-45.8984375,194.82421875,0.0
1733975110.1010618,65.91796875,-14.16015625,-60.546875,94.23828125,0.0
1733975110.1049664,-37.59765625,-17.08984375,-63.4765625,4.8828125,0.0
1733975110.108871,35.15625,-11.71875,-59.5703125,35.15625,0.0
1733975110.1127753,196.77734375,-9.765625,-44.43359375,138.18359375,0.0
1733975110.11668,269.04296875,-3.41796875,-30.76171875,199.21875,0.0
1733975110.1205842,120.60546875,-5.859375,-50.29296875,134.765625,0.0
1733975110.1244888,-24.90234375,-12.6953125,-65.91796875,20.01953125,0.0
1733975110.1283765,2.44140625,-11.71875,-55.17578125,6.34765625,0.0
1733975110.1322808,169.43359375,-7.32421875,-39.0625,104.4921875,0.0
1733975110.1361854,286.62109375,-7.8125,-42.48046875,199.70703125,0.0
1733975110.1400898,160.64453125,-12.20703125,-59.08203125,149.4140625,0.0
1733975110.1439943,1.46484375,-12.6953125,-62.5,41.9921875,0.0
1733975110.1478987,3.90625,-10.25390625,-63.96484375,23.4375,0.0
1733975110.1518033,153.80859375,-11.23046875,-55.6640625,101.07421875,0.0
1733975110.1557076,309.08203125,-15.13671875,-51.7578125,217.7734375,0.0
1733975110.1596122,206.0546875,-10.7421875,-43.45703125,173.33984375,0.0
1733975110.1635165,17.578125,-9.27734375,-31.25,40.0390625,0.0
1733975110.167421,8.7890625,-14.16015625,-34.66796875,15.13671875,0.0
1733975110.1713254,158.69140625,-13.671875,-29.296875,95.21484375,0.0
1733975110.175203,311.5234375,-8.7890625,-18.5546875,208.0078125,0.0
1733975110.1791077,214.35546875,-11.23046875,-30.76171875,187.98828125,0.0
1733975110.1830122,30.76171875,-17.578125,-44.43359375,76.66015625,0.0
1733975110.1869166,3.90625,-20.5078125,-40.0390625,38.0859375,0.0
1733975110.1908212,125.9765625,-20.01953125,-27.83203125,96.6796875,0.0
1733975110.1947255,302.734375,-15.625,-17.08984375,222.16796875,0.0
1733975110.19863,242.67578125,-19.53125,-24.90234375,228.515625,0.0
1733975110.2025344,32.71484375,-27.83203125,-39.0625,90.8203125,0.0
1733975110.206439,-14.16015625,-29.296875,-22.94921875,22.4609375,0.0
1733975110.2103434,94.23828125,-28.80859375,-14.6484375,74.70703125,0.0
1733975110.214248,254.8828125,-25.87890625,-20.5078125,197.265625,0.0
1733975110.2181523,220.21484375,-21.97265625,-26.3671875,215.8203125,0.0
1733975110.2220128,33.203125,-19.53125,-31.73828125,74.21875,0.0
1733975110.225917,-37.59765625,-21.97265625,-42.48046875,-9.27734375,0.0
1733975110.2298217,45.8984375,-22.94921875,-46.875,41.9921875,0.0
1733975110.2337263,233.88671875,-19.53125,-24.90234375,152.83203125,0.0
1733975110.2376306,243.65234375,-20.01953125,-22.4609375,172.8515625,0.0
1733975110.2415352,49.31640625,-30.2734375,-43.9453125,67.3828125,0.0
1733975110.2454395,-53.7109375,-38.57421875,-56.15234375,-10.25390625,0.0
1733975110.249344,19.04296875,-31.73828125,-31.73828125,16.11328125,0.0
1733975110.2532485,199.21875,-23.4375,-8.7890625,130.859375,0.0
1733975110.257153,237.3046875,-28.3203125,-20.5078125,187.5,0.0
1733975110.2610574,57.6171875,-31.25,-29.78515625,86.42578125,0.0
1733975110.264962,-57.6171875,-28.80859375,-32.71484375,-9.27734375,0.0
1733975110.2688055,-6.34765625,-28.80859375,-32.71484375,9.27734375,0.0
1733975110.27271,175.29296875,-30.2734375,-24.4140625,120.1171875,0.0
1733975110.2766144,250.9765625,-24.90234375,-20.99609375,192.87109375,0.0
1733975110.280519,79.58984375,-24.90234375,-28.3203125,101.5625,0.0
1733975110.2844234,-58.59375,-29.296875,-34.1796875,-1.46484375,0.0
1733975110.288328,-21.97265625,-27.83203125,-31.73828125,6.34765625,0.0
1733975110.2922323,153.3203125,-28.3203125,-18.5546875,100.5859375,0.0
1733975110.2961369,255.37109375,-25.390625,-3.90625,178.7109375,0.0
1733975110.3000414,86.9140625,-28.3203125,-10.7421875,94.7265625,0.0
1733975110.3039458,-81.54296875,-39.55078125,-29.296875,-19.53125,0.0
1733975110.3078504,-56.640625,-37.109375,-23.4375,-24.4140625,0.0
1733975110.3117547,109.375,-25.390625,-3.90625,57.6171875,0.0
1733975110.3157268,238.28125,-21.484375,0.48828125,0.0,0.0
1733975110.3196313,106.93359375,-30.2734375,-15.13671875,0.0,0.0
1733975110.3235357,-68.359375,-37.109375,-21.97265625,0.0,0.0
1733975110.3274403,-72.75390625,-33.69140625,-15.13671875,0.0,0.0
1733975110.3313446,79.1015625,-32.71484375,-8.7890625,0.0,0.0
1733975110.3352492,227.5390625,-32.71484375,-8.7890625,0.0,0.0
1733975110.3391535,126.953125,-32.2265625,-10.25390625,0.0,0.0
1733975110.343058,-52.24609375,-30.2734375,-12.20703125,0.0,0.0
1733975110.3469625,-73.73046875,-36.1328125,-23.4375,0.0,0.0
1733975110.350867,51.26953125,-45.8984375,-27.34375,0.0,0.0
1733975110.3547714,201.66015625,-33.203125,0.48828125,0.0,0.0
1733975110.358676,134.765625,-26.85546875,-0.9765625,0.0,0.0
1733975110.3626099,-53.7109375,-35.64453125,-27.83203125,1.953125,0.0
1733975110.3665142,-100.5859375,-37.59765625,-26.85546875,-63.96484375,0.0
1733975110.3704188,8.7890625,-36.1328125,-19.53125,-4.39453125,0.0
1733975110.3743231,170.8984375,-36.62109375,-20.01953125,115.234375,0.0
1733975110.3782277,131.8359375,-34.1796875,-25.87890625,116.69921875,0.0
1733975110.3821323,-58.59375,-34.1796875,-32.2265625,3.41796875,0.0
1733975110.3860366,-117.67578125,-37.109375,-33.203125,-57.12890625,0.0
1733975110.3899412,-13.18359375,-31.25,-18.5546875,-15.13671875,0.0
1733975110.3938456,165.0390625,-25.390625,-10.25390625,108.3984375,0.0
1733975110.3977501,164.0625,-28.80859375,-23.92578125,144.04296875,0.0
1733975110.4016545,-29.78515625,-24.90234375,-17.08984375,20.01953125,0.0
1733975110.405559,-118.1640625,-22.94921875,-21.97265625,-57.12890625,0.0
1733975110.4094968,-41.50390625,-21.484375,-30.76171875,-27.83203125,0.0
1733975110.4134011,141.11328125,-15.13671875,-17.08984375,82.51953125,0.0
1733975110.4173057,168.9453125,-16.11328125,-16.6015625,120.60546875,0.0
1733975110.42121,-24.4140625,-22.94921875,-31.73828125,11.71875,0.0
1733975110.4251146,-118.65234375,-27.34375,-33.69140625,-72.75390625,0.0
1733975110.429019,-52.734375,-25.87890625,-27.34375,-47.8515625,0.0
1733975110.4329236,113.28125,-19.04296875,-17.08984375,56.15234375,0.0
1733975110.4368281,169.43359375,-20.5078125,-18.5546875,114.2578125,0.0
1733975110.4407325,0.9765625,-27.83203125,-44.43359375,28.80859375,0.0
1733975110.444637,-129.8828125,-25.390625,-38.57421875,-77.63671875,0.0
1733975110.4485414,-85.9375,-24.4140625,-20.5078125,-75.68359375,0.0
1733975110.452446,85.9375,-25.390625,-13.18359375,29.296875,0.0
1733975110.4563532,174.8046875,-21.484375,-10.25390625,120.1171875,0.0
1733975110.4602578,17.08984375,-26.3671875,-15.13671875,43.9453125,0.0
1733975110.464162,-130.859375,-29.296875,-20.5078125,-69.3359375,0.0
1733975110.4680667,-106.93359375,-31.73828125,-25.390625,-72.75390625,0.0
1733975110.471971,65.4296875,-31.73828125,-16.6015625,17.08984375,0.0
1733975110.4758756,181.15234375,-28.3203125,-14.16015625,112.79296875,0.0
1733975110.4797802,30.2734375,-33.203125,-28.3203125,49.8046875,0.0
1733975110.4836845,-128.41796875,-43.9453125,-43.45703125,-73.73046875,0.0
1733975110.4875891,-113.76953125,-42.96875,-44.43359375,-86.42578125,0.0
1733975110.4914935,38.0859375,-26.85546875,-14.6484375,8.30078125,0.0
1733975110.495398,177.24609375,-18.5546875,0.48828125,118.1640625,0.0
1733975110.4993024,73.2421875,-23.92578125,-19.53125,69.82421875,0.0
1733975110.503194,-99.12109375,-27.83203125,-23.92578125,-44.43359375,0.0
1733975110.5070987,-111.328125,-33.69140625,-20.5078125,-71.2890625,0.0
1733975110.511003,27.83203125,-36.1328125,-18.5546875,-4.8828125,0.0
1733975110.5149076,176.7578125,-34.66796875,-13.671875,111.328125,0.0
1733975110.518812,93.26171875,-33.203125,-17.08984375,94.7265625,0.0
1733975110.5227165,-89.35546875,-40.0390625,-29.78515625,-30.76171875,0.0
1733975110.5266209,-115.72265625,-39.0625,-30.76171875,-81.54296875,0.0
1733975110.5305254,14.16015625,-33.203125,-25.390625,2.44140625,0.0
1733975110.5344298,185.05859375,-28.80859375,-1.46484375,121.09375,0.0
1733975110.5383344,114.74609375,-28.80859375,1.953125,96.19140625,0.0
1733975110.5422387,-80.56640625,-33.203125,-18.06640625,-21.97265625,0.0
1733975110.5461433,-137.6953125,-35.15625,-27.34375,-83.49609375,0.0
1733975110.5500236,-30.76171875,-27.83203125,-19.04296875,-33.203125,0.0
1733975110.5539281,162.109375,-19.53125,-2.9296875,85.44921875,0.0
1733975110.5578325,137.20703125,-24.4140625,-17.578125,96.6796875,0.0
1733975110.561737,-54.6875,-31.73828125,-28.80859375,-20.01953125,0.0
1733975110.5656414,-124.51171875,-30.76171875,-28.3203125,-91.796875,0.0
1733975110.569546,-49.8046875,-28.80859375,-27.83203125,-58.10546875,0.0
1733975110.5734503,121.09375,-27.83203125,-17.578125,67.87109375,0.0
1733975110.577355,134.765625,-28.80859375,-24.90234375,114.2578125,0.0
1733975110.5812595,-56.640625,-31.25,-35.15625,-3.41796875,0.0
1733975110.5851638,-149.4140625,-39.55078125,-40.52734375,-93.75,0.0
1733975110.5890684,-66.40625,-45.41015625,-41.015625,-72.75390625,0.0
1733975110.5929728,107.91015625,-37.109375,-24.4140625,44.43359375,0.0
1733975110.5968266,145.01953125,-36.1328125,-15.625,97.65625,0.0
1733975110.600731,-11.71875,-40.52734375,-27.83203125,17.08984375,0.0
1733975110.6046355,-95.21484375,-45.8984375,-42.96875,-38.0859375,0.0
1733975110.60854,-64.94140625,-49.8046875,-28.80859375,-37.59765625,0.0
1733975110.6124444,80.56640625,-50.29296875,0.0,42.96875,0.0
1733975110.616349,166.50390625,-45.8984375,-11.71875,122.55859375,0.0
1733975110.6202533,20.01953125,-52.24609375,-44.921875,50.78125,0.0
1733975110.624158,-104.98046875,-52.24609375,-24.90234375,-39.0625,0.0
1733975110.6280622,-68.359375,-46.875,-0.48828125,-34.66796875,0.0
1733975110.6319668,98.6328125,-53.22265625,-0.48828125,61.03515625,0.0
1733975110.6358712,191.89453125,-53.7109375,-1.46484375,143.06640625,0.0
1733975110.6397758,41.9921875,-54.19921875,-6.34765625,76.171875,0.0
1733975110.6436245,-99.609375,-59.08203125,-4.8828125,-28.3203125,0.0
1733975110.6475291,-77.63671875,-62.01171875,-11.71875,-35.15625,0.0
1733975110.6514335,74.21875,-62.98828125,-2.44140625,60.05859375,0.0
1733975110.655338,208.0078125,-52.24609375,11.71875,161.62109375,0.0
1733975110.6592424,89.35546875,-49.8046875,-0.9765625,113.28125,0.0
1733975110.663147,-80.56640625,-55.17578125,-11.71875,0.48828125,0.0
1733975110.6670513,-83.984375,-58.10546875,-10.25390625,-24.90234375,0.0
1733975110.670956,46.875,-57.12890625,4.39453125,36.62109375,0.0
1733975110.6748602,196.2890625,-46.875,16.11328125,136.71875,0.0
1733975110.6787648,104.98046875,-50.29296875,-7.32421875,121.58203125,0.0
1733975110.6826692,-84.9609375,-55.6640625,-14.16015625,1.953125,0.0
1733975110.6865737,-111.81640625,-47.8515625,-0.9765625,-53.7109375,0.0
1733975110.6905265,34.66796875,-43.45703125,-0.9765625,15.625,0.0
1733975110.6944308,209.9609375,-42.96875,-2.9296875,127.44140625,0.0
1733975110.6983354,124.0234375,-46.38671875,-10.7421875,112.79296875,0.0
1733975110.7022398,-62.5,-48.828125,-21.484375,-2.9296875,0.0
1733975110.7061443,-104.00390625,-45.8984375,-25.87890625,-60.05859375,0.0
1733975110.7100487,-2.44140625,-48.828125,-29.78515625,-1.46484375,0.0
1733975110.7139533,166.015625,-38.57421875,-10.25390625,125.48828125,0.0
1733975110.7178576,127.44140625,-32.71484375,-4.8828125,125.0,0.0
1733975110.7217622,-60.546875,-41.50390625,-26.3671875,8.30078125,0.0
1733975110.7256665,-124.0234375,-52.24609375,-45.41015625,-52.734375,0.0
1733975110.729571,-27.83203125,-43.9453125,-24.90234375,-19.53125,0.0
1733975110.7334754,155.2734375,-29.296875,2.44140625,95.703125,0.0
1733975110.7374156,145.5078125,-39.0625,-9.27734375,125.0,0.0
1733975110.74132,-56.640625,-44.43359375,-23.92578125,14.6484375,0.0
1733975110.7452245,-138.671875,-44.43359375,-16.6015625,-64.453125,0.0
1733975110.7491288,-52.734375,-44.921875,-10.25390625,-33.203125,0.0
1733975110.7530334,128.41796875,-43.45703125,-6.34765625,78.61328125,0.0
1733975110.7569377,169.43359375,-45.41015625,-10.25390625,139.16015625,0.0
1733975110.7608423,-15.13671875,-45.8984375,-25.87890625,42.48046875,0.0
1733975110.764747,-135.25390625,-41.9921875,-25.390625,-63.4765625,0.0
1733975110.7686512,-81.54296875,-38.0859375,-23.92578125,-53.7109375,0.0
1733975110.7725558,112.3046875,-39.0625,-18.06640625,62.01171875,0.0
1733975110.7764602,189.94140625,-29.78515625,0.0,142.08984375,0.0
1733975110.7803648,7.32421875,-26.85546875,-13.671875,45.41015625,0.0
1733975110.7842894,-130.37109375,-31.73828125,-29.78515625,-52.734375,0.0
1733975110.7881937,-80.078125,-29.78515625,-25.390625,-41.50390625,0.0
1733975110.7920983,98.14453125,-22.4609375,-7.32421875,52.24609375,0.0
1733975110.7960026,187.98828125,-20.99609375,-6.8359375,128.41796875,0.0
1733975110.7999072,17.08984375,-35.15625,-36.1328125,28.80859375,0.0
1733975110.8038116,-124.0234375,-42.48046875,-47.36328125,-84.47265625,0.0
1733975110.8077161,-86.42578125,-35.15625,-35.15625,-74.70703125,0.0
1733975110.8116205,87.40234375,-30.2734375,-20.01953125,30.2734375,0.0
1733975110.815525,201.66015625,-36.1328125,-29.78515625,127.44140625,0.0
1733975110.8194294,42.96875,-38.57421875,-28.80859375,64.94140625,0.0
1733975110.823334,-126.46484375,-38.0859375,-27.34375,-64.453125,0.0
1733975110.8272383,-115.72265625,-41.9921875,-39.0625,-92.7734375,0.0
1733975110.831146,30.76171875,-40.0390625,-27.83203125,1.46484375,0.0
1733975110.8350506,166.015625,-33.203125,-19.04296875,104.4921875,0.0
1733975110.838955,59.5703125,-39.0625,-38.0859375,62.01171875,0.0
1733975110.8428595,-122.0703125,-46.875,-54.6875,-57.12890625,0.0
1733975110.8467638,-134.765625,-45.41015625,-56.15234375,-103.02734375,0.0
1733975110.8506684,-0.9765625,-41.9921875,-44.921875,-34.66796875,0.0
1733975110.8545728,148.92578125,-41.015625,-26.3671875,78.61328125,0.0
1733975110.8584774,78.61328125,-46.38671875,-32.2265625,62.5,0.0
1733975110.8623817,-102.5390625,-47.8515625,-48.33984375,-46.875,0.0
1733975110.8662863,-148.4375,-36.1328125,-30.76171875,-102.5390625,0.0
1733975110.8701906,-24.90234375,-34.1796875,-18.06640625,-40.0390625,0.0
1733975110.8740952,151.3671875,-44.921875,-16.6015625,96.6796875,0.0
1733975110.8779898,127.9296875,-44.43359375,-21.97265625,108.3984375,0.0
1733975110.881894,-59.08203125,-34.66796875,-40.0390625,-25.390625,0.0
1733975110.8857987,-140.13671875,-34.66796875,-48.33984375,-99.12109375,0.0
1733975110.889703,-44.921875,-35.64453125,-45.41015625,-60.546875,0.0
1733975110.8936076,133.7890625,-19.53125,-33.203125,55.6640625,0.0
1733975110.897512,112.79296875,-11.71875,-47.36328125,71.2890625,0.0
1733975110.9014165,-81.0546875,-15.625,-66.89453125,-42.48046875,0.0
1733975110.905321,-163.0859375,-14.16015625,-82.51953125,-123.53515625,0.0
1733975110.9092255,-77.1484375,1.953125,-69.3359375,-105.95703125,0.0
1733975110.9131298,108.3984375,17.08984375,-48.33984375,0.0,0.0
1733975110.9170344,115.234375,13.18359375,-57.6171875,43.45703125,0.0
1733975110.920939,-73.2421875,6.34765625,-78.61328125,-61.5234375,0.0
1733975110.924818,-164.0625,12.6953125,-83.49609375,-146.97265625,0.0
1733975110.9287226,-76.66015625,21.484375,-87.890625,-132.8125,0.0
1733975110.932627,118.65234375,20.01953125,-85.9375,-22.4609375,0.0
1733975110.9365315,157.2265625,23.4375,-86.42578125,41.50390625,0.0
1733975110.940436,-41.015625,28.80859375,-104.00390625,-66.40625,0.0
1733975110.9443405,-161.62109375,24.90234375,-113.28125,-146.97265625,0.0
1733975110.9482448,-88.37890625,22.94921875,-107.421875,-120.1171875,0.0
1733975110.9521494,100.5859375,36.62109375,-98.6328125,-28.80859375,0.0
1733975110.9560537,170.41015625,47.36328125,-85.9375,40.52734375,0.0
1733975110.9599583,19.53125,42.96875,-102.05078125,-29.296875,0.0
1733975110.9638627,-115.234375,31.73828125,-117.67578125,-133.30078125,0.0
1733975110.9677672,-91.796875,30.2734375,-106.93359375,-145.01953125,0.0
1733975110.97163,83.0078125,38.0859375,-83.49609375,-35.64453125,0.0
1733975110.9755344,185.546875,33.69140625,-75.1953125,71.2890625,0.0
1733975110.979439,37.59765625,25.87890625,-96.6796875,4.39453125,0.0
1733975110.9833434,-114.74609375,22.4609375,-96.19140625,-107.421875,0.0
1733975110.987248,-103.515625,19.53125,-82.03125,-114.2578125,0.0
1733975110.9911523,59.5703125,16.6015625,-78.61328125,-16.11328125,0.0
1733975110.9950569,193.359375,11.23046875,-81.54296875,90.33203125,0.0
1733975110.9989612,72.75390625,12.20703125,-71.2890625,36.1328125,0.0
1733975111.0028658,-101.5625,16.11328125,-62.5,-85.44921875,0.0
1733975111.0067704,-109.375,13.18359375,-66.40625,-115.234375,0.0
1733975111.0106747,35.64453125,7.8125,-62.5,-41.015625,0.0
1733975111.0145793,180.17578125,11.23046875,-45.8984375,73.2421875,0.0
1733975111.018429,83.0078125,7.32421875,-51.7578125,44.921875,0.0
1733975111.0223334,-101.07421875,-3.90625,-67.3828125,-63.4765625,0.0
1733975111.026238,-120.60546875,-3.41796875,-55.6640625,-95.21484375,0.0
1733975111.0301423,17.08984375,2.9296875,-36.1328125,-42.48046875,0.0
1733975111.034047,182.6171875,-0.48828125,-38.57421875,75.68359375,0.0
1733975111.0379512,118.1640625,-11.23046875,-51.26953125,82.51953125,0.0
1733975111.0418558,-73.2421875,-14.16015625,-53.22265625,-42.48046875,0.0
1733975111.0457602,-114.2578125,-9.27734375,-46.875,-94.7265625,0.0
1733975111.0496647,3.41796875,-5.37109375,-35.64453125,-42.96875,0.0
1733975111.053569,168.9453125,-6.8359375,-34.66796875,77.63671875,0.0
1733975111.0574737,134.765625,-14.16015625,-42.96875,103.02734375,0.0
1733975111.061378,-57.6171875,-14.6484375,-44.921875,-15.13671875,0.0
1733975111.0653331,-135.25390625,-17.08984375,-43.45703125,-87.890625,0.0
1733975111.0692375,-25.87890625,-19.04296875,-44.43359375,-51.26953125,0.0
1733975111.073142,155.2734375,-6.8359375,-32.71484375,62.5,0.0
1733975111.0770464,144.53125,-10.7421875,-31.73828125,98.6328125,0.0
1733975111.080951,-42.48046875,-24.90234375,-49.31640625,-5.859375,0.0
1733975111.0848553,-133.30078125,-31.73828125,-60.546875,-84.9609375,0.0
1733975111.08876,-51.7578125,-29.78515625,-42.96875,-60.05859375,0.0
1733975111.0926642,126.953125,-20.5078125,-19.04296875,64.94140625,0.0
1733975111.0965688,168.9453125,-26.85546875,-29.296875,125.48828125,0.0
1733975111.1004732,-15.13671875,-41.015625,-52.734375,18.5546875,0.0
1733975111.1043777,-139.6484375,-35.64453125,-43.9453125,-74.21875,0.0
1733975111.108282,-69.82421875,-28.80859375,-35.15625,-59.08203125,0.0
1733975111.1122215,114.74609375,-26.85546875,-27.83203125,44.43359375,0.0
1733975111.1161258,175.29296875,-26.85546875,-20.99609375,112.3046875,0.0
1733975111.1200304,13.671875,-29.296875,-24.90234375,28.80859375,0.0
1733975111.123935,-121.09375,-34.1796875,-28.80859375,-61.5234375,0.0
1733975111.1278393,-86.42578125,-39.55078125,-34.66796875,-55.6640625,0.0
1733975111.131744,89.84375,-37.59765625,-30.76171875,39.0625,0.0
1733975111.1356483,184.5703125,-28.80859375,-23.92578125,124.51171875,0.0
1733975111.1395528,36.62109375,-28.3203125,-26.3671875,48.33984375,0.0
1733975111.1434572,-116.2109375,-29.78515625,-38.0859375,-56.15234375,0.0
1733975111.1473618,-94.7265625,-28.3203125,-36.1328125,-54.19921875,0.0
1733975111.151266,77.63671875,-20.01953125,-7.32421875,30.76171875,0.0
1733975111.1551707,199.70703125,-20.01953125,-4.39453125,125.0,0.0
1733975111.1591,73.2421875,-25.390625,-25.87890625,74.70703125,0.0
1733975111.1630046,-94.23828125,-24.90234375,-33.203125,-40.0390625,0.0
1733975111.166909,-95.703125,-22.4609375,-25.87890625,-62.01171875,0.0
1733975111.1708136,59.08203125,-27.83203125,-20.5078125,15.13671875,0.0
1733975111.174718,207.51953125,-25.87890625,-19.04296875,139.16015625,0.0
1733975111.1786225,112.3046875,-24.4140625,-31.25,97.65625,0.0
1733975111.1825268,-72.75390625,-27.83203125,-41.50390625,-42.48046875,0.0
1733975111.1864314,-115.234375,-29.296875,-40.52734375,-86.42578125,0.0
1733975111.1903358,20.5078125,-34.66796875,-39.55078125,5.859375,0.0
1733975111.1942403,187.98828125,-28.80859375,-19.53125,112.3046875,0.0
1733975111.1981447,107.421875,-23.4375,-22.94921875,74.21875,0.0
1733975111.2020493,-69.3359375,-29.78515625,-43.9453125,-25.87890625,0.0
1733975111.2059574,-110.3515625,-24.90234375,-44.43359375,-71.2890625,0.0
1733975111.2098618,0.9765625,-16.11328125,-28.3203125,-18.5546875,0.0
1733975111.2137663,187.98828125,-13.18359375,-14.16015625,101.5625,0.0
1733975111.217671,129.39453125,-14.16015625,-26.3671875,107.91015625,0.0
1733975111.2215753,-71.77734375,-15.13671875,-37.109375,-14.16015625,0.0
1733975111.2254798,-121.09375,-20.01953125,-34.1796875,-72.75390625,0.0
1733975111.2293842,-24.90234375,-29.296875,-26.3671875,-28.3203125,0.0
1733975111.2332888,158.203125,-30.76171875,-26.3671875,81.0546875,0.0
1733975111.237193,150.390625,-32.2265625,-34.66796875,117.67578125,0.0
1733975111.2410977,-42.48046875,-25.87890625,-27.83203125,11.23046875,0.0
1733975111.245002,-131.8359375,-28.3203125,-33.69140625,-88.37890625,0.0
1733975111.2489066,-54.19921875,-35.15625,-40.0390625,-66.40625,0.0
1733975111.252804,137.20703125,-27.34375,-19.04296875,64.453125,0.0
1733975111.2567086,149.90234375,-27.83203125,-18.06640625,100.5859375,0.0
1733975111.2606132,-44.43359375,-35.15625,-44.43359375,-9.27734375,0.0
1733975111.2645175,-145.5078125,-32.71484375,-50.78125,-91.30859375,0.0
1733975111.2684221,-70.3125,-29.296875,-33.69140625,-67.87109375,0.0
1733975111.2723265,113.28125,-28.80859375,-20.01953125,47.8515625,0.0
1733975111.276231,166.50390625,-28.80859375,-24.4140625,122.0703125,0.0
1733975111.2801354,-12.20703125,-39.0625,-43.9453125,25.87890625,0.0
1733975111.28404,-154.78515625,-38.0859375,-41.015625,-73.73046875,0.0
1733975111.2879443,-99.12109375,-29.296875,-21.97265625,-58.59375,0.0
1733975111.291849,99.12109375,-29.296875,-15.625,44.921875,0.0
1733975111.2957532,177.24609375,-30.76171875,-25.390625,114.74609375,0.0
1733975111.299637,13.671875,-32.71484375,-31.73828125,37.109375,0.0
1733975111.3035417,-117.67578125,-33.203125,-28.3203125,-56.15234375,0.0
1733975111.307446,-94.7265625,-28.80859375,-31.73828125,-67.3828125,0.0
1733975111.3113506,66.89453125,-25.87890625,-19.04296875,18.06640625,0.0
1733975111.315255,181.640625,-29.78515625,-8.7890625,115.72265625,0.0
1733975111.3191595,25.390625,-34.66796875,-32.71484375,42.96875,0.0
1733975111.323064,-146.97265625,-38.57421875,-46.38671875,-70.80078125,0.0
1733975111.3269684,-123.53515625,-39.55078125,-43.45703125,-79.58984375,0.0
1733975111.330873,30.76171875,-32.71484375,-23.4375,4.39453125,0.0
1733975111.3347774,167.48046875,-27.34375,-6.34765625,101.07421875,0.0
1733975111.338682,55.17578125,-33.69140625,-25.87890625,54.6875,0.0
1733975111.3425863,-123.046875,-38.0859375,-36.1328125,-38.0859375,0.0
1733975111.3464549,-131.34765625,-33.69140625,-24.90234375,-76.66015625,0.0
1733975111.3503592,16.6015625,-31.73828125,-16.6015625,-17.578125,0.0
1733975111.3542638,171.875,-29.296875,-14.16015625,109.86328125,0.0
1733975111.3581681,78.125,-31.25,-17.578125,88.37890625,0.0
1733975111.3620727,-124.0234375,-35.15625,-27.83203125,-48.828125,0.0
1733975111.365977,-149.90234375,-40.52734375,-39.0625,-101.07421875,0.0
1733975111.3698816,-20.01953125,-46.38671875,-38.57421875,-25.87890625,0.0
1733975111.3737862,155.2734375,-35.15625,-12.20703125,91.30859375,0.0
1733975111.3776906,107.421875,-27.83203125,-8.7890625,75.68359375,0.0
1733975111.3815951,-94.7265625,-38.57421875,-28.80859375,-58.10546875,0.0
1733975111.3854995,-147.94921875,-41.015625,-32.2265625,-105.95703125,0.0
1733975111.389404,-33.203125,-28.80859375,-21.97265625,-42.48046875,0.0
1733975111.3932557,139.6484375,-24.4140625,-10.7421875,69.82421875,0.0
1733975111.39716,113.76953125,-30.2734375,-20.01953125,86.9140625,0.0
1733975111.4010646,-71.77734375,-32.2265625,-30.76171875,-26.3671875,0.0
1733975111.404969,-139.16015625,-27.34375,-23.4375,-97.16796875,0.0
1733975111.4088736,-40.52734375,-25.87890625,-19.53125,-53.7109375,0.0
1733975111.412778,142.578125,-29.296875,-19.04296875,62.5,0.0
1733975111.4166825,133.7890625,-27.34375,-24.4140625,91.796875,0.0
1733975111.4205868,-63.96484375,-28.80859375,-32.71484375,-19.53125,0.0
1733975111.4244914,-147.94921875,-29.296875,-34.66796875,-100.09765625,0.0
1733975111.4283957,-70.3125,-26.85546875,-31.73828125,-55.6640625,0.0
1733975111.4323003,118.1640625,-24.90234375,-14.6484375,74.21875,0.0
1733975111.436205,153.80859375,-19.53125,-11.71875,111.328125,0.0
1733975111.4402776,-37.109375,-20.5078125,-27.34375,-8.7890625,0.0
1733975111.4441822,-147.94921875,-27.34375,-40.52734375,-102.5390625,0.0
1733975111.4480865,-84.9609375,-28.3203125,-31.25,-83.984375,0.0
1733975111.451991,95.703125,-20.99609375,-5.859375,26.85546875,0.0
1733975111.4558954,169.43359375,-20.5078125,-9.27734375,104.00390625,0.0
1733975111.4598,-4.8828125,-34.66796875,-42.96875,12.6953125,0.0
1733975111.4637043,-136.71875,-33.69140625,-45.8984375,-105.46875,0.0
1733975111.467609,-98.14453125,-23.4375,-30.2734375,-94.7265625,0.0
1733975111.4715133,81.54296875,-22.94921875,-18.5546875,25.390625,0.0
1733975111.4754179,187.01171875,-24.90234375,-22.4609375,120.1171875,0.0
1733975111.4793222,27.83203125,-24.4140625,-23.92578125,52.24609375,0.0
1733975111.4832268,-119.140625,-28.80859375,-20.01953125,-55.17578125,0.0
1733975111.48718,-108.3984375,-30.76171875,-22.94921875,-66.89453125,0.0
1733975111.4910846,55.6640625,-29.296875,-15.13671875,16.11328125,0.0
1733975111.494989,179.6875,-26.85546875,-9.27734375,108.3984375,0.0
1733975111.4988935,45.8984375,-26.3671875,-22.4609375,54.19921875,0.0
1733975111.5027978,-118.65234375,-32.71484375,-40.52734375,-57.6171875,0.0
1733975111.5067024,-125.0,-37.59765625,-41.50390625,-84.9609375,0.0
1733975111.5106068,32.2265625,-29.78515625,-26.3671875,-4.39453125,0.0
1733975111.5145113,184.08203125,-25.390625,-16.6015625,84.47265625,0.0
1733975111.5184157,83.0078125,-26.3671875,-22.94921875,61.03515625,0.0
1733975111.5223203,-114.74609375,-26.85546875,-26.85546875,-42.96875,0.0
1733975111.5262246,-147.4609375,-31.25,-20.99609375,-82.03125,0.0
1733975111.5301292,0.9765625,-30.76171875,-13.18359375,-19.04296875,0.0
1733975111.5340514,168.9453125,-33.203125,-20.01953125,97.16796875,0.0
1733975111.5379558,93.26171875,-40.52734375,-26.3671875,95.21484375,0.0
1733975111.5418603,-106.93359375,-39.55078125,-19.04296875,-48.828125,0.0
1733975111.5457647,-145.01953125,-43.45703125,-25.87890625,-102.05078125,0.0
1733975111.5496693,1.953125,-46.875,-24.4140625,-11.23046875,0.0
1733975111.5535736,154.78515625,-43.45703125,-17.578125,87.40234375,0.0
1733975111.5574782,102.5390625,-40.52734375,-23.92578125,79.58984375,0.0
1733975111.5613825,-77.1484375,-41.50390625,-31.25,-31.73828125,0.0
1733975111.565287,-141.11328125,-43.9453125,-41.9921875,-107.91015625,0.0
1733975111.5691915,-28.3203125,-35.64453125,-31.73828125,-51.7578125,0.0
1733975111.573096,167.96875,-29.78515625,-10.25390625,100.5859375,0.0
1733975111.5770006,148.4375,-40.52734375,-14.16015625,132.32421875,0.0
1733975111.5809064,-70.3125,-58.59375,-27.83203125,8.30078125,0.0
1733975111.5848107,-167.48046875,-54.6875,-17.578125,-80.56640625,0.0
1733975111.5887153,-107.421875,-51.26953125,-12.20703125,-54.6875,0.0
1733975111.5926197,75.68359375,-60.05859375,-10.7421875,47.8515625,0.0
1733975111.5965242,111.81640625,-59.08203125,-13.18359375,82.51953125,0.0
1733975111.6004286,-89.84375,-62.98828125,-17.578125,-20.99609375,0.0
1733975111.6043332,-190.91796875,-65.4296875,-15.625,-102.05078125,0.0
1733975111.6082375,-125.48828125,-65.91796875,-15.13671875,-93.75,0.0
1733975111.612142,43.9453125,-67.87109375,-9.27734375,14.6484375,0.0
1733975111.6160467,104.4921875,-61.5234375,11.71875,91.30859375,0.0
1733975111.619951,-60.05859375,-63.96484375,-0.48828125,-19.04296875,0.0
1733975111.6238556,-197.75390625,-70.3125,-18.5546875,-122.0703125,0.0
1733975111.6277697,-163.57421875,-69.82421875,-8.30078125,-111.328125,0.0
1733975111.631674,33.203125,-65.91796875,7.8125,-12.20703125,0.0
1733975111.6355786,125.0,-61.5234375,5.37109375,72.265625,0.0
1733975111.639483,-29.296875,-61.03515625,-11.71875,2.9296875,0.0
1733975111.6433876,-173.828125,-63.96484375,-10.25390625,-90.8203125,0.0
1733975111.647292,-151.85546875,-67.87109375,-6.8359375,-95.703125,0.0
1733975111.6511965,29.78515625,-61.5234375,-1.46484375,-4.39453125,0.0
1733975111.6551008,145.01953125,-60.05859375,-2.9296875,104.98046875,0.0
1733975111.6590054,16.6015625,-56.15234375,-1.46484375,46.875,0.0
1733975111.6629097,-139.16015625,-51.7578125,0.0,-72.75390625,0.0
1733975111.6668143,-131.8359375,-57.12890625,-9.765625,-77.1484375,0.0
1733975111.6707187,26.3671875,-51.7578125,-3.90625,6.34765625,0.0
1733975111.6745977,159.66796875,-48.33984375,12.6953125,84.47265625,0.0
1733975111.6785023,46.38671875,-50.78125,4.39453125,49.8046875,0.0
1733975111.6824067,-124.51171875,-51.26953125,-17.08984375,-53.7109375,0.0
1733975111.6863112,-147.4609375,-48.33984375,-15.625,-87.40234375,0.0
1733975111.6902156,10.7421875,-44.43359375,-5.859375,-12.6953125,0.0
1733975111.6941202,180.6640625,-46.875,-3.90625,87.890625,0.0
1733975111.6980245,65.4296875,-58.10546875,-15.13671875,63.96484375,0.0
1733975111.701929,-130.859375,-65.91796875,-33.203125,-45.8984375,0.0
1733975111.7058337,-164.0625,-54.6875,-18.06640625,-103.515625,0.0
1733975111.709738,-27.34375,-45.8984375,-6.34765625,-42.96875,0.0
1733975111.7136426,150.87890625,-42.48046875,-7.8125,81.0546875,0.0
1733975111.717547,70.3125,-41.50390625,-16.6015625,78.125,0.0
1733975111.7214122,-97.65625,-39.55078125,-29.78515625,-41.50390625,0.0
1733975111.7253168,-105.46875,-32.2265625,-22.94921875,-53.22265625,0.0
1733975111.729221,-15.13671875,-41.015625,-2.44140625,10.7421875,0.0
1733975111.7331257,139.6484375,-47.8515625,10.7421875,96.6796875,0.0
1733975111.73703,119.140625,-46.38671875,1.953125,113.28125,0.0
1733975111.7409346,-82.51953125,-58.59375,-12.6953125,-3.41796875,0.0
1733975111.744839,-174.8046875,-81.0546875,-13.18359375,-80.56640625,0.0
1733975111.7487435,-81.0546875,-78.125,11.71875,-33.203125,0.0
1733975111.7526479,119.140625,-64.453125,32.71484375,75.68359375,0.0
1733975111.7565525,129.39453125,-76.66015625,25.390625,117.1875,0.0
1733975111.7604568,-73.73046875,-92.7734375,16.6015625,14.16015625,0.0
1733975111.7643614,-186.03515625,-94.23828125,22.94921875,-76.171875,0.0
1733975111.768213,-93.75,-86.9140625,35.15625,-41.015625,0.0
1733975111.7721176,88.8671875,-85.9375,41.015625,63.96484375,0.0
1733975111.776022,104.98046875,-92.7734375,38.0859375,116.2109375,0.0
1733975111.7799265,-78.61328125,-97.65625,40.0390625,25.390625,0.0
1733975111.783831,-192.3828125,-104.00390625,30.2734375,-74.21875,0.0
1733975111.7877355,-121.09375,-105.95703125,27.34375,-57.6171875,0.0
1733975111.7916398,56.640625,-106.93359375,47.8515625,62.98828125,0.0
1733975111.7955444,124.51171875,-103.02734375,48.828125,129.39453125,0.0
1733975111.7994487,-30.76171875,-97.65625,43.45703125,42.96875,0.0
1733975111.8033533,-163.57421875,-101.07421875,37.109375,-41.50390625,0.0
1733975111.8072577,-117.67578125,-100.5859375,34.1796875,-29.78515625,0.0
1733975111.8111622,63.96484375,-84.47265625,57.6171875,66.40625,0.0
1733975111.815121,152.34375,-82.51953125,57.6171875,145.99609375,0.0
1733975111.8190253,-5.37109375,-95.21484375,31.25,80.078125,0.0
1733975111.8229299,-138.671875,-91.30859375,25.390625,-26.85546875,0.0
1733975111.8268342,-114.74609375,-80.078125,32.2265625,-37.59765625,0.0
1733975111.8307388,35.64453125,-76.171875,33.203125,43.45703125,0.0
1733975111.8346431,158.203125,-77.63671875,26.85546875,147.94921875,0.0
1733975111.8385477,44.921875,-74.21875,20.01953125,107.91015625,0.0
1733975111.842452,-113.76953125,-70.3125,19.53125,-11.23046875,0.0
1733975111.8463566,-120.1171875,-72.265625,10.7421875,-43.45703125,0.0
1733975111.8502612,26.85546875,-75.1953125,7.8125,46.38671875,0.0
1733975111.8541656,178.7109375,-64.94140625,28.80859375,136.71875,0.0
1733975111.8580701,70.3125,-57.12890625,21.484375,84.9609375,0.0
1733975111.862011,-102.05078125,-63.96484375,0.9765625,-20.5078125,0.0
1733975111.8659153,-121.09375,-61.5234375,2.9296875,-55.17578125,0.0
1733975111.8698199,6.8359375,-48.828125,18.06640625,13.671875,0.0
1733975111.8737242,172.36328125,-49.31640625,21.484375,129.8828125,0.0
1733975111.8776288,103.02734375,-56.640625,4.8828125,115.72265625,0.0
1733975111.8815331,-95.21484375,-62.5,-8.30078125,-4.8828125,0.0
1733975111.8854377,-139.6484375,-62.98828125,-15.13671875,-52.24609375,0.0
1733975111.889342,-12.20703125,-51.7578125,-3.90625,-2.44140625,0.0
1733975111.8932467,157.2265625,-44.43359375,4.8828125,108.3984375,0.0
1733975111.897151,117.1875,-47.36328125,-7.8125,128.90625,0.0
1733975111.9010556,-71.2890625,-43.45703125,-1.953125,13.671875,0.0
1733975111.90496,-142.578125,-44.921875,-5.37109375,-55.6640625,0.0
1733975111.9088862,-40.52734375,-45.8984375,-9.27734375,-20.99609375,0.0
1733975111.9127908,155.76171875,-37.59765625,13.671875,83.984375,0.0
1733975111.916695,155.76171875,-37.109375,12.6953125,120.60546875,0.0
1733975111.9205997,-51.26953125,-44.921875,-5.37109375,10.7421875,0.0
1733975111.924504,-137.6953125,-44.921875,-15.13671875,-67.87109375,0.0
1733975111.9284086,-42.96875,-39.55078125,-18.06640625,-33.69140625,0.0
1733975111.932313,128.41796875,-33.69140625,-4.8828125,64.453125,0.0
1733975111.9362175,145.01953125,-33.69140625,-1.46484375,113.76953125,0.0
1733975111.940122,-48.33984375,-47.8515625,-24.4140625,22.4609375,0.0
1733975111.9440265,-145.99609375,-37.59765625,-19.04296875,-61.03515625,0.0
1733975111.9479308,-79.1015625,-31.25,-6.34765625,-49.31640625,0.0
1733975111.9518354,97.16796875,-41.9921875,-2.44140625,57.6171875,0.0
1733975111.955747,173.828125,-42.48046875,-6.34765625,140.13671875,0.0
1733975111.9596515,-4.8828125,-43.9453125,-15.625,51.7578125,0.0
1733975111.9635558,-146.484375,-45.8984375,-18.06640625,-64.94140625,0.0
1733975111.9674604,-90.33203125,-43.45703125,-14.6484375,-65.4296875,0.0
1733975111.9713647,82.03125,-41.015625,-1.953125,37.109375,0.0
1733975111.9752693,173.33984375,-39.55078125,-1.953125,123.53515625,0.0
1733975111.9791737,19.53125,-40.0390625,-10.25390625,44.43359375,0.0
1733975111.9830782,-132.8125,-40.52734375,-22.4609375,-60.546875,0.0
1733975111.9869826,-102.5390625,-36.62109375,-24.4140625,-52.24609375,0.0
1733975111.9908872,64.453125,-25.87890625,2.9296875,28.80859375,0.0
1733975111.9947915,182.12890625,-30.2734375,0.9765625,113.28125,0.0
1733975111.998696,38.57421875,-40.0390625,-21.97265625,52.734375,0.0
1733975112.0027125,-128.90625,-38.57421875,-27.34375,-65.4296875,0.0
1733975112.0066168,-122.55859375,-35.64453125,-18.06640625,-76.66015625,0.0
1733975112.0105214,36.1328125,-32.2265625,-12.20703125,12.6953125,0.0
1733975112.0144258,185.05859375,-31.25,-15.625,119.62890625,0.0
1733975112.0183303,59.08203125,-29.78515625,-22.94921875,66.89453125,0.0
1733975112.022235,-118.65234375,-38.57421875,-30.76171875,-48.33984375,0.0
1733975112.0261393,-128.90625,-42.96875,-26.3671875,-72.75390625,0.0
1733975112.0300438,7.32421875,-41.015625,-24.4140625,-2.9296875,0.0
1733975112.0339482,172.36328125,-32.71484375,-4.8828125,102.5390625,0.0
1733975112.0378528,87.40234375,-22.94921875,-2.9296875,77.63671875,0.0
1733975112.041757,-113.76953125,-31.25,-27.34375,-41.015625,0.0
1733975112.0456617,-142.08984375,-38.0859375,-32.71484375,-89.35546875,0.0
1733975112.0495448,-7.8125,-34.1796875,-19.04296875,-33.203125,0.0
1733975112.0534492,166.015625,-29.296875,-2.44140625,76.66015625,0.0
1733975112.0573537,98.6328125,-29.78515625,-6.8359375,75.1953125,0.0
1733975112.061258,-97.65625,-30.76171875,-20.99609375,-32.2265625,0.0
1733975112.0651627,-144.04296875,-33.69140625,-27.34375,-98.14453125,0.0
1733975112.069067,-40.0390625,-34.1796875,-25.390625,-50.78125,0.0
1733975112.0729716,149.4140625,-29.296875,-9.27734375,68.84765625,0.0
1733975112.076876,146.97265625,-30.2734375,-10.25390625,89.84375,0.0
1733975112.0807805,-62.98828125,-33.69140625,-22.94921875,-24.4140625,0.0
1733975112.084685,-148.92578125,-40.0390625,-29.296875,-100.5859375,0.0
1733975112.0885894,-46.875,-38.57421875,-34.66796875,-57.6171875,0.0
1733975112.092494,146.97265625,-30.2734375,-24.4140625,70.80078125,0.0
1733975112.0963588,162.59765625,-20.99609375,-8.30078125,102.5390625,0.0
1733975112.1002634,-30.76171875,-28.80859375,-25.87890625,-13.671875,0.0
1733975112.1041677,-138.671875,-43.45703125,-45.41015625,-83.984375,0.0
1733975112.1080723,-41.9921875,-37.109375,-31.73828125,-41.50390625,0.0
1733975112.1119766,152.34375,-17.08984375,-10.7421875,62.5,0.0
1733975112.1158812,167.96875,-18.5546875,-23.92578125,99.609375,0.0
1733975112.1197855,-14.16015625,-25.390625,-53.7109375,6.8359375,0.0
1733975112.1236901,-139.16015625,-14.6484375,-51.7578125,-90.8203125,0.0
1733975112.1275945,-95.703125,-10.25390625,-46.875,-93.26171875,0.0
1733975112.131499,99.12109375,-2.44140625,-52.734375,-4.39453125,0.0
1733975112.1354036,154.296875,11.71875,-61.5234375,58.10546875,0.0
1733975112.139308,-28.3203125,16.11328125,-76.66015625,-31.25,0.0
1733975112.143159,-141.6015625,12.6953125,-86.42578125,-139.6484375,0.0
1733975112.1470635,-120.60546875,8.7890625,-91.30859375,-150.390625,0.0
1733975112.1509678,20.5078125,15.625,-85.44921875,-64.94140625,0.0
1733975112.1548724,141.11328125,23.92578125,-75.1953125,14.16015625,0.0
1733975112.1587768,14.6484375,28.3203125,-86.42578125,-43.9453125,0.0
1733975112.1626813,-149.4140625,26.85546875,-101.5625,-144.53125,0.0
1733975112.1665857,-146.484375,19.53125,-103.02734375,-145.99609375,0.0
1733975112.1704903,11.71875,30.76171875,-87.890625,-52.734375,0.0
1733975112.1743946,152.83203125,48.33984375,-79.58984375,20.99609375,0.0
1733975112.1782992,34.66796875,46.875,-102.5390625,-18.06640625,0.0
1733975112.1822035,-132.8125,39.0625,-113.28125,-112.79296875,0.0
1733975112.186108,-132.8125,45.8984375,-103.02734375,-151.85546875,0.0
1733975112.1900673,10.7421875,45.8984375,-92.7734375,-78.61328125,0.0
1733975112.1939719,170.8984375,46.875,-86.42578125,35.15625,0.0
1733975112.1978762,97.65625,49.8046875,-97.65625,7.32421875,0.0
1733975112.2017808,-84.47265625,41.9921875,-103.515625,-90.33203125,0.0
1733975112.2056851,-117.1875,32.71484375,-101.5625,-127.44140625,0.0
1733975112.2095897,11.71875,24.4140625,-99.609375,-73.73046875,0.0
1733975112.213494,184.08203125,27.34375,-81.0546875,40.52734375,0.0
1733975112.2173986,115.72265625,25.87890625,-68.84765625,37.59765625,0.0
1733975112.221303,-84.9609375,13.18359375,-84.9609375,-70.3125,0.0
1733975112.2252076,-131.34765625,3.90625,-94.23828125,-110.83984375,0.0
1733975112.2291121,-16.6015625,10.25390625,-66.40625,-60.546875,0.0
1733975112.2330165,171.875,18.5546875,-48.828125,57.12890625,0.0
1733975112.2369528,134.27734375,7.8125,-65.91796875,91.30859375,0.0
1733975112.2408574,-67.3828125,2.9296875,-75.68359375,-31.25,0.0
1733975112.2447617,-128.90625,7.8125,-68.359375,-103.02734375,0.0
1733975112.2486663,-23.4375,10.7421875,-56.15234375,-56.15234375,0.0
1733975112.2525706,157.71484375,10.7421875,-45.41015625,57.6171875,0.0
1733975112.2564752,150.87890625,-1.46484375,-51.7578125,95.21484375,0.0
1733975112.2603796,-23.4375,-7.8125,-62.98828125,-15.13671875,0.0
1733975112.2642841,-127.44140625,-7.8125,-61.03515625,-97.65625,0.0
1733975112.2681885,-68.359375,-17.578125,-58.59375,-58.10546875,0.0
1733975112.272093,129.39453125,-15.625,-45.41015625,62.01171875,0.0
1733975112.2759974,168.9453125,-3.90625,-28.80859375,104.00390625,0.0
1733975112.279902,-17.578125,-15.13671875,-45.8984375,-7.32421875,0.0
1733975112.283828,-126.46484375,-27.34375,-58.59375,-91.30859375,0.0
1733975112.2877324,-72.265625,-25.87890625,-52.24609375,-60.546875,0.0
1733975112.291637,106.93359375,-20.5078125,-40.0390625,37.109375,0.0
1733975112.2955413,177.24609375,-17.578125,-41.9921875,101.5625,0.0
1733975112.2994459,7.8125,-30.76171875,-58.10546875,12.20703125,0.0
1733975112.3033502,-110.3515625,-32.2265625,-59.5703125,-75.68359375,0.0
1733975112.3072548,-75.1953125,-23.92578125,-47.36328125,-62.01171875,0.0
1733975112.3111591,91.796875,-21.97265625,-32.2265625,37.59765625,0.0
1733975112.3150637,188.96484375,-26.3671875,-42.48046875,136.71875,0.0
1733975112.318968,36.1328125,-23.92578125,-38.57421875,64.94140625,0.0
1733975112.3228726,-106.4453125,-28.3203125,-28.80859375,-58.59375,0.0
1733975112.326777,-75.1953125,-31.25,-38.57421875,-83.49609375,0.0
1733975112.330688,87.40234375,-24.90234375,-30.2734375,5.859375,0.0
1733975112.3345926,186.5234375,-25.87890625,-20.5078125,105.46875,0.0
1733975112.338497,60.546875,-28.3203125,-29.78515625,45.41015625,0.0
1733975112.3424015,-88.37890625,-33.69140625,-32.71484375,-45.8984375,0.0
1733975112.3463058,-94.23828125,-36.1328125,-32.71484375,-49.8046875,0.0
1733975112.3502104,41.015625,-32.71484375,-28.3203125,9.765625,0.0
1733975112.354115,167.48046875,-31.25,-21.97265625,98.14453125,0.0
1733975112.3580194,60.546875,-35.64453125,-33.203125,73.2421875,0.0
1733975112.361924,-107.91015625,-40.52734375,-51.26953125,-30.76171875,0.0
1733975112.3658283,-134.27734375,-31.73828125,-38.0859375,-82.51953125,0.0
1733975112.3697329,20.01953125,-26.85546875,-25.390625,-6.8359375,0.0
1733975112.3736372,180.17578125,-28.3203125,-29.296875,108.3984375,0.0
1733975112.3775382,103.515625,-31.73828125,-40.52734375,73.73046875,0.0
1733975112.3814428,-79.1015625,-30.76171875,-44.921875,-38.57421875,0.0
1733975112.3853471,-132.32421875,-31.25,-37.59765625,-84.9609375,0.0
1733975112.3892517,-4.39453125,-37.109375,-32.2265625,-20.99609375,0.0
1733975112.393156,163.57421875,-30.76171875,-22.94921875,86.9140625,0.0
1733975112.3970606,108.3984375,-32.2265625,-34.1796875,85.44921875,0.0
1733975112.400965,-74.70703125,-41.015625,-41.015625,-15.13671875,0.0
1733975112.4048696,-129.8828125,-53.22265625,-49.31640625,-69.3359375,0.0
1733975112.408774,-31.73828125,-43.45703125,-35.64453125,-34.66796875,0.0
1733975112.4126785,153.80859375,-30.2734375,-11.23046875,83.0078125,0.0
1733975112.4165828,146.484375,-42.48046875,-20.5078125,122.55859375,0.0
1733975112.4204874,-57.12890625,-45.41015625,-33.203125,-1.953125,0.0
1733975112.4243739,-126.46484375,-32.71484375,-25.87890625,-63.4765625,0.0
1733975112.4282784,-40.0390625,-32.2265625,-17.578125,-35.15625,0.0
1733975112.4321828,136.23046875,-34.1796875,-14.16015625,73.2421875,0.0
1733975112.4360874,159.66796875,-32.2265625,-21.97265625,125.0,0.0
1733975112.4399917,-27.83203125,-33.203125,-32.71484375,17.578125,0.0
1733975112.4438963,-127.9296875,-32.71484375,-30.76171875,-69.82421875,0.0
1733975112.4478006,-57.6171875,-36.1328125,-27.83203125,-38.0859375,0.0
1733975112.4517052,120.60546875,-39.55078125,-23.4375,78.61328125,0.0
1733975112.4556096,178.7109375,-26.3671875,-12.20703125,107.421875,0.0
1733975112.4595141,2.9296875,-26.85546875,-28.80859375,8.7890625,0.0
1733975112.4634187,-139.6484375,-38.0859375,-45.41015625,-75.68359375,0.0
1733975112.467323,-83.984375,-32.2265625,-32.71484375,-58.59375,0.0
1733975112.4711921,102.5390625,-22.4609375,-13.671875,44.921875,0.0
1733975112.4750967,174.8046875,-22.4609375,-19.04296875,109.86328125,0.0
1733975112.4790013,15.625,-27.83203125,-34.66796875,41.50390625,0.0
1733975112.4829056,-134.27734375,-30.76171875,-34.1796875,-54.19921875,0.0
1733975112.4868102,-102.05078125,-27.34375,-38.0859375,-69.3359375,0.0
1733975112.4907146,81.54296875,-24.90234375,-33.203125,21.97265625,0.0
1733975112.4946191,189.453125,-33.69140625,-37.59765625,108.88671875,0.0
1733975112.4985235,49.8046875,-34.1796875,-34.66796875,59.5703125,0.0
1733975112.502428,-104.00390625,-29.296875,-16.6015625,-51.26953125,0.0
1733975112.5063324,-85.9375,-28.3203125,-19.53125,-67.87109375,0.0
1733975112.510237,81.0546875,-26.3671875,-12.20703125,32.2265625,0.0
1733975112.5141413,208.49609375,-22.94921875,-4.39453125,126.46484375,0.0
1733975112.517993,78.125,-27.83203125,-16.6015625,76.66015625,0.0
1733975112.5218976,-88.37890625,-39.55078125,-32.71484375,-43.9453125,0.0
1733975112.525802,-105.46875,-34.66796875,-36.1328125,-80.56640625,0.0
1733975112.5297065,30.76171875,-27.34375,-23.92578125,-11.23046875,0.0
1733975112.5336108,181.15234375,-30.2734375,-18.5546875,86.42578125,0.0
1733975112.5375154,100.09765625,-34.66796875,-25.87890625,61.03515625,0.0
1733975112.5414197,-83.0078125,-43.45703125,-33.69140625,-41.50390625,0.0
1733975112.5453243,-123.53515625,-37.59765625,-34.66796875,-76.171875,0.0
1733975112.5492287,8.30078125,-27.34375,-19.04296875,-19.53125,0.0
1733975112.5531332,187.01171875,-30.76171875,-19.04296875,85.9375,0.0
1733975112.5570378,126.46484375,-42.48046875,-33.203125,77.1484375,0.0
1733975112.5609422,-66.40625,-40.52734375,-25.87890625,-45.41015625,0.0
1733975112.5649066,-116.2109375,-37.59765625,-30.76171875,-89.84375,0.0
1733975112.568811,-7.32421875,-39.55078125,-36.1328125,-30.2734375,0.0
1733975112.5727155,168.9453125,-32.71484375,-19.04296875,62.5,0.0
1733975112.5766199,150.87890625,-36.62109375,-14.16015625,89.84375,0.0
1733975112.5805244,-36.62109375,-44.43359375,-27.34375,-10.25390625,0.0
1733975112.5844288,-112.3046875,-45.8984375,-41.015625,-82.03125,0.0
1733975112.5883334,-15.625,-41.015625,-25.87890625,-43.9453125,0.0
1733975112.592238,169.43359375,-32.2265625,-0.9765625,60.05859375,0.0
1733975112.5961423,164.0625,-36.62109375,-14.16015625,89.35546875,0.0
1733975112.6000469,-31.25,-45.41015625,-47.36328125,2.44140625,0.0
1733975112.6039512,-114.2578125,-41.50390625,-44.43359375,-74.70703125,0.0
1733975112.6078558,-38.57421875,-38.0859375,-26.85546875,-66.89453125,0.0
1733975112.611798,138.671875,-31.73828125,-21.97265625,56.15234375,0.0
1733975112.6157024,179.6875,-27.83203125,-32.2265625,99.12109375,0.0
1733975112.619607,3.41796875,-30.2734375,-38.0859375,-14.16015625,0.0
1733975112.6235113,-109.375,-31.73828125,-32.2265625,-85.9375,0.0
1733975112.627416,-56.640625,-35.15625,-26.3671875,-73.73046875,0.0
1733975112.6313205,116.69921875,-36.1328125,-17.08984375,28.3203125,0.0
1733975112.6352248,181.640625,-35.15625,-22.94921875,95.21484375,0.0
1733975112.6391294,0.0,-37.59765625,-31.73828125,3.41796875,0.0
1733975112.6430337,-146.484375,-37.59765625,-36.62109375,-88.37890625,0.0
1733975112.6469383,-115.72265625,-40.52734375,-45.8984375,-87.890625,0.0
1733975112.6508427,62.5,-31.25,-19.53125,-13.671875,0.0
1733975112.6547472,168.9453125,-27.34375,-14.6484375,72.265625,0.0
1733975112.6586733,-1.953125,-31.25,-38.57421875,-0.9765625,0.0
1733975112.6625776,-153.80859375,-32.2265625,-43.9453125,-113.76953125,0.0
1733975112.6664822,-125.9765625,-30.2734375,-34.66796875,-127.44140625,0.0
1733975112.6703866,28.3203125,-29.296875,-24.4140625,-44.921875,0.0
1733975112.6742911,150.87890625,-38.57421875,-26.85546875,57.6171875,0.0
1733975112.6781955,18.06640625,-36.62109375,-37.109375,12.20703125,0.0
1733975112.6821,-134.27734375,-24.90234375,-39.0625,-95.703125,0.0
1733975112.6860046,-114.74609375,-27.34375,-33.203125,-101.5625,0.0
1733975112.689909,18.5546875,-41.50390625,-25.390625,-19.53125,0.0
1733975112.6938136,142.08984375,-34.66796875,0.9765625,57.12890625,0.0
1733975112.697718,21.484375,-30.76171875,-1.46484375,8.7890625,0.0
1733975112.7016225,-169.921875,-43.45703125,-24.90234375,-108.3984375,0.0
1733975112.7055352,-184.08203125,-47.36328125,-20.99609375,-140.625,0.0
1733975112.7094395,-51.26953125,-52.24609375,4.8828125,-75.68359375,0.0
1733975112.713344,114.2578125,-54.19921875,22.94921875,38.57421875,0.0
1733975112.7172484,33.203125,-60.05859375,17.08984375,35.15625,0.0
1733975112.721153,-157.2265625,-77.63671875,0.48828125,-86.42578125,0.0
1733975112.7250576,-187.5,-83.0078125,2.44140625,-136.71875,0.0
1733975112.728962,-75.1953125,-80.56640625,19.53125,-78.125,0.0
1733975112.7328665,85.9375,-85.9375,31.25,36.62109375,0.0
1733975112.7367709,42.48046875,-92.28515625,19.53125,48.33984375,0.0
1733975112.7406754,-163.0859375,-89.84375,23.92578125,-77.1484375,0.0
1733975112.7445798,-228.02734375,-96.6796875,21.97265625,-155.76171875,0.0
1733975112.7484844,-113.76953125,-107.91015625,17.08984375,-94.7265625,0.0
1733975112.752383,74.21875,-101.07421875,41.50390625,41.50390625,0.0
1733975112.7562876,47.8515625,-102.05078125,43.9453125,45.41015625,0.0
1733975112.760192,-146.97265625,-112.79296875,27.83203125,-59.5703125,0.0
1733975112.7640965,-217.7734375,-118.65234375,22.4609375,-104.4921875,0.0
1733975112.7680008,-131.34765625,-114.2578125,31.25,-79.1015625,0.0
1733975112.7719054,49.31640625,-103.02734375,43.45703125,25.87890625,0.0
1733975112.77581,90.8203125,-104.98046875,35.64453125,77.63671875,0.0
1733975112.7797143,-82.51953125,-116.69921875,14.6484375,-3.41796875,0.0
1733975112.783619,-192.87109375,-110.3515625,23.4375,-81.0546875,0.0
1733975112.7875233,-127.44140625,-93.26171875,35.15625,-79.1015625,0.0
1733975112.7914279,53.22265625,-87.890625,29.296875,27.34375,0.0
1733975112.7953322,107.421875,-89.84375,19.53125,88.37890625,0.0
1733975112.7992165,-53.7109375,-92.7734375,15.13671875,9.765625,0.0
1733975112.8031209,-173.33984375,-88.8671875,10.25390625,-79.58984375,0.0
1733975112.8070254,-127.9296875,-82.51953125,4.39453125,-76.66015625,0.0
1733975112.8109298,49.31640625,-73.2421875,14.6484375,36.62109375,0.0
1733975112.8148344,147.94921875,-64.94140625,20.01953125,121.09375,0.0
1733975112.8187387,-17.08984375,-73.2421875,7.32421875,27.83203125,0.0
1733975112.8226433,-171.875,-78.125,-11.71875,-59.5703125,0.0
1733975112.8265476,-138.671875,-71.2890625,-21.484375,-47.36328125,0.0
1733975112.8304522,32.2265625,-57.12890625,11.23046875,23.4375,0.0
1733975112.8343568,151.85546875,-53.7109375,22.4609375,110.83984375,0.0
1733975112.8382611,25.390625,-60.05859375,5.37109375,58.10546875,0.0
1733975112.8421657,-126.46484375,-57.12890625,-5.859375,-48.828125,0.0
1733975112.8460362,-114.2578125,-52.24609375,0.48828125,-56.15234375,0.0
1733975112.8499405,36.1328125,-50.78125,10.25390625,24.4140625,0.0
1733975112.8538451,162.59765625,-52.24609375,3.90625,126.953125,0.0
1733975112.8577495,59.5703125,-53.22265625,-4.39453125,97.16796875,0.0
1733975112.861654,-115.72265625,-53.7109375,-17.578125,-32.71484375,0.0
1733975112.8655584,-131.34765625,-53.7109375,-24.90234375,-54.19921875,0.0
1733975112.869463,20.99609375,-49.31640625,-16.6015625,30.2734375,0.0
1733975112.8733673,170.41015625,-38.57421875,5.859375,145.01953125,0.0
1733975112.877272,79.58984375,-37.109375,8.30078125,107.91015625,0.0
1733975112.8811762,-92.28515625,-42.96875,-12.6953125,-21.484375,0.0
1733975112.8850808,-131.8359375,-44.43359375,-22.94921875,-57.6171875,0.0
1733975112.8889854,-10.25390625,-37.59765625,-14.16015625,1.953125,0.0
1733975112.8928413,160.15625,-36.1328125,1.46484375,114.2578125,0.0
1733975112.896746,110.83984375,-43.9453125,-2.44140625,119.62890625,0.0
1733975112.9006503,-74.21875,-49.8046875,-18.06640625,-2.44140625,0.0
1733975112.9045548,-139.16015625,-49.31640625,-17.08984375,-64.453125,0.0
1733975112.9084594,-29.78515625,-45.8984375,-12.20703125,-13.671875,0.0
1733975112.9123638,155.76171875,-40.52734375,-7.8125,110.3515625,0.0
1733975112.9162683,132.8125,-41.9921875,-18.5546875,132.32421875,0.0
1733975112.9201727,-66.40625,-43.45703125,-20.5078125,4.8828125,0.0
1733975112.9240773,-141.11328125,-37.109375,-15.625,-72.265625,0.0
1733975112.9279816,-42.96875,-39.0625,-27.34375,-22.4609375,0.0
1733975112.9318862,141.11328125,-35.64453125,-15.13671875,103.515625,0.0
1733975112.9357905,137.20703125,-28.3203125,-1.953125,121.58203125,0.0
1733975112.939755,-52.24609375,-36.1328125,-19.04296875,21.97265625,0.0
1733975112.9436595,-134.765625,-41.50390625,-30.2734375,-44.921875,0.0
1733975112.9475641,-70.3125,-44.43359375,-24.4140625,-35.15625,0.0
1733975112.9514685,112.3046875,-39.55078125,-6.34765625,67.87109375,0.0
1733975112.955373,163.0859375,-43.9453125,-10.25390625,118.1640625,0.0
1733975112.9592774,-14.16015625,-54.19921875,-33.69140625,35.15625,0.0
1733975112.963182,-130.859375,-47.8515625,-37.109375,-46.875,0.0
1733975112.9670863,-63.4765625,-34.66796875,-25.390625,-32.2265625,0.0
1733975112.970991,139.16015625,-37.59765625,-14.6484375,114.2578125,0.0
1733975112.9748952,174.31640625,-59.5703125,-18.06640625,178.22265625,0.0
1733975112.9787998,-9.27734375,-50.29296875,-15.625,42.96875,0.0
1733975112.9827042,-132.32421875,-39.0625,-12.6953125,-74.70703125,0.0
1733975112.9866455,-118.65234375,-59.08203125,-11.71875,-60.05859375,0.0
1733975112.99055,47.36328125,-60.05859375,8.30078125,38.57421875,0.0
1733975112.9944544,159.66796875,-54.19921875,21.484375,122.0703125,0.0
1733975112.998359,9.27734375,-65.91796875,7.32421875,51.7578125,0.0
1733975113.0022633,-167.96875,-80.078125,0.0,-59.5703125,0.0
1733975113.006168,-152.34375,-81.0546875,10.7421875,-55.6640625,0.0
1733975113.0100725,18.5546875,-72.265625,17.578125,27.83203125,0.0
1733975113.0139768,139.16015625,-68.359375,29.296875,117.1875,0.0
1733975113.0178814,20.5078125,-74.70703125,16.6015625,77.63671875,0.0
1733975113.0217857,-131.8359375,-81.54296875,-4.39453125,-19.04296875,0.0
1733975113.0256903,-115.72265625,-74.21875,14.6484375,-51.7578125,0.0
1733975113.0295947,16.6015625,-67.87109375,20.01953125,11.71875,0.0
1733975113.0335243,167.48046875,-61.03515625,15.625,111.328125,0.0
1733975113.0374286,70.3125,-60.05859375,4.8828125,80.078125,0.0
1733975113.0413332,-108.88671875,-62.5,-5.859375,-26.3671875,0.0
1733975113.0452375,-121.58203125,-63.4765625,-5.37109375,-39.0625,0.0
1733975113.0491421,3.41796875,-59.5703125,-2.9296875,27.34375,0.0
1733975113.0530465,171.875,-48.828125,11.71875,122.55859375,0.0
1733975113.056951,107.91015625,-45.41015625,1.953125,100.5859375,0.0
1733975113.0608554,-67.87109375,-47.8515625,-11.23046875,-17.08984375,0.0
1733975113.06476,-91.796875,-54.6875,-17.08984375,-55.6640625,0.0
1733975113.0686643,11.71875,-51.26953125,8.30078125,22.4609375,0.0
1733975113.072569,175.29296875,-35.15625,28.3203125,126.46484375,0.0
1733975113.0764732,164.0625,-35.64453125,1.46484375,116.69921875,0.0
1733975113.0805058,-27.34375,-51.7578125,-10.25390625,-4.39453125,0.0
1733975113.0844102,-89.84375,-41.9921875,-6.8359375,-68.84765625,0.0
1733975113.0883148,13.18359375,-33.69140625,-12.20703125,-20.99609375,0.0
1733975113.092219,172.36328125,-42.48046875,-1.46484375,98.6328125,0.0
1733975113.0961237,189.453125,-38.57421875,0.9765625,140.13671875,0.0
1733975113.100028,13.18359375,-33.69140625,-13.18359375,38.57421875,0.0
1733975113.1039326,-62.5,-40.0390625,-8.30078125,-43.9453125,0.0
1733975113.1078372,39.0625,-34.1796875,-1.953125,-9.27734375,0.0
1733975113.1117415,186.5234375,-29.296875,-1.953125,107.421875,0.0
1733975113.1156461,203.61328125,-25.87890625,10.7421875,144.53125,0.0
1733975113.1195505,35.15625,-29.78515625,0.48828125,45.41015625,0.0
1733975113.123455,-55.17578125,-38.0859375,-12.6953125,-26.3671875,0.0
1733975113.1274734,9.27734375,-33.203125,-2.44140625,-27.83203125,0.0
1733975113.131378,168.45703125,-32.71484375,10.25390625,51.7578125,0.0
1733975113.1352823,225.5859375,-32.2265625,10.7421875,125.9765625,0.0
1733975113.1391869,55.6640625,-35.15625,-12.6953125,37.109375,0.0
1733975113.1430912,-63.4765625,-40.52734375,-15.13671875,-58.59375,0.0
1733975113.1469958,-21.97265625,-43.9453125,-10.7421875,-42.96875,0.0
1733975113.1509001,152.34375,-32.2265625,-11.23046875,53.22265625,0.0
1733975113.1548047,230.95703125,-33.69140625,-11.71875,122.0703125,0.0
1733975113.1587093,88.37890625,-33.69140625,-12.6953125,58.59375,0.0
1733975113.1626136,-31.73828125,-29.78515625,-17.08984375,-35.15625,0.0
1733975113.1665182,-34.1796875,-51.26953125,-14.16015625,-45.8984375,0.0
1733975113.1704226,118.1640625,-53.7109375,-13.671875,42.96875,0.0
1733975113.1743078,253.90625,-37.109375,5.37109375,124.51171875,0.0
1733975113.1782122,119.62890625,-30.2734375,-2.44140625,67.87109375,0.0
1733975113.1821167,-50.78125,-35.15625,-25.390625,-32.71484375,0.0
1733975113.186021,-33.69140625,-34.66796875,-17.578125,-36.62109375,0.0
1733975113.1899257,101.5625,-33.203125,-5.859375,35.64453125,0.0
1733975113.19383,210.9375,-37.59765625,-11.71875,99.12109375,0.0
1733975113.1977346,104.98046875,-46.875,-17.08984375,68.359375,0.0
1733975113.201639,-51.26953125,-50.78125,-19.53125,-24.4140625,0.0
1733975113.2055435,-63.4765625,-39.0625,-27.83203125,-53.7109375,0.0
1733975113.209448,78.61328125,-28.3203125,-9.27734375,9.27734375,0.0
1733975113.2133524,209.9609375,-28.3203125,-6.34765625,103.02734375,0.0
1733975113.217257,102.5390625,-37.59765625,-27.34375,82.03125,0.0
1733975113.2212417,-65.4296875,-39.0625,-26.3671875,-24.90234375,0.0
1733975113.225146,-91.796875,-38.0859375,-27.83203125,-69.3359375,0.0
1733975113.2290506,22.4609375,-35.64453125,-38.57421875,-19.04296875,0.0
1733975113.232955,193.359375,-30.2734375,-35.64453125,85.44921875,0.0
1733975113.2368596,142.08984375,-36.1328125,-36.62109375,86.9140625,0.0
1733975113.240764,-44.921875,-40.52734375,-46.875,-10.25390625,0.0
1733975113.2446685,-86.42578125,-43.45703125,-67.87109375,-58.59375,0.0
1733975113.2485728,27.34375,-39.55078125,-56.640625,-5.37109375,0.0
1733975113.2524774,169.921875,-23.92578125,-29.78515625,76.171875,0.0
1733975113.2563818,176.7578125,-23.92578125,-38.0859375,100.5859375,0.0
1733975113.2602863,9.765625,-32.71484375,-57.12890625,5.37109375,0.0
1733975113.264191,-69.3359375,-39.55078125,-52.734375,-76.171875,0.0
1733975113.2680483,22.4609375,-41.015625,-36.62109375,-33.203125,0.0
1733975113.2719526,174.31640625,-36.1328125,-31.25,68.84765625,0.0
1733975113.2758572,186.03515625,-26.3671875,-32.71484375,110.83984375,0.0
1733975113.2797618,7.8125,-20.5078125,-35.64453125,17.578125,0.0
1733975113.2836661,-95.21484375,-27.83203125,-37.109375,-64.453125,0.0
1733975113.2875707,-20.01953125,-34.66796875,-28.80859375,-22.4609375,0.0
1733975113.291475,119.62890625,-31.73828125,-18.5546875,56.640625,0.0
1733975113.2953796,152.83203125,-31.25,-9.27734375,87.40234375,0.0
1733975113.299284,14.6484375,-24.4140625,-13.671875,15.625,0.0
1733975113.3031886,-85.9375,-27.83203125,-27.34375,-64.453125,0.0
1733975113.307093,-50.78125,-47.36328125,-17.08984375,-27.34375,0.0
1733975113.3109975,125.0,-26.85546875,5.859375,55.17578125,0.0
1733975113.314955,221.19140625,-11.23046875,-1.46484375,115.72265625,0.0
1733975113.3188596,49.8046875,-28.80859375,-16.6015625,32.2265625,0.0
1733975113.3227642,-91.30859375,-39.0625,-10.25390625,-65.91796875,0.0
1733975113.3266685,-39.0625,-40.0390625,-4.8828125,-47.8515625,0.0
1733975113.330573,129.39453125,-29.296875,-7.8125,39.55078125,0.0
1733975113.3344774,219.23828125,-20.99609375,-19.53125,105.46875,0.0
1733975113.338382,99.12109375,-29.78515625,-11.71875,43.45703125,0.0
1733975113.3422863,-32.2265625,-39.55078125,-5.859375,-40.52734375,0.0
1733975113.346191,-32.71484375,-38.0859375,-11.23046875,-53.22265625,0.0
1733975113.3500953,109.86328125,-38.57421875,-9.27734375,43.9453125,0.0
1733975113.3539999,235.3515625,-32.2265625,-0.48828125,109.86328125,0.0
1733975113.3579044,137.20703125,-25.390625,-10.7421875,64.94140625,0.0
1733975113.3618522,-14.6484375,-38.0859375,-40.52734375,-34.66796875,0.0
1733975113.3657565,-32.2265625,-44.43359375,-55.6640625,-63.96484375,0.0
1733975113.369661,103.515625,-35.64453125,-47.8515625,10.7421875,0.0
1733975113.3735654,248.046875,-34.1796875,-39.55078125,96.6796875,0.0
1733975113.37747,145.01953125,-33.69140625,-54.6875,89.35546875,0.0
1733975113.3813746,2.44140625,-29.78515625,-69.82421875,-1.46484375,0.0
1733975113.385279,-1.953125,-29.78515625,-68.84765625,-38.0859375,0.0
1733975113.3891835,86.42578125,-35.15625,-56.15234375,3.90625,0.0
1733975113.3930879,201.171875,-37.109375,-50.29296875,97.16796875,0.0
1733975113.3969924,161.1328125,-37.109375,-64.453125,97.65625,0.0
1733975113.4008968,14.6484375,-35.64453125,-48.33984375,-25.390625,0.0
1733975113.4048014,-39.55078125,-33.69140625,-34.1796875,-63.4765625,0.0
1733975113.4087281,63.96484375,-34.1796875,-27.34375,-6.34765625,0.0
1733975113.4126327,210.9375,-27.83203125,-2.44140625,96.6796875,0.0
1733975113.416537,178.7109375,-29.78515625,1.46484375,107.91015625,0.0
1733975113.4204416,14.16015625,-36.1328125,-17.578125,-10.7421875,0.0
1733975113.424346,-38.57421875,-45.41015625,-17.08984375,-82.03125,0.0
1733975113.4282506,22.4609375,-41.50390625,-9.765625,-40.52734375,0.0
1733975113.432155,153.80859375,-24.90234375,-20.99609375,68.359375,0.0
1733975113.4360595,174.31640625,-30.76171875,-38.57421875,90.33203125,0.0
1733975113.4399638,30.76171875,-49.31640625,-76.171875,5.859375,0.0
1733975113.4438684,-57.6171875,-46.38671875,-92.28515625,-45.8984375,0.0
1733975113.447773,18.06640625,-36.1328125,-75.1953125,-24.4140625,0.0
1733975113.4516773,175.78125,-32.2265625,-78.61328125,76.171875,0.0
1733975113.45559,182.6171875,-33.203125,-89.84375,97.65625,0.0
1733975113.4594944,57.12890625,-35.15625,-95.21484375,27.83203125,0.0
1733975113.463399,-0.48828125,-33.69140625,-93.26171875,-37.109375,0.0
1733975113.4673035,29.78515625,-37.109375,-77.63671875,-32.2265625,0.0
1733975113.4712079,153.80859375,-33.203125,-56.640625,69.82421875,0.0
1733975113.4751124,184.5703125,-34.66796875,-53.22265625,116.2109375,0.0
1733975113.4790168,71.2890625,-34.1796875,-60.546875,62.01171875,0.0
1733975113.4829214,-14.6484375,-33.69140625,-67.87109375,-19.04296875,0.0
1733975113.4868257,3.41796875,-50.78125,-71.2890625,-25.390625,0.0
1733975113.4907303,131.8359375,-37.59765625,-57.12890625,42.48046875,0.0
1733975113.4946346,200.68359375,-20.5078125,-71.77734375,77.1484375,0.0
1733975113.4985392,67.3828125,-35.15625,-96.19140625,36.1328125,0.0
1733975113.5024357,-13.18359375,-46.875,-99.12109375,-41.50390625,0.0
1733975113.5063403,-2.44140625,-39.0625,-103.02734375,-57.12890625,0.0
1733975113.5102446,83.49609375,-22.94921875,-111.328125,6.8359375,0.0
1733975113.5141492,191.89453125,-19.04296875,-123.53515625,71.77734375,0.0
1733975113.5180535,91.796875,-31.25,-111.328125,40.52734375,0.0
1733975113.521958,-28.80859375,-34.1796875,-98.14453125,-37.59765625,0.0
1733975113.5258627,-5.37109375,-30.76171875,-91.796875,-35.15625,0.0
1733975113.529767,77.63671875,-29.78515625,-81.0546875,20.5078125,0.0
1733975113.5336716,151.3671875,-12.20703125,-57.6171875,101.5625,0.0
1733975113.537576,89.84375,-2.44140625,-37.59765625,65.4296875,0.0
1733975113.5414805,21.484375,-5.37109375,-40.0390625,-14.6484375,0.0
1733975113.545385,4.8828125,-17.08984375,-36.1328125,-34.1796875,0.0
1733975113.549269,58.10546875,-20.99609375,-26.3671875,-17.578125,0.0
1733975113.5531735,144.04296875,-11.23046875,-10.25390625,66.40625,0.0
1733975113.5570781,91.30859375,-7.32421875,-2.9296875,64.94140625,0.0
1733975113.5609825,0.9765625,-10.7421875,0.48828125,-27.83203125,0.0
1733975113.564887,-0.48828125,-12.6953125,28.80859375,-38.57421875,0.0
1733975113.5687914,56.640625,-5.859375,55.6640625,-9.765625,0.0
1733975113.572696,126.953125,4.39453125,86.9140625,50.29296875,0.0
1733975113.5766003,100.09765625,-2.44140625,124.51171875,62.5,0.0
1733975113.580505,3.90625,4.8828125,171.38671875,-24.4140625,0.0
1733975113.5844092,5.37109375,14.16015625,205.56640625,-44.43359375,0.0
1733975113.5883138,69.82421875,11.71875,231.4453125,1.46484375,0.0
1733975113.5922184,112.3046875,23.4375,261.71875,39.0625,0.0
1733975113.5962064,102.05078125,56.15234375,274.90234375,25.87890625,0.0
1733975113.6001108,44.43359375,78.125,293.9453125,-14.16015625,0.0
1733975113.6040154,36.62109375,91.30859375,313.96484375,-30.2734375,0.0
1733975113.6079197,99.12109375,105.95703125,333.0078125,-14.6484375,0.0
1733975113.6118243,166.9921875,108.3984375,368.1640625,40.0390625,0.0
1733975113.6157289,166.015625,98.6328125,389.16015625,40.52734375,0.0
1733975113.6196332,99.12109375,91.796875,387.6953125,-9.27734375,0.0
1733975113.6235378,65.91796875,104.98046875,402.83203125,-49.8046875,0.0
1733975113.6274421,113.28125,124.51171875,435.546875,-19.53125,0.0
1733975113.6313467,170.8984375,85.9375,441.40625,32.2265625,0.0
1733975113.635251,162.59765625,44.921875,444.82421875,46.38671875,0.0
1733975113.6391556,73.73046875,58.10546875,460.44921875,-14.16015625,0.0
1733975113.6430085,47.8515625,78.125,458.0078125,-62.5,0.0
1733975113.6469128,103.515625,84.9609375,452.1484375,-38.0859375,0.0
1733975113.6508174,165.52734375,90.33203125,476.07421875,26.3671875,0.0
1733975113.6547217,184.5703125,124.51171875,489.2578125,42.48046875,0.0
1733975113.6586263,126.46484375,148.92578125,484.86328125,-13.18359375,0.0
1733975113.6625307,77.1484375,152.34375,483.88671875,-42.48046875,0.0
1733975113.6664352,95.703125,182.6171875,486.81640625,-52.24609375,0.0
1733975113.6703398,198.73046875,208.49609375,497.55859375,-2.9296875,0.0
1733975113.6742442,224.609375,210.9375,511.23046875,63.96484375,0.0
1733975113.6781487,169.43359375,217.7734375,489.2578125,40.0390625,0.0
1733975113.682053,132.8125,222.16796875,477.5390625,-3.41796875,0.0
1733975113.6859577,138.671875,220.21484375,503.41796875,-22.4609375,0.0
1733975113.6899147,238.28125,217.7734375,503.41796875,1.953125,0.0
1733975113.6938193,260.25390625,204.1015625,499.51171875,51.26953125,0.0
1733975113.6977239,190.4296875,198.73046875,493.65234375,28.80859375,0.0
1733975113.7016282,170.8984375,206.54296875,489.74609375,-12.20703125,0.0
1733975113.7055328,186.5234375,209.47265625,488.28125,6.8359375,0.0
1733975113.7094371,244.62890625,212.40234375,472.65625,21.484375,0.0
1733975113.7133417,294.43359375,217.7734375,474.609375,74.70703125,0.0
1733975113.717246,211.42578125,207.51953125,480.46875,82.03125,0.0
1733975113.7211506,170.41015625,190.91796875,468.75,15.625,0.0
1733975113.725055,208.0078125,179.19921875,448.73046875,1.953125,0.0
1733975113.7289596,236.81640625,185.546875,459.9609375,22.4609375,0.0
1733975113.7328641,260.7421875,186.03515625,471.6796875,61.5234375,0.0
1733975113.7368064,224.12109375,175.78125,457.03125,33.69140625,0.0
1733975113.740711,165.0390625,162.59765625,464.35546875,5.859375,0.0
1733975113.7446153,195.3125,166.9921875,479.4921875,18.06640625,0.0
1733975113.74852,234.375,164.55078125,485.3515625,48.828125,0.0
1733975113.7524245,253.41796875,154.78515625,479.98046875,102.5390625,0.0
1733975113.7563288,226.07421875,163.57421875,462.40234375,75.1953125,0.0
1733975113.7602334,189.94140625,167.48046875,465.8203125,18.5546875,0.0
1733975113.7641377,208.49609375,177.734375,473.6328125,-0.48828125,0.0
1733975113.7680423,249.51171875,179.19921875,479.4921875,32.2265625,0.0
1733975113.7719467,262.20703125,156.73828125,488.28125,99.609375,0.0
1733975113.7758512,264.16015625,152.83203125,493.65234375,93.26171875,0.0
1733975113.7797558,240.72265625,146.484375,486.81640625,48.33984375,0.0
1733975113.7836838,238.28125,143.5546875,480.46875,9.765625,0.0
1733975113.7875884,274.90234375,145.5078125,490.72265625,27.34375,0.0
1733975113.7914927,291.9921875,136.71875,498.046875,72.75390625,0.0
1733975113.7953973,264.16015625,137.6953125,479.00390625,81.0546875,0.0
1733975113.7993016,215.33203125,149.90234375,469.23828125,59.08203125,0.0
1733975113.8032062,222.16796875,161.1328125,472.16796875,35.64453125,0.0
1733975113.8071108,257.32421875,167.48046875,467.7734375,42.96875,0.0
1733975113.8110151,259.27734375,164.55078125,467.28515625,61.03515625,0.0
1733975113.8149197,270.5078125,162.109375,444.82421875,81.54296875,0.0
1733975113.818824,264.16015625,173.828125,439.453125,59.5703125,0.0
1733975113.8227286,248.046875,179.19921875,440.91796875,57.6171875,0.0
1733975113.826633,250.0,171.38671875,419.921875,66.40625,0.0
1733975113.8305457,267.08984375,169.921875,413.57421875,62.01171875,0.0
1733975113.8344502,285.64453125,178.22265625,409.66796875,96.19140625,0.0
1733975113.8383546,240.234375,186.5234375,398.92578125,72.265625,0.0
1733975113.8422592,193.359375,184.08203125,393.5546875,13.18359375,0.0
1733975113.8461635,210.44921875,189.94140625,392.578125,42.48046875,0.0
1733975113.850068,253.90625,217.28515625,398.92578125,90.33203125,0.0
1733975113.8539727,252.44140625,308.59375,392.578125,105.95703125,0.0
1733975113.857877,202.63671875,398.92578125,373.53515625,93.75,0.0
1733975113.8617816,190.91796875,406.25,383.7890625,79.58984375,0.0
1733975113.865686,214.35546875,389.16015625,411.62109375,46.875,0.0
1733975113.8695905,262.20703125,379.8828125,416.9921875,48.828125,0.0
1733975113.8734949,259.27734375,356.93359375,418.9453125,110.3515625,0.0
1733975113.8774014,213.8671875,346.6796875,417.48046875,95.21484375,0.0
1733975113.8813057,210.44921875,334.9609375,411.62109375,23.92578125,0.0
1733975113.8852103,231.93359375,311.03515625,415.0390625,23.4375,0.0
1733975113.8891146,256.8359375,290.0390625,429.6875,78.125,0.0
1733975113.8930192,304.19921875,291.015625,438.4765625,131.8359375,0.0
1733975113.8969238,286.1328125,306.15234375,418.45703125,109.375,0.0
1733975113.9008281,204.58984375,295.8984375,424.8046875,51.26953125,0.0
1733975113.9047327,191.40625,269.04296875,443.84765625,54.19921875,0.0
1733975113.908637,285.15625,283.69140625,454.1015625,71.2890625,0.0
1733975113.9125416,317.87109375,298.828125,453.61328125,86.9140625,0.0
1733975113.916446,268.06640625,305.6640625,442.3828125,83.0078125,0.0
1733975113.9203506,229.98046875,319.82421875,450.68359375,49.31640625,0.0
1733975113.9242375,239.2578125,329.58984375,450.68359375,56.15234375,0.0
1733975113.9281418,270.99609375,317.87109375,444.82421875,86.42578125,0.0
1733975113.9320464,286.1328125,314.453125,439.453125,88.37890625,0.0
1733975113.935951,275.87890625,337.890625,441.40625,80.56640625,0.0
1733975113.9398553,239.2578125,341.30859375,444.3359375,77.1484375,0.0
1733975113.94376,234.86328125,330.56640625,452.63671875,53.22265625,0.0
1733975113.9476643,286.1328125,326.66015625,448.2421875,60.05859375,0.0
1733975113.9515688,320.3125,314.453125,438.4765625,100.5859375,0.0
1733975113.9554732,301.7578125,312.5,464.84375,100.09765625,0.0
1733975113.9593778,253.41796875,302.24609375,470.21484375,56.640625,0.0
1733975113.963282,234.375,284.1796875,454.58984375,43.45703125,0.0
1733975113.9671867,267.08984375,284.66796875,449.21875,50.78125,0.0
1733975113.9711733,279.78515625,281.25,460.44921875,83.0078125,0.0
1733975113.9750776,258.7890625,267.578125,458.49609375,93.26171875,0.0
1733975113.9789822,253.41796875,262.20703125,443.359375,68.359375,0.0
1733975113.9828866,233.3984375,265.13671875,447.75390625,41.015625,0.0
1733975113.9867911,237.3046875,264.16015625,450.68359375,46.875,0.0
1733975113.9906955,275.390625,251.46484375,447.75390625,91.796875,0.0
1733975113.9946,281.25,241.69921875,439.94140625,88.37890625,0.0
1733975113.9985046,252.44140625,241.69921875,453.61328125,60.546875,0.0
1733975114.002409,211.9140625,238.76953125,468.75,60.546875,0.0
1733975114.0063136,235.3515625,239.2578125,456.0546875,72.75390625,0.0
1733975114.010218,280.76171875,248.53515625,449.21875,89.84375,0.0
1733975114.0141225,255.37109375,244.140625,454.58984375,102.05078125,0.0
1733975114.0179765,201.66015625,236.81640625,455.078125,73.73046875,0.0
1733975114.0218809,187.5,235.3515625,448.2421875,59.08203125,0.0
1733975114.0257854,216.30859375,224.609375,448.73046875,60.05859375,0.0
1733975114.0296898,245.1171875,224.12109375,453.61328125,71.2890625,0.0
1733975114.0335944,241.69921875,215.8203125,447.75390625,92.7734375,0.0
1733975114.037499,204.1015625,200.68359375,448.73046875,82.03125,0.0
1733975114.0414033,192.87109375,194.82421875,453.61328125,74.70703125,0.0
1733975114.0453079,235.83984375,208.0078125,445.80078125,72.75390625,0.0
1733975114.0492122,273.4375,219.7265625,452.1484375,60.546875,0.0
1733975114.0531168,241.2109375,197.265625,451.171875,97.16796875,0.0
1733975114.0570211,208.49609375,189.453125,432.12890625,107.421875,0.0
1733975114.0609257,194.82421875,199.70703125,434.08203125,48.828125,0.0
1733975114.064891,177.734375,188.4765625,434.08203125,52.24609375,0.0
1733975114.0687957,238.28125,182.6171875,423.828125,92.7734375,0.0
1733975114.0727,261.23046875,184.5703125,425.29296875,102.05078125,0.0
1733975114.0766046,216.30859375,178.22265625,424.31640625,64.453125,0.0
1733975114.080509,170.8984375,160.15625,410.64453125,47.36328125,0.0
1733975114.0844135,208.0078125,143.5546875,402.83203125,81.54296875,0.0
1733975114.088318,262.20703125,158.69140625,407.71484375,102.5390625,0.0
1733975114.0922225,231.4453125,166.015625,404.296875,81.54296875,0.0
1733975114.096127,185.05859375,153.3203125,386.23046875,63.4765625,0.0
1733975114.1000314,182.6171875,151.85546875,375.0,81.54296875,0.0
1733975114.103936,214.84375,149.4140625,377.44140625,72.75390625,0.0
1733975114.1078403,249.51171875,142.578125,378.90625,83.49609375,0.0
1733975114.1117835,249.51171875,159.66796875,360.3515625,131.8359375,0.0
1733975114.115688,226.5625,170.41015625,329.58984375,131.8359375,0.0
1733975114.1195924,208.0078125,165.52734375,331.0546875,70.80078125,0.0
1733975114.123497,196.2890625,151.85546875,331.0546875,46.38671875,0.0
1733975114.1274016,229.4921875,138.18359375,319.3359375,83.984375,0.0
1733975114.131306,264.6484375,143.5546875,309.08203125,129.8828125,0.0
1733975114.1352105,260.25390625,153.80859375,296.875,126.953125,0.0
1733975114.1391149,231.4453125,149.90234375,297.36328125,81.0546875,0.0
1733975114.1430194,251.46484375,142.08984375,288.0859375,80.078125,0.0
1733975114.1469238,271.97265625,129.39453125,274.4140625,102.5390625,0.0
1733975114.1508284,259.765625,116.2109375,286.62109375,108.3984375,0.0
1733975114.154733,238.28125,111.328125,286.62109375,117.67578125,0.0
1733975114.158656,194.3359375,109.375,269.04296875,79.1015625,0.0
1733975114.1625605,210.44921875,103.02734375,264.6484375,74.21875,0.0
1733975114.1664648,225.5859375,87.890625,271.484375,81.54296875,0.0
1733975114.1703694,208.49609375,69.82421875,269.53125,82.51953125,0.0
1733975114.174274,200.1953125,69.3359375,258.7890625,120.1171875,0.0
1733975114.1781783,166.50390625,70.80078125,244.140625,103.515625,0.0
1733975114.182083,154.296875,75.1953125,239.74609375,61.03515625,0.0
1733975114.1859872,176.26953125,74.21875,246.58203125,57.12890625,0.0
1733975114.1898918,205.078125,57.12890625,243.1640625,86.42578125,0.0
1733975114.1937962,235.83984375,66.89453125,240.72265625,103.515625,0.0
1733975114.1977007,162.59765625,67.3828125,238.76953125,83.984375,0.0
1733975114.2016053,126.46484375,50.78125,236.328125,78.125,0.0
1733975114.2055144,174.8046875,53.22265625,233.3984375,74.70703125,0.0
1733975114.209419,203.61328125,55.6640625,233.3984375,89.84375,0.0
1733975114.2133234,205.56640625,55.17578125,234.375,111.81640625,0.0
1733975114.217228,177.24609375,56.15234375,226.5625,80.56640625,0.0
1733975114.2211323,148.92578125,52.734375,219.23828125,39.55078125,0.0
1733975114.2250369,150.87890625,44.43359375,217.7734375,41.015625,0.0
1733975114.2289412,180.17578125,44.921875,213.37890625,67.3828125,0.0
1733975114.2328458,194.82421875,54.6875,203.61328125,90.33203125,0.0
1733975114.2367504,182.6171875,47.36328125,193.359375,78.125,0.0
1733975114.2406547,127.9296875,46.38671875,208.0078125,70.80078125,0.0
1733975114.2445593,125.48828125,46.38671875,211.9140625,62.5,0.0
1733975114.2484636,185.546875,36.62109375,200.1953125,19.53125,0.0
1733975114.252364,169.43359375,37.59765625,193.84765625,58.10546875,0.0
1733975114.2562685,125.0,41.50390625,187.5,79.1015625,0.0
1733975114.260173,106.93359375,40.0390625,182.6171875,41.50390625,0.0
1733975114.2640774,115.72265625,39.55078125,178.7109375,47.36328125,0.0
1733975114.267982,127.9296875,37.109375,177.734375,62.01171875,0.0
1733975114.2718863,143.06640625,33.203125,167.48046875,75.68359375,0.0
1733975114.275791,133.7890625,32.2265625,165.52734375,69.3359375,0.0
1733975114.2796953,104.00390625,29.78515625,159.66796875,48.33984375,0.0
1733975114.2835999,79.1015625,41.015625,155.2734375,24.4140625,0.0
1733975114.2875044,134.27734375,51.7578125,159.1796875,30.2734375,0.0
1733975114.2914088,157.2265625,45.8984375,155.2734375,84.47265625,0.0
1733975114.2953134,102.05078125,39.55078125,144.04296875,76.171875,0.0
1733975114.299196,74.21875,39.55078125,139.16015625,41.50390625,0.0
1733975114.3031006,81.54296875,43.9453125,141.6015625,36.1328125,0.0
1733975114.307005,95.21484375,37.59765625,138.671875,20.5078125,0.0
1733975114.3109095,124.51171875,26.3671875,131.34765625,40.52734375,0.0
1733975114.3148139,132.8125,30.2734375,120.60546875,59.08203125,0.0
1733975114.3187184,64.453125,39.55078125,120.1171875,18.5546875,0.0
1733975114.3226228,50.78125,39.55078125,117.67578125,19.04296875,0.0
1733975114.3265274,87.40234375,31.25,114.2578125,40.52734375,0.0
1733975114.330432,106.4453125,33.69140625,133.30078125,60.05859375,0.0
1733975114.3343363,102.05078125,41.50390625,132.8125,64.453125,0.0
1733975114.3382409,62.98828125,36.62109375,114.74609375,12.6953125,0.0
1733975114.3421452,38.57421875,30.76171875,115.234375,2.9296875,0.0
1733975114.3461306,97.16796875,33.69140625,118.1640625,12.20703125,0.0
1733975114.3500352,108.88671875,35.15625,108.88671875,20.99609375,0.0
1733975114.3539395,97.16796875,26.85546875,91.796875,58.10546875,0.0
1733975114.357844,92.28515625,27.83203125,92.28515625,34.1796875,0.0
1733975114.3617485,62.01171875,30.2734375,93.75,0.48828125,0.0
1733975114.365653,94.7265625,29.296875,82.51953125,0.9765625,0.0
1733975114.3695576,116.2109375,23.92578125,74.21875,26.85546875,0.0
1733975114.373462,71.77734375,31.25,75.1953125,41.50390625,0.0
1733975114.3773665,58.10546875,43.9453125,76.66015625,14.6484375,0.0
1733975114.381271,55.17578125,33.69140625,66.89453125,-8.30078125,0.0
1733975114.3851755,70.80078125,21.484375,59.08203125,-0.48828125,0.0
1733975114.3890798,108.3984375,30.2734375,59.08203125,17.578125,0.0
1733975114.3929303,101.5625,38.0859375,59.08203125,37.59765625,0.0
1733975114.3968349,96.6796875,27.83203125,46.875,21.97265625,0.0
1733975114.4007394,68.359375,15.13671875,34.1796875,9.765625,0.0
1733975114.4046438,40.52734375,9.27734375,32.2265625,8.30078125,0.0
1733975114.4085484,86.9140625,9.27734375,30.2734375,16.6015625,0.0
1733975114.4124527,100.09765625,11.71875,30.2734375,45.41015625,0.0
1733975114.4163573,74.21875,17.578125,22.4609375,35.15625,0.0
1733975114.4202616,58.59375,12.6953125,23.4375,-5.859375,0.0
1733975114.4241662,65.4296875,11.23046875,26.85546875,-5.859375,0.0
1733975114.4280708,89.35546875,9.27734375,22.4609375,23.92578125,0.0
1733975114.4319751,114.2578125,4.8828125,18.5546875,49.31640625,0.0
1733975114.4358797,112.3046875,11.71875,26.3671875,54.6875,0.0
1733975114.4398355,49.31640625,-1.46484375,20.5078125,17.578125,0.0
1733975114.44374,58.59375,-8.30078125,2.44140625,-15.625,0.0
1733975114.4476445,83.0078125,3.90625,8.30078125,18.06640625,0.0
1733975114.451549,79.58984375,15.13671875,23.92578125,37.59765625,0.0
1733975114.4554534,86.42578125,5.859375,24.90234375,34.66796875,0.0
1733975114.459358,65.91796875,-12.20703125,9.27734375,4.8828125,0.0
1733975114.4632623,53.7109375,-10.7421875,3.90625,-23.4375,0.0
1733975114.467167,65.4296875,-7.8125,22.4609375,-12.20703125,0.0
1733975114.4710712,98.6328125,-6.8359375,24.4140625,26.3671875,0.0
1733975114.4749758,83.49609375,-11.71875,0.9765625,56.15234375,0.0
1733975114.4788804,20.01953125,-14.6484375,-1.953125,13.18359375,0.0
1733975114.4827847,35.64453125,-9.765625,12.20703125,-18.5546875,0.0
1733975114.48673,86.9140625,-6.34765625,6.8359375,6.34765625,0.0
1733975114.4906344,108.3984375,-1.46484375,7.8125,26.3671875,0.0
1733975114.494539,115.72265625,1.953125,23.4375,20.5078125,0.0
1733975114.4984436,73.73046875,-11.23046875,16.6015625,14.16015625,0.0
1733975114.502348,56.640625,-15.13671875,6.34765625,0.48828125,0.0
1733975114.5062525,69.3359375,-9.765625,7.8125,2.44140625,0.0
1733975114.5101569,93.26171875,-10.7421875,15.625,48.33984375,0.0
1733975114.5140615,90.8203125,-12.20703125,21.484375,57.6171875,0.0
1733975114.517966,70.3125,-8.30078125,8.30078125,10.25390625,0.0
1733975114.5218704,65.4296875,-15.625,-4.39453125,5.859375,0.0
1733975114.525775,81.0546875,-18.5546875,12.20703125,2.44140625,0.0
1733975114.5296793,94.23828125,-12.20703125,21.97265625,26.3671875,0.0
1733975114.533605,101.07421875,-0.9765625,11.23046875,50.78125,0.0
1733975114.5375094,76.171875,-1.953125,1.46484375,2.44140625,0.0
1733975114.541414,38.0859375,-18.06640625,12.20703125,-21.97265625,0.0
1733975114.5453186,45.8984375,-20.5078125,9.27734375,0.9765625,0.0
1733975114.549223,77.63671875,-13.671875,-3.41796875,37.109375,0.0
1733975114.5531275,94.23828125,-9.27734375,-5.859375,61.5234375,0.0
1733975114.5570319,54.19921875,3.90625,6.8359375,17.08984375,0.0
1733975114.5609365,18.06640625,4.8828125,10.7421875,-23.4375,0.0
1733975114.5648408,17.08984375,-42.96875,-1.953125,-10.7421875,0.0
1733975114.5687454,68.359375,-29.296875,5.859375,16.6015625,0.0
1733975114.57265,92.7734375,13.671875,9.27734375,28.80859375,0.0
1733975114.5765543,46.38671875,-0.48828125,7.8125,35.15625,0.0
1733975114.5804706,34.1796875,-9.27734375,0.48828125,-11.71875,0.0
1733975114.584375,49.8046875,-8.7890625,6.34765625,-31.73828125,0.0
1733975114.5882795,63.4765625,-19.04296875,11.23046875,16.6015625,0.0
1733975114.592184,87.890625,-23.4375,6.34765625,47.8515625,0.0
1733975114.5960884,63.96484375,-30.2734375,8.7890625,4.8828125,0.0
1733975114.599993,14.16015625,-33.203125,12.6953125,-24.4140625,0.0
1733975114.6038973,26.3671875,-24.4140625,12.20703125,-18.5546875,0.0
1733975114.607802,75.1953125,-23.92578125,11.23046875,-20.01953125,0.0
1733975114.6117063,78.125,-31.25,11.71875,19.53125,0.0
1733975114.6156108,61.5234375,-16.11328125,17.08984375,11.23046875,0.0
1733975114.6195154,24.90234375,-24.90234375,21.484375,-33.69140625,0.0
1733975114.6234198,22.4609375,-29.78515625,19.04296875,-24.90234375,0.0
1733975114.627322,77.63671875,-22.94921875,27.83203125,14.16015625,0.0
1733975114.6312265,97.65625,-27.34375,33.203125,40.52734375,0.0
1733975114.6351311,74.21875,-14.6484375,22.94921875,33.203125,0.0
1733975114.6390355,50.29296875,-19.04296875,16.6015625,4.39453125,0.0
1733975114.64294,46.38671875,-38.0859375,25.390625,-34.1796875,0.0
1733975114.6468444,53.22265625,-19.53125,22.94921875,3.90625,0.0
1733975114.650749,70.3125,-10.25390625,24.90234375,47.36328125,0.0
1733975114.6546533,75.68359375,-25.390625,19.53125,27.83203125,0.0
1733975114.658558,25.390625,-9.765625,22.94921875,-7.32421875,0.0
1733975114.6624625,6.34765625,-4.39453125,44.43359375,-21.484375,0.0
1733975114.6663668,41.50390625,-12.20703125,34.1796875,-6.8359375,0.0
1733975114.6702714,64.453125,-7.8125,28.80859375,34.66796875,0.0
1733975114.674156,62.98828125,-4.8828125,32.71484375,24.90234375,0.0
1733975114.6780605,43.45703125,-8.7890625,31.25,5.37109375,0.0
1733975114.681965,26.85546875,-6.8359375,26.3671875,-15.625,0.0
1733975114.6858695,28.80859375,-8.30078125,19.53125,-8.7890625,0.0
1733975114.689774,43.9453125,-4.39453125,25.390625,35.64453125,0.0
1733975114.6936784,59.5703125,0.0,28.3203125,44.921875,0.0
1733975114.697583,49.8046875,1.953125,16.6015625,19.53125,0.0
1733975114.7014873,12.6953125,-3.90625,9.27734375,-11.71875,0.0
1733975114.705392,1.953125,0.0,25.87890625,-9.765625,0.0
1733975114.7092965,51.7578125,-0.9765625,31.25,9.765625,0.0
1733975114.7132008,47.8515625,-11.71875,20.01953125,29.78515625,0.0
1733975114.7171054,-7.8125,-13.18359375,17.578125,22.4609375,0.0
1733975114.721093,-0.48828125,4.39453125,28.3203125,-32.71484375,0.0
1733975114.7249975,14.16015625,19.04296875,29.296875,-37.109375,0.0
1733975114.7289019,39.55078125,15.625,21.484375,-2.44140625,0.0
1733975114.7328064,72.265625,12.20703125,30.76171875,14.16015625,0.0
1733975114.7367108,41.9921875,6.8359375,31.73828125,9.765625,0.0
1733975114.7406154,-1.953125,3.90625,16.11328125,-22.94921875,0.0
1733975114.7445197,-17.578125,-8.30078125,10.25390625,-53.22265625,0.0
1733975114.7484243,23.4375,-9.27734375,20.5078125,-33.203125,0.0
1733975114.7523289,50.78125,21.484375,30.76171875,-0.48828125,0.0
1733975114.7562332,27.34375,-3.90625,19.53125,0.9765625,0.0
1733975114.7601378,-19.04296875,-41.9921875,15.13671875,-32.71484375,0.0
1733975114.7640421,-42.96875,-16.11328125,10.7421875,-74.70703125,0.0
1733975114.767899,8.7890625,-13.18359375,12.20703125,-56.640625,0.0
1733975114.7718036,27.34375,-35.15625,2.9296875,-11.71875,0.0
1733975114.775708,-10.25390625,-55.6640625,-7.8125,-22.4609375,0.0
1733975114.7796125,-31.25,-62.5,0.48828125,-42.96875,0.0
1733975114.783517,-33.203125,-68.84765625,-3.90625,-62.5,0.0
1733975114.7874215,-12.20703125,-84.47265625,-8.7890625,-73.73046875,0.0
1733975114.7913258,-4.39453125,-97.16796875,-13.671875,-51.26953125,0.0
1733975114.7952304,-22.94921875,-94.23828125,-14.16015625,-39.55078125,0.0
1733975114.799135,-39.55078125,-94.23828125,-3.90625,-73.2421875,0.0
1733975114.8030393,-77.63671875,-105.95703125,-11.71875,-106.4453125,0.0
1733975114.806944,-41.50390625,-106.4453125,-19.04296875,-85.44921875,0.0
1733975114.8108482,-1.46484375,-89.84375,-5.859375,-73.73046875,0.0
1733975114.814809,-34.66796875,-92.7734375,-8.7890625,-62.98828125,0.0
1733975114.8187134,-90.33203125,-107.421875,-19.04296875,-103.515625,0.0
1733975114.822618,-105.46875,-105.46875,-11.23046875,-147.94921875,0.0
1733975114.8265224,-69.82421875,-104.4921875,-1.46484375,-123.53515625,0.0
1733975114.830427,-62.98828125,-104.4921875,-3.41796875,-97.16796875,0.0
1733975114.8343315,-69.82421875,-105.46875,-22.94921875,-94.23828125,0.0
1733975114.8382359,-90.8203125,-99.609375,-17.08984375,-92.7734375,0.0
1733975114.8421404,-94.23828125,-91.30859375,2.9296875,-101.5625,0.0
1733975114.8460448,-76.66015625,-101.07421875,-8.7890625,-134.765625,0.0
1733975114.8499494,-43.45703125,-117.67578125,-23.92578125,-103.02734375,0.0
1733975114.8538537,-46.875,-123.53515625,-13.671875,-53.22265625,0.0
1733975114.8577583,-79.58984375,-126.46484375,-14.6484375,-90.8203125,0.0
1733975114.8617074,-82.51953125,-120.1171875,-26.3671875,-113.76953125,0.0
1733975114.865612,-58.59375,-109.86328125,-22.4609375,-91.30859375,0.0
1733975114.8695166,0.0,-105.95703125,-9.765625,-47.8515625,0.0
1733975114.873421,15.13671875,-97.16796875,-10.7421875,-15.13671875,0.0
1733975114.8773255,-13.671875,-100.5859375,-24.4140625,-5.859375,0.0
1733975114.8812299,-27.34375,-123.53515625,-31.25,-31.25,0.0
1733975114.8851345,-0.48828125,-119.62890625,-34.66796875,-54.6875,0.0
1733975114.889039,38.0859375,-108.3984375,-21.484375,-25.390625,0.0
1733975114.8929434,39.55078125,-116.69921875,-20.01953125,21.484375,0.0
1733975114.896848,-1.46484375,-119.62890625,-38.0859375,21.484375,0.0
1733975114.9007523,-27.83203125,-121.58203125,-18.5546875,-29.296875,0.0
1733975114.904657,-14.6484375,-120.60546875,-10.25390625,-33.69140625,0.0
1733975114.9085872,48.828125,-115.234375,-20.5078125,6.8359375,0.0
1733975114.9124916,65.4296875,-125.9765625,-14.6484375,39.0625,0.0
1733975114.9163961,13.18359375,-128.41796875,-8.30078125,35.64453125,0.0
1733975114.9203005,9.765625,-114.2578125,-13.671875,6.8359375,0.0
1733975114.924205,16.6015625,-116.69921875,-13.18359375,-16.6015625,0.0
1733975114.9281096,43.45703125,-132.8125,-6.8359375,12.20703125,0.0
1733975114.932014,76.66015625,-147.94921875,0.0,79.1015625,0.0
1733975114.9359186,35.64453125,-135.7421875,-3.90625,51.26953125,0.0
1733975114.939823,-11.71875,-136.71875,-27.83203125,-16.11328125,0.0
1733975114.9437275,0.9765625,-162.109375,-11.23046875,-0.48828125,0.0
1733975114.9476318,40.52734375,-147.94921875,9.27734375,45.8984375,0.0
1733975114.9515364,61.5234375,-139.6484375,-10.25390625,56.15234375,0.0
1733975114.9554505,29.78515625,-151.85546875,-5.37109375,32.71484375,0.0
1733975114.959355,-20.01953125,-150.390625,12.6953125,-2.9296875,0.0
1733975114.9632597,-20.99609375,-141.6015625,5.859375,-9.27734375,0.0
1733975114.967164,34.66796875,-135.7421875,1.953125,29.296875,0.0
1733975114.9710686,56.640625,-132.32421875,9.27734375,60.546875,0.0
1733975114.974973,42.96875,-147.94921875,7.32421875,46.38671875,0.0
1733975114.9788775,12.20703125,-162.109375,8.30078125,18.5546875,0.0
1733975114.982782,-4.39453125,-131.8359375,-1.953125,-3.90625,0.0
1733975114.9866865,18.5546875,-113.28125,-14.16015625,9.765625,0.0
1733975114.990591,61.03515625,-113.76953125,13.18359375,52.734375,0.0
1733975114.9944954,38.57421875,-108.3984375,16.6015625,55.6640625,0.0
1733975114.9984,-27.83203125,-100.5859375,6.8359375,9.27734375,0.0
1733975115.0022972,-9.765625,-85.44921875,3.90625,2.44140625,0.0
1733975115.0062017,53.22265625,-81.0546875,-11.23046875,32.2265625,0.0
1733975115.0101063,57.12890625,-90.8203125,0.0,60.05859375,0.0
1733975115.0140107,20.01953125,-91.796875,18.06640625,61.5234375,0.0
1733975115.0179152,-16.11328125,-71.77734375,19.53125,15.13671875,0.0
1733975115.0218196,-1.46484375,-68.359375,15.625,0.48828125,0.0
1733975115.0257242,32.2265625,-67.87109375,17.578125,-1.46484375,0.0
1733975115.0296285,50.29296875,-43.45703125,7.32421875,21.97265625,0.0
1733975115.033533,53.7109375,-41.50390625,12.20703125,62.01171875,0.0
1733975115.0374377,12.20703125,-34.66796875,20.01953125,36.62109375,0.0
1733975115.041342,-4.8828125,-27.83203125,9.765625,-0.48828125,0.0
1733975115.0452466,8.30078125,-34.66796875,9.765625,4.39453125,0.0
1733975115.0491338,32.71484375,-14.6484375,12.6953125,18.06640625,0.0
1733975115.0530381,41.50390625,0.9765625,9.27734375,40.0390625,0.0
1733975115.0569427,5.37109375,-4.39453125,1.953125,29.296875,0.0
1733975115.060847,-19.04296875,-9.27734375,-2.44140625,-26.3671875,0.0
1733975115.0647516,-19.04296875,-16.11328125,7.8125,-29.296875,0.0
1733975115.0686562,25.87890625,-3.90625,20.01953125,12.6953125,0.0
1733975115.0725605,71.77734375,0.9765625,7.8125,38.57421875,0.0
1733975115.0764651,9.765625,-19.04296875,-11.71875,39.55078125,0.0
1733975115.0803695,-30.2734375,6.8359375,8.30078125,-12.20703125,0.0
1733975115.084274,-5.859375,40.0390625,13.671875,-26.3671875,0.0
1733975115.0881784,17.578125,29.78515625,4.8828125,13.671875,0.0
1733975115.092083,18.06640625,20.01953125,16.11328125,54.19921875,0.0
1733975115.0959516,5.859375,26.85546875,19.04296875,45.8984375,0.0
1733975115.0998561,-5.859375,23.92578125,15.13671875,5.37109375,0.0
1733975115.1037605,-37.59765625,9.765625,10.7421875,-6.34765625,0.0
1733975115.107665,-20.5078125,12.6953125,8.7890625,-23.4375,0.0
1733975115.1115694,18.5546875,22.94921875,7.8125,15.13671875,0.0
1733975115.115474,-4.39453125,14.6484375,9.27734375,19.04296875,0.0
1733975115.1193786,-57.6171875,10.7421875,6.8359375,-26.85546875,0.0
1733975115.123283,-49.31640625,26.3671875,14.6484375,-13.671875,0.0
1733975115.1271875,17.08984375,32.71484375,36.62109375,4.39453125,0.0
1733975115.1310918,19.53125,18.5546875,38.57421875,28.3203125,0.0
1733975115.1349964,-9.27734375,25.87890625,25.87890625,38.0859375,0.0
1733975115.1389008,-52.734375,26.85546875,28.80859375,-9.765625,0.0
1733975115.1427581,-70.3125,15.625,33.69140625,-29.296875,0.0
1733975115.1466627,-9.27734375,24.4140625,28.80859375,0.48828125,0.0
1733975115.1505673,22.94921875,30.2734375,28.80859375,28.80859375,0.0
1733975115.1544716,-17.08984375,20.01953125,30.2734375,28.3203125,0.0
1733975115.1583762,-56.15234375,20.99609375,27.83203125,-5.37109375,0.0
1733975115.1622806,-69.82421875,27.83203125,19.04296875,-24.4140625,0.0
1733975115.1661851,-20.99609375,33.203125,19.04296875,-18.06640625,0.0
1733975115.1700895,-14.16015625,33.69140625,27.83203125,0.0,0.0
1733975115.173994,-40.0390625,25.390625,29.78515625,19.04296875,0.0
1733975115.1778986,-63.96484375,32.71484375,21.484375,-0.48828125,0.0
1733975115.181803,-58.59375,34.66796875,22.4609375,-9.765625,0.0
1733975115.1857076,-16.6015625,32.71484375,33.203125,-15.13671875,0.0
1733975115.189666,-28.80859375,19.04296875,32.2265625,-9.27734375,0.0
1733975115.1935706,-38.57421875,15.625,20.01953125,3.41796875,0.0
1733975115.1974752,-31.25,25.390625,19.04296875,3.90625,0.0
1733975115.2013795,-44.43359375,27.83203125,20.01953125,-43.45703125,0.0
1733975115.205284,-53.22265625,25.390625,17.08984375,-50.29296875,0.0
1733975115.2091885,-34.66796875,4.8828125,10.25390625,-0.9765625,0.0
1733975115.213093,-18.5546875,5.859375,15.625,26.3671875,0.0
1733975115.2169974,-38.57421875,17.578125,26.3671875,0.48828125,0.0
1733975115.220902,-71.77734375,-1.953125,23.92578125,-24.4140625,0.0
1733975115.2248065,-60.546875,-5.37109375,8.30078125,-28.80859375,0.0
1733975115.228711,-27.34375,14.6484375,12.20703125,-1.953125,0.0
1733975115.2326155,-27.34375,22.4609375,20.99609375,16.11328125,0.0
1733975115.2365599,-39.55078125,7.32421875,11.71875,-11.71875,0.0
1733975115.2404644,-38.0859375,-13.18359375,14.16015625,-35.64453125,0.0
1733975115.2443688,-62.98828125,-2.9296875,21.484375,-34.66796875,0.0
1733975115.2482734,-49.8046875,12.20703125,16.6015625,-11.23046875,0.0
1733975115.2521777,-48.33984375,9.765625,4.39453125,0.0,0.0
1733975115.2560823,-67.3828125,2.44140625,-1.953125,-12.6953125,0.0
1733975115.2599866,-71.2890625,-0.9765625,4.39453125,-16.11328125,0.0
1733975115.2638912,-63.96484375,-2.44140625,4.39453125,-30.76171875,0.0
1733975115.2677958,-47.36328125,-7.8125,-2.44140625,-33.69140625,0.0
1733975115.2717001,-42.48046875,-15.625,-14.16015625,5.37109375,0.0
1733975115.2756047,-55.17578125,-7.8125,-6.8359375,7.8125,0.0
1733975115.279509,-73.73046875,1.46484375,1.953125,-11.71875,0.0
1733975115.2834408,-63.96484375,0.9765625,-3.41796875,-13.671875,0.0
1733975115.2873452,-40.0390625,-9.765625,-7.8125,-16.11328125,0.0
1733975115.2912498,-38.0859375,-15.13671875,-1.953125,0.48828125,0.0
1733975115.295154,-21.97265625,-26.3671875,-2.9296875,18.5546875,0.0
1733975115.2990587,-30.76171875,-41.015625,-19.53125,-13.18359375,0.0
1733975115.302963,-40.52734375,-21.484375,-27.83203125,-28.3203125,0.0
1733975115.3068676,-40.0390625,4.8828125,-25.390625,-24.4140625,0.0
1733975115.3107722,-39.55078125,8.7890625,-24.90234375,-10.25390625,0.0
1733975115.3146765,-41.50390625,-4.39453125,-30.76171875,24.90234375,0.0
1733975115.318581,-52.24609375,-7.32421875,-22.94921875,3.90625,0.0
1733975115.3224854,-58.10546875,-1.46484375,-15.625,-45.8984375,0.0
1733975115.32639,-47.36328125,-8.30078125,-23.4375,-27.83203125,0.0
1733975115.3303096,-26.85546875,-14.16015625,-26.85546875,17.578125,0.0
1733975115.3342142,-39.0625,-11.23046875,-33.203125,4.8828125,0.0
1733975115.3381186,-59.08203125,-5.859375,-37.109375,-29.296875,0.0
1733975115.3420231,-47.8515625,-3.90625,-38.0859375,-60.05859375,0.0
1733975115.3459277,-32.2265625,-10.25390625,-43.9453125,-52.24609375,0.0
1733975115.349832,-11.71875,-14.16015625,-38.0859375,-12.20703125,0.0
1733975115.3537366,-16.11328125,-15.13671875,-27.83203125,-3.41796875,0.0
1733975115.357641,-60.05859375,-24.4140625,-31.73828125,-9.765625,0.0
1733975115.3615456,-64.453125,-30.2734375,-41.9921875,-11.23046875,0.0
1733975115.3654501,-50.29296875,-32.71484375,-33.203125,-18.5546875,0.0
1733975115.3693545,-41.015625,-36.62109375,-35.64453125,-8.30078125,0.0
1733975115.373259,-36.1328125,-15.625,-48.828125,2.9296875,0.0
1733975115.377169,-53.7109375,1.46484375,-42.48046875,-17.578125,0.0
1733975115.3810735,-57.12890625,-0.9765625,-32.71484375,-55.17578125,0.0
1733975115.3849778,-43.9453125,-9.27734375,-38.57421875,-53.7109375,0.0
1733975115.3888824,-32.2265625,-15.13671875,-50.78125,-24.90234375,0.0
1733975115.392787,-25.87890625,-11.71875,-51.26953125,5.37109375,0.0
1733975115.3966913,-50.29296875,-17.578125,-44.43359375,-8.7890625,0.0
1733975115.400596,-60.546875,-25.390625,-43.9453125,-37.109375,0.0
1733975115.4045002,-33.203125,-24.4140625,-49.8046875,-31.25,0.0
1733975115.4084048,-17.08984375,-26.85546875,-42.96875,-4.8828125,0.0
1733975115.4123092,-29.78515625,-35.64453125,-35.15625,6.34765625,0.0
1733975115.4162138,-56.15234375,-34.1796875,-38.0859375,0.48828125,0.0
1733975115.4201183,-58.59375,-18.06640625,-41.50390625,-7.32421875,0.0
1733975115.4240053,-39.0625,-17.578125,-32.2265625,-26.3671875,0.0
1733975115.4279096,-26.3671875,-25.87890625,-40.52734375,-24.4140625,0.0
1733975115.4318142,-18.06640625,-25.390625,-52.24609375,19.53125,0.0
1733975115.4357185,-32.2265625,-23.4375,-40.0390625,-2.9296875,0.0
1733975115.439623,-56.15234375,-27.34375,-40.0390625,-60.05859375,0.0
1733975115.4435275,-45.8984375,-37.59765625,-53.22265625,-65.91796875,0.0
1733975115.447432,-27.83203125,-45.8984375,-51.7578125,-16.11328125,0.0
1733975115.4513366,-24.90234375,-51.26953125,-47.36328125,15.625,0.0
1733975115.455241,-59.5703125,-45.41015625,-28.80859375,-25.390625,0.0
1733975115.4591455,-76.171875,-30.2734375,-16.6015625,-48.33984375,0.0
1733975115.46305,-57.12890625,-32.71484375,-23.92578125,-29.78515625,0.0
1733975115.4669545,-21.97265625,-39.0625,-25.390625,-27.83203125,0.0
1733975115.4708254,-42.96875,-45.8984375,-35.15625,-31.25,0.0
1733975115.47473,-65.91796875,-52.734375,-42.96875,-16.6015625,0.0
1733975115.4786344,-47.8515625,-50.29296875,-34.1796875,-21.97265625,0.0
1733975115.482539,-46.38671875,-48.828125,-23.92578125,-29.296875,0.0
1733975115.4864435,-22.94921875,-48.828125,-32.2265625,-24.4140625,0.0
1733975115.4903479,-14.16015625,-53.22265625,-39.0625,-8.30078125,0.0
1733975115.4942524,-27.34375,-56.640625,-47.8515625,11.23046875,0.0
1733975115.4981568,-34.1796875,-59.08203125,-45.41015625,-20.99609375,0.0
1733975115.5020614,-44.921875,-56.15234375,-35.15625,-55.6640625,0.0
1733975115.505966,-33.203125,-60.05859375,-48.33984375,-53.7109375,0.0
1733975115.5098703,-29.78515625,-66.40625,-61.03515625,-22.94921875,0.0
1733975115.5137749,-43.9453125,-54.19921875,-61.03515625,-5.859375,0.0
1733975115.5176325,-49.31640625,-58.10546875,-56.15234375,-27.83203125,0.0
1733975115.5215368,-58.59375,-61.03515625,-60.546875,-42.48046875,0.0
1733975115.5254414,-41.015625,-59.5703125,-63.96484375,-56.15234375,0.0
1733975115.5293458,-17.08984375,-63.96484375,-52.734375,-35.64453125,0.0
1733975115.5332503,-28.3203125,-63.4765625,-49.31640625,-9.765625,0.0
1733975115.537155,-58.10546875,-68.359375,-56.15234375,-6.34765625,0.0
1733975115.5410593,-45.41015625,-69.3359375,-61.5234375,-28.80859375,0.0
1733975115.5449638,-36.62109375,-56.640625,-52.734375,-44.43359375,0.0
1733975115.5488682,-10.25390625,-52.734375,-41.9921875,-21.97265625,0.0
1733975115.5527728,-15.625,-59.08203125,-52.24609375,-8.30078125,0.0
1733975115.5566773,-67.3828125,-67.87109375,-55.17578125,-30.2734375,0.0
1733975115.5605817,-67.3828125,-59.5703125,-35.64453125,-68.359375,0.0
1733975115.5645413,-40.52734375,-47.36328125,-45.41015625,-64.453125,0.0
1733975115.568446,-23.92578125,-50.29296875,-51.26953125,-34.1796875,0.0
1733975115.5723503,-34.1796875,-55.6640625,-42.48046875,-27.83203125,0.0
1733975115.5762548,-46.875,-43.45703125,-41.9921875,-30.76171875,0.0
1733975115.5801592,-65.91796875,-37.109375,-31.73828125,-21.97265625,0.0
1733975115.5840638,-60.546875,-46.875,-32.2265625,-32.71484375,0.0
1733975115.5879683,-31.73828125,-53.22265625,-41.9921875,-16.11328125,0.0
1733975115.5918727,-41.015625,-31.73828125,-31.73828125,-0.48828125,0.0
1733975115.5957773,-38.0859375,-22.94921875,-30.2734375,-32.2265625,0.0
1733975115.5996816,-20.99609375,-35.15625,-41.9921875,-36.1328125,0.0
1733975115.6035862,-26.85546875,-34.1796875,-39.0625,-32.2265625,0.0
1733975115.6074908,-16.6015625,-25.87890625,-24.90234375,-29.296875,0.0
1733975115.611436,-27.34375,-27.83203125,-30.2734375,-4.8828125,0.0
1733975115.6153405,-39.55078125,-29.78515625,-37.59765625,-15.625,0.0
1733975115.6192448,-50.29296875,-26.85546875,-20.5078125,-35.64453125,0.0
1733975115.6231494,-35.64453125,-23.4375,-24.4140625,-41.50390625,0.0
1733975115.6270537,-3.41796875,-20.01953125,-33.203125,-20.5078125,0.0
1733975115.6309583,-2.44140625,-28.3203125,-27.34375,7.8125,0.0
1733975115.634863,-24.4140625,-31.25,-28.80859375,6.34765625,0.0
1733975115.6387672,-38.57421875,-30.76171875,-37.109375,-22.94921875,0.0
1733975115.6426718,-31.25,-30.76171875,-36.1328125,-33.203125,0.0
1733975115.6465762,-3.41796875,-34.1796875,-35.15625,-7.32421875,0.0
1733975115.6504807,-4.8828125,-22.4609375,-29.78515625,-7.8125,0.0
1733975115.654385,-45.8984375,-15.625,-33.203125,-19.04296875,0.0
1733975115.6583169,-27.83203125,-20.99609375,-31.73828125,-17.578125,0.0
1733975115.6622212,-8.30078125,-23.92578125,-23.4375,-31.25,0.0
1733975115.6661258,-20.99609375,-25.390625,-25.390625,-20.99609375,0.0
1733975115.67003,-7.8125,-21.484375,-20.01953125,13.671875,0.0
1733975115.6739347,-9.765625,-27.83203125,-33.69140625,-2.44140625,0.0
1733975115.6778393,-28.80859375,-28.80859375,-40.52734375,-20.5078125,0.0
1733975115.6817436,-23.92578125,-21.97265625,-22.94921875,-30.2734375,0.0
1733975115.6856482,-16.11328125,-31.25,-20.01953125,-24.90234375,0.0
1733975115.6895525,-17.08984375,-47.8515625,-25.390625,4.8828125,0.0
1733975115.6934571,-28.3203125,-35.15625,-17.578125,10.25390625,0.0
1733975115.6973615,-41.015625,-22.4609375,-12.6953125,-26.3671875,0.0
1733975115.701266,-19.04296875,-25.390625,-14.16015625,-31.25,0.0
1733975115.7051823,-4.39453125,-23.4375,-18.06640625,-13.671875,0.0
1733975115.7090867,4.8828125,-23.4375,-14.16015625,7.8125,0.0
1733975115.7129912,-22.4609375,-29.296875,-13.671875,-4.8828125,0.0
1733975115.7168956,-61.03515625,-36.62109375,-19.53125,-32.71484375,0.0
1733975115.7208002,-43.45703125,-31.25,-16.11328125,-31.25,0.0
1733975115.7247047,-0.9765625,-33.203125,-13.18359375,-14.16015625,0.0
1733975115.728609,-3.41796875,-38.0859375,-12.6953125,-9.765625,0.0
1733975115.7325137,-26.85546875,-38.0859375,-23.4375,-1.46484375,0.0
1733975115.736418,-24.4140625,-37.109375,-30.76171875,-4.8828125,0.0
1733975115.7403226,-34.1796875,-32.2265625,-4.8828125,-34.1796875,0.0
1733975115.7442272,-22.94921875,-38.57421875,3.41796875,-28.80859375,0.0
1733975115.7481315,-15.13671875,-34.66796875,-7.8125,-16.11328125,0.0
1733975115.7520351,-35.64453125,-23.4375,-17.08984375,-21.484375,0.0
1733975115.7559397,-55.6640625,-30.76171875,-25.87890625,-32.2265625,0.0
1733975115.759844,-72.265625,-41.015625,-23.92578125,-40.0390625,0.0
1733975115.7637486,-41.9921875,-40.0390625,-30.76171875,-31.73828125,0.0
1733975115.767653,-33.69140625,-31.25,-31.25,-43.45703125,0.0
1733975115.7715576,-35.15625,-30.76171875,-31.25,-46.38671875,0.0
1733975115.775462,-56.640625,-35.15625,-34.66796875,-34.66796875,0.0
1733975115.7793665,-85.9375,-37.59765625,-37.59765625,-43.9453125,0.0
1733975115.783271,-69.82421875,-39.0625,-30.76171875,-38.57421875,0.0
1733975115.7871754,-35.64453125,-34.66796875,-22.4609375,-29.78515625,0.0
1733975115.79108,-15.625,-40.0390625,-31.25,-24.90234375,0.0
1733975115.7949843,-65.4296875,-48.33984375,-40.52734375,-31.73828125,0.0
1733975115.7988737,-108.3984375,-35.64453125,-27.34375,-57.12890625,0.0
1733975115.8027782,-89.84375,-34.66796875,-20.01953125,-53.7109375,0.0
1733975115.8066826,-57.6171875,-39.0625,-25.390625,-48.33984375,0.0
1733975115.8105872,-58.59375,-33.203125,-17.578125,-51.26953125,0.0
1733975115.8144915,-68.84765625,-36.62109375,-20.5078125,-24.90234375,0.0
1733975115.818396,-68.359375,-39.55078125,-21.97265625,-61.5234375,0.0
1733975115.8223007,-71.77734375,-40.52734375,-26.3671875,-75.1953125,0.0
1733975115.826205,-47.36328125,-44.921875,-31.25,-32.2265625,0.0
1733975115.8301096,-35.15625,-32.2265625,-8.30078125,-31.73828125,0.0
1733975115.834014,-61.5234375,-36.1328125,-8.7890625,-15.625,0.0
1733975115.8379185,-85.44921875,-42.96875,-17.08984375,-39.55078125,0.0
1733975115.8418229,-68.359375,-35.15625,-12.20703125,-56.640625,0.0
1733975115.8456984,-28.3203125,-26.3671875,-12.6953125,-43.9453125,0.0
1733975115.849603,-10.25390625,-23.4375,-13.671875,-31.25,0.0
1733975115.8535073,-47.36328125,-30.76171875,-19.53125,-14.16015625,0.0
1733975115.8574119,-68.84765625,-34.66796875,-20.5078125,-33.69140625,0.0
1733975115.8613162,-58.10546875,-31.73828125,-20.99609375,-49.8046875,0.0
1733975115.8652208,-47.36328125,-35.64453125,-24.90234375,-42.48046875,0.0
1733975115.8691254,-16.11328125,-39.0625,-26.3671875,-8.7890625,0.0
1733975115.8730297,-22.4609375,-32.2265625,-17.08984375,0.48828125,0.0
1733975115.8769343,-52.24609375,-23.92578125,-8.30078125,-28.80859375,0.0
1733975115.8808386,-41.50390625,-26.85546875,-11.71875,-29.78515625,0.0
1733975115.8847432,-23.92578125,-28.80859375,-17.08984375,-34.1796875,0.0
1733975115.8886476,-8.7890625,-17.08984375,-14.16015625,-32.2265625,0.0
1733975115.8925078,-17.08984375,-19.53125,-15.13671875,-14.16015625,0.0
1733975115.8964121,-50.78125,-29.78515625,-21.484375,-21.97265625,0.0
1733975115.9003167,-63.96484375,-28.80859375,-19.53125,-37.59765625,0.0
1733975115.9042213,-41.015625,-21.97265625,-11.71875,-58.10546875,0.0
1733975115.9081256,-26.3671875,-22.4609375,-14.16015625,-60.546875,0.0
1733975115.9120302,-29.296875,-33.203125,-29.296875,-25.390625,0.0
1733975115.9159346,-61.5234375,-39.55078125,-29.78515625,-29.296875,0.0
1733975115.9198391,-73.73046875,-27.34375,-14.6484375,-47.8515625,0.0
1733975115.9237437,-65.91796875,-21.97265625,-16.6015625,-67.3828125,0.0
1733975115.927648,-51.7578125,-30.76171875,-33.69140625,-64.453125,0.0
1733975115.9315526,-29.296875,-29.296875,-31.25,-35.64453125,0.0
1733975115.935457,-48.33984375,-25.390625,-24.90234375,-50.78125,0.0
1733975115.9394193,-68.359375,-27.34375,-31.25,-68.359375,0.0
1733975115.9433239,-62.5,-24.90234375,-34.66796875,-77.63671875,0.0
1733975115.9472282,-37.109375,-26.85546875,-27.34375,-48.828125,0.0
1733975115.9511328,-29.78515625,-22.4609375,-24.90234375,-26.85546875,0.0
1733975115.9550374,-40.52734375,-23.4375,-36.1328125,-27.34375,0.0
1733975115.9589417,-62.98828125,-35.64453125,-45.41015625,-42.96875,0.0
1733975115.9628463,-77.63671875,-32.71484375,-38.0859375,-80.56640625,0.0
1733975115.9667506,-39.55078125,-25.390625,-20.01953125,-67.87109375,0.0
1733975115.9706552,-15.625,-29.296875,-22.94921875,-33.203125,0.0
1733975115.9745598,-69.3359375,-38.57421875,-41.015625,-34.66796875,0.0
1733975115.9784641,-89.35546875,-43.45703125,-35.64453125,-56.640625,0.0
1733975115.9823687,-48.33984375,-40.0390625,-34.66796875,-78.125,0.0
1733975115.9863136,-22.94921875,-37.59765625,-36.1328125,-70.3125,0.0
1733975115.9902182,-31.25,-47.36328125,-28.3203125,-49.31640625,0.0
1733975115.9941225,-61.5234375,-30.2734375,-25.390625,-21.484375,0.0
1733975115.998027,-58.10546875,-17.08984375,-32.2265625,-32.2265625,0.0
1733975116.0019317,-65.91796875,-31.73828125,-40.0390625,-65.91796875,0.0
1733975116.005836,-50.78125,-35.64453125,-38.57421875,-64.453125,0.0
1733975116.0097406,-24.4140625,-36.1328125,-29.296875,-34.1796875,0.0
1733975116.013645,-25.390625,-37.59765625,-33.69140625,-24.90234375,0.0
1733975116.0175495,-29.296875,-37.109375,-33.69140625,-57.12890625,0.0
1733975116.021454,-59.08203125,-39.0625,-48.33984375,-71.77734375,0.0
1733975116.0253584,-66.89453125,-34.1796875,-44.43359375,-57.12890625,0.0
1733975116.029263,-37.59765625,-30.2734375,-23.4375,-45.8984375,0.0
1733975116.0331962,-44.43359375,-32.2265625,-27.83203125,-41.9921875,0.0
1733975116.0371008,-38.0859375,-34.1796875,-27.34375,-64.94140625,0.0
1733975116.0410051,-28.3203125,-28.80859375,-31.73828125,-84.47265625,0.0
1733975116.0449097,-31.25,-28.3203125,-31.25,-65.91796875,0.0
1733975116.0488143,-14.6484375,-36.1328125,-24.4140625,-36.62109375,0.0
1733975116.0527186,-35.64453125,-43.45703125,-29.296875,-33.69140625,0.0
1733975116.0566232,-84.9609375,-40.0390625,-25.87890625,-51.26953125,0.0
1733975116.0605276,-74.70703125,-33.69140625,-18.5546875,-52.24609375,0.0
1733975116.0644321,-55.6640625,-37.109375,-31.73828125,-37.59765625,0.0
1733975116.0683367,-38.57421875,-35.64453125,-25.87890625,-33.69140625,0.0
1733975116.072241,-29.296875,-26.85546875,-23.4375,-28.3203125,0.0
1733975116.0761456,-50.78125,-24.90234375,-27.34375,-33.203125,0.0
1733975116.0800643,-61.5234375,-26.85546875,-23.92578125,-52.734375,0.0
1733975116.0839689,-49.31640625,-15.625,-23.4375,-86.9140625,0.0
1733975116.0878735,-12.20703125,-10.25390625,-23.92578125,-68.359375,0.0
1733975116.0917778,0.0,-13.671875,-29.78515625,-37.109375,0.0
1733975116.0956824,-32.71484375,-18.06640625,-36.62109375,-36.62109375,0.0
1733975116.0995867,-46.875,-20.99609375,-32.71484375,-42.96875,0.0
1733975116.1034913,-46.875,-30.2734375,-27.83203125,-63.4765625,0.0
1733975116.107396,-5.859375,-17.08984375,-33.69140625,-37.109375,0.0
1733975116.1113002,3.41796875,-14.16015625,-34.66796875,13.18359375,0.0
1733975116.1152048,-18.5546875,-15.13671875,-17.08984375,-13.671875,0.0
1733975116.1191092,-38.57421875,-23.92578125,-17.08984375,-54.19921875,0.0
1733975116.1230137,-26.3671875,-42.96875,-28.3203125,-30.76171875,0.0
1733975116.1269143,0.9765625,-25.87890625,-26.3671875,-19.53125,0.0
1733975116.1308186,21.484375,-8.7890625,-29.78515625,-5.859375,0.0
1733975116.1347232,6.34765625,-11.71875,-32.71484375,-6.8359375,0.0
1733975116.1386278,-20.01953125,-21.484375,-25.87890625,-38.0859375,0.0
1733975116.142532,-11.71875,-12.20703125,-18.5546875,-31.73828125,0.0
1733975116.1464367,10.25390625,-10.7421875,-24.4140625,-16.6015625,0.0
1733975116.150341,46.875,-20.5078125,-22.4609375,20.01953125,0.0
1733975116.1542456,34.66796875,-25.390625,-27.83203125,30.2734375,0.0
1733975116.1581502,14.16015625,-26.3671875,-30.2734375,-0.48828125,0.0
1733975116.1620545,20.99609375,-18.5546875,-15.13671875,-25.87890625,0.0
1733975116.1659591,87.890625,-20.01953125,-12.20703125,-6.34765625,0.0
1733975116.1698635,174.31640625,-17.578125,-13.18359375,66.40625,0.0
1733975116.173752,194.82421875,-4.39453125,-19.53125,101.07421875,0.0
1733975116.1776564,118.65234375,-7.8125,-28.80859375,61.03515625,0.0
1733975116.181561,56.15234375,-20.99609375,-31.25,7.8125,0.0
1733975116.1854656,79.58984375,-17.578125,-26.85546875,8.7890625,0.0
1733975116.18937,161.1328125,-11.23046875,-28.3203125,61.03515625,0.0
1733975116.1932745,185.546875,-12.6953125,-32.71484375,107.421875,0.0
1733975116.1971788,82.03125,-19.04296875,-42.48046875,48.33984375,0.0
1733975116.2010834,-3.90625,-20.99609375,-49.31640625,-16.11328125,0.0
1733975116.2049878,6.34765625,-6.34765625,-40.52734375,-1.46484375,0.0
1733975116.2088923,92.28515625,-2.44140625,-44.921875,17.578125,0.0
1733975116.212797,144.04296875,-3.41796875,-48.828125,54.19921875,0.0
1733975116.2167013,56.15234375,-8.30078125,-42.96875,46.875,0.0
1733975116.2205775,-16.6015625,-11.23046875,-50.29296875,-31.25,0.0
1733975116.2244818,2.44140625,-11.23046875,-58.10546875,-43.45703125,0.0
1733975116.2283864,50.78125,-18.06640625,-54.6875,-7.32421875,0.0
1733975116.232291,101.5625,-12.20703125,-43.45703125,52.734375,0.0
1733975116.2361953,55.6640625,-10.7421875,-42.48046875,40.52734375,0.0
1733975116.2401,-10.25390625,-21.484375,-50.78125,-45.41015625,0.0
1733975116.2440042,-18.5546875,-27.34375,-48.33984375,-41.50390625,0.0
1733975116.2479088,24.4140625,-26.3671875,-31.73828125,-5.37109375,0.0
1733975116.2518134,82.03125,-19.53125,-20.99609375,21.97265625,0.0
1733975116.2557178,35.64453125,-24.4140625,-28.3203125,24.90234375,0.0
1733975116.2596223,-34.1796875,-28.80859375,-48.33984375,-30.76171875,0.0
1733975116.2635267,-36.1328125,-20.99609375,-57.6171875,-46.875,0.0
1733975116.2673833,-4.8828125,-14.16015625,-38.0859375,-50.29296875,0.0
1733975116.271288,60.546875,-18.5546875,-21.484375,-0.48828125,0.0
1733975116.2751923,54.6875,-21.97265625,-29.296875,18.06640625,0.0
1733975116.2790968,-35.15625,-22.4609375,-25.87890625,-53.7109375,0.0
1733975116.2830012,-80.078125,-30.2734375,-20.01953125,-81.0546875,0.0
1733975116.2869058,-16.11328125,-34.1796875,-18.5546875,-49.8046875,0.0
1733975116.2908103,80.078125,-28.3203125,-16.6015625,17.08984375,0.0
1733975116.2947147,47.8515625,-22.94921875,-14.16015625,7.8125,0.0
1733975116.2986193,-38.57421875,-23.92578125,-9.765625,-46.38671875,0.0
1733975116.3025236,-65.4296875,-34.66796875,-13.671875,-69.3359375,0.0
1733975116.3064282,-14.16015625,-42.48046875,-13.18359375,-49.8046875,0.0
1733975116.3103325,73.73046875,-23.4375,-4.39453125,20.01953125,0.0
1733975116.3142931,67.3828125,-15.625,-13.18359375,34.1796875,0.0
1733975116.3181977,-32.2265625,-21.97265625,-22.4609375,-26.85546875,0.0
1733975116.3221023,-74.21875,-23.4375,-16.11328125,-75.1953125,0.0
1733975116.3260067,-21.484375,-23.92578125,-11.71875,-65.91796875,0.0
1733975116.3299112,83.984375,-24.4140625,-16.6015625,17.578125,0.0
1733975116.3338156,78.125,-29.78515625,-24.90234375,30.2734375,0.0
1733975116.3377202,-31.25,-29.296875,-20.99609375,-29.296875,0.0
1733975116.3416245,-72.265625,-24.90234375,-24.4140625,-47.8515625,0.0
1733975116.345529,-21.97265625,-28.3203125,-25.390625,-65.4296875,0.0
1733975116.3494337,40.0390625,-35.64453125,-26.85546875,6.34765625,0.0
1733975116.353338,58.10546875,-27.34375,-19.53125,41.015625,0.0
1733975116.3572426,-0.48828125,-20.5078125,-19.53125,-36.62109375,0.0
1733975116.3613093,-49.8046875,-26.3671875,-37.109375,-81.0546875,0.0
1733975116.3652139,-37.59765625,-39.55078125,-35.15625,-62.5,0.0
1733975116.3691182,30.2734375,-35.15625,-17.08984375,8.30078125,0.0
1733975116.3730228,82.03125,-31.25,-18.06640625,56.640625,0.0
1733975116.3769271,6.34765625,-35.64453125,-27.83203125,19.04296875,0.0
1733975116.3808317,-36.62109375,-32.71484375,-37.59765625,-45.41015625,0.0
1733975116.3847363,-32.2265625,-28.3203125,-37.59765625,-51.7578125,0.0
1733975116.3886406,26.3671875,-36.62109375,-22.94921875,-11.23046875,0.0
1733975116.3925452,90.33203125,-47.36328125,-25.87890625,33.69140625,0.0
1733975116.3964496,15.13671875,-53.22265625,-41.015625,23.4375,0.0
1733975116.4003541,-75.68359375,-43.45703125,-28.3203125,-31.25,0.0
1733975116.4042587,-66.40625,-34.66796875,-24.4140625,-54.6875,0.0
1733975116.408191,21.97265625,-42.96875,-21.97265625,-33.69140625,0.0
1733975116.4120953,100.5859375,-37.109375,-9.765625,37.59765625,0.0
1733975116.416,43.9453125,-41.015625,-9.27734375,22.94921875,0.0
1733975116.4199045,-62.98828125,-58.59375,-15.13671875,-48.828125,0.0
1733975116.4238088,-76.171875,-48.828125,-24.4140625,-63.96484375,0.0
1733975116.4277134,14.16015625,-38.57421875,-21.97265625,-21.484375,0.0
1733975116.4316177,113.76953125,-38.57421875,-14.6484375,33.203125,0.0
1733975116.4355223,56.15234375,-44.43359375,-14.16015625,29.296875,0.0
1733975116.439427,-76.171875,-57.6171875,-27.34375,-29.296875,0.0
1733975116.4433312,-94.23828125,-54.19921875,-24.4140625,-54.6875,0.0
1733975116.4472358,-18.5546875,-41.50390625,-12.6953125,-26.3671875,0.0
1733975116.4511402,77.63671875,-38.57421875,-10.25390625,23.92578125,0.0
1733975116.4550602,69.3359375,-46.38671875,-26.3671875,37.109375,0.0
1733975116.4589648,-41.015625,-44.43359375,-21.97265625,-29.296875,0.0
1733975116.4628692,-72.265625,-46.38671875,-14.6484375,-71.2890625,0.0
1733975116.4667737,-2.9296875,-50.29296875,-18.06640625,-48.33984375,0.0
1733975116.4706783,54.6875,-47.36328125,-15.625,37.109375,0.0
1733975116.4745827,25.390625,-47.36328125,-23.92578125,66.89453125,0.0
1733975116.4784873,-42.48046875,-49.31640625,-38.57421875,-21.97265625,0.0
1733975116.4823916,-74.70703125,-54.19921875,-40.52734375,-61.5234375,0.0
1733975116.4862962,-36.62109375,-57.6171875,-40.0390625,-35.64453125,0.0
1733975116.4902005,60.05859375,-41.50390625,-17.08984375,16.11328125,0.0
1733975116.494105,63.96484375,-34.1796875,-11.23046875,66.89453125,0.0
1733975116.4980097,-27.34375,-43.9453125,-30.2734375,3.90625,0.0
1733975116.5019116,-78.61328125,-50.78125,-31.73828125,-56.15234375,0.0
1733975116.5058162,-38.0859375,-40.52734375,-20.99609375,-51.7578125,0.0
1733975116.5097206,62.98828125,-35.15625,-15.13671875,-7.32421875,0.0
1733975116.5136251,88.8671875,-34.66796875,-21.484375,47.36328125,0.0
1733975116.5175295,-21.484375,-35.15625,-20.5078125,0.0,0.0
1733975116.521434,-82.51953125,-39.0625,-20.99609375,-51.7578125,0.0
1733975116.5253384,-35.64453125,-41.50390625,-26.85546875,-34.1796875,0.0
1733975116.529243,46.38671875,-46.875,-29.296875,26.85546875,0.0
1733975116.5331476,69.82421875,-48.33984375,-12.6953125,69.3359375,0.0
1733975116.537052,-11.71875,-44.43359375,-1.953125,3.41796875,0.0
1733975116.5409565,-51.7578125,-45.41015625,-6.34765625,-64.453125,0.0
1733975116.5448608,-35.15625,-44.43359375,-0.9765625,-62.01171875,0.0
1733975116.548749,7.32421875,-44.43359375,8.30078125,3.41796875,0.0
1733975116.5526533,62.01171875,-39.55078125,13.671875,67.3828125,0.0
1733975116.556558,6.8359375,-41.015625,3.90625,24.90234375,0.0
1733975116.5604622,-74.21875,-47.36328125,1.46484375,-13.671875,0.0
1733975116.5643668,-63.96484375,-47.8515625,0.9765625,-26.85546875,0.0
1733975116.5682714,24.90234375,-41.9921875,3.41796875,-7.32421875,0.0
1733975116.5721757,104.00390625,-34.1796875,5.859375,74.21875,0.0
1733975116.5760803,55.17578125,-39.0625,-5.859375,55.17578125,0.0
1733975116.5799847,-59.08203125,-39.0625,6.8359375,-10.7421875,0.0
1733975116.5838892,-39.55078125,-37.109375,11.23046875,-41.9921875,0.0
1733975116.5877938,27.34375,-44.921875,-4.8828125,-30.76171875,0.0
1733975116.5916982,45.41015625,-45.41015625,-0.48828125,27.34375,0.0
1733975116.5956893,6.8359375,-55.6640625,4.8828125,22.4609375,0.0
1733975116.5995936,-55.17578125,-50.78125,0.0,-38.57421875,0.0
1733975116.6034982,-62.5,-31.73828125,-3.90625,-61.5234375,0.0
1733975116.6074028,-11.71875,-28.80859375,5.859375,-24.90234375,0.0
1733975116.6113071,83.0078125,-28.80859375,17.08984375,43.45703125,0.0
1733975116.6152117,28.80859375,-35.15625,13.18359375,39.0625,0.0
1733975116.619116,-70.3125,-37.109375,2.44140625,-10.25390625,0.0
1733975116.6230206,-62.5,-25.390625,7.32421875,-26.85546875,0.0
1733975116.6269252,5.37109375,-20.5078125,14.6484375,-17.578125,0.0
1733975116.6308296,102.05078125,-30.2734375,12.20703125,34.1796875,0.0
1733975116.6347342,61.03515625,-31.25,5.37109375,46.38671875,0.0
1733975116.6386385,-53.7109375,-24.90234375,10.25390625,-19.53125,0.0
1733975116.6424942,-73.2421875,-20.99609375,19.53125,-50.29296875,0.0
1733975116.6463985,-33.203125,-22.94921875,19.53125,-39.0625,0.0
1733975116.6503031,74.70703125,-22.4609375,23.4375,27.83203125,0.0
1733975116.6542075,87.890625,-19.53125,26.3671875,61.5234375,0.0
1733975116.658112,-32.71484375,-21.97265625,12.6953125,-8.30078125,0.0
1733975116.6620166,-65.91796875,-22.4609375,1.953125,-50.29296875,0.0
1733975116.665921,-14.16015625,-22.4609375,5.37109375,-33.69140625,0.0
1733975116.6698256,67.87109375,-23.4375,15.625,25.87890625,0.0
1733975116.67373,72.75390625,-20.99609375,19.04296875,77.1484375,0.0
1733975116.6776345,-19.04296875,-27.34375,1.953125,20.01953125,0.0
1733975116.681539,-53.7109375,-34.66796875,-18.06640625,-41.9921875,0.0
1733975116.6854434,-40.0390625,-27.34375,-8.30078125,-54.19921875,0.0
1733975116.6894045,67.3828125,-32.2265625,0.0,3.41796875,0.0
1733975116.693309,117.67578125,-37.59765625,-6.8359375,77.63671875,0.0
1733975116.6972134,-8.30078125,-33.69140625,-12.20703125,36.62109375,0.0
1733975116.701118,-81.0546875,-29.78515625,-20.01953125,-53.22265625,0.0
1733975116.7050223,-58.59375,-29.296875,-24.4140625,-62.01171875,0.0
1733975116.708927,41.015625,-30.2734375,-17.08984375,-1.46484375,0.0
1733975116.7128315,85.44921875,-25.87890625,0.48828125,62.01171875,0.0
1733975116.7167358,1.953125,-23.4375,-1.46484375,27.34375,0.0
1733975116.7206404,-74.21875,-28.3203125,-13.671875,-41.50390625,0.0
1733975116.7245448,-83.49609375,-39.0625,-19.53125,-30.76171875,0.0
1733975116.7284493,4.39453125,-36.1328125,-11.71875,17.578125,0.0
1733975116.732354,88.37890625,-29.296875,-6.8359375,56.15234375,0.0
1733975116.736298,14.16015625,-34.66796875,-20.99609375,9.27734375,0.0
1733975116.7402024,-85.44921875,-36.1328125,-30.2734375,-56.15234375,0.0
1733975116.744107,-75.1953125,-33.69140625,-24.90234375,-64.94140625,0.0
1733975116.7480114,12.20703125,-35.64453125,-20.99609375,-36.1328125,0.0
1733975116.751916,88.8671875,-35.64453125,-26.3671875,34.1796875,0.0
1733975116.7558205,16.6015625,-34.1796875,-28.80859375,22.4609375,0.0
1733975116.7597249,-85.9375,-39.55078125,-34.66796875,-49.8046875,0.0
1733975116.7636294,-88.8671875,-37.59765625,-36.1328125,-76.171875,0.0
1733975116.7675338,-6.34765625,-33.69140625,-38.57421875,-34.1796875,0.0
1733975116.7714384,84.9609375,-44.921875,-47.8515625,31.73828125,0.0
1733975116.775343,22.4609375,-32.71484375,-38.57421875,22.4609375,0.0
1733975116.7792473,-102.05078125,-35.15625,-43.9453125,-52.24609375,0.0
