timestamps,TP9,AF7,AF8,TP10,Right AUX
1733975314.0650656,69.3359375,-42.96875,-24.90234375,24.90234375,0.0
1733975314.0689707,41.50390625,-45.8984375,-15.13671875,30.2734375,0.0
1733975314.0728755,-86.42578125,-38.57421875,-31.25,-43.9453125,0.0
1733975314.0767806,-135.7421875,-42.48046875,-22.94921875,-74.70703125,0.0
1733975314.0806854,-51.7578125,-46.875,-30.76171875,-13.671875,0.0
1733975314.0845904,87.40234375,-27.34375,-41.50390625,48.33984375,0.0
1733975314.0884955,64.453125,-13.671875,-25.390625,34.1796875,0.0
1733975314.0924003,-75.1953125,-20.5078125,-17.08984375,-41.9921875,0.0
1733975314.0963054,-123.53515625,-28.3203125,-37.59765625,-79.58984375,0.0
1733975314.1002102,-59.5703125,-40.52734375,-37.109375,-40.52734375,0.0
1733975314.1041152,63.96484375,-41.015625,-9.27734375,19.04296875,0.0
1733975314.108118,64.453125,-44.921875,-1.953125,37.109375,0.0
1733975314.112023,-73.2421875,-59.08203125,-18.06640625,-32.71484375,0.0
1733975314.115928,-146.97265625,-44.43359375,-21.484375,-96.6796875,0.0
1733975314.119833,-82.03125,-35.64453125,-44.921875,-69.82421875,0.0
1733975314.123738,62.5,-47.36328125,-35.64453125,28.3203125,0.0
1733975314.1276429,80.078125,-51.7578125,-9.27734375,45.8984375,0.0
1733975314.131548,-39.55078125,-39.0625,-20.99609375,-34.66796875,0.0
1733975314.1354527,-130.37109375,-36.1328125,-37.59765625,-96.6796875,0.0
1733975314.1393578,-101.07421875,-41.50390625,-35.15625,-79.58984375,0.0
1733975314.1432629,30.76171875,-42.48046875,-43.45703125,16.11328125,0.0
1733975314.1471677,91.30859375,-28.3203125,-39.55078125,63.96484375,0.0
1733975314.1510727,-23.4375,-23.4375,-9.27734375,-9.765625,0.0
1733975314.1550324,-135.25390625,-42.48046875,-20.99609375,-79.58984375,0.0
1733975314.1589372,-104.00390625,-50.29296875,-58.10546875,-77.1484375,0.0
1733975314.1628423,24.4140625,-38.57421875,-47.36328125,-2.9296875,0.0
1733975314.1667473,96.6796875,-41.015625,-22.4609375,59.5703125,0.0
1733975314.1706522,-8.7890625,-43.9453125,-37.109375,0.0,0.0
1733975314.1745572,-122.55859375,-31.25,-41.9921875,-62.98828125,0.0
1733975314.178462,-116.2109375,-20.5078125,-30.76171875,-64.453125,0.0
1733975314.182367,-3.41796875,-24.4140625,-23.4375,-23.92578125,0.0
1733975314.1862721,97.65625,-36.62109375,-38.57421875,43.45703125,0.0
1733975314.190177,8.30078125,-44.43359375,-50.78125,19.04296875,0.0
1733975314.194082,-121.09375,-33.69140625,-21.97265625,-66.89453125,0.0
1733975314.1979868,-122.0703125,-25.87890625,-16.11328125,-84.9609375,0.0
1733975314.2021756,-11.71875,-29.78515625,-13.18359375,-20.5078125,0.0
1733975314.2060807,90.8203125,-47.36328125,-10.25390625,61.03515625,0.0
1733975314.2099857,28.80859375,-55.17578125,-41.50390625,28.3203125,0.0
1733975314.2138906,-104.4921875,-40.0390625,-53.7109375,-56.15234375,0.0
1733975314.2177956,-132.32421875,-22.4609375,-41.015625,-73.73046875,0.0
1733975314.2217004,-35.15625,-18.5546875,-13.671875,-28.3203125,0.0
1733975314.2256055,83.984375,-25.390625,6.8359375,37.59765625,0.0
1733975314.2295105,42.48046875,-33.203125,-13.18359375,28.3203125,0.0
1733975314.2334154,-99.609375,-48.828125,-65.4296875,-39.55078125,0.0
1733975314.2373204,-143.06640625,-41.9921875,-43.45703125,-88.37890625,0.0
1733975314.2412252,-55.6640625,-37.59765625,-13.18359375,-57.6171875,0.0
1733975314.2451303,66.40625,-32.2265625,-23.4375,27.34375,0.0
1733975314.2490284,50.78125,-30.2734375,-35.64453125,24.90234375,0.0
1733975314.2529333,-80.078125,-32.2265625,-48.33984375,-46.38671875,0.0
1733975314.2568383,-122.0703125,-25.87890625,-58.10546875,-80.56640625,0.0
1733975314.2607434,-51.7578125,-19.04296875,-41.015625,-47.8515625,0.0
1733975314.2646482,75.68359375,-17.578125,-13.671875,26.85546875,0.0
1733975314.2685533,80.56640625,-25.390625,-7.8125,35.15625,0.0
1733975314.272458,-64.453125,-45.8984375,-21.484375,-50.78125,0.0
1733975314.2763631,-135.25390625,-44.921875,-34.66796875,-94.23828125,0.0
1733975314.2802682,-73.2421875,-26.85546875,-25.87890625,-60.05859375,0.0
1733975314.284173,64.94140625,-16.11328125,-36.62109375,24.4140625,0.0
1733975314.288078,74.70703125,-19.53125,-48.828125,48.33984375,0.0
1733975314.291983,-58.59375,-46.38671875,-61.03515625,-24.90234375,0.0
1733975314.2958567,-128.90625,-55.17578125,-67.87109375,-70.3125,0.0
1733975314.2997615,-74.70703125,-54.19921875,-39.0625,-58.10546875,0.0
1733975314.3036666,51.26953125,-48.33984375,-14.16015625,14.6484375,0.0
1733975314.3075714,85.9375,-26.3671875,-9.27734375,40.0390625,0.0
1733975314.3114765,-50.29296875,-24.4140625,-20.01953125,-26.85546875,0.0
1733975314.3153815,-149.90234375,-31.25,-32.71484375,-85.9375,0.0
1733975314.3192863,-103.02734375,-39.55078125,-45.8984375,-84.9609375,0.0
1733975314.3231914,23.4375,-50.78125,-45.41015625,-2.44140625,0.0
1733975314.3270962,73.73046875,-41.9921875,-26.3671875,55.17578125,0.0
1733975314.3310013,-36.62109375,-35.64453125,-45.8984375,-12.20703125,0.0
1733975314.3349063,-126.953125,-35.64453125,-62.01171875,-80.078125,0.0
1733975314.3388112,-104.98046875,-33.203125,-49.31640625,-80.56640625,0.0
1733975314.3426466,1.953125,-34.1796875,-20.01953125,-16.11328125,0.0
1733975314.3465517,86.42578125,-41.9921875,-12.6953125,38.0859375,0.0
1733975314.3504567,0.0,-44.921875,-35.64453125,4.39453125,0.0
1733975314.3543615,-118.1640625,-37.109375,-44.921875,-63.96484375,0.0
1733975314.3582666,-119.140625,-47.8515625,-41.50390625,-95.703125,0.0
1733975314.3621714,-6.8359375,-58.10546875,-29.296875,-40.0390625,0.0
1733975314.3660765,89.35546875,-54.6875,-17.578125,50.29296875,0.0
1733975314.3699815,9.765625,-42.48046875,-30.2734375,33.203125,0.0
1733975314.3738863,-106.93359375,-25.390625,-39.0625,-51.7578125,0.0
1733975314.3777914,-114.2578125,-17.08984375,-33.203125,-88.8671875,0.0
1733975314.3816962,-22.94921875,-33.203125,-33.203125,-41.50390625,0.0
1733975314.3856013,83.984375,-38.0859375,-26.3671875,27.83203125,0.0
1733975314.3896546,40.0390625,-45.8984375,-29.296875,9.765625,0.0
1733975314.3935595,-91.30859375,-51.7578125,-29.296875,-51.7578125,0.0
1733975314.3974645,-113.76953125,-39.0625,-27.83203125,-72.265625,0.0
1733975314.4013693,-14.6484375,-26.85546875,-17.578125,-35.15625,0.0
1733975314.4052744,100.09765625,-18.5546875,-8.30078125,35.64453125,0.0
1733975314.4091794,47.36328125,-36.62109375,-38.0859375,34.1796875,0.0
1733975314.4130843,-87.890625,-44.43359375,-58.59375,-38.57421875,0.0
1733975314.4169893,-131.34765625,-33.203125,-31.73828125,-75.68359375,0.0
1733975314.4208941,-45.8984375,-25.390625,-17.578125,-43.9453125,0.0
1733975314.4247992,93.26171875,-32.2265625,-26.85546875,37.59765625,0.0
1733975314.4287043,64.453125,-54.19921875,-45.41015625,43.45703125,0.0
1733975314.432609,-76.171875,-47.8515625,-29.78515625,-41.9921875,0.0
1733975314.436375,-138.18359375,-20.99609375,0.0,-88.8671875,0.0
1733975314.44028,-71.77734375,-18.5546875,0.0,-58.59375,0.0
1733975314.444185,61.03515625,-28.80859375,0.0,12.6953125,0.0
1733975314.4480898,82.51953125,-43.45703125,0.0,28.3203125,0.0
1733975314.451995,-51.26953125,-47.8515625,0.0,-34.1796875,0.0
1733975314.4558997,-123.53515625,-39.55078125,0.0,-83.984375,0.0
1733975314.4598048,-81.54296875,-44.43359375,0.0,-73.73046875,0.0
1733975314.4637098,40.0390625,-37.59765625,0.0,3.90625,0.0
1733975314.4676147,86.9140625,-34.1796875,0.0,34.1796875,0.0
1733975314.4715197,-43.9453125,-50.78125,0.0,-27.83203125,0.0
1733975314.4754245,-133.7890625,-57.6171875,0.0,-82.51953125,0.0
1733975314.4793296,-97.65625,-47.36328125,0.0,-84.47265625,0.0
1733975314.4833171,38.57421875,-34.1796875,-16.6015625,-13.18359375,0.0
1733975314.4872222,86.42578125,-30.2734375,-20.99609375,28.80859375,0.0
1733975314.4911273,-32.2265625,-34.66796875,-24.90234375,-27.34375,0.0
1733975314.495032,-128.90625,-43.9453125,-45.41015625,-80.56640625,0.0
1733975314.4989371,-104.98046875,-49.8046875,-65.91796875,-75.1953125,0.0
1733975314.502842,32.2265625,-39.55078125,-56.15234375,-3.90625,0.0
1733975314.506747,92.7734375,-36.1328125,-36.62109375,46.875,0.0
1733975314.510652,-27.83203125,-43.9453125,-16.11328125,-15.13671875,0.0
1733975314.514557,-127.44140625,-41.50390625,-14.6484375,-87.890625,0.0
1733975314.518462,-113.76953125,-36.1328125,-25.390625,-83.49609375,0.0
1733975314.5223668,1.46484375,-29.296875,-8.30078125,-32.2265625,0.0
1733975314.5262718,100.09765625,-31.25,-0.9765625,29.78515625,0.0
1733975314.530274,0.0,-36.1328125,-47.36328125,3.41796875,0.0
1733975314.5341787,0.0,-34.1796875,-50.29296875,-79.58984375,0.0
1733975314.5380838,0.0,-34.66796875,-6.34765625,-93.26171875,0.0
1733975314.5419886,0.0,-35.15625,-1.953125,-39.55078125,0.0
1733975314.5458937,0.0,-34.1796875,-12.20703125,11.23046875,0.0
1733975314.5497987,0.0,-41.9921875,-27.83203125,-26.85546875,0.0
1733975314.5537035,0.0,-54.6875,-21.97265625,-115.72265625,0.0
1733975314.5576086,0.0,-62.01171875,-14.16015625,-167.48046875,0.0
1733975314.5615134,0.0,-28.80859375,-30.2734375,-143.06640625,0.0
1733975314.5654185,0.0,18.5546875,-30.2734375,-87.890625,0.0
1733975314.5693235,0.0,35.64453125,-21.484375,-141.6015625,0.0
1733975314.5732284,0.0,22.4609375,-22.94921875,-234.375,0.0
1733975314.577147,-332.51953125,-7.8125,-14.6484375,-297.36328125,0.0
1733975314.5810518,-274.90234375,-9.765625,0.9765625,-305.6640625,0.0
1733975314.584957,-176.26953125,-23.4375,0.0,-252.9296875,0.0
1733975314.588862,-238.76953125,-35.15625,-18.5546875,-259.765625,0.0
1733975314.5927668,-388.671875,-39.55078125,-42.96875,-349.12109375,0.0
1733975314.5966718,-468.26171875,-46.38671875,-41.50390625,-418.9453125,0.0
1733975314.6005766,-401.85546875,-20.01953125,-19.53125,-389.16015625,0.0
1733975314.6044817,-260.7421875,-6.34765625,-10.7421875,-298.828125,0.0
1733975314.6083868,-260.25390625,-13.671875,-32.71484375,-274.4140625,0.0
1733975314.6122916,-381.34765625,-20.5078125,-41.50390625,-356.93359375,0.0
1733975314.6161966,-446.77734375,-31.73828125,-26.85546875,-408.69140625,0.0
1733975314.6201015,-381.34765625,-36.62109375,-5.37109375,-369.62890625,0.0
1733975314.6240058,-230.95703125,-25.390625,-0.9765625,-276.3671875,0.0
1733975314.6279109,-194.3359375,-6.34765625,-19.53125,-231.93359375,0.0
1733975314.6318157,-320.3125,-18.06640625,-23.4375,-284.66796875,0.0
1733975314.6357207,-367.1875,-28.3203125,-28.3203125,-325.68359375,0.0
1733975314.6396255,-266.6015625,-27.34375,-43.45703125,-286.62109375,0.0
1733975314.6435306,-129.39453125,-25.87890625,-41.50390625,-177.734375,0.0
1733975314.6474357,-79.58984375,-24.4140625,-21.97265625,-98.6328125,0.0
1733975314.6513405,-171.38671875,-43.45703125,-28.3203125,-142.578125,0.0
1733975314.6552455,-228.515625,-48.33984375,-35.15625,-178.7109375,0.0
1733975314.6591504,-178.22265625,-43.45703125,-10.7421875,-153.3203125,0.0
1733975314.6630554,-30.2734375,-63.96484375,-13.671875,-49.31640625,0.0
1733975314.6669605,61.5234375,-53.7109375,-41.9921875,37.109375,0.0
1733975314.6708164,-23.4375,-42.48046875,-50.78125,-18.5546875,0.0
1733975314.6747212,-102.5390625,-43.9453125,-36.62109375,-60.546875,0.0
1733975314.6786263,-69.82421875,-35.64453125,-34.1796875,-24.90234375,0.0
1733975314.6825314,74.21875,-35.15625,-30.76171875,60.05859375,0.0
1733975314.6864362,166.50390625,-41.9921875,-16.11328125,138.671875,0.0
1733975314.6903412,86.42578125,-48.33984375,-31.73828125,100.5859375,0.0
1733975314.694246,6.34765625,-55.17578125,-41.015625,45.41015625,0.0
1733975314.698151,-0.9765625,-72.265625,-43.45703125,63.4765625,0.0
1733975314.7020562,106.93359375,-65.91796875,-19.04296875,115.234375,0.0
1733975314.705961,223.6328125,-53.22265625,0.9765625,183.10546875,0.0
1733975314.709866,146.97265625,-60.05859375,-21.97265625,168.45703125,0.0
1733975314.7137709,20.01953125,-66.40625,-31.25,95.21484375,0.0
1733975314.7175922,10.7421875,-64.453125,-23.92578125,86.42578125,0.0
1733975314.7214973,123.046875,-62.98828125,-20.99609375,138.18359375,0.0
1733975314.725402,238.28125,-72.75390625,-20.99609375,207.51953125,0.0
1733975314.7293072,180.6640625,-67.87109375,-27.83203125,196.2890625,0.0
1733975314.733212,41.9921875,-60.05859375,-45.8984375,104.4921875,0.0
1733975314.737117,7.32421875,-57.12890625,-65.91796875,63.96484375,0.0
1733975314.741022,101.07421875,-54.6875,-59.5703125,110.3515625,0.0
1733975314.744927,228.515625,-51.26953125,-40.52734375,188.4765625,0.0
1733975314.748832,185.546875,-38.57421875,-23.4375,178.7109375,0.0
1733975314.7527368,45.41015625,-47.36328125,-7.32421875,92.28515625,0.0
1733975314.7566419,-12.20703125,-62.01171875,-20.99609375,59.08203125,0.0
1733975314.760547,61.5234375,-52.734375,-33.203125,96.19140625,0.0
1733975314.76435,188.96484375,-41.015625,-4.39453125,162.59765625,0.0
1733975314.7682548,159.66796875,-41.50390625,-7.32421875,161.62109375,0.0
1733975314.7721598,20.5078125,-47.8515625,-19.53125,78.125,0.0
1733975314.7760646,-20.01953125,-59.08203125,-8.30078125,27.83203125,0.0
1733975314.7799697,38.0859375,-56.640625,-19.04296875,54.6875,0.0
1733975314.7838748,157.71484375,-34.1796875,-57.12890625,130.37109375,0.0
1733975314.7877796,165.52734375,-43.45703125,-66.40625,155.2734375,0.0
1733975314.7916846,23.4375,-53.22265625,-23.4375,77.1484375,0.0
1733975314.7955894,-50.78125,-20.01953125,1.953125,9.765625,0.0
1733975314.7994945,-2.9296875,-10.7421875,1.953125,25.87890625,0.0
1733975314.8033996,118.65234375,-22.94921875,4.39453125,105.46875,0.0
1733975314.8073044,147.4609375,-29.78515625,-1.953125,123.53515625,0.0
1733975314.811073,17.08984375,-40.0390625,-14.16015625,42.48046875,0.0
1733975314.8149781,-57.6171875,-50.78125,-11.71875,-7.32421875,0.0
1733975314.818883,-26.85546875,-70.3125,-11.71875,1.46484375,0.0
1733975314.822788,101.07421875,-75.68359375,-1.46484375,66.89453125,0.0
1733975314.8266928,165.52734375,-45.41015625,5.37109375,129.8828125,0.0
1733975314.8305979,43.45703125,-20.5078125,-16.6015625,74.21875,0.0
1733975314.834503,-67.3828125,-0.48828125,-36.1328125,-4.8828125,0.0
1733975314.8384078,-41.015625,-4.8828125,-30.2734375,-18.5546875,0.0
1733975314.8423128,99.12109375,-40.52734375,-3.41796875,44.921875,0.0
1733975314.8462176,162.109375,-43.9453125,-13.671875,101.5625,0.0
1733975314.8501227,34.1796875,-24.90234375,-13.671875,51.26953125,0.0
1733975314.8540277,-93.75,-20.01953125,-6.8359375,-19.04296875,0.0
1733975314.8580236,-81.0546875,-21.97265625,-9.27734375,-34.1796875,0.0
1733975314.8619285,52.734375,-24.4140625,0.48828125,33.203125,0.0
1733975314.8658335,145.01953125,-31.73828125,-6.34765625,89.84375,0.0
1733975314.8697386,52.734375,-40.52734375,-11.71875,37.59765625,0.0
1733975314.8736434,-81.54296875,-45.8984375,-11.23046875,-34.1796875,0.0
1733975314.8775485,-88.8671875,-44.43359375,-24.4140625,-50.29296875,0.0
1733975314.8814533,30.76171875,-31.25,-25.390625,-2.44140625,0.0
1733975314.8853583,157.71484375,-44.43359375,-9.27734375,74.21875,0.0
1733975314.8892634,87.890625,-59.08203125,-17.578125,61.03515625,0.0
1733975314.8931682,-59.5703125,-41.015625,-48.828125,-11.23046875,0.0
1733975314.8970733,-96.6796875,-24.4140625,-22.4609375,-46.875,0.0
1733975314.900978,-5.37109375,-25.87890625,16.6015625,-12.20703125,0.0
1733975314.90495,137.20703125,-27.83203125,12.20703125,74.21875,0.0
1733975314.9088547,88.37890625,-28.80859375,-11.71875,64.94140625,0.0
1733975314.9127598,-73.73046875,-37.109375,-30.2734375,-7.8125,0.0
1733975314.9166646,-115.234375,-28.80859375,-23.92578125,-59.08203125,0.0
1733975314.9205697,-24.90234375,-24.90234375,0.9765625,-38.57421875,0.0
1733975314.9244747,124.51171875,-27.83203125,10.25390625,51.7578125,0.0
1733975314.9283795,99.609375,-25.390625,-4.8828125,60.546875,0.0
1733975314.9322846,-53.7109375,-24.90234375,-13.18359375,-10.25390625,0.0
1733975314.9361897,-103.02734375,-35.15625,-16.11328125,-40.52734375,0.0
1733975314.9400945,-20.99609375,-53.7109375,-13.671875,-6.34765625,0.0
1733975314.9439995,116.69921875,-53.7109375,-3.90625,62.01171875,0.0
1733975314.9479043,101.5625,-36.1328125,-28.80859375,66.89453125,0.0
1733975314.9518416,-70.80078125,-25.87890625,-47.8515625,-18.5546875,0.0
1733975314.9557467,-132.8125,-18.5546875,-35.15625,-70.80078125,0.0
1733975314.9596515,-46.38671875,-25.87890625,-17.08984375,-41.9921875,0.0
1733975314.9635565,78.61328125,-28.80859375,-27.83203125,38.57421875,0.0
1733975314.9674613,95.703125,-20.99609375,-44.43359375,66.89453125,0.0
1733975314.9713664,-35.64453125,-22.94921875,-53.22265625,-0.48828125,0.0
1733975314.9752715,-121.58203125,-41.50390625,-49.31640625,-60.05859375,0.0
1733975314.9791763,-76.66015625,-45.41015625,-24.90234375,-42.96875,0.0
1733975314.9830813,74.70703125,-41.9921875,-28.80859375,38.0859375,0.0
1733975314.9869862,116.69921875,-31.73828125,-20.99609375,69.3359375,0.0
1733975314.9908912,-36.1328125,-29.296875,-22.94921875,-3.90625,0.0
1733975314.9947963,-131.8359375,-39.55078125,-41.50390625,-70.3125,0.0
1733975314.9987037,-102.5390625,-34.66796875,-32.2265625,-57.6171875,0.0
1733975315.0026088,36.62109375,-24.90234375,-19.04296875,10.25390625,0.0
1733975315.0065136,127.9296875,-45.8984375,-32.71484375,53.7109375,0.0
1733975315.0104187,7.8125,-67.87109375,-59.5703125,14.16015625,0.0
1733975315.0143237,-122.0703125,-35.64453125,-65.4296875,-43.9453125,0.0
1733975315.0182285,-90.33203125,-11.23046875,-37.59765625,-47.8515625,0.0
1733975315.0221336,35.15625,-21.97265625,-13.18359375,-0.48828125,0.0
1733975315.0260384,113.76953125,-14.16015625,-18.5546875,49.31640625,0.0
1733975315.0299435,14.6484375,-13.18359375,-26.3671875,19.04296875,0.0
1733975315.0338485,-118.1640625,-24.90234375,-9.765625,-65.91796875,0.0
1733975315.0377533,-112.3046875,-29.78515625,-14.6484375,-83.0078125,0.0
1733975315.0416584,27.83203125,-41.50390625,-22.4609375,-6.8359375,0.0
1733975315.0455198,133.30078125,-41.9921875,-15.625,67.87109375,0.0
1733975315.0494246,36.1328125,-31.73828125,-29.296875,34.66796875,0.0
1733975315.0533297,-90.8203125,-41.9921875,-44.43359375,-46.875,0.0
1733975315.0572345,-113.76953125,-33.203125,-54.6875,-79.1015625,0.0
1733975315.0611396,-20.01953125,-11.71875,-34.1796875,-36.62109375,0.0
1733975315.0650446,109.375,-6.8359375,-13.18359375,42.48046875,0.0
1733975315.0689495,52.734375,-9.765625,-39.0625,29.78515625,0.0
1733975315.0728545,-76.66015625,-35.64453125,-68.359375,-30.76171875,0.0
1733975315.0767593,-114.74609375,-36.1328125,-41.9921875,-59.5703125,0.0
1733975315.0806644,-24.4140625,-22.94921875,-18.06640625,-27.34375,0.0
1733975315.0845695,102.5390625,-27.83203125,-17.578125,54.19921875,0.0
1733975315.0884743,69.82421875,-19.53125,-22.94921875,50.78125,0.0
1733975315.0923154,-69.3359375,-12.20703125,-41.9921875,-30.2734375,0.0
1733975315.0962205,-119.140625,-17.578125,-60.546875,-59.08203125,0.0
1733975315.1001253,-27.34375,-21.97265625,-36.62109375,-29.78515625,0.0
1733975315.1040304,107.421875,-19.04296875,-12.6953125,35.64453125,0.0
1733975315.1079352,104.00390625,-22.94921875,-26.3671875,54.6875,0.0
1733975315.1118402,-23.4375,-18.5546875,-17.08984375,5.859375,0.0
1733975315.1157453,-104.4921875,-27.83203125,-3.41796875,-41.015625,0.0
1733975315.1196501,-60.05859375,-37.59765625,3.41796875,-39.55078125,0.0
1733975315.1235552,78.61328125,-21.97265625,31.25,37.109375,0.0
1733975315.1274602,96.6796875,-20.01953125,14.16015625,67.87109375,0.0
1733975315.131365,-39.55078125,-31.73828125,-18.06640625,1.953125,0.0
1733975315.13527,-110.3515625,-40.52734375,-5.37109375,-52.24609375,0.0
1733975315.1390746,-70.3125,-45.41015625,19.04296875,-46.875,0.0
1733975315.1429794,51.26953125,-43.45703125,9.765625,41.015625,0.0
1733975315.1468844,94.23828125,-47.8515625,13.671875,83.984375,0.0
1733975315.1507893,-29.78515625,-53.22265625,36.1328125,20.5078125,0.0
1733975315.1546943,-124.0234375,-57.12890625,40.52734375,-38.57421875,0.0
1733975315.1585994,-83.0078125,-59.5703125,32.71484375,-29.296875,0.0
1733975315.1625042,56.15234375,-57.12890625,31.73828125,58.10546875,0.0
1733975315.1664093,123.53515625,-43.45703125,40.52734375,99.12109375,0.0
1733975315.170314,7.8125,-30.2734375,14.6484375,25.390625,0.0
1733975315.1742191,-96.19140625,-39.0625,1.953125,-26.3671875,0.0
1733975315.1781242,-49.8046875,-52.24609375,10.25390625,-10.7421875,0.0
1733975315.182029,71.77734375,-49.31640625,26.3671875,54.19921875,0.0
1733975315.1858087,129.8828125,-48.828125,22.4609375,106.93359375,0.0
1733975315.1897135,16.6015625,-32.71484375,-3.41796875,48.33984375,0.0
1733975315.1936185,-93.75,-23.92578125,-16.6015625,-24.90234375,0.0
1733975315.1975234,-80.078125,-38.0859375,-5.859375,-30.2734375,0.0
1733975315.2014284,34.66796875,-34.66796875,-9.765625,33.69140625,0.0
1733975315.2053335,125.48828125,-13.18359375,-26.3671875,88.37890625,0.0
1733975315.2092383,44.43359375,-22.94921875,-18.06640625,52.24609375,0.0
1733975315.2131433,-87.890625,-39.55078125,6.8359375,-31.73828125,0.0
1733975315.2170482,-103.515625,-24.90234375,27.83203125,-48.33984375,0.0
1733975315.2209532,4.8828125,-21.97265625,33.69140625,6.8359375,0.0
1733975315.2248583,104.4921875,-33.203125,37.59765625,70.80078125,0.0
1733975315.228763,41.9921875,-35.64453125,30.76171875,44.921875,0.0
1733975315.232776,-85.9375,-16.11328125,30.76171875,-29.296875,0.0
1733975315.236681,-98.14453125,-9.27734375,6.8359375,-53.7109375,0.0
1733975315.240586,9.27734375,-16.11328125,8.7890625,2.44140625,0.0
1733975315.2444909,116.69921875,-8.7890625,62.01171875,70.3125,0.0
1733975315.248396,43.45703125,-8.30078125,71.77734375,34.1796875,0.0
1733975315.2523007,-92.7734375,-26.85546875,59.08203125,-39.0625,0.0
1733975315.2562058,-111.81640625,-51.26953125,58.10546875,-68.359375,0.0
1733975315.2601109,-22.94921875,-27.34375,80.56640625,-29.296875,0.0
1733975315.2640157,102.05078125,-5.37109375,101.5625,49.8046875,0.0
1733975315.2679207,73.73046875,-20.99609375,71.77734375,49.31640625,0.0
1733975315.2718256,-73.73046875,-15.625,79.58984375,-38.0859375,0.0
1733975315.2757306,-130.37109375,-15.625,88.37890625,-78.61328125,0.0
1733975315.2797012,-50.78125,-27.34375,82.03125,-43.9453125,0.0
1733975315.283606,88.8671875,-42.96875,104.00390625,20.99609375,0.0
1733975315.287511,88.8671875,-58.10546875,103.515625,40.52734375,0.0
1733975315.291416,-55.17578125,-53.7109375,93.26171875,-31.73828125,0.0
1733975315.295321,-127.44140625,-35.15625,101.07421875,-91.30859375,0.0
1733975315.299226,-83.49609375,-27.34375,111.81640625,-59.5703125,0.0
1733975315.3031309,34.66796875,-18.06640625,118.65234375,19.04296875,0.0
1733975315.307036,68.84765625,-4.39453125,119.62890625,41.9921875,0.0
1733975315.3109407,-61.03515625,-24.4140625,105.95703125,-22.4609375,0.0
1733975315.3148458,-137.20703125,-37.109375,110.83984375,-62.98828125,0.0
1733975315.3187509,-79.58984375,-21.484375,123.53515625,-53.7109375,0.0
1733975315.3226557,50.29296875,-21.97265625,119.62890625,6.8359375,0.0
1733975315.3265848,95.21484375,-30.76171875,119.62890625,55.6640625,0.0
1733975315.3304899,-18.06640625,-34.66796875,119.140625,-2.9296875,0.0
1733975315.334395,-111.81640625,-27.34375,104.00390625,-69.82421875,0.0
1733975315.3382998,-90.33203125,-33.203125,110.3515625,-65.91796875,0.0
1733975315.3422048,45.8984375,-49.31640625,139.6484375,18.06640625,0.0
1733975315.3461096,115.234375,-43.9453125,143.06640625,71.77734375,0.0
1733975315.3500147,-24.90234375,-31.25,124.51171875,-5.37109375,0.0
1733975315.3539197,-125.9765625,-29.78515625,117.1875,-80.078125,0.0
1733975315.3578246,-97.65625,-29.296875,102.5390625,-81.0546875,0.0
1733975315.3617296,3.41796875,-17.578125,122.0703125,-10.25390625,0.0
1733975315.3656344,77.1484375,-8.7890625,136.23046875,49.8046875,0.0
1733975315.3695395,-6.34765625,-13.671875,107.421875,1.953125,0.0
1733975315.3737063,-119.140625,-25.390625,91.796875,-67.3828125,0.0
1733975315.3776114,-100.5859375,-24.90234375,104.4921875,-74.70703125,0.0
1733975315.3815162,15.625,-26.3671875,132.32421875,-25.87890625,0.0
1733975315.3854213,96.19140625,-38.0859375,131.8359375,55.6640625,0.0
1733975315.3893263,20.5078125,-36.1328125,81.54296875,36.1328125,0.0
1733975315.3932312,-91.30859375,-50.29296875,94.7265625,-52.734375,0.0
1733975315.3971362,-115.234375,-58.10546875,130.859375,-79.58984375,0.0
1733975315.401041,-11.71875,-39.55078125,134.765625,-21.484375,0.0
1733975315.404946,99.12109375,-25.390625,155.76171875,49.31640625,0.0
1733975315.4088511,41.9921875,-19.04296875,172.8515625,16.11328125,0.0
1733975315.412756,-76.171875,-22.4609375,156.25,-57.6171875,0.0
1733975315.416661,-105.95703125,-24.90234375,136.71875,-82.51953125,0.0
1733975315.4205327,-20.99609375,-22.4609375,137.20703125,-40.52734375,0.0
1733975315.4244378,101.07421875,-26.3671875,153.80859375,40.52734375,0.0
1733975315.4283426,59.08203125,-37.59765625,156.25,37.59765625,0.0
1733975315.4322476,-61.5234375,-32.71484375,149.90234375,-37.59765625,0.0
1733975315.4361525,-99.12109375,-27.34375,159.1796875,-62.5,0.0
1733975315.4400575,-25.390625,-50.29296875,159.1796875,-37.59765625,0.0
1733975315.4439626,106.4453125,-32.2265625,134.27734375,37.109375,0.0
1733975315.4478674,65.91796875,-18.06640625,141.11328125,43.45703125,0.0
1733975315.4517725,-73.73046875,-27.83203125,143.06640625,-40.52734375,0.0
1733975315.4556775,-98.6328125,-36.1328125,114.2578125,-68.84765625,0.0
1733975315.4595823,-42.96875,-49.8046875,135.7421875,-42.96875,0.0
1733975315.4634874,64.453125,-53.7109375,168.9453125,34.1796875,0.0
1733975315.4673228,79.58984375,-36.62109375,201.171875,53.22265625,0.0
1733975315.471228,-46.38671875,-29.78515625,196.2890625,-28.80859375,0.0
1733975315.4751327,-119.62890625,-36.1328125,182.6171875,-91.30859375,0.0
1733975315.4790378,-63.4765625,-29.78515625,195.3125,-70.3125,0.0
1733975315.4829428,41.9921875,-26.3671875,206.0546875,9.27734375,0.0
1733975315.4868476,71.2890625,-30.2734375,198.73046875,44.43359375,0.0
1733975315.4907527,-34.66796875,-32.71484375,190.4296875,-20.99609375,0.0
1733975315.4946575,-117.1875,-37.59765625,201.171875,-81.54296875,0.0
1733975315.4985626,-91.796875,-38.0859375,239.74609375,-81.0546875,0.0
1733975315.5024676,33.203125,-39.0625,267.578125,-18.06640625,0.0
1733975315.5063725,88.37890625,-34.1796875,267.578125,37.59765625,0.0
1733975315.5102775,-16.6015625,-23.92578125,268.06640625,-19.04296875,0.0
1733975315.5143454,-107.421875,-29.296875,267.578125,-79.1015625,0.0
1733975315.5182505,-91.30859375,-33.203125,252.9296875,-74.70703125,0.0
1733975315.5221553,32.2265625,-24.4140625,295.41015625,-13.18359375,0.0
1733975315.5260603,110.83984375,-22.94921875,347.65625,45.8984375,0.0
1733975315.5299652,6.8359375,-12.6953125,341.796875,-1.953125,0.0
1733975315.5338702,-113.28125,-17.578125,315.91796875,-77.63671875,0.0
1733975315.5377753,-100.5859375,-31.73828125,297.8515625,-77.1484375,0.0
1733975315.54168,10.7421875,-20.01953125,338.8671875,-17.08984375,0.0
1733975315.5455852,95.703125,-14.6484375,367.67578125,42.48046875,0.0
1733975315.54949,23.92578125,-23.92578125,367.67578125,11.71875,0.0
1733975315.553395,-91.30859375,-22.4609375,381.8359375,-66.40625,0.0
1733975315.5573,-101.5625,-17.08984375,395.5078125,-88.37890625,0.0
1733975315.56106,0.0,-19.04296875,407.2265625,-27.34375,0.0
1733975315.5649648,91.796875,-24.90234375,398.92578125,47.36328125,0.0
1733975315.5688698,31.25,-21.97265625,389.6484375,20.5078125,0.0
1733975315.572775,-92.28515625,-22.94921875,432.12890625,-61.5234375,0.0
1733975315.5766797,-105.46875,-29.78515625,457.51953125,-93.75,0.0
1733975315.5805848,-4.39453125,-35.15625,463.8671875,-47.8515625,0.0
1733975315.5844896,95.703125,-33.203125,476.5625,37.59765625,0.0
1733975315.5883946,47.36328125,-22.4609375,467.7734375,37.109375,0.0
1733975315.5922997,-79.1015625,-24.4140625,471.19140625,-55.6640625,0.0
1733975315.5962045,-123.53515625,-28.80859375,456.54296875,-90.8203125,0.0
1733975315.6001096,-49.31640625,-19.53125,442.87109375,-45.41015625,0.0
1733975315.6040144,81.0546875,-10.25390625,452.1484375,32.2265625,0.0
1733975315.608016,55.6640625,-20.99609375,454.58984375,32.71484375,0.0
1733975315.6119208,-82.51953125,-27.34375,448.2421875,-53.7109375,0.0
1733975315.615826,-123.53515625,-23.4375,437.01171875,-92.28515625,0.0
1733975315.619731,-59.08203125,-34.1796875,447.265625,-59.5703125,0.0
1733975315.6236358,52.734375,-33.203125,458.0078125,19.04296875,0.0
1733975315.6275408,49.8046875,-31.25,443.359375,31.25,0.0
1733975315.6314456,-69.3359375,-33.69140625,435.546875,-39.0625,0.0
1733975315.6353507,-130.859375,-31.25,420.8984375,-92.7734375,0.0
1733975315.6392558,-72.265625,-36.62109375,424.31640625,-62.5,0.0
1733975315.6431606,54.19921875,-31.25,428.22265625,30.2734375,0.0
1733975315.6470656,62.5,-26.3671875,415.0390625,34.1796875,0.0
1733975315.6509705,-63.96484375,-30.2734375,426.26953125,-44.43359375,0.0
1733975315.654928,-135.25390625,-28.3203125,404.296875,-86.9140625,0.0
1733975315.658833,-93.75,-26.3671875,375.48828125,-54.6875,0.0
1733975315.6627378,39.0625,-19.04296875,395.99609375,5.859375,0.0
1733975315.666643,94.7265625,-19.53125,388.671875,31.25,0.0
1733975315.670548,-27.83203125,-17.08984375,373.53515625,-19.04296875,0.0
1733975315.6744528,-134.27734375,-30.2734375,372.55859375,-73.2421875,0.0
1733975315.6783578,-99.12109375,-50.29296875,349.609375,-74.21875,0.0
1733975315.6822627,22.4609375,-32.2265625,352.05078125,-4.39453125,0.0
1733975315.6861677,79.58984375,-26.3671875,351.5625,42.48046875,0.0
1733975315.6900728,-20.01953125,-38.0859375,333.0078125,-4.39453125,0.0
1733975315.6939776,-116.2109375,-40.52734375,360.3515625,-81.54296875,0.0
1733975315.6978827,-111.328125,-41.015625,374.51171875,-92.28515625,0.0
1733975315.70182,5.859375,-36.1328125,353.02734375,-3.41796875,0.0
1733975315.705725,89.35546875,-28.80859375,343.26171875,67.3828125,0.0
1733975315.7096298,-2.9296875,-32.2265625,340.8203125,9.765625,0.0
1733975315.7135348,-118.1640625,-29.78515625,330.56640625,-64.94140625,0.0
1733975315.71744,-122.55859375,-20.5078125,314.94140625,-79.1015625,0.0
1733975315.7213447,2.9296875,-14.6484375,315.4296875,-15.625,0.0
1733975315.7252498,89.35546875,-16.11328125,331.54296875,41.9921875,0.0
1733975315.7291546,6.34765625,-29.78515625,329.58984375,14.16015625,0.0
1733975315.7330596,-114.74609375,-41.015625,303.22265625,-43.9453125,0.0
1733975315.7369647,-117.67578125,-26.3671875,326.66015625,-82.51953125,0.0
1733975315.7408695,-3.90625,-11.23046875,353.02734375,-34.1796875,0.0
1733975315.7447746,93.75,-14.16015625,348.14453125,53.22265625,0.0
1733975315.7486663,22.4609375,-20.99609375,341.796875,22.94921875,0.0
1733975315.7525713,-114.2578125,-28.3203125,338.8671875,-62.5,0.0
1733975315.7564762,-139.6484375,-31.73828125,342.28515625,-91.30859375,0.0
1733975315.7603812,-61.03515625,-37.109375,344.7265625,-54.19921875,0.0
1733975315.7642863,51.7578125,-41.9921875,346.19140625,21.97265625,0.0
1733975315.768191,22.4609375,-41.9921875,329.1015625,20.01953125,0.0
1733975315.7720962,-103.515625,-42.48046875,318.84765625,-60.05859375,0.0
1733975315.776001,-136.23046875,-42.48046875,308.10546875,-87.890625,0.0
1733975315.779906,-43.45703125,-30.2734375,307.12890625,-41.9921875,0.0
1733975315.783811,67.87109375,-22.4609375,327.63671875,13.671875,0.0
1733975315.787716,42.48046875,-34.1796875,311.5234375,19.04296875,0.0
1733975315.791621,-80.56640625,-52.24609375,285.64453125,-52.24609375,0.0
1733975315.7954783,-148.4375,-42.96875,279.78515625,-107.91015625,0.0
1733975315.7993834,-92.7734375,-19.04296875,279.78515625,-86.42578125,0.0
1733975315.8032885,35.64453125,-21.97265625,282.71484375,-1.46484375,0.0
1733975315.8071933,38.0859375,-38.0859375,272.4609375,37.109375,0.0
1733975315.8110983,-88.37890625,-34.66796875,268.5546875,-48.828125,0.0
1733975315.8150034,-150.390625,-25.87890625,267.08984375,-105.95703125,0.0
1733975315.8189082,-92.7734375,-21.97265625,270.5078125,-76.171875,0.0
1733975315.8228133,46.38671875,-24.90234375,263.671875,13.18359375,0.0
1733975315.826718,86.42578125,-19.04296875,265.13671875,58.59375,0.0
1733975315.8306231,-39.0625,-23.92578125,277.83203125,-22.94921875,0.0
1733975315.8345282,-139.6484375,-40.52734375,258.30078125,-84.9609375,0.0
1733975315.838433,-106.93359375,-37.59765625,241.69921875,-81.54296875,0.0
1733975315.842271,15.13671875,-25.390625,247.0703125,-12.6953125,0.0
1733975315.846176,53.22265625,-19.53125,235.3515625,45.8984375,0.0
1733975315.850081,-47.36328125,-24.90234375,228.02734375,-11.23046875,0.0
1733975315.8539858,-134.27734375,-35.15625,238.28125,-79.1015625,0.0
1733975315.8578908,-120.60546875,-39.0625,228.02734375,-77.63671875,0.0
1733975315.861796,10.25390625,-40.0390625,215.33203125,-20.99609375,0.0
1733975315.8657007,89.35546875,-39.55078125,208.49609375,42.48046875,0.0
1733975315.8696058,-12.20703125,-38.0859375,184.5703125,4.8828125,0.0
1733975315.8735106,-121.09375,-34.66796875,191.40625,-83.0078125,0.0
1733975315.8774157,-107.91015625,-30.2734375,200.68359375,-87.890625,0.0
1733975315.8813207,16.6015625,-34.1796875,200.1953125,-4.8828125,0.0
1733975315.8852255,99.609375,-41.015625,195.3125,64.453125,0.0
1733975315.889291,5.37109375,-43.9453125,182.12890625,12.20703125,0.0
1733975315.8931959,-114.74609375,-50.78125,177.24609375,-65.4296875,0.0
1733975315.897101,-120.60546875,-41.9921875,179.19921875,-79.58984375,0.0
1733975315.901006,-21.484375,-28.3203125,198.2421875,-25.390625,0.0
1733975315.9049108,77.63671875,-24.90234375,208.984375,31.25,0.0
1733975315.9088159,17.08984375,-21.484375,191.89453125,15.13671875,0.0
1733975315.9127207,-104.4921875,-20.99609375,174.8046875,-63.4765625,0.0
1733975315.9166257,-118.1640625,-19.53125,186.03515625,-108.3984375,0.0
1733975315.9205308,-26.85546875,-13.671875,198.2421875,-48.828125,0.0
1733975315.9244356,92.28515625,-16.11328125,180.6640625,23.92578125,0.0
1733975315.9283407,59.5703125,-30.76171875,139.6484375,21.97265625,0.0
1733975315.9322455,-86.42578125,-27.34375,128.90625,-59.5703125,0.0
1733975315.9360147,-118.1640625,-22.94921875,137.20703125,-101.07421875,0.0
1733975315.9399197,-32.71484375,-32.2265625,150.87890625,-50.78125,0.0
1733975315.9438245,65.4296875,-40.0390625,175.78125,28.80859375,0.0
1733975315.9477296,39.55078125,-42.96875,193.359375,28.3203125,0.0
1733975315.9516344,-79.1015625,-39.55078125,185.546875,-51.26953125,0.0
1733975315.9555395,-127.44140625,-35.64453125,166.9921875,-96.19140625,0.0
1733975315.9594445,-63.96484375,-23.92578125,162.59765625,-63.4765625,0.0
1733975315.9633493,67.87109375,-15.625,163.57421875,10.25390625,0.0
1733975315.9672544,62.98828125,-20.99609375,150.87890625,25.87890625,0.0
1733975315.9711592,-64.94140625,-29.296875,133.30078125,-39.0625,0.0
1733975315.9750643,-110.83984375,-33.69140625,118.65234375,-77.1484375,0.0
1733975315.9789693,-48.828125,-34.1796875,107.421875,-53.22265625,0.0
1733975315.9829648,72.75390625,-23.92578125,133.30078125,1.953125,0.0
1733975315.9868696,82.51953125,-16.11328125,137.6953125,25.390625,0.0
1733975315.9907746,-36.1328125,-15.625,120.1171875,-30.76171875,0.0
1733975315.9946797,-103.515625,-20.99609375,119.140625,-91.796875,0.0
1733975315.9985845,-59.5703125,-26.3671875,111.81640625,-83.49609375,0.0
1733975316.0024896,61.03515625,-25.390625,106.4453125,1.46484375,0.0
1733975316.0063944,93.75,-20.01953125,121.09375,43.45703125,0.0
1733975316.0102994,-10.7421875,-25.390625,122.55859375,-21.484375,0.0
1733975316.0142045,-97.65625,-38.57421875,108.3984375,-71.2890625,0.0
1733975316.0181093,-88.8671875,-50.29296875,90.8203125,-63.4765625,0.0
1733975316.0220144,39.55078125,-37.109375,128.41796875,-7.8125,0.0
1733975316.0259192,109.86328125,-23.4375,143.5546875,52.24609375,0.0
1733975316.0298836,-1.46484375,-37.59765625,115.72265625,-3.90625,0.0
1733975316.0337887,-116.69921875,-38.57421875,121.58203125,-81.0546875,0.0
1733975316.0376935,-107.91015625,-27.83203125,131.34765625,-71.77734375,0.0
1733975316.0415986,20.5078125,-22.4609375,140.625,-1.953125,0.0
1733975316.0455034,114.74609375,-24.4140625,135.7421875,47.8515625,0.0
1733975316.0494084,31.73828125,-30.76171875,107.421875,-8.7890625,0.0
1733975316.0533135,-88.8671875,-32.2265625,110.83984375,-72.265625,0.0
1733975316.0572183,-87.890625,-32.71484375,132.32421875,-67.3828125,0.0
1733975316.0611234,28.80859375,-41.9921875,128.90625,-9.765625,0.0
1733975316.0650282,115.72265625,-43.9453125,130.859375,55.17578125,0.0
1733975316.0689332,35.15625,-34.1796875,143.5546875,11.71875,0.0
1733975316.0728383,-79.1015625,-33.203125,122.55859375,-66.89453125,0.0
1733975316.0767686,-93.75,-32.71484375,99.12109375,-87.40234375,0.0
1733975316.0806735,15.13671875,-35.64453125,112.3046875,-31.25,0.0
1733975316.0845785,126.953125,-38.0859375,133.30078125,40.0390625,0.0
1733975316.0884833,63.4765625,-35.15625,130.37109375,15.625,0.0
1733975316.0923884,-81.0546875,-40.52734375,118.1640625,-58.10546875,0.0
1733975316.0962934,-120.1171875,-45.41015625,118.1640625,-69.3359375,0.0
1733975316.1001983,-11.23046875,-39.0625,125.48828125,-7.8125,0.0
1733975316.1041033,97.16796875,-23.92578125,108.3984375,58.59375,0.0
1733975316.1080081,55.6640625,-25.390625,83.0078125,42.96875,0.0
1733975316.1119132,-72.265625,-23.4375,111.81640625,-51.7578125,0.0
1733975316.1158183,-122.55859375,-16.6015625,136.71875,-97.65625,0.0
1733975316.119723,-41.015625,-1.46484375,126.953125,-39.55078125,0.0
1733975316.1236184,92.28515625,14.16015625,127.9296875,45.41015625,0.0
1733975316.1275232,86.9140625,16.6015625,122.0703125,37.109375,0.0
1733975316.1314282,-54.6875,17.08984375,110.3515625,-33.203125,0.0
1733975316.1353333,-101.5625,17.08984375,107.91015625,-54.6875,0.0
1733975316.139238,-29.296875,14.16015625,100.09765625,-29.296875,0.0
1733975316.1431432,103.515625,11.23046875,89.35546875,22.4609375,0.0
1733975316.1470482,101.07421875,8.7890625,94.23828125,33.203125,0.0
1733975316.150953,-19.04296875,1.46484375,89.35546875,-16.11328125,0.0
1733975316.154858,-90.8203125,-15.13671875,84.47265625,-48.828125,0.0
1733975316.158763,-56.640625,-20.5078125,109.86328125,-42.96875,0.0
1733975316.162668,67.3828125,-18.5546875,115.72265625,21.97265625,0.0
1733975316.166573,97.65625,-18.5546875,96.6796875,58.59375,0.0
1733975316.1704397,-18.5546875,-18.06640625,82.03125,3.90625,0.0
1733975316.1743445,-99.12109375,5.37109375,85.9375,-54.19921875,0.0
1733975316.1782496,-61.03515625,49.31640625,91.30859375,-35.64453125,0.0
1733975316.1821547,52.734375,62.5,91.796875,32.71484375,0.0
1733975316.1860595,103.515625,55.17578125,90.33203125,68.84765625,0.0
1733975316.1899645,-7.32421875,41.9921875,78.125,12.20703125,0.0
1733975316.1938694,-95.703125,28.3203125,82.51953125,-58.59375,0.0
1733975316.1977744,-66.89453125,15.13671875,84.9609375,-48.828125,0.0
1733975316.2016795,45.8984375,3.90625,107.91015625,17.578125,0.0
1733975316.2055843,124.0234375,3.90625,114.74609375,46.875,0.0
1733975316.2094893,24.90234375,8.7890625,90.8203125,3.90625,0.0
1733975316.2133942,-77.63671875,9.765625,72.265625,-39.0625,0.0
1733975316.2172272,-56.15234375,12.20703125,62.98828125,-59.5703125,0.0
1733975316.2211323,43.45703125,10.7421875,89.35546875,2.44140625,0.0
1733975316.2250373,135.25390625,0.9765625,103.515625,77.1484375,0.0
1733975316.2289422,63.96484375,-5.859375,100.09765625,17.08984375,0.0
1733975316.2328472,-59.08203125,-16.6015625,99.12109375,-50.29296875,0.0
1733975316.236752,-78.125,-23.4375,88.37890625,-56.640625,0.0
1733975316.240657,20.99609375,-19.53125,63.4765625,0.9765625,0.0
1733975316.2445621,141.11328125,-14.16015625,88.8671875,83.49609375,0.0
1733975316.248467,79.58984375,-12.20703125,125.0,44.43359375,0.0
1733975316.252372,-55.6640625,-22.4609375,82.03125,-52.734375,0.0
1733975316.2562768,-82.51953125,-30.76171875,64.453125,-63.96484375,0.0
1733975316.260182,8.30078125,-21.97265625,111.81640625,4.8828125,0.0
1733975316.2639773,124.0234375,-19.53125,133.7890625,66.40625,0.0
1733975316.267882,62.98828125,-25.87890625,121.58203125,38.57421875,0.0
1733975316.2717872,-67.3828125,-28.3203125,117.67578125,-29.296875,0.0
1733975316.275692,-99.12109375,-25.390625,140.13671875,-60.546875,0.0
1733975316.279597,-14.16015625,-21.484375,158.69140625,-13.671875,0.0
1733975316.283502,118.65234375,-19.04296875,141.6015625,82.51953125,0.0
1733975316.287407,104.98046875,-24.90234375,104.4921875,86.42578125,0.0
1733975316.291312,-29.78515625,-23.4375,115.72265625,4.39453125,0.0
1733975316.295217,-97.16796875,-24.90234375,162.109375,-47.8515625,0.0
1733975316.2991219,-22.94921875,-30.2734375,187.01171875,-27.34375,0.0
1733975316.303027,101.5625,-18.5546875,196.77734375,58.59375,0.0
1733975316.3069317,91.796875,-10.25390625,203.61328125,69.82421875,0.0
1733975316.3109722,-30.2734375,-17.08984375,186.5234375,-26.3671875,0.0
1733975316.3148773,-85.9375,-22.4609375,169.921875,-73.2421875,0.0
1733975316.318782,-25.390625,-23.92578125,194.3359375,-24.4140625,0.0
1733975316.3226871,93.75,-17.08984375,230.46875,51.7578125,0.0
1733975316.3265922,116.2109375,-15.625,211.9140625,77.63671875,0.0
1733975316.330497,-11.23046875,-41.015625,191.89453125,20.99609375,0.0
1733975316.334402,-102.05078125,-41.50390625,198.73046875,-31.73828125,0.0
1733975316.338307,-56.15234375,-9.27734375,216.796875,-31.73828125,0.0
1733975316.342212,66.89453125,-0.9765625,253.41796875,36.62109375,0.0
1733975316.346117,101.07421875,-10.25390625,248.53515625,94.23828125,0.0
1733975316.3500218,-4.8828125,-4.8828125,224.609375,41.9921875,0.0
1733975316.353927,-91.30859375,-1.953125,253.90625,-33.69140625,0.0
1733975316.358096,-73.2421875,-7.8125,289.0625,-32.2265625,0.0
1733975316.3620007,44.43359375,-9.765625,303.7109375,38.57421875,0.0
1733975316.3659058,119.62890625,-3.90625,325.1953125,92.7734375,0.0
1733975316.3698106,25.390625,0.48828125,321.2890625,38.57421875,0.0
1733975316.3737156,-90.33203125,-15.13671875,297.36328125,-30.2734375,0.0
1733975316.3776207,-75.1953125,-20.99609375,288.0859375,-26.3671875,0.0
1733975316.3815255,54.19921875,-13.671875,301.26953125,49.31640625,0.0
1733975316.3854306,140.13671875,-10.7421875,320.3125,92.28515625,0.0
1733975316.3893356,43.9453125,-31.73828125,331.54296875,24.90234375,0.0
1733975316.3932405,-91.796875,-44.43359375,332.51953125,-29.78515625,0.0
1733975316.3971455,-100.5859375,-26.3671875,353.515625,-27.34375,0.0
1733975316.4010503,16.6015625,-7.8125,357.421875,11.23046875,0.0
1733975316.405022,0.0,-0.48828125,331.54296875,87.890625,0.0
1733975316.4089267,0.0,-16.6015625,338.37890625,61.03515625,0.0
1733975316.4128318,0.0,-20.01953125,353.02734375,-37.109375,0.0
1733975316.4167368,0.0,-14.16015625,353.515625,-52.734375,0.0
1733975316.4206417,0.0,-16.6015625,344.7265625,7.8125,0.0
1733975316.4245467,0.0,-19.53125,336.9140625,71.77734375,0.0
1733975316.4284518,0.0,-23.92578125,333.0078125,56.640625,0.0
1733975316.4323566,0.0,-21.97265625,314.453125,-13.671875,0.0
1733975316.4362617,0.0,-20.5078125,284.66796875,-44.43359375,0.0
1733975316.4401665,0.0,-23.92578125,304.6875,24.4140625,0.0
1733975316.4440715,0.0,-12.20703125,344.7265625,91.796875,0.0
1733975316.4479766,0.0,-9.27734375,338.8671875,43.9453125,0.0
1733975316.4519088,-32.2265625,-23.92578125,330.56640625,-37.59765625,0.0
1733975316.455814,-98.14453125,-25.390625,351.5625,-57.12890625,0.0
1733975316.4597187,-20.01953125,-15.625,379.39453125,-20.5078125,0.0
1733975316.4636238,106.93359375,-4.8828125,387.6953125,67.87109375,0.0
1733975316.4675286,84.47265625,-5.37109375,397.4609375,74.70703125,0.0
1733975316.4714336,-37.59765625,-15.13671875,401.85546875,14.16015625,0.0
1733975316.4753387,-89.35546875,-15.13671875,399.90234375,-35.64453125,0.0
1733975316.4792435,-41.9921875,-12.20703125,419.43359375,-25.390625,0.0
1733975316.4831486,88.8671875,-14.6484375,421.875,73.2421875,0.0
1733975316.4870536,112.3046875,-15.625,440.4296875,79.58984375,0.0
1733975316.4909585,-12.6953125,-20.01953125,446.2890625,35.64453125,0.0
1733975316.4948635,-82.03125,-6.34765625,437.98828125,-16.11328125,0.0
1733975316.4990518,0.0,11.71875,457.51953125,-32.71484375,0.0
1733975316.5029569,0.0,16.11328125,478.02734375,41.015625,0.0
1733975316.5068617,0.0,20.01953125,462.40234375,66.40625,0.0
1733975316.5107667,0.0,17.08984375,445.80078125,-1.953125,0.0
1733975316.5146718,0.0,7.8125,438.96484375,-56.15234375,0.0
1733975316.5185766,0.0,3.90625,429.19921875,-44.921875,0.0
1733975316.5224817,0.0,27.34375,436.5234375,19.53125,0.0
1733975316.5263865,0.0,42.48046875,418.9453125,62.5,0.0
1733975316.5302916,0.0,25.87890625,398.92578125,11.71875,0.0
1733975316.5341966,0.0,41.9921875,412.109375,-61.03515625,0.0
1733975316.5381014,0.0,50.78125,408.203125,-52.24609375,0.0
1733975316.5420065,0.0,38.0859375,405.2734375,10.25390625,0.0
1733975316.5458615,118.65234375,37.109375,405.76171875,58.10546875,0.0
1733975316.5497665,49.8046875,39.0625,378.41796875,35.15625,0.0
1733975316.5536714,-57.6171875,28.80859375,355.95703125,-26.3671875,0.0
1733975316.5575764,-53.7109375,18.5546875,371.58203125,-49.8046875,0.0
1733975316.5614812,27.34375,33.203125,397.94921875,8.30078125,0.0
1733975316.5653863,96.19140625,72.75390625,431.640625,75.68359375,0.0
1733975316.5692914,40.52734375,110.83984375,448.73046875,38.57421875,0.0
1733975316.5731962,-71.77734375,134.765625,440.91796875,-19.53125,0.0
1733975316.5771012,-99.609375,156.25,446.2890625,-39.0625,0.0
1733975316.5810063,6.8359375,173.33984375,465.8203125,4.8828125,0.0
1733975316.584911,99.12109375,171.38671875,467.28515625,71.2890625,0.0
1733975316.5888162,30.76171875,152.83203125,459.9609375,48.33984375,0.0
1733975316.5926487,-56.15234375,149.4140625,489.74609375,-33.203125,0.0
1733975316.5965536,-69.3359375,154.296875,509.27734375,-50.29296875,0.0
1733975316.6004586,21.484375,136.23046875,521.484375,13.18359375,0.0
1733975316.6043637,134.765625,103.515625,540.52734375,79.58984375,0.0
1733975316.6082685,73.73046875,104.4921875,532.2265625,66.40625,0.0
1733975316.6121736,-31.73828125,136.71875,509.27734375,-31.25,0.0
1733975316.6160784,-77.63671875,152.83203125,547.36328125,-58.10546875,0.0
1733975316.6199834,-13.671875,158.69140625,606.93359375,-13.671875,0.0
1733975316.6238885,102.5390625,162.109375,647.4609375,38.57421875,0.0
1733975316.6277933,85.44921875,166.9921875,695.80078125,36.1328125,0.0
1733975316.6316984,-15.625,188.4765625,736.81640625,-23.92578125,0.0
1733975316.6356034,-58.10546875,193.359375,781.73828125,-73.73046875,0.0
1733975316.6394048,13.18359375,183.10546875,835.44921875,-50.78125,0.0
1733975316.6433098,127.44140625,168.9453125,873.046875,39.55078125,0.0
1733975316.6472147,130.859375,158.203125,905.76171875,61.5234375,0.0
1733975316.6511197,26.3671875,154.296875,940.91796875,-8.30078125,0.0
1733975316.6550248,-32.71484375,169.921875,954.58984375,-39.0625,0.0
1733975316.6589296,30.2734375,190.91796875,956.54296875,-2.9296875,0.0
1733975316.6628346,151.85546875,170.41015625,964.84375,53.7109375,0.0
1733975316.6667395,162.109375,146.97265625,968.75,72.265625,0.0
1733975316.6706445,50.78125,153.3203125,968.26171875,8.30078125,0.0
1733975316.6745496,-27.83203125,159.66796875,967.7734375,-71.77734375,0.0
1733975316.6784544,3.90625,154.78515625,968.26171875,-53.22265625,0.0
1733975316.6823595,136.23046875,154.296875,968.26171875,29.78515625,0.0
1733975316.6861253,174.31640625,153.3203125,967.7734375,73.73046875,0.0
1733975316.69003,52.24609375,135.7421875,967.7734375,9.27734375,0.0
1733975316.6939352,-40.0390625,114.2578125,966.796875,-63.4765625,0.0
1733975316.69784,0.0,109.375,967.7734375,-36.1328125,0.0
1733975316.701745,109.375,104.00390625,967.7734375,27.34375,0.0
1733975316.70565,169.921875,92.7734375,965.33203125,59.08203125,0.0
1733975316.709555,76.171875,87.890625,960.9375,20.99609375,0.0
1733975316.71346,-4.39453125,77.1484375,948.73046875,-23.92578125,0.0
1733975316.717365,8.30078125,65.4296875,916.9921875,0.0,0.0
1733975316.7212698,89.84375,52.24609375,880.859375,30.76171875,0.0
1733975316.725175,151.3671875,53.7109375,862.79296875,58.59375,0.0
1733975316.7290797,61.03515625,61.5234375,840.33203125,30.2734375,0.0
1733975316.7330701,-49.31640625,54.19921875,817.3828125,-52.24609375,0.0
1733975316.736975,-54.6875,43.45703125,786.62109375,-70.80078125,0.0
1733975316.74088,46.875,39.55078125,768.06640625,-11.71875,0.0
1733975316.7447848,161.62109375,37.109375,754.39453125,62.01171875,0.0
1733975316.74869,85.9375,30.76171875,706.0546875,37.109375,0.0
1733975316.752595,-35.64453125,23.4375,645.01953125,-52.24609375,0.0
1733975316.7564998,-46.38671875,18.5546875,627.44140625,-53.7109375,0.0
1733975316.7604048,41.50390625,22.94921875,623.046875,19.04296875,0.0
1733975316.7643096,128.41796875,14.6484375,585.44921875,66.89453125,0.0
1733975316.7682147,89.35546875,7.8125,554.6875,62.5,0.0
1733975316.7721198,-8.30078125,21.484375,566.89453125,-5.859375,0.0
1733975316.7760246,-58.59375,22.4609375,564.453125,-71.2890625,0.0
1733975316.7799857,25.390625,19.53125,536.62109375,-11.71875,0.0
1733975316.7838907,139.16015625,18.5546875,517.578125,75.1953125,0.0
1733975316.7877955,113.76953125,15.13671875,488.76953125,54.6875,0.0
1733975316.7917006,-4.39453125,10.25390625,471.19140625,-12.6953125,0.0
1733975316.7956057,-70.80078125,-10.7421875,462.890625,-49.31640625,0.0
1733975316.7995105,-10.25390625,-9.27734375,434.08203125,-17.578125,0.0
1733975316.8034155,107.91015625,7.8125,405.76171875,73.2421875,0.0
1733975316.8073206,98.6328125,13.671875,400.390625,73.73046875,0.0
1733975316.8112254,-12.20703125,4.8828125,396.484375,-7.32421875,0.0
1733975316.8151305,-56.640625,1.953125,396.484375,-21.484375,0.0
1733975316.8190353,9.27734375,16.11328125,411.1328125,24.90234375,0.0
1733975316.8229403,103.515625,7.8125,394.04296875,58.10546875,0.0
1733975316.8268638,85.9375,-4.39453125,365.234375,68.84765625,0.0
1733975316.8307686,-19.53125,-2.44140625,360.83984375,-2.44140625,0.0
1733975316.8346736,-74.70703125,1.46484375,366.2109375,-71.77734375,0.0
1733975316.8385787,-27.83203125,-0.9765625,364.74609375,-31.73828125,0.0
1733975316.8424835,94.23828125,4.8828125,363.76953125,64.453125,0.0
1733975316.8463886,122.0703125,18.5546875,365.234375,94.7265625,0.0
1733975316.8502936,21.484375,21.484375,353.02734375,11.23046875,0.0
1733975316.8541985,-53.22265625,22.4609375,330.56640625,-53.7109375,0.0
1733975316.8581035,-26.85546875,2.44140625,317.3828125,-15.625,0.0
1733975316.8620083,59.08203125,0.9765625,351.07421875,56.15234375,0.0
1733975316.8659134,113.28125,17.08984375,355.46875,71.2890625,0.0
1733975316.8698184,6.8359375,4.8828125,347.65625,20.01953125,0.0
1733975316.873714,-78.61328125,5.37109375,381.34765625,-28.3203125,0.0
1733975316.877619,-41.015625,18.06640625,404.78515625,-22.94921875,0.0
1733975316.8815238,61.03515625,20.01953125,422.8515625,19.04296875,0.0
1733975316.885429,112.3046875,20.99609375,438.4765625,71.77734375,0.0
1733975316.889334,20.01953125,17.08984375,443.359375,46.875,0.0
1733975316.8932388,-64.453125,5.37109375,436.5234375,-20.5078125,0.0
1733975316.8971438,-82.03125,112.3046875,433.59375,-34.66796875,0.0
1733975316.901049,16.11328125,226.5625,437.98828125,18.06640625,0.0
1733975316.9049537,105.95703125,199.70703125,431.15234375,104.00390625,0.0
1733975316.9088588,53.7109375,187.5,407.71484375,64.453125,0.0
1733975316.9127636,-48.828125,182.12890625,400.390625,-35.64453125,0.0
1733975316.9166687,-83.984375,139.6484375,422.36328125,-32.2265625,0.0
1733975316.9205396,12.6953125,124.0234375,455.56640625,16.11328125,0.0
1733975316.9244444,105.95703125,115.72265625,448.73046875,95.703125,0.0
1733975316.9283495,48.828125,108.88671875,390.625,70.80078125,0.0
1733975316.9322546,-68.84765625,175.78125,393.06640625,-38.57421875,0.0
1733975316.9361594,-102.5390625,212.890625,441.40625,-70.3125,0.0
1733975316.9400644,-9.27734375,188.4765625,478.515625,-4.39453125,0.0
1733975316.9439692,105.46875,168.9453125,491.69921875,84.9609375,0.0
1733975316.9478743,59.5703125,175.78125,469.23828125,62.5,0.0
1733975316.9517794,-57.12890625,229.4921875,471.6796875,-10.7421875,0.0
1733975316.9556842,-83.0078125,236.81640625,486.81640625,-39.55078125,0.0
1733975316.9595892,-14.16015625,209.47265625,485.83984375,-13.18359375,0.0
1733975316.9634943,88.8671875,196.2890625,494.62890625,62.01171875,0.0
1733975316.9673355,76.171875,186.03515625,506.34765625,66.40625,0.0
1733975316.9712403,-16.6015625,177.734375,498.046875,-9.27734375,0.0
1733975316.9751453,-68.359375,162.59765625,483.88671875,-31.73828125,0.0
1733975316.9790504,-18.06640625,147.94921875,497.0703125,5.859375,0.0
1733975316.9829552,104.4921875,139.16015625,497.55859375,61.5234375,0.0
1733975316.9868603,117.67578125,134.27734375,463.37890625,65.91796875,0.0
1733975316.9907653,-24.4140625,114.74609375,434.08203125,5.859375,0.0
1733975316.9946702,-81.0546875,96.6796875,416.50390625,-14.16015625,0.0
1733975316.9985752,-7.8125,120.1171875,465.8203125,-19.53125,0.0
1733975317.00248,99.12109375,126.953125,517.578125,44.43359375,0.0
1733975317.006385,106.93359375,108.3984375,501.46484375,84.9609375,0.0
1733975317.0102901,-8.7890625,100.5859375,475.09765625,6.8359375,0.0
1733975317.0143642,-70.80078125,98.6328125,463.8671875,-44.921875,0.0
1733975317.018269,-33.203125,92.7734375,457.51953125,-35.15625,0.0
1733975317.0221741,70.80078125,84.9609375,455.56640625,33.203125,0.0
1733975317.0260792,107.91015625,87.890625,464.84375,83.49609375,0.0
1733975317.029984,2.44140625,84.47265625,447.75390625,36.1328125,0.0
1733975317.033889,-70.80078125,66.40625,414.55078125,-25.390625,0.0
1733975317.0377939,-47.36328125,53.22265625,379.39453125,-19.53125,0.0
1733975317.041699,56.640625,60.546875,398.4375,50.29296875,0.0
1733975317.045604,118.1640625,67.87109375,433.10546875,75.68359375,0.0
1733975317.0495088,28.80859375,58.59375,418.45703125,7.8125,0.0
1733975317.0534139,-73.73046875,51.7578125,409.66796875,-53.7109375,0.0
1733975317.057319,-75.1953125,62.98828125,397.4609375,-42.48046875,0.0
1733975317.06109,27.83203125,75.1953125,360.3515625,46.38671875,0.0
1733975317.064995,105.46875,102.05078125,360.83984375,99.609375,0.0
1733975317.0689,34.1796875,145.5078125,371.58203125,20.99609375,0.0
1733975317.072805,-70.80078125,167.96875,358.88671875,-50.78125,0.0
1733975317.07671,-69.82421875,168.9453125,337.890625,-54.6875,0.0
1733975317.080615,24.90234375,159.1796875,339.35546875,14.6484375,0.0
1733975317.0845199,100.5859375,154.296875,344.7265625,92.7734375,0.0
1733975317.088425,54.19921875,153.3203125,332.51953125,41.015625,0.0
1733975317.0923297,-46.875,152.34375,328.61328125,-26.85546875,0.0
1733975317.0962348,-65.4296875,141.11328125,313.96484375,-39.55078125,0.0
1733975317.1001399,35.15625,129.8828125,330.078125,14.6484375,0.0
1733975317.1040447,131.34765625,129.8828125,358.88671875,87.890625,0.0
1733975317.108046,81.54296875,120.60546875,352.5390625,60.546875,0.0
1733975317.111951,-46.875,116.69921875,344.23828125,15.625,0.0
1733975317.1158562,-70.80078125,116.2109375,345.21484375,-17.08984375,0.0
1733975317.119761,20.99609375,109.86328125,356.93359375,6.34765625,0.0
1733975317.123666,107.91015625,104.98046875,351.07421875,70.3125,0.0
1733975317.1275709,90.33203125,93.26171875,319.3359375,58.59375,0.0
1733975317.131476,-32.71484375,86.9140625,314.94140625,7.8125,0.0
1733975317.135381,-79.1015625,87.40234375,324.21875,-26.85546875,0.0
1733975317.1392858,18.5546875,79.58984375,316.40625,1.953125,0.0
1733975317.1431909,110.3515625,67.3828125,296.875,96.6796875,0.0
1733975317.147096,97.65625,75.68359375,298.33984375,98.6328125,0.0
1733975317.1510007,5.37109375,80.078125,289.0625,8.7890625,0.0
1733975317.1549678,-65.4296875,72.75390625,263.671875,-26.85546875,0.0
1733975317.1588728,-24.4140625,65.91796875,260.7421875,-12.20703125,0.0
1733975317.162778,103.02734375,64.94140625,263.18359375,48.33984375,0.0
1733975317.1666827,129.39453125,62.98828125,261.71875,87.40234375,0.0
1733975317.1705878,-7.8125,41.50390625,244.62890625,16.11328125,0.0
1733975317.1744928,-76.171875,35.64453125,225.09765625,-41.015625,0.0
1733975317.1783977,-30.2734375,46.38671875,228.02734375,-19.53125,0.0
1733975317.1823027,85.44921875,57.12890625,240.234375,52.24609375,0.0
1733975317.1862075,137.20703125,50.29296875,222.65625,72.75390625,0.0
1733975317.1901126,9.27734375,40.52734375,203.125,6.8359375,0.0
1733975317.1940176,-76.171875,49.31640625,214.35546875,-28.3203125,0.0
1733975317.1979225,-28.3203125,39.0625,205.56640625,-7.8125,0.0
1733975317.2018569,75.1953125,33.69140625,199.21875,39.55078125,0.0
1733975317.205762,125.48828125,33.69140625,206.0546875,62.98828125,0.0
1733975317.209667,25.390625,31.73828125,200.1953125,6.34765625,0.0
1733975317.2135718,-54.19921875,25.87890625,190.4296875,-27.83203125,0.0
1733975317.2174768,-18.5546875,15.13671875,175.78125,-30.76171875,0.0
1733975317.2213817,63.96484375,16.11328125,182.12890625,19.53125,0.0
1733975317.2252867,116.2109375,28.3203125,186.03515625,64.453125,0.0
1733975317.2291918,25.390625,27.83203125,164.55078125,14.16015625,0.0
1733975317.2330966,-66.40625,11.23046875,140.13671875,-25.390625,0.0
1733975317.2370017,-53.7109375,16.6015625,157.71484375,-38.57421875,0.0
1733975317.2409067,62.5,26.3671875,184.5703125,22.94921875,0.0
1733975317.2448115,142.578125,27.83203125,172.8515625,74.21875,0.0
1733975317.2487154,51.26953125,17.578125,154.296875,45.8984375,0.0
1733975317.2526205,-47.8515625,13.671875,157.2265625,-32.71484375,0.0
1733975317.2565253,-43.45703125,17.08984375,140.13671875,-37.59765625,0.0
1733975317.2604303,39.55078125,20.01953125,118.1640625,39.55078125,0.0
1733975317.2643354,134.27734375,20.99609375,133.30078125,91.30859375,0.0
1733975317.2682402,63.96484375,11.71875,133.30078125,44.921875,0.0
1733975317.2721453,-64.94140625,7.8125,124.51171875,-7.8125,0.0
1733975317.2760503,-54.19921875,4.8828125,117.1875,-24.90234375,0.0
1733975317.2799551,32.2265625,0.9765625,115.234375,4.39453125,0.0
1733975317.2838602,104.98046875,8.7890625,130.37109375,73.73046875,0.0
1733975317.287765,64.453125,-0.9765625,122.0703125,48.828125,0.0
1733975317.29167,-42.48046875,-2.44140625,97.65625,-30.76171875,0.0
1733975317.29554,-55.6640625,-1.953125,102.5390625,-31.73828125,0.0
1733975317.2994452,27.34375,-9.765625,120.60546875,10.25390625,0.0
1733975317.3033502,120.1171875,-8.7890625,104.98046875,61.03515625,0.0
1733975317.307255,93.75,-9.27734375,74.21875,69.82421875,0.0
1733975317.31116,-19.53125,-8.7890625,80.56640625,9.27734375,0.0
1733975317.315065,-62.5,-5.859375,93.26171875,-38.57421875,0.0
1733975317.31897,2.44140625,-3.41796875,90.33203125,-13.18359375,0.0
1733975317.322875,112.3046875,-5.859375,86.9140625,70.80078125,0.0
1733975317.3267798,88.8671875,-14.6484375,94.7265625,65.91796875,0.0
1733975317.330685,-25.87890625,-17.08984375,94.7265625,-20.99609375,0.0
1733975317.33459,-53.22265625,-16.11328125,77.63671875,-53.7109375,0.0
1733975317.3384948,-2.9296875,-19.53125,66.40625,-31.73828125,0.0
1733975317.3423312,85.9375,-19.04296875,80.078125,27.34375,0.0
1733975317.346236,80.078125,-28.80859375,82.03125,42.48046875,0.0
1733975317.350141,-12.20703125,-32.2265625,68.359375,-2.9296875,0.0
1733975317.3540459,-69.3359375,-23.92578125,56.640625,-45.8984375,0.0
1733975317.357951,-22.94921875,-25.87890625,46.875,-47.36328125,0.0
1733975317.361856,83.49609375,-27.34375,49.31640625,25.87890625,0.0
1733975317.3657608,99.12109375,-31.25,46.38671875,49.8046875,0.0
1733975317.3696659,0.9765625,-38.57421875,36.62109375,-2.44140625,0.0
1733975317.373571,-85.9375,-28.3203125,42.48046875,-78.125,0.0
1733975317.3774757,-45.8984375,-22.94921875,48.828125,-66.40625,0.0
1733975317.3813808,73.2421875,-21.484375,49.31640625,35.15625,0.0
1733975317.3852856,115.72265625,-14.16015625,43.9453125,59.08203125,0.0
1733975317.389352,17.08984375,-21.97265625,42.96875,-8.30078125,0.0
1733975317.3932571,-63.4765625,-36.1328125,36.62109375,-55.17578125,0.0
1733975317.397162,-56.640625,-41.015625,24.90234375,-58.59375,0.0
1733975317.401067,29.296875,-32.2265625,38.0859375,4.39453125,0.0
1733975317.404972,93.26171875,-24.4140625,45.8984375,64.453125,0.0
1733975317.408877,31.25,-29.78515625,22.4609375,13.671875,0.0
1733975317.412782,-42.48046875,-37.59765625,6.34765625,-43.45703125,0.0
1733975317.416687,-43.9453125,-35.64453125,22.94921875,-52.24609375,0.0
1733975317.4205918,36.1328125,-29.296875,32.71484375,3.90625,0.0
1733975317.424497,120.60546875,-21.97265625,17.578125,66.89453125,0.0
1733975317.428402,56.640625,-23.92578125,4.8828125,21.484375,0.0
1733975317.4323068,-59.5703125,-33.203125,9.765625,-55.6640625,0.0
1733975317.4360774,-72.265625,-33.203125,11.23046875,-82.03125,0.0
1733975317.4399824,9.765625,-28.3203125,6.8359375,-35.15625,0.0
1733975317.4438872,96.19140625,-35.15625,9.765625,24.4140625,0.0
1733975317.4477923,37.109375,-43.9453125,10.7421875,14.16015625,0.0
1733975317.4516973,-61.03515625,-44.921875,-0.48828125,-52.24609375,0.0
1733975317.4556022,-83.0078125,-42.96875,-3.90625,-76.171875,0.0
1733975317.4595072,-15.13671875,-39.0625,-0.9765625,-23.4375,0.0
1733975317.4634123,90.8203125,-35.64453125,-12.20703125,32.71484375,0.0
1733975317.467317,43.45703125,-33.203125,-22.94921875,9.765625,0.0
1733975317.4712222,-69.82421875,-41.50390625,-35.15625,-51.26953125,0.0
1733975317.475127,-113.28125,-48.828125,-44.43359375,-67.87109375,0.0
1733975317.479032,-70.80078125,-44.921875,-39.0625,-55.17578125,0.0
1733975317.483037,29.296875,-48.33984375,-46.875,-4.8828125,0.0
1733975317.486942,27.34375,-56.15234375,-64.453125,-14.16015625,0.0
1733975317.490847,-99.609375,-54.6875,-80.078125,-92.7734375,0.0
1733975317.494752,-168.45703125,-50.29296875,-81.0546875,-140.625,0.0
1733975317.498657,-110.83984375,-55.17578125,-77.63671875,-114.2578125,0.0
1733975317.502562,-2.9296875,-57.12890625,-90.33203125,-51.7578125,0.0
1733975317.5064669,-6.34765625,-52.734375,-92.28515625,-40.52734375,0.0
1733975317.510372,-131.8359375,-62.98828125,-86.9140625,-117.1875,0.0
1733975317.514277,-198.2421875,-66.40625,-103.02734375,-181.640625,0.0
1733975317.5181818,-162.59765625,-73.73046875,-122.0703125,-160.64453125,0.0
1733975317.5220869,-62.01171875,-67.87109375,-114.2578125,-95.21484375,0.0
1733975317.5259917,-43.45703125,-59.5703125,-123.046875,-87.890625,0.0
1733975317.5299613,-151.3671875,-69.3359375,-146.484375,-160.64453125,0.0
1733975317.5338664,-216.796875,-73.2421875,-154.296875,-223.14453125,0.0
1733975317.5377715,-217.7734375,-77.63671875,-154.78515625,-209.9609375,0.0
1733975317.5416763,-127.44140625,-82.51953125,-165.52734375,-151.3671875,0.0
1733975317.5455813,-80.56640625,-89.84375,-182.6171875,-116.2109375,0.0
1733975317.5494864,-192.3828125,-95.703125,-192.3828125,-161.1328125,0.0
1733975317.5533912,-297.36328125,-97.16796875,-200.1953125,-230.46875,0.0
1733975317.5572963,-243.1640625,-91.30859375,-204.1015625,-236.328125,0.0
1733975317.561201,-114.74609375,-86.42578125,-204.1015625,-170.8984375,0.0
1733975317.5651062,-95.703125,-94.7265625,-206.0546875,-114.2578125,0.0
1733975317.5690112,-182.12890625,-101.07421875,-193.84765625,-169.921875,0.0
1733975317.572916,-244.62890625,-101.07421875,-178.22265625,-234.86328125,0.0
1733975317.5768592,-215.33203125,-93.26171875,-171.38671875,-227.05078125,0.0
1733975317.580764,-98.6328125,-77.63671875,-147.94921875,-142.578125,0.0
1733975317.584669,-7.32421875,-63.96484375,-146.97265625,-52.734375,0.0
1733975317.5885742,-67.3828125,-68.359375,-151.3671875,-72.75390625,0.0
1733975317.592479,-152.83203125,-72.75390625,-136.23046875,-123.53515625,0.0
1733975317.596384,-143.5546875,-73.2421875,-125.48828125,-116.69921875,0.0
1733975317.600289,-22.4609375,-78.125,-87.890625,-61.03515625,0.0
1733975317.604194,96.19140625,-68.84765625,-62.5,13.18359375,0.0
1733975317.608099,34.1796875,-67.87109375,-79.58984375,4.8828125,0.0
1733975317.6120038,-78.61328125,-65.91796875,-54.19921875,-49.31640625,0.0
1733975317.6159089,-85.9375,-62.01171875,-10.7421875,-74.21875,0.0
1733975317.619814,28.80859375,-50.29296875,39.55078125,-10.25390625,0.0
1733975317.623715,142.578125,-28.80859375,75.68359375,96.6796875,0.0
1733975317.62762,93.26171875,-20.5078125,95.703125,87.40234375,0.0
1733975317.631525,-8.30078125,-21.97265625,123.53515625,-3.90625,0.0
1733975317.6354299,-23.92578125,-11.71875,145.99609375,-38.0859375,0.0
1733975317.639335,64.94140625,1.953125,191.89453125,20.01953125,0.0
1733975317.64324,180.17578125,13.18359375,251.953125,114.74609375,0.0
1733975317.6471448,178.7109375,42.96875,296.875,127.9296875,0.0
1733975317.6510499,70.3125,64.94140625,325.68359375,71.2890625,0.0
1733975317.6549547,13.671875,79.58984375,358.3984375,19.04296875,0.0
1733975317.6588597,100.09765625,113.28125,415.0390625,17.08984375,0.0
1733975317.6627648,234.86328125,126.46484375,461.9140625,103.515625,0.0
1733975317.6666696,222.65625,127.44140625,500.48828125,114.74609375,0.0
1733975317.6705406,78.61328125,134.765625,536.1328125,38.0859375,0.0
1733975317.6744454,37.109375,142.578125,564.453125,8.7890625,0.0
1733975317.6783504,104.4921875,161.62109375,592.28515625,37.109375,0.0
1733975317.6822553,225.5859375,189.94140625,637.6953125,112.3046875,0.0
1733975317.6861603,249.51171875,226.07421875,684.08203125,128.90625,0.0
1733975317.6900654,124.51171875,251.46484375,667.96875,44.921875,0.0
1733975317.6939702,37.59765625,263.18359375,666.50390625,-7.8125,0.0
1733975317.6978753,117.1875,281.25,738.76953125,23.4375,0.0
1733975317.7017803,250.48828125,309.08203125,801.26953125,95.703125,0.0
1733975317.7056851,234.86328125,308.10546875,833.984375,123.53515625,0.0
1733975317.7095902,125.9765625,328.125,838.8671875,52.734375,0.0
1733975317.7134953,106.93359375,389.6484375,837.40234375,19.04296875,0.0
1733975317.717332,120.60546875,380.859375,873.046875,40.0390625,0.0
1733975317.721237,198.73046875,375.9765625,894.53125,88.8671875,0.0
1733975317.725142,275.87890625,427.734375,871.58203125,162.59765625,0.0
1733975317.7290468,184.08203125,422.36328125,875.0,101.07421875,0.0
1733975317.7329519,90.33203125,448.2421875,859.86328125,20.99609375,0.0
1733975317.736857,91.30859375,651.85546875,840.8203125,23.4375,0.0
1733975317.7407618,201.171875,779.78515625,907.2265625,63.96484375,0.0
1733975317.7446668,308.10546875,745.1171875,956.0546875,126.953125,0.0
1733975317.7485719,259.765625,708.0078125,957.51953125,74.21875,0.0
1733975317.7524767,117.67578125,677.24609375,946.77734375,-4.39453125,0.0
1733975317.7563818,90.33203125,660.64453125,914.55078125,9.27734375,0.0
1733975317.7602866,210.9375,651.3671875,886.71875,52.734375,0.0
1733975317.764358,302.734375,632.8125,882.8125,97.65625,0.0
1733975317.7682629,273.4375,602.05078125,860.3515625,90.33203125,0.0
1733975317.772168,156.25,584.47265625,823.73046875,3.90625,0.0
1733975317.776073,136.71875,602.5390625,799.8046875,-22.4609375,0.0
1733975317.7799778,214.84375,595.21484375,794.43359375,22.94921875,0.0
1733975317.7838829,309.08203125,556.15234375,791.50390625,68.359375,0.0
1733975317.7877877,276.3671875,541.9921875,760.25390625,53.22265625,0.0
1733975317.7916927,145.99609375,553.7109375,740.234375,-14.6484375,0.0
1733975317.7955978,150.87890625,545.41015625,742.67578125,-53.22265625,0.0
1733975317.7995026,238.28125,536.1328125,730.46875,-3.90625,0.0
1733975317.8034077,308.10546875,525.390625,720.703125,69.82421875,0.0
1733975317.8073127,285.64453125,515.625,684.08203125,60.546875,0.0
1733975317.811084,187.01171875,505.37109375,636.71875,-14.6484375,0.0
1733975317.814989,134.765625,493.65234375,624.0234375,-58.10546875,0.0
1733975317.8188941,194.82421875,449.70703125,614.2578125,-10.7421875,0.0
1733975317.822799,314.94140625,392.08984375,604.4921875,86.42578125,0.0
1733975317.826704,289.0625,384.27734375,617.67578125,89.84375,0.0
1733975317.8306088,146.484375,396.484375,576.66015625,-1.953125,0.0
1733975317.834514,99.609375,405.76171875,557.12890625,-80.56640625,0.0
1733975317.838419,139.6484375,418.9453125,597.16796875,-50.78125,0.0
1733975317.8423238,213.37890625,427.24609375,593.75,57.12890625,0.0
1733975317.8462288,231.93359375,408.203125,557.12890625,37.109375,0.0
1733975317.850134,154.296875,391.11328125,540.52734375,-61.03515625,0.0
1733975317.8540387,126.953125,395.5078125,548.828125,-78.125,0.0
1733975317.8580437,118.65234375,382.8125,558.59375,-41.50390625,0.0
1733975317.8619487,194.3359375,391.11328125,521.97265625,23.4375,0.0
1733975317.8658535,244.140625,410.15625,477.5390625,39.55078125,0.0
1733975317.8697586,180.17578125,393.06640625,517.578125,-1.46484375,0.0
1733975317.8736637,82.51953125,368.65234375,519.53125,-52.24609375,0.0
1733975317.8775685,83.0078125,395.01953125,487.3046875,-83.984375,0.0
1733975317.8814735,207.03125,447.265625,499.0234375,-36.1328125,0.0
1733975317.8853786,242.1875,471.19140625,518.06640625,26.85546875,0.0
1733975317.8892834,154.296875,456.0546875,456.54296875,5.37109375,0.0
1733975317.8931885,96.19140625,411.1328125,411.1328125,-50.78125,0.0
1733975317.8970933,64.94140625,426.26953125,453.61328125,-67.87109375,0.0
1733975317.9009984,153.80859375,466.796875,470.703125,-27.34375,0.0
1733975317.9049592,230.95703125,452.63671875,460.44921875,-4.39453125,0.0
1733975317.9088643,161.62109375,424.31640625,439.94140625,-29.78515625,0.0
1733975317.912769,80.078125,452.63671875,406.25,-38.57421875,0.0
1733975317.9166741,63.4765625,467.28515625,408.69140625,-45.41015625,0.0
1733975317.9205792,146.97265625,460.44921875,411.1328125,-37.109375,0.0
1733975317.924484,210.44921875,448.73046875,398.92578125,28.3203125,0.0
1733975317.928389,148.4375,454.1015625,394.53125,16.6015625,0.0
1733975317.9322941,78.61328125,463.37890625,388.18359375,-44.43359375,0.0
1733975317.936199,87.890625,446.2890625,392.08984375,-11.71875,0.0
1733975317.940104,137.6953125,420.8984375,408.203125,36.1328125,0.0
1733975317.944009,178.22265625,423.828125,410.64453125,1.953125,0.0
1733975317.947914,133.7890625,437.5,366.69921875,-25.390625,0.0
1733975317.9518368,65.4296875,416.50390625,344.7265625,-31.25,0.0
1733975317.9557416,68.84765625,422.8515625,350.09765625,-50.78125,0.0
1733975317.9596467,111.81640625,419.921875,355.95703125,-18.5546875,0.0
1733975317.9635518,158.69140625,394.04296875,353.02734375,49.31640625,0.0
1733975317.9674566,128.90625,398.92578125,336.9140625,5.37109375,0.0
1733975317.9713616,38.0859375,396.97265625,329.1015625,-28.80859375,0.0
1733975317.9752665,36.62109375,419.43359375,309.08203125,-38.0859375,0.0
1733975317.9791715,125.0,412.59765625,305.17578125,-29.78515625,0.0
1733975317.9830766,175.78125,369.62890625,285.64453125,28.3203125,0.0
1733975317.9869814,103.515625,400.390625,312.01171875,12.6953125,0.0
1733975317.9908864,26.3671875,432.12890625,353.02734375,-6.8359375,0.0
1733975317.9947915,43.9453125,418.45703125,351.5625,-35.64453125,0.0
1733975317.9986916,75.1953125,397.4609375,318.84765625,-39.0625,0.0
1733975318.0025966,124.0234375,394.04296875,307.6171875,0.48828125,0.0
1733975318.0065017,115.72265625,416.015625,335.44921875,-2.44140625,0.0
1733975318.0104065,49.8046875,414.55078125,337.890625,-43.45703125,0.0
1733975318.0143116,41.015625,402.34375,331.0546875,-57.6171875,0.0
1733975318.0182164,67.3828125,378.41796875,341.796875,-16.11328125,0.0
1733975318.0221214,128.41796875,375.9765625,326.66015625,15.625,0.0
1733975318.0260265,94.23828125,383.30078125,317.87109375,53.7109375,0.0
1733975318.0299313,29.78515625,345.21484375,300.78125,11.71875,0.0
1733975318.0338364,23.4375,347.65625,275.390625,-67.3828125,0.0
1733975318.0377414,27.34375,358.3984375,346.6796875,-53.22265625,0.0
1733975318.0416462,67.87109375,355.95703125,387.6953125,2.9296875,0.0
1733975318.0455046,81.0546875,368.65234375,360.3515625,38.0859375,0.0
1733975318.0494094,38.0859375,341.796875,357.91015625,1.953125,0.0
1733975318.0533144,24.90234375,293.9453125,353.02734375,-52.734375,0.0
1733975318.0572195,39.0625,331.0546875,334.47265625,-38.57421875,0.0
1733975318.0611243,75.1953125,358.88671875,318.84765625,2.44140625,0.0
1733975318.0650294,88.8671875,324.21875,320.80078125,-8.30078125,0.0
1733975318.0689342,75.68359375,341.30859375,323.2421875,-37.109375,0.0
1733975318.0728393,51.7578125,291.50390625,292.96875,-17.578125,0.0
1733975318.0767443,41.9921875,260.25390625,298.33984375,-1.953125,0.0
1733975318.0806491,60.546875,337.890625,333.984375,8.7890625,0.0
1733975318.0845542,55.6640625,317.3828125,333.49609375,19.53125,0.0
1733975318.0884593,59.5703125,323.73046875,287.109375,12.6953125,0.0
1733975318.0922909,35.15625,375.48828125,285.15625,-18.06640625,0.0
1733975318.0961957,18.06640625,356.4453125,323.73046875,-29.296875,0.0
1733975318.1001008,53.7109375,329.1015625,316.40625,18.5546875,0.0
1733975318.1040058,92.7734375,342.7734375,289.55078125,55.17578125,0.0
1733975318.1079106,66.40625,359.86328125,290.52734375,-6.8359375,0.0
1733975318.1118157,-7.32421875,351.5625,315.91796875,-12.6953125,0.0
1733975318.1157207,19.53125,351.5625,312.5,7.8125,0.0
1733975318.1196256,92.7734375,343.26171875,274.4140625,35.64453125,0.0
1733975318.1235306,105.46875,344.7265625,288.57421875,55.6640625,0.0
1733975318.1274354,48.33984375,372.55859375,284.66796875,40.52734375,0.0
1733975318.1313405,8.30078125,380.859375,311.5234375,80.078125,0.0
1733975318.1352456,55.6640625,380.37109375,364.74609375,13.671875,0.0
1733975318.1393046,80.56640625,394.04296875,325.1953125,-15.13671875,0.0
1733975318.1432097,75.68359375,360.83984375,297.36328125,58.10546875,0.0
1733975318.1471145,62.01171875,337.40234375,320.80078125,43.9453125,0.0
1733975318.1510196,43.45703125,377.44140625,354.00390625,8.7890625,0.0
1733975318.1549246,19.53125,381.8359375,356.93359375,-14.6484375,0.0
1733975318.1588295,46.875,399.4140625,315.91796875,40.52734375,0.0
1733975318.1627345,81.0546875,442.87109375,280.2734375,77.1484375,0.0
1733975318.1666393,48.828125,456.54296875,317.3828125,31.73828125,0.0
1733975318.1705444,25.390625,443.84765625,340.33203125,8.7890625,0.0
1733975318.1744494,21.97265625,435.05859375,339.84375,-2.44140625,0.0
1733975318.1783543,47.8515625,430.17578125,354.4921875,49.31640625,0.0
1733975318.1822593,74.21875,438.4765625,343.75,79.1015625,0.0
1733975318.1860294,57.6171875,441.40625,359.86328125,45.8984375,0.0
1733975318.1899345,7.32421875,420.8984375,377.9296875,-8.7890625,0.0
1733975318.1938393,8.30078125,458.984375,354.98046875,23.4375,0.0
1733975318.1977444,29.78515625,481.93359375,355.46875,72.75390625,0.0
1733975318.2016494,91.796875,479.00390625,362.3046875,75.68359375,0.0
1733975318.2055542,102.5390625,507.32421875,360.83984375,34.66796875,0.0
1733975318.2094593,45.41015625,531.73828125,382.32421875,7.32421875,0.0
1733975318.2133644,26.85546875,545.41015625,387.20703125,12.20703125,0.0
1733975318.2172692,73.2421875,527.34375,386.23046875,42.96875,0.0
1733975318.2211742,105.95703125,530.2734375,364.2578125,70.80078125,0.0
1733975318.225079,82.51953125,577.1484375,374.0234375,119.62890625,0.0
1733975318.228984,64.453125,575.68359375,401.85546875,70.80078125,0.0
1733975318.2329738,59.08203125,588.8671875,334.9609375,11.23046875,0.0
1733975318.2368789,84.9609375,621.58203125,310.05859375,25.390625,0.0
1733975318.2407837,128.41796875,614.2578125,396.97265625,55.17578125,0.0
1733975318.2446887,110.83984375,591.796875,444.3359375,56.640625,0.0
1733975318.2485938,79.1015625,564.453125,437.5,44.921875,0.0
1733975318.2524986,51.7578125,544.43359375,415.0390625,44.43359375,0.0
1733975318.2564037,85.9375,559.08203125,425.29296875,46.875,0.0
1733975318.2603085,89.35546875,608.3984375,429.6875,33.69140625,0.0
1733975318.2642136,94.23828125,590.33203125,408.69140625,48.33984375,0.0
1733975318.2681186,108.3984375,549.31640625,400.87890625,83.984375,0.0
1733975318.2720234,98.6328125,582.51953125,349.12109375,63.4765625,0.0
1733975318.2759285,93.26171875,563.4765625,384.765625,53.22265625,0.0
1733975318.2798893,93.26171875,535.64453125,438.4765625,101.5625,0.0
1733975318.2837942,108.3984375,542.48046875,399.4140625,87.890625,0.0
1733975318.2876992,149.90234375,549.31640625,403.3203125,37.59765625,0.0
1733975318.291604,103.515625,535.64453125,399.4140625,31.73828125,0.0
1733975318.295509,39.0625,525.87890625,399.4140625,56.15234375,0.0
1733975318.2994142,57.6171875,596.6796875,418.45703125,83.49609375,0.0
1733975318.303319,110.83984375,623.53515625,419.43359375,72.75390625,0.0
1733975318.307224,69.3359375,604.4921875,404.78515625,54.6875,0.0
1733975318.311129,37.59765625,584.47265625,381.8359375,64.453125,0.0
1733975318.315034,67.87109375,571.2890625,397.94921875,75.1953125,0.0
1733975318.318939,98.6328125,579.58984375,407.2265625,49.8046875,0.0
1733975318.322844,109.86328125,551.7578125,381.8359375,75.68359375,0.0
1733975318.3267803,73.2421875,513.18359375,396.484375,105.46875,0.0
1733975318.3306851,58.59375,508.7890625,398.4375,45.8984375,0.0
1733975318.3345902,102.5390625,517.08984375,402.83203125,37.109375,0.0
1733975318.338495,116.69921875,524.90234375,405.2734375,82.03125,0.0
1733975318.3424,92.28515625,519.53125,367.1875,78.61328125,0.0
1733975318.3463051,56.640625,496.58203125,385.25390625,65.91796875,0.0
1733975318.35021,34.66796875,476.5625,432.12890625,63.96484375,0.0
1733975318.354115,56.640625,463.8671875,434.5703125,53.7109375,0.0
1733975318.35802,90.8203125,436.5234375,400.390625,28.3203125,0.0
1733975318.361925,102.5390625,439.94140625,413.57421875,57.6171875,0.0
1733975318.36583,112.79296875,433.59375,422.36328125,70.80078125,0.0
1733975318.369735,71.77734375,403.3203125,395.99609375,46.875,0.0
1733975318.3736384,35.64453125,405.76171875,373.53515625,68.84765625,0.0
1733975318.3775434,101.5625,404.78515625,378.41796875,50.78125,0.0
1733975318.3814485,110.3515625,370.1171875,366.69921875,47.36328125,0.0
1733975318.3853533,53.7109375,361.328125,333.49609375,44.43359375,0.0
1733975318.3892584,29.78515625,374.51171875,346.6796875,9.765625,0.0
1733975318.3931634,50.29296875,393.06640625,345.703125,35.64453125,0.0
1733975318.3970683,87.40234375,402.34375,320.80078125,72.265625,0.0
1733975318.4009733,101.5625,382.32421875,301.26953125,71.2890625,0.0
1733975318.4048781,96.6796875,362.79296875,344.23828125,61.5234375,0.0
1733975318.4087832,81.0546875,365.72265625,369.140625,9.27734375,0.0
1733975318.4126883,43.9453125,359.86328125,346.6796875,19.53125,0.0
1733975318.416593,43.9453125,354.4921875,331.0546875,33.69140625,0.0
1733975318.420467,89.35546875,346.6796875,320.3125,11.71875,0.0
1733975318.424372,110.3515625,322.75390625,305.17578125,32.71484375,0.0
1733975318.428277,58.10546875,304.6875,273.92578125,35.15625,0.0
1733975318.4321818,50.78125,292.48046875,255.859375,11.23046875,0.0
1733975318.436087,97.16796875,286.62109375,287.109375,6.8359375,0.0
1733975318.4399917,69.3359375,283.203125,304.6875,21.484375,0.0
1733975318.4438968,45.8984375,285.64453125,255.37109375,33.203125,0.0
1733975318.4478018,62.01171875,296.875,230.46875,36.1328125,0.0
1733975318.4517066,52.734375,314.94140625,265.13671875,50.29296875,0.0
1733975318.4556117,114.74609375,308.10546875,224.12109375,45.8984375,0.0
1733975318.4595168,119.62890625,227.05078125,238.76953125,35.15625,0.0
1733975318.4634216,66.89453125,207.51953125,280.2734375,56.15234375,0.0
1733975318.4672668,48.828125,271.484375,282.71484375,52.734375,0.0
1733975318.4711716,34.1796875,296.38671875,286.62109375,38.0859375,0.0
1733975318.4750767,58.59375,291.015625,257.8125,29.296875,0.0
1733975318.4789815,96.19140625,275.87890625,211.42578125,16.11328125,0.0
1733975318.4828866,86.9140625,262.20703125,216.796875,19.53125,0.0
1733975318.4867916,78.61328125,252.44140625,225.5859375,37.109375,0.0
1733975318.4906964,71.77734375,238.28125,197.265625,39.55078125,0.0
1733975318.4946015,44.921875,216.30859375,187.5,60.05859375,0.0
1733975318.4985065,63.96484375,210.9375,195.3125,72.75390625,0.0
1733975318.5024114,108.3984375,197.265625,162.59765625,50.29296875,0.0
1733975318.5063164,125.9765625,199.21875,129.39453125,1.46484375,0.0
1733975318.5102212,42.96875,204.1015625,156.73828125,36.1328125,0.0
1733975318.5140233,10.25390625,179.19921875,182.12890625,62.5,0.0
1733975318.5179284,68.84765625,174.31640625,138.671875,19.04296875,0.0
1733975318.5218334,96.19140625,209.47265625,128.41796875,26.85546875,0.0
1733975318.5257382,63.96484375,187.98828125,134.765625,37.59765625,0.0
1733975318.5296433,34.66796875,148.92578125,149.4140625,28.80859375,0.0
1733975318.533548,23.4375,178.7109375,158.203125,49.31640625,0.0
1733975318.5374532,34.1796875,199.70703125,153.80859375,43.45703125,0.0
1733975318.5413582,66.89453125,183.59375,184.08203125,13.671875,0.0
1733975318.545263,87.890625,176.7578125,158.69140625,-4.8828125,0.0
1733975318.549168,52.734375,178.22265625,136.23046875,7.32421875,0.0
1733975318.5530732,20.01953125,144.53125,137.6953125,55.6640625,0.0
1733975318.556978,59.08203125,120.60546875,143.06640625,37.109375,0.0
1733975318.5607562,92.7734375,124.51171875,155.2734375,18.5546875,0.0
1733975318.564661,73.73046875,141.11328125,129.39453125,45.41015625,0.0
1733975318.568566,15.13671875,112.3046875,69.3359375,71.2890625,0.0
1733975318.5724711,30.2734375,103.515625,116.2109375,40.0390625,0.0
1733975318.576376,49.8046875,143.06640625,158.203125,1.46484375,0.0
1733975318.580281,58.10546875,132.8125,151.3671875,6.34765625,0.0
1733975318.5841858,74.21875,110.3515625,147.94921875,42.96875,0.0
1733975318.588091,15.625,130.37109375,99.609375,66.89453125,0.0
1733975318.591996,3.41796875,128.90625,88.37890625,45.8984375,0.0
1733975318.5959008,58.10546875,91.796875,136.23046875,34.66796875,0.0
1733975318.5998058,44.921875,100.09765625,137.20703125,48.828125,0.0
1733975318.603711,43.45703125,113.76953125,104.98046875,45.41015625,0.0
1733975318.6077113,33.203125,51.7578125,126.46484375,75.1953125,0.0
1733975318.6116164,62.01171875,43.45703125,112.79296875,21.97265625,0.0
1733975318.6155214,38.57421875,45.41015625,165.52734375,-1.953125,0.0
1733975318.6194263,17.08984375,84.9609375,221.6796875,41.50390625,0.0
1733975318.6233313,41.015625,148.4375,188.4765625,34.66796875,0.0
1733975318.6272361,28.80859375,142.08984375,131.8359375,29.78515625,0.0
1733975318.6311412,16.6015625,114.2578125,118.65234375,18.06640625,0.0
1733975318.6350462,27.34375,83.49609375,162.59765625,36.62109375,0.0
1733975318.638951,77.1484375,91.796875,121.58203125,48.33984375,0.0
1733975318.6428561,76.66015625,91.796875,106.4453125,20.01953125,0.0
1733975318.6467612,-1.46484375,52.734375,170.8984375,21.484375,0.0
1733975318.650666,-24.4140625,26.85546875,189.453125,7.8125,0.0
1733975318.6546335,-29.78515625,7.32421875,186.5234375,-47.36328125,0.0
1733975318.6585386,-24.4140625,13.18359375,179.19921875,-42.96875,0.0
1733975318.6624434,-32.71484375,44.43359375,175.78125,-40.52734375,0.0
1733975318.6663485,-64.453125,64.94140625,154.296875,-79.1015625,0.0
1733975318.6702535,-87.40234375,51.26953125,183.10546875,-63.4765625,0.0
1733975318.6741583,-77.63671875,28.3203125,216.796875,-73.2421875,0.0
1733975318.6780634,-70.3125,20.01953125,208.0078125,-123.53515625,0.0
1733975318.6819685,-119.140625,-8.30078125,205.56640625,-153.80859375,0.0
1733975318.6858733,-184.5703125,-16.6015625,197.75390625,-180.6640625,0.0
1733975318.6897783,-214.84375,-3.90625,189.453125,-211.42578125,0.0
1733975318.6936834,-185.05859375,25.87890625,178.22265625,-234.375,0.0
1733975318.6975882,-175.29296875,25.87890625,196.2890625,-227.05078125,0.0
1733975318.7015142,-197.75390625,-26.3671875,192.3828125,-253.41796875,0.0
1733975318.705419,-235.83984375,-19.04296875,193.359375,-253.41796875,0.0
1733975318.7093241,-264.16015625,-3.90625,203.125,-238.76953125,0.0
1733975318.7132292,-256.8359375,-55.17578125,182.12890625,-267.08984375,0.0
1733975318.717134,-187.01171875,-85.9375,179.6875,-255.37109375,0.0
1733975318.721039,-140.13671875,-63.96484375,166.015625,-223.14453125,0.0
1733975318.724944,-176.7578125,-58.59375,170.41015625,-194.3359375,0.0
1733975318.728849,-191.40625,-55.6640625,185.05859375,-188.4765625,0.0
1733975318.732754,-117.67578125,-58.59375,177.24609375,-147.4609375,0.0
1733975318.736659,-69.3359375,-131.34765625,149.4140625,-112.79296875,0.0
1733975318.7405639,-54.19921875,-124.51171875,104.00390625,-106.93359375,0.0
1733975318.744469,-41.50390625,-32.71484375,162.59765625,-88.8671875,0.0
1733975318.7483792,-22.4609375,-5.859375,174.31640625,-82.51953125,0.0
1733975318.7522843,-15.625,-10.25390625,162.59765625,-65.91796875,0.0
1733975318.756189,63.4765625,-32.2265625,168.9453125,-14.16015625,0.0
1733975318.7600942,80.078125,-60.05859375,147.4609375,78.125,0.0
1733975318.7639992,73.2421875,-66.89453125,132.32421875,48.33984375,0.0
1733975318.767904,118.1640625,-66.40625,143.5546875,25.87890625,0.0
1733975318.771809,150.87890625,-66.40625,149.4140625,67.87109375,0.0
1733975318.775714,159.66796875,-74.21875,116.69921875,95.21484375,0.0
1733975318.779619,210.9375,-91.796875,82.51953125,152.83203125,0.0
1733975318.783524,236.81640625,-122.55859375,78.125,187.01171875,0.0
1733975318.7874289,197.265625,-134.27734375,68.84765625,155.2734375,0.0
1733975318.791334,166.50390625,-60.05859375,118.65234375,122.0703125,0.0
1733975318.7952104,165.52734375,-25.390625,195.3125,140.625,0.0
1733975318.7991152,230.46875,62.5,156.73828125,138.671875,0.0
1733975318.8030202,248.53515625,159.66796875,132.32421875,132.32421875,0.0
1733975318.8069253,198.73046875,183.59375,167.48046875,152.34375,0.0
1733975318.81083,174.8046875,191.40625,179.19921875,146.97265625,0.0
1733975318.8147352,207.03125,179.19921875,148.4375,145.99609375,0.0
1733975318.8186402,219.23828125,161.62109375,172.8515625,182.12890625,0.0
1733975318.822545,218.26171875,194.3359375,205.078125,229.4921875,0.0
1733975318.82645,226.5625,262.6953125,187.5,168.9453125,0.0
1733975318.8303552,217.7734375,287.59765625,194.82421875,148.4375,0.0
1733975318.83426,204.1015625,328.125,187.01171875,200.68359375,0.0
1733975318.838165,230.46875,359.375,177.24609375,229.00390625,0.0
1733975318.8420122,242.67578125,357.91015625,180.17578125,170.8984375,0.0
1733975318.8459172,172.36328125,402.34375,197.265625,142.578125,0.0
1733975318.849822,145.99609375,458.984375,297.8515625,136.23046875,0.0
1733975318.853727,163.57421875,515.625,344.7265625,142.578125,0.0
1733975318.8576322,206.0546875,515.625,312.5,176.7578125,0.0
1733975318.861537,231.93359375,489.74609375,308.59375,209.47265625,0.0
1733975318.865442,219.7265625,622.0703125,327.1484375,169.43359375,0.0
1733975318.869347,183.59375,662.59765625,290.52734375,183.59375,0.0
1733975318.873252,180.17578125,609.86328125,296.875,182.12890625,0.0
1733975318.877157,193.359375,705.56640625,328.125,157.2265625,0.0
1733975318.8810618,181.640625,764.6484375,283.69140625,147.94921875,0.0
1733975318.8849669,185.05859375,769.53125,295.41015625,107.91015625,0.0
1733975318.889049,168.9453125,761.71875,340.33203125,111.328125,0.0
1733975318.892954,123.046875,773.92578125,339.35546875,119.140625,0.0
1733975318.8968592,129.39453125,791.50390625,342.28515625,158.203125,0.0
1733975318.900764,176.7578125,809.08203125,350.5859375,165.52734375,0.0
1733975318.904669,182.12890625,860.3515625,368.65234375,150.87890625,0.0
1733975318.908574,176.26953125,861.328125,353.02734375,151.3671875,0.0
1733975318.912479,157.2265625,887.20703125,281.25,106.93359375,0.0
1733975318.916384,173.33984375,933.10546875,244.140625,127.44140625,0.0
1733975318.920289,175.78125,878.90625,329.1015625,171.38671875,0.0
1733975318.9241939,161.1328125,923.828125,330.56640625,136.71875,0.0
1733975318.928099,146.97265625,978.02734375,293.45703125,87.890625,0.0
1733975318.9320037,114.2578125,964.84375,302.734375,98.14453125,0.0
1733975318.935782,147.4609375,968.75,326.171875,128.41796875,0.0
1733975318.9396868,208.984375,968.75,359.86328125,148.92578125,0.0
1733975318.9435918,198.73046875,968.75,359.86328125,156.73828125,0.0
1733975318.9474967,147.4609375,968.75,329.58984375,143.5546875,0.0
1733975318.9514017,125.9765625,968.75,316.89453125,114.74609375,0.0
1733975318.9553068,128.90625,968.75,337.40234375,92.7734375,0.0
1733975318.9592116,148.4375,969.7265625,330.078125,141.11328125,0.0
1733975318.9631166,203.125,963.8671875,348.14453125,151.85546875,0.0
1733975318.9670217,127.9296875,974.12109375,347.65625,141.6015625,0.0
1733975318.9709265,69.3359375,962.890625,223.14453125,109.375,0.0
1733975318.9748316,112.3046875,845.703125,176.26953125,139.16015625,0.0
1733975318.9787364,106.4453125,881.34765625,275.390625,166.50390625,0.0
1733975318.982745,104.98046875,948.2421875,349.12109375,58.10546875,0.0
1733975318.9866498,108.3984375,870.1171875,333.0078125,59.08203125,0.0
1733975318.9905548,67.3828125,797.36328125,302.734375,71.77734375,0.0
1733975318.9944599,41.015625,783.69140625,301.7578125,47.36328125,0.0
1733975318.9983647,104.00390625,750.48828125,300.29296875,97.16796875,0.0
1733975319.0022697,144.53125,612.3046875,266.11328125,150.87890625,0.0
1733975319.0061748,100.5859375,593.26171875,270.99609375,145.99609375,0.0
1733975319.0100796,31.73828125,640.13671875,325.1953125,100.09765625,0.0
1733975319.0139847,52.24609375,603.02734375,298.33984375,78.61328125,0.0
1733975319.0178897,75.68359375,541.50390625,262.20703125,96.6796875,0.0
1733975319.0217946,97.65625,542.96875,305.6640625,105.46875,0.0
1733975319.0256996,78.61328125,550.78125,317.3828125,108.88671875,0.0
1733975319.0296757,18.5546875,483.88671875,291.9921875,70.3125,0.0
1733975319.0335808,18.5546875,457.51953125,288.0859375,47.8515625,0.0
1733975319.0374856,69.82421875,475.09765625,296.875,43.9453125,0.0
1733975319.0413907,105.46875,391.6015625,295.8984375,84.47265625,0.0
1733975319.0452955,77.63671875,374.0234375,280.2734375,64.453125,0.0
1733975319.0492005,12.20703125,428.7109375,296.38671875,14.16015625,0.0
1733975319.0531056,-19.53125,413.0859375,313.4765625,29.78515625,0.0
1733975319.0570104,18.06640625,422.36328125,339.35546875,81.54296875,0.0
1733975319.0609155,89.35546875,409.66796875,323.2421875,106.93359375,0.0
1733975319.0648205,75.68359375,388.671875,256.34765625,114.2578125,0.0
1733975319.0687253,17.578125,406.73828125,330.078125,46.875,0.0
1733975319.0726304,-39.55078125,416.9921875,352.5390625,12.6953125,0.0
1733975319.076562,-21.97265625,398.4375,300.29296875,46.875,0.0
1733975319.080467,74.21875,345.703125,326.171875,66.89453125,0.0
1733975319.084372,78.61328125,349.12109375,351.07421875,39.0625,0.0
1733975319.0882769,7.32421875,340.33203125,318.84765625,35.64453125,0.0
1733975319.092182,-29.296875,274.90234375,300.29296875,49.31640625,0.0
1733975319.096087,-7.32421875,245.1171875,289.55078125,66.40625,0.0
1733975319.0999918,61.5234375,282.2265625,268.06640625,95.703125,0.0
1733975319.1038969,47.36328125,305.6640625,287.109375,71.77734375,0.0
1733975319.107802,-3.41796875,293.9453125,278.80859375,38.57421875,0.0
1733975319.1117067,-30.2734375,277.83203125,278.80859375,17.08984375,0.0
1733975319.1156118,-55.17578125,248.046875,289.0625,16.11328125,0.0
1733975319.1195166,-24.4140625,275.87890625,268.06640625,40.52734375,0.0
1733975319.1234217,53.7109375,315.91796875,256.8359375,68.359375,0.0
1733975319.1273267,24.90234375,315.4296875,231.93359375,51.7578125,0.0
1733975319.1312315,-53.7109375,276.3671875,244.62890625,17.578125,0.0
1733975319.1351366,-22.94921875,235.83984375,232.91015625,13.18359375,0.0
1733975319.1390417,40.0390625,204.1015625,190.91796875,46.875,0.0
1733975319.1429465,38.57421875,274.90234375,259.27734375,74.21875,0.0
1733975319.1468515,-37.109375,357.91015625,292.96875,63.96484375,0.0
1733975319.1507566,-68.84765625,344.7265625,251.953125,25.87890625,0.0
1733975319.1546614,-50.29296875,349.609375,230.46875,21.97265625,0.0
1733975319.1585665,29.296875,360.83984375,262.20703125,18.5546875,0.0
1733975319.1624713,79.58984375,320.80078125,273.4375,54.6875,0.0
1733975319.1663764,-15.625,270.5078125,252.9296875,59.08203125,0.0
1733975319.1702552,-61.03515625,265.625,204.1015625,40.52734375,0.0
1733975319.1741602,-41.50390625,219.23828125,189.453125,15.13671875,0.0
1733975319.178065,-17.578125,265.13671875,235.83984375,28.3203125,0.0
1733975319.1819701,15.625,339.35546875,233.3984375,77.1484375,0.0
1733975319.1858752,18.5546875,335.9375,202.1484375,37.59765625,0.0
1733975319.18978,-57.12890625,301.26953125,228.02734375,0.48828125,0.0
1733975319.193685,-85.9375,229.98046875,258.7890625,-23.92578125,0.0
1733975319.1975899,-36.62109375,186.5234375,221.19140625,-4.39453125,0.0
1733975319.201495,32.71484375,206.0546875,176.7578125,60.546875,0.0
1733975319.2054,18.5546875,197.75390625,175.29296875,63.4765625,0.0
1733975319.2093048,-34.1796875,179.6875,162.109375,29.78515625,0.0
1733975319.2132099,-57.6171875,179.19921875,191.40625,18.06640625,0.0
1733975319.2170575,-31.73828125,208.49609375,227.05078125,-28.80859375,0.0
1733975319.2209625,31.25,222.16796875,204.58984375,-15.13671875,0.0
1733975319.2248676,45.41015625,185.05859375,180.6640625,40.0390625,0.0
1733975319.2287724,-32.71484375,183.59375,178.7109375,6.8359375,0.0
1733975319.2326775,-110.3515625,194.82421875,205.078125,9.27734375,0.0
1733975319.2365825,-31.25,184.08203125,163.57421875,60.546875,0.0
1733975319.2404873,43.9453125,145.01953125,126.46484375,63.96484375,0.0
1733975319.2443924,54.6875,219.7265625,171.875,84.47265625,0.0
1733975319.2482975,17.08984375,313.96484375,205.078125,47.8515625,0.0
1733975319.2522023,-68.359375,249.51171875,207.03125,3.90625,0.0
1733975319.2561073,-37.109375,224.12109375,160.15625,-20.5078125,0.0
1733975319.2600121,0.0,240.234375,175.78125,-0.48828125,0.0
1733975319.2638338,2.44140625,211.9140625,208.984375,47.8515625,0.0
1733975319.2677388,-29.296875,223.6328125,203.61328125,17.578125,0.0
1733975319.2716436,-40.52734375,239.74609375,157.2265625,-1.953125,0.0
1733975319.2755487,-36.1328125,204.58984375,155.2734375,21.484375,0.0
1733975319.2794538,5.859375,167.48046875,225.09765625,60.546875,0.0
1733975319.2833586,67.3828125,125.48828125,217.7734375,104.98046875,0.0
1733975319.2872636,3.90625,174.31640625,179.19921875,37.109375,0.0
1733975319.2911687,-71.2890625,210.9375,155.2734375,-15.13671875,0.0
1733975319.2950735,-60.546875,204.1015625,157.71484375,-0.48828125,0.0
1733975319.2989786,-7.32421875,235.83984375,149.90234375,-15.625,0.0
1733975319.3028834,42.48046875,232.91015625,116.69921875,24.90234375,0.0
1733975319.3067884,7.8125,192.3828125,151.85546875,54.6875,0.0
1733975319.3105724,-53.7109375,161.62109375,208.49609375,4.8828125,0.0
1733975319.3144772,-0.9765625,108.88671875,187.98828125,8.7890625,0.0
1733975319.3183823,21.97265625,82.51953125,176.7578125,62.98828125,0.0
1733975319.3222873,20.99609375,150.87890625,202.63671875,73.73046875,0.0
1733975319.3261921,3.90625,176.7578125,186.5234375,43.45703125,0.0
1733975319.3300972,-71.2890625,169.43359375,191.89453125,-3.90625,0.0
1733975319.334002,-66.40625,182.12890625,196.77734375,19.04296875,0.0
1733975319.337907,-2.44140625,158.203125,199.70703125,65.4296875,0.0
1733975319.3418121,36.1328125,146.97265625,238.76953125,37.59765625,0.0
1733975319.345717,1.46484375,126.46484375,224.609375,19.04296875,0.0
1733975319.349622,-57.12890625,78.61328125,229.00390625,28.80859375,0.0
1733975319.353527,-38.57421875,75.1953125,239.2578125,20.01953125,0.0
1733975319.3575487,-21.484375,172.36328125,181.640625,20.5078125,0.0
1733975319.3614538,17.08984375,207.51953125,157.71484375,56.640625,0.0
1733975319.3653586,40.0390625,173.33984375,142.578125,75.1953125,0.0
1733975319.3692636,-20.5078125,168.9453125,182.12890625,29.78515625,0.0
1733975319.3731687,-87.40234375,154.296875,226.5625,-40.0390625,0.0
1733975319.3770735,-51.7578125,148.92578125,212.890625,-28.3203125,0.0
1733975319.3809786,37.59765625,134.765625,236.328125,25.390625,0.0
1733975319.3848834,19.53125,110.83984375,213.8671875,52.24609375,0.0
1733975319.3887885,-31.73828125,103.515625,191.40625,69.3359375,0.0
1733975319.3926935,-45.41015625,134.765625,216.30859375,86.9140625,0.0
1733975319.3965983,-0.9765625,245.1171875,199.70703125,20.01953125,0.0
1733975319.4005034,72.75390625,238.76953125,121.58203125,36.1328125,0.0
1733975319.4044805,36.1328125,197.265625,133.30078125,68.359375,0.0
1733975319.4083855,-50.78125,233.3984375,244.62890625,51.26953125,0.0
1733975319.4122903,-74.70703125,228.02734375,262.6953125,9.765625,0.0
1733975319.4161954,-18.5546875,201.171875,231.93359375,0.0,0.0
1733975319.4201005,7.8125,209.9609375,180.17578125,58.10546875,0.0
1733975319.4240053,7.32421875,219.23828125,190.4296875,84.9609375,0.0
1733975319.4279103,-19.04296875,213.8671875,229.00390625,7.8125,0.0
1733975319.4318154,-28.3203125,212.40234375,214.35546875,-20.99609375,0.0
1733975319.4357202,-4.39453125,229.4921875,175.29296875,14.6484375,0.0
1733975319.4396253,-0.48828125,170.41015625,171.38671875,79.58984375,0.0
1733975319.4435303,11.23046875,186.03515625,216.796875,125.9765625,0.0
1733975319.4474351,-30.76171875,212.40234375,186.03515625,35.15625,0.0
1733975319.4513764,-47.36328125,220.21484375,140.625,-36.1328125,0.0
1733975319.4552815,-25.87890625,237.79296875,195.80078125,16.11328125,0.0
1733975319.4591863,7.8125,215.8203125,254.39453125,76.66015625,0.0
1733975319.4630914,37.109375,231.4453125,249.51171875,74.21875,0.0
1733975319.4669962,-3.90625,228.02734375,199.21875,13.671875,0.0
1733975319.4709013,-67.3828125,186.03515625,172.36328125,-11.23046875,0.0
1733975319.4748063,-65.91796875,246.09375,180.6640625,10.25390625,0.0
1733975319.4787111,2.9296875,274.4140625,169.43359375,65.91796875,0.0
1733975319.4826162,34.66796875,210.9375,122.55859375,111.328125,0.0
1733975319.4865212,4.39453125,228.515625,150.390625,76.66015625,0.0
1733975319.490426,-48.828125,275.390625,182.6171875,31.73828125,0.0
1733975319.4943311,-76.66015625,269.53125,141.11328125,29.78515625,0.0
1733975319.4982357,-1.953125,281.25,118.1640625,84.47265625,0.0
1733975319.5021408,100.5859375,280.76171875,161.62109375,71.77734375,0.0
1733975319.5060458,70.80078125,252.9296875,138.18359375,61.03515625,0.0
1733975319.5099506,-49.31640625,260.7421875,135.25390625,60.546875,0.0
1733975319.5138557,-54.19921875,294.921875,151.85546875,20.01953125,0.0
1733975319.5177608,8.7890625,238.76953125,129.8828125,25.87890625,0.0
1733975319.5216656,50.29296875,221.6796875,196.77734375,51.7578125,0.0
1733975319.5255706,3.90625,315.4296875,215.8203125,39.55078125,0.0
1733975319.5294755,-66.89453125,307.6171875,166.015625,41.9921875,0.0
1733975319.5333805,-62.5,289.55078125,161.1328125,26.3671875,0.0
1733975319.5372856,-3.41796875,302.24609375,126.46484375,16.11328125,0.0
1733975319.5411904,48.828125,278.80859375,83.984375,72.75390625,0.0
1733975319.5450673,14.16015625,260.25390625,95.703125,62.98828125,0.0
1733975319.5489721,-43.9453125,200.68359375,192.87109375,9.27734375,0.0
1733975319.5528772,-53.22265625,131.8359375,289.55078125,0.0,0.0
1733975319.556782,-16.6015625,149.90234375,297.8515625,23.92578125,0.0
1733975319.560687,58.10546875,206.54296875,334.47265625,60.05859375,0.0
1733975319.5645921,43.45703125,215.8203125,425.78125,60.546875,0.0
1733975319.568497,-52.734375,208.0078125,445.3125,29.78515625,0.0
1733975319.572402,-74.21875,325.1953125,356.93359375,58.59375,0.0
1733975319.576307,-9.27734375,541.50390625,348.14453125,45.41015625,0.0
1733975319.5802119,34.66796875,628.41796875,306.640625,33.69140625,0.0
1733975319.584117,50.78125,735.83984375,211.9140625,74.21875,0.0
1733975319.588022,-60.05859375,916.015625,178.7109375,23.4375,0.0
1733975319.59186,-155.2734375,972.16796875,169.43359375,-24.90234375,0.0
1733975319.595765,-111.328125,964.35546875,231.4453125,-8.30078125,0.0
1733975319.5996702,-50.29296875,968.75,167.96875,72.75390625,0.0
1733975319.603575,-12.20703125,968.75,104.00390625,91.796875,0.0
1733975319.60748,-55.6640625,968.75,94.7265625,12.20703125,0.0
1733975319.611385,-128.41796875,968.75,14.6484375,-20.99609375,0.0
1733975319.61529,-122.55859375,968.75,14.16015625,-24.4140625,0.0
1733975319.619195,-49.8046875,968.75,49.8046875,27.83203125,0.0
1733975319.6230998,3.90625,968.75,37.59765625,83.49609375,0.0
1733975319.6270049,-43.45703125,968.75,15.13671875,4.8828125,0.0
1733975319.63091,-77.1484375,968.75,-3.90625,-51.7578125,0.0
1733975319.6348147,-68.84765625,968.75,-1.953125,-9.765625,0.0
1733975319.6386397,-5.859375,968.75,-9.27734375,57.6171875,0.0
1733975319.6425447,12.20703125,968.75,-29.296875,99.12109375,0.0
1733975319.6464496,-47.8515625,968.75,-39.0625,14.16015625,0.0
1733975319.6503546,-91.796875,968.75,-19.53125,-54.19921875,0.0
1733975319.6542597,-76.66015625,968.75,-52.24609375,-23.4375,0.0
1733975319.6581645,-13.18359375,968.75,-87.40234375,14.16015625,0.0
1733975319.6620696,15.625,968.75,-17.08984375,43.45703125,0.0
1733975319.6659744,7.32421875,968.75,1.953125,32.71484375,0.0
1733975319.6698794,-20.99609375,967.7734375,-61.03515625,70.3125,0.0
1733975319.6737845,-82.51953125,968.26171875,-84.9609375,22.4609375,0.0
1733975319.6776893,-37.59765625,967.7734375,-88.37890625,-64.94140625,0.0
1733975319.6815944,40.52734375,932.6171875,-48.828125,25.87890625,0.0
1733975319.6853783,-2.44140625,876.953125,3.90625,26.3671875,0.0
1733975319.6892831,-37.59765625,810.546875,-17.08984375,-45.8984375,0.0
1733975319.6931882,-50.78125,749.0234375,-57.12890625,-34.1796875,0.0
1733975319.6970932,-58.59375,748.53515625,-51.26953125,-2.44140625,0.0
1733975319.700998,1.46484375,719.7265625,-76.66015625,30.76171875,0.0
1733975319.7049031,20.01953125,705.078125,-148.92578125,39.55078125,0.0
1733975319.708808,-41.015625,721.19140625,-102.05078125,8.7890625,0.0
1733975319.712713,-70.3125,690.4296875,0.9765625,-49.8046875,0.0
1733975319.716618,-31.73828125,648.92578125,-0.9765625,-44.921875,0.0
1733975319.7205229,-2.44140625,670.41015625,-30.76171875,35.15625,0.0
1733975319.724428,-21.97265625,730.46875,-25.87890625,44.921875,0.0
1733975319.728333,-82.51953125,767.08984375,-13.18359375,-33.203125,0.0
1733975319.7323496,-109.375,779.78515625,-18.06640625,-54.19921875,0.0
1733975319.7362547,-63.96484375,828.61328125,-37.109375,-18.06640625,0.0
1733975319.7401597,-4.8828125,920.8984375,-42.96875,17.578125,0.0
1733975319.7440646,-20.01953125,966.796875,6.8359375,34.1796875,0.0
1733975319.7479696,-76.66015625,967.7734375,20.99609375,-9.765625,0.0
1733975319.7518747,-116.2109375,967.7734375,-13.671875,-55.17578125,0.0
1733975319.7557795,-89.84375,968.75,-14.6484375,-46.875,0.0
1733975319.7596846,-40.52734375,968.75,1.953125,0.9765625,0.0
1733975319.7635894,-48.828125,968.75,6.8359375,20.5078125,0.0
1733975319.7674944,-116.2109375,968.75,-7.32421875,-15.13671875,0.0
1733975319.7713995,-171.38671875,968.75,-41.015625,-49.31640625,0.0
1733975319.7753043,-148.4375,968.75,-38.0859375,-61.5234375,0.0
1733975319.7792826,-86.9140625,968.75,3.90625,-46.875,0.0
1733975319.7831876,-95.21484375,968.26171875,20.99609375,-24.90234375,0.0
1733975319.7870927,-180.17578125,968.75,13.671875,-53.7109375,0.0
1733975319.7909975,-233.88671875,968.75,21.484375,-78.61328125,0.0
1733975319.7949026,-216.30859375,968.75,18.5546875,-82.51953125,0.0
1733975319.7988074,-195.3125,968.75,9.765625,-77.1484375,0.0
1733975319.8027124,-189.453125,968.75,7.8125,-102.5390625,0.0
1733975319.8066175,-215.8203125,968.75,-11.23046875,-179.6875,0.0
1733975319.8105223,-313.4765625,968.75,-12.6953125,-217.7734375,0.0
1733975319.8144274,-363.28125,968.75,2.44140625,-213.37890625,0.0
1733975319.8183324,-314.94140625,968.75,19.53125,-239.74609375,0.0
1733975319.8222373,-301.26953125,968.75,0.9765625,-258.7890625,0.0
1733975319.8261855,-361.328125,969.23828125,-19.04296875,-284.1796875,0.0
1733975319.8300905,-439.453125,962.40234375,-29.296875,-379.8828125,0.0
1733975319.8339956,-455.56640625,973.14453125,-45.8984375,-422.8515625,0.0
1733975319.8379004,-398.4375,916.015625,-76.171875,-390.13671875,0.0
1733975319.8418055,-328.61328125,680.17578125,-127.44140625,-318.84765625,0.0
1733975319.8457105,-361.328125,430.17578125,-175.78125,-313.4765625,0.0
1733975319.8496153,-443.359375,174.8046875,-209.9609375,-366.69921875,0.0
1733975319.8535204,-446.2890625,-128.41796875,-247.0703125,-392.08984375,0.0
1733975319.8574255,-390.13671875,-421.875,-279.296875,-318.359375,0.0
1733975319.8613303,-324.70703125,-725.09765625,-289.0625,-282.71484375,0.0
1733975319.8652353,-311.03515625,-961.42578125,-289.0625,-344.7265625,0.0
1733975319.8691401,-336.42578125,-1000.0,-315.91796875,-321.2890625,0.0
1733975319.8730538,-342.28515625,-994.140625,-289.55078125,-299.31640625,0.0
1733975319.8769586,-284.1796875,-1000.0,-251.46484375,-286.1328125,0.0
1733975319.8808637,-217.7734375,-1000.0,-249.0234375,-195.3125,0.0
1733975319.8847685,-174.31640625,-1000.0,-249.51171875,-157.71484375,0.0
1733975319.8886735,-226.5625,-1000.0,-240.72265625,-160.15625,0.0
1733975319.8925786,-284.66796875,-1000.0,-214.35546875,-228.515625,0.0
1733975319.8964834,-216.30859375,-1000.0,-192.87109375,-225.5859375,0.0
1733975319.9003885,-105.46875,-1000.0,-179.19921875,-130.859375,0.0
1733975319.9042935,-76.66015625,-1000.0,-163.0859375,-87.40234375,0.0
1733975319.9081984,-127.9296875,-1000.0,-125.0,-103.515625,0.0
1733975319.9121034,-119.62890625,-1000.0,-89.84375,-85.44921875,0.0
1733975319.9160085,-99.609375,-1000.0,-72.265625,-67.3828125,0.0
1733975319.9198964,-48.828125,-1000.0,-52.734375,-20.5078125,0.0
1733975319.9238014,-9.27734375,-1000.0,-19.04296875,25.87890625,0.0
1733975319.9277062,-90.33203125,-1000.0,3.90625,15.13671875,0.0
1733975319.9316113,-123.046875,-1000.0,34.1796875,52.734375,0.0
1733975319.9355164,-53.22265625,-1000.0,75.68359375,22.94921875,0.0
1733975319.9394212,9.765625,-1000.0,103.02734375,30.2734375,0.0
1733975319.9433262,63.96484375,-999.51171875,113.28125,74.21875,0.0
1733975319.9472313,18.06640625,-998.53515625,122.0703125,43.9453125,0.0
1733975319.951136,-83.0078125,-963.37890625,152.83203125,62.01171875,0.0
1733975319.9550412,-70.80078125,-887.20703125,173.828125,75.68359375,0.0
1733975319.9589462,47.8515625,-819.3359375,195.3125,90.8203125,0.0
1733975319.962851,84.9609375,-760.7421875,213.37890625,77.63671875,0.0
1733975319.966692,42.48046875,-720.703125,218.75,63.96484375,0.0
1733975319.970597,-13.671875,-713.8671875,226.07421875,60.546875,0.0
1733975319.9745018,-39.55078125,-691.40625,231.93359375,48.828125,0.0
1733975319.978407,25.390625,-625.9765625,230.46875,99.609375,0.0
1733975319.982312,70.3125,-555.6640625,220.703125,142.08984375,0.0
1733975319.9862168,29.296875,-519.53125,242.1875,121.58203125,0.0
1733975319.9901218,-16.11328125,-484.86328125,267.578125,82.51953125,0.0
1733975319.9940267,5.859375,-461.42578125,267.578125,103.02734375,0.0
1733975319.9979317,63.96484375,-441.40625,284.66796875,127.9296875,0.0
1733975320.0018368,84.47265625,-412.109375,288.0859375,173.33984375,0.0
1733975320.0057416,42.48046875,-385.7421875,268.5546875,149.90234375,0.0
1733975320.0096467,17.578125,-371.09375,260.7421875,88.8671875,0.0
1733975320.0134587,10.25390625,-345.703125,263.671875,85.44921875,0.0
1733975320.0173635,67.3828125,-318.84765625,261.23046875,110.83984375,0.0
1733975320.0212686,144.53125,-298.828125,254.39453125,153.3203125,0.0
1733975320.0251737,86.9140625,-281.73828125,230.95703125,128.90625,0.0
1733975320.0290785,8.30078125,-282.2265625,208.984375,59.08203125,0.0
1733975320.0329835,-12.20703125,-279.296875,226.07421875,45.41015625,0.0
1733975320.0368884,22.4609375,-254.8828125,241.69921875,111.81640625,0.0
1733975320.0407934,86.42578125,-220.21484375,256.8359375,139.6484375,0.0
1733975320.0446985,68.359375,-188.4765625,257.32421875,127.44140625,0.0
1733975320.0486033,-2.44140625,-175.78125,234.375,115.234375,0.0
1733975320.0525084,-20.99609375,-177.24609375,227.5390625,108.88671875,0.0
1733975320.0564134,40.52734375,-170.8984375,228.515625,104.4921875,0.0
1733975320.0602002,93.75,-159.66796875,226.5625,155.76171875,0.0
1733975320.0641053,82.03125,-155.2734375,206.0546875,167.48046875,0.0
1733975320.0680103,9.27734375,-151.3671875,162.59765625,73.73046875,0.0
1733975320.0719151,-17.08984375,-168.45703125,157.71484375,36.1328125,0.0
1733975320.0758202,20.5078125,-180.6640625,148.4375,68.359375,0.0
1733975320.0797253,98.14453125,-139.6484375,151.3671875,74.70703125,0.0
1733975320.08363,114.74609375,-125.48828125,195.80078125,78.61328125,0.0
1733975320.0875351,19.53125,-159.1796875,190.91796875,44.43359375,0.0
1733975320.09144,-20.5078125,-116.69921875,172.8515625,0.0,0.0
1733975320.095345,20.99609375,-105.46875,167.96875,44.43359375,0.0
1733975320.09925,68.84765625,-144.04296875,159.66796875,112.79296875,0.0
1733975320.103155,72.265625,-114.2578125,159.1796875,114.2578125,0.0
1733975320.1071646,8.7890625,-89.84375,147.94921875,72.75390625,0.0
1733975320.1110697,-41.9921875,-91.796875,150.390625,44.921875,0.0
1733975320.1149747,2.9296875,-85.9375,160.15625,70.3125,0.0
1733975320.1188796,112.79296875,-92.28515625,139.16015625,86.9140625,0.0
1733975320.1227846,118.1640625,-96.19140625,125.9765625,88.8671875,0.0
1733975320.1266894,0.0,-120.60546875,107.421875,86.9140625,0.0
1733975320.1305945,-42.96875,-126.46484375,74.70703125,33.203125,0.0
1733975320.1344995,-13.671875,-80.56640625,108.88671875,10.7421875,0.0
1733975320.1384044,42.96875,-75.68359375,140.625,62.98828125,0.0
1733975320.1423094,97.16796875,-72.75390625,117.1875,82.51953125,0.0
1733975320.1462145,55.17578125,-41.50390625,127.9296875,58.10546875,0.0
1733975320.1501193,-21.97265625,-37.109375,126.953125,36.1328125,0.0
1733975320.1540935,-8.30078125,-30.76171875,102.5390625,33.203125,0.0
1733975320.1579986,34.66796875,-35.15625,113.76953125,71.2890625,0.0
1733975320.1619036,84.47265625,-33.69140625,126.953125,74.70703125,0.0
1733975320.1658084,36.1328125,-15.625,119.140625,32.71484375,0.0
1733975320.1697135,-53.22265625,-10.25390625,99.609375,25.390625,0.0
1733975320.1736186,-47.8515625,-31.25,89.84375,27.83203125,0.0
1733975320.1775234,20.01953125,-44.43359375,78.61328125,34.66796875,0.0
1733975320.1814284,93.26171875,-37.109375,78.61328125,90.33203125,0.0
1733975320.1853335,34.66796875,-37.59765625,67.87109375,85.44921875,0.0
1733975320.1892383,-56.640625,-46.38671875,26.85546875,25.87890625,0.0
1733975320.1931434,-47.36328125,-45.41015625,54.6875,20.99609375,0.0
1733975320.1970482,20.01953125,-37.109375,73.73046875,52.24609375,0.0
1733975320.2009876,70.3125,-44.43359375,74.70703125,69.3359375,0.0
1733975320.2048926,24.90234375,-60.546875,98.14453125,47.36328125,0.0
1733975320.2087977,-53.7109375,-81.0546875,96.19140625,-9.27734375,0.0
1733975320.2127025,-46.38671875,-86.9140625,62.5,-3.41796875,0.0
1733975320.2166076,-2.44140625,-55.17578125,54.6875,29.296875,0.0
1733975320.2205126,57.12890625,-41.50390625,71.77734375,60.05859375,0.0
1733975320.2244174,31.73828125,-32.2265625,57.12890625,45.41015625,0.0
1733975320.2283225,-67.87109375,-11.71875,10.25390625,-9.27734375,0.0
1733975320.2322273,-83.49609375,-20.5078125,-8.7890625,-17.08984375,0.0
1733975320.2361324,-24.90234375,-24.90234375,43.45703125,12.6953125,0.0
1733975320.2400374,53.22265625,-43.45703125,59.08203125,79.1015625,0.0
1733975320.2439423,37.59765625,-55.6640625,27.34375,69.82421875,0.0
1733975320.247844,-56.640625,-32.2265625,0.0,-0.9765625,0.0
1733975320.251749,-103.02734375,-8.30078125,-33.69140625,-31.73828125,0.0
1733975320.2556539,-65.91796875,-8.7890625,-1.46484375,-19.53125,0.0
1733975320.259559,27.83203125,-19.53125,19.53125,43.45703125,0.0
1733975320.263464,49.8046875,-19.04296875,2.44140625,66.40625,0.0
1733975320.2673688,-62.01171875,-16.6015625,5.37109375,0.9765625,0.0
1733975320.2712739,-114.74609375,-17.578125,7.32421875,-53.22265625,0.0
1733975320.2751787,-43.45703125,-14.16015625,10.7421875,-20.01953125,0.0
1733975320.2790837,16.11328125,-3.41796875,-9.27734375,75.68359375,0.0
1733975320.2829888,22.94921875,-1.46484375,-28.3203125,71.77734375,0.0
1733975320.2868936,-49.8046875,-25.87890625,-28.80859375,8.30078125,0.0
1733975320.2907987,-76.171875,-21.97265625,0.0,-9.765625,0.0
1733975320.2946875,-35.15625,-21.97265625,16.6015625,-20.99609375,0.0
1733975320.2985923,-3.90625,-24.90234375,10.25390625,17.578125,0.0
1733975320.3024974,21.484375,6.8359375,0.48828125,54.6875,0.0
1733975320.3064022,-48.33984375,12.6953125,-22.94921875,13.18359375,0.0
1733975320.3103073,-98.6328125,-20.5078125,-55.17578125,-2.44140625,0.0
1733975320.3142123,-69.82421875,-27.83203125,-46.875,-15.13671875,0.0
1733975320.3181171,-22.4609375,2.9296875,-18.06640625,-7.32421875,0.0
1733975320.3220222,14.16015625,7.32421875,-2.9296875,52.734375,0.0
1733975320.3259273,-40.0390625,6.34765625,-10.7421875,27.83203125,0.0
1733975320.329832,-80.078125,8.30078125,-38.0859375,-29.296875,0.0
1733975320.3337371,-67.87109375,1.46484375,-10.25390625,-33.203125,0.0
1733975320.3376422,-32.71484375,-2.44140625,13.18359375,-0.48828125,0.0
1733975320.341493,18.5546875,-18.5546875,-6.8359375,39.0625,0.0
1733975320.345398,-18.5546875,-48.33984375,-12.20703125,12.6953125,0.0
1733975320.3493028,-94.23828125,-42.96875,-14.6484375,-32.71484375,0.0
1733975320.3532078,-108.88671875,0.48828125,-24.90234375,-28.3203125,0.0
1733975320.357113,-50.78125,20.01953125,-8.30078125,22.94921875,0.0
1733975320.3610177,-4.8828125,40.52734375,-1.953125,58.59375,0.0
1733975320.3649228,-41.50390625,33.69140625,-27.83203125,41.015625,0.0
1733975320.3688278,-107.421875,15.625,-34.1796875,-3.41796875,0.0
1733975320.3727326,-115.72265625,16.11328125,-11.23046875,-47.36328125,0.0
1733975320.3766377,-42.48046875,17.578125,-6.34765625,-21.97265625,0.0
1733975320.3805425,17.578125,22.94921875,-18.5546875,39.55078125,0.0
1733975320.3844476,-32.2265625,10.25390625,-14.6484375,17.08984375,0.0
1733975320.38852,-126.953125,-2.9296875,-12.6953125,-41.015625,0.0
1733975320.392425,-129.8828125,4.8828125,-20.99609375,-36.62109375,0.0
1733975320.3963299,-61.03515625,7.32421875,-8.7890625,-31.73828125,0.0
1733975320.400235,-23.4375,12.6953125,0.48828125,0.0,0.0
1733975320.40414,-81.54296875,6.8359375,-15.625,-29.78515625,0.0
1733975320.4080448,-171.38671875,-6.8359375,-28.3203125,-97.16796875,0.0
1733975320.4119499,-187.01171875,-0.48828125,-28.80859375,-109.86328125,0.0
1733975320.415855,-162.59765625,14.6484375,-14.6484375,-108.88671875,0.0
1733975320.4197598,-138.671875,9.27734375,-12.20703125,-113.28125,0.0
1733975320.4236648,-174.8046875,-6.8359375,-27.34375,-142.08984375,0.0
1733975320.4275699,-279.296875,-1.46484375,-31.73828125,-177.24609375,0.0
1733975320.4314747,-315.4296875,22.94921875,-25.87890625,-219.7265625,0.0
1733975320.4352646,-292.48046875,27.83203125,-23.4375,-254.39453125,0.0
1733975320.4391696,-239.74609375,17.08984375,-31.25,-211.9140625,0.0
1733975320.4430745,-213.8671875,13.671875,-45.41015625,-200.68359375,0.0
1733975320.4469795,-318.359375,7.32421875,-54.6875,-244.140625,0.0
1733975320.4508846,-382.8125,-2.9296875,-51.7578125,-298.828125,0.0
1733975320.4547894,-315.4296875,-20.5078125,-61.03515625,-294.43359375,0.0
1733975320.4586945,-265.625,-24.4140625,-79.58984375,-245.60546875,0.0
1733975320.4625995,-256.8359375,-14.6484375,-78.61328125,-211.42578125,0.0
1733975320.4665043,-292.96875,-13.18359375,-72.75390625,-244.62890625,0.0
1733975320.4704094,-333.49609375,-10.25390625,-86.42578125,-269.04296875,0.0
1733975320.4743142,-300.29296875,-10.25390625,-76.66015625,-220.21484375,0.0
1733975320.4782193,-201.66015625,-4.39453125,-56.15234375,-140.625,0.0
1733975320.4822497,-135.7421875,1.953125,-71.2890625,-86.9140625,0.0
1733975320.4861548,-193.84765625,-3.41796875,-87.40234375,-122.55859375,0.0
1733975320.4900596,-249.51171875,-11.71875,-107.421875,-130.859375,0.0
1733975320.4939647,-191.40625,-23.92578125,-134.765625,-132.8125,0.0
1733975320.4978697,-83.49609375,-24.90234375,-84.9609375,-71.77734375,0.0
1733975320.5017745,-48.828125,-10.25390625,-46.38671875,-1.953125,0.0
1733975320.5056796,-90.8203125,9.27734375,-65.91796875,-25.390625,0.0
1733975320.5095847,-125.9765625,3.41796875,-49.31640625,-13.671875,0.0
1733975320.5134895,-127.44140625,-19.04296875,-39.0625,-11.23046875,0.0
1733975320.5173945,-32.71484375,-21.97265625,-48.33984375,-8.30078125,0.0
1733975320.5212996,38.0859375,5.37109375,-37.59765625,34.66796875,0.0
1733975320.5252044,-2.9296875,28.3203125,-44.921875,46.38671875,0.0
1733975320.5291865,-67.87109375,40.52734375,-65.4296875,48.33984375,0.0
1733975320.5330915,-46.38671875,44.43359375,-83.0078125,38.57421875,0.0
1733975320.5369964,38.0859375,23.4375,-43.9453125,63.4765625,0.0
1733975320.5409014,61.5234375,40.0390625,-11.23046875,126.953125,0.0
1733975320.5448065,53.7109375,63.4765625,-45.41015625,123.046875,0.0
1733975320.5487113,8.30078125,64.453125,-48.33984375,72.75390625,0.0
1733975320.5526164,-42.96875,36.62109375,-44.921875,61.5234375,0.0
1733975320.5565212,32.2265625,30.2734375,-41.9921875,59.08203125,0.0
1733975320.5604262,98.6328125,62.98828125,-21.484375,132.8125,0.0
1733975320.5643313,54.19921875,63.4765625,-26.85546875,142.08984375,0.0
1733975320.568236,-15.13671875,49.8046875,-20.5078125,48.828125,0.0
1733975320.5721412,-23.4375,53.22265625,-23.4375,58.10546875,0.0
1733975320.5760894,19.53125,76.66015625,-42.96875,72.265625,0.0
1733975320.5799944,102.05078125,69.3359375,-36.1328125,95.703125,0.0
1733975320.5838993,106.93359375,60.546875,-8.7890625,128.90625,0.0
1733975320.5878043,-7.8125,41.9921875,-7.8125,88.8671875,0.0
1733975320.5917091,-69.82421875,30.2734375,-8.7890625,58.59375,0.0
1733975320.5956142,41.015625,31.73828125,-20.5078125,79.1015625,0.0
1733975320.5995193,113.28125,-28.80859375,-4.39453125,130.859375,0.0
1733975320.603424,75.1953125,-43.9453125,-8.7890625,140.625,0.0
1733975320.6073291,2.44140625,22.94921875,-59.08203125,72.265625,0.0
1733975320.6112342,-45.41015625,34.66796875,-21.97265625,37.109375,0.0
1733975320.615139,9.765625,8.7890625,24.4140625,79.1015625,0.0
1733975320.619044,106.93359375,-21.97265625,-12.6953125,113.76953125,0.0
1733975320.622963,107.421875,-7.8125,-26.85546875,99.12109375,0.0
1733975320.626868,23.4375,4.8828125,-25.87890625,64.453125,0.0
1733975320.6307728,-40.0390625,-40.0390625,-18.5546875,6.34765625,0.0
1733975320.634678,1.46484375,-74.21875,19.53125,13.18359375,0.0
1733975320.638583,64.94140625,-49.8046875,38.57421875,64.453125,0.0
1733975320.6424878,77.1484375,-8.7890625,14.6484375,91.796875,0.0
1733975320.6463928,39.0625,-4.8828125,-18.06640625,80.078125,0.0
1733975320.6502979,-37.59765625,-50.78125,-33.69140625,24.90234375,0.0
1733975320.6542027,-33.69140625,-71.2890625,-2.44140625,39.55078125,0.0
1733975320.6581078,52.24609375,-47.8515625,21.484375,78.61328125,0.0
1733975320.6620126,114.74609375,-39.55078125,-32.71484375,77.1484375,0.0
1733975320.6659176,48.33984375,-35.64453125,-63.4765625,41.50390625,0.0
1733975320.669791,-54.6875,-46.875,-14.6484375,0.9765625,0.0
1733975320.673696,-17.08984375,-37.109375,30.2734375,20.5078125,0.0
1733975320.6776009,57.6171875,-39.0625,39.55078125,80.56640625,0.0
1733975320.681506,85.44921875,-53.7109375,31.73828125,112.79296875,0.0
1733975320.685411,26.85546875,-47.36328125,16.6015625,61.5234375,0.0
1733975320.6893158,-52.734375,-52.24609375,15.13671875,16.11328125,0.0
1733975320.6932209,-25.87890625,-59.08203125,10.7421875,3.90625,0.0
1733975320.697126,27.83203125,-52.734375,-8.30078125,48.33984375,0.0
1733975320.7010307,94.7265625,-43.45703125,0.0,90.8203125,0.0
1733975320.7049358,61.5234375,-44.921875,-14.6484375,51.26953125,0.0
1733975320.7088408,-50.78125,-45.8984375,-27.34375,0.9765625,0.0
1733975320.7127457,-52.24609375,-48.828125,-5.37109375,-4.39453125,0.0
1733975320.7165966,16.11328125,-49.8046875,0.48828125,12.20703125,0.0
1733975320.7205017,74.21875,-41.50390625,5.37109375,72.265625,0.0
1733975320.7244067,39.0625,-42.48046875,3.41796875,90.8203125,0.0
1733975320.7283115,-54.19921875,-37.59765625,-39.55078125,-4.39453125,0.0
1733975320.7322166,-73.2421875,-26.85546875,-76.66015625,-29.78515625,0.0
1733975320.7361217,13.18359375,-47.8515625,-20.99609375,-2.9296875,0.0
1733975320.7400265,91.796875,-63.4765625,14.16015625,38.0859375,0.0
1733975320.7439315,26.85546875,-43.45703125,10.7421875,61.03515625,0.0
1733975320.7478364,-51.7578125,-49.31640625,30.76171875,2.44140625,0.0
1733975320.7517414,-56.15234375,-79.58984375,6.34765625,-40.0390625,0.0
1733975320.7556465,-48.33984375,-58.59375,-21.484375,14.16015625,0.0
1733975320.7595513,36.62109375,-13.671875,-23.4375,59.5703125,0.0
1733975320.7636235,35.64453125,-32.71484375,-22.94921875,18.5546875,0.0
1733975320.7675285,-63.4765625,-55.17578125,-7.8125,-29.78515625,0.0
1733975320.7714334,-89.84375,-36.1328125,-11.23046875,-50.78125,0.0
1733975320.7753384,-64.94140625,-25.390625,-3.90625,-29.296875,0.0
1733975320.7792435,23.4375,-52.734375,10.25390625,23.92578125,0.0
1733975320.7831483,70.80078125,-77.1484375,-12.20703125,44.921875,0.0
1733975320.7870533,-33.69140625,-49.8046875,-18.5546875,-0.9765625,0.0
1733975320.7909582,-107.91015625,-21.97265625,-3.90625,-32.71484375,0.0
1733975320.7948632,-48.828125,-15.13671875,-4.39453125,-8.30078125,0.0
1733975320.7987683,16.11328125,-29.296875,0.9765625,29.296875,0.0
1733975320.802673,32.2265625,-48.33984375,-4.39453125,52.24609375,0.0
1733975320.8065782,-37.109375,-49.31640625,-13.671875,7.8125,0.0
1733975320.8106163,-95.703125,-61.5234375,-26.3671875,-41.9921875,0.0
1733975320.8145213,-77.63671875,-49.31640625,-26.85546875,-39.55078125,0.0
1733975320.8184264,15.13671875,-50.78125,-2.9296875,6.34765625,0.0
1733975320.8223312,52.734375,-57.12890625,-14.6484375,51.7578125,0.0
