timestamps,TP9,AF7,AF8,TP10,Right AUX
1733975714.1777923,1.953125,-33.203125,-33.69140625,-53.22265625,0.0
1733975714.1816976,-70.80078125,-43.9453125,-45.8984375,-63.96484375,0.0
1733975714.1856031,-74.21875,-46.38671875,-48.33984375,-78.61328125,0.0
1733975714.1895084,0.48828125,-34.1796875,-32.2265625,-75.1953125,0.0
1733975714.193414,25.87890625,-20.99609375,-30.76171875,-34.66796875,0.0
1733975714.1973195,-14.6484375,-14.6484375,-43.45703125,-31.25,0.0
1733975714.2012248,-65.4296875,-15.625,-45.8984375,-75.68359375,0.0
1733975714.2051303,-46.875,-26.85546875,-47.36328125,-83.0078125,0.0
1733975714.2090356,3.41796875,-42.48046875,-44.921875,-61.5234375,0.0
1733975714.2129412,22.4609375,-38.57421875,-34.1796875,-31.73828125,0.0
1733975714.2168467,-2.44140625,-28.3203125,-46.875,-37.109375,0.0
1733975714.2209682,-50.78125,-42.48046875,-65.91796875,-66.89453125,0.0
1733975714.2248738,-71.77734375,-40.0390625,-64.94140625,-76.66015625,0.0
1733975714.2287793,-20.01953125,-16.6015625,-54.6875,-64.453125,0.0
1733975714.2326846,25.390625,-21.484375,-38.0859375,-45.8984375,0.0
1733975714.2365901,1.953125,-30.2734375,-27.83203125,-42.48046875,0.0
1733975714.2404954,-61.5234375,-40.0390625,-38.0859375,-54.6875,0.0
1733975714.244401,-76.66015625,-41.9921875,-44.43359375,-75.1953125,0.0
1733975714.2483065,-38.0859375,-33.203125,-37.59765625,-86.9140625,0.0
1733975714.2522118,15.625,-32.2265625,-43.9453125,-60.546875,0.0
1733975714.2561173,11.23046875,-31.25,-78.125,-30.2734375,0.0
1733975714.2600226,-53.22265625,-28.80859375,-73.2421875,-58.10546875,0.0
1733975714.2639282,-63.4765625,-28.80859375,-42.96875,-87.40234375,0.0
1733975714.2679913,-15.625,-34.1796875,-44.43359375,-66.89453125,0.0
1733975714.2718968,18.5546875,-33.69140625,-46.875,-41.015625,0.0
1733975714.2758024,4.8828125,-38.0859375,-46.875,-44.921875,0.0
1733975714.2797077,-50.29296875,-44.43359375,-43.45703125,-76.66015625,0.0
1733975714.2836132,-76.66015625,-33.69140625,-33.203125,-86.9140625,0.0
1733975714.2875187,-44.43359375,-38.0859375,-29.296875,-80.078125,0.0
1733975714.291424,3.41796875,-39.55078125,-29.296875,-47.36328125,0.0
1733975714.2953296,19.04296875,-20.99609375,-21.97265625,-16.6015625,0.0
1733975714.2992349,-14.6484375,-20.5078125,-38.0859375,-30.2734375,0.0
1733975714.3031404,-52.734375,-23.92578125,-73.2421875,-42.96875,0.0
1733975714.307046,-44.43359375,-11.71875,-52.734375,-43.9453125,0.0
1733975714.3109512,12.6953125,-11.23046875,-21.484375,-44.43359375,0.0
1733975714.3149245,43.45703125,-13.671875,-34.66796875,-38.0859375,0.0
1733975714.31883,-11.71875,-37.109375,-35.15625,-42.48046875,0.0
1733975714.3227353,-64.94140625,-41.50390625,-20.5078125,-58.59375,0.0
1733975714.3266408,-48.33984375,-28.80859375,-32.71484375,-62.98828125,0.0
1733975714.3305464,0.0,-36.62109375,-79.1015625,-52.734375,0.0
1733975714.3344517,29.78515625,-18.06640625,-72.75390625,-39.55078125,0.0
1733975714.3383572,-27.34375,0.9765625,-21.97265625,-49.8046875,0.0
1733975714.3422625,-72.265625,-2.44140625,-20.99609375,-71.77734375,0.0
1733975714.346168,-48.828125,-19.04296875,-31.25,-53.22265625,0.0
1733975714.3500736,0.9765625,-25.390625,-24.4140625,-33.69140625,0.0
1733975714.3539789,12.6953125,-19.53125,-26.3671875,-29.296875,0.0
1733975714.3578844,-28.80859375,-25.87890625,-44.921875,-41.9921875,0.0
1733975714.3618035,-63.96484375,-21.97265625,-37.109375,-57.12890625,0.0
1733975714.3657088,-53.7109375,-30.76171875,-35.64453125,-55.17578125,0.0
1733975714.3696144,1.953125,-47.36328125,-42.48046875,-45.8984375,0.0
1733975714.3735197,30.2734375,-25.87890625,-40.0390625,-30.76171875,0.0
1733975714.3774252,-6.34765625,-17.08984375,-40.52734375,-28.3203125,0.0
1733975714.3813307,-57.6171875,-53.22265625,-37.109375,-46.38671875,0.0
1733975714.385236,-59.5703125,-60.05859375,-50.29296875,-42.48046875,0.0
1733975714.3891416,-17.08984375,-11.71875,-62.5,-33.203125,0.0
1733975714.393047,16.11328125,-14.6484375,-36.62109375,-22.4609375,0.0
1733975714.3969524,-6.8359375,-37.59765625,-33.203125,-29.78515625,0.0
1733975714.400858,-73.73046875,-32.2265625,-53.7109375,-53.22265625,0.0
1733975714.4047632,-82.51953125,-16.6015625,-56.640625,-54.19921875,0.0
1733975714.408574,-20.5078125,-11.23046875,-39.55078125,-36.1328125,0.0
1733975714.4124796,18.06640625,-21.484375,-24.4140625,-36.62109375,0.0
1733975714.416385,-3.90625,-23.4375,-26.3671875,-55.17578125,0.0
1733975714.4202905,-52.734375,-20.99609375,-34.66796875,-68.359375,0.0
1733975714.424196,-72.75390625,-25.390625,-32.2265625,-77.63671875,0.0
1733975714.4281013,-48.33984375,-23.4375,-34.66796875,-65.4296875,0.0
1733975714.4320068,7.8125,-31.25,-42.96875,-40.52734375,0.0
1733975714.4359121,-3.90625,-45.8984375,-48.33984375,-43.9453125,0.0
1733975714.4398177,-62.01171875,-25.390625,-42.96875,-73.73046875,0.0
1733975714.4437232,-92.28515625,-12.6953125,-41.50390625,-108.88671875,0.0
1733975714.4476285,-77.1484375,-19.53125,-51.7578125,-103.02734375,0.0
1733975714.451534,-30.76171875,-10.7421875,-42.96875,-78.61328125,0.0
1733975714.455298,-40.0390625,-0.9765625,-38.57421875,-83.0078125,0.0
1733975714.4592035,-100.09765625,-1.953125,-50.78125,-118.65234375,0.0
1733975714.463109,-134.765625,-8.7890625,-51.7578125,-147.94921875,0.0
1733975714.4670143,-116.69921875,-7.32421875,-54.6875,-152.34375,0.0
1733975714.4709198,-87.890625,9.765625,-58.10546875,-133.30078125,0.0
1733975714.4748251,-98.6328125,16.6015625,-48.33984375,-156.25,0.0
1733975714.4787307,-164.0625,8.7890625,-61.03515625,-203.125,0.0
1733975714.4826362,-224.12109375,4.39453125,-74.70703125,-212.890625,0.0
1733975714.4865415,-205.078125,1.46484375,-85.44921875,-232.421875,0.0
1733975714.490447,-162.109375,-9.27734375,-80.078125,-226.5625,0.0
1733975714.4943523,-169.43359375,-11.23046875,-65.91796875,-226.5625,0.0
1733975714.4982579,-241.69921875,-12.20703125,-55.6640625,-263.18359375,0.0
1733975714.5020149,-274.4140625,-17.08984375,-52.24609375,-286.1328125,0.0
1733975714.5059204,-261.71875,-24.90234375,-80.56640625,-295.41015625,0.0
1733975714.5098257,-211.42578125,-18.5546875,-83.984375,-277.83203125,0.0
1733975714.5137312,-170.41015625,-12.6953125,-76.171875,-249.0234375,0.0
1733975714.5176368,-218.26171875,-14.16015625,-80.078125,-262.20703125,0.0
1733975714.521542,-270.99609375,-18.5546875,-80.078125,-285.15625,0.0
1733975714.5254476,-235.83984375,-27.83203125,-94.7265625,-250.9765625,0.0
1733975714.5293531,-163.0859375,-35.64453125,-105.46875,-207.03125,0.0
1733975714.5332584,-123.046875,-36.1328125,-87.40234375,-193.84765625,0.0
1733975714.537164,-139.16015625,-34.1796875,-81.54296875,-190.4296875,0.0
1733975714.5410693,-191.40625,-34.66796875,-96.6796875,-173.828125,0.0
1733975714.5449748,-169.43359375,-32.71484375,-101.5625,-170.41015625,0.0
1733975714.548596,-99.609375,-25.390625,-81.0546875,-154.296875,0.0
1733975714.5525014,-66.40625,-35.15625,-60.546875,-128.41796875,0.0
1733975714.556407,-81.54296875,-45.41015625,-74.21875,-115.72265625,0.0
1733975714.5603123,-134.27734375,-48.33984375,-80.078125,-123.046875,0.0
1733975714.5642178,-119.62890625,-51.26953125,-74.70703125,-120.60546875,0.0
1733975714.568123,-39.55078125,-47.36328125,-77.63671875,-88.37890625,0.0
1733975714.5720286,6.34765625,-53.22265625,-78.61328125,-39.55078125,0.0
1733975714.5759342,-27.34375,-65.4296875,-62.98828125,-43.45703125,0.0
1733975714.5798395,-92.7734375,-75.68359375,-56.640625,-78.125,0.0
1733975714.583745,-89.35546875,-74.21875,-56.640625,-70.3125,0.0
1733975714.5876503,-7.32421875,-71.77734375,-59.08203125,-35.64453125,0.0
1733975714.5915558,69.82421875,-76.66015625,-51.26953125,-12.6953125,0.0
1733975714.5957794,41.50390625,-77.63671875,-68.84765625,9.27734375,0.0
1733975714.599685,-38.57421875,-78.61328125,-66.89453125,-9.765625,0.0
1733975714.6035903,-50.78125,-76.66015625,-48.33984375,-22.94921875,0.0
1733975714.6074958,-0.48828125,-66.89453125,-42.96875,-1.953125,0.0
1733975714.6114013,55.6640625,-59.5703125,-38.57421875,34.1796875,0.0
1733975714.6153066,61.5234375,-77.1484375,-49.31640625,40.0390625,0.0
1733975714.6192122,14.6484375,-72.265625,-43.45703125,3.90625,0.0
1733975714.6231177,-24.90234375,-59.5703125,-32.71484375,-12.6953125,0.0
1733975714.627023,10.25390625,-56.640625,-37.109375,-3.41796875,0.0
1733975714.6309285,68.84765625,-53.7109375,-46.875,25.87890625,0.0
1733975714.6348338,64.94140625,-62.5,-39.0625,43.45703125,0.0
1733975714.6387393,2.9296875,-57.12890625,-27.83203125,13.18359375,0.0
1733975714.6427987,-20.5078125,-54.6875,-21.97265625,9.765625,0.0
1733975714.646704,14.16015625,-77.63671875,-47.36328125,24.90234375,0.0
1733975714.6506095,55.6640625,-57.12890625,-72.265625,20.99609375,0.0
1733975714.654515,80.078125,-32.2265625,-44.43359375,20.99609375,0.0
1733975714.6584203,48.828125,-31.73828125,-0.48828125,13.18359375,0.0
1733975714.6623259,-6.34765625,-39.55078125,-7.8125,8.30078125,0.0
1733975714.6662312,-2.9296875,-48.33984375,-19.04296875,6.8359375,0.0
1733975714.6701367,38.0859375,-36.1328125,-0.48828125,12.6953125,0.0
1733975714.6740422,72.265625,-35.15625,-9.27734375,29.296875,0.0
1733975714.6779475,29.78515625,-45.8984375,-25.390625,27.34375,0.0
1733975714.681853,-37.59765625,-43.45703125,-18.5546875,0.48828125,0.0
1733975714.6857584,-19.04296875,-45.41015625,-25.390625,-13.18359375,0.0
1733975714.6898277,48.828125,-41.50390625,-33.203125,0.0,0.0
1733975714.693733,88.37890625,-31.73828125,-31.25,0.0,0.0
1733975714.6976385,44.43359375,-4.8828125,-27.83203125,0.0,0.0
1733975714.701544,-33.69140625,-2.9296875,-19.53125,0.0,0.0
1733975714.7054493,-24.4140625,-23.92578125,-11.23046875,0.0,0.0
1733975714.7093549,29.78515625,-24.4140625,-1.46484375,0.0,0.0
1733975714.7132602,67.87109375,-16.11328125,0.48828125,0.0,0.0
1733975714.7171657,26.85546875,-23.92578125,-18.5546875,0.0,0.0
1733975714.7210712,-23.92578125,-27.34375,-29.78515625,0.0,0.0
1733975714.7249765,-3.41796875,-11.23046875,-7.32421875,0.0,0.0
1733975714.728882,21.484375,-13.671875,-16.6015625,0.0,0.0
1733975714.7327874,44.921875,-6.34765625,-30.76171875,0.0,0.0
1733975714.7366922,34.1796875,-5.37109375,-8.30078125,-9.27734375,0.0
1733975714.7405977,-25.390625,-13.18359375,-17.08984375,-31.73828125,0.0
1733975714.744503,-32.2265625,-12.20703125,-22.94921875,-34.1796875,0.0
1733975714.7484086,7.8125,-3.41796875,-1.46484375,-24.4140625,0.0
1733975714.7523139,45.8984375,-12.20703125,-0.9765625,0.48828125,0.0
1733975714.7562194,44.43359375,-14.6484375,-14.16015625,13.671875,0.0
1733975714.760125,-25.390625,1.953125,-14.16015625,-11.71875,0.0
1733975714.7640302,-49.8046875,0.0,-15.13671875,-30.76171875,0.0
1733975714.7679358,14.16015625,-13.18359375,-16.6015625,-2.44140625,0.0
1733975714.771841,55.6640625,-9.765625,-22.94921875,15.13671875,0.0
1733975714.7757466,48.33984375,-10.7421875,-41.50390625,9.765625,0.0
1733975714.779652,-7.8125,-23.92578125,-20.01953125,-6.8359375,0.0
1733975714.7834795,-50.78125,-22.4609375,-7.32421875,-34.1796875,0.0
1733975714.7873847,-10.25390625,-4.8828125,-18.06640625,-21.484375,0.0
1733975714.7912903,35.15625,-0.9765625,-15.625,4.39453125,0.0
1733975714.7951956,26.85546875,-11.23046875,-19.04296875,-3.41796875,0.0
1733975714.799101,-32.2265625,-19.53125,-22.4609375,-29.78515625,0.0
1733975714.8030066,-58.10546875,-24.4140625,-35.64453125,-48.33984375,0.0
1733975714.806912,-20.01953125,-17.578125,-35.15625,-36.62109375,0.0
1733975714.8108175,26.3671875,-14.6484375,-30.76171875,-4.8828125,0.0
1733975714.8147228,32.71484375,-32.2265625,-26.85546875,-5.37109375,0.0
1733975714.8186283,-21.484375,-38.57421875,-16.6015625,-30.76171875,0.0
1733975714.8225338,-59.5703125,-29.78515625,-44.43359375,-35.15625,0.0
1733975714.8264391,-34.1796875,-23.92578125,-52.24609375,-15.13671875,0.0
1733975714.8302023,13.18359375,-25.390625,-30.76171875,-0.48828125,0.0
1733975714.8341079,33.69140625,-31.25,-38.57421875,-12.20703125,0.0
1733975714.8380132,-11.23046875,-31.25,-31.73828125,-35.15625,0.0
1733975714.8419187,-65.91796875,-28.3203125,-20.01953125,-53.7109375,0.0
1733975714.8458242,-47.36328125,-31.73828125,-13.18359375,-55.17578125,0.0
1733975714.8497295,-1.46484375,-31.25,-23.4375,-33.203125,0.0
1733975714.853635,6.8359375,-29.296875,-37.59765625,-13.18359375,0.0
1733975714.8575404,-30.2734375,-40.0390625,-36.1328125,-13.671875,0.0
1733975714.861446,-72.265625,-37.109375,-34.1796875,-44.921875,0.0
1733975714.8653514,-54.19921875,-18.5546875,-38.57421875,-41.015625,0.0
1733975714.8692567,3.90625,-7.8125,-42.48046875,-23.92578125,0.0
1733975714.8731623,16.11328125,-14.6484375,-39.55078125,-19.53125,0.0
1733975714.8768682,-25.390625,-22.4609375,-34.66796875,-35.64453125,0.0
1733975714.8807735,-77.63671875,-27.34375,-33.203125,-66.89453125,0.0
1733975714.884679,-74.21875,-31.73828125,-40.52734375,-62.5,0.0
1733975714.8885846,-20.01953125,-30.2734375,-36.62109375,-38.0859375,0.0
1733975714.89249,18.5546875,-24.90234375,-16.6015625,-20.01953125,0.0
1733975714.8963954,2.9296875,-27.83203125,-20.99609375,-39.0625,0.0
1733975714.9003007,-60.05859375,-38.0859375,-34.66796875,-40.0390625,0.0
1733975714.9042063,-54.6875,-36.62109375,-37.59765625,-7.32421875,0.0
1733975714.9081118,2.9296875,-25.87890625,-37.59765625,-18.06640625,0.0
1733975714.912017,25.87890625,-18.5546875,-40.0390625,-40.0390625,0.0
1733975714.9159226,0.0,-23.4375,-46.875,-25.87890625,0.0
1733975714.919828,-52.24609375,-31.25,-37.59765625,-34.1796875,0.0
1733975714.924105,-41.50390625,-12.6953125,-28.80859375,-37.109375,0.0
1733975714.9280102,-6.34765625,-20.99609375,-48.828125,-29.78515625,0.0
1733975714.9319158,11.71875,-17.578125,-51.7578125,-28.80859375,0.0
1733975714.935821,11.23046875,-4.8828125,-43.9453125,-29.78515625,0.0
1733975714.9397266,-30.76171875,2.9296875,-49.8046875,-39.55078125,0.0
1733975714.9436321,-44.43359375,10.25390625,-53.7109375,-36.62109375,0.0
1733975714.9475374,0.9765625,1.953125,-54.19921875,-20.5078125,0.0
1733975714.951443,41.015625,2.44140625,-39.55078125,-2.44140625,0.0
1733975714.9553483,41.015625,-3.90625,-39.0625,-5.859375,0.0
1733975714.9592538,6.8359375,-14.6484375,-49.8046875,-21.484375,0.0
1733975714.9631593,-21.484375,-16.11328125,-63.96484375,-24.90234375,0.0
1733975714.9670646,0.9765625,-10.25390625,-62.01171875,-13.671875,0.0
1733975714.9711907,54.6875,-7.8125,-35.15625,11.23046875,0.0
1733975714.975096,48.33984375,-1.46484375,-56.640625,12.6953125,0.0
1733975714.9790015,-19.53125,-3.90625,-64.94140625,-19.53125,0.0
1733975714.982907,-43.45703125,-16.11328125,-20.99609375,-36.62109375,0.0
1733975714.9868124,-0.9765625,-7.32421875,-20.5078125,-27.34375,0.0
1733975714.990718,40.0390625,1.46484375,-37.59765625,-26.85546875,0.0
1733975714.9946234,30.2734375,-3.90625,-36.1328125,-29.296875,0.0
1733975714.9985287,-11.23046875,-8.7890625,-34.1796875,-27.34375,0.0
1733975715.0024343,-26.3671875,-20.01953125,-50.29296875,-41.50390625,0.0
1733975715.0063396,-13.671875,-42.48046875,-57.12890625,-47.36328125,0.0
1733975715.010245,10.25390625,-25.390625,-41.9921875,-31.73828125,0.0
1733975715.0141506,35.15625,-4.39453125,-38.0859375,-25.390625,0.0
1733975715.0181978,2.9296875,-6.8359375,-32.71484375,-22.94921875,0.0
1733975715.0221033,-46.38671875,-11.71875,-48.828125,-37.109375,0.0
1733975715.0260086,-31.25,-20.01953125,-66.40625,-46.875,0.0
1733975715.0299141,29.78515625,-18.06640625,-38.57421875,-20.01953125,0.0
1733975715.0338194,43.45703125,-16.6015625,-21.97265625,3.90625,0.0
1733975715.037725,-6.34765625,-24.4140625,-46.38671875,-12.6953125,0.0
1733975715.0416305,-44.921875,-21.484375,-61.03515625,-35.15625,0.0
1733975715.0455358,-48.33984375,-25.390625,-42.48046875,-51.26953125,0.0
1733975715.0494413,-1.953125,-33.203125,-36.1328125,-38.57421875,0.0
1733975715.0533466,32.71484375,-18.06640625,-39.0625,-1.953125,0.0
1733975715.0572522,1.953125,-13.18359375,-31.73828125,-5.37109375,0.0
1733975715.0611577,-53.22265625,-17.08984375,-37.59765625,-17.578125,0.0
1733975715.0651374,-53.7109375,-15.625,-57.6171875,-37.59765625,0.0
1733975715.0690427,-7.32421875,-17.08984375,-41.015625,-42.48046875,0.0
1733975715.0729482,23.92578125,-14.16015625,-21.484375,-22.4609375,0.0
1733975715.0768538,0.48828125,-23.4375,-22.94921875,-27.83203125,0.0
1733975715.080759,-53.7109375,-35.15625,-32.71484375,-46.875,0.0
1733975715.0846646,-49.8046875,-27.83203125,-57.12890625,-46.38671875,0.0
1733975715.0885699,-4.8828125,-30.2734375,-55.6640625,-23.92578125,0.0
1733975715.0924754,26.3671875,-32.2265625,-28.3203125,-4.8828125,0.0
1733975715.096381,5.37109375,-33.203125,-47.8515625,3.41796875,0.0
1733975715.1002862,-56.15234375,-33.203125,-42.96875,-18.06640625,0.0
1733975715.1041918,-60.546875,-32.71484375,-20.5078125,-49.31640625,0.0
1733975715.1080973,-29.296875,-35.64453125,-17.578125,-43.45703125,0.0
1733975715.112018,9.765625,-27.83203125,-18.06640625,-18.06640625,0.0
1733975715.1159236,5.37109375,-24.4140625,-20.01953125,-21.484375,0.0
1733975715.1198292,-67.87109375,-40.52734375,-33.203125,-45.8984375,0.0
1733975715.1237345,-107.91015625,-37.59765625,-42.48046875,-54.6875,0.0
1733975715.12764,-41.50390625,-25.390625,-45.8984375,-50.29296875,0.0
1733975715.1315453,13.18359375,-16.11328125,-61.5234375,-23.92578125,0.0
1733975715.1354508,-8.7890625,-20.01953125,-40.52734375,-10.25390625,0.0
1733975715.1393564,-42.96875,-32.71484375,-25.87890625,-20.5078125,0.0
1733975715.1432617,-73.2421875,-41.015625,-31.25,-27.83203125,0.0
1733975715.1471672,-54.6875,-25.390625,-31.73828125,-34.66796875,0.0
1733975715.1510727,16.11328125,-10.25390625,-40.0390625,-16.11328125,0.0
1733975715.154978,41.50390625,-16.6015625,-41.9921875,8.30078125,0.0
1733975715.1587677,-23.92578125,-20.99609375,-34.1796875,-19.04296875,0.0
1733975715.162673,-83.49609375,-28.3203125,-22.4609375,-58.59375,0.0
1733975715.1665785,-62.01171875,-39.0625,-18.5546875,-66.89453125,0.0
1733975715.170484,-43.45703125,-42.48046875,-24.4140625,-61.03515625,0.0
1733975715.1743894,-46.38671875,-42.96875,-31.73828125,-54.6875,0.0
1733975715.178295,-98.6328125,-49.31640625,-37.109375,-72.75390625,0.0
1733975715.1822002,-146.484375,-54.6875,-36.62109375,-111.81640625,0.0
1733975715.1861057,-123.53515625,-60.546875,-33.69140625,-110.3515625,0.0
1733975715.1900113,-73.2421875,-53.22265625,-47.36328125,-94.7265625,0.0
1733975715.1939166,-40.0390625,-53.7109375,-61.03515625,-73.2421875,0.0
1733975715.197822,-87.890625,-65.4296875,-43.45703125,-69.82421875,0.0
1733975715.2017274,-130.859375,-49.8046875,-19.04296875,-95.703125,0.0
1733975715.2054937,-109.375,-37.59765625,-16.11328125,-102.5390625,0.0
1733975715.209399,-60.546875,-37.59765625,-9.765625,-77.1484375,0.0
1733975715.2133045,-28.80859375,-46.38671875,-11.71875,-55.6640625,0.0
1733975715.2172098,-64.94140625,-42.96875,-30.76171875,-76.171875,0.0
1733975715.2211154,-109.86328125,-30.76171875,-38.0859375,-83.49609375,0.0
1733975715.225021,-100.5859375,-37.59765625,-31.73828125,-88.37890625,0.0
1733975715.2289262,-39.0625,-39.0625,-48.33984375,-63.4765625,0.0
1733975715.2328317,4.39453125,-31.25,-57.12890625,-9.765625,0.0
1733975715.2367373,-40.0390625,-32.2265625,-33.69140625,-55.17578125,0.0
1733975715.2406425,-84.47265625,-37.59765625,-21.484375,-94.23828125,0.0
1733975715.244548,-77.63671875,-39.55078125,-22.4609375,-83.0078125,0.0
1733975715.2484534,-37.59765625,-46.875,-23.92578125,-67.3828125,0.0
1733975715.2521582,0.0,-39.55078125,-19.04296875,-40.0390625,0.0
1733975715.2560637,-32.71484375,-33.203125,-29.296875,-48.33984375,0.0
1733975715.259969,-87.890625,-44.43359375,-33.203125,-68.359375,0.0
1733975715.2638745,-89.35546875,-43.45703125,-21.97265625,-75.1953125,0.0
1733975715.2677798,-35.64453125,-38.57421875,-29.78515625,-68.84765625,0.0
1733975715.2716854,-1.953125,-44.43359375,-32.71484375,-41.015625,0.0
1733975715.275591,-17.08984375,-47.8515625,-45.8984375,-20.01953125,0.0
1733975715.2794962,-66.89453125,-43.45703125,-48.828125,-42.96875,0.0
1733975715.2834017,-86.9140625,-36.62109375,-39.55078125,-71.2890625,0.0
1733975715.287307,-41.015625,-35.15625,-44.921875,-65.4296875,0.0
1733975715.2912126,-7.8125,-41.50390625,-34.66796875,-44.921875,0.0
1733975715.295118,-10.7421875,-40.52734375,-21.484375,-46.38671875,0.0
1733975715.298742,-55.17578125,-34.1796875,-14.6484375,-59.5703125,0.0
1733975715.3026476,-93.75,-42.48046875,-23.4375,-68.84765625,0.0
1733975715.3065531,-55.17578125,-37.59765625,-30.2734375,-65.4296875,0.0
1733975715.3104584,26.85546875,-20.01953125,-30.2734375,-31.73828125,0.0
1733975715.314364,8.7890625,-19.53125,-34.66796875,-16.11328125,0.0
1733975715.3182693,-69.3359375,-35.64453125,-33.69140625,-46.875,0.0
1733975715.3221748,-87.890625,-37.59765625,-33.69140625,-53.22265625,0.0
1733975715.3260803,-56.640625,-23.92578125,-43.45703125,-41.015625,0.0
1733975715.3299856,6.34765625,-21.97265625,-38.0859375,-19.04296875,0.0
1733975715.3338912,7.8125,-33.203125,-17.578125,-15.625,0.0
1733975715.3377964,-51.26953125,-43.45703125,-13.671875,-53.7109375,0.0
1733975715.341702,-73.2421875,-32.2265625,-17.578125,-72.265625,0.0
1733975715.345874,-56.15234375,-23.4375,-21.97265625,-67.3828125,0.0
1733975715.3497794,-27.34375,-35.15625,-29.78515625,-32.71484375,0.0
1733975715.353685,3.90625,-27.34375,-33.203125,-14.16015625,0.0
1733975715.3575904,-14.16015625,-22.4609375,-42.48046875,-54.6875,0.0
1733975715.3614957,-82.51953125,-32.2265625,-33.69140625,-69.3359375,0.0
1733975715.3654013,-72.75390625,-24.4140625,-50.78125,-47.8515625,0.0
1733975715.3693066,-4.8828125,-22.4609375,-58.59375,-33.69140625,0.0
1733975715.373212,27.34375,-26.85546875,-16.11328125,-14.6484375,0.0
1733975715.3771176,-27.83203125,-33.69140625,-20.5078125,-31.73828125,0.0
1733975715.381023,-82.51953125,-48.33984375,-43.45703125,-47.36328125,0.0
1733975715.3849285,-66.40625,-37.109375,-13.671875,-49.31640625,0.0
1733975715.3888338,-4.39453125,-8.30078125,6.34765625,-48.33984375,0.0
1733975715.392929,45.41015625,1.953125,-2.9296875,-21.97265625,0.0
1733975715.3968346,-17.578125,-8.30078125,-10.25390625,-16.11328125,0.0
1733975715.4007401,-85.44921875,-12.6953125,-20.5078125,-34.66796875,0.0
1733975715.4046454,-57.6171875,-7.8125,-28.80859375,-59.5703125,0.0
1733975715.408551,4.39453125,-2.9296875,-25.87890625,-48.828125,0.0
1733975715.4124563,43.45703125,-13.671875,-18.06640625,-17.578125,0.0
1733975715.4163618,9.27734375,-25.87890625,-12.20703125,-22.94921875,0.0
1733975715.4202673,-55.17578125,-21.484375,-18.5546875,-45.41015625,0.0
1733975715.4241726,-53.22265625,-31.73828125,-46.38671875,-39.55078125,0.0
1733975715.4280782,11.71875,-31.25,-54.19921875,8.7890625,0.0
1733975715.4319837,43.45703125,-18.5546875,-21.97265625,7.8125,0.0
1733975715.435889,10.25390625,-31.73828125,-20.5078125,-26.85546875,0.0
1733975715.4398859,-52.734375,-20.01953125,-24.4140625,-55.6640625,0.0
1733975715.4437914,-47.8515625,4.8828125,-19.04296875,-76.66015625,0.0
1733975715.447697,6.8359375,8.30078125,-18.5546875,-53.22265625,0.0
1733975715.4516022,41.015625,18.06640625,-24.4140625,-6.8359375,0.0
1733975715.4555078,33.69140625,44.921875,-40.0390625,-5.859375,0.0
1733975715.459413,0.9765625,60.546875,-53.22265625,-29.78515625,0.0
1733975715.4633186,-14.16015625,60.546875,-58.10546875,-28.80859375,0.0
1733975715.4672241,24.4140625,55.17578125,-48.33984375,-15.625,0.0
1733975715.4711294,60.05859375,48.828125,-42.48046875,10.25390625,0.0
1733975715.475035,41.9921875,48.33984375,-39.55078125,7.32421875,0.0
1733975715.4789405,6.8359375,44.921875,-36.1328125,-18.5546875,0.0
1733975715.4828458,-10.7421875,36.62109375,-38.0859375,-30.2734375,0.0
1733975715.4867675,12.20703125,38.57421875,-41.9921875,-36.62109375,0.0
1733975715.4906728,67.87109375,44.921875,-47.36328125,-24.90234375,0.0
1733975715.4945784,71.77734375,35.15625,-41.015625,-2.44140625,0.0
1733975715.498484,13.671875,28.3203125,-25.87890625,-17.578125,0.0
1733975715.5023892,-16.11328125,30.76171875,-30.76171875,-53.7109375,0.0
1733975715.5062947,15.13671875,16.6015625,-21.97265625,-53.22265625,0.0
1733975715.5102,50.29296875,16.6015625,-18.06640625,-27.34375,0.0
1733975715.5141056,64.94140625,21.484375,-30.76171875,-20.99609375,0.0
1733975715.518011,17.578125,6.8359375,-25.390625,-41.50390625,0.0
1733975715.5219164,-53.22265625,0.48828125,-40.52734375,-58.10546875,0.0
1733975715.525822,-41.015625,11.23046875,-27.83203125,-45.8984375,0.0
1733975715.5297275,44.43359375,14.16015625,-25.390625,-26.3671875,0.0
1733975715.5335774,77.63671875,12.20703125,-81.0546875,-17.578125,0.0
1733975715.5374827,0.0,8.30078125,-65.4296875,-29.296875,0.0
1733975715.5413883,-68.359375,-6.34765625,-13.671875,-54.19921875,0.0
1733975715.5452938,-18.06640625,-9.27734375,-10.25390625,-51.26953125,0.0
1733975715.549199,36.62109375,2.9296875,-21.484375,-33.203125,0.0
1733975715.5531046,35.64453125,-1.953125,-27.34375,-18.5546875,0.0
1733975715.5570102,6.8359375,-16.11328125,-27.34375,-22.94921875,0.0
1733975715.5609155,-32.2265625,-13.671875,-36.1328125,-29.78515625,0.0
1733975715.564821,-33.203125,-0.48828125,-29.296875,-37.109375,0.0
1733975715.5687263,21.97265625,-5.859375,-29.296875,-36.62109375,0.0
1733975715.5726318,46.875,-14.16015625,-23.92578125,-6.34765625,0.0
1733975715.5765374,2.9296875,-11.71875,-16.11328125,-7.32421875,0.0
1733975715.5802927,0.0,-17.578125,-20.01953125,-28.3203125,0.0
1733975715.5841982,0.0,-8.7890625,-36.62109375,-50.78125,0.0
1733975715.5881035,0.0,-5.37109375,-53.7109375,-32.2265625,0.0
1733975715.592009,0.0,-12.20703125,-53.7109375,5.37109375,0.0
1733975715.5959146,0.0,-12.20703125,-34.1796875,-19.04296875,0.0
1733975715.59982,0.0,-12.20703125,-17.08984375,-47.36328125,0.0
1733975715.6037254,0.0,-11.71875,-20.5078125,-44.43359375,0.0
1733975715.6076307,0.0,-19.04296875,-19.53125,-26.3671875,0.0
1733975715.6115363,0.0,-27.83203125,-7.32421875,-12.6953125,0.0
1733975715.6154418,0.0,-43.9453125,-33.203125,-12.20703125,0.0
1733975715.619347,0.0,-32.71484375,-99.609375,-36.62109375,0.0
1733975715.6232526,0.0,-9.765625,-56.640625,-51.26953125,0.0
1733975715.6269622,-0.48828125,-13.671875,14.6484375,-61.03515625,0.0
1733975715.6308677,16.11328125,-14.6484375,11.23046875,-58.59375,0.0
1733975715.634773,10.7421875,-13.18359375,-23.4375,-50.78125,0.0
1733975715.6386786,-47.36328125,-20.01953125,-31.73828125,-63.4765625,0.0
1733975715.6425838,-36.1328125,-27.34375,-7.32421875,-68.359375,0.0
1733975715.6464894,-2.9296875,-29.78515625,-20.01953125,-46.38671875,0.0
1733975715.650395,35.15625,-16.6015625,-24.4140625,-15.625,0.0
1733975715.6543002,31.73828125,-6.34765625,-16.11328125,-17.578125,0.0
1733975715.6582057,-9.765625,-4.8828125,-6.34765625,-51.7578125,0.0
1733975715.662111,-8.30078125,5.859375,-13.18359375,-56.15234375,0.0
1733975715.6660166,29.78515625,11.71875,-31.25,-39.55078125,0.0
1733975715.669922,62.98828125,19.53125,-20.01953125,-19.04296875,0.0
1733975715.6735818,65.91796875,18.06640625,-12.20703125,-11.23046875,0.0
1733975715.6774871,39.55078125,9.765625,-11.71875,-34.66796875,0.0
1733975715.6813927,-4.39453125,4.8828125,-2.9296875,-52.24609375,0.0
1733975715.685298,22.94921875,6.8359375,-1.46484375,-41.9921875,0.0
1733975715.6892035,87.890625,12.20703125,-8.30078125,-20.5078125,0.0
1733975715.693109,73.73046875,8.30078125,-8.30078125,-8.30078125,0.0
1733975715.6970143,23.92578125,-5.859375,-22.94921875,-7.32421875,0.0
1733975715.7009199,12.20703125,0.48828125,-28.80859375,-17.578125,0.0
1733975715.7048252,41.9921875,11.23046875,-13.18359375,-39.55078125,0.0
1733975715.7087307,65.4296875,8.30078125,-1.46484375,-48.828125,0.0
1733975715.7126362,75.1953125,6.34765625,6.34765625,-40.52734375,0.0
1733975715.7165415,59.08203125,5.859375,10.25390625,-41.015625,0.0
1733975715.720707,15.625,7.8125,16.11328125,-47.8515625,0.0
1733975715.7246125,12.20703125,6.34765625,7.32421875,-41.50390625,0.0
1733975715.7285178,53.7109375,0.0,2.9296875,-26.85546875,0.0
1733975715.7324233,62.98828125,-10.25390625,5.37109375,-14.6484375,0.0
1733975715.7363288,19.04296875,-16.6015625,0.48828125,-22.4609375,0.0
1733975715.7402341,-6.8359375,-11.23046875,-10.25390625,-36.1328125,0.0
1733975715.7441397,31.25,-5.859375,-24.4140625,-36.62109375,0.0
1733975715.748045,68.359375,1.46484375,-11.71875,-23.4375,0.0
1733975715.7519505,83.0078125,0.9765625,12.6953125,-5.37109375,0.0
1733975715.755856,55.6640625,-16.6015625,13.18359375,-14.16015625,0.0
1733975715.7597613,10.7421875,-17.08984375,13.671875,-40.52734375,0.0
1733975715.7636669,0.0,-14.16015625,20.99609375,-38.57421875,0.0
1733975715.7683375,42.48046875,-9.27734375,12.6953125,-4.39453125,0.0
1733975715.772243,64.453125,-13.671875,14.16015625,27.34375,0.0
1733975715.7761483,52.24609375,-20.5078125,20.5078125,21.97265625,0.0
1733975715.7800539,17.08984375,-17.578125,1.953125,6.8359375,0.0
1733975715.7839592,11.71875,-13.18359375,3.41796875,-1.953125,0.0
1733975715.7878647,52.24609375,-16.6015625,5.37109375,23.4375,0.0
1733975715.7917702,53.22265625,-12.20703125,3.41796875,42.96875,0.0
1733975715.7956755,38.57421875,-13.18359375,-13.671875,24.4140625,0.0
1733975715.799581,6.8359375,-20.01953125,-4.39453125,6.34765625,0.0
1733975715.8034866,-4.39453125,-27.83203125,9.27734375,13.671875,0.0
1733975715.807392,34.1796875,-26.3671875,8.7890625,38.57421875,0.0
1733975715.8112974,77.1484375,-24.4140625,24.90234375,57.6171875,0.0
1733975715.8152819,55.17578125,-21.97265625,21.484375,66.89453125,0.0
1733975715.8191874,17.08984375,-14.16015625,7.8125,53.7109375,0.0
1733975715.8230927,1.46484375,-25.390625,-6.34765625,41.9921875,0.0
1733975715.8269982,28.80859375,-38.57421875,-18.06640625,70.3125,0.0
1733975715.8309035,55.6640625,-37.59765625,9.27734375,87.40234375,0.0
1733975715.834809,43.45703125,-41.9921875,21.484375,69.82421875,0.0
1733975715.8387146,30.76171875,-41.9921875,17.578125,57.12890625,0.0
1733975715.84262,16.11328125,-43.9453125,16.6015625,56.15234375,0.0
1733975715.8465254,25.87890625,-51.7578125,-3.41796875,71.2890625,0.0
1733975715.850431,59.08203125,-47.8515625,-3.41796875,77.63671875,0.0
1733975715.8543363,75.68359375,-41.50390625,11.71875,89.35546875,0.0
1733975715.8582418,47.36328125,-20.99609375,-3.41796875,76.66015625,0.0
1733975715.8621123,16.11328125,-23.92578125,-16.11328125,84.47265625,0.0
1733975715.8660176,32.2265625,-38.0859375,9.27734375,86.42578125,0.0
1733975715.869923,51.7578125,-24.90234375,22.94921875,81.54296875,0.0
1733975715.8738286,68.84765625,-55.17578125,24.90234375,72.75390625,0.0
1733975715.877734,44.43359375,-82.03125,22.4609375,36.62109375,0.0
1733975715.8816395,8.7890625,-24.90234375,10.7421875,3.90625,0.0
1733975715.8855448,8.30078125,10.25390625,-0.9765625,19.04296875,0.0
1733975715.8894503,53.7109375,0.48828125,7.32421875,45.41015625,0.0
1733975715.8933558,60.546875,-8.7890625,19.04296875,65.4296875,0.0
1733975715.8972611,20.99609375,-11.71875,28.80859375,46.875,0.0
1733975715.9011667,-5.37109375,-20.01953125,15.13671875,15.625,0.0
1733975715.9050722,2.44140625,-25.390625,12.20703125,15.13671875,0.0
1733975715.9089065,41.015625,-20.01953125,30.76171875,32.2265625,0.0
1733975715.912812,51.26953125,-23.92578125,38.57421875,31.73828125,0.0
1733975715.9167175,36.1328125,-31.73828125,26.3671875,23.4375,0.0
1733975715.9206228,17.08984375,-31.73828125,26.85546875,2.9296875,0.0
1733975715.9245284,40.52734375,-49.31640625,34.66796875,-32.2265625,0.0
1733975715.928434,68.359375,-40.0390625,19.04296875,-20.99609375,0.0
1733975715.9323392,52.24609375,-13.18359375,12.6953125,-2.44140625,0.0
1733975715.9362447,32.71484375,-15.625,13.18359375,-2.44140625,0.0
1733975715.94015,23.4375,-10.25390625,20.01953125,-31.73828125,0.0
1733975715.9440556,22.94921875,-3.90625,-2.9296875,-33.69140625,0.0
1733975715.947961,56.15234375,1.46484375,-10.7421875,-10.7421875,0.0
1733975715.9518664,72.265625,3.90625,22.94921875,-26.85546875,0.0
1733975715.9556172,58.59375,-9.765625,28.80859375,-38.57421875,0.0
1733975715.9595227,32.2265625,-21.97265625,26.85546875,-51.26953125,0.0
1733975715.963428,4.39453125,-21.484375,28.80859375,-59.08203125,0.0
1733975715.9673336,37.59765625,-25.390625,20.01953125,-46.38671875,0.0
1733975715.9712389,64.94140625,-24.4140625,15.625,-30.76171875,0.0
1733975715.9751444,51.7578125,-14.6484375,19.53125,-37.109375,0.0
1733975715.97905,37.59765625,-5.859375,17.08984375,-62.01171875,0.0
1733975715.9829552,37.59765625,-14.6484375,14.16015625,-49.8046875,0.0
1733975715.9868608,74.70703125,-25.87890625,26.85546875,-50.29296875,0.0
1733975715.9907663,86.9140625,-18.5546875,17.578125,-84.9609375,0.0
1733975715.9946716,65.4296875,-21.97265625,10.25390625,-52.24609375,0.0
1733975715.998577,51.7578125,-22.94921875,15.13671875,-57.12890625,0.0
1733975716.0023372,22.4609375,-3.41796875,-0.9765625,-76.171875,0.0
1733975716.0062425,59.08203125,0.48828125,13.18359375,-58.10546875,0.0
1733975716.010148,101.07421875,-6.34765625,20.5078125,-58.10546875,0.0
1733975716.0140533,94.23828125,-5.37109375,-13.18359375,-44.43359375,0.0
1733975716.0179589,47.36328125,-12.20703125,2.44140625,-54.6875,0.0
1733975716.0218644,15.625,-15.625,20.01953125,-65.4296875,0.0
1733975716.0257697,56.640625,-8.7890625,22.4609375,-52.24609375,0.0
1733975716.0296752,92.28515625,-0.48828125,-9.765625,-26.85546875,0.0
1733975716.0335808,78.125,5.859375,-33.69140625,-26.3671875,0.0
1733975716.037486,40.0390625,-9.27734375,-17.578125,-49.8046875,0.0
1733975716.0413916,31.25,-25.87890625,20.01953125,-73.73046875,0.0
1733975716.045297,42.48046875,-19.53125,69.82421875,-75.1953125,0.0
1733975716.048919,63.4765625,-18.5546875,60.05859375,-69.82421875,0.0
1733975716.0528243,70.3125,-22.94921875,19.04296875,-40.0390625,0.0
1733975716.0567298,31.73828125,-10.25390625,23.92578125,-48.33984375,0.0
1733975716.0606353,16.11328125,-8.7890625,25.390625,-64.453125,0.0
1733975716.0645406,35.15625,-20.01953125,14.16015625,-66.40625,0.0
1733975716.0684462,76.171875,-6.34765625,18.5546875,-48.828125,0.0
1733975716.0723517,79.58984375,-3.41796875,9.765625,-14.16015625,0.0
1733975716.076257,48.33984375,-13.671875,20.5078125,-36.62109375,0.0
1733975716.0801625,30.76171875,-6.34765625,18.06640625,-79.58984375,0.0
1733975716.0840678,21.97265625,6.34765625,-8.30078125,-56.640625,0.0
1733975716.0879734,46.38671875,9.27734375,0.0,-12.20703125,0.0
1733975716.091879,70.80078125,-9.27734375,-14.16015625,-7.8125,0.0
1733975716.096027,39.55078125,-19.04296875,-11.23046875,-41.9921875,0.0
1733975716.0999324,-0.9765625,-4.39453125,23.4375,-84.47265625,0.0
1733975716.103838,6.34765625,6.34765625,27.83203125,-93.75,0.0
1733975716.1077433,33.203125,0.9765625,23.92578125,-67.87109375,0.0
1733975716.1116488,62.01171875,-7.32421875,18.5546875,-35.64453125,0.0
1733975716.115554,36.62109375,-11.71875,2.9296875,-24.4140625,0.0
1733975716.1194596,1.46484375,-7.32421875,-10.7421875,-58.59375,0.0
1733975716.1233652,8.7890625,1.953125,-11.23046875,-82.51953125,0.0
1733975716.1272705,28.80859375,-7.8125,-10.25390625,-70.80078125,0.0
1733975716.131176,40.52734375,-18.5546875,0.9765625,-37.59765625,0.0
1733975716.1350813,20.01953125,-8.30078125,-4.8828125,-37.109375,0.0
1733975716.1389868,8.30078125,-5.859375,-7.8125,-83.984375,0.0
1733975716.1430333,10.7421875,-17.08984375,2.9296875,-84.47265625,0.0
1733975716.1469388,19.53125,-11.71875,-4.39453125,-74.21875,0.0
1733975716.1508443,40.52734375,-2.44140625,-11.71875,-54.6875,0.0
1733975716.1547496,27.34375,-5.37109375,7.8125,-42.96875,0.0
1733975716.1586552,-5.859375,-15.13671875,7.8125,-73.2421875,0.0
1733975716.1625607,0.0,-14.16015625,-24.4140625,-68.84765625,0.0
1733975716.166466,55.17578125,-17.578125,-10.25390625,-21.97265625,0.0
1733975716.1703715,63.4765625,-28.80859375,16.6015625,-22.94921875,0.0
1733975716.1742768,3.41796875,-34.66796875,25.87890625,-36.1328125,0.0
1733975716.1781824,-36.62109375,-33.203125,23.4375,-51.7578125,0.0
1733975716.182088,-52.24609375,-19.04296875,26.85546875,-98.6328125,0.0
1733975716.1859932,-37.109375,-28.80859375,30.76171875,-91.30859375,0.0
1733975716.1899624,-16.11328125,-41.50390625,25.390625,-71.2890625,0.0
1733975716.1938677,-29.296875,-47.36328125,21.484375,-80.078125,0.0
1733975716.1977732,-41.50390625,-59.5703125,18.06640625,-104.00390625,0.0
1733975716.2016785,-64.453125,-58.10546875,11.71875,-116.2109375,0.0
1733975716.205584,-59.08203125,-50.78125,16.11328125,-106.4453125,0.0
1733975716.2094896,0.0,-46.875,6.8359375,-71.77734375,0.0
1733975716.2133949,12.20703125,-55.17578125,-3.90625,-53.22265625,0.0
1733975716.2173004,-23.4375,-54.19921875,5.859375,-73.73046875,0.0
1733975716.2212057,-24.90234375,-48.828125,7.8125,-73.73046875,0.0
1733975716.2251112,-10.25390625,-57.12890625,13.671875,-69.82421875,0.0
1733975716.2290168,12.6953125,-53.7109375,29.78515625,-48.33984375,0.0
1733975716.232922,31.25,-42.48046875,30.2734375,-15.625,0.0
1733975716.2368374,8.30078125,-36.62109375,32.71484375,-26.3671875,0.0
1733975716.2407427,-20.5078125,-36.62109375,34.1796875,-48.828125,0.0
1733975716.2446482,-5.859375,-38.0859375,20.01953125,-60.05859375,0.0
1733975716.2485535,11.23046875,-36.1328125,6.34765625,-48.828125,0.0
1733975716.252459,7.32421875,-37.59765625,12.6953125,-37.59765625,0.0
1733975716.2563646,0.0,-42.96875,-0.9765625,-42.96875,0.0
1733975716.2602699,-17.08984375,-41.9921875,-39.0625,-44.43359375,0.0
1733975716.2641754,-16.11328125,-39.0625,-16.11328125,-51.7578125,0.0
1733975716.268081,21.97265625,-55.6640625,10.25390625,-32.2265625,0.0
1733975716.2719862,27.34375,-65.4296875,8.30078125,-17.578125,0.0
1733975716.2758918,-5.859375,-34.66796875,6.8359375,-38.0859375,0.0
1733975716.279797,-18.06640625,-18.06640625,-7.32421875,-41.9921875,0.0
1733975716.2836387,-5.37109375,-28.80859375,-25.390625,-44.43359375,0.0
1733975716.2875443,25.87890625,-35.15625,-23.92578125,-41.50390625,0.0
1733975716.2914495,30.2734375,-34.66796875,-8.30078125,-23.4375,0.0
1733975716.295355,28.80859375,-35.64453125,-1.46484375,-22.94921875,0.0
1733975716.2992604,12.20703125,-32.71484375,5.37109375,-50.78125,0.0
1733975716.303166,10.25390625,-31.25,9.765625,-48.828125,0.0
1733975716.3070714,33.203125,-33.69140625,4.8828125,-35.64453125,0.0
1733975716.3109767,21.97265625,-49.8046875,-5.37109375,-19.53125,0.0
1733975716.3148823,18.06640625,-45.8984375,-6.34765625,-24.90234375,0.0
1733975716.3187878,16.6015625,-53.7109375,-11.23046875,-58.10546875,0.0
1733975716.322693,-28.80859375,-68.359375,-7.32421875,-56.640625,0.0
1733975716.3265986,-27.34375,-52.734375,-7.8125,-32.2265625,0.0
1733975716.3303726,5.859375,-58.59375,-13.671875,-15.625,0.0
1733975716.334278,1.46484375,-49.31640625,-6.34765625,-30.76171875,0.0
1733975716.3381836,-29.296875,-40.52734375,-40.52734375,-46.875,0.0
1733975716.342089,-41.015625,-45.8984375,-31.25,-55.17578125,0.0
1733975716.3459945,-19.04296875,-46.38671875,14.16015625,-41.50390625,0.0
1733975716.3498998,14.6484375,-47.36328125,7.8125,-31.73828125,0.0
1733975716.3538053,19.04296875,-53.22265625,-6.34765625,-50.29296875,0.0
1733975716.3577108,-18.5546875,-59.08203125,-8.7890625,-52.24609375,0.0
1733975716.3616161,-41.9921875,-51.7578125,-5.37109375,-70.3125,0.0
1733975716.3655217,-9.27734375,-48.828125,-5.37109375,-59.5703125,0.0
1733975716.369427,18.06640625,-57.6171875,-16.11328125,-17.578125,0.0
1733975716.3733325,17.578125,-62.01171875,-11.23046875,-11.23046875,0.0
1733975716.3770263,9.27734375,-47.8515625,7.8125,-31.73828125,0.0
1733975716.3809319,-18.5546875,-41.015625,6.34765625,-49.31640625,0.0
1733975716.3848374,-17.08984375,-46.38671875,5.859375,-26.3671875,0.0
1733975716.3887427,32.2265625,-57.6171875,14.16015625,-6.34765625,0.0
1733975716.3926482,48.33984375,-60.546875,-4.39453125,-12.6953125,0.0
1733975716.3965538,18.06640625,-52.24609375,-18.5546875,-25.87890625,0.0
1733975716.400459,-24.90234375,-39.0625,-2.44140625,-41.015625,0.0
1733975716.4043646,-14.16015625,-30.2734375,8.7890625,-49.8046875,0.0
1733975716.40827,38.0859375,-28.80859375,0.48828125,-19.04296875,0.0
1733975716.4121754,37.59765625,-40.0390625,-8.30078125,16.6015625,0.0
1733975716.416081,8.30078125,-39.55078125,-5.37109375,-14.16015625,0.0
1733975716.4199862,-11.23046875,-30.76171875,9.27734375,-44.921875,0.0
1733975716.4236205,-7.32421875,-29.78515625,7.8125,-51.26953125,0.0
1733975716.427526,25.87890625,-26.3671875,-16.11328125,-19.04296875,0.0
1733975716.4314313,25.87890625,-20.5078125,-6.8359375,0.48828125,0.0
1733975716.4353368,5.37109375,-13.18359375,2.44140625,-5.37109375,0.0
1733975716.4392424,-12.6953125,-14.16015625,-21.484375,-23.92578125,0.0
1733975716.4431477,1.46484375,-19.53125,-26.3671875,-24.90234375,0.0
1733975716.4470532,32.2265625,-33.203125,-34.66796875,1.953125,0.0
1733975716.4509585,49.8046875,-34.1796875,-2.9296875,22.4609375,0.0
1733975716.454864,35.64453125,-20.01953125,3.41796875,10.25390625,0.0
1733975716.4587696,3.90625,-6.8359375,-15.13671875,-30.76171875,0.0
1733975716.4626749,-20.99609375,-4.39453125,-17.08984375,-63.96484375,0.0
1733975716.4665804,2.44140625,-3.90625,-43.9453125,-47.8515625,0.0
1733975716.4707646,30.76171875,-0.9765625,-20.01953125,-22.94921875,0.0
1733975716.4746702,15.625,-14.6484375,-13.18359375,-45.41015625,0.0
1733975716.4785755,-26.3671875,-18.06640625,3.41796875,-66.89453125,0.0
1733975716.482481,-44.43359375,-19.04296875,33.203125,-71.2890625,0.0
1733975716.4863865,-9.765625,-20.99609375,11.23046875,-69.3359375,0.0
1733975716.4902918,31.73828125,-19.04296875,-32.2265625,-32.71484375,0.0
1733975716.4941974,26.3671875,-16.6015625,-17.578125,-21.484375,0.0
1733975716.4981027,-5.37109375,-12.20703125,-3.90625,-60.05859375,0.0
1733975716.5020082,-13.671875,-42.96875,-22.4609375,-75.1953125,0.0
1733975716.5059137,-11.23046875,-43.9453125,-88.37890625,-45.41015625,0.0
1733975716.509819,22.94921875,1.46484375,-53.7109375,-27.83203125,0.0
1733975716.5137246,22.4609375,2.9296875,13.18359375,-30.2734375,0.0
1733975716.5177855,-7.8125,-12.20703125,-0.48828125,-49.8046875,0.0
1733975716.5216908,-39.55078125,-11.23046875,-14.16015625,-48.33984375,0.0
1733975716.5255964,-21.484375,-11.71875,-41.50390625,-28.80859375,0.0
1733975716.5295017,20.01953125,-14.16015625,-14.6484375,-30.2734375,0.0
1733975716.5334072,20.01953125,-17.08984375,1.953125,-39.0625,0.0
1733975716.5373127,0.0,-20.5078125,-5.859375,-39.55078125,0.0
1733975716.541218,-51.26953125,-18.5546875,-22.4609375,-35.64453125,0.0
1733975716.5451236,-33.203125,-15.625,-68.84765625,-53.22265625,0.0
1733975716.549029,32.2265625,-22.4609375,-52.24609375,-24.90234375,0.0
1733975716.5529344,31.73828125,-51.7578125,-49.31640625,35.64453125,0.0
1733975716.55684,-9.765625,-42.96875,-51.7578125,1.46484375,0.0
1733975716.5607452,-34.1796875,6.34765625,-31.73828125,-54.6875,0.0
1733975716.564763,-13.671875,14.6484375,-21.484375,-53.7109375,0.0
1733975716.5686686,15.625,-3.90625,4.39453125,-56.640625,0.0
1733975716.572574,21.484375,-19.04296875,12.20703125,-35.15625,0.0
1733975716.5764794,7.32421875,-16.11328125,-3.90625,-36.1328125,0.0
1733975716.580385,-31.25,-11.71875,-23.4375,-77.63671875,0.0
1733975716.5842903,-28.3203125,-5.859375,-32.2265625,-90.33203125,0.0
1733975716.5881958,9.27734375,-2.9296875,-32.2265625,-62.01171875,0.0
1733975716.592101,35.15625,-0.48828125,-42.48046875,-43.9453125,0.0
1733975716.5960066,20.5078125,-8.7890625,-63.96484375,-36.62109375,0.0
1733975716.5999122,-37.59765625,-17.578125,-41.50390625,-41.50390625,0.0
1733975716.6038175,-53.7109375,-16.6015625,-41.50390625,-84.9609375,0.0
1733975716.607723,0.9765625,-12.6953125,-68.84765625,-78.61328125,0.0
1733975716.6116636,53.22265625,-23.92578125,-83.0078125,-35.15625,0.0
1733975716.615569,25.87890625,-23.92578125,-47.8515625,-45.8984375,0.0
1733975716.6194746,-41.015625,-9.27734375,-19.53125,-65.4296875,0.0
1733975716.62338,-55.17578125,-9.765625,-19.53125,-72.75390625,0.0
1733975716.6272855,-2.9296875,-4.39453125,-47.36328125,-55.17578125,0.0
1733975716.6311908,30.2734375,-6.8359375,-40.52734375,-58.10546875,0.0
1733975716.6350963,4.8828125,-20.5078125,-11.23046875,-74.70703125,0.0
1733975716.6390018,-40.0390625,-20.99609375,-31.73828125,-75.68359375,0.0
1733975716.6429071,-39.55078125,-27.34375,-35.15625,-38.0859375,0.0
1733975716.6468127,-6.34765625,-36.1328125,-9.765625,-60.546875,0.0
1733975716.650718,27.83203125,-19.04296875,-9.765625,-66.40625,0.0
1733975716.6546235,14.6484375,-7.32421875,-36.62109375,-57.12890625,0.0
1733975716.6585126,-37.59765625,-0.48828125,-34.66796875,-57.6171875,0.0
1733975716.6624181,-44.43359375,-2.44140625,-7.32421875,-70.3125,0.0
1733975716.6663237,-19.04296875,-18.06640625,0.0,-77.63671875,0.0
1733975716.670229,7.8125,-12.20703125,-18.5546875,-47.36328125,0.0
1733975716.6741345,19.53125,-7.8125,-5.37109375,-26.3671875,0.0
1733975716.6780398,-21.484375,-14.16015625,-5.37109375,-66.40625,0.0
1733975716.6819453,-65.91796875,-23.4375,-15.625,-96.19140625,0.0
1733975716.6858509,-17.08984375,-22.4609375,-23.92578125,-40.0390625,0.0
1733975716.6897562,43.45703125,-12.20703125,-10.25390625,-45.8984375,0.0
1733975716.6936617,42.48046875,-1.953125,4.39453125,-59.5703125,0.0
1733975716.6975672,-16.11328125,0.48828125,2.44140625,-29.296875,0.0
1733975716.7014725,-49.31640625,-1.46484375,-8.30078125,-53.22265625,0.0
1733975716.7052696,-31.25,-8.30078125,-19.04296875,-69.82421875,0.0
1733975716.7091749,20.01953125,-12.20703125,-13.671875,-45.8984375,0.0
1733975716.7130804,21.97265625,-12.20703125,-6.34765625,-28.80859375,0.0
1733975716.7169857,-40.0390625,-16.11328125,-7.32421875,-83.49609375,0.0
1733975716.7208912,-75.1953125,-15.13671875,4.39453125,-107.421875,0.0
1733975716.7247968,-47.36328125,-10.7421875,16.6015625,-95.21484375,0.0
1733975716.728702,3.41796875,-13.671875,-3.41796875,-77.63671875,0.0
1733975716.7326076,5.859375,-16.6015625,-8.30078125,-45.41015625,0.0
1733975716.7365131,-32.2265625,-3.90625,-15.625,-66.89453125,0.0
1733975716.7404184,-71.77734375,-3.90625,-14.6484375,-82.51953125,0.0
1733975716.744324,-83.49609375,-22.4609375,-12.6953125,-109.86328125,0.0
1733975716.7482293,-38.0859375,-19.04296875,-7.32421875,-104.00390625,0.0
1733975716.751939,-5.859375,-7.8125,-9.765625,-71.2890625,0.0
1733975716.7558444,-45.41015625,-6.8359375,-45.8984375,-94.7265625,0.0
1733975716.75975,-95.703125,-17.578125,-17.08984375,-122.55859375,0.0
1733975716.7636554,-111.328125,-20.5078125,3.41796875,-147.94921875,0.0
1733975716.7675607,-78.125,-16.11328125,-4.8828125,-141.11328125,0.0
1733975716.7714663,-70.80078125,-19.04296875,15.625,-127.44140625,0.0
1733975716.7753718,-123.046875,-22.4609375,9.27734375,-165.52734375,0.0
1733975716.779277,-177.734375,-19.04296875,15.13671875,-209.47265625,0.0
1733975716.7831826,-200.1953125,-22.4609375,21.484375,-238.76953125,0.0
1733975716.787088,-178.7109375,-33.203125,7.32421875,-229.4921875,0.0
1733975716.7909935,-163.0859375,-41.9921875,8.7890625,-186.5234375,0.0
1733975716.794899,-197.265625,-46.38671875,12.20703125,-222.65625,0.0
1733975716.7985227,-266.11328125,-57.6171875,10.7421875,-271.97265625,0.0
1733975716.8024282,-298.33984375,-69.82421875,0.48828125,-284.1796875,0.0
1733975716.8063338,-269.04296875,-76.66015625,5.859375,-266.11328125,0.0
1733975716.810239,-241.69921875,-83.49609375,0.48828125,-267.08984375,0.0
1733975716.8141446,-248.53515625,-85.9375,-30.76171875,-281.25,0.0
1733975716.81805,-302.734375,-96.6796875,-42.96875,-291.9921875,0.0
1733975716.8219554,-336.9140625,-109.375,-14.16015625,-294.921875,0.0
1733975716.825861,-317.3828125,-109.86328125,2.44140625,-282.71484375,0.0
1733975716.8297663,-257.8125,-107.421875,-8.30078125,-260.7421875,0.0
1733975716.8336718,-241.69921875,-112.79296875,-19.53125,-245.1171875,0.0
1733975716.837577,-302.24609375,-144.53125,-48.33984375,-270.5078125,0.0
1733975716.8414826,-311.5234375,-162.59765625,-50.78125,-262.6953125,0.0
1733975716.8456295,-249.0234375,-157.71484375,-50.29296875,-246.09375,0.0
1733975716.8495347,-197.265625,-168.9453125,-41.015625,-231.93359375,0.0
1733975716.8534403,-189.453125,-174.8046875,0.9765625,-179.6875,0.0
1733975716.8573458,-220.21484375,-174.31640625,-30.2734375,-187.01171875,0.0
1733975716.861251,-234.375,-176.26953125,-46.38671875,-203.61328125,0.0
1733975716.8651567,-173.828125,-165.0390625,-54.6875,-172.36328125,0.0
1733975716.869062,-111.328125,-152.83203125,-58.59375,-149.4140625,0.0
1733975716.8729675,-89.84375,-151.85546875,-43.45703125,-93.75,0.0
1733975716.876873,-105.46875,-153.80859375,-62.5,-86.42578125,0.0
1733975716.8807783,-147.4609375,-161.62109375,-101.07421875,-92.28515625,0.0
1733975716.8846838,-104.00390625,-154.78515625,-110.83984375,-70.80078125,0.0
1733975716.8885894,-35.64453125,-146.484375,-107.421875,-73.2421875,0.0
1733975716.8926635,-45.41015625,-153.3203125,-121.58203125,-69.82421875,0.0
1733975716.896569,-55.17578125,-145.01953125,-142.578125,-60.546875,0.0
1733975716.9004743,-81.54296875,-139.16015625,-136.71875,-83.49609375,0.0
1733975716.9043798,-49.31640625,-148.4375,-139.16015625,-63.96484375,0.0
1733975716.9082854,14.16015625,-143.06640625,-140.625,-14.16015625,0.0
1733975716.9121907,42.48046875,-114.2578125,-132.32421875,4.8828125,0.0
1733975716.9160962,12.6953125,-101.07421875,-151.85546875,3.90625,0.0
1733975716.9200015,-57.12890625,-96.19140625,-137.20703125,-10.7421875,0.0
1733975716.923907,-41.50390625,-92.7734375,-110.83984375,-37.59765625,0.0
1733975716.9278126,19.04296875,-98.14453125,-135.25390625,-19.04296875,0.0
1733975716.9317179,35.15625,-87.890625,-133.7890625,24.90234375,0.0
1733975716.9356234,3.90625,-80.56640625,-118.1640625,15.13671875,0.0
1733975716.9396355,-23.92578125,-86.42578125,-143.06640625,-54.6875,0.0
1733975716.943541,-22.94921875,-81.54296875,-153.80859375,-56.15234375,0.0
1733975716.9474463,7.8125,-72.265625,-146.484375,-6.34765625,0.0
1733975716.951352,54.6875,-72.75390625,-135.25390625,-19.04296875,0.0
1733975716.9552574,13.18359375,-76.171875,-108.3984375,-60.546875,0.0
1733975716.9591627,-35.15625,-65.4296875,-113.76953125,-74.21875,0.0
1733975716.9630682,-42.96875,-64.94140625,-117.1875,-57.12890625,0.0
1733975716.9669735,-32.2265625,-70.3125,-108.3984375,-60.546875,0.0
1733975716.970879,-6.34765625,-71.2890625,-104.00390625,-79.58984375,0.0
1733975716.9747846,-47.8515625,-70.80078125,-95.21484375,-62.5,0.0
1733975716.97869,-102.5390625,-58.59375,-95.703125,-101.5625,0.0
1733975716.9825954,-109.375,-53.7109375,-103.02734375,-141.11328125,0.0
1733975716.9865189,-89.84375,-59.5703125,-103.515625,-106.4453125,0.0
1733975716.9904242,-90.33203125,-58.10546875,-69.3359375,-137.20703125,0.0
1733975716.9943297,-104.98046875,-55.6640625,-81.54296875,-168.45703125,0.0
1733975716.9982352,-146.484375,-55.6640625,-116.69921875,-184.5703125,0.0
1733975717.0021405,-176.26953125,-43.45703125,-98.14453125,-209.47265625,0.0
1733975717.006046,-167.48046875,-45.41015625,-101.5625,-198.2421875,0.0
1733975717.0099514,-128.90625,-47.8515625,-113.28125,-203.125,0.0
1733975717.013857,-92.28515625,-33.203125,-130.37109375,-187.5,0.0
1733975717.0177624,-145.5078125,-40.52734375,-144.04296875,-193.359375,0.0
1733975717.0216677,-175.29296875,-27.83203125,-134.765625,-222.65625,0.0
1733975717.0255733,-141.11328125,-9.27734375,-132.8125,-214.35546875,0.0
1733975717.0294788,-113.76953125,-16.11328125,-133.30078125,-176.26953125,0.0
1733975717.0333338,-106.93359375,1.46484375,-163.57421875,-150.87890625,0.0
1733975717.0372393,-132.8125,10.25390625,-161.62109375,-189.94140625,0.0
1733975717.0411446,-155.76171875,-4.39453125,-153.80859375,-219.7265625,0.0
1733975717.0450501,-127.9296875,17.08984375,-172.8515625,-168.9453125,0.0
1733975717.0489557,-42.96875,31.73828125,-169.921875,-116.69921875,0.0
1733975717.052861,-35.15625,6.34765625,-177.734375,-84.47265625,0.0
1733975717.0567665,-71.77734375,8.30078125,-169.43359375,-79.1015625,0.0
1733975717.0606718,-62.5,27.34375,-176.26953125,-78.61328125,0.0
1733975717.0645773,-34.1796875,43.45703125,-164.55078125,-65.91796875,0.0
1733975717.0684829,14.16015625,41.9921875,-127.44140625,-69.3359375,0.0
1733975717.0723882,59.08203125,28.3203125,-167.48046875,-17.08984375,0.0
1733975717.0762937,62.5,29.78515625,-173.828125,26.3671875,0.0
1733975717.080067,36.62109375,32.2265625,-173.33984375,26.85546875,0.0
1733975717.0839725,52.24609375,7.32421875,-158.203125,23.4375,0.0
1733975717.0878778,95.703125,-15.13671875,-146.97265625,7.32421875,0.0
1733975717.0917833,111.81640625,-9.27734375,-160.64453125,46.875,0.0
1733975717.0956888,92.7734375,20.5078125,-143.06640625,62.01171875,0.0
1733975717.099594,58.10546875,23.4375,-156.73828125,46.38671875,0.0
1733975717.1034997,64.453125,-3.90625,-138.18359375,37.59765625,0.0
1733975717.1074052,100.5859375,-14.6484375,-108.3984375,72.75390625,0.0
1733975717.1113105,113.76953125,-5.859375,-113.76953125,83.49609375,0.0
1733975717.115216,80.56640625,-12.20703125,-106.93359375,71.2890625,0.0
1733975717.1191213,43.9453125,-14.16015625,-126.953125,32.71484375,0.0
1733975717.1230268,105.95703125,-52.24609375,-107.91015625,8.30078125,0.0
1733975717.1267455,110.83984375,-104.98046875,-66.89453125,65.4296875,0.0
1733975717.130651,93.26171875,-88.8671875,-95.21484375,139.6484375,0.0
1733975717.1345565,114.2578125,-37.59765625,-122.0703125,112.3046875,0.0
1733975717.1384618,57.12890625,-12.20703125,-104.98046875,49.8046875,0.0
1733975717.1423674,34.1796875,18.5546875,-82.51953125,33.203125,0.0
1733975717.1462727,84.9609375,16.6015625,-68.84765625,75.68359375,0.0
1733975717.1501782,98.6328125,-38.57421875,-56.15234375,99.609375,0.0
1733975717.1540837,65.91796875,-64.453125,-64.453125,63.4765625,0.0
1733975717.157989,26.3671875,-23.92578125,-52.734375,6.8359375,0.0
1733975717.1618946,24.90234375,-5.859375,-58.59375,11.71875,0.0
1733975717.1657999,69.3359375,-42.48046875,-50.78125,41.9921875,0.0
1733975717.1697054,114.74609375,-39.0625,-10.25390625,47.8515625,0.0
1733975717.1733425,77.63671875,-50.78125,-48.33984375,57.12890625,0.0
1733975717.177248,30.2734375,-47.8515625,-81.54296875,37.109375,0.0
1733975717.1811535,2.9296875,-45.8984375,-46.38671875,-8.7890625,0.0
1733975717.1850588,50.78125,-70.80078125,-41.015625,18.5546875,0.0
1733975717.1889644,95.21484375,-59.08203125,-51.7578125,51.26953125,0.0
1733975717.1928697,36.62109375,-30.76171875,-34.66796875,22.94921875,0.0
1733975717.1967752,21.97265625,-31.73828125,-41.9921875,51.26953125,0.0
1733975717.2006807,15.625,-45.8984375,-36.62109375,65.4296875,0.0
1733975717.204586,41.015625,-2.9296875,-46.38671875,11.23046875,0.0
1733975717.2084916,73.73046875,31.25,-32.71484375,9.27734375,0.0
1733975717.2123969,60.05859375,39.55078125,2.9296875,32.71484375,0.0
1733975717.2163024,26.3671875,42.96875,9.765625,9.765625,0.0
1733975717.2205043,28.3203125,40.52734375,8.7890625,-18.5546875,0.0
1733975717.2244098,67.87109375,17.578125,2.44140625,-14.16015625,0.0
1733975717.228315,80.078125,4.8828125,-2.44140625,16.6015625,0.0
1733975717.2322206,78.125,22.4609375,-0.48828125,26.3671875,0.0
1733975717.236126,64.453125,32.2265625,-16.11328125,1.953125,0.0
1733975717.2400315,51.7578125,-37.109375,-8.7890625,10.7421875,0.0
1733975717.243937,66.89453125,-23.92578125,17.08984375,14.16015625,0.0
1733975717.2478423,73.2421875,75.1953125,31.73828125,9.765625,0.0
1733975717.2517478,99.609375,80.078125,28.80859375,21.97265625,0.0
1733975717.2556531,104.98046875,67.3828125,13.18359375,31.73828125,0.0
1733975717.2595587,69.82421875,43.45703125,19.04296875,19.53125,0.0
1733975717.2634642,38.0859375,31.73828125,30.2734375,16.6015625,0.0
1733975717.26754,71.77734375,42.48046875,15.13671875,13.18359375,0.0
1733975717.2714455,79.58984375,41.50390625,-5.37109375,3.90625,0.0
1733975717.2753508,45.41015625,79.1015625,-10.7421875,-11.23046875,0.0
1733975717.2792563,45.8984375,92.28515625,30.2734375,-41.50390625,0.0
1733975717.2831616,63.4765625,68.84765625,51.7578125,-26.85546875,0.0
1733975717.2870672,60.05859375,61.03515625,43.9453125,7.32421875,0.0
1733975717.2909727,71.77734375,63.4765625,28.3203125,1.46484375,0.0
1733975717.294878,50.78125,61.03515625,22.94921875,-12.20703125,0.0
1733975717.2987835,10.7421875,65.91796875,30.2734375,-22.4609375,0.0
1733975717.3026888,32.2265625,53.22265625,19.53125,-30.2734375,0.0
1733975717.3065944,72.75390625,65.91796875,21.97265625,-8.30078125,0.0
1733975717.3105,102.05078125,71.77734375,14.16015625,3.41796875,0.0
1733975717.3145118,100.5859375,64.453125,-9.27734375,-13.671875,0.0
1733975717.318417,38.57421875,64.94140625,10.7421875,-20.01953125,0.0
1733975717.3223226,23.92578125,58.10546875,20.99609375,-24.4140625,0.0
1733975717.3262281,41.9921875,-1.46484375,40.52734375,6.34765625,0.0
1733975717.3301334,76.171875,5.37109375,31.73828125,20.99609375,0.0
1733975717.334039,62.98828125,85.44921875,2.44140625,-27.34375,0.0
1733975717.3379445,26.85546875,98.6328125,8.30078125,-46.875,0.0
1733975717.3418498,37.59765625,83.0078125,19.04296875,-31.25,0.0
1733975717.3457553,72.75390625,59.08203125,15.625,-1.953125,0.0
1733975717.3496606,105.95703125,55.6640625,10.7421875,7.32421875,0.0
1733975717.3535662,101.07421875,44.43359375,4.39453125,-36.1328125,0.0
1733975717.3574717,67.87109375,17.578125,-20.5078125,-58.10546875,0.0
1733975717.361381,50.29296875,36.62109375,-10.7421875,-42.48046875,0.0
1733975717.3652866,53.22265625,36.1328125,13.671875,-24.4140625,0.0
1733975717.369192,71.77734375,26.85546875,-24.90234375,-13.671875,0.0
1733975717.3730974,93.75,8.7890625,-21.484375,-19.04296875,0.0
1733975717.377003,45.8984375,-15.13671875,-0.48828125,-46.875,0.0
1733975717.3809083,-4.39453125,5.859375,-7.8125,-70.3125,0.0
1733975717.3848138,23.4375,29.296875,9.27734375,-60.05859375,0.0
1733975717.3887193,52.24609375,27.34375,2.9296875,-37.59765625,0.0
1733975717.3926246,68.359375,15.625,-19.04296875,-29.78515625,0.0
1733975717.3965302,36.62109375,6.34765625,-17.08984375,-52.734375,0.0
1733975717.4004354,3.90625,14.6484375,-15.13671875,-80.078125,0.0
1733975717.404341,26.3671875,17.08984375,-25.87890625,-69.3359375,0.0
1733975717.4081914,91.30859375,-6.8359375,-48.828125,-41.015625,0.0
1733975717.412097,90.8203125,-24.4140625,-43.9453125,-29.78515625,0.0
1733975717.4160023,57.6171875,-32.2265625,-22.4609375,-14.16015625,0.0
1733975717.4199078,71.2890625,-1.46484375,-13.671875,-1.953125,0.0
1733975717.4238133,60.546875,27.83203125,-20.5078125,-38.0859375,0.0
1733975717.4277186,48.33984375,5.37109375,-32.71484375,-58.59375,0.0
1733975717.4316242,31.25,-12.6953125,-4.39453125,-45.8984375,0.0
1733975717.4355297,-6.34765625,-22.4609375,9.765625,-50.78125,0.0
1733975717.439435,-31.73828125,-39.55078125,15.625,-72.265625,0.0
1733975717.4433405,-33.69140625,-42.48046875,14.6484375,-87.40234375,0.0
1733975717.4472458,6.34765625,-52.734375,-0.48828125,-58.59375,0.0
1733975717.4511514,21.484375,-53.7109375,13.18359375,-49.8046875,0.0
1733975717.4549303,3.41796875,-67.87109375,31.25,-78.125,0.0
1733975717.4588358,-34.66796875,-84.9609375,36.1328125,-81.54296875,0.0
1733975717.4627411,-66.89453125,-82.03125,0.48828125,-88.8671875,0.0
1733975717.4666467,-36.1328125,-87.890625,-8.30078125,-73.2421875,0.0
1733975717.4705522,8.30078125,-113.28125,19.04296875,-53.22265625,0.0
1733975717.4744575,-16.11328125,-106.4453125,27.34375,-56.15234375,0.0
1733975717.478363,-50.78125,-93.75,21.97265625,-48.33984375,0.0
1733975717.4822683,-14.6484375,-119.62890625,9.765625,-36.1328125,0.0
1733975717.4861739,-1.46484375,-80.078125,22.94921875,-57.12890625,0.0
1733975717.4900794,23.4375,-82.03125,49.8046875,-43.45703125,0.0
1733975717.4939847,50.29296875,-151.85546875,43.9453125,-33.203125,0.0
1733975717.4978902,21.484375,-84.9609375,21.97265625,-65.91796875,0.0
1733975717.5015981,18.06640625,-41.50390625,30.2734375,-71.77734375,0.0
1733975717.5055037,16.6015625,-74.70703125,25.87890625,-33.69140625,0.0
1733975717.509409,53.7109375,-67.3828125,-0.9765625,-1.953125,0.0
1733975717.5133145,77.1484375,-64.94140625,8.30078125,-19.53125,0.0
1733975717.51722,17.578125,-61.03515625,-5.859375,-41.015625,0.0
1733975717.5211253,20.01953125,-45.8984375,-29.296875,-70.3125,0.0
1733975717.5250309,59.5703125,-45.8984375,-17.08984375,-51.26953125,0.0
1733975717.5289361,68.84765625,-39.0625,-7.32421875,-11.71875,0.0
1733975717.5328417,53.7109375,-44.921875,20.01953125,-24.90234375,0.0
1733975717.5367472,41.50390625,-66.40625,22.4609375,-49.8046875,0.0
1733975717.5406525,48.828125,-63.4765625,11.23046875,-51.26953125,0.0
1733975717.544558,57.12890625,-61.5234375,10.7421875,-47.8515625,0.0
1733975717.5481963,95.703125,-55.17578125,13.18359375,-39.0625,0.0
1733975717.5521019,69.3359375,-51.26953125,5.37109375,-11.71875,0.0
1733975717.5560074,18.06640625,-48.33984375,-11.23046875,-35.64453125,0.0
1733975717.5599127,29.78515625,-36.1328125,-5.859375,-55.17578125,0.0
1733975717.5638182,54.6875,-48.828125,-21.97265625,-52.24609375,0.0
1733975717.5677235,79.1015625,-53.22265625,-55.6640625,-39.0625,0.0
1733975717.571629,102.5390625,-80.56640625,-34.1796875,-12.6953125,0.0
1733975717.5755346,60.05859375,-71.77734375,-23.92578125,-28.3203125,0.0
1733975717.5794399,4.39453125,-7.32421875,-28.80859375,-52.24609375,0.0
1733975717.5833454,21.97265625,-11.23046875,-0.48828125,-55.6640625,0.0
1733975717.587251,88.37890625,-15.625,7.8125,-48.33984375,0.0
1733975717.5911562,97.65625,-14.16015625,0.9765625,-47.8515625,0.0
1733975717.5953298,70.3125,-6.8359375,-2.44140625,-64.453125,0.0
1733975717.5992353,29.296875,-23.92578125,-8.30078125,-69.82421875,0.0
1733975717.6031408,20.5078125,-34.1796875,-7.8125,-60.546875,0.0
1733975717.6070461,66.40625,-50.29296875,-6.34765625,-34.66796875,0.0
1733975717.6109517,115.72265625,-34.1796875,-25.87890625,-41.015625,0.0
1733975717.614857,55.17578125,-5.859375,-24.4140625,-70.80078125,0.0
1733975717.6187625,1.953125,-4.39453125,-6.8359375,-73.73046875,0.0
1733975717.622668,42.48046875,-0.9765625,-4.8828125,-74.21875,0.0
1733975717.6265733,70.3125,-18.5546875,-4.8828125,-53.22265625,0.0
1733975717.6304789,58.59375,-41.50390625,-14.6484375,-21.484375,0.0
1733975717.6343844,44.43359375,-62.01171875,-26.85546875,-30.76171875,0.0
1733975717.6382897,16.6015625,-43.9453125,-22.4609375,-58.10546875,0.0
1733975717.6424243,11.71875,-6.34765625,-3.90625,-77.1484375,0.0
1733975717.6463296,56.15234375,4.39453125,9.27734375,-48.828125,0.0
1733975717.6502352,55.6640625,-18.06640625,4.8828125,-24.90234375,0.0
1733975717.6541407,26.3671875,-33.203125,-31.25,-62.01171875,0.0
1733975717.658046,8.7890625,-17.08984375,-44.43359375,-84.9609375,0.0
1733975717.6619515,24.90234375,-18.5546875,-31.73828125,-62.98828125,0.0
1733975717.665857,36.1328125,-24.4140625,-6.8359375,-60.546875,0.0
1733975717.6697624,54.6875,-35.64453125,14.6484375,-63.4765625,0.0
1733975717.673668,46.38671875,-52.734375,0.9765625,-41.015625,0.0
1733975717.6775732,17.08984375,-41.9921875,-19.04296875,-53.22265625,0.0
1733975717.6814787,33.203125,-29.296875,-12.6953125,-81.0546875,0.0
1733975717.6853843,38.0859375,-15.625,-12.6953125,-70.80078125,0.0
1733975717.6894271,65.4296875,0.48828125,-25.390625,-58.59375,0.0
1733975717.6933327,77.1484375,-2.9296875,-16.11328125,-65.91796875,0.0
1733975717.697238,17.08984375,-31.25,-29.296875,-79.58984375,0.0
1733975717.7011435,-7.32421875,-51.7578125,-42.48046875,-79.58984375,0.0
1733975717.705049,12.20703125,-62.5,-22.4609375,-70.80078125,0.0
1733975717.7089543,45.8984375,-47.36328125,-12.6953125,-70.80078125,0.0
1733975717.7128599,38.57421875,-23.92578125,-4.39453125,-68.359375,0.0
1733975717.7167652,11.23046875,-34.66796875,4.39453125,-75.1953125,0.0
1733975717.7206707,7.32421875,-57.6171875,-25.87890625,-78.125,0.0
1733975717.7245762,49.31640625,-51.7578125,-42.48046875,-51.26953125,0.0
1733975717.7284815,110.3515625,-31.25,-35.15625,-14.16015625,0.0
1733975717.732387,76.171875,-75.68359375,-38.57421875,-48.33984375,0.0
1733975717.7363217,8.7890625,-74.70703125,-18.06640625,-91.796875,0.0
1733975717.740227,14.16015625,-51.26953125,-8.30078125,-89.84375,0.0
1733975717.7441325,50.78125,-26.85546875,-46.38671875,-58.59375,0.0
1733975717.748038,80.078125,-21.97265625,-41.9921875,-39.55078125,0.0
1733975717.7519433,59.5703125,-47.8515625,0.0,-27.83203125,0.0
1733975717.755849,56.640625,-74.70703125,-0.48828125,-17.578125,0.0
1733975717.7597544,46.875,-70.80078125,-35.64453125,-31.73828125,0.0
1733975717.7636597,66.89453125,-69.82421875,-7.8125,0.9765625,0.0
1733975717.7675653,127.44140625,-91.796875,15.13671875,15.13671875,0.0
1733975717.7714705,120.60546875,-61.5234375,19.04296875,21.484375,0.0
1733975717.775376,95.703125,-51.26953125,28.3203125,37.109375,0.0
1733975717.7792816,63.4765625,-77.63671875,19.53125,13.671875,0.0
1733975717.7831435,78.125,-74.21875,2.9296875,-4.8828125,0.0
1733975717.787049,127.44140625,-52.734375,-6.34765625,30.76171875,0.0
1733975717.7909544,150.390625,-68.84765625,-4.8828125,33.203125,0.0
1733975717.79486,117.1875,-85.44921875,-14.6484375,2.9296875,0.0
1733975717.7987654,40.52734375,-69.3359375,2.44140625,-8.30078125,0.0
1733975717.8026707,58.59375,-57.6171875,11.71875,-14.16015625,0.0
1733975717.8065763,87.890625,-59.08203125,-0.48828125,13.18359375,0.0
1733975717.8104818,87.40234375,-48.33984375,-16.11328125,27.83203125,0.0
1733975717.814387,73.2421875,-47.8515625,-21.97265625,-2.44140625,0.0
1733975717.8182926,32.71484375,-65.4296875,-10.7421875,-38.57421875,0.0
1733975717.822198,36.62109375,-51.7578125,-10.25390625,-52.734375,0.0
1733975717.8261034,72.75390625,-38.57421875,-14.16015625,-50.78125,0.0
1733975717.8299131,63.96484375,-52.734375,-18.5546875,-47.36328125,0.0
1733975717.8338184,24.90234375,-46.875,-20.5078125,-43.45703125,0.0
1733975717.837724,-11.71875,-42.96875,-25.390625,-72.265625,0.0
1733975717.8416293,-40.0390625,-48.33984375,-24.4140625,-100.5859375,0.0
1733975717.8455348,-5.37109375,-39.0625,-10.7421875,-82.51953125,0.0
1733975717.8494403,30.2734375,-39.0625,-31.25,-72.75390625,0.0
1733975717.8533456,-9.765625,-84.47265625,-33.69140625,-62.98828125,0.0
1733975717.8572512,-79.58984375,-88.8671875,-5.37109375,-84.47265625,0.0
1733975717.8611565,-83.49609375,-60.05859375,-1.953125,-125.0,0.0
1733975717.865062,-59.08203125,-54.6875,-10.25390625,-146.97265625,0.0
1733975717.8689675,-62.98828125,-45.8984375,-22.94921875,-154.296875,0.0
1733975717.8728728,-88.8671875,-48.33984375,-33.203125,-181.640625,0.0
1733975717.8765795,-125.48828125,-62.01171875,-31.25,-229.4921875,0.0
1733975717.8804848,-167.48046875,-64.453125,-27.83203125,-246.09375,0.0
1733975717.8843904,-147.4609375,-69.82421875,-35.15625,-235.83984375,0.0
1733975717.8882957,-142.08984375,-104.98046875,-43.45703125,-236.81640625,0.0
1733975717.8922012,-166.015625,-71.77734375,-42.48046875,-244.62890625,0.0
1733975717.8961067,-183.10546875,-26.3671875,-45.8984375,-255.37109375,0.0
1733975717.900012,-219.23828125,-46.875,-56.640625,-264.6484375,0.0
1733975717.9039176,-201.171875,-52.24609375,-52.734375,-267.08984375,0.0
1733975717.9078228,-168.45703125,-52.734375,-52.734375,-250.9765625,0.0
1733975717.9117284,-164.0625,-52.24609375,-109.86328125,-224.609375,0.0
1733975717.915634,-164.55078125,-66.40625,-92.28515625,-233.88671875,0.0
1733975717.9195392,-193.84765625,-104.00390625,-29.78515625,-246.58203125,0.0
1733975717.9231486,-174.31640625,-118.1640625,-28.3203125,-232.91015625,0.0
1733975717.927054,-101.07421875,-104.00390625,-37.109375,-194.82421875,0.0
1733975717.9309595,-75.1953125,-61.03515625,-55.6640625,-171.38671875,0.0
1733975717.9348648,-97.16796875,-21.97265625,-69.3359375,-180.17578125,0.0
1733975717.9387703,-113.76953125,-25.87890625,-53.7109375,-175.29296875,0.0
1733975717.9426758,-69.3359375,-49.8046875,-59.5703125,-150.87890625,0.0
1733975717.9465811,-3.90625,-50.29296875,-78.61328125,-119.62890625,0.0
1733975717.9504867,8.7890625,-61.5234375,-76.171875,-109.375,0.0
1733975717.954392,-12.20703125,-65.91796875,-76.171875,-86.9140625,0.0
1733975717.9582975,-0.9765625,-61.5234375,-79.1015625,-50.29296875,0.0
1733975717.962203,13.18359375,-47.36328125,-73.2421875,-61.03515625,0.0
1733975717.9661083,36.1328125,-45.8984375,-84.47265625,-30.2734375,0.0
1733975717.970289,71.77734375,-57.6171875,-91.30859375,-1.953125,0.0
1733975717.9741945,50.29296875,-43.9453125,-69.82421875,-26.3671875,0.0
1733975717.9780998,36.62109375,-49.8046875,-58.10546875,-29.78515625,0.0
1733975717.9820054,83.49609375,-63.4765625,-64.453125,-8.7890625,0.0
1733975717.9859107,127.9296875,-65.91796875,-50.29296875,12.20703125,0.0
1733975717.9898162,100.09765625,-43.9453125,-54.19921875,37.109375,0.0
1733975717.9937217,70.3125,-16.11328125,-62.01171875,32.71484375,0.0
1733975717.997627,62.5,-49.31640625,-54.19921875,5.37109375,0.0
1733975718.0015326,73.2421875,-60.546875,-46.38671875,14.16015625,0.0
1733975718.0054379,104.4921875,-48.828125,-47.8515625,24.90234375,0.0
1733975718.0093434,95.703125,-44.43359375,-53.22265625,28.80859375,0.0
1733975718.013249,91.796875,-42.96875,-46.875,31.25,0.0
1733975718.017322,101.5625,-57.6171875,-55.17578125,17.578125,0.0
1733975718.0212274,95.21484375,-49.31640625,-51.7578125,4.39453125,0.0
1733975718.025133,86.42578125,-49.31640625,-33.69140625,13.671875,0.0
1733975718.0290384,103.02734375,-65.91796875,-39.55078125,46.38671875,0.0
1733975718.0329437,113.28125,-104.4921875,-43.45703125,50.29296875,0.0
1733975718.0368493,81.54296875,-77.1484375,-58.10546875,34.1796875,0.0
1733975718.0407548,68.359375,-16.11328125,-50.29296875,20.5078125,0.0
1733975718.04466,85.9375,-13.671875,-37.59765625,20.99609375,0.0
1733975718.0485656,124.51171875,-34.1796875,-38.57421875,27.34375,0.0
1733975718.052471,118.65234375,-61.5234375,-40.52734375,49.8046875,0.0
1733975718.0563765,69.82421875,-51.26953125,-29.296875,36.62109375,0.0
1733975718.060282,69.3359375,-38.0859375,-56.640625,16.11328125,0.0
1733975718.0648887,102.05078125,-45.8984375,-61.5234375,16.11328125,0.0
1733975718.0687943,136.71875,-55.17578125,-32.2265625,9.765625,0.0
1733975718.0726998,137.6953125,-50.78125,-36.1328125,10.25390625,0.0
1733975718.076605,72.265625,-58.10546875,-18.06640625,18.5546875,0.0
1733975718.0805106,31.25,-77.63671875,-20.01953125,9.27734375,0.0
1733975718.0844162,54.6875,-68.359375,-26.3671875,8.7890625,0.0
1733975718.0883214,95.703125,-41.015625,-15.13671875,32.71484375,0.0
1733975718.092227,103.515625,-29.296875,-22.4609375,23.92578125,0.0
1733975718.0961323,54.19921875,-34.1796875,-38.0859375,11.23046875,0.0
1733975718.1000378,27.34375,-34.66796875,-32.71484375,-3.90625,0.0
1733975718.1039433,69.3359375,-42.48046875,-25.390625,-11.23046875,0.0
1733975718.1078486,109.375,-64.94140625,-28.80859375,43.9453125,0.0
1733975718.1117327,72.75390625,-71.77734375,-20.01953125,35.64453125,0.0
1733975718.1156383,59.08203125,-45.8984375,-39.0625,2.44140625,0.0
1733975718.1195438,36.1328125,-93.26171875,-55.6640625,1.953125,0.0
1733975718.123449,14.6484375,-116.69921875,-13.671875,2.44140625,0.0
1733975718.1273546,62.5,-33.69140625,-12.20703125,-4.39453125,0.0
1733975718.13126,73.2421875,-0.9765625,-26.3671875,-6.8359375,0.0
1733975718.1351655,21.97265625,-21.97265625,-20.99609375,-9.765625,0.0
1733975718.139071,0.9765625,-38.57421875,-25.87890625,-26.85546875,0.0
1733975718.1429763,41.9921875,-44.921875,-35.64453125,-10.7421875,0.0
1733975718.1468818,74.21875,-41.50390625,-16.11328125,7.8125,0.0
1733975718.1507874,82.03125,-47.36328125,-6.34765625,-7.8125,0.0
1733975718.1546926,73.2421875,-51.7578125,-26.85546875,-16.11328125,0.0
1733975718.158523,15.13671875,-54.6875,-42.96875,-0.9765625,0.0
1733975718.1624286,20.5078125,-87.40234375,-61.03515625,-14.16015625,0.0
1733975718.1663342,40.0390625,-83.49609375,-47.8515625,-16.6015625,0.0
1733975718.1702394,45.8984375,-36.62109375,-16.6015625,-18.5546875,0.0
1733975718.174145,42.48046875,-19.04296875,-14.16015625,-24.90234375,0.0
1733975718.1780503,8.30078125,-47.8515625,-40.0390625,-45.41015625,0.0
1733975718.1819558,9.27734375,-75.1953125,-49.31640625,-42.48046875,0.0
1733975718.1858613,19.04296875,-51.7578125,-27.83203125,-24.4140625,0.0
1733975718.1897666,44.43359375,-22.94921875,-15.13671875,-12.20703125,0.0
1733975718.1936722,49.8046875,-25.87890625,-17.08984375,-2.44140625,0.0
1733975718.1975777,-4.8828125,-44.921875,-53.7109375,-40.52734375,0.0
1733975718.201483,-12.6953125,-42.48046875,-47.36328125,-72.265625,0.0
1733975718.2052178,28.3203125,-49.8046875,-9.27734375,-52.734375,0.0
1733975718.2091231,48.33984375,-66.89453125,0.0,-45.41015625,0.0
1733975718.2130287,59.5703125,-49.31640625,-14.16015625,-34.1796875,0.0
1733975718.2169342,24.90234375,-28.80859375,-41.015625,-34.66796875,0.0
1733975718.2208395,-15.13671875,-39.0625,-32.2265625,-40.52734375,0.0
1733975718.224745,19.04296875,-26.85546875,-17.578125,-5.37109375,0.0
1733975718.2286506,72.265625,-22.4609375,-22.4609375,20.01953125,0.0
1733975718.2325559,40.0390625,-29.296875,-45.41015625,17.578125,0.0
1733975718.2364614,-0.48828125,-11.23046875,-29.78515625,-40.52734375,0.0
1733975718.2403667,20.01953125,-37.59765625,-15.625,-69.3359375,0.0
1733975718.2442722,19.53125,-62.5,-22.94921875,-42.48046875,0.0
1733975718.2481778,23.4375,-25.87890625,-40.52734375,-38.0859375,0.0
1733975718.2518632,37.59765625,3.90625,-51.7578125,-47.36328125,0.0
1733975718.2557688,7.8125,-14.16015625,-49.8046875,-57.6171875,0.0
1733975718.259674,-22.4609375,-35.64453125,-40.52734375,-30.2734375,0.0
1733975718.2635796,1.953125,-13.18359375,-33.69140625,-17.578125,0.0
1733975718.2674851,46.38671875,-26.3671875,-39.0625,-39.55078125,0.0
1733975718.2713904,43.45703125,-45.8984375,-25.390625,-18.5546875,0.0
1733975718.275296,-17.578125,-38.57421875,-41.015625,-28.80859375,0.0
1733975718.2792015,-36.1328125,-17.578125,-42.96875,-51.7578125,0.0
1733975718.2831068,-10.25390625,-11.23046875,-8.30078125,-44.43359375,0.0
1733975718.2870123,49.8046875,-23.4375,-11.71875,-44.43359375,0.0
1733975718.2909176,66.89453125,-26.85546875,-24.4140625,-37.109375,0.0
1733975718.2948232,3.90625,-36.62109375,-30.76171875,-32.71484375,0.0
1733975718.2984397,5.37109375,-9.27734375,-41.9921875,-37.109375,0.0
1733975718.3023453,22.94921875,-4.8828125,-32.2265625,-39.0625,0.0
1733975718.3062506,19.04296875,-34.1796875,-14.6484375,-20.01953125,0.0
1733975718.310156,31.25,-46.38671875,-16.6015625,-20.5078125,0.0
1733975718.3140616,10.7421875,-22.94921875,-38.57421875,-45.41015625,0.0
1733975718.317967,-11.23046875,-14.16015625,-49.31640625,-37.59765625,0.0
1733975718.3218725,14.16015625,-14.6484375,-59.08203125,-20.01953125,0.0
1733975718.3257778,35.15625,-16.6015625,-21.484375,-11.23046875,0.0
1733975718.3296833,45.41015625,-31.25,5.859375,-11.71875,0.0
1733975718.3335888,39.55078125,-21.97265625,-20.01953125,-34.66796875,0.0
1733975718.3374941,32.2265625,-28.3203125,-39.0625,-42.48046875,0.0
1733975718.3413997,63.96484375,-25.87890625,-38.0859375,-10.7421875,0.0
1733975718.344948,28.80859375,-16.6015625,-24.4140625,-5.859375,0.0
1733975718.3488536,20.5078125,-15.13671875,-20.01953125,-23.92578125,0.0
1733975718.3527591,38.0859375,-58.10546875,-11.71875,-13.671875,0.0
1733975718.3566644,6.34765625,-66.40625,-20.01953125,-26.85546875,0.0
1733975718.36057,14.6484375,-14.16015625,-23.4375,-41.50390625,0.0
1733975718.3644753,19.04296875,4.39453125,-25.390625,-34.66796875,0.0
1733975718.3683808,28.80859375,2.44140625,-20.01953125,-19.53125,0.0
1733975718.3722863,53.7109375,1.953125,-4.8828125,-16.11328125,0.0
1733975718.3761916,5.859375,-18.06640625,-17.08984375,-14.6484375,0.0
1733975718.3800972,-14.16015625,-27.34375,-41.9921875,1.46484375,0.0
1733975718.3840027,3.41796875,-15.625,-22.94921875,-1.953125,0.0
1733975718.387908,39.0625,-12.6953125,4.39453125,-8.30078125,0.0
1733975718.3920527,49.8046875,-15.13671875,-5.37109375,-9.27734375,0.0
1733975718.3959582,-0.9765625,-23.4375,-25.390625,-18.06640625,0.0
1733975718.3998635,-2.9296875,-22.4609375,-25.87890625,-32.2265625,0.0
1733975718.403769,10.25390625,-26.85546875,-15.13671875,-10.7421875,0.0
1733975718.4076746,26.85546875,-31.25,-11.23046875,11.71875,0.0
1733975718.4115798,18.06640625,-18.06640625,-17.578125,-16.11328125,0.0
1733975718.4154854,-9.27734375,-8.30078125,-20.5078125,-42.96875,0.0
1733975718.4193907,4.39453125,-10.25390625,-39.55078125,-21.97265625,0.0
1733975718.4232962,28.80859375,-40.52734375,-41.015625,9.765625,0.0
1733975718.4272017,20.01953125,-15.13671875,-10.7421875,11.71875,0.0
1733975718.431107,14.16015625,17.578125,7.8125,-11.71875,0.0
1733975718.4350126,30.76171875,16.11328125,7.32421875,-30.76171875,0.0
1733975718.4390438,14.16015625,5.37109375,-6.34765625,-28.80859375,0.0
1733975718.442949,7.8125,-3.41796875,-17.578125,-25.87890625,0.0
1733975718.4468546,39.0625,-2.44140625,-4.8828125,-20.5078125,0.0
1733975718.45076,50.78125,-16.6015625,-14.6484375,-14.16015625,0.0
1733975718.4546654,0.48828125,-49.31640625,-31.25,3.41796875,0.0
1733975718.458571,-12.6953125,-34.1796875,-20.01953125,0.0,0.0
1733975718.4624763,13.18359375,-2.44140625,-14.16015625,-16.11328125,0.0
1733975718.4663818,24.4140625,-6.8359375,-21.484375,-4.8828125,0.0
1733975718.470287,41.015625,-9.27734375,-35.15625,-11.71875,0.0
1733975718.4741926,16.11328125,-2.44140625,-38.57421875,-22.4609375,0.0
1733975718.4780982,1.953125,5.37109375,-1.953125,-22.94921875,0.0
1733975718.4820035,24.90234375,-20.5078125,7.32421875,-16.11328125,0.0
1733975718.4859674,37.109375,-36.62109375,-15.13671875,-1.46484375,0.0
1733975718.489873,31.73828125,-19.04296875,-43.9453125,-16.6015625,0.0
1733975718.4937785,17.578125,-22.94921875,-45.41015625,-9.27734375,0.0
1733975718.4976838,-9.765625,-28.80859375,-22.4609375,1.46484375,0.0
1733975718.5015893,10.7421875,-26.85546875,-21.97265625,-9.27734375,0.0
1733975718.5054946,31.73828125,-33.203125,-31.25,-22.4609375,0.0
1733975718.5094001,20.5078125,-24.90234375,-7.32421875,-32.2265625,0.0
1733975718.5133057,14.16015625,8.30078125,-20.5078125,-22.4609375,0.0
1733975718.517211,-48.33984375,8.30078125,-19.04296875,-8.30078125,0.0
1733975718.5211165,-42.48046875,-2.44140625,13.671875,-26.85546875,0.0
1733975718.525022,46.38671875,4.8828125,10.7421875,-39.0625,0.0
1733975718.5289273,32.2265625,-12.6953125,-3.41796875,-22.4609375,0.0
1733975718.5327952,-12.20703125,-29.78515625,2.44140625,-20.5078125,0.0
1733975718.5367005,-15.625,-22.94921875,-3.41796875,-14.16015625,0.0
1733975718.540606,-26.85546875,-23.4375,-20.5078125,-20.01953125,0.0
1733975718.5445116,23.92578125,-52.24609375,-36.62109375,-46.875,0.0
1733975718.5484169,51.7578125,-34.1796875,-26.85546875,-32.2265625,0.0
1733975718.5523224,15.625,-12.6953125,-6.34765625,-0.48828125,0.0
1733975718.5562277,15.13671875,-22.4609375,-21.484375,-20.99609375,0.0
1733975718.5601332,0.0,-28.80859375,-49.31640625,-37.109375,0.0
1733975718.5640388,10.25390625,-25.390625,-33.69140625,-33.203125,0.0
1733975718.567944,22.94921875,-9.765625,-8.7890625,-46.38671875,0.0
1733975718.5718496,16.6015625,-11.71875,-20.01953125,-32.71484375,0.0
1733975718.5757551,0.48828125,-17.578125,-22.94921875,-21.97265625,0.0
1733975718.5795836,14.6484375,2.9296875,-20.01953125,-20.01953125,0.0
1733975718.583489,29.296875,4.8828125,-24.4140625,-23.92578125,0.0
1733975718.5873945,31.73828125,-19.04296875,-21.484375,-20.01953125,0.0
1733975718.5913,15.625,-35.64453125,-20.5078125,-8.7890625,0.0
1733975718.5952053,-3.90625,-10.25390625,-23.92578125,-9.765625,0.0
1733975718.5991108,18.06640625,-16.11328125,-26.3671875,-22.94921875,0.0
1733975718.6030164,34.1796875,-45.41015625,-33.203125,-28.80859375,0.0
1733975718.6069217,44.921875,-27.34375,-39.55078125,-5.37109375,0.0
1733975718.6108272,38.0859375,6.8359375,-30.2734375,-8.7890625,0.0
1733975718.6147325,-8.30078125,4.8828125,-27.34375,-20.01953125,0.0
1733975718.618638,26.3671875,-20.01953125,-16.6015625,-5.37109375,0.0
1733975718.6225436,48.33984375,-10.25390625,-18.06640625,-3.41796875,0.0
1733975718.6262438,31.73828125,-20.5078125,-22.94921875,9.765625,0.0
1733975718.6301491,55.17578125,-61.5234375,-18.06640625,25.390625,0.0
1733975718.6340547,-0.9765625,-26.85546875,-18.06640625,3.90625,0.0
1733975718.6379602,-26.85546875,0.0,-17.08984375,-25.87890625,0.0
1733975718.6418655,8.30078125,-19.53125,-9.27734375,-40.0390625,0.0
1733975718.645771,25.87890625,-12.6953125,-17.578125,-18.06640625,0.0
1733975718.6496763,48.33984375,-26.3671875,-30.2734375,8.30078125,0.0
1733975718.6535819,14.16015625,-40.0390625,-7.32421875,-14.6484375,0.0
1733975718.6574874,-11.23046875,-16.6015625,-9.765625,-25.390625,0.0
1733975718.6613927,26.3671875,7.32421875,-28.3203125,-8.30078125,0.0
1733975718.6652982,77.63671875,11.23046875,-10.25390625,-6.34765625,0.0
1733975718.6692035,84.47265625,8.7890625,0.48828125,12.6953125,0.0
1733975718.6728323,24.90234375,1.953125,0.0,-1.953125,0.0
1733975718.6767378,-16.11328125,-9.765625,-15.625,-27.34375,0.0
1733975718.6806433,3.90625,-28.80859375,-31.25,-35.64453125,0.0
1733975718.6845486,40.52734375,-37.109375,-31.73828125,-25.390625,0.0
1733975718.6884542,60.546875,-7.32421875,-19.53125,15.13671875,0.0
1733975718.6923594,26.85546875,-0.9765625,-7.8125,-12.6953125,0.0
1733975718.696265,-12.6953125,-2.9296875,-8.30078125,-20.5078125,0.0
1733975718.7001705,16.11328125,-10.25390625,-11.23046875,-13.671875,0.0
1733975718.7040758,69.82421875,-31.25,-42.48046875,5.859375,0.0
1733975718.7079813,55.6640625,-41.015625,-40.0390625,21.97265625,0.0
1733975718.7118866,-2.44140625,-5.859375,4.39453125,-20.01953125,0.0
1733975718.7157922,-34.1796875,8.30078125,19.04296875,-48.33984375,0.0
1733975718.719364,-51.7578125,-14.16015625,13.671875,-73.73046875,0.0
1733975718.7232695,-31.73828125,-28.3203125,0.0,-68.84765625,0.0
1733975718.727175,-14.16015625,-27.83203125,5.37109375,-25.390625,0.0
1733975718.7310803,-42.96875,-32.2265625,18.5546875,-48.33984375,0.0
1733975718.7349858,-80.56640625,-42.96875,1.953125,-71.77734375,0.0
1733975718.7388911,-80.078125,-61.5234375,-4.8828125,-63.4765625,0.0
1733975718.7427967,-55.17578125,-72.75390625,20.5078125,-68.359375,0.0
1733975718.7467022,-62.98828125,-74.70703125,41.50390625,-78.125,0.0
1733975718.7506075,-70.3125,-81.0546875,22.94921875,-67.3828125,0.0
1733975718.754513,-106.93359375,-85.9375,-0.9765625,-58.59375,0.0
1733975718.7584183,-133.7890625,-73.73046875,20.99609375,-73.2421875,0.0
1733975718.7623239,-76.171875,-83.49609375,24.4140625,-73.2421875,0.0
1733975718.7664423,-42.96875,-101.5625,19.04296875,-47.8515625,0.0
1733975718.7703478,-33.69140625,-82.03125,27.83203125,-15.625,0.0
1733975718.7742534,-39.55078125,-62.5,28.80859375,-15.625,0.0
1733975718.7781587,-87.890625,-63.4765625,40.0390625,-16.6015625,0.0
1733975718.7820642,-59.08203125,-66.89453125,21.97265625,-24.90234375,0.0
1733975718.7859695,-3.90625,-80.56640625,-31.73828125,-21.484375,0.0
1733975718.789875,9.27734375,-80.56640625,-23.92578125,3.90625,0.0
1733975718.7937806,-34.66796875,-63.96484375,10.25390625,-15.625,0.0
1733975718.7976859,-62.01171875,-95.703125,9.27734375,-21.484375,0.0
1733975718.8015914,1.953125,-78.61328125,-0.9765625,7.32421875,0.0
1733975718.8054967,19.53125,-46.38671875,22.4609375,26.85546875,0.0
1733975718.8094022,0.9765625,-70.80078125,0.0,4.8828125,0.0
1733975718.8134575,-20.5078125,-74.70703125,-45.8984375,2.44140625,0.0
1733975718.8173628,-15.13671875,-43.45703125,-1.953125,10.7421875,0.0
1733975718.8212683,-26.85546875,-56.640625,16.6015625,4.39453125,0.0
1733975718.8251736,-0.48828125,-77.63671875,11.23046875,16.6015625,0.0
1733975718.8290792,60.05859375,-41.9921875,1.46484375,28.80859375,0.0
1733975718.8329847,31.25,-25.390625,-5.37109375,15.13671875,0.0
1733975718.83689,-31.73828125,-38.57421875,0.0,-9.765625,0.0
1733975718.8407955,-19.04296875,-43.45703125,-7.32421875,-25.87890625,0.0
1733975718.8447008,27.83203125,-41.9921875,-13.18359375,-14.16015625,0.0
1733975718.8486063,50.78125,-46.38671875,-5.37109375,18.5546875,0.0
1733975718.852512,32.2265625,-57.12890625,-15.13671875,36.1328125,0.0
1733975718.8564172,-9.27734375,-44.43359375,-27.83203125,5.859375,0.0
1733975718.8603966,-41.015625,-30.2734375,-20.01953125,-15.13671875,0.0
1733975718.8643022,3.41796875,-28.80859375,-3.41796875,21.484375,0.0
1733975718.8682075,49.31640625,-38.0859375,-24.4140625,50.78125,0.0
1733975718.872113,42.96875,-60.546875,-68.359375,17.578125,0.0
1733975718.8760185,-24.90234375,-64.453125,-36.62109375,0.48828125,0.0
1733975718.8799238,-22.94921875,-46.38671875,3.41796875,-6.8359375,0.0
1733975718.8838294,31.25,-39.55078125,6.8359375,-8.30078125,0.0
1733975718.8877347,44.921875,-38.0859375,-20.01953125,1.46484375,0.0
1733975718.8916402,20.01953125,-41.50390625,-47.36328125,5.859375,0.0
1733975718.8955457,-25.390625,-26.3671875,-29.78515625,4.39453125,0.0
1733975718.899451,-57.6171875,-37.59765625,-20.01953125,-12.20703125,0.0
1733975718.9033566,-10.7421875,-42.96875,-17.08984375,9.765625,0.0
1733975718.9072566,67.3828125,2.9296875,-10.25390625,18.06640625,0.0
1733975718.9111621,9.27734375,-18.5546875,-17.578125,-7.32421875,0.0
1733975718.9150674,-67.3828125,-48.33984375,-20.01953125,-17.08984375,0.0
1733975718.918973,-53.22265625,-27.83203125,-23.92578125,-18.06640625,0.0
1733975718.9228785,-4.8828125,-23.4375,-44.43359375,-10.25390625,0.0
1733975718.9267838,-14.6484375,14.6484375,-71.77734375,-6.34765625,0.0
1733975718.9306893,-20.99609375,7.32421875,-68.84765625,8.7890625,0.0
1733975718.9345946,3.41796875,-71.2890625,-34.66796875,28.3203125,0.0
1733975718.9385002,-59.08203125,-71.2890625,-9.27734375,-2.9296875,0.0
1733975718.9424057,-27.34375,-49.31640625,-14.6484375,-14.6484375,0.0
1733975718.946311,46.38671875,-67.87109375,-36.62109375,17.578125,0.0
1733975718.9502165,14.6484375,-72.265625,-31.73828125,27.83203125,0.0
1733975718.954068,-42.48046875,-21.484375,-27.34375,0.48828125,0.0
1733975718.9579735,-33.69140625,-15.625,-20.99609375,5.859375,0.0
1733975718.9618788,-13.18359375,-27.34375,-28.3203125,3.90625,0.0
1733975718.9657843,-20.01953125,-41.50390625,-26.85546875,-19.04296875,0.0
1733975718.9696898,-20.01953125,-20.99609375,-21.484375,-11.23046875,0.0
1733975718.9735951,-56.640625,-24.90234375,-23.92578125,-12.20703125,0.0
1733975718.9775007,-83.984375,-42.96875,-35.15625,-20.5078125,0.0
1733975718.981406,-17.578125,-71.77734375,-43.9453125,2.44140625,0.0
1733975718.9853115,-7.8125,-60.05859375,-21.97265625,4.8828125,0.0
1733975718.989217,-51.7578125,-47.36328125,-28.80859375,-11.23046875,0.0
1733975718.9931223,-62.01171875,-66.40625,-49.8046875,-25.390625,0.0
1733975718.9970279,-54.6875,-81.0546875,-42.48046875,-21.484375,0.0
1733975719.0007687,-90.8203125,-41.50390625,-34.1796875,-29.78515625,0.0
1733975719.0046742,-24.4140625,-38.0859375,-19.04296875,-4.39453125,0.0
1733975719.0085795,25.390625,-58.59375,-35.64453125,27.34375,0.0
1733975719.012485,-72.75390625,-44.43359375,-56.640625,-17.578125,0.0
1733975719.0163903,-79.1015625,-89.35546875,-31.73828125,-16.11328125,0.0
1733975719.0202959,7.32421875,-95.703125,-44.921875,7.32421875,0.0
1733975719.0242014,-22.94921875,-47.36328125,-49.31640625,7.32421875,0.0
1733975719.0281067,-5.859375,-44.43359375,-16.6015625,7.8125,0.0
1733975719.0320122,52.734375,-139.16015625,-9.27734375,13.18359375,0.0
1733975719.0359175,3.41796875,-101.5625,-20.01953125,2.44140625,0.0
1733975719.039823,-69.82421875,-20.99609375,-58.59375,-0.9765625,0.0
1733975719.0437286,-60.05859375,-15.625,-59.08203125,10.25390625,0.0
1733975719.0473979,4.39453125,-67.87109375,-15.13671875,16.11328125,0.0
1733975719.0513034,46.875,-70.3125,-20.01953125,39.55078125,0.0
1733975719.0552087,-47.8515625,-79.58984375,-29.296875,0.48828125,0.0
1733975719.0591142,-60.546875,-107.421875,-32.2265625,-6.8359375,0.0
1733975719.0630195,20.99609375,-54.6875,-62.5,21.97265625,0.0
1733975719.066925,36.62109375,-28.80859375,-71.77734375,30.76171875,0.0
1733975719.0708306,-9.765625,-58.59375,-67.3828125,34.66796875,0.0
1733975719.0747359,-26.3671875,-71.2890625,-64.453125,16.11328125,0.0
1733975719.0786414,27.83203125,-98.6328125,-60.546875,22.94921875,0.0
1733975719.0825467,8.30078125,-59.5703125,-49.8046875,7.8125,0.0
1733975719.0864522,-34.66796875,-8.7890625,-46.38671875,-8.30078125,0.0
1733975719.0903578,-106.4453125,-45.41015625,-55.17578125,-6.34765625,0.0
1733975719.0952282,-56.640625,-77.1484375,-52.24609375,-3.90625,0.0
1733975719.0991335,20.99609375,-96.6796875,-35.15625,2.9296875,0.0
1733975719.103039,14.16015625,-91.796875,-40.52734375,-10.25390625,0.0
1733975719.1069443,37.109375,-18.5546875,-41.015625,-9.27734375,0.0
1733975719.1108499,30.2734375,-71.2890625,-58.59375,10.25390625,0.0
1733975719.1147554,21.97265625,-133.7890625,-102.5390625,8.30078125,0.0
1733975719.1186607,6.34765625,-54.19921875,-59.08203125,-7.32421875,0.0
1733975719.1225662,2.9296875,-49.31640625,-39.0625,10.7421875,0.0
1733975719.1264718,58.59375,-93.26171875,-43.9453125,51.26953125,0.0
1733975719.130377,79.58984375,-90.33203125,-35.64453125,45.41015625,0.0
1733975719.1342826,-2.9296875,-20.5078125,-50.78125,15.13671875,0.0
1733975719.138188,-92.7734375,28.80859375,-63.4765625,-26.3671875,0.0
1733975719.1422963,-43.45703125,-31.25,-55.17578125,-15.13671875,0.0
1733975719.1462016,13.671875,-101.07421875,-51.7578125,30.2734375,0.0
1733975719.1501071,63.96484375,-100.5859375,-48.828125,49.8046875,0.0
1733975719.1540127,6.8359375,-83.984375,-46.38671875,40.52734375,0.0
1733975719.157918,-62.01171875,-61.03515625,-34.66796875,17.08984375,0.0
1733975719.1618235,31.73828125,-75.1953125,-25.87890625,44.921875,0.0
1733975719.165729,59.08203125,-18.5546875,-43.9453125,41.50390625,0.0
1733975719.1696343,27.83203125,-43.9453125,-35.64453125,17.578125,0.0
1733975719.1735399,-39.0625,-77.1484375,-36.1328125,25.390625,0.0
1733975719.1774452,-48.33984375,-1.953125,-45.41015625,18.5546875,0.0
1733975719.1813507,-59.5703125,-64.453125,-53.7109375,1.46484375,0.0
1733975719.1852562,-63.4765625,-47.36328125,-69.82421875,-2.44140625,0.0
1733975719.1892712,-8.30078125,-30.2734375,-42.96875,17.08984375,0.0
1733975719.1931767,-0.9765625,-68.84765625,-14.16015625,20.99609375,0.0
1733975719.197082,-99.12109375,-61.5234375,-20.5078125,-22.94921875,0.0
1733975719.2009876,-103.02734375,-40.52734375,-56.640625,-21.97265625,0.0
1733975719.204893,-40.0390625,-33.203125,-46.875,34.66796875,0.0
1733975719.2087984,-38.0859375,22.94921875,-34.66796875,31.73828125,0.0
1733975719.212704,-34.66796875,-54.19921875,-29.78515625,17.578125,0.0
1733975719.2166095,-107.421875,-94.23828125,-30.2734375,1.953125,0.0
1733975719.2205148,-89.84375,-41.015625,-44.43359375,1.953125,0.0
1733975719.2244203,-83.984375,-23.4375,-59.08203125,8.7890625,0.0
1733975719.2283256,-122.0703125,40.52734375,-61.5234375,-16.11328125,0.0
1733975719.2322311,-67.87109375,-39.0625,-42.48046875,-10.7421875,0.0
1733975719.2361667,-101.5625,-143.06640625,-35.15625,14.16015625,0.0
1733975719.240072,-120.1171875,-49.31640625,-48.828125,-18.5546875,0.0
1733975719.2439775,-155.76171875,-11.23046875,-41.015625,-25.390625,0.0
1733975719.247883,-73.73046875,-34.66796875,-38.0859375,13.18359375,0.0
1733975719.2517884,-67.3828125,-52.734375,-46.875,10.25390625,0.0
1733975719.255694,-181.640625,-35.64453125,-55.6640625,-24.90234375,0.0
1733975719.2595992,-161.62109375,-53.22265625,-59.08203125,-23.4375,0.0
1733975719.2635047,-173.828125,-24.4140625,-94.23828125,-19.53125,0.0
1733975719.2674103,-115.72265625,-59.08203125,-87.40234375,17.578125,0.0
1733975719.2713156,-117.67578125,-47.8515625,-42.48046875,8.7890625,0.0
1733975719.275221,-224.609375,-47.8515625,-43.9453125,-22.94921875,0.0
1733975719.2791266,-201.66015625,-79.58984375,-47.36328125,3.90625,0.0
1733975719.2829685,-179.6875,3.41796875,-55.6640625,-9.27734375,0.0
1733975719.286874,-125.48828125,2.44140625,-55.6640625,-14.6484375,0.0
1733975719.2907796,-97.16796875,-47.36328125,-52.24609375,-8.7890625,0.0
1733975719.294685,-129.8828125,-79.58984375,-57.12890625,-24.4140625,0.0
1733975719.2985904,-191.89453125,-92.7734375,-72.75390625,-23.4375,0.0
1733975719.302496,-151.3671875,-70.80078125,-72.75390625,-2.9296875,0.0
1733975719.3064013,-72.265625,-24.90234375,-71.2890625,1.46484375,0.0
1733975719.3103068,-103.02734375,-42.48046875,-82.51953125,14.6484375,0.0
1733975719.314212,-115.72265625,-109.86328125,-65.91796875,10.25390625,0.0
1733975719.3181176,-150.87890625,-75.68359375,-65.91796875,-16.11328125,0.0
1733975719.3220232,-155.76171875,-53.22265625,-66.89453125,-4.39453125,0.0
1733975719.3259284,-91.796875,-18.06640625,-65.91796875,-12.20703125,0.0
1733975719.3296952,-38.0859375,-61.5234375,-67.87109375,9.765625,0.0
1733975719.3336008,-89.35546875,-100.5859375,-57.6171875,12.20703125,0.0
1733975719.3375063,-204.1015625,29.78515625,-91.796875,-46.38671875,0.0
1733975719.3414116,-185.05859375,9.765625,-86.9140625,-55.6640625,0.0
1733975719.3453171,-130.37109375,-120.60546875,-38.57421875,-4.39453125,0.0
1733975719.3492227,-53.7109375,-65.4296875,-42.96875,3.41796875,0.0
1733975719.353128,-46.875,-18.06640625,-81.0546875,-19.04296875,0.0
1733975719.3570335,-226.5625,-0.9765625,-110.3515625,-50.29296875,0.0
1733975719.3609388,-168.45703125,-43.9453125,-68.84765625,-28.80859375,0.0
1733975719.3648443,-70.3125,-92.7734375,-54.19921875,-4.39453125,0.0
1733975719.3687499,-38.0859375,-83.49609375,-72.75390625,-5.859375,0.0
1733975719.3726552,-118.1640625,-15.13671875,-74.70703125,-40.0390625,0.0
1733975719.376349,-189.453125,-51.7578125,-65.4296875,-45.41015625,0.0
1733975719.3802543,-105.95703125,-85.9375,-74.70703125,-33.69140625,0.0
1733975719.3841598,-92.28515625,-34.66796875,-94.7265625,-28.80859375,0.0
1733975719.388065,-102.5390625,6.34765625,-73.73046875,-4.39453125,0.0
1733975719.3919706,-45.41015625,-48.828125,-63.4765625,2.44140625,0.0
1733975719.3958762,-94.7265625,-110.83984375,-89.84375,-19.04296875,0.0
1733975719.3997815,-119.140625,-59.5703125,-83.0078125,-35.15625,0.0
1733975719.403687,-20.01953125,-69.3359375,-64.453125,-1.46484375,0.0
1733975719.4075923,-6.8359375,-51.26953125,-70.80078125,-7.32421875,0.0
1733975719.4114978,-103.02734375,-12.6953125,-80.56640625,-23.4375,0.0
1733975719.4154034,-210.44921875,-43.9453125,-73.2421875,-54.19921875,0.0
1733975719.4193087,-227.05078125,-8.7890625,-87.40234375,-98.14453125,0.0
1733975719.4229553,-87.40234375,-56.15234375,-79.1015625,-60.05859375,0.0
1733975719.4268608,-3.41796875,-101.07421875,-66.89453125,-7.32421875,0.0
1733975719.4307663,-52.24609375,-59.08203125,-75.68359375,-1.46484375,0.0
1733975719.4346716,-106.93359375,-49.8046875,-71.77734375,-13.18359375,0.0
1733975719.4385772,-140.625,-48.828125,-95.703125,-39.0625,0.0
1733975719.4424827,-135.7421875,-50.29296875,-116.69921875,-27.83203125,0.0
1733975719.446388,-43.45703125,-73.2421875,-88.37890625,5.37109375,0.0
1733975719.4502935,-6.34765625,-49.8046875,-94.23828125,-11.23046875,0.0
1733975719.4541988,-159.66796875,-63.4765625,-101.5625,-39.55078125,0.0
1733975719.4581044,-156.73828125,-68.84765625,-89.84375,-45.8984375,0.0
1733975719.46201,-72.265625,-41.015625,-80.56640625,-46.38671875,0.0
1733975719.4659152,-13.671875,-69.3359375,-72.265625,-13.18359375,0.0
1733975719.4694993,-57.12890625,-33.69140625,-80.56640625,-0.48828125,0.0
1733975719.4734046,-96.19140625,-13.18359375,-84.47265625,-8.7890625,0.0
1733975719.4773102,-64.453125,-71.77734375,-85.9375,-14.6484375,0.0
1733975719.4812157,-94.7265625,-63.4765625,-95.703125,-41.015625,0.0
1733975719.485121,-110.83984375,-5.37109375,-90.8203125,-45.8984375,0.0
1733975719.4890265,-68.359375,8.30078125,-95.21484375,-18.06640625,0.0
1733975719.4929318,-30.2734375,-56.15234375,-90.8203125,3.41796875,0.0
1733975719.4968374,-86.42578125,-83.984375,-81.0546875,-14.6484375,0.0
1733975719.500743,-173.33984375,-47.36328125,-72.75390625,-30.2734375,0.0
1733975719.5046482,-64.453125,-9.765625,-62.5,-5.37109375,0.0
1733975719.5085537,1.46484375,-22.4609375,-68.359375,7.8125,0.0
1733975719.5124593,-50.78125,-83.49609375,-68.84765625,5.37109375,0.0
1733975719.5166335,-123.046875,-47.8515625,-64.94140625,-14.6484375,0.0
1733975719.5205388,-149.90234375,10.25390625,-65.91796875,-55.17578125,0.0
1733975719.5244443,-78.61328125,-46.38671875,-68.84765625,-24.90234375,0.0
1733975719.5283496,-55.6640625,-11.71875,-83.0078125,-23.4375,0.0
1733975719.5322552,-94.23828125,-38.0859375,-66.40625,-18.06640625,0.0
1733975719.5361607,-53.22265625,-90.33203125,-79.1015625,-1.46484375,0.0
1733975719.540066,-57.6171875,-65.4296875,-111.328125,-17.08984375,0.0
1733975719.5439715,-84.9609375,-76.171875,-74.21875,-16.6015625,0.0
1733975719.5478768,-38.0859375,-70.80078125,-55.6640625,-8.30078125,0.0
1733975719.5517824,-53.7109375,-55.17578125,-84.9609375,-15.625,0.0
1733975719.555688,-100.5859375,-48.828125,-108.3984375,-41.9921875,0.0
1733975719.5595932,-118.65234375,-9.27734375,-110.83984375,-66.40625,0.0
1733975719.5636659,-102.05078125,15.625,-77.1484375,-74.21875,0.0
1733975719.5675714,-76.171875,-25.87890625,-69.3359375,-36.1328125,0.0
1733975719.571477,-67.3828125,-39.0625,-92.28515625,-23.4375,0.0
1733975719.5753822,-107.421875,-91.30859375,-117.67578125,-24.4140625,0.0
1733975719.5792878,-121.09375,-69.3359375,-118.65234375,-41.015625,0.0
1733975719.583193,-102.05078125,-38.0859375,-81.0546875,-58.59375,0.0
1733975719.5870986,-67.3828125,-43.9453125,-83.0078125,-29.296875,0.0
1733975719.5910041,-26.85546875,-94.7265625,-92.28515625,-5.859375,0.0
1733975719.5949094,-49.8046875,-138.18359375,-94.7265625,-25.390625,0.0
1733975719.598815,-87.40234375,-74.70703125,-114.74609375,-53.7109375,0.0
1733975719.6027205,-112.3046875,6.8359375,-115.234375,-76.171875,0.0
1733975719.6066258,-89.35546875,-53.22265625,-125.9765625,-33.203125,0.0
1733975719.610604,-56.640625,-115.72265625,-153.80859375,-7.32421875,0.0
1733975719.6145096,-90.8203125,-102.05078125,-117.1875,-30.76171875,0.0
1733975719.618415,-122.55859375,-83.984375,-78.125,-31.25,0.0
1733975719.6223204,-125.0,-86.9140625,-78.125,-17.08984375,0.0
1733975719.626226,-20.5078125,-73.73046875,-96.19140625,6.34765625,0.0
1733975719.6301312,48.33984375,-96.6796875,-127.44140625,-4.8828125,0.0
1733975719.6340368,-93.26171875,-80.078125,-128.90625,-22.94921875,0.0
1733975719.6379423,-123.53515625,-81.0546875,-118.1640625,-25.390625,0.0
1733975719.6418476,-71.2890625,-63.96484375,-143.06640625,-29.78515625,0.0
1733975719.6457531,-49.31640625,-56.15234375,-122.0703125,-20.01953125,0.0
1733975719.6496587,-68.359375,-76.171875,-110.3515625,-25.87890625,0.0
1733975719.653564,-150.390625,-79.58984375,-133.30078125,-44.43359375,0.0
1733975719.6574957,-120.1171875,-110.83984375,-127.44140625,-29.296875,0.0
1733975719.661401,-78.125,-43.45703125,-137.6953125,-33.203125,0.0
1733975719.6653066,-51.7578125,-30.2734375,-146.484375,-24.4140625,0.0
1733975719.669212,7.32421875,-103.02734375,-141.6015625,5.37109375,0.0
1733975719.6731174,-131.8359375,-55.6640625,-135.25390625,-34.1796875,0.0
1733975719.677023,-146.97265625,-16.6015625,-119.62890625,-41.9921875,0.0
1733975719.6809285,-80.078125,-73.2421875,-112.3046875,-20.01953125,0.0
1733975719.6848338,-74.70703125,-49.8046875,-117.67578125,-41.50390625,0.0
1733975719.6887393,-14.16015625,-36.62109375,-84.9609375,-12.20703125,0.0
1733975719.6926446,-103.515625,-51.26953125,-82.51953125,-9.765625,0.0
1733975719.6965501,-105.46875,-50.29296875,-121.58203125,-32.2265625,0.0
1733975719.7004557,-18.06640625,-88.37890625,-124.51171875,-38.57421875,0.0
1733975719.7042668,-53.7109375,-103.02734375,-87.890625,-20.5078125,0.0
1733975719.7081723,-1.46484375,-94.23828125,-82.03125,40.52734375,0.0
1733975719.7120779,-15.13671875,-7.8125,-108.88671875,19.04296875,0.0
1733975719.7159832,-149.4140625,-1.953125,-116.69921875,-18.5546875,0.0
1733975719.7198887,-107.421875,-55.6640625,-89.35546875,-23.92578125,0.0
1733975719.7237942,-40.0390625,-14.6484375,-76.171875,-22.4609375,0.0
1733975719.7276995,-54.6875,-44.43359375,-80.078125,28.80859375,0.0
1733975719.731605,-53.22265625,-101.5625,-91.30859375,12.6953125,0.0
1733975719.7355103,-110.3515625,-91.796875,-86.42578125,-26.85546875,0.0
1733975719.739416,-78.61328125,-82.03125,-72.265625,-43.45703125,0.0
1733975719.7433214,-20.01953125,-41.9921875,-72.265625,-21.97265625,0.0
1733975719.7472267,6.8359375,-15.625,-85.9375,5.37109375,0.0
1733975719.751607,-38.57421875,-49.8046875,-83.984375,-29.296875,0.0
1733975719.7555125,-125.0,-104.4921875,-66.89453125,-34.66796875,0.0
1733975719.7594178,-127.44140625,-60.05859375,-62.98828125,-30.2734375,0.0
1733975719.7633233,-56.15234375,-16.6015625,-73.2421875,-28.3203125,0.0
1733975719.7672286,-0.48828125,-29.296875,-95.21484375,-20.01953125,0.0
1733975719.7711341,-37.59765625,-28.80859375,-83.0078125,-5.37109375,0.0
1733975719.7750397,-107.91015625,-25.87890625,-60.546875,-5.37109375,0.0
1733975719.778945,-136.23046875,-99.12109375,-51.26953125,-10.25390625,0.0
1733975719.7828505,-45.8984375,-47.8515625,-56.15234375,-21.97265625,0.0
1733975719.786756,10.25390625,-55.6640625,-56.15234375,8.7890625,0.0
1733975719.7906613,-40.0390625,-95.703125,-40.52734375,5.37109375,0.0
1733975719.7945669,-127.44140625,-19.04296875,-54.19921875,-38.0859375,0.0
1733975719.7981815,-113.28125,-10.25390625,-70.80078125,-49.8046875,0.0
1733975719.802087,-59.5703125,-50.78125,-56.15234375,-17.08984375,0.0
1733975719.8059924,26.3671875,-104.00390625,-73.2421875,8.30078125,0.0
1733975719.809898,28.80859375,-62.5,-67.3828125,-18.06640625,0.0
1733975719.8138032,-130.859375,1.953125,-42.48046875,-45.8984375,0.0
1733975719.8177087,-143.06640625,-54.6875,-44.921875,-50.78125,0.0
1733975719.8216143,-41.015625,-89.84375,-43.9453125,-55.17578125,0.0
1733975719.8255196,1.46484375,-56.15234375,-45.8984375,-35.64453125,0.0
1733975719.829425,11.23046875,-37.109375,-66.89453125,-10.7421875,0.0
1733975719.8333306,-104.4921875,-36.1328125,-76.66015625,-38.57421875,0.0
1733975719.837236,-122.0703125,-10.7421875,-48.828125,-68.84765625,0.0
1733975719.8411415,-61.03515625,-33.69140625,-58.10546875,-38.0859375,0.0
1733975719.8453276,-34.66796875,-51.7578125,-71.2890625,-22.4609375,0.0
1733975719.8492332,-18.06640625,-30.2734375,-40.0390625,-35.64453125,0.0
1733975719.8531384,-64.94140625,6.8359375,-32.2265625,-50.78125,0.0
1733975719.857044,-121.58203125,-55.17578125,-26.85546875,-54.19921875,0.0
1733975719.8609493,-121.09375,-68.84765625,-54.6875,-56.15234375,0.0
1733975719.8648548,-94.23828125,-8.30078125,-48.828125,-60.05859375,0.0
1733975719.8687603,-61.5234375,-3.90625,-38.57421875,-33.69140625,0.0
1733975719.8726656,-43.9453125,-58.59375,-75.68359375,-51.7578125,0.0
1733975719.8765712,-104.4921875,-99.609375,-48.33984375,-75.1953125,0.0
1733975719.8804767,-139.16015625,-97.16796875,-20.99609375,-66.89453125,0.0
1733975719.884382,-107.91015625,-8.30078125,-42.48046875,-78.125,0.0
1733975719.8882875,-99.12109375,-18.5546875,-44.43359375,-87.890625,0.0
1733975719.892363,-127.44140625,-35.64453125,-51.26953125,-100.5859375,0.0
1733975719.8962684,-192.3828125,-1.46484375,-99.609375,-133.30078125,0.0
1733975719.900174,-211.42578125,-80.078125,-77.1484375,-130.859375,0.0
1733975719.9040794,-118.1640625,-88.8671875,-41.50390625,-125.48828125,0.0
1733975719.9079847,-91.30859375,-56.15234375,-40.0390625,-147.4609375,0.0
1733975719.9118903,-203.125,-34.1796875,-31.73828125,-191.40625,0.0
1733975719.9157958,-288.57421875,-39.0625,-36.62109375,-229.98046875,0.0
1733975719.919701,-318.84765625,-42.48046875,-56.15234375,-242.67578125,0.0
1733975719.9236066,-198.2421875,-109.375,-67.3828125,-233.88671875,0.0
1733975719.927512,-198.2421875,-108.88671875,-77.63671875,-245.60546875,0.0
1733975719.9314175,-345.703125,-26.85546875,-68.359375,-276.3671875,0.0
1733975719.935323,-396.484375,-42.96875,-64.94140625,-294.921875,0.0
1733975719.9393387,-397.94921875,-28.3203125,-96.6796875,-336.9140625,0.0
1733975719.9432442,-335.9375,-26.85546875,-94.23828125,-331.54296875,0.0
1733975719.9471495,-287.59765625,-25.390625,-91.796875,-315.4296875,0.0
1733975719.951055,-301.7578125,-44.43359375,-106.93359375,-323.73046875,0.0
1733975719.9549603,-346.6796875,-94.7265625,-86.9140625,-339.35546875,0.0
1733975719.958866,-392.578125,-63.4765625,-91.30859375,-354.00390625,0.0
1733975719.9627714,-345.703125,-40.52734375,-89.84375,-336.9140625,0.0
1733975719.9666767,-295.8984375,-36.62109375,-90.33203125,-293.45703125,0.0
1733975719.9705822,-276.85546875,-94.7265625,-96.19140625,-253.90625,0.0
1733975719.9744878,-279.296875,-152.34375,-78.61328125,-255.859375,0.0
1733975719.978393,-310.546875,-73.2421875,-80.56640625,-273.92578125,0.0
1733975719.9822986,-291.015625,-7.32421875,-115.72265625,-233.88671875,0.0
1733975719.9862278,-186.5234375,-57.12890625,-102.05078125,-172.36328125,0.0
1733975719.9901333,-114.74609375,-50.78125,-35.64453125,-153.80859375,0.0
1733975719.9940388,-200.1953125,-64.94140625,-29.78515625,-153.80859375,0.0
1733975719.997944,-299.8046875,-99.609375,-72.75390625,-156.73828125,0.0
1733975720.0018497,-154.296875,-98.14453125,-68.359375,-110.83984375,0.0
1733975720.0057552,-27.83203125,-146.97265625,-40.0390625,-19.53125,0.0
1733975720.0096605,-29.296875,-117.67578125,-59.08203125,-9.765625,0.0
1733975720.013566,-96.6796875,-102.05078125,-92.28515625,-42.48046875,0.0
1733975720.0174713,-114.2578125,-123.046875,-81.54296875,-19.53125,0.0
1733975720.0213768,-44.43359375,-106.93359375,-40.0390625,21.97265625,0.0
1733975720.0252824,10.7421875,-91.796875,-46.38671875,34.66796875,0.0
1733975720.0291877,4.8828125,-105.46875,-70.3125,39.55078125,0.0
1733975720.033064,-48.828125,-113.28125,-87.40234375,49.8046875,0.0
1733975720.0369692,-20.01953125,-130.859375,-103.515625,55.6640625,0.0
1733975720.0408747,-10.25390625,-98.14453125,-110.3515625,53.7109375,0.0
1733975720.04478,0.9765625,-77.1484375,-65.91796875,70.80078125,0.0
1733975720.0486856,21.97265625,-67.3828125,-33.203125,95.21484375,0.0
1733975720.052591,33.203125,-119.140625,-49.8046875,88.8671875,0.0
1733975720.0564964,28.3203125,-138.671875,-73.73046875,74.21875,0.0
1733975720.060402,-4.39453125,-117.67578125,-84.47265625,76.171875,0.0
1733975720.0643072,17.578125,-85.9375,-82.03125,76.171875,0.0
1733975720.0682127,105.46875,-102.05078125,-76.171875,103.515625,0.0
1733975720.0721183,72.265625,-109.375,-93.26171875,116.69921875,0.0
1733975720.0760236,-27.83203125,-61.03515625,-111.81640625,77.63671875,0.0
1733975720.0804248,-16.11328125,-88.37890625,-103.02734375,64.453125,0.0
1733975720.0843303,54.19921875,-102.05078125,-88.37890625,102.05078125,0.0
1733975720.0882356,102.5390625,-136.23046875,-99.12109375,117.1875,0.0
1733975720.0921412,33.203125,-101.07421875,-114.74609375,84.47265625,0.0
1733975720.0960467,-47.8515625,-66.89453125,-117.67578125,68.359375,0.0
1733975720.099952,-2.9296875,-113.76953125,-128.90625,70.80078125,0.0
1733975720.1038575,63.96484375,-134.27734375,-120.1171875,92.7734375,0.0
1733975720.1077628,91.30859375,-48.33984375,-127.44140625,113.76953125,0.0
1733975720.1116683,78.125,-98.6328125,-90.8203125,117.67578125,0.0
1733975720.115574,-33.203125,-110.3515625,-63.4765625,83.0078125,0.0
1733975720.1194792,-56.15234375,-103.515625,-73.2421875,51.26953125,0.0
1733975720.1233847,8.30078125,-79.58984375,-85.9375,59.5703125,0.0
1733975720.1270616,12.6953125,-34.1796875,-92.28515625,63.96484375,0.0
1733975720.1309671,55.17578125,-74.21875,-105.46875,90.33203125,0.0
1733975720.1348727,-26.3671875,-80.56640625,-113.76953125,72.265625,0.0
1733975720.138778,-69.82421875,-79.58984375,-102.5390625,31.25,0.0
1733975720.1426835,-23.4375,-70.3125,-121.58203125,59.5703125,0.0
1733975720.146589,4.39453125,-83.0078125,-116.2109375,84.47265625,0.0
1733975720.1504943,32.2265625,-107.91015625,-105.46875,69.3359375,0.0
1733975720.1543999,-70.80078125,-64.94140625,-97.16796875,48.828125,0.0
1733975720.1583052,-106.4453125,-2.9296875,-94.7265625,20.01953125,0.0
1733975720.1622107,-78.61328125,-3.41796875,-122.55859375,20.01953125,0.0
1733975720.1661162,-31.25,-52.24609375,-131.34765625,67.87109375,0.0
1733975720.1700215,87.40234375,-111.81640625,-87.40234375,84.9609375,0.0
1733975720.173628,13.671875,-62.01171875,-87.40234375,47.8515625,0.0
1733975720.1775336,-91.30859375,-28.3203125,-96.6796875,18.5546875,0.0
1733975720.1814392,-36.1328125,-130.37109375,-81.54296875,24.90234375,0.0
1733975720.1853445,-26.3671875,-124.51171875,-112.79296875,51.7578125,0.0
1733975720.18925,-27.83203125,-36.1328125,-124.0234375,58.59375,0.0
1733975720.1931553,-19.04296875,-56.640625,-75.68359375,35.64453125,0.0
1733975720.1970608,-51.26953125,-18.5546875,-67.3828125,11.71875,0.0
1733975720.2009664,-102.05078125,-62.5,-71.2890625,16.6015625,0.0
1733975720.2048717,-7.8125,-120.60546875,-79.1015625,44.921875,0.0
1733975720.2087772,57.6171875,-52.734375,-88.8671875,41.50390625,0.0
1733975720.2126827,-64.94140625,-30.76171875,-84.47265625,8.7890625,0.0
1733975720.216588,-90.8203125,-71.2890625,-85.9375,1.46484375,0.0
1733975720.2201288,-68.359375,-47.8515625,-92.7734375,9.765625,0.0
1733975720.2240343,-28.3203125,-42.48046875,-100.5859375,16.11328125,0.0
1733975720.2279396,12.20703125,-38.57421875,-97.16796875,11.23046875,0.0
1733975720.2318451,-8.7890625,-66.40625,-96.6796875,20.99609375,0.0
1733975720.2357507,-78.125,-77.63671875,-107.421875,-7.32421875,0.0
1733975720.239656,-79.58984375,-67.3828125,-106.93359375,-9.765625,0.0
1733975720.2435615,0.48828125,-49.8046875,-86.9140625,24.4140625,0.0
1733975720.2474668,16.6015625,-64.453125,-56.15234375,41.015625,0.0
1733975720.2513723,-33.69140625,-66.89453125,-62.98828125,2.44140625,0.0
1733975720.2552779,-110.83984375,-35.64453125,-81.54296875,-39.0625,0.0
1733975720.2591832,-109.375,-55.17578125,-89.84375,-23.92578125,0.0
1733975720.2630887,-28.80859375,-41.015625,-97.16796875,11.71875,0.0
1733975720.267194,16.11328125,-59.5703125,-92.28515625,42.96875,0.0
1733975720.2710993,-17.578125,-47.36328125,-100.09765625,25.390625,0.0
1733975720.2750049,-81.54296875,-42.48046875,-89.35546875,-4.39453125,0.0
1733975720.2789104,-112.3046875,-61.5234375,-85.44921875,-32.2265625,0.0
1733975720.2828157,-60.546875,-53.22265625,-103.02734375,-20.99609375,0.0
1733975720.2867212,6.8359375,-61.03515625,-104.98046875,6.8359375,0.0
1733975720.2906268,0.9765625,-74.70703125,-87.890625,15.625,0.0
1733975720.294532,-29.78515625,-90.8203125,-75.1953125,14.6484375,0.0
1733975720.2984376,-104.00390625,-85.44921875,-93.75,-29.78515625,0.0
1733975720.302343,-65.91796875,-70.3125,-92.7734375,-10.7421875,0.0
1733975720.3062484,-5.37109375,-43.45703125,-86.9140625,14.16015625,0.0
1733975720.310154,-31.73828125,-52.24609375,-83.984375,-2.44140625,0.0
1733975720.314164,-66.89453125,-44.43359375,-97.65625,-21.484375,0.0
1733975720.3180695,-99.609375,-56.15234375,-92.28515625,-34.66796875,0.0
1733975720.321975,-46.38671875,-82.03125,-85.9375,-20.5078125,0.0
1733975720.3258803,0.0,-93.75,-97.65625,17.08984375,0.0
1733975720.3297858,-3.41796875,-59.5703125,-104.4921875,3.41796875,0.0
1733975720.3336914,-100.09765625,-80.078125,-87.40234375,-16.6015625,0.0
1733975720.3375967,-134.765625,-72.265625,-83.984375,-18.06640625,0.0
1733975720.3415022,-62.98828125,-36.1328125,-86.9140625,-34.66796875,0.0
1733975720.3454075,-10.25390625,-42.48046875,-93.75,-8.7890625,0.0
1733975720.349313,-40.0390625,-45.8984375,-114.2578125,16.11328125,0.0
1733975720.3532186,-86.9140625,-72.265625,-109.86328125,-5.859375,0.0
1733975720.3571239,-68.84765625,-74.21875,-103.515625,-15.13671875,0.0
1733975720.3610587,-70.3125,5.37109375,-101.5625,-44.921875,0.0
1733975720.3649642,-16.6015625,-38.0859375,-78.61328125,-25.87890625,0.0
1733975720.3688695,11.71875,-93.75,-72.265625,6.34765625,0.0
1733975720.372775,-93.26171875,-58.59375,-100.5859375,-38.0859375,0.0
1733975720.3766806,-160.15625,-52.24609375,-122.55859375,-46.38671875,0.0
1733975720.380586,-118.65234375,-49.8046875,-139.16015625,-15.625,0.0
1733975720.3844914,-63.4765625,-57.12890625,-102.05078125,-8.7890625,0.0
1733975720.3883967,-47.8515625,-59.08203125,-77.63671875,-1.953125,0.0
1733975720.3923023,-101.07421875,-20.01953125,-107.91015625,-21.484375,0.0
1733975720.3962078,-154.296875,-28.3203125,-120.1171875,-48.33984375,0.0
1733975720.400113,-91.30859375,-90.33203125,-108.3984375,-31.73828125,0.0
1733975720.4040186,-38.0859375,-85.44921875,-103.02734375,0.48828125,0.0
1733975720.4078474,-33.69140625,-46.38671875,-93.75,10.7421875,0.0
1733975720.4117527,-44.43359375,-16.11328125,-103.02734375,-3.41796875,0.0
1733975720.4156582,-127.9296875,-62.98828125,-104.98046875,-19.04296875,0.0
1733975720.4195635,-130.37109375,-90.8203125,-113.76953125,-30.76171875,0.0
1733975720.423469,-61.03515625,-67.3828125,-108.88671875,-24.90234375,0.0
1733975720.4273746,-64.94140625,-43.45703125,-102.05078125,-16.11328125,0.0
1733975720.43128,-110.3515625,-53.7109375,-128.41796875,-29.296875,0.0
1733975720.4351854,-111.328125,-105.46875,-113.28125,-39.0625,0.0
1733975720.439091,-128.41796875,-60.05859375,-89.35546875,-21.97265625,0.0
1733975720.4429963,-85.9375,-56.15234375,-91.796875,-8.7890625,0.0
1733975720.4469018,-35.15625,-48.33984375,-89.84375,-20.01953125,0.0
1733975720.450807,-60.05859375,-0.9765625,-96.6796875,-48.33984375,0.0
1733975720.4545991,-102.05078125,-42.96875,-80.078125,-33.203125,0.0
1733975720.4585047,-152.83203125,-56.15234375,-83.984375,-25.87890625,0.0
1733975720.4624102,-110.3515625,-43.9453125,-101.07421875,-38.57421875,0.0
1733975720.4663155,-57.12890625,-39.0625,-117.1875,-20.01953125,0.0
1733975720.470221,-47.8515625,-84.9609375,-104.98046875,-22.94921875,0.0
1733975720.4741266,-120.1171875,-92.7734375,-105.46875,-44.921875,0.0
1733975720.4780319,-179.19921875,-78.61328125,-116.2109375,-43.45703125,0.0
1733975720.4819374,-101.5625,-38.57421875,-138.671875,-20.5078125,0.0
1733975720.4858427,-25.390625,-5.37109375,-104.00390625,6.8359375,0.0
1733975720.4897482,18.06640625,-75.68359375,-48.828125,44.921875,0.0
1733975720.4936538,-72.75390625,-63.4765625,-65.4296875,-11.71875,0.0
1733975720.497559,-153.3203125,-32.71484375,-85.44921875,-69.3359375,0.0
1733975720.5013008,-110.3515625,-66.89453125,-82.51953125,-34.66796875,0.0
1733975720.5052063,-52.734375,-52.24609375,-87.890625,-16.11328125,0.0
1733975720.509112,-32.71484375,21.97265625,-97.65625,-21.97265625,0.0
1733975720.5130172,-92.28515625,-29.296875,-107.91015625,-46.38671875,0.0
1733975720.5169227,-130.37109375,-72.75390625,-108.88671875,-62.5,0.0
1733975720.520828,-98.6328125,-39.55078125,-110.83984375,-46.38671875,0.0
1733975720.5247335,-4.39453125,-64.453125,-128.90625,-10.7421875,0.0
1733975720.528639,-5.859375,-20.99609375,-115.72265625,0.48828125,0.0
1733975720.5325444,-121.09375,-12.20703125,-94.7265625,-11.71875,0.0
1733975720.53645,-175.29296875,-33.69140625,-106.93359375,-13.18359375,0.0
1733975720.5403554,-55.17578125,-72.75390625,-101.5625,-2.44140625,0.0
1733975720.5442607,38.0859375,-62.01171875,-97.65625,6.34765625,0.0
1733975720.5478992,-37.59765625,15.13671875,-103.02734375,-11.71875,0.0
1733975720.5518045,-123.046875,-4.39453125,-86.42578125,-36.62109375,0.0
1733975720.55571,-97.16796875,-62.01171875,-82.03125,-45.41015625,0.0
1733975720.5596156,-39.0625,-83.0078125,-88.8671875,-37.59765625,0.0
1733975720.563521,-24.90234375,-43.45703125,-92.28515625,-25.87890625,0.0
1733975720.5674264,-39.0625,-6.8359375,-90.8203125,-13.18359375,0.0
1733975720.5713317,-72.265625,-66.89453125,-90.33203125,-2.9296875,0.0
1733975720.5752373,-101.5625,-66.40625,-87.890625,-38.57421875,0.0
1733975720.5791428,-100.5859375,3.90625,-102.5390625,-66.40625,0.0
1733975720.583048,-34.1796875,-29.78515625,-91.30859375,-44.43359375,0.0
1733975720.5869536,-19.53125,-53.22265625,-72.75390625,-19.53125,0.0
1733975720.590859,-118.1640625,-18.06640625,-76.66015625,-39.0625,0.0
1733975720.595074,-155.76171875,-59.08203125,-85.44921875,-61.03515625,0.0
1733975720.5989795,-131.8359375,-83.984375,-96.19140625,-73.2421875,0.0
1733975720.6028848,-101.5625,-36.62109375,-83.49609375,-71.77734375,0.0
1733975720.6067903,-52.24609375,-43.45703125,-65.91796875,-76.171875,0.0
1733975720.6106958,-121.09375,-51.7578125,-83.49609375,-98.6328125,0.0
1733975720.6146011,-241.2109375,-34.1796875,-112.79296875,-122.0703125,0.0
1733975720.6185067,-228.02734375,-53.7109375,-89.84375,-149.90234375,0.0
1733975720.6224122,-161.62109375,-93.26171875,-43.45703125,-149.4140625,0.0
1733975720.6263175,-165.0390625,-50.29296875,-56.640625,-148.4375,0.0
1733975720.630223,-218.26171875,-50.29296875,-101.07421875,-191.89453125,0.0
1733975720.6341283,-305.17578125,-74.21875,-69.3359375,-255.859375,0.0
1733975720.6380339,-349.12109375,-79.1015625,-58.59375,-291.015625,0.0
1733975720.642184,-330.56640625,-87.890625,-72.265625,-300.78125,0.0
1733975720.6460896,-314.94140625,-82.51953125,-73.73046875,-311.5234375,0.0
1733975720.6499949,-346.19140625,-96.6796875,-102.5390625,-307.6171875,0.0
1733975720.6539004,-408.69140625,-66.40625,-133.30078125,-356.93359375,0.0
1733975720.6578057,-460.9375,-14.16015625,-113.76953125,-392.08984375,0.0
1733975720.6617112,-407.71484375,-64.453125,-98.14453125,-365.234375,0.0
1733975720.6656168,-323.2421875,-88.8671875,-117.1875,-327.63671875,0.0
1733975720.669522,-334.9609375,-67.3828125,-143.06640625,-308.10546875,0.0
1733975720.6734276,-405.76171875,-20.01953125,-145.99609375,-346.6796875,0.0
1733975720.6773329,-399.90234375,-84.47265625,-134.765625,-321.2890625,0.0
1733975720.6812384,-291.9921875,-95.703125,-154.78515625,-271.97265625,0.0
1733975720.685144,-233.3984375,-25.87890625,-165.0390625,-256.34765625,0.0
1733975720.689174,-221.19140625,-79.58984375,-150.87890625,-230.46875,0.0
1733975720.6930795,-290.52734375,-86.42578125,-159.66796875,-212.40234375,0.0
1733975720.6969848,-244.140625,-76.66015625,-184.5703125,-169.921875,0.0
1733975720.7008903,-165.0390625,-79.1015625,-198.2421875,-163.57421875,0.0
1733975720.7047958,-135.7421875,-61.03515625,-224.12109375,-139.16015625,0.0
1733975720.7087011,-90.33203125,-46.38671875,-265.625,-85.9375,0.0
1733975720.7126067,-140.625,-58.59375,-276.85546875,-76.171875,0.0
1733975720.716512,-179.19921875,-59.5703125,-297.36328125,-88.8671875,0.0
1733975720.7204175,-124.0234375,-62.5,-310.546875,-59.08203125,0.0
1733975720.724323,-38.57421875,-102.05078125,-273.4375,22.94921875,0.0
1733975720.7282283,-12.6953125,-51.7578125,-272.94921875,33.203125,0.0
1733975720.7321339,-58.59375,-47.8515625,-287.109375,-10.25390625,0.0
1733975720.736076,-93.75,-110.83984375,-255.37109375,-20.01953125,0.0
1733975720.7399817,-60.546875,-86.42578125,-246.09375,-14.6484375,0.0
1733975720.743887,10.7421875,-96.19140625,-249.51171875,20.01953125,0.0
1733975720.7477925,37.59765625,-87.890625,-244.62890625,59.5703125,0.0
1733975720.7516978,-26.85546875,-39.55078125,-244.62890625,49.31640625,0.0
1733975720.7556033,-60.546875,-63.4765625,-234.375,36.62109375,0.0
1733975720.7595088,-14.16015625,-75.1953125,-225.09765625,44.43359375,0.0
1733975720.7634141,42.48046875,-53.22265625,-234.86328125,46.38671875,0.0
1733975720.7673197,67.87109375,-54.6875,-243.1640625,73.2421875,0.0
1733975720.7712252,34.66796875,-105.46875,-219.23828125,76.171875,0.0
1733975720.7751305,-36.1328125,-105.46875,-202.1484375,53.7109375,0.0
1733975720.779036,12.20703125,-38.0859375,-201.66015625,58.10546875,0.0
1733975720.782904,71.2890625,-28.3203125,-189.453125,60.546875,0.0
1733975720.7868094,87.890625,-29.78515625,-199.21875,67.87109375,0.0
1733975720.7907147,39.55078125,-18.06640625,-192.3828125,70.3125,0.0
1733975720.7946203,-27.34375,-64.94140625,-158.69140625,46.38671875,0.0
1733975720.7985258,9.765625,-105.95703125,-135.25390625,53.22265625,0.0
1733975720.802431,32.71484375,-46.38671875,-131.8359375,53.22265625,0.0
1733975720.8063366,59.08203125,-56.640625,-135.25390625,45.41015625,0.0
1733975720.810242,54.19921875,-82.03125,-130.37109375,61.03515625,0.0
1733975720.8141475,-34.1796875,-42.48046875,-135.25390625,36.62109375,0.0
1733975720.818053,-63.96484375,-62.5,-142.08984375,15.13671875,0.0
1733975720.8219583,1.46484375,-30.76171875,-116.2109375,31.25,0.0
1733975720.8258638,57.12890625,-2.44140625,-104.00390625,63.4765625,0.0
1733975720.8296437,33.69140625,-0.9765625,-122.0703125,69.82421875,0.0
1733975720.8335493,-3.90625,-37.59765625,-114.2578125,59.5703125,0.0
1733975720.8374546,-8.7890625,-58.10546875,-108.88671875,39.55078125,0.0
1733975720.84136,23.92578125,-41.50390625,-104.98046875,28.80859375,0.0
1733975720.8452654,63.4765625,-58.59375,-92.7734375,59.5703125,0.0
1733975720.849171,42.48046875,-45.8984375,-96.19140625,79.58984375,0.0
1733975720.8530765,-24.4140625,-26.3671875,-81.0546875,44.921875,0.0
1733975720.8569818,-62.98828125,-71.2890625,-76.171875,23.4375,0.0
1733975720.8608873,-17.08984375,-69.3359375,-74.70703125,31.25,0.0
1733975720.8647928,25.87890625,-33.69140625,-80.56640625,35.15625,0.0
1733975720.8686981,40.0390625,-62.01171875,-86.42578125,48.828125,0.0
1733975720.8726037,-20.01953125,-65.91796875,-86.42578125,47.36328125,0.0
1733975720.876275,-79.1015625,-70.3125,-97.16796875,52.734375,0.0
1733975720.8801804,-8.7890625,-51.26953125,-90.8203125,47.36328125,0.0
1733975720.884086,44.43359375,-5.37109375,-110.83984375,49.8046875,0.0
1733975720.8879914,30.76171875,-8.7890625,-104.98046875,57.6171875,0.0
