timestamps,TP9,AF7,AF8,TP10,Right AUX
1734418907.9815376,969.23828125,867.1875,-1000.0,-340.33203125,0.0
1734418907.9854395,969.23828125,863.28125,-1000.0,-356.4453125,0.0
1734418907.9893413,969.23828125,805.6640625,-1000.0,-228.515625,0.0
1734418907.9932432,969.23828125,660.64453125,-1000.0,-135.7421875,0.0
1734418907.997145,969.23828125,450.1953125,-1000.0,-140.625,0.0
1734418908.001047,969.23828125,108.3984375,-1000.0,-212.890625,0.0
1734418908.0049486,969.23828125,-513.18359375,-1000.0,-267.578125,0.0
1734418908.0088503,969.23828125,-962.890625,-1000.0,-196.77734375,0.0
1734418908.0127523,969.23828125,-993.1640625,-1000.0,-109.375,0.0
1734418908.016654,969.23828125,-992.67578125,-1000.0,-104.4921875,0.0
1734418908.020556,969.23828125,-1000.0,-1000.0,-297.8515625,0.0
1734418908.0244577,969.23828125,-1000.0,-1000.0,-432.6171875,0.0
1734418908.0283966,969.23828125,-1000.0,-1000.0,-454.58984375,0.0
1734418908.0322983,968.75,-1000.0,-1000.0,-581.0546875,0.0
1734418908.0362003,969.23828125,-1000.0,-1000.0,-797.36328125,0.0
1734418908.040102,969.7265625,-1000.0,-1000.0,-991.69921875,0.0
1734418908.0440037,969.23828125,-1000.0,-1000.0,-1000.0,0.0
1734418908.0479057,969.7265625,-1000.0,-1000.0,-995.1171875,0.0
1734418908.0518074,969.23828125,-1000.0,-1000.0,-1000.0,0.0
1734418908.0557094,969.23828125,-1000.0,-1000.0,-1000.0,0.0
1734418908.059611,969.23828125,-1000.0,-1000.0,-1000.0,0.0
1734418908.063513,969.23828125,-1000.0,-1000.0,-1000.0,0.0
1734418908.0674148,969.7265625,-1000.0,-1000.0,-1000.0,0.0
1734418908.0713167,969.23828125,-1000.0,-1000.0,-1000.0,0.0
1734418908.0752845,969.23828125,-1000.0,-1000.0,-1000.0,0.0
1734418908.0791862,969.23828125,-1000.0,-1000.0,-1000.0,0.0
1734418908.0830882,969.23828125,-1000.0,-1000.0,-1000.0,0.0
1734418908.0869899,969.23828125,-1000.0,-1000.0,-1000.0,0.0
1734418908.0908918,969.23828125,-1000.0,-1000.0,-1000.0,0.0
1734418908.0947936,969.23828125,-1000.0,-1000.0,-1000.0,0.0
1734418908.0986955,969.7265625,-1000.0,-1000.0,-1000.0,0.0
1734418908.1025972,969.23828125,-1000.0,-1000.0,-1000.0,0.0
1734418908.1064992,969.23828125,-1000.0,-1000.0,-1000.0,0.0
1734418908.110401,969.23828125,-1000.0,-1000.0,-1000.0,0.0
1734418908.1143029,969.7265625,-1000.0,-1000.0,-999.51171875,0.0
1734418908.1182046,969.7265625,-1000.0,-1000.0,-996.09375,0.0
1734418908.1221702,969.23828125,-1000.0,-1000.0,0.0,0.0
1734418908.1260722,969.23828125,-1000.0,-1000.0,0.0,0.0
1734418908.129974,969.23828125,-1000.0,-1000.0,0.0,0.0
1734418908.1338758,969.23828125,-1000.0,-1000.0,0.0,0.0
1734418908.1377776,969.23828125,-1000.0,-1000.0,0.0,0.0
1734418908.1416795,969.23828125,-1000.0,-1000.0,0.0,0.0
1734418908.1455812,969.23828125,-1000.0,-1000.0,0.0,0.0
1734418908.1494832,969.23828125,-1000.0,-1000.0,0.0,0.0
1734418908.153385,969.23828125,-1000.0,-1000.0,0.0,0.0
1734418908.157287,969.23828125,-1000.0,-1000.0,0.0,0.0
1734418908.1611886,969.23828125,-1000.0,-1000.0,0.0,0.0
1734418908.1650906,969.7265625,-990.72265625,-1000.0,0.0,0.0
1734418908.1690564,969.23828125,-999.51171875,-999.51171875,391.11328125,0.0
1734418908.1729581,969.23828125,-900.87890625,-1000.0,615.234375,0.0
1734418908.17686,969.23828125,-449.70703125,-970.703125,690.91796875,0.0
1734418908.1807618,969.23828125,-301.7578125,-908.203125,542.96875,0.0
1734418908.1846638,969.23828125,-474.12109375,-636.23046875,452.63671875,0.0
1734418908.1885655,969.23828125,-376.46484375,-21.97265625,627.44140625,0.0
1734418908.1924675,969.23828125,-124.0234375,410.64453125,772.94921875,0.0
1734418908.1963692,969.23828125,157.2265625,526.85546875,800.78125,0.0
1734418908.2002711,971.6796875,-428.22265625,473.6328125,727.5390625,0.0
1734418908.2041728,957.51953125,-412.109375,564.94140625,639.6484375,0.0
1734418908.2080748,960.44921875,182.6171875,700.1953125,753.90625,0.0
1734418908.2119765,913.0859375,-4.39453125,741.2109375,952.63671875,0.0
1734418908.2159314,301.7578125,67.87109375,762.20703125,931.640625,0.0
1734418908.2198331,-681.640625,173.33984375,682.12890625,744.62890625,0.0
1734418908.223735,-1000.0,40.0390625,621.09375,588.37890625,0.0
1734418908.2276368,-974.12109375,-187.01171875,564.94140625,639.6484375,0.0
1734418908.2315388,-1000.0,-310.546875,535.15625,793.9453125,0.0
1734418908.2354405,-1000.0,-229.98046875,508.7890625,784.66796875,0.0
1734418908.2393425,-1000.0,-358.88671875,425.29296875,576.171875,0.0
1734418908.2432442,-1000.0,-784.66796875,241.2109375,401.3671875,0.0
1734418908.2471461,-1000.0,-790.0390625,351.5625,444.3359375,0.0
1734418908.2510478,-1000.0,-74.70703125,650.390625,495.1171875,0.0
1734418908.2549498,-1000.0,143.06640625,640.13671875,514.6484375,0.0
1734418908.2588515,-1000.0,-298.33984375,499.0234375,358.88671875,0.0
1734418908.262805,-1000.0,-587.890625,371.09375,138.671875,0.0
1734418908.2667067,-1000.0,-407.2265625,430.6640625,188.4765625,0.0
1734418908.2706087,-1000.0,-267.578125,539.0625,399.90234375,0.0
1734418908.2745104,-1000.0,-310.05859375,556.640625,445.3125,0.0
1734418908.2784123,-1000.0,-478.515625,467.28515625,287.59765625,0.0
1734418908.282314,-1000.0,-877.9296875,273.92578125,119.62890625,0.0
1734418908.286216,-1000.0,-1000.0,299.31640625,95.21484375,0.0
1734418908.2901177,-1000.0,-990.72265625,372.55859375,247.0703125,0.0
1734418908.2940197,-1000.0,-725.09765625,497.0703125,312.98828125,0.0
1734418908.2979217,-1000.0,-598.14453125,500.0,194.3359375,0.0
1734418908.3018234,-1000.0,-920.41015625,252.9296875,-56.640625,0.0
1734418908.3057253,-1000.0,-989.2578125,265.625,-76.66015625,0.0
1734418908.3096743,0.0,-763.671875,489.2578125,106.93359375,0.0
1734418908.3135762,0.0,-511.71875,576.66015625,198.73046875,0.0
1734418908.3174782,0.0,-723.6328125,406.25,113.28125,0.0
1734418908.32138,0.0,-1000.0,240.234375,-144.04296875,0.0
1734418908.3252819,0.0,-995.1171875,288.0859375,-222.65625,0.0
1734418908.3291836,0.0,-985.83984375,433.10546875,-28.3203125,0.0
1734418908.3330855,0.0,-990.234375,406.73828125,165.0390625,0.0
1734418908.3369873,0.0,-1000.0,332.51953125,188.96484375,0.0
1734418908.3408892,0.0,-1000.0,295.8984375,-55.17578125,0.0
1734418908.3447912,0.0,-997.0703125,209.9609375,-133.30078125,0.0
1734418908.348693,0.0,-1000.0,340.33203125,123.046875,0.0
1734418908.3525949,0.0,-961.42578125,478.02734375,354.00390625,0.0
1734418908.3565397,-1000.0,-939.94140625,493.65234375,382.32421875,0.0
1734418908.3604417,-1000.0,-1000.0,250.48828125,207.51953125,0.0
1734418908.3643436,-1000.0,-1000.0,115.72265625,163.57421875,0.0
1734418908.3682454,-1000.0,-998.53515625,317.87109375,331.54296875,0.0
1734418908.3721473,-1000.0,-1000.0,451.171875,528.80859375,0.0
1734418908.376049,-1000.0,-1000.0,352.05078125,573.2421875,0.0
1734418908.379951,-1000.0,-1000.0,-157.2265625,324.70703125,0.0
1734418908.3838527,-1000.0,-1000.0,-381.8359375,146.484375,0.0
1734418908.3877547,-1000.0,-1000.0,40.0390625,308.59375,0.0
1734418908.3916566,-1000.0,-1000.0,276.85546875,528.80859375,0.0
1734418908.3955584,-1000.0,-1000.0,272.94921875,610.3515625,0.0
1734418908.3994603,-1000.0,-1000.0,-83.49609375,399.4140625,0.0
1734418908.403399,-1000.0,-1000.0,-477.5390625,199.21875,0.0
1734418908.407301,-1000.0,-1000.0,-420.41015625,335.9375,0.0
1734418908.4112027,-1000.0,-1000.0,-90.8203125,541.50390625,0.0
1734418908.4151046,-1000.0,-1000.0,225.09765625,599.12109375,0.0
1734418908.4190063,-1000.0,-1000.0,-100.5859375,446.77734375,0.0
1734418908.4229083,-1000.0,-1000.0,-691.89453125,231.4453125,0.0
1734418908.42681,-1000.0,-1000.0,-559.5703125,259.27734375,0.0
1734418908.430712,-1000.0,-1000.0,44.43359375,440.4296875,0.0
1734418908.434614,-1000.0,-1000.0,252.44140625,536.1328125,0.0
1734418908.4385157,-1000.0,-1000.0,-155.2734375,371.09375,0.0
1734418908.4424176,-1000.0,-1000.0,-532.71484375,148.4375,0.0
1734418908.4463193,-1000.0,-1000.0,-241.2109375,215.8203125,0.0
1734418908.450289,-1000.0,-1000.0,164.55078125,478.02734375,0.0
1734418908.454191,-1000.0,-1000.0,355.46875,644.04296875,0.0
1734418908.458093,-1000.0,-1000.0,138.18359375,458.984375,0.0
1734418908.4619946,-1000.0,-1000.0,-303.22265625,141.11328125,0.0
1734418908.4658966,-1000.0,-1000.0,-352.5390625,121.58203125,0.0
1734418908.4697983,-1000.0,-1000.0,-4.8828125,320.80078125,0.0
1734418908.4737003,-1000.0,-1000.0,194.82421875,479.98046875,0.0
1734418908.4776022,-1000.0,-1000.0,7.8125,370.1171875,0.0
1734418908.481504,-1000.0,-1000.0,-517.08984375,38.57421875,0.0
1734418908.485406,-1000.0,-1000.0,-674.8046875,-19.04296875,0.0
1734418908.4893076,-1000.0,-1000.0,-85.44921875,147.4609375,0.0
1734418908.4932096,-1000.0,-1000.0,276.85546875,296.875,0.0
1734418908.4971728,-1000.0,-1000.0,-137.6953125,247.0703125,0.0
1734418908.5010746,-1000.0,-1000.0,-727.05078125,-50.78125,0.0
1734418908.5049765,-1000.0,-1000.0,-763.671875,-203.125,0.0
1734418908.5088785,-1000.0,-1000.0,-412.59765625,-78.61328125,0.0
1734418908.5127802,-1000.0,-1000.0,-255.37109375,112.79296875,0.0
1734418908.5166821,-1000.0,-1000.0,-552.734375,111.81640625,0.0
1734418908.5205839,-1000.0,-1000.0,-859.86328125,-177.734375,0.0
1734418908.5244858,-1000.0,-1000.0,-919.43359375,-330.56640625,0.0
1734418908.5283878,-1000.0,-1000.0,-878.41796875,-23.4375,0.0
1734418908.5322895,-1000.0,-1000.0,-592.7734375,305.17578125,0.0
1734418908.5361915,-1000.0,-1000.0,-467.7734375,321.2890625,0.0
1734418908.5400932,-1000.0,-1000.0,-852.5390625,30.2734375,0.0
1734418908.5440545,-1000.0,-1000.0,-988.28125,-200.68359375,0.0
1734418908.5479562,-1000.0,-1000.0,-822.75390625,-67.3828125,0.0
1734418908.5518582,-1000.0,-1000.0,-523.4375,221.6796875,0.0
1734418908.5557601,-1000.0,-1000.0,-617.1875,289.0625,0.0
1734418908.5596619,-1000.0,-1000.0,-927.24609375,-17.578125,0.0
1734418908.5635638,-996.58203125,-1000.0,-1000.0,-336.42578125,0.0
1734418908.5674658,-1000.0,-1000.0,-888.18359375,-244.140625,0.0
1734418908.5713675,-971.19140625,-1000.0,-624.51171875,38.57421875,0.0
1734418908.5752695,-940.91796875,-1000.0,-698.73046875,144.04296875,0.0
1734418908.5791712,-1000.0,-1000.0,-909.1796875,-89.35546875,0.0
1734418908.5830731,-1000.0,-1000.0,-970.703125,-375.48828125,0.0
1734418908.586975,-1000.0,-1000.0,-977.5390625,-206.54296875,0.0
1734418908.5909321,-984.375,-1000.0,-742.67578125,163.0859375,0.0
1734418908.5948339,-945.80078125,-1000.0,-552.24609375,340.33203125,0.0
1734418908.5987358,-993.1640625,-1000.0,-828.61328125,159.1796875,0.0
1734418908.6026378,-1000.0,-1000.0,-985.83984375,-93.26171875,0.0
1734418908.6065395,-1000.0,-1000.0,-895.99609375,31.73828125,0.0
1734418908.6104414,-993.1640625,-1000.0,-600.5859375,441.40625,0.0
1734418908.6143434,-976.5625,-1000.0,-378.41796875,709.47265625,0.0
1734418908.6182451,-999.51171875,-1000.0,-703.61328125,456.0546875,0.0
1734418908.622147,-994.62890625,-1000.0,-1000.0,-14.16015625,0.0
1734418908.626049,-1000.0,-1000.0,-716.796875,-53.7109375,0.0
1734418908.6299508,-958.49609375,-1000.0,-182.12890625,344.7265625,0.0
1734418908.6338527,-771.97265625,-1000.0,168.9453125,625.9765625,0.0
1734418908.6378057,-863.28125,-1000.0,-76.171875,454.1015625,0.0
1734418908.6417074,-1000.0,-1000.0,-570.3125,133.7890625,0.0
1734418908.6456094,-1000.0,-1000.0,-498.046875,188.4765625,0.0
1734418908.6495113,-816.89453125,-1000.0,65.4296875,475.5859375,0.0
1734418908.653413,-412.59765625,-1000.0,448.2421875,665.52734375,0.0
1734418908.657315,-519.53125,-1000.0,268.06640625,584.9609375,0.0
1734418908.661217,-930.17578125,-1000.0,-192.87109375,191.40625,0.0
1734418908.6651187,-1000.0,-1000.0,-298.33984375,77.1484375,0.0
1734418908.6690207,-641.11328125,-1000.0,336.9140625,357.91015625,0.0
1734418908.6729226,-61.5234375,-993.1640625,693.84765625,672.8515625,0.0
1734418908.6768243,-85.9375,-987.79296875,562.01171875,712.40234375,0.0
1734418908.6807263,-662.109375,-986.81640625,334.47265625,396.484375,0.0
1734418908.684673,-829.1015625,-1000.0,350.09765625,215.8203125,0.0
1734418908.6885748,-478.02734375,-762.20703125,632.32421875,393.06640625,0.0
1734418908.6924767,18.06640625,-495.60546875,767.578125,695.80078125,0.0
1734418908.6963787,56.640625,-455.078125,739.2578125,773.92578125,0.0
1734418908.7002804,-483.88671875,-603.515625,548.33984375,447.265625,0.0
1734418908.7041824,-834.9609375,-909.66796875,451.66015625,173.33984375,0.0
1734418908.7080843,-569.82421875,-927.734375,600.09765625,438.96484375,0.0
1734418908.711986,5.37109375,-724.12109375,747.55859375,820.80078125,0.0
1734418908.715888,126.953125,25.87890625,824.21875,799.31640625,0.0
1734418908.71979,-383.7890625,146.484375,663.0859375,503.90625,0.0
1734418908.7236917,-724.609375,-462.40234375,541.50390625,213.37890625,0.0
1734418908.7275937,-298.828125,-213.8671875,716.30859375,227.05078125,0.0
1734418908.7315385,183.59375,532.71484375,842.7734375,485.83984375,0.0
1734418908.7354405,305.17578125,521.484375,828.125,538.0859375,0.0
1734418908.7393422,-35.64453125,-217.7734375,634.27734375,196.2890625,0.0
1734418908.7432442,-501.953125,-615.234375,498.53515625,-122.0703125,0.0
1734418908.7471461,-273.4375,-341.30859375,663.57421875,-16.11328125,0.0
1734418908.7510478,228.515625,-50.78125,811.03515625,303.7109375,0.0
1734418908.7549498,376.46484375,-468.26171875,710.44921875,487.79296875,0.0
1734418908.7588518,-29.78515625,-731.93359375,607.91015625,285.15625,0.0
1734418908.7627535,-623.046875,-624.51171875,490.72265625,-84.47265625,0.0
1734418908.7666554,-590.8203125,-823.2421875,551.7578125,-12.20703125,0.0
1734418908.7705574,-16.6015625,-544.43359375,776.3671875,378.90625,0.0
1734418908.7744591,271.484375,-92.7734375,804.19921875,591.30859375,0.0
1734418908.7783978,0.0,-532.71484375,607.421875,420.8984375,0.0
1734418908.7822998,0.0,-1000.0,288.57421875,55.17578125,0.0
1734418908.7862015,0.0,-1000.0,379.8828125,108.3984375,0.0
1734418908.7901034,0.0,-762.6953125,707.51953125,480.95703125,0.0
1734418908.7940054,0.0,-671.875,772.94921875,674.31640625,0.0
1734418908.797907,0.0,-969.7265625,414.0625,489.2578125,0.0
1734418908.801809,0.0,-1000.0,-3.90625,125.0,0.0
1734418908.805711,0.0,-989.2578125,251.46484375,62.98828125,0.0
1734418908.8096128,0.0,-999.51171875,632.8125,375.48828125,0.0
1734418908.8135147,0.0,-998.046875,648.4375,605.46875,0.0
1734418908.8174167,0.0,-1000.0,525.390625,447.75390625,0.0
1734418908.8213186,0.0,-996.09375,236.81640625,78.61328125,0.0
1734418908.825223,-107.421875,-1000.0,210.44921875,-44.43359375,0.0
1734418908.8291247,-723.14453125,-990.234375,564.94140625,258.30078125,0.0
1734418908.8330266,-710.44921875,-868.1640625,710.44921875,601.07421875,0.0
1734418908.8369286,-108.88671875,-908.69140625,610.3515625,492.1875,0.0
1734418908.8408303,257.8125,-1000.0,194.3359375,58.59375,0.0
1734418908.8447323,23.92578125,-997.0703125,31.25,-136.23046875,0.0
1734418908.8486342,-506.34765625,-999.0234375,399.90234375,51.26953125,0.0
1734418908.852536,-465.8203125,-1000.0,616.2109375,321.77734375,0.0
1734418908.856438,129.8828125,-1000.0,422.36328125,315.91796875,0.0
1734418908.8603399,412.59765625,-1000.0,-187.98828125,-81.0546875,0.0
1734418908.8642416,112.79296875,-1000.0,-359.86328125,-346.19140625,0.0
1734418908.8681436,-476.07421875,-1000.0,209.9609375,-59.08203125,0.0
1734418908.8721066,567.87109375,-1000.0,474.609375,416.015625,0.0
1734418908.8760085,581.54296875,-1000.0,281.73828125,509.765625,0.0
1734418908.8799105,-2.9296875,-1000.0,-249.0234375,74.70703125,0.0
1734418908.8838122,-543.9453125,-1000.0,-699.70703125,-228.02734375,0.0
1734418908.8877141,-214.35546875,-1000.0,-392.578125,76.171875,0.0
1734418908.891616,329.1015625,-1000.0,145.01953125,514.16015625,0.0
1734418908.8955178,392.08984375,-1000.0,31.73828125,573.2421875,0.0
1734418908.8994198,-211.42578125,-1000.0,-655.76171875,175.29296875,0.0
1734418908.9033217,-763.671875,-1000.0,-1000.0,-180.6640625,0.0
1734418908.9072237,-468.75,-1000.0,-739.74609375,14.6484375,0.0
1734418908.9111254,112.79296875,-1000.0,-74.70703125,425.78125,0.0
1734418908.9150274,305.17578125,-1000.0,-232.421875,520.99609375,0.0
1734418908.9189868,-145.01953125,-1000.0,-900.87890625,39.0625,0.0
1734418908.9228888,-635.7421875,-1000.0,-1000.0,-490.72265625,0.0
1734418908.9267907,-388.18359375,-1000.0,-970.21484375,-394.04296875,0.0
1734418908.9306927,160.64453125,-1000.0,-971.6796875,-5.37109375,0.0
1734418908.9345944,440.4296875,-1000.0,-989.74609375,89.35546875,0.0
1734418908.9384964,72.75390625,-1000.0,-1000.0,-254.8828125,0.0
1734418908.9423983,-567.87109375,-1000.0,-1000.0,-647.4609375,0.0
1734418908.9463,-470.21484375,-1000.0,-1000.0,-521.97265625,0.0
1734418908.950202,119.140625,-1000.0,-1000.0,-55.17578125,0.0
1734418908.954104,357.91015625,-1000.0,-1000.0,203.61328125,0.0
1734418908.958006,-35.64453125,-1000.0,-1000.0,-1.953125,0.0
1734418908.9619076,-699.21875,-1000.0,-1000.0,-434.08203125,0.0
1734418908.9658628,-687.5,-1000.0,-1000.0,-380.37109375,0.0
1734418908.9697645,-136.71875,-1000.0,-1000.0,136.71875,0.0
1734418908.9736664,218.26171875,-1000.0,-1000.0,525.390625,0.0
1734418908.9775684,-179.6875,-1000.0,-1000.0,384.765625,0.0
1734418908.9814703,-895.01953125,-1000.0,-1000.0,-63.96484375,0.0
1734418908.985372,-1000.0,-1000.0,-1000.0,-103.515625,0.0
1734418908.989274,-602.5390625,-1000.0,-1000.0,196.77734375,0.0
1734418908.993176,-117.1875,-1000.0,-1000.0,497.55859375,0.0
1734418908.9970777,-444.3359375,-1000.0,-1000.0,366.69921875,0.0
1734418909.0009797,-976.5625,-1000.0,-987.3046875,-223.6328125,0.0
1734418909.0048816,-1000.0,-1000.0,-1000.0,-452.1484375,0.0
1734418909.0087836,-668.9453125,-1000.0,-926.26953125,-43.45703125,0.0
1734418909.0127342,-65.91796875,-1000.0,-650.390625,397.94921875,0.0
1734418909.0166361,-333.0078125,-1000.0,-809.08203125,348.6328125,0.0
1734418909.020538,-951.66015625,-1000.0,-1000.0,-145.5078125,0.0
1734418909.0244398,-1000.0,-1000.0,-993.1640625,-320.80078125,0.0
1734418909.0283418,-905.76171875,-1000.0,-996.09375,177.24609375,0.0
1734418909.0322437,-489.74609375,-1000.0,-1000.0,744.62890625,0.0
1734418909.0361457,-515.625,-1000.0,-1000.0,804.6875,0.0
1734418909.0400474,-951.66015625,-1000.0,-1000.0,375.48828125,0.0
1734418909.0439494,-1000.0,-1000.0,-1000.0,159.66796875,0.0
1734418909.0478513,-946.77734375,-1000.0,-1000.0,633.30078125,0.0
1734418909.0517533,-541.015625,-1000.0,-1000.0,982.421875,0.0
1734418909.055655,-462.890625,-1000.0,-1000.0,990.234375,0.0
1734418909.059604,-881.34765625,-1000.0,-1000.0,784.1796875,0.0
1734418909.063506,-1000.0,-1000.0,-1000.0,308.10546875,0.0
1734418909.0674076,-820.3125,-1000.0,-1000.0,543.45703125,0.0
1734418909.0713096,-141.11328125,-1000.0,-1000.0,963.8671875,0.0
1734418909.0752115,160.15625,-1000.0,-1000.0,982.91015625,0.0
1734418909.0791135,-318.84765625,-1000.0,-1000.0,747.0703125,0.0
1734418909.0830154,-748.046875,-1000.0,-1000.0,312.5,0.0
1734418909.0869172,-394.53125,-1000.0,-1000.0,514.16015625,0.0
1734418909.0908191,409.1796875,-1000.0,-1000.0,928.7109375,0.0
1734418909.094721,810.05859375,-1000.0,-1000.0,-996.09375,0.0
1734418909.098623,327.1484375,-1000.0,-1000.0,791.9921875,0.0
1734418909.1025248,-220.703125,-1000.0,-1000.0,294.921875,0.0
1734418909.106467,85.9375,-1000.0,-1000.0,401.3671875,0.0
1734418909.1103687,706.0546875,-1000.0,-1000.0,861.81640625,0.0
1734418909.1142707,-982.91015625,-1000.0,-1000.0,-986.328125,0.0
1734418909.1181726,656.25,-1000.0,-1000.0,783.69140625,0.0
1734418909.1220746,-9.27734375,-1000.0,-1000.0,316.40625,0.0
1734418909.1259763,105.95703125,-1000.0,-1000.0,427.24609375,0.0
1734418909.1298783,715.8203125,-1000.0,-1000.0,854.98046875,0.0
1734418909.1337802,-979.4921875,-1000.0,-1000.0,-995.1171875,0.0
1734418909.1376822,778.80859375,-1000.0,-1000.0,837.40234375,0.0
1734418909.141584,99.609375,-1000.0,-998.53515625,272.4609375,0.0
1734418909.1454859,43.45703125,-1000.0,-1000.0,222.65625,0.0
1734418909.1493878,679.19921875,-1000.0,-987.79296875,764.16015625,0.0
1734418909.1533265,-978.515625,-1000.0,-977.5390625,-986.328125,0.0
1734418909.1572282,799.8046875,-1000.0,-1000.0,817.87109375,0.0
1734418909.1611302,139.6484375,-1000.0,-1000.0,296.38671875,0.0
1734418909.1650321,14.6484375,-1000.0,-999.51171875,139.6484375,0.0
1734418909.168934,617.1875,-1000.0,-1000.0,620.60546875,0.0
1734418909.172836,-989.2578125,-1000.0,-1000.0,-980.95703125,0.0
1734418909.1767378,851.07421875,-1000.0,-1000.0,836.42578125,0.0
1734418909.1806397,139.6484375,-1000.0,-1000.0,326.171875,0.0
1734418909.1845417,-79.58984375,-1000.0,-1000.0,185.05859375,0.0
1734418909.1884437,596.19140625,-1000.0,-1000.0,587.890625,0.0
1734418909.1923454,-987.79296875,-1000.0,-1000.0,960.9375,0.0
1734418909.1962473,855.46875,-1000.0,-1000.0,895.5078125,0.0
1734418909.200251,0.0,-1000.0,0.0,413.0859375,0.0
1734418909.204153,0.0,-1000.0,0.0,138.18359375,0.0
1734418909.208055,0.0,-1000.0,0.0,499.51171875,0.0
1734418909.211957,0.0,-1000.0,0.0,923.33984375,0.0
1734418909.215859,0.0,-1000.0,0.0,859.375,0.0
1734418909.2197607,0.0,-1000.0,0.0,317.3828125,0.0
1734418909.2236626,0.0,-1000.0,0.0,-52.24609375,0.0
1734418909.2275646,0.0,-1000.0,0.0,213.37890625,0.0
1734418909.2314665,0.0,-1000.0,0.0,761.71875,0.0
1734418909.2353685,0.0,-1000.0,0.0,833.0078125,0.0
1734418909.2392702,0.0,-1000.0,0.0,265.13671875,0.0
1734418909.2431722,0.0,-1000.0,0.0,-159.1796875,0.0
1734418909.2471352,492.1875,-1000.0,-1000.0,106.4453125,0.0
1734418909.2510371,960.9375,-1000.0,-961.9140625,647.4609375,0.0
1734418909.254939,965.8203125,-1000.0,-935.546875,813.4765625,0.0
1734418909.258841,477.5390625,-1000.0,-1000.0,366.2109375,0.0
1734418909.262743,-91.30859375,-1000.0,-1000.0,-90.8203125,0.0
1734418909.2666447,196.77734375,-1000.0,-998.53515625,167.48046875,0.0
1734418909.2705467,788.57421875,-1000.0,-783.69140625,758.7890625,0.0
1734418909.2744486,-989.74609375,-1000.0,-738.76953125,993.65234375,0.0
1734418909.2783506,526.3671875,-1000.0,-960.44921875,645.5078125,0.0
1734418909.2822526,-135.25390625,-1000.0,-1000.0,27.83203125,0.0
1734418909.2861545,134.765625,-1000.0,-912.109375,39.55078125,0.0
1734418909.2900562,770.5078125,-1000.0,-505.859375,635.7421875,0.0
1734418909.294013,-968.26171875,-1000.0,-456.54296875,900.390625,0.0
1734418909.297915,650.390625,-1000.0,-829.1015625,505.37109375,0.0
1734418909.301817,-38.57421875,-1000.0,-1000.0,-42.96875,0.0
1734418909.305719,123.046875,-1000.0,-901.85546875,-1.953125,0.0
1734418909.3096209,734.86328125,-1000.0,-381.8359375,548.33984375,0.0
1734418909.3135228,-976.5625,-1000.0,-97.16796875,888.671875,0.0
1734418909.3174245,748.046875,-1000.0,-603.515625,572.75390625,0.0
1734418909.3213265,75.68359375,-1000.0,-1000.0,-62.98828125,0.0
1734418909.3252285,56.15234375,-1000.0,-851.07421875,-66.40625,0.0
1734418909.3291304,613.76953125,-1000.0,-155.2734375,461.42578125,0.0
1734418909.3330324,997.0703125,-1000.0,335.9375,827.63671875,0.0
1734418909.3369343,761.71875,-1000.0,-258.7890625,618.65234375,0.0
1734418909.3408883,-8.7890625,-987.3046875,-967.28515625,6.34765625,0.0
1734418909.3447902,-187.01171875,-1000.0,-687.01171875,-141.11328125,0.0
1734418909.3486922,411.62109375,-876.953125,103.515625,359.375,0.0
1734418909.3525941,931.15234375,-778.3203125,437.01171875,872.0703125,0.0
1734418909.356496,718.75,-1000.0,-33.69140625,725.5859375,0.0
1734418909.360398,-71.2890625,-1000.0,-787.109375,-50.78125,0.0
1734418909.3642998,-267.08984375,-982.91015625,-732.91015625,-340.8203125,0.0
1734418909.3682017,338.8671875,-1000.0,-146.97265625,140.13671875,0.0
1734418909.3721037,852.05078125,-898.4375,316.40625,633.30078125,0.0
1734418909.3760056,707.51953125,-843.75,230.46875,478.02734375,0.0
1734418909.3799076,30.76171875,-988.76953125,-576.171875,-141.6015625,0.0
1734418909.3838096,-240.72265625,-1000.0,-724.609375,-412.109375,0.0
1734418909.387762,260.7421875,-762.6953125,105.95703125,-15.13671875,0.0
1734418909.391664,794.921875,-81.54296875,593.75,502.44140625,0.0
1734418909.395566,731.93359375,-158.203125,336.9140625,511.23046875,0.0
1734418909.399468,-14.6484375,-899.4140625,-364.74609375,-10.25390625,0.0
1734418909.40337,-423.33984375,-896.484375,-460.44921875,-340.8203125,0.0
1734418909.4072716,74.21875,-141.6015625,273.92578125,6.34765625,0.0
1734418909.4111736,653.3203125,753.90625,662.109375,544.43359375,0.0
1734418909.4150755,717.28515625,608.88671875,504.8828125,635.7421875,0.0
1734418909.4189775,106.93359375,187.01171875,109.375,85.9375,0.0
1734418909.4228795,-385.25390625,523.92578125,23.92578125,-389.16015625,0.0
1734418909.4267814,-66.40625,927.24609375,505.37109375,-113.76953125,0.0
1734418909.4306834,598.6328125,985.3515625,810.05859375,463.8671875,0.0
1734418909.4346297,0.0,953.125,781.25,615.72265625,0.0
1734418909.4385316,0.0,971.6796875,451.66015625,103.02734375,0.0
1734418909.4424336,0.0,960.44921875,178.22265625,-442.87109375,0.0
1734418909.4463356,0.0,968.75,489.2578125,-324.70703125,0.0
1734418909.4502375,0.0,942.87109375,814.453125,240.72265625,0.0
1734418909.4541392,0.0,-965.33203125,844.23828125,479.98046875,0.0
1734418909.4580412,0.0,760.7421875,308.10546875,40.52734375,0.0
1734418909.4619431,0.0,508.7890625,-1.46484375,-499.0234375,0.0
1734418909.465845,0.0,945.3125,554.19921875,-380.37109375,0.0
1734418909.469747,0.0,996.09375,821.77734375,162.59765625,0.0
1734418909.473649,0.0,949.70703125,816.40625,460.44921875,0.0
1734418909.477551,0.0,972.65625,562.01171875,191.40625,0.0
1734418909.4814956,-394.04296875,959.47265625,268.06640625,-348.14453125,0.0
1734418909.4853973,-306.640625,970.703125,458.0078125,-309.08203125,0.0
1734418909.4892993,377.9296875,951.66015625,762.6953125,167.96875,0.0
1734418909.4932013,747.55859375,971.19140625,801.7578125,422.36328125,0.0
1734418909.4971032,436.03515625,914.0625,501.46484375,139.6484375,0.0
1734418909.5010052,-286.62109375,218.26171875,-85.9375,-428.22265625,0.0
1734418909.5049071,-344.23828125,-446.2890625,-71.77734375,-447.265625,0.0
1734418909.508809,288.0859375,316.40625,559.08203125,45.41015625,0.0
1734418909.512711,797.36328125,-883.7890625,773.92578125,419.43359375,0.0
1734418909.5166128,570.3125,675.78125,447.265625,231.93359375,0.0
1734418909.5205147,-132.8125,-52.734375,-58.10546875,-365.72265625,0.0
1734418909.5244167,-226.5625,100.5859375,71.2890625,-470.21484375,0.0
1734418909.5283551,305.6640625,772.4609375,574.70703125,70.3125,0.0
1734418909.532257,735.83984375,909.1796875,687.98828125,515.625,0.0
1734418909.536159,542.96875,509.765625,473.6328125,393.5546875,0.0
1734418909.540061,-163.57421875,-293.9453125,-105.95703125,-142.08984375,0.0
1734418909.543963,-343.26171875,-335.44921875,-88.8671875,-298.828125,0.0
1734418909.5478647,224.12109375,154.78515625,468.75,151.85546875,0.0
1734418909.5517666,732.421875,279.296875,615.234375,570.80078125,0.0
1734418909.5556686,647.94921875,394.53125,546.875,481.93359375,0.0
1734418909.5595706,1.46484375,-223.6328125,15.625,-65.91796875,0.0
1734418909.5634725,-249.51171875,-803.7109375,-242.67578125,-293.45703125,0.0
1734418909.5673745,157.71484375,-177.734375,395.99609375,51.26953125,0.0
1734418909.5712764,635.7421875,801.7578125,744.140625,495.1171875,0.0
1734418909.5752435,711.9140625,549.31640625,576.171875,594.7265625,0.0
1734418909.5791454,69.3359375,-594.23828125,-12.20703125,98.6328125,0.0
1734418909.5830474,-349.12109375,-890.13671875,-145.99609375,-240.72265625,0.0
1734418909.5869493,76.171875,-144.04296875,446.2890625,85.44921875,0.0
1734418909.5908513,675.29296875,471.6796875,683.10546875,622.0703125,0.0
1734418909.5947533,772.4609375,207.51953125,574.70703125,707.03125,0.0
1734418909.5986552,115.234375,-459.47265625,182.6171875,180.6640625,0.0
1734418909.6025572,-424.31640625,-71.2890625,167.96875,-214.84375,0.0
1734418909.606459,-72.265625,864.74609375,628.90625,16.11328125,0.0
1734418909.6103609,543.9453125,986.81640625,791.9921875,604.4921875,0.0
1734418909.6142628,726.5625,937.01171875,816.40625,740.234375,0.0
1734418909.6181648,218.26171875,976.07421875,622.0703125,158.69140625,0.0
1734418909.6221278,-309.08203125,968.75,480.95703125,-273.4375,0.0
1734418909.6260297,-20.01953125,969.7265625,696.77734375,-121.58203125,0.0
1734418909.6299317,613.28125,969.7265625,849.12109375,404.296875,0.0
1734418909.6338336,783.69140625,972.65625,855.46875,724.609375,0.0
1734418909.6377356,293.45703125,947.75390625,624.51171875,266.6015625,0.0
1734418909.6416376,-283.69140625,952.63671875,481.4453125,-366.69921875,0.0
1734418909.6455395,-122.55859375,973.6328125,725.5859375,-251.46484375,0.0
1734418909.6494415,491.2109375,968.75,860.83984375,307.6171875,0.0
1734418909.6533434,771.97265625,969.7265625,848.6328125,587.40234375,0.0
1734418909.6572454,432.12890625,966.796875,700.68359375,213.8671875,0.0
1734418909.6611474,-189.94140625,969.23828125,610.3515625,-387.20703125,0.0
1734418909.6650493,-179.19921875,970.21484375,763.671875,-301.7578125,0.0
1734418909.6690083,432.12890625,969.23828125,860.3515625,281.73828125,0.0
1734418909.6729102,733.3984375,969.7265625,864.2578125,577.63671875,0.0
1734418909.6768122,452.1484375,969.7265625,838.8671875,301.7578125,0.0
1734418909.6807141,-185.546875,969.7265625,712.890625,-194.3359375,0.0
1734418909.684616,-259.765625,969.7265625,747.55859375,-304.19921875,0.0
1734418909.688518,284.1796875,969.23828125,852.05078125,84.47265625,0.0
1734418909.69242,668.45703125,970.703125,867.1875,478.515625,0.0
1734418909.6963217,458.984375,969.7265625,843.75,252.44140625,0.0
1734418909.7002237,-145.01953125,959.47265625,575.1953125,-380.37109375,0.0
1734418909.7041256,-157.2265625,965.8203125,669.43359375,-567.87109375,0.0
1734418909.7080276,381.8359375,971.6796875,875.9765625,-166.9921875,0.0
1734418909.7119296,646.97265625,968.75,853.02734375,213.37890625,0.0
1734418909.7158825,416.015625,970.21484375,845.21484375,108.88671875,0.0
1734418909.7197845,-221.6796875,969.7265625,669.921875,-438.4765625,0.0
1734418909.7236865,-373.046875,969.7265625,684.08203125,-667.96875,0.0
1734418909.7275884,74.21875,969.23828125,833.984375,-253.90625,0.0
1734418909.7314904,524.4140625,965.8203125,855.46875,229.00390625,0.0
1734418909.7353923,479.4921875,968.75,814.94140625,140.13671875,0.0
1734418909.7392943,-172.36328125,926.26953125,573.2421875,-396.97265625,0.0
1734418909.743196,-549.31640625,678.22265625,470.703125,-565.4296875,0.0
1734418909.747098,-258.7890625,696.77734375,700.1953125,-130.859375,0.0
1734418909.751,319.3359375,960.44921875,856.4453125,302.734375,0.0
1734418909.754902,429.19921875,-961.9140625,826.66015625,184.5703125,0.0
1734418909.7588038,-202.1484375,511.23046875,560.546875,-406.25,0.0
1734418909.7627528,-562.01171875,129.8828125,466.796875,-820.80078125,0.0
1734418909.7666547,-147.94921875,717.28515625,728.02734375,-478.02734375,0.0
1734418909.7705567,351.07421875,-992.67578125,844.23828125,119.62890625,0.0
1734418909.7744586,386.23046875,804.19921875,807.6171875,216.30859375,0.0
1734418909.7783606,-146.484375,-4.8828125,497.0703125,-237.79296875,0.0
1734418909.7822626,-543.9453125,-684.08203125,334.9609375,-607.421875,0.0
1734418909.7861645,-209.47265625,-141.6015625,609.86328125,-322.265625,0.0
1734418909.7900662,334.9609375,204.1015625,770.01953125,220.703125,0.0
1734418909.7939682,408.69140625,331.0546875,802.734375,359.86328125,0.0
1734418909.7978702,-169.43359375,200.68359375,562.01171875,-2.9296875,0.0
1734418909.801772,-639.16015625,-586.9140625,359.86328125,-395.99609375,0.0
1734418909.805674,-388.671875,-326.171875,613.76953125,-211.9140625,0.0
1734418909.8096209,159.1796875,694.82421875,831.0546875,363.28125,0.0
1734418909.8135228,393.06640625,942.3828125,848.6328125,619.140625,0.0
1734418909.8174248,-38.57421875,-78.125,518.06640625,327.1484375,0.0
1734418909.8213267,-601.5625,-961.9140625,280.2734375,-204.1015625,0.0
1734418909.8252287,-415.52734375,-554.6875,556.15234375,-254.39453125,0.0
1734418909.8291306,176.7578125,-121.58203125,798.828125,223.6328125,0.0
1734418909.8330326,460.44921875,-495.60546875,736.81640625,496.09375,0.0
1734418909.8369346,125.48828125,-1000.0,364.74609375,232.421875,0.0
1734418909.8408365,-463.37890625,-1000.0,166.015625,-301.7578125,0.0
1734418909.8447385,-308.59375,-919.921875,434.08203125,-311.03515625,0.0
1734418909.8486404,305.17578125,-631.8359375,734.375,227.5390625,0.0
1734418909.8525424,659.1796875,-238.76953125,820.3125,524.4140625,0.0
1734418909.8564851,401.85546875,-571.2890625,590.33203125,295.8984375,0.0
1734418909.860387,-293.9453125,-1000.0,217.28515625,-234.86328125,0.0
1734418909.864289,-417.96875,-997.0703125,354.00390625,-373.53515625,0.0
1734418909.868191,93.26171875,-383.30078125,750.0,194.3359375,0.0
1734418909.872093,501.953125,162.59765625,832.03125,667.48046875,0.0
1734418909.875995,255.37109375,-541.015625,606.4453125,509.765625,0.0
1734418909.8798969,-392.08984375,-1000.0,3.41796875,-11.71875,0.0
1734418909.8837988,-539.0625,-983.88671875,155.2734375,-116.2109375,0.0
1734418909.8877008,-38.0859375,-490.72265625,755.859375,375.9765625,0.0
1734418909.8916028,430.6640625,-279.296875,791.9921875,752.9296875,0.0
1734418909.8955047,328.61328125,-892.08984375,560.05859375,441.89453125,0.0
1734418909.8994067,-304.6875,-1000.0,-30.2734375,-205.56640625,0.0
1734418909.903346,0.0,-975.5859375,-62.5,-438.4765625,0.0
1734418909.907248,0.0,-1000.0,490.72265625,-36.1328125,0.0
1734418909.91115,0.0,-1000.0,659.66796875,467.28515625,0.0
1734418909.915052,0.0,-1000.0,508.30078125,393.06640625,0.0
1734418909.918954,0.0,-1000.0,-115.234375,-151.85546875,0.0
1734418909.9228559,0.0,-1000.0,-580.078125,-412.59765625,0.0
1734418909.9267578,0.0,-1000.0,22.4609375,-27.83203125,0.0
1734418909.9306598,0.0,-1000.0,630.859375,490.72265625,0.0
1734418909.9345617,0.0,-1000.0,530.2734375,540.52734375,0.0
1734418909.9384637,0.0,-1000.0,-107.91015625,113.76953125,0.0
1734418909.9423656,0.0,-1000.0,-361.328125,-208.49609375,0.0
1734418909.9462676,0.0,-1000.0,341.796875,112.3046875,0.0
1734418909.9501417,-486.328125,-1000.0,673.33984375,644.53125,0.0
1734418909.9540436,-14.6484375,-1000.0,537.109375,780.2734375,0.0
1734418909.9579456,469.23828125,-1000.0,44.921875,312.5,0.0
1734418909.9618475,413.0859375,-1000.0,-270.5078125,-176.7578125,0.0
1734418909.9657495,-182.6171875,-1000.0,286.62109375,57.6171875,0.0
1734418909.9696515,-480.46875,-1000.0,634.765625,649.4140625,0.0
1734418909.9735534,-83.49609375,-1000.0,623.53515625,830.078125,0.0
1734418909.9774554,431.640625,-1000.0,238.76953125,394.53125,0.0
1734418909.9813573,465.33203125,-1000.0,-271.97265625,-106.4453125,0.0
1734418909.9852593,-130.859375,-1000.0,119.62890625,-35.64453125,0.0
1734418909.9891613,-492.1875,-999.0234375,660.64453125,431.640625,0.0
1734418909.9930632,-80.078125,-1000.0,707.51953125,698.2421875,0.0
1734418909.9970276,320.80078125,-1000.0,150.87890625,339.84375,0.0
1734418910.0009296,-258.7890625,-995.1171875,-368.65234375,-202.63671875,0.0
1734418910.0048316,-79.58984375,-1000.0,214.84375,-156.25,0.0
1734418910.0087335,506.34765625,-941.89453125,679.19921875,353.515625,0.0
1734418910.0126355,726.07421875,-914.0625,658.69140625,684.08203125,0.0
1734418910.0165374,296.38671875,-1000.0,256.8359375,398.92578125,0.0
1734418910.0204394,-308.59375,-1000.0,-278.80859375,-110.83984375,0.0
1734418910.0243413,-215.33203125,-998.046875,56.640625,-84.47265625,0.0
1734418910.0282433,349.609375,-1000.0,544.921875,499.51171875,0.0
1734418910.0321453,685.546875,-1000.0,610.83984375,858.88671875,0.0
1734418910.0360472,376.953125,-1000.0,393.5546875,443.84765625,0.0
1734418910.0399492,-201.66015625,-1000.0,-216.30859375,-195.80078125,0.0
1734418910.0439067,-171.38671875,-1000.0,-173.33984375,-226.5625,0.0
1734418910.0478086,333.49609375,-1000.0,444.3359375,221.6796875,0.0
1734418910.0517106,710.44921875,-1000.0,645.01953125,590.33203125,0.0
1734418910.0556126,516.6015625,-1000.0,182.12890625,454.58984375,0.0
1734418910.0595145,-97.16796875,-1000.0,-640.13671875,-151.3671875,0.0
1734418910.0634165,-214.84375,-1000.0,-555.17578125,-297.36328125,0.0
1734418910.0673184,260.25390625,-1000.0,269.04296875,211.9140625,0.0
1734418910.0712204,686.03515625,-1000.0,596.6796875,635.7421875,0.0
1734418910.0751224,532.2265625,-1000.0,51.7578125,560.05859375,0.0
1734418910.0790243,-90.8203125,-1000.0,-575.1953125,-34.66796875,0.0
1734418910.0829263,-257.32421875,-1000.0,-411.62109375,-267.08984375,0.0
1734418910.0868282,197.265625,-1000.0,244.62890625,203.61328125,0.0
1734418910.0907824,635.25390625,-1000.0,577.63671875,668.9453125,0.0
1734418910.0946844,602.05078125,-1000.0,286.62109375,605.95703125,0.0
1734418910.0985863,26.85546875,-1000.0,-424.31640625,63.4765625,0.0
1734418910.1024883,-267.08984375,-1000.0,-713.37890625,-200.1953125,0.0
1734418910.1063902,122.55859375,-1000.0,-76.171875,109.86328125,0.0
1734418910.1102924,590.8203125,-1000.0,462.890625,556.640625,0.0
1734418910.1141944,613.76953125,-1000.0,144.53125,624.0234375,0.0
1734418910.1180964,63.4765625,-1000.0,-693.359375,145.01953125,0.0
1734418910.1219983,-310.546875,-1000.0,-874.0234375,-250.0,0.0
1734418910.1259003,14.16015625,-1000.0,-46.875,7.32421875,0.0
1734418910.1298022,518.06640625,-1000.0,506.34765625,508.7890625,0.0
1734418910.1337042,650.390625,-1000.0,360.3515625,670.8984375,0.0
1734418910.1376536,186.5234375,-1000.0,-226.5625,188.96484375,0.0
1734418910.1415555,-220.703125,-999.51171875,-434.5703125,-273.4375,0.0
1734418910.1454575,77.63671875,-1000.0,233.3984375,-21.97265625,0.0
1734418910.1493595,569.3359375,-993.1640625,661.1328125,473.14453125,0.0
1734418910.1532614,671.38671875,-989.2578125,651.85546875,617.1875,0.0
1734418910.1571634,201.66015625,-990.72265625,220.703125,262.20703125,0.0
1734418910.1610653,-240.234375,-987.79296875,-133.30078125,-190.91796875,0.0
1734418910.1649673,-0.9765625,-1000.0,272.94921875,-98.14453125,0.0
1734418910.1688693,509.27734375,-431.15234375,714.35546875,378.90625,0.0
1734418910.1727712,725.09765625,-13.18359375,783.69140625,578.61328125,0.0
1734418910.1766732,338.37890625,-671.38671875,361.81640625,212.890625,0.0
1734418910.1805751,-192.87109375,-1000.0,98.14453125,-252.9296875,0.0
1734418910.1845214,-76.171875,-730.95703125,486.328125,-189.453125,0.0
1734418910.1884234,436.5234375,196.2890625,795.8984375,293.9453125,0.0
1734418910.1923254,712.890625,222.16796875,779.78515625,569.3359375,0.0
1734418910.1962273,395.01953125,-729.98046875,496.58203125,276.85546875,0.0
1734418910.2001293,-156.73828125,-1000.0,233.3984375,-175.78125,0.0
1734418910.2040312,-102.5390625,-752.9296875,439.453125,-181.640625,0.0
1734418910.2079334,381.8359375,-264.16015625,722.65625,256.34765625,0.0
1734418910.2118354,623.53515625,-188.96484375,758.30078125,613.28125,0.0
1734418910.2157373,340.33203125,-230.95703125,615.234375,352.05078125,0.0
1734418910.2196393,-181.640625,-753.90625,343.26171875,-226.07421875,0.0
1734418910.2235413,-214.84375,-633.30078125,489.2578125,-282.2265625,0.0
1734418910.2274432,250.0,465.33203125,812.5,131.8359375,0.0
1734418910.2313852,608.88671875,-932.12890625,855.95703125,471.6796875,0.0
1734418910.2352872,460.44921875,372.0703125,665.52734375,331.0546875,0.0
1734418910.2391891,-105.46875,-837.890625,325.68359375,-203.125,0.0
1734418910.2430913,-259.765625,-747.55859375,430.6640625,-349.609375,0.0
1734418910.2469933,271.484375,308.59375,776.85546875,60.546875,0.0
1734418910.2508953,676.26953125,741.2109375,853.515625,415.52734375,0.0
1734418910.2547972,490.72265625,-230.46875,575.1953125,361.328125,0.0
1734418910.2586992,-89.84375,-1000.0,322.75390625,-78.61328125,0.0
1734418910.2626011,-233.3984375,-208.984375,541.015625,-331.0546875,0.0
1734418910.266503,174.31640625,720.703125,803.22265625,51.7578125,0.0
1734418910.270405,517.578125,990.72265625,846.19140625,487.79296875,0.0
1734418910.274307,551.7578125,740.234375,767.08984375,447.265625,0.0
1734418910.278245,151.85546875,-129.39453125,476.07421875,-30.76171875,0.0
1734418910.282147,-202.1484375,-442.3828125,459.47265625,-317.3828125,0.0
1734418910.286049,37.109375,474.609375,790.0390625,-19.53125,0.0
1734418910.2899508,505.859375,-970.21484375,875.9765625,442.3828125,0.0
1734418910.2938528,538.57421875,939.94140625,864.2578125,505.859375,0.0
1734418910.2977548,6.8359375,961.42578125,803.22265625,37.109375,0.0
1734418910.3016567,-352.05078125,968.75,752.44140625,-284.1796875,0.0
1734418910.3055587,-7.32421875,971.19140625,836.9140625,-29.78515625,0.0
1734418910.3094606,445.3125,971.6796875,865.234375,383.7890625,0.0
1734418910.3133628,490.234375,942.3828125,799.8046875,429.19921875,0.0
1734418910.3172648,96.6796875,955.078125,716.30859375,-13.671875,0.0
1734418910.3211668,-277.34375,975.09765625,751.46484375,-411.62109375,0.0
1734418910.325133,-64.453125,967.28515625,851.07421875,-229.00390625,0.0
1734418910.329035,371.09375,970.703125,870.1171875,224.609375,0.0
1734418910.332937,490.234375,969.7265625,867.1875,399.90234375,0.0
1734418910.336839,117.1875,969.7265625,807.6171875,49.31640625,0.0
1734418910.340741,-280.76171875,970.21484375,758.30078125,-413.57421875,0.0
1734418910.3446429,-167.48046875,970.21484375,823.2421875,-271.484375,0.0
1734418910.3485448,272.94921875,964.35546875,857.421875,179.19921875,0.0
1734418910.3524468,524.4140625,976.5625,871.58203125,334.47265625,0.0
1734418910.3563488,160.15625,965.8203125,782.2265625,53.7109375,0.0
1734418910.3602507,-372.0703125,875.48828125,662.59765625,-351.5625,0.0
1734418910.364153,-272.4609375,939.453125,800.29296875,-331.54296875,0.0
1734418910.3680549,208.984375,983.3984375,864.74609375,123.53515625,0.0
1734418910.372017,464.84375,963.8671875,850.09765625,441.40625,0.0
1734418910.3759189,218.26171875,967.28515625,782.71484375,114.2578125,0.0
1734418910.3798208,-301.26953125,937.01171875,651.3671875,-357.421875,0.0
1734418910.3837228,-312.5,954.58984375,726.07421875,-344.23828125,0.0
1734418910.3876247,141.11328125,918.9453125,831.54296875,41.50390625,0.0
1734418910.3915267,428.7109375,933.59375,834.47265625,341.30859375,0.0
1734418910.3954287,192.87109375,402.83203125,670.41015625,142.578125,0.0
1734418910.3993306,-363.76953125,-399.4140625,492.67578125,-355.95703125,0.0
1734418910.4032326,-402.34375,-612.79296875,534.66796875,-402.34375,0.0
1734418910.4071345,64.94140625,-184.5703125,708.0078125,43.9453125,0.0
1734418910.4110367,452.1484375,693.84765625,837.890625,387.6953125,0.0
1734418910.4149387,323.2421875,395.99609375,711.42578125,265.13671875,0.0
1734418910.4188967,0.0,-656.73828125,520.01953125,-236.81640625,0.0
1734418910.4227986,0.0,-598.6328125,587.890625,-396.97265625,0.0
1734418910.4267006,0.0,290.0390625,775.87890625,-22.4609375,0.0
1734418910.4306026,0.0,509.765625,802.24609375,372.55859375,0.0
1734418910.4345045,0.0,-109.86328125,684.08203125,328.61328125,0.0
1734418910.4384065,0.0,-909.1796875,480.95703125,-150.390625,0.0
1734418910.4423084,0.0,-809.5703125,534.1796875,-366.2109375,0.0
1734418910.4462106,0.0,7.32421875,728.515625,-11.71875,0.0
1734418910.4501126,0.0,-292.48046875,683.59375,376.953125,0.0
1734418910.4540145,0.0,-623.046875,668.45703125,357.91015625,0.0
1734418910.4579165,0.0,-644.04296875,562.98828125,-88.8671875,0.0
1734418910.4618185,0.0,-978.515625,536.1328125,-407.2265625,0.0
1734418910.465773,-67.87109375,-552.24609375,709.9609375,-150.390625,0.0
1734418910.469675,361.328125,151.3671875,792.96875,287.59765625,0.0
1734418910.473577,400.87890625,-18.5546875,713.8671875,374.51171875,0.0
1734418910.477479,-25.87890625,-742.1875,476.07421875,-54.19921875,0.0
1734418910.481381,-387.6953125,-999.51171875,445.80078125,-388.671875,0.0
1734418910.485283,-106.4453125,-719.23828125,629.8828125,-122.0703125,0.0
1734418910.4891849,355.95703125,-336.42578125,724.12109375,308.59375,0.0
1734418910.493087,409.66796875,-548.33984375,584.9609375,356.93359375,0.0
1734418910.496989,-54.19921875,-1000.0,447.265625,-10.7421875,0.0
1734418910.500891,-389.16015625,-714.35546875,569.3359375,-375.9765625,0.0
1734418910.504793,-65.91796875,4.39453125,695.3125,-226.5625,0.0
1734418910.508695,368.1640625,351.5625,784.66796875,200.68359375,0.0
1734418910.5126445,0.0,424.8046875,788.57421875,394.53125,0.0
1734418910.5165465,0.0,180.17578125,693.84765625,88.37890625,0.0
1734418910.5204484,0.0,-164.0625,661.1328125,-328.61328125,0.0
1734418910.5243506,0.0,33.203125,752.44140625,-239.74609375,0.0
1734418910.5282526,0.0,500.9765625,823.2421875,195.3125,0.0
1734418910.5321546,0.0,368.65234375,770.5078125,414.55078125,0.0
1734418910.5360565,0.0,-305.17578125,688.96484375,65.91796875,0.0
1734418910.5399585,0.0,-876.953125,583.49609375,-351.07421875,0.0
1734418910.5438604,0.0,-356.4453125,725.09765625,-312.01171875,0.0
1734418910.5477624,0.0,705.078125,857.421875,90.8203125,0.0
1734418910.5516644,0.0,574.21875,823.2421875,365.234375,0.0
1734418910.5555665,0.0,-23.4375,814.94140625,83.49609375,0.0
1734418910.5595121,-275.87890625,-117.1875,791.015625,-369.140625,0.0
1734418910.563414,-215.8203125,336.42578125,820.3125,-347.65625,0.0
1734418910.567316,259.27734375,533.69140625,838.37890625,102.05078125,0.0
1734418910.571218,541.015625,418.9453125,834.9609375,436.03515625,0.0
1734418910.57512,311.03515625,211.42578125,758.7890625,212.40234375,0.0
1734418910.579022,-144.53125,-397.94921875,683.10546875,-271.484375,0.0
1734418910.5829241,-186.5234375,-728.515625,667.96875,-296.38671875,0.0
1734418910.586826,224.609375,-632.32421875,717.28515625,114.2578125,0.0
1734418910.590728,569.3359375,115.72265625,805.17578125,434.5703125,0.0
1734418910.59463,447.75390625,157.2265625,731.4453125,301.7578125,0.0
1734418910.598532,-56.640625,-652.83203125,631.8359375,-172.8515625,0.0
1734418910.602434,-158.203125,-652.83203125,670.41015625,-332.51953125,0.0
1734418910.6063757,280.2734375,12.20703125,729.00390625,8.7890625,0.0
1734418910.6102777,625.0,48.33984375,762.6953125,352.5390625,0.0
1734418910.6141798,561.03515625,-399.4140625,815.91796875,281.73828125,0.0
1734418910.6180818,57.12890625,-583.0078125,770.99609375,-225.09765625,0.0
1734418910.6219838,-169.43359375,-310.05859375,735.83984375,-434.08203125,0.0
1734418910.6258857,248.53515625,47.8515625,748.53515625,-67.3828125,0.0
1734418910.6297877,650.390625,-219.23828125,698.2421875,354.4921875,0.0
1734418910.6336896,601.07421875,-224.609375,717.28515625,342.28515625,0.0
1734418910.6375916,139.6484375,148.92578125,698.2421875,-90.33203125,0.0
1734418910.6414938,-111.328125,133.7890625,659.66796875,-362.3046875,0.0
1734418910.6453958,205.078125,496.09375,721.6796875,-97.65625,0.0
1734418910.6492977,638.671875,937.01171875,786.1328125,346.19140625,0.0
1734418910.653236,664.55078125,987.79296875,764.6484375,387.6953125,0.0
1734418910.6571379,194.82421875,449.21875,686.03515625,-4.39453125,0.0
1734418910.6610398,-104.4921875,267.08984375,687.5,-336.42578125,0.0
1734418910.664942,168.45703125,858.3984375,727.5390625,-131.8359375,0.0
1734418910.668844,608.88671875,-989.74609375,725.5859375,322.75390625,0.0
1734418910.672746,708.984375,639.6484375,641.6015625,412.109375,0.0
1734418910.676648,244.62890625,40.0390625,541.50390625,6.34765625,0.0
1734418910.6805499,-167.96875,-49.31640625,554.19921875,-405.76171875,0.0
1734418910.6844518,98.14453125,605.46875,641.6015625,-220.703125,0.0
1734418910.688354,568.84765625,604.98046875,579.58984375,297.8515625,0.0
1734418910.692256,671.875,187.01171875,539.55078125,416.50390625,0.0
1734418910.696158,277.34375,282.2265625,509.765625,18.5546875,0.0
1734418910.700127,-160.64453125,32.2265625,0.0,-387.20703125,0.0
1734418910.7040288,-1.953125,-13.18359375,0.0,-268.5546875,0.0
1734418910.7079308,473.14453125,327.1484375,0.0,187.98828125,0.0
1734418910.7118328,667.96875,503.41796875,0.0,385.7421875,0.0
1734418910.7157347,280.76171875,-5.859375,0.0,55.6640625,0.0
1734418910.7196367,-195.80078125,-768.06640625,0.0,-369.140625,0.0
1734418910.7235389,-90.8203125,-555.17578125,0.0,-266.6015625,0.0
1734418910.7274408,357.91015625,30.2734375,0.0,161.1328125,0.0
1734418910.7313428,565.4296875,-248.046875,0.0,410.15625,0.0
1734418910.7352448,222.65625,-800.78125,0.0,160.64453125,0.0
1734418910.7391467,-250.48828125,-1000.0,0.0,-321.77734375,0.0
1734418910.743049,-211.9140625,-852.5390625,0.0,-330.078125,0.0
1734418910.747017,181.15234375,-717.28515625,430.17578125,125.48828125,0.0
1734418910.7509189,458.984375,-841.30859375,445.3125,494.140625,0.0
1734418910.754821,270.99609375,-916.015625,316.89453125,244.62890625,0.0
1734418910.758723,-239.74609375,-1000.0,187.5,-342.7734375,0.0
1734418910.762625,-312.5,-1000.0,152.34375,-420.8984375,0.0
1734418910.766527,89.84375,-994.62890625,182.6171875,-36.62109375,0.0
1734418910.770429,416.9921875,-993.65234375,182.6171875,290.52734375,0.0
1734418910.774331,262.6953125,-998.53515625,-2.44140625,188.96484375,0.0
1734418910.778233,-263.18359375,-1000.0,-422.8515625,-266.11328125,0.0
1734418910.782135,-387.6953125,-1000.0,-448.73046875,-378.90625,0.0
1734418910.786037,9.765625,-882.8125,91.796875,-36.1328125,0.0
1734418910.789939,362.79296875,-904.296875,159.66796875,318.359375,0.0
1734418910.793897,0.0,-1000.0,-104.00390625,280.76171875,0.0
1734418910.7977989,0.0,-998.53515625,-256.8359375,-158.203125,0.0
1734418910.801701,0.0,-996.58203125,-61.5234375,-355.95703125,0.0
1734418910.805603,0.0,-940.91796875,165.0390625,-27.34375,0.0
1734418910.809505,0.0,-957.51953125,196.2890625,379.39453125,0.0
1734418910.813407,0.0,-1000.0,97.65625,408.69140625,0.0
1734418910.817309,0.0,-990.72265625,34.1796875,-43.45703125,0.0
1734418910.821211,0.0,-986.81640625,214.35546875,-264.16015625,0.0
1734418910.825113,0.0,-1000.0,270.01953125,69.3359375,0.0
1734418910.829015,0.0,-520.01953125,455.56640625,446.2890625,0.0
1734418910.832917,0.0,-345.21484375,578.125,498.53515625,0.0
1734418910.836819,0.0,-880.859375,503.41796875,153.80859375,0.0
1734418910.8407724,-296.875,-989.74609375,577.1484375,-167.96875,0.0
1734418910.8446743,42.96875,-605.46875,697.75390625,6.8359375,0.0
1734418910.8485763,522.94921875,-380.37109375,727.05078125,439.94140625,0.0
1734418910.8524785,637.6953125,-717.28515625,704.1015625,584.9609375,0.0
1734418910.8563805,237.3046875,-905.2734375,718.26171875,232.421875,0.0
1734418910.8602824,-91.796875,-562.5,778.80859375,-146.97265625,0.0
1734418910.8641844,218.26171875,158.69140625,835.44921875,45.8984375,0.0
1734418910.8680866,695.80078125,357.421875,834.9609375,491.2109375,0.0
1734418910.8719885,871.09375,0.0,815.91796875,686.03515625,0.0
1734418910.8758905,610.83984375,-32.2265625,834.47265625,362.79296875,0.0
1734418910.8797925,276.85546875,-77.1484375,838.37890625,-37.59765625,0.0
1734418910.8836944,485.3515625,26.85546875,839.84375,51.7578125,0.0
1734418910.8876436,890.13671875,378.90625,847.65625,440.4296875,0.0
1734418910.8915455,995.1171875,571.77734375,844.7265625,658.69140625,0.0
1734418910.8954475,874.51171875,34.66796875,833.0078125,376.953125,0.0
1734418910.8993495,526.85546875,-294.43359375,828.61328125,-44.43359375,0.0
1734418910.9032516,614.2578125,383.30078125,845.21484375,-36.1328125,0.0
1734418910.9071536,940.4296875,926.7578125,856.4453125,332.03125,0.0
1734418910.9110556,988.28125,-977.05078125,850.5859375,606.4453125,0.0
1734418910.9149575,885.25390625,298.33984375,795.8984375,413.0859375,0.0
1734418910.9188597,500.48828125,243.65234375,820.3125,-79.1015625,0.0
1734418910.9227617,448.2421875,-969.23828125,863.76953125,-165.52734375,0.0
1734418910.9266636,800.29296875,955.56640625,857.91015625,224.609375,0.0
1734418910.9305656,-997.55859375,969.7265625,859.375,511.71875,0.0
1734418910.9345107,811.03515625,905.76171875,851.5625,358.3984375,0.0
1734418910.9384127,330.078125,700.1953125,849.609375,-94.7265625,0.0
1734418910.9423146,276.3671875,438.96484375,856.4453125,-239.2578125,0.0
1734418910.9462168,593.75,384.27734375,861.81640625,127.9296875,0.0
1734418910.9501188,827.63671875,173.33984375,856.93359375,508.7890625,0.0
1734418910.9540207,692.87109375,-744.140625,851.5625,435.546875,0.0
1734418910.9579227,193.84765625,-1000.0,812.01171875,31.25,0.0
1734418910.961825,48.828125,-968.75,779.78515625,-221.19140625,0.0
1734418910.9657269,424.31640625,-1000.0,840.33203125,-28.3203125,0.0
1734418910.9696288,749.51171875,-1000.0,847.16796875,338.8671875,0.0
1734418910.9735308,654.78515625,-1000.0,727.5390625,326.171875,0.0
1734418910.977433,154.78515625,-1000.0,655.2734375,-138.18359375,0.0
1734418910.9813755,-104.98046875,-1000.0,698.73046875,-354.4921875,0.0
1734418910.9852774,199.21875,-1000.0,738.76953125,-21.97265625,0.0
1734418910.9891794,539.55078125,-1000.0,720.21484375,346.19140625,0.0
1734418910.9930813,485.3515625,-1000.0,632.32421875,327.63671875,0.0
1734418910.9969835,-62.98828125,-1000.0,555.6640625,-96.19140625,0.0
1734418911.0008855,-402.34375,-1000.0,582.03125,-406.73828125,0.0
1734418911.0047874,-115.234375,-1000.0,571.77734375,-147.94921875,0.0
1734418911.0086894,221.6796875,-980.46875,624.51171875,269.53125,0.0
1734418911.0125916,200.1953125,-969.23828125,594.7265625,259.27734375,0.0
1734418911.0164936,-246.58203125,-1000.0,395.99609375,-148.92578125,0.0
1734418911.0203955,-530.76171875,-960.9375,397.94921875,-412.59765625,0.0
1734418911.0242975,-295.8984375,-658.69140625,539.0625,-207.03125,0.0
1734418911.0282366,23.92578125,-176.26953125,583.984375,112.3046875,0.0
1734418911.0321386,115.72265625,-200.68359375,497.0703125,211.42578125,0.0
1734418911.0360408,-287.109375,-761.71875,371.58203125,-76.66015625,0.0
1734418911.0399427,-670.41015625,-605.95703125,404.296875,-401.3671875,0.0
1734418911.0438447,-450.1953125,270.5078125,544.921875,-234.86328125,0.0
1734418911.0477467,-32.71484375,552.734375,566.89453125,110.83984375,0.0
1734418911.0516489,100.5859375,96.19140625,485.83984375,125.0,0.0
1734418911.0555508,-201.171875,-251.46484375,414.0625,-195.3125,0.0
1734418911.0594528,-613.28125,-71.2890625,471.19140625,-517.578125,0.0
1734418911.063355,-462.40234375,384.765625,548.33984375,-381.34765625,0.0
1734418911.067257,28.80859375,716.796875,653.3203125,30.2734375,0.0
1734418911.071159,215.8203125,-965.33203125,694.82421875,204.58984375,0.0
1734418911.0751255,0.0,796.38671875,566.89453125,-37.109375,0.0
1734418911.0790274,0.0,577.63671875,560.05859375,-447.75390625,0.0
1734418911.0829294,0.0,892.08984375,674.8046875,-440.91796875,0.0
1734418911.0868313,0.0,993.1640625,732.421875,-31.25,0.0
1734418911.0907335,0.0,979.4921875,727.05078125,227.5390625,0.0
1734418911.0946355,0.0,820.3125,586.42578125,49.8046875,0.0
1734418911.0985374,0.0,785.64453125,552.24609375,-389.6484375,0.0
1734418911.1024396,0.0,985.83984375,714.84375,-456.0546875,0.0
1734418911.1063416,0.0,968.75,792.96875,-40.0390625,0.0
1734418911.1102436,0.0,959.9609375,730.95703125,303.22265625,0.0
1734418911.1141455,0.0,969.7265625,684.5703125,133.7890625,0.0
1734418911.1180477,0.0,970.703125,664.55078125,-315.4296875,0.0
1734418911.122009,-437.5,969.23828125,751.953125,-400.87890625,0.0
1734418911.125911,-118.65234375,969.7265625,846.6796875,-61.03515625,0.0
1734418911.129813,174.8046875,969.7265625,848.6328125,229.98046875,0.0
1734418911.133715,97.65625,969.7265625,833.984375,91.796875,0.0
1734418911.137617,-333.0078125,969.7265625,805.6640625,-254.8828125,0.0
1734418911.141519,-460.44921875,969.7265625,833.0078125,-303.7109375,0.0
1734418911.145421,-117.67578125,969.7265625,868.65234375,4.8828125,0.0
1734418911.1493232,201.171875,969.7265625,873.53515625,342.28515625,0.0
1734418911.1532252,150.87890625,969.7265625,856.93359375,278.80859375,0.0
1734418911.1571271,-288.0859375,969.7265625,849.609375,-111.81640625,0.0
1734418911.161029,-503.90625,969.7265625,874.0234375,-365.72265625,0.0
1734418911.1649313,-165.0390625,969.7265625,896.484375,-126.46484375,0.0
1734418911.1688886,181.640625,969.7265625,908.69140625,329.58984375,0.0
1734418911.1727905,220.703125,969.7265625,900.87890625,427.734375,0.0
1734418911.1766927,-137.20703125,969.7265625,890.13671875,73.2421875,0.0
1734418911.1805947,-395.5078125,969.7265625,903.3203125,-233.88671875,0.0
1734418911.1844966,-121.09375,969.7265625,928.7109375,-25.87890625,0.0
1734418911.1883988,255.859375,969.7265625,938.4765625,378.90625,0.0
1734418911.1923008,330.56640625,969.7265625,934.08203125,439.94140625,0.0
1734418911.1962028,-67.87109375,969.7265625,922.8515625,120.1171875,0.0
1734418911.2001047,-403.3203125,969.7265625,921.38671875,-145.99609375,0.0
1734418911.204007,-100.5859375,969.7265625,941.40625,25.390625,0.0
1734418911.2079089,329.58984375,969.7265625,947.265625,449.21875,0.0
1734418911.2118108,407.2265625,969.7265625,946.2890625,595.703125,0.0
1734418911.215765,104.00390625,969.7265625,943.84765625,264.6484375,0.0
1734418911.2196672,-231.93359375,969.7265625,946.2890625,-86.42578125,0.0
1734418911.2235692,-122.0703125,969.7265625,948.2421875,55.6640625,0.0
1734418911.227471,256.8359375,969.7265625,947.265625,459.9609375,0.0
1734418911.2313733,472.65625,969.7265625,948.73046875,609.375,0.0
1734418911.2352753,187.5,969.7265625,937.5,337.890625,0.0
1734418911.2391772,-214.35546875,969.7265625,928.7109375,-35.64453125,0.0
1734418911.2430794,-77.1484375,969.7265625,937.01171875,15.625,0.0
1734418911.2469814,333.49609375,969.7265625,945.3125,394.53125,0.0
1734418911.2508833,553.22265625,969.7265625,947.75390625,568.359375,0.0
1734418911.2547855,282.71484375,969.7265625,923.33984375,306.15234375,0.0
1734418911.2586875,-151.3671875,969.7265625,908.69140625,-40.0390625,0.0
1734418911.2626357,-87.890625,969.7265625,931.15234375,-40.0390625,0.0
1734418911.2665377,294.43359375,970.21484375,945.80078125,229.4921875,0.0
1734418911.2704396,528.3203125,969.7265625,944.82421875,450.68359375,0.0
1734418911.2743418,293.9453125,969.23828125,917.96875,290.52734375,0.0
1734418911.2782438,-191.89453125,969.7265625,896.97265625,-127.9296875,0.0
1734418911.2821457,-209.47265625,969.7265625,909.66796875,-209.9609375,0.0
1734418911.286048,257.8125,969.7265625,929.19921875,112.3046875,0.0
1734418911.28995,516.6015625,969.7265625,920.8984375,399.90234375,0.0
1734418911.2938519,257.32421875,970.21484375,894.04296875,227.5390625,0.0
1734418911.297754,-175.29296875,969.7265625,873.046875,-243.65234375,0.0
1734418911.301656,-238.28125,969.23828125,880.37109375,-381.34765625,0.0
1734418911.305558,146.97265625,969.23828125,901.85546875,-54.6875,0.0
1734418911.309504,423.828125,969.7265625,901.3671875,274.90234375,0.0
1734418911.313406,241.69921875,969.7265625,868.1640625,186.03515625,0.0
1734418911.3173082,-207.03125,969.7265625,805.6640625,-263.671875,0.0
1734418911.3212101,-332.03125,970.21484375,824.70703125,-470.703125,0.0
1734418911.325112,-28.3203125,967.7734375,862.3046875,-165.0390625,0.0
1734418911.3290143,301.7578125,973.14453125,875.0,188.4765625,0.0
1734418911.3329163,216.796875,962.40234375,812.5,201.171875,0.0
1734418911.3368182,-286.62109375,936.03515625,610.3515625,-144.53125,0.0
1734418911.3407204,-464.84375,963.8671875,695.3125,-443.84765625,0.0
1734418911.3446224,-179.19921875,973.14453125,851.5625,-266.11328125,0.0
1734418911.3485243,118.65234375,967.7734375,848.6328125,85.44921875,0.0
1734418911.3524265,111.328125,971.6796875,798.33984375,113.28125,0.0
1734418911.3563688,-243.1640625,955.078125,498.046875,-239.2578125,0.0
1734418911.3602707,-489.74609375,966.796875,420.41015625,-491.69921875,0.0
1734418911.364173,-320.3125,946.77734375,708.49609375,-267.578125,0.0
1734418911.368075,49.31640625,965.8203125,808.10546875,63.4765625,0.0
1734418911.3719769,133.30078125,925.78125,665.52734375,134.765625,0.0
1734418911.375879,-279.78515625,-168.45703125,23.92578125,-219.23828125,0.0
1734418911.379781,-561.03515625,-1000.0,-463.8671875,-521.484375,0.0
1734418911.383683,-329.58984375,-293.45703125,201.66015625,-306.15234375,0.0
1734418911.3875852,27.34375,929.6875,706.0546875,58.10546875,0.0
1734418911.3914871,131.34765625,708.984375,538.0859375,189.94140625,0.0
1734418911.3953893,-203.125,-581.54296875,-95.21484375,-118.1640625,0.0
1734418911.3992913,-567.87109375,-1000.0,-453.61328125,-502.9296875,0.0
1734418911.4032276,-439.94140625,-57.6171875,199.70703125,-385.25390625,0.0
1734418911.4071298,-80.078125,741.69921875,613.76953125,61.03515625,0.0
1734418911.4110317,82.03125,218.75,499.0234375,255.37109375,0.0
1734418911.414934,-258.7890625,-660.15625,-104.98046875,-22.4609375,0.0
1734418911.4188359,-693.359375,-1000.0,-682.12890625,-412.109375,0.0
1734418911.4227378,-552.24609375,-1000.0,-240.72265625,-448.73046875,0.0
1734418911.42664,-145.99609375,-682.6171875,349.609375,-69.3359375,0.0
1734418911.430542,39.55078125,-592.7734375,386.71875,208.0078125,0.0
1734418911.434444,-225.5859375,-1000.0,-264.6484375,-26.85546875,0.0
1734418911.4383461,-622.55859375,-999.0234375,-933.59375,-499.51171875,0.0
1734418911.442248,-567.3828125,-1000.0,-649.4140625,-590.8203125,0.0
1734418911.44615,-186.5234375,-891.11328125,162.59765625,-178.7109375,0.0
1734418911.4501138,44.43359375,-844.23828125,280.2734375,113.76953125,0.0
1734418911.454016,-143.06640625,-1000.0,-476.07421875,-105.95703125,0.0
1734418911.457918,-538.0859375,-997.0703125,-979.98046875,-539.0625,0.0
1734418911.46182,-556.640625,-1000.0,-619.62890625,-592.7734375,0.0
1734418911.465722,-193.359375,-619.140625,128.90625,-196.2890625,0.0
1734418911.469624,81.0546875,-621.09375,313.96484375,118.65234375,0.0
1734418911.4735262,-38.57421875,-1000.0,-305.17578125,-37.59765625,0.0
1734418911.4774282,-467.7734375,-986.328125,-880.37109375,-488.76953125,0.0
1734418911.4813302,-590.8203125,-955.56640625,-623.53515625,-625.9765625,0.0
1734418911.4852324,-291.9921875,-762.20703125,48.828125,-274.4140625,0.0
1734418911.4891343,-11.23046875,-102.05078125,454.1015625,41.50390625,0.0
1734418911.4930365,-93.26171875,-405.76171875,-30.2734375,1.46484375,0.0
1734418911.4969983,-500.48828125,-1000.0,-854.4921875,-421.38671875,0.0
1734418911.5009003,-645.99609375,-1000.0,-789.55078125,-661.1328125,0.0
1734418911.5048022,-340.33203125,-678.22265625,-32.71484375,-342.28515625,0.0
1734418911.5087044,-53.22265625,-274.90234375,393.5546875,14.6484375,0.0
1734418911.5126064,-154.296875,-767.578125,-246.58203125,-65.4296875,0.0
1734418911.5165086,-556.640625,-1000.0,-991.69921875,-498.53515625,0.0
1734418911.5204105,-728.02734375,-977.5390625,-920.8984375,-682.6171875,0.0
1734418911.5243125,-439.94140625,-1000.0,-429.6875,-400.390625,0.0
1734418911.5282147,-70.80078125,-1000.0,-242.1875,-2.9296875,0.0
1734418911.5321167,-114.2578125,-1000.0,-713.8671875,43.45703125,0.0
1734418911.5360186,-538.57421875,-1000.0,-950.68359375,-383.30078125,0.0
1734418911.5399208,-760.7421875,-1000.0,-981.4453125,-680.6640625,0.0
1734418911.5438766,-514.6484375,-1000.0,-728.02734375,-386.23046875,0.0
1734418911.5477786,-167.96875,-1000.0,-286.1328125,42.96875,0.0
1734418911.5516808,-138.671875,-1000.0,-561.5234375,121.09375,0.0
1734418911.5555828,-496.09375,-1000.0,-978.02734375,-219.23828125,0.0
1734418911.5594847,-726.07421875,-1000.0,-998.046875,-541.015625,0.0
1734418911.563387,-533.203125,-1000.0,-782.71484375,-361.328125,0.0
1734418911.5672889,-254.39453125,-1000.0,-383.30078125,66.89453125,0.0
1734418911.571191,-111.81640625,-1000.0,-566.89453125,219.7265625,0.0
1734418911.575093,-432.12890625,-1000.0,-959.47265625,-93.26171875,0.0
1734418911.578995,-808.59375,-991.2109375,-980.46875,-484.86328125,0.0
1734418911.5828972,-679.6875,-1000.0,-906.25,-417.96875,0.0
1734418911.5867991,-324.70703125,-868.1640625,-432.12890625,12.20703125,0.0
1734418911.5907512,-323.2421875,-829.58984375,-409.1796875,210.9375,0.0
1734418911.5946531,-793.45703125,-1000.0,-973.6328125,26.85546875,0.0
1734418911.598555,-1000.0,-998.53515625,-985.3515625,-343.75,0.0
1734418911.6024573,-1000.0,-1000.0,-961.9140625,-332.51953125,0.0
1734418911.6063592,-864.2578125,-968.26171875,-739.2578125,81.0546875,0.0
1734418911.6102614,-748.046875,-969.23828125,-697.75390625,309.5703125,0.0
1734418911.6141634,-967.28515625,-1000.0,-982.91015625,-5.37109375,0.0
1734418911.6180656,-1000.0,-999.0234375,-1000.0,-444.82421875,0.0
1734418911.6219676,-998.53515625,-1000.0,-982.91015625,-406.73828125,0.0
1734418911.6258695,-988.76953125,-1000.0,-922.8515625,-51.26953125,0.0
1734418911.6297717,-870.60546875,-1000.0,-941.89453125,156.25,0.0
1734418911.6336737,-927.734375,-1000.0,-1000.0,-56.15234375,0.0
1734418911.6376216,-1000.0,-1000.0,-1000.0,-528.80859375,0.0
1734418911.6415238,-1000.0,-1000.0,-998.53515625,-607.91015625,0.0
1734418911.6454258,-850.5859375,-1000.0,-1000.0,-245.1171875,0.0
1734418911.6493278,-525.87890625,-1000.0,-1000.0,3.90625,0.0
1734418911.65323,-742.67578125,-1000.0,-1000.0,-186.5234375,0.0
1734418911.657132,-1000.0,-1000.0,-1000.0,-635.7421875,0.0
1734418911.661034,-1000.0,-1000.0,-1000.0,-752.44140625,0.0
1734418911.664936,-929.19921875,-1000.0,-1000.0,-410.64453125,0.0
1734418911.6688383,-646.484375,-1000.0,-1000.0,-112.3046875,0.0
1734418911.6727402,-712.890625,-1000.0,-1000.0,-254.8828125,0.0
1734418911.6766422,-985.3515625,-1000.0,-1000.0,-730.46875,0.0
1734418911.6805444,-1000.0,-1000.0,-1000.0,-950.1953125,0.0
1734418911.6844885,-921.875,-1000.0,-1000.0,-668.9453125,0.0
1734418911.6883905,-671.38671875,-1000.0,-1000.0,-329.1015625,0.0
1734418911.6922927,-779.78515625,-1000.0,-1000.0,-384.765625,0.0
1734418911.6961946,-1000.0,-1000.0,-1000.0,-795.41015625,0.0
1734418911.7000966,-999.51171875,-1000.0,-1000.0,-1000.0,0.0
1734418911.7039988,-989.74609375,-1000.0,-1000.0,-803.7109375,0.0
1734418911.7079008,-888.18359375,-1000.0,-1000.0,-375.0,0.0
1734418911.711803,-907.71484375,-1000.0,-1000.0,-308.10546875,0.0
1734418911.715705,-1000.0,-1000.0,-999.0234375,-696.2890625,0.0
1734418911.719607,-996.58203125,-1000.0,-1000.0,-989.74609375,0.0
1734418911.723509,-1000.0,-1000.0,-990.72265625,-803.7109375,0.0
1734418911.727411,-781.73828125,-1000.0,-969.23828125,-357.91015625,0.0
1734418911.7313514,-668.45703125,-1000.0,-987.3046875,-233.88671875,0.0
1734418911.7352533,-917.96875,-1000.0,-1000.0,-596.6796875,0.0
1734418911.7391555,-1000.0,-1000.0,-1000.0,-882.8125,0.0
1734418911.7430575,-942.87109375,-1000.0,-988.28125,-651.85546875,0.0
1734418911.7469597,-672.8515625,-1000.0,-966.30859375,-192.3828125,0.0
1734418911.7508616,-480.46875,-1000.0,-988.76953125,-18.06640625,0.0
1734418911.7547638,-750.48828125,-1000.0,-998.53515625,-307.6171875,0.0
1734418911.7586658,-1000.0,-1000.0,-1000.0,-664.0625,0.0
1734418911.7625678,-917.96875,-965.8203125,-972.16796875,-516.6015625,0.0
1734418911.76647,-598.6328125,-1000.0,-906.73828125,-67.87109375,0.0
1734418911.770372,-380.859375,-989.74609375,-942.3828125,145.01953125,0.0
1734418911.774274,-635.7421875,291.015625,-1000.0,-117.1875,0.0
1734418911.7782104,-950.1953125,-910.64453125,-951.171875,-557.6171875,0.0
1734418911.7821124,-711.42578125,910.64453125,-778.3203125,-582.51953125,0.0
1734418911.7860146,-243.65234375,972.16796875,-350.09765625,-384.27734375,0.0
1734418911.7899165,14.6484375,970.21484375,-205.078125,-288.0859375,0.0
1734418911.7938187,-180.17578125,969.7265625,-670.8984375,-527.34375,0.0
1734418911.7977207,-576.66015625,966.796875,-941.89453125,-933.10546875,0.0
1734418911.8016229,-503.90625,982.421875,-933.59375,-909.66796875,0.0
1734418911.8055248,-104.98046875,909.1796875,-991.69921875,-473.14453125,0.0
1734418911.8094268,125.48828125,908.203125,-802.24609375,-165.0390625,0.0
1734418911.813329,27.34375,981.93359375,-309.5703125,-344.23828125,0.0
1734418911.817231,-231.4453125,967.28515625,83.49609375,-812.01171875,0.0
1734418911.8211331,-228.515625,969.7265625,564.94140625,-1000.0,0.0
1734418911.8250966,111.81640625,970.21484375,830.56640625,-987.3046875,0.0
1734418911.8289986,425.29296875,970.21484375,872.0703125,-999.0234375,0.0
1734418911.8329008,356.4453125,969.7265625,873.046875,-1000.0,0.0
1734418911.8368027,-0.9765625,969.7265625,885.25390625,-1000.0,0.0
1734418911.840705,-83.0078125,969.7265625,903.80859375,-1000.0,0.0
1734418911.8446069,225.09765625,969.7265625,921.38671875,-1000.0,0.0
1734418911.8485088,506.8359375,969.7265625,933.10546875,-1000.0,0.0
1734418911.852411,408.203125,969.7265625,933.59375,-1000.0,0.0
1734418911.856313,-74.21875,969.7265625,923.828125,-1000.0,0.0
1734418911.8602152,-337.40234375,969.7265625,928.7109375,-1000.0,0.0
1734418911.8641171,-110.83984375,969.7265625,944.3359375,-1000.0,0.0
1734418911.8680193,166.9921875,969.7265625,946.2890625,-1000.0,0.0
1734418911.8719807,70.3125,970.21484375,933.59375,-1000.0,0.0
1734418911.8758829,-377.9296875,970.21484375,917.96875,-1000.0,0.0
1734418911.8797848,-610.3515625,969.7265625,907.2265625,-1000.0,0.0
1734418911.883687,-395.01953125,970.21484375,888.18359375,-1000.0,0.0
1734418911.887589,-151.3671875,975.09765625,861.81640625,-1000.0,0.0
1734418911.8914912,-194.82421875,946.2890625,777.34375,-1000.0,0.0
1734418911.8953931,-560.05859375,960.44921875,394.53125,-979.4921875,0.0
1734418911.8992953,-756.8359375,963.8671875,-365.72265625,-1000.0,0.0
1734418911.9031973,-590.8203125,-178.22265625,-937.5,-798.33984375,0.0
1734418911.9070995,-331.54296875,-1000.0,-995.60546875,-152.83203125,0.0
1734418911.9110014,-159.66796875,-959.9609375,-986.328125,147.4609375,0.0
1734418911.9149036,-452.63671875,-991.69921875,-1000.0,-58.10546875,0.0
1734418911.9188633,-720.703125,-1000.0,-1000.0,-178.22265625,0.0
1734418911.9227653,-558.59375,-1000.0,-1000.0,201.66015625,0.0
1734418911.9266675,-231.4453125,-1000.0,-1000.0,711.42578125,0.0
1734418911.9305694,-72.265625,-1000.0,-1000.0,914.0625,0.0
1734418911.9344714,-334.47265625,-1000.0,-1000.0,646.484375,0.0
1734418911.9383736,-591.796875,-1000.0,-1000.0,282.2265625,0.0
1734418911.9422755,-376.953125,-1000.0,-1000.0,417.48046875,0.0
1734418911.9461777,36.62109375,-1000.0,-1000.0,814.453125,0.0
1734418911.9500797,198.2421875,-1000.0,-1000.0,-993.65234375,0.0
1734418911.9539819,-64.94140625,-1000.0,-1000.0,846.6796875,0.0
1734418911.9578838,-385.7421875,-1000.0,-1000.0,458.0078125,0.0
1734418911.961786,-246.58203125,-1000.0,-1000.0,526.85546875,0.0
1734418911.9657388,130.37109375,-1000.0,-1000.0,894.04296875,0.0
1734418911.9696407,312.98828125,-1000.0,-1000.0,991.69921875,0.0
1734418911.973543,110.3515625,-1000.0,-1000.0,904.296875,0.0
1734418911.977445,-274.90234375,-1000.0,-1000.0,583.984375,0.0
1734418911.981347,-233.3984375,-1000.0,-993.1640625,583.0078125,0.0
1734418911.985249,147.94921875,-1000.0,-957.03125,903.80859375,0.0
1734418911.9891512,351.07421875,-1000.0,-847.16796875,979.98046875,0.0
1734418911.9930532,153.3203125,-971.19140625,-954.58984375,952.63671875,0.0
1734418911.9969554,-255.859375,-1000.0,-705.56640625,652.83203125,0.0
1734418912.0008574,-248.53515625,-969.7265625,405.2734375,535.15625,0.0
1734418912.0047596,146.97265625,213.8671875,890.625,871.58203125,0.0
1734418912.0086615,347.65625,-939.94140625,854.98046875,978.02734375,0.0
1734418912.0126104,200.1953125,926.26953125,895.5078125,981.93359375,0.0
1734418912.0165124,-130.37109375,963.8671875,894.04296875,788.57421875,0.0
1734418912.0204146,-174.31640625,972.16796875,893.5546875,645.5078125,0.0
1734418912.0243165,195.80078125,969.23828125,898.92578125,884.27734375,0.0
1734418912.0282187,515.13671875,969.7265625,900.390625,977.05078125,0.0
1734418912.0321207,458.49609375,969.7265625,893.06640625,967.7734375,0.0
1734418912.036023,121.58203125,969.7265625,884.27734375,710.9375,0.0
1734418912.039925,39.55078125,969.7265625,887.6953125,492.1875,0.0
1734418912.043827,345.703125,969.7265625,912.59765625,773.92578125,0.0
1734418912.0477293,646.97265625,969.7265625,922.36328125,980.46875,0.0
1734418912.0516312,629.8828125,969.7265625,909.1796875,971.6796875,0.0
1734418912.0555334,277.83203125,969.7265625,898.92578125,670.41015625,0.0
1734418912.0594783,99.609375,969.7265625,907.71484375,368.1640625,0.0
1734418912.0633802,399.4140625,969.7265625,923.828125,625.0,0.0
1734418912.0672824,739.2578125,969.7265625,926.26953125,939.94140625,0.0
1734418912.0711844,766.11328125,970.21484375,918.9453125,958.49609375,0.0
1734418912.0750866,465.8203125,969.7265625,908.203125,616.2109375,0.0
1734418912.0789888,252.44140625,969.7265625,905.2734375,287.109375,0.0
1734418912.0828907,451.66015625,969.7265625,908.203125,479.98046875,0.0
1734418912.086793,801.26953125,969.23828125,910.15625,873.53515625,0.0
1734418912.090695,879.39453125,970.703125,909.1796875,942.87109375,0.0
1734418912.094597,552.24609375,972.65625,892.08984375,568.84765625,0.0
1734418912.098499,293.45703125,936.5234375,879.8828125,191.40625,0.0
1734418912.1024013,504.39453125,938.96484375,884.765625,270.01953125,0.0
1734418912.1063423,844.23828125,933.10546875,884.27734375,660.15625,0.0
1734418912.1102443,933.59375,142.578125,868.65234375,824.70703125,0.0
1734418912.1141465,659.1796875,-889.6484375,849.609375,458.49609375,0.0
1734418912.1180484,343.75,-1000.0,847.65625,54.19921875,0.0
1734418912.1219506,473.6328125,-971.19140625,858.3984375,185.05859375,0.0
1734418912.1258526,832.03125,-1000.0,857.91015625,620.60546875,0.0
1734418912.1297548,986.328125,-1000.0,841.30859375,808.10546875,0.0
1734418912.1336567,741.2109375,-1000.0,841.30859375,499.0234375,0.0
1734418912.137559,445.3125,-969.7265625,850.5859375,71.77734375,0.0
1734418912.1414611,538.0859375,-1000.0,858.88671875,128.41796875,0.0
1734418912.145363,823.73046875,-753.41796875,868.1640625,535.15625,0.0
1734418912.1492653,994.140625,59.5703125,873.046875,747.55859375,0.0
1734418912.1532333,848.6328125,112.3046875,863.76953125,490.234375,0.0
1734418912.1571352,553.22265625,-295.8984375,856.93359375,78.125,0.0
1734418912.1610374,580.078125,236.81640625,867.1875,64.94140625,0.0
1734418912.1649394,845.703125,945.80078125,874.0234375,431.640625,0.0
1734418912.1688416,997.0703125,-946.77734375,867.1875,707.51953125,0.0
1734418912.1727436,873.53515625,565.4296875,848.14453125,493.65234375,0.0
1734418912.1766458,507.32421875,33.69140625,841.30859375,9.765625,0.0
1734418912.180548,478.02734375,684.5703125,847.16796875,-39.55078125,0.0
1734418912.18445,814.94140625,-976.5625,855.46875,371.58203125,0.0
1734418912.188352,992.67578125,930.6640625,846.19140625,681.15234375,0.0
1734418912.192254,900.87890625,960.9375,838.37890625,544.43359375,0.0
1734418912.1961563,576.66015625,973.6328125,820.80078125,66.40625,0.0
1734418912.2001195,489.2578125,968.75,812.5,-110.3515625,0.0
1734418912.2040215,799.31640625,969.7265625,828.61328125,250.0,0.0
1734418912.2079237,983.88671875,969.7265625,831.54296875,622.55859375,0.0
1734418912.2118258,943.359375,969.7265625,771.97265625,537.59765625,0.0
1734418912.2157278,657.71484375,967.28515625,696.77734375,89.35546875,0.0
1734418912.21963,499.51171875,966.796875,756.34765625,-85.9375,0.0
1734418912.223532,771.97265625,969.7265625,837.890625,246.58203125,0.0
1734418912.2274342,968.75,969.7265625,852.05078125,593.75,0.0
1734418912.231336,970.703125,969.7265625,858.88671875,550.29296875,0.0
1734418912.2352383,674.8046875,969.7265625,855.95703125,145.5078125,0.0
1734418912.2391405,455.078125,969.7265625,889.6484375,-104.98046875,0.0
1734418912.2430425,709.47265625,969.7265625,932.12890625,146.97265625,0.0
1734418912.247002,939.453125,969.7265625,944.3359375,505.859375,0.0
1734418912.2509038,936.5234375,969.7265625,950.68359375,499.0234375,0.0
1734418912.254806,580.078125,969.7265625,968.26171875,69.82421875,0.0
1734418912.2587082,297.8515625,969.7265625,970.703125,-271.97265625,0.0
1734418912.2626102,428.7109375,969.7265625,969.23828125,-92.28515625,0.0
1734418912.2665124,667.48046875,969.7265625,969.7265625,342.7734375,0.0
1734418912.2704144,654.296875,969.7265625,969.7265625,366.69921875,0.0
1734418912.2743165,246.09375,969.7265625,969.7265625,-101.07421875,0.0
1734418912.2782185,-116.2109375,969.7265625,969.7265625,-400.390625,0.0
1734418912.2821207,-44.43359375,969.7265625,969.7265625,-208.49609375,0.0
1734418912.286023,254.8828125,969.7265625,969.7265625,178.22265625,0.0
1734418912.2899249,271.484375,969.7265625,969.23828125,326.171875,0.0
1734418912.2938802,-95.21484375,969.7265625,969.7265625,23.92578125,0.0
1734418912.2977824,-487.3046875,969.7265625,969.7265625,-315.91796875,0.0
1734418912.3016846,-383.7890625,969.7265625,969.7265625,-154.296875,0.0
1734418912.3055866,-42.48046875,969.7265625,969.23828125,250.48828125,0.0
1734418912.3094888,-6.34765625,969.7265625,970.703125,422.8515625,0.0
1734418912.3133907,-425.29296875,970.21484375,964.84375,132.32421875,0.0
1734418912.317293,-907.2265625,969.7265625,949.70703125,-332.51953125,0.0
1734418912.3211951,-877.9296875,969.7265625,946.2890625,-361.81640625,0.0
1734418912.325097,-612.3046875,969.7265625,938.96484375,51.7578125,0.0
1734418912.3289993,-590.8203125,969.7265625,929.19921875,254.39453125,0.0
1734418912.3329012,-874.51171875,969.7265625,905.2734375,-121.58203125,0.0
1734418912.3368034,-1000.0,970.21484375,877.9296875,-671.875,0.0
1734418912.3407571,-991.2109375,971.6796875,876.953125,-823.2421875,0.0
1734418912.344659,-999.51171875,952.63671875,879.39453125,-592.28515625,0.0
1734418912.3485613,-1000.0,-996.09375,873.046875,-483.3984375,0.0
1734418912.3524632,-1000.0,811.03515625,861.81640625,-803.22265625,0.0
1734418912.3563654,-1000.0,531.73828125,859.375,-1000.0,0.0
1734418912.3602676,-1000.0,458.49609375,858.3984375,-990.234375,0.0
1734418912.3641696,-1000.0,583.0078125,873.53515625,-998.046875,0.0
1734418912.3680718,-1000.0,246.09375,845.703125,-1000.0,0.0
1734418912.371974,-1000.0,-661.1328125,710.9375,-1000.0,0.0
1734418912.375876,-1000.0,-60.05859375,748.53515625,-1000.0,0.0
1734418912.3797781,-1000.0,897.4609375,840.8203125,-1000.0,0.0
1734418912.38368,-1000.0,970.21484375,847.65625,-1000.0,0.0
1734418912.38763,-1000.0,948.2421875,870.1171875,-1000.0,0.0
1734418912.391532,-1000.0,974.12109375,881.8359375,-1000.0,0.0
1734418912.3954341,-1000.0,969.7265625,884.27734375,-1000.0,0.0
1734418912.3993363,-1000.0,969.7265625,907.71484375,-1000.0,0.0
1734418912.4032383,-1000.0,969.7265625,937.01171875,-1000.0,0.0
1734418912.4071405,-1000.0,969.7265625,942.87109375,-1000.0,0.0
1734418912.4110425,-1000.0,969.7265625,943.359375,-1000.0,0.0
1734418912.4149446,-1000.0,970.21484375,943.84765625,-1000.0,0.0
1734418912.4188468,-1000.0,970.21484375,946.77734375,-1000.0,0.0
1734418912.4227488,-1000.0,970.21484375,958.49609375,-1000.0,0.0
1734418912.426651,-1000.0,969.7265625,969.23828125,-1000.0,0.0
1734418912.4305532,-1000.0,970.21484375,968.75,-1000.0,0.0
1734418912.4344969,0.0,970.21484375,969.7265625,-1000.0,0.0
1734418912.438399,0.0,969.7265625,970.21484375,-1000.0,0.0
1734418912.442301,0.0,969.7265625,969.7265625,-1000.0,0.0
1734418912.4462032,0.0,970.21484375,970.21484375,-1000.0,0.0
1734418912.4501054,0.0,969.7265625,969.7265625,-1000.0,0.0
1734418912.4540074,0.0,969.7265625,969.7265625,-998.046875,0.0
1734418912.4579096,0.0,969.7265625,970.21484375,-994.62890625,0.0
1734418912.4618118,0.0,969.7265625,970.21484375,-1000.0,0.0
1734418912.4657137,0.0,969.7265625,970.21484375,-838.37890625,0.0
1734418912.469616,0.0,970.21484375,970.21484375,-741.69921875,0.0
1734418912.473518,0.0,970.21484375,970.21484375,-956.54296875,0.0
1734418912.47742,0.0,969.7265625,969.7265625,-1000.0,0.0
1734418912.481362,-1000.0,969.7265625,970.21484375,-992.67578125,0.0
1734418912.4852643,-1000.0,970.21484375,970.21484375,-1000.0,0.0
1734418912.4891663,-1000.0,969.7265625,970.21484375,-1000.0,0.0
1734418912.4930685,-1000.0,969.7265625,969.7265625,-1000.0,0.0
1734418912.4969707,-1000.0,969.7265625,969.7265625,-1000.0,0.0
1734418912.5008726,-1000.0,970.21484375,969.7265625,-1000.0,0.0
1734418912.5047748,-1000.0,970.21484375,970.21484375,-1000.0,0.0
1734418912.508677,-981.93359375,970.21484375,969.7265625,-1000.0,0.0
1734418912.512579,-973.14453125,969.7265625,969.7265625,-1000.0,0.0
1734418912.5164812,-1000.0,970.21484375,970.21484375,-1000.0,0.0
1734418912.5203831,55.6640625,970.21484375,969.7265625,-1000.0,0.0
1734418912.5242853,-927.734375,969.7265625,970.21484375,-1000.0,0.0
1734418912.528222,927.24609375,969.7265625,970.21484375,-1000.0,0.0
1734418912.5321243,958.49609375,969.7265625,970.21484375,-1000.0,0.0
1734418912.5360262,972.16796875,969.7265625,970.21484375,-1000.0,0.0
1734418912.5399284,969.23828125,969.7265625,969.7265625,-1000.0,0.0
1734418912.5438304,969.23828125,969.7265625,970.21484375,-1000.0,0.0
1734418912.5477326,969.23828125,969.7265625,969.7265625,-1000.0,0.0
1734418912.5516348,969.23828125,969.7265625,970.21484375,-1000.0,0.0
1734418912.5555367,969.23828125,969.7265625,970.21484375,-1000.0,0.0
1734418912.559439,969.23828125,969.7265625,969.7265625,-996.58203125,0.0
1734418912.5633411,969.23828125,969.7265625,969.7265625,-1000.0,0.0
1734418912.567243,969.23828125,970.21484375,970.21484375,-930.17578125,0.0
1734418912.5711453,969.23828125,969.7265625,969.23828125,-907.71484375,0.0
1734418912.5751097,0.0,969.7265625,970.21484375,-994.62890625,0.0
1734418912.5790117,0.0,969.7265625,968.26171875,-1000.0,0.0
1734418912.5829139,0.0,969.7265625,951.66015625,-935.546875,0.0
1734418912.586816,0.0,969.7265625,937.01171875,-636.23046875,0.0
1734418912.590718,0.0,969.7265625,898.4375,-570.80078125,0.0
1734418912.5946202,0.0,969.7265625,856.4453125,-861.81640625,0.0
1734418912.5985224,0.0,970.21484375,789.0625,-1000.0,0.0
1734418912.6024244,0.0,970.21484375,646.97265625,-806.15234375,0.0
1734418912.6063266,0.0,969.7265625,298.828125,-418.9453125,0.0
1734418912.6102288,0.0,969.7265625,-400.390625,-354.4921875,0.0
1734418912.6141307,0.0,970.21484375,-876.953125,-674.8046875,0.0
1734418912.618033,0.0,970.21484375,-980.46875,-891.6015625,0.0
1734418912.6219954,-1000.0,970.21484375,-993.65234375,-656.25,0.0
1734418912.6258976,-1000.0,970.21484375,-997.0703125,-284.66796875,0.0
1734418912.6297996,-1000.0,970.21484375,-1000.0,-178.22265625,0.0
1734418912.6337018,-1000.0,969.7265625,-1000.0,-474.609375,0.0
1734418912.637604,-1000.0,969.7265625,-1000.0,-779.296875,0.0
1734418912.6415062,-1000.0,969.7265625,-1000.0,-584.9609375,0.0
1734418912.6454082,-1000.0,969.7265625,-1000.0,-192.3828125,0.0
1734418912.6493104,-1000.0,970.21484375,-1000.0,-86.9140625,0.0
1734418912.6532125,-1000.0,969.7265625,-1000.0,-371.58203125,0.0
1734418912.6571145,-1000.0,969.7265625,-1000.0,-662.109375,0.0
1734418912.6610167,-1000.0,969.7265625,-1000.0,-567.3828125,0.0
1734418912.664919,-1000.0,969.7265625,-1000.0,-179.6875,0.0
1734418912.668875,-1000.0,969.7265625,-1000.0,53.22265625,0.0
1734418912.672777,-1000.0,970.21484375,-1000.0,-162.109375,0.0
1734418912.6766791,-1000.0,970.21484375,-1000.0,-481.93359375,0.0
1734418912.6805813,-1000.0,969.7265625,-1000.0,-361.328125,0.0
1734418912.6844833,-1000.0,969.7265625,-1000.0,37.59765625,0.0
1734418912.6883855,-1000.0,969.7265625,-1000.0,247.0703125,0.0
1734418912.6922877,-1000.0,969.7265625,-1000.0,85.9375,0.0
1734418912.6961896,-999.51171875,970.21484375,-1000.0,-267.08984375,0.0
1734418912.7000918,-1000.0,970.21484375,-1000.0,-253.41796875,0.0
1734418912.703994,-998.046875,970.21484375,-1000.0,115.234375,0.0
1734418912.7078962,-992.1875,970.21484375,-1000.0,378.41796875,0.0
1734418912.7117982,-962.890625,970.21484375,-1000.0,190.91796875,0.0
1734418912.715751,-1000.0,970.21484375,-1000.0,-203.61328125,0.0
1734418912.7196531,-895.5078125,970.21484375,-1000.0,-229.00390625,0.0
1734418912.7235553,317.3828125,969.7265625,-1000.0,131.34765625,0.0
1734418912.7274573,-947.265625,969.7265625,-1000.0,428.7109375,0.0
1734418912.7313595,929.6875,970.21484375,-1000.0,301.26953125,0.0
1734418912.7352617,929.6875,969.7265625,-1000.0,-81.54296875,0.0
1734418912.7391636,941.40625,969.7265625,-1000.0,-198.73046875,0.0
1734418912.7430658,976.5625,969.7265625,-1000.0,125.9765625,0.0
1734418912.746968,967.28515625,969.7265625,-1000.0,447.75390625,0.0
1734418912.75087,969.23828125,970.21484375,-1000.0,375.48828125,0.0
1734418912.7547722,969.23828125,969.7265625,-1000.0,-1.46484375,0.0
1734418912.7586744,969.23828125,969.7265625,-1000.0,-165.52734375,0.0
1734418912.7626233,0.0,969.7265625,-1000.0,153.3203125,0.0
1734418912.7665253,0.0,970.21484375,-1000.0,500.48828125,0.0
1734418912.7704275,0.0,970.21484375,-1000.0,466.796875,0.0
1734418912.7743297,0.0,969.7265625,-1000.0,96.6796875,0.0
1734418912.7782316,0.0,969.7265625,-1000.0,-114.2578125,0.0
1734418912.7821338,0.0,969.7265625,-1000.0,142.08984375,0.0
1734418912.786036,0.0,969.7265625,-1000.0,486.81640625,0.0
1734418912.7899382,0.0,969.7265625,-1000.0,542.96875,0.0
1734418912.7938402,0.0,969.7265625,-1000.0,255.859375,0.0
1734418912.7977424,0.0,970.21484375,-1000.0,2.9296875,0.0
1734418912.8016446,0.0,970.21484375,-1000.0,193.359375,0.0
1734418912.8055465,0.0,969.7265625,-1000.0,538.0859375,0.0
1734418912.8094916,969.23828125,969.7265625,-1000.0,578.125,0.0
1734418912.8133938,968.75,970.21484375,-1000.0,246.09375,0.0
1734418912.8172958,969.23828125,970.21484375,-1000.0,-56.15234375,0.0
1734418912.821198,969.7265625,970.21484375,-1000.0,44.43359375,0.0
1734418912.8251002,969.23828125,970.21484375,-1000.0,401.3671875,0.0
1734418912.8290024,969.23828125,969.7265625,-1000.0,512.6953125,0.0
1734418912.8329043,969.23828125,970.21484375,-1000.0,240.72265625,0.0
1734418912.8368065,969.23828125,970.21484375,-1000.0,-84.47265625,0.0
1734418912.8407087,969.23828125,969.7265625,-1000.0,-53.22265625,0.0
1734418912.844611,969.23828125,969.7265625,-1000.0,262.6953125,0.0
1734418912.848513,969.23828125,970.21484375,-1000.0,411.1328125,0.0
1734418912.852415,969.23828125,970.21484375,-1000.0,166.50390625,0.0
1734418912.8563564,969.23828125,969.7265625,-1000.0,-202.63671875,0.0
1734418912.8602583,969.23828125,969.7265625,-1000.0,-169.43359375,0.0
1734418912.8641605,969.23828125,969.7265625,-1000.0,172.8515625,0.0
1734418912.8680627,969.23828125,969.7265625,-1000.0,355.46875,0.0
1734418912.871965,969.7265625,970.21484375,-1000.0,174.31640625,0.0
1734418912.875867,966.796875,969.7265625,-1000.0,-148.4375,0.0
1734418912.879769,970.21484375,969.7265625,-1000.0,-110.83984375,0.0
1734418912.8836713,953.125,969.7265625,-1000.0,189.453125,0.0
1734418912.8875735,979.98046875,969.7265625,-1000.0,364.74609375,0.0
1734418912.8914754,942.87109375,969.7265625,-1000.0,167.48046875,0.0
1734418912.8953776,320.3125,969.7265625,-1000.0,-193.84765625,0.0
1734418912.8992798,401.3671875,969.7265625,-1000.0,-189.453125,0.0
1734418912.903217,988.76953125,970.21484375,-1000.0,145.99609375,0.0
1734418912.9071193,968.75,969.7265625,-1000.0,390.13671875,0.0
1734418912.9110215,917.96875,970.21484375,-1000.0,332.51953125,0.0
1734418912.9149234,135.25390625,970.21484375,-1000.0,49.31640625,0.0
1734418912.9188256,-357.421875,969.7265625,-1000.0,-39.55078125,0.0
1734418912.9227278,410.15625,969.7265625,-1000.0,249.51171875,0.0
1734418912.92663,997.55859375,969.7265625,-1000.0,523.92578125,0.0
1734418912.930532,915.52734375,969.7265625,-1000.0,434.08203125,0.0
1734418912.9344342,191.89453125,969.7265625,-1000.0,87.890625,0.0
1734418912.9383364,-57.6171875,969.7265625,-1000.0,-49.31640625,0.0
1734418912.9422386,712.890625,969.7265625,-1000.0,198.2421875,0.0
1734418912.9461405,987.79296875,969.7265625,-1000.0,500.48828125,0.0
1734418912.9501047,0.0,970.21484375,-1000.0,472.16796875,0.0
1734418912.954007,0.0,969.7265625,-1000.0,140.625,0.0
1734418912.957909,0.0,969.7265625,-1000.0,-30.2734375,0.0
1734418912.961811,0.0,970.21484375,-1000.0,209.47265625,0.0
1734418912.9657133,0.0,970.21484375,-1000.0,539.55078125,0.0
1734418912.9696155,0.0,969.7265625,-1000.0,537.59765625,0.0
1734418912.9735177,0.0,969.7265625,-1000.0,129.8828125,0.0
1734418912.9774196,0.0,969.7265625,-1000.0,-152.83203125,0.0
1734418912.9813218,0.0,969.7265625,-1000.0,79.58984375,0.0
1734418912.985224,0.0,970.21484375,-1000.0,448.2421875,0.0
1734418912.9891262,0.0,969.7265625,-1000.0,490.234375,0.0
1734418912.9930282,0.0,969.7265625,-1000.0,168.45703125,0.0
1734418912.9969876,710.44921875,969.7265625,-1000.0,-117.67578125,0.0
1734418913.0008898,875.9765625,969.7265625,-1000.0,-16.6015625,0.0
1734418913.004792,979.00390625,969.7265625,-1000.0,274.90234375,0.0
1734418913.008694,973.6328125,970.21484375,-1000.0,383.30078125,0.0
1734418913.0125961,916.015625,969.7265625,-1000.0,120.1171875,0.0
1734418913.0164983,419.43359375,968.75,-1000.0,-201.66015625,0.0
1734418913.0204005,500.9765625,964.84375,-1000.0,-131.34765625,0.0
1734418913.0243027,952.63671875,979.4921875,-1000.0,175.29296875,0.0
1734418913.0282047,-994.62890625,942.3828125,-1000.0,313.4765625,0.0
1734418913.0321069,402.83203125,904.78515625,-1000.0,78.125,0.0
1734418913.036009,-716.796875,967.28515625,-1000.0,-270.99609375,0.0
1734418913.0399113,-842.7734375,974.12109375,-1000.0,-250.0,0.0
1734418913.0438695,-164.55078125,958.0078125,0.0,53.22265625,0.0
1734418913.0477717,134.765625,958.984375,0.0,211.9140625,0.0
1734418913.051674,-525.390625,960.44921875,0.0,-15.13671875,0.0
1734418913.055576,-1000.0,932.12890625,0.0,-348.6328125,0.0
1734418913.0594783,-1000.0,874.51171875,0.0,-306.15234375,0.0
1734418913.0633802,-891.11328125,852.05078125,0.0,-20.5078125,0.0
1734418913.0672824,-347.16796875,871.09375,0.0,137.6953125,0.0
1734418913.0711846,-531.73828125,887.6953125,0.0,-15.13671875,0.0
1734418913.0750868,-1000.0,741.2109375,0.0,-332.51953125,0.0
1734418913.0789888,-1000.0,801.7578125,0.0,-406.25,0.0
1734418913.082891,-955.56640625,967.28515625,0.0,-144.53125,0.0
1734418913.0867932,-855.95703125,874.51171875,0.0,84.47265625,0.0
1734418913.0907466,-953.61328125,810.05859375,-1000.0,0.0,0.0
1734418913.0946488,-1000.0,812.01171875,-1000.0,0.0,0.0
1734418913.098551,-993.1640625,807.12890625,-1000.0,0.0,0.0
1734418913.102453,-1000.0,775.87890625,-1000.0,0.0,0.0
1734418913.1063552,-1000.0,753.90625,-1000.0,0.0,0.0
1734418913.1102574,-1000.0,745.1171875,-1000.0,0.0,0.0
1734418913.1141596,-964.84375,737.3046875,-1000.0,0.0,0.0
1734418913.1180618,-1000.0,692.87109375,-1000.0,0.0,0.0
1734418913.1219637,-764.6484375,720.21484375,-1000.0,0.0,0.0
1734418913.125866,349.609375,895.01953125,-1000.0,0.0,0.0
1734418913.1297681,774.90234375,858.3984375,-1000.0,0.0,0.0
1734418913.1336703,-123.53515625,739.2578125,-1000.0,0.0,0.0
1734418913.137621,-293.9453125,747.55859375,-1000.0,-391.11328125,0.0
1734418913.1415231,687.01171875,811.03515625,-1000.0,-150.87890625,0.0
1734418913.1454253,994.140625,781.25,-1000.0,172.8515625,0.0
1734418913.1493275,989.2578125,733.88671875,-1000.0,235.83984375,0.0
1734418913.1532297,749.51171875,721.6796875,-1000.0,-56.15234375,0.0
1734418913.157132,438.96484375,690.91796875,-1000.0,-273.4375,0.0
1734418913.1610339,812.98828125,737.79296875,-1000.0,-125.9765625,0.0
1734418913.164936,-998.53515625,676.26953125,-1000.0,207.03125,0.0
1734418913.1688383,882.32421875,687.98828125,-1000.0,300.78125,0.0
1734418913.1727405,-44.921875,795.8984375,-1000.0,-19.53125,0.0
1734418913.1766427,-927.24609375,711.9140625,-1000.0,-309.5703125,0.0
1734418913.1805446,-380.859375,696.2890625,-1000.0,-212.40234375,0.0
1734418913.1844897,518.5546875,748.53515625,-1000.0,43.45703125,0.0
1734418913.188392,795.41015625,740.72265625,-1000.0,81.54296875,0.0
1734418913.1922941,146.97265625,635.25390625,-1000.0,-246.58203125,0.0
1734418913.1961963,-543.45703125,589.84375,-1000.0,-605.46875,0.0
1734418913.2000985,-167.96875,664.0625,-1000.0,-598.6328125,0.0
1734418913.2040005,564.94140625,639.6484375,-1000.0,-359.86328125,0.0
1734418913.2079027,682.6171875,545.8984375,-1000.0,-273.4375,0.0
1734418913.2118049,-251.46484375,502.9296875,-1000.0,-525.87890625,0.0
1734418913.215707,-1000.0,613.76953125,-1000.0,-893.5546875,0.0
1734418913.2196093,-983.88671875,639.16015625,-1000.0,-887.6953125,0.0
1734418913.2235115,-984.86328125,565.91796875,-1000.0,-578.61328125,0.0
1734418913.2274134,-1000.0,529.296875,-1000.0,-445.80078125,0.0
1734418913.2313545,-1000.0,543.9453125,-1000.0,-661.62109375,0.0
1734418913.2352567,-1000.0,528.80859375,-1000.0,-964.84375,0.0
1734418913.2391589,-1000.0,499.0234375,-1000.0,-959.47265625,0.0
1734418913.243061,-1000.0,537.59765625,-1000.0,-657.2265625,0.0
1734418913.2469633,-1000.0,520.01953125,-1000.0,-416.50390625,0.0
1734418913.2508655,-1000.0,437.01171875,-1000.0,-521.97265625,0.0
1734418913.2547674,-1000.0,325.68359375,-1000.0,-793.45703125,0.0
1734418913.2586696,-1000.0,419.921875,-1000.0,-804.19921875,0.0
1734418913.2625718,-1000.0,584.9609375,-1000.0,-500.9765625,0.0
1734418913.266474,-1000.0,516.11328125,-1000.0,-190.91796875,0.0
1734418913.2703762,-1000.0,450.68359375,-1000.0,-222.65625,0.0
1734418913.2742784,-1000.0,471.6796875,-1000.0,-553.22265625,0.0
1734418913.2782156,-1000.0,524.4140625,-1000.0,-642.578125,0.0
1734418913.2821178,-1000.0,517.08984375,-1000.0,-308.10546875,0.0
1734418913.2860198,-1000.0,473.6328125,-1000.0,42.48046875,0.0
1734418913.289922,-993.1640625,524.90234375,-1000.0,24.90234375,0.0
1734418913.2938242,-987.79296875,554.6875,-1000.0,-323.2421875,0.0
1734418913.2977264,-999.51171875,467.7734375,-1000.0,-420.41015625,0.0
1734418913.3016286,-561.03515625,431.640625,-1000.0,-120.1171875,0.0
1734418913.3055308,203.61328125,569.82421875,-1000.0,167.48046875,0.0
1734418913.3094327,395.01953125,619.140625,-1000.0,181.15234375,0.0
1734418913.313335,-185.05859375,484.86328125,-1000.0,-136.23046875,0.0
1734418913.3172371,-486.328125,473.6328125,-1000.0,-323.73046875,0.0
1734418913.3211393,-65.4296875,541.9921875,-1000.0,-112.79296875,0.0
1734418913.3251052,0.0,504.8828125,-1000.0,197.265625,0.0
1734418913.3290071,0.0,440.91796875,-1000.0,221.6796875,0.0
1734418913.3329093,0.0,423.828125,-1000.0,-86.42578125,0.0
1734418913.3368115,0.0,458.0078125,-1000.0,-339.35546875,0.0
1734418913.3407137,0.0,458.0078125,-1000.0,-160.15625,0.0
1734418913.344616,0.0,411.62109375,-1000.0,176.26953125,0.0
1734418913.3485181,0.0,416.9921875,-1000.0,205.56640625,0.0
1734418913.3524203,0.0,461.9140625,-1000.0,-100.5859375,0.0
1734418913.3563223,0.0,473.6328125,-1000.0,-393.5546875,0.0
1734418913.3602245,0.0,424.8046875,-1000.0,-229.00390625,0.0
1734418913.3641267,0.0,504.39453125,-1000.0,116.2109375,0.0
1734418913.3680289,0.0,543.9453125,-1000.0,219.23828125,0.0
1734418913.37199,-996.58203125,401.85546875,-1000.0,-49.8046875,0.0
1734418913.375892,-997.55859375,340.33203125,-1000.0,-323.73046875,0.0
1734418913.3797941,-1000.0,396.484375,-1000.0,-211.42578125,0.0
1734418913.3836963,-719.23828125,426.7578125,-1000.0,123.53515625,0.0
1734418913.3875985,-504.39453125,373.53515625,-1000.0,272.94921875,0.0
1734418913.3915007,-838.8671875,284.66796875,-1000.0,30.76171875,0.0
1734418913.395403,-1000.0,279.78515625,-1000.0,-299.31640625,0.0
1734418913.399305,-945.80078125,316.40625,-1000.0,-254.39453125,0.0
1734418913.403207,-554.19921875,255.859375,-1000.0,81.54296875,0.0
1734418913.4071093,-644.53125,224.12109375,-1000.0,259.765625,0.0
1734418913.4110115,-1000.0,343.75,-1000.0,26.85546875,0.0
1734418913.4149137,-979.4921875,307.6171875,-1000.0,-375.0,0.0
1734418913.4188719,-1000.0,279.296875,-1000.0,-414.55078125,0.0
1734418913.4227738,-885.25390625,352.05078125,-1000.0,-81.0546875,0.0
1734418913.426676,-567.3828125,391.6015625,-1000.0,167.48046875,0.0
1734418913.4305782,-809.5703125,337.40234375,-1000.0,6.8359375,0.0
1734418913.4344804,-1000.0,282.2265625,-1000.0,-406.73828125,0.0
1734418913.4383826,-1000.0,310.546875,-1000.0,-459.47265625,0.0
1734418913.4422848,-897.94921875,390.13671875,-1000.0,-125.9765625,0.0
1734418913.446187,-625.0,488.28125,-1000.0,141.11328125,0.0
1734418913.4500892,-816.40625,333.0078125,-1000.0,25.87890625,0.0
1734418913.4539914,-1000.0,292.48046875,-1000.0,-409.1796875,0.0
1734418913.4578934,-993.65234375,484.86328125,-1000.0,-512.20703125,0.0
1734418913.4617956,-501.953125,503.90625,-1000.0,-146.484375,0.0
1734418913.4657485,0.0,502.9296875,-1000.0,167.48046875,0.0
1734418913.4696507,0.0,583.49609375,-1000.0,83.49609375,0.0
1734418913.473553,0.0,610.83984375,-1000.0,-291.9921875,0.0
1734418913.4774551,0.0,571.77734375,-1000.0,-460.9375,0.0
1734418913.4813573,0.0,600.09765625,-1000.0,-148.92578125,0.0
1734418913.4852595,0.0,643.5546875,-995.1171875,243.65234375,0.0
1734418913.4891615,0.0,634.27734375,-929.6875,232.421875,0.0
1734418913.4930637,0.0,536.1328125,-959.47265625,-146.97265625,0.0
1734418913.496966,0.0,529.78515625,-827.63671875,-367.1875,0.0
1734418913.500868,0.0,725.5859375,-339.35546875,-120.1171875,0.0
1734418913.5047703,0.0,730.46875,67.3828125,308.10546875,0.0
1734418913.5086725,0.0,599.609375,153.3203125,379.39453125,0.0
1734418913.5126228,545.41015625,553.22265625,98.14453125,-43.45703125,0.0
1734418913.516525,166.9921875,575.1953125,166.015625,-333.0078125,0.0
1734418913.5204272,636.23046875,561.5234375,304.6875,-60.05859375,0.0
1734418913.5243294,991.69921875,508.30078125,381.34765625,356.93359375,0.0
1734418913.5282316,951.171875,494.140625,363.28125,440.4296875,0.0
1734418913.5321338,369.140625,416.50390625,169.921875,77.1484375,0.0
1734418913.536036,-221.6796875,383.30078125,68.359375,-277.34375,0.0
1734418913.5399382,65.91796875,343.26171875,-15.625,-121.09375,0.0
1734418913.5438404,511.71875,415.0390625,149.90234375,265.13671875,0.0
1734418913.5477424,469.7265625,533.203125,397.4609375,384.765625,0.0
1734418913.5516446,-239.74609375,390.625,200.1953125,62.98828125,0.0
1734418913.5555468,-842.28515625,346.6796875,208.0078125,-298.828125,0.0
1734418913.5594935,-557.6171875,454.1015625,471.6796875,-212.40234375,0.0
1734418913.5633957,-15.13671875,523.4375,648.92578125,181.15234375,0.0
1734418913.567298,121.58203125,474.12109375,722.65625,416.9921875,0.0
1734418913.5712001,-342.28515625,418.9453125,730.46875,137.20703125,0.0
1734418913.5751023,-826.66015625,448.2421875,791.015625,-290.52734375,0.0
1734418913.5790043,-488.28125,432.6171875,841.30859375,-255.859375,0.0
1734418913.5829065,241.69921875,398.4375,848.6328125,160.15625,0.0
1734418913.5868087,556.640625,388.18359375,858.88671875,438.4765625,0.0
1734418913.5907109,221.19140625,420.8984375,862.3046875,204.58984375,0.0
1734418913.594613,-286.1328125,443.84765625,865.72265625,-234.86328125,0.0
1734418913.5985153,-9.27734375,331.0546875,869.62890625,-247.0703125,0.0
1734418913.6024175,697.75390625,338.8671875,893.06640625,139.6484375,0.0
1734418913.6063604,-985.3515625,483.88671875,914.0625,402.83203125,0.0
1734418913.6102626,734.375,388.18359375,914.0625,206.0546875,0.0
1734418913.6141646,107.421875,270.5078125,918.9453125,-215.33203125,0.0
1734418913.6180668,258.7890625,298.33984375,934.08203125,-275.87890625,0.0
1734418913.621969,849.12109375,334.47265625,944.82421875,98.6328125,0.0
1734418913.6258712,-994.140625,259.27734375,943.359375,418.45703125,0.0
1734418913.6297734,849.609375,60.546875,943.359375,320.3125,0.0
1734418913.6336756,345.703125,70.80078125,941.40625,-123.046875,0.0
1734418913.6375778,370.1171875,208.49609375,941.40625,-287.109375,0.0
1734418913.64148,881.8359375,126.46484375,935.05859375,58.10546875,0.0
1734418913.6453822,980.95703125,69.3359375,917.96875,451.171875,0.0
1734418913.6492844,973.6328125,52.734375,901.3671875,400.390625,0.0
1734418913.653222,706.0546875,-14.6484375,882.32421875,-82.03125,0.0
1734418913.6571243,666.9921875,-90.33203125,870.60546875,-310.546875,0.0
1734418913.6610262,979.98046875,-96.19140625,870.1171875,-37.109375,0.0
1734418913.6649284,961.42578125,-59.5703125,861.328125,336.9140625,0.0
1734418913.6688306,992.67578125,-119.62890625,858.3984375,322.75390625,0.0
1734418913.6727328,828.125,-323.73046875,819.82421875,-167.48046875,0.0
1734418913.676635,755.859375,-425.78125,730.46875,-473.14453125,0.0
1734418913.6805372,977.5390625,-258.30078125,776.85546875,-229.00390625,0.0
1734418913.6844394,965.8203125,-177.24609375,836.42578125,187.5,0.0
1734418913.6883416,982.91015625,-311.5234375,667.96875,246.58203125,0.0
1734418913.6922438,895.01953125,-450.68359375,529.296875,-189.453125,0.0
1734418913.696146,832.51953125,-418.45703125,510.25390625,-512.6953125,0.0
1734418913.7001116,969.23828125,-384.765625,514.6484375,-313.96484375,0.0
1734418913.7040138,964.35546875,-421.38671875,528.80859375,82.51953125,0.0
1734418913.707916,986.81640625,-380.37109375,506.34765625,184.5703125,0.0
1734418913.7118182,895.01953125,-370.1171875,385.25390625,-196.77734375,0.0
1734418913.7157204,773.92578125,-426.26953125,286.62109375,-554.6875,0.0
1734418913.7196226,935.05859375,-448.2421875,354.4921875,-382.32421875,0.0
1734418913.7235248,971.6796875,-394.53125,506.34765625,16.6015625,0.0
1734418913.727427,982.91015625,-377.9296875,558.10546875,142.08984375,0.0
1734418913.7313292,892.578125,-519.04296875,354.4921875,-177.24609375,0.0
1734418913.7352314,660.64453125,-707.03125,51.26953125,-565.91796875,0.0
1734418913.7391336,832.51953125,-677.734375,226.5625,-488.28125,0.0
1734418913.7430358,969.23828125,-587.40234375,501.46484375,-88.37890625,0.0
1734418913.7469954,-999.0234375,-729.4921875,517.08984375,136.71875,0.0
1734418913.7508976,733.3984375,-903.3203125,514.16015625,-188.4765625,0.0
1734418913.7547998,66.89453125,-892.08984375,574.70703125,-641.11328125,0.0
1734418913.758702,53.22265625,-914.0625,692.87109375,-567.87109375,0.0
1734418913.7626042,434.5703125,-981.4453125,714.84375,-123.046875,0.0
1734418913.7665064,535.64453125,-1000.0,659.1796875,188.96484375,0.0
1734418913.7704086,-28.80859375,-998.53515625,253.90625,10.7421875,0.0
1734418913.7743108,-772.4609375,-1000.0,-551.26953125,-393.06640625,0.0
1734418913.7782128,-411.62109375,-1000.0,-957.51953125,-386.71875,0.0
1734418913.782115,540.52734375,-1000.0,-982.421875,65.91796875,0.0
1734418913.7860172,-986.81640625,-1000.0,-990.72265625,378.90625,0.0
1734418913.7899194,819.3359375,-1000.0,-999.51171875,136.71875,0.0
1734418913.7938774,451.171875,-1000.0,-1000.0,0.0,0.0
1734418913.7977796,765.13671875,-1000.0,-1000.0,0.0,0.0
1734418913.8016818,-985.3515625,-1000.0,-1000.0,0.0,0.0
1734418913.805584,950.1953125,-1000.0,-1000.0,0.0,0.0
1734418913.8094862,969.7265625,-1000.0,-1000.0,0.0,0.0
1734418913.8133883,969.7265625,-1000.0,-1000.0,0.0,0.0
1734418913.8172905,969.23828125,-1000.0,-1000.0,0.0,0.0
1734418913.8211927,969.23828125,-1000.0,-1000.0,0.0,0.0
1734418913.825095,969.23828125,-1000.0,-1000.0,0.0,0.0
1734418913.8289971,969.23828125,-1000.0,-1000.0,0.0,0.0
1734418913.8328993,969.23828125,-1000.0,-999.0234375,0.0,0.0
1734418913.8368015,969.23828125,-1000.0,-1000.0,0.0,0.0
1734418913.8406713,969.23828125,-1000.0,-991.69921875,-378.90625,0.0
1734418913.8445735,969.23828125,-1000.0,-982.91015625,-421.875,0.0
1734418913.8484757,969.7265625,-1000.0,-1000.0,-54.6875,0.0
1734418913.852378,969.23828125,-1000.0,-1000.0,197.75390625,0.0
1734418913.85628,969.23828125,-1000.0,-1000.0,-273.4375,0.0
1734418913.8601823,969.23828125,-1000.0,-1000.0,-945.3125,0.0
1734418913.8640845,969.23828125,-1000.0,-1000.0,-1000.0,0.0
1734418913.8679867,969.7265625,-1000.0,-1000.0,-747.55859375,0.0
1734418913.8718889,969.23828125,-1000.0,-1000.0,-366.2109375,0.0
1734418913.875791,969.23828125,-1000.0,-1000.0,-521.97265625,0.0
1734418913.8796933,970.703125,-1000.0,-1000.0,-908.69140625,0.0
1734418913.8835955,959.47265625,-1000.0,-1000.0,-1000.0,0.0
1734418913.8875458,989.2578125,-1000.0,-1000.0,615.234375,0.0
1734418913.891448,913.0859375,-1000.0,-1000.0,278.80859375,0.0
1734418913.8953502,769.04296875,-1000.0,-1000.0,-21.484375,0.0
1734418913.8992524,916.015625,-1000.0,-1000.0,215.8203125,0.0
1734418913.9031546,969.23828125,-1000.0,-1000.0,659.66796875,0.0
1734418913.9070568,989.74609375,-1000.0,-1000.0,828.61328125,0.0
1734418913.910959,822.75390625,-1000.0,-1000.0,533.69140625,0.0
1734418913.9148612,334.47265625,-1000.0,-1000.0,149.4140625,0.0
1734418913.9187634,398.92578125,-1000.0,-1000.0,229.4921875,0.0
1734418913.9226656,888.18359375,-1000.0,-1000.0,675.78125,0.0
1734418913.9265678,886.23046875,-1000.0,-1000.0,930.17578125,0.0
1734418913.93047,-181.15234375,-1000.0,-1000.0,610.83984375,0.0
1734418913.934418,-1000.0,-1000.0,-1000.0,142.578125,0.0
1734418913.9383202,-735.3515625,-1000.0,-1000.0,189.94140625,0.0
1734418913.9422224,83.49609375,-1000.0,-1000.0,635.25390625,0.0
1734418913.9461246,459.9609375,-1000.0,-1000.0,883.30078125,0.0
1734418913.9500265,10.7421875,-1000.0,-1000.0,574.21875,0.0
1734418913.9539287,-457.03125,-1000.0,-1000.0,141.11328125,0.0
1734418913.957831,-186.03515625,-1000.0,-1000.0,179.19921875,0.0
1734418913.961733,528.3203125,-1000.0,-1000.0,589.35546875,0.0
1734418913.9656353,992.1875,-1000.0,-1000.0,830.078125,0.0
1734418913.9695375,865.234375,-1000.0,-1000.0,651.85546875,0.0
1734418913.9734397,349.12109375,-1000.0,-1000.0,246.09375,0.0
1734418913.977342,390.13671875,-1000.0,-1000.0,135.25390625,0.0
1734418913.981285,887.6953125,-1000.0,-1000.0,507.8125,0.0
1734418913.9851873,983.88671875,-1000.0,-1000.0,857.421875,0.0
1734418913.9890895,958.984375,-1000.0,-967.7734375,737.3046875,0.0
1734418913.9929917,703.125,-994.140625,-1000.0,292.96875,0.0
1734418913.996894,729.00390625,-962.890625,-800.29296875,103.02734375,0.0
1734418914.000796,993.65234375,-1000.0,250.9765625,450.1953125,0.0
1734418914.0046983,965.33203125,-230.46875,859.86328125,886.71875,0.0
1734418914.0086005,964.35546875,929.19921875,848.14453125,837.890625,0.0
1734418914.0125027,970.21484375,976.5625,899.90234375,354.00390625,0.0
1734418914.0164049,968.75,938.4765625,939.453125,120.1171875,0.0
1734418914.020307,969.23828125,977.5390625,953.61328125,459.47265625,0.0
1734418914.0242093,968.75,969.7265625,967.7734375,861.328125,0.0
1734418914.0281458,968.75,969.7265625,970.703125,838.8671875,0.0
1734418914.032048,969.23828125,969.7265625,968.75,264.16015625,0.0
1734418914.0359502,969.23828125,969.7265625,969.7265625,-111.81640625,0.0
1734418914.0398524,970.21484375,969.7265625,969.7265625,195.3125,0.0
1734418914.0437546,956.54296875,969.7265625,969.7265625,581.54296875,0.0
1734418914.0476568,998.53515625,969.7265625,969.7265625,620.60546875,0.0
1734418914.051559,855.46875,969.7265625,969.7265625,197.265625,0.0
1734418914.0554612,681.15234375,969.7265625,969.7265625,-171.38671875,0.0
1734418914.0593634,895.5078125,969.7265625,969.7265625,56.640625,0.0
1734418914.0632656,970.703125,969.7265625,969.7265625,475.09765625,0.0
1734418914.0671678,995.1171875,969.7265625,969.7265625,553.22265625,0.0
1734418914.07107,695.3125,969.7265625,969.7265625,159.1796875,0.0
1734418914.0750353,217.7734375,969.7265625,969.7265625,-278.3203125,0.0
1734418914.0789375,445.3125,969.7265625,969.7265625,-121.58203125,0.0
1734418914.0828397,876.953125,969.7265625,969.7265625,326.171875,0.0
1734418914.086742,980.46875,969.7265625,969.7265625,475.5859375,0.0
1734418914.0906441,504.8828125,969.7265625,969.7265625,180.6640625,0.0
1734418914.0945463,-60.546875,971.19140625,961.42578125,-205.078125,0.0
1734418914.0984485,140.625,962.890625,957.51953125,-99.609375,0.0
1734418914.1023507,626.953125,918.9453125,953.61328125,338.37890625,0.0
1734418914.106253,789.0625,-908.69140625,945.3125,574.70703125,0.0
1734418914.110155,358.88671875,70.3125,923.33984375,306.640625,0.0
1734418914.1140575,-152.83203125,-1000.0,883.7890625,-128.90625,0.0
1734418914.1179597,1.953125,-969.23828125,854.00390625,-100.5859375,0.0
1734418914.121921,506.8359375,-981.4453125,815.4296875,380.37109375,0.0
1734418914.1258235,779.296875,-1000.0,692.87109375,705.078125,0.0
1734418914.1297257,475.09765625,-1000.0,-90.33203125,477.5390625,0.0
1734418914.133628,-17.578125,-1000.0,-945.3125,24.4140625,0.0
1734418914.13753,72.265625,-1000.0,-996.09375,-6.34765625,0.0
1734418914.1414323,558.10546875,-1000.0,-980.95703125,393.5546875,0.0
1734418914.1453345,789.0625,-1000.0,-1000.0,688.96484375,0.0
1734418914.1492367,386.23046875,-1000.0,-1000.0,502.44140625,0.0
1734418914.1531389,-330.56640625,-1000.0,-1000.0,10.7421875,0.0
1734418914.157041,-529.78515625,-1000.0,-1000.0,-115.234375,0.0
1734418914.1609433,-166.9921875,-1000.0,-1000.0,219.7265625,0.0
1734418914.1648455,-429.19921875,-1000.0,-1000.0,520.01953125,0.0
1734418914.1688032,-1000.0,-1000.0,-1000.0,365.72265625,0.0
1734418914.1727054,-987.3046875,-1000.0,-1000.0,-185.05859375,0.0
1734418914.1766076,-1000.0,-1000.0,-1000.0,-380.859375,0.0
1734418914.1805098,-862.79296875,-1000.0,-1000.0,13.18359375,0.0
1734418914.184412,-392.578125,-1000.0,-1000.0,349.12109375,0.0
1734418914.1883142,-495.60546875,-1000.0,-1000.0,226.5625,0.0
1734418914.1922164,-947.75390625,-1000.0,-1000.0,-258.30078125,0.0
1734418914.1961186,-1000.0,-1000.0,-1000.0,-496.58203125,0.0
1734418914.2000208,-686.03515625,-1000.0,-1000.0,-138.18359375,0.0
1734418914.203923,-133.7890625,-1000.0,-1000.0,299.31640625,0.0
1734418914.2078252,-115.234375,-1000.0,-1000.0,270.99609375,0.0
1734418914.2117276,-668.9453125,-1000.0,-999.51171875,-166.015625,0.0
1734418914.2156792,-905.76171875,-1000.0,-1000.0,-437.01171875,0.0
1734418914.2195814,-325.68359375,-1000.0,-998.53515625,-155.76171875,0.0
1734418914.2234836,297.36328125,-1000.0,-917.96875,282.71484375,0.0
1734418914.2273858,390.13671875,-1000.0,-915.52734375,351.07421875,0.0
1734418914.231288,-69.82421875,-1000.0,-987.79296875,-87.40234375,0.0
1734418914.2351902,-299.8046875,-1000.0,-1000.0,-438.96484375,0.0
1734418914.2390924,161.62109375,-1000.0,-709.9609375,-202.1484375,0.0
1734418914.2429945,677.24609375,-1000.0,-317.87109375,253.41796875,0.0
1734418914.2468967,774.4140625,-1000.0,-283.203125,380.859375,0.0
1734418914.250799,311.03515625,-1000.0,-360.3515625,4.8828125,0.0
1734418914.2547011,-68.84765625,-1000.0,-464.84375,-378.41796875,0.0
1734418914.2586033,289.55078125,-1000.0,-32.71484375,-187.01171875,0.0
1734418914.2625518,0.0,-1000.0,483.88671875,280.2734375,0.0
1734418914.266454,0.0,-1000.0,550.78125,433.59375,0.0
1734418914.2703562,0.0,-1000.0,277.83203125,99.609375,0.0
1734418914.2742584,0.0,-1000.0,134.765625,-305.6640625,0.0
1734418914.2781606,0.0,-1000.0,424.31640625,-198.73046875,0.0
1734418914.2820628,0.0,-1000.0,669.43359375,278.80859375,0.0
1734418914.285965,0.0,-1000.0,693.359375,534.66796875,0.0
1734418914.2898672,0.0,-1000.0,354.98046875,200.1953125,0.0
1734418914.2937694,0.0,-1000.0,200.1953125,-290.0390625,0.0
1734418914.2976716,0.0,-1000.0,519.04296875,-221.19140625,0.0
1734418914.3015738,0.0,-1000.0,723.6328125,253.90625,0.0
1734418914.305476,0.0,-1000.0,771.484375,532.2265625,0.0
1734418914.3093348,807.12890625,-1000.0,692.87109375,295.8984375,0.0
1734418914.3132372,876.953125,-1000.0,590.8203125,-203.125,0.0
1734418914.3171394,439.94140625,-1000.0,708.0078125,-223.6328125,0.0
1734418914.3210416,6.8359375,-1000.0,846.19140625,238.28125,0.0
1734418914.3249438,322.75390625,-1000.0,850.09765625,546.875,0.0
1734418914.328846,842.7734375,-1000.0,839.35546875,370.60546875,0.0
1734418914.3327482,-985.83984375,-993.65234375,818.84765625,-93.26171875,0.0
1734418914.3366504,678.7109375,-1000.0,829.58984375,-188.96484375,0.0
1734418914.3405526,154.296875,-975.09765625,873.53515625,200.1953125,0.0
1734418914.3444548,435.546875,-749.0234375,884.27734375,548.828125,0.0
1734418914.348357,911.1328125,-820.3125,863.76953125,431.15234375,0.0
1734418914.3522592,994.62890625,-1000.0,856.93359375,-76.171875,0.0
1734418914.3561997,821.2890625,-908.69140625,866.2109375,-260.7421875,0.0
1734418914.360102,975.5859375,-480.46875,887.6953125,136.23046875,0.0
1734418914.3640041,962.890625,9.765625,903.3203125,580.56640625,0.0
1734418914.3679063,987.3046875,248.046875,894.04296875,478.02734375,0.0
1734418914.3718085,778.3203125,-6.8359375,878.41796875,-6.34765625,0.0
1734418914.3757107,661.1328125,-215.8203125,878.90625,-216.30859375,0.0
1734418914.379613,914.55078125,-281.25,894.53125,55.17578125,0.0
1734418914.3835151,973.14453125,161.62109375,916.50390625,476.5625,0.0
1734418914.3874173,987.79296875,768.06640625,911.1328125,491.2109375,0.0
1734418914.3913195,762.20703125,44.921875,884.27734375,57.6171875,0.0
1734418914.3952217,574.70703125,-559.5703125,885.7421875,-242.67578125,0.0
1734418914.399124,867.1875,274.90234375,924.8046875,15.13671875,0.0
1734418914.4030612,976.5625,-984.375,952.63671875,451.171875,0.0
1734418914.4069633,992.67578125,948.2421875,967.28515625,556.15234375,0.0
1734418914.4108655,788.57421875,957.51953125,970.21484375,152.83203125,0.0
1734418914.4147677,621.09375,974.12109375,969.23828125,-187.01171875,0.0
1734418914.4186702,904.78515625,969.7265625,970.21484375,92.28515625,0.0
1734418914.4225724,971.19140625,969.7265625,969.7265625,572.265625,0.0
1734418914.4264746,993.1640625,969.7265625,969.23828125,681.640625,0.0
1734418914.4303768,799.8046875,969.7265625,969.7265625,266.6015625,0.0
1734418914.434279,464.84375,969.7265625,969.7265625,-130.37109375,0.0
1734418914.4381812,723.6328125,969.7265625,969.7265625,58.59375,0.0
1734418914.4420834,982.421875,969.7265625,969.7265625,494.62890625,0.0
1734418914.4459856,959.47265625,969.7265625,969.7265625,632.32421875,0.0
1734418914.4499488,512.6953125,969.7265625,969.7265625,229.98046875,0.0
1734418914.453851,-83.0078125,969.7265625,969.7265625,-271.484375,0.0
1734418914.4577532,19.04296875,969.7265625,969.7265625,-206.0546875,0.0
1734418914.4616556,342.7734375,969.7265625,969.7265625,164.0625,0.0
1734418914.4655578,293.45703125,969.7265625,969.7265625,353.515625,0.0
1734418914.46946,-231.93359375,969.7265625,969.7265625,43.9453125,0.0
1734418914.4733622,-860.3515625,969.7265625,969.7265625,-468.75,0.0
1734418914.4772644,-868.65234375,969.7265625,970.21484375,-457.03125,0.0
1734418914.4811666,-506.8359375,969.7265625,969.7265625,-43.9453125,0.0
1734418914.4850688,-464.84375,970.21484375,969.7265625,213.8671875,0.0
1734418914.488971,-816.89453125,969.7265625,969.7265625,-32.2265625,0.0
1734418914.4928732,-1000.0,969.7265625,969.7265625,-555.6640625,0.0
1734418914.4968348,-1000.0,969.7265625,969.7265625,-616.2109375,0.0
1734418914.500737,-937.98828125,969.7265625,969.7265625,-177.734375,0.0
1734418914.5046391,-790.52734375,969.7265625,969.7265625,156.25,0.0
1734418914.5085413,-916.9921875,970.21484375,969.7265625,-66.40625,0.0
1734418914.5124435,-1000.0,970.21484375,969.7265625,-506.34765625,0.0
1734418914.5163457,-993.1640625,969.7265625,970.21484375,-552.24609375,0.0
1734418914.5202482,-1000.0,969.7265625,969.7265625,-179.19921875,0.0
1734418914.5241504,-1000.0,969.7265625,969.7265625,203.125,0.0
1734418914.5280526,-1000.0,969.7265625,969.7265625,73.73046875,0.0
1734418914.5319548,-1000.0,970.21484375,969.7265625,-455.078125,0.0
1734418914.535857,-1000.0,970.21484375,970.21484375,-646.484375,0.0
1734418914.5397592,-1000.0,970.21484375,969.7265625,-275.87890625,0.0
1734418914.5437152,-1000.0,969.7265625,969.7265625,122.0703125,0.0
1734418914.5476174,-1000.0,970.21484375,969.7265625,50.78125,0.0
1734418914.5515196,-1000.0,969.7265625,969.7265625,-446.77734375,0.0
1734418914.5554218,-998.53515625,969.7265625,969.7265625,-700.68359375,0.0
1734418914.559324,-1000.0,970.21484375,969.7265625,-376.953125,0.0
1734418914.5632262,-978.02734375,969.7265625,969.7265625,72.75390625,0.0
1734418914.5671284,-968.75,969.7265625,969.7265625,72.75390625,0.0
1734418914.5710306,-1000.0,969.7265625,969.7265625,-393.06640625,0.0
1734418914.574933,-998.53515625,969.7265625,969.7265625,-679.19921875,0.0
1734418914.5788352,-1000.0,970.21484375,970.21484375,-424.31640625,0.0
1734418914.5827374,-918.9453125,970.21484375,969.7265625,23.4375,0.0
1734418914.5866396,-919.921875,970.21484375,969.7265625,148.92578125,0.0
1734418914.590593,0.0,970.21484375,970.21484375,-274.90234375,0.0
1734418914.5944953,0.0,970.21484375,970.21484375,-644.53125,0.0
1734418914.5983975,0.0,975.09765625,969.7265625,-416.015625,0.0
1734418914.6022997,0.0,926.26953125,969.7265625,53.7109375,0.0
1734418914.606202,0.0,-974.12109375,969.7265625,201.66015625,0.0
1734418914.610104,0.0,657.71484375,970.21484375,-186.5234375,0.0
1734418914.6140063,0.0,-567.87109375,970.21484375,-583.49609375,0.0
1734418914.6179085,0.0,-1000.0,969.7265625,-414.55078125,0.0
1734418914.621811,0.0,-961.9140625,969.7265625,83.984375,0.0
1734418914.625713,0.0,-1000.0,970.21484375,278.80859375,0.0
1734418914.6296153,0.0,-1000.0,969.7265625,-59.5703125,0.0
1734418914.6335175,0.0,-1000.0,970.21484375,-485.3515625,0.0
1734418914.6374652,-516.6015625,-1000.0,970.21484375,-395.5078125,0.0
1734418914.6413674,26.85546875,-1000.0,969.7265625,88.37890625,0.0
1734418914.6452696,208.0078125,-1000.0,969.7265625,324.21875,0.0
1734418914.6491718,-73.2421875,-1000.0,969.7265625,19.53125,0.0
1734418914.653074,-445.80078125,-1000.0,969.7265625,-434.08203125,0.0
1734418914.6569762,-194.3359375,-1000.0,969.7265625,-384.27734375,0.0
1734418914.6608784,324.70703125,-1000.0,969.7265625,81.0546875,0.0
1734418914.6647809,499.51171875,-1000.0,969.7265625,408.69140625,0.0
1734418914.668683,220.703125,-1000.0,969.7265625,140.625,0.0
1734418914.6725852,-181.15234375,-1000.0,969.7265625,-402.83203125,0.0
1734418914.6764874,-55.6640625,-1000.0,969.7265625,-388.18359375,0.0
1734418914.6803896,438.4765625,-1000.0,969.7265625,38.57421875,0.0
1734418914.6843336,724.12109375,-1000.0,969.7265625,328.61328125,0.0
1734418914.6882358,502.9296875,-1000.0,970.21484375,164.55078125,0.0
1734418914.692138,0.48828125,-1000.0,969.7265625,-333.49609375,0.0
1734418914.6960402,4.39453125,-1000.0,969.7265625,-431.15234375,0.0
1734418914.6999426,448.73046875,-1000.0,969.7265625,-41.015625,0.0
1734418914.7038448,702.1484375,-1000.0,969.7265625,324.21875,0.0
1734418914.707747,518.06640625,-1000.0,969.7265625,208.984375,0.0
1734418914.7116492,29.78515625,-1000.0,969.7265625,-279.296875,0.0
1734418914.7155514,-92.7734375,-1000.0,970.21484375,-456.0546875,0.0
1734418914.7194536,302.24609375,-1000.0,969.7265625,-88.8671875,0.0
1734418914.7233558,587.40234375,-1000.0,969.7265625,321.77734375,0.0
1734418914.7272582,401.3671875,-1000.0,970.21484375,272.94921875,0.0
1734418914.7311983,-91.796875,-1000.0,970.21484375,-187.01171875,0.0
1734418914.7351005,-209.47265625,-1000.0,970.21484375,-426.26953125,0.0
1734418914.7390027,239.2578125,-1000.0,969.7265625,-92.7734375,0.0
1734418914.742905,622.0703125,-1000.0,969.7265625,354.98046875,0.0
1734418914.7468073,526.85546875,-1000.0,970.21484375,363.76953125,0.0
1734418914.7507095,59.5703125,-1000.0,970.21484375,-97.16796875,0.0
1734418914.7546117,-113.76953125,-1000.0,969.23828125,-385.7421875,0.0
1734418914.758514,306.640625,-1000.0,969.7265625,-104.00390625,0.0
1734418914.7624161,668.45703125,-1000.0,970.21484375,345.21484375,0.0
1734418914.7663183,589.84375,-1000.0,969.7265625,431.640625,0.0
1734418914.7702208,174.8046875,-1000.0,969.7265625,2.9296875,0.0
1734418914.774123,-58.10546875,-1000.0,970.21484375,-366.2109375,0.0
1734418914.7780592,309.08203125,-1000.0,969.7265625,-131.8359375,0.0
1734418914.7819614,752.44140625,-995.60546875,969.7265625,349.609375,0.0
1734418914.7858639,749.0234375,-1000.0,969.7265625,463.37890625,0.0
1734418914.789766,275.87890625,-980.95703125,969.7265625,44.921875,0.0
1734418914.7936683,3.41796875,-738.76953125,969.7265625,-353.02734375,0.0
1734418914.7975705,277.34375,-506.8359375,969.7265625,-176.26953125,0.0
1734418914.8014727,611.81640625,22.94921875,969.7265625,278.80859375,0.0
1734418914.8053749,658.69140625,833.984375,969.7265625,439.94140625,0.0
1734418914.8092773,263.18359375,988.76953125,970.21484375,114.2578125,0.0
1734418914.8131795,-175.78125,944.3359375,969.23828125,-313.96484375,0.0
1734418914.8170817,18.06640625,973.6328125,969.23828125,-230.95703125,0.0
1734418914.820984,448.73046875,970.21484375,970.21484375,217.28515625,0.0
1734418914.8249469,566.40625,969.7265625,969.7265625,471.6796875,0.0
1734418914.828849,192.87109375,969.7265625,969.7265625,181.15234375,0.0
1734418914.8327515,-274.4140625,969.7265625,969.7265625,-281.73828125,0.0
1734418914.8366537,-51.7578125,969.7265625,969.7265625,-241.2109375,0.0
1734418914.840556,484.375,969.7265625,969.7265625,222.65625,0.0
1734418914.844458,720.21484375,969.7265625,969.7265625,539.55078125,0.0
1734418914.8483603,435.05859375,970.21484375,969.7265625,326.66015625,0.0
1734418914.8522625,-41.015625,969.7265625,969.7265625,-132.8125,0.0
1734418914.856165,50.29296875,969.7265625,969.7265625,-160.15625,0.0
1734418914.8600671,535.15625,969.7265625,969.7265625,296.38671875,0.0
1734418914.8639693,789.0625,969.7265625,969.7265625,652.34375,0.0
1734418914.8678715,575.1953125,969.7265625,969.7265625,462.40234375,0.0
1734418914.8718302,0.0,969.7265625,969.7265625,-15.625,0.0
1734418914.8757327,0.0,970.703125,969.7265625,-79.58984375,0.0
1734418914.8796349,0.0,959.47265625,969.7265625,330.078125,0.0
1734418914.883537,0.0,987.79296875,969.23828125,689.453125,0.0
1734418914.8874393,0.0,900.87890625,969.7265625,562.5,0.0
1734418914.8913414,0.0,725.09765625,969.23828125,111.328125,0.0
1734418914.895244,0.0,789.55078125,969.23828125,-66.89453125,0.0
1734418914.899146,0.0,944.82421875,969.7265625,265.625,0.0
1734418914.9030483,0.0,826.66015625,969.7265625,685.546875,0.0
1734418914.9069505,0.0,632.32421875,969.7265625,676.7578125,0.0
1734418914.9108527,0.0,713.8671875,970.21484375,173.828125,0.0
1734418914.914755,0.0,702.63671875,969.23828125,-98.14453125,0.0
1734418914.9187124,670.41015625,602.05078125,967.28515625,255.859375,0.0
1734418914.9226148,983.88671875,591.796875,969.23828125,647.4609375,0.0
1734418914.926517,980.46875,508.30078125,958.0078125,630.859375,0.0
