timestamps,TP9,AF7,AF8,TP10,Right AUX
1734412302.833779,-1000.0,169.921875,-701.171875,-1000.0,0.0
1734412302.8376632,-1000.0,-559.08203125,-1000.0,-1000.0,0.0
1734412302.841547,-1000.0,-147.4609375,-970.703125,-1000.0,0.0
1734412302.845431,-1000.0,790.0390625,-644.53125,-1000.0,0.0
1734412302.849315,-1000.0,948.73046875,-352.5390625,-1000.0,0.0
1734412302.8531988,-1000.0,262.20703125,-631.8359375,-1000.0,0.0
1734412302.8570828,-1000.0,-581.54296875,-1000.0,-1000.0,0.0
1734412302.8609667,-1000.0,-371.58203125,-970.21484375,-1000.0,0.0
1734412302.8648508,-1000.0,682.6171875,-528.80859375,-1000.0,0.0
1734412302.8687346,-1000.0,-965.33203125,1.953125,-1000.0,0.0
1734412302.8726184,-1000.0,401.3671875,-342.28515625,-1000.0,0.0
1734412302.8766983,-1000.0,-420.41015625,-950.1953125,-1000.0,0.0
1734412302.880582,-1000.0,-176.7578125,-930.17578125,-1000.0,0.0
1734412302.8844662,-1000.0,716.30859375,-425.29296875,-1000.0,0.0
1734412302.8883502,-1000.0,-998.046875,144.53125,-1000.0,0.0
1734412302.892234,-1000.0,563.96484375,-9.27734375,-1000.0,0.0
1734412302.8961182,-986.328125,-361.328125,-734.375,-1000.0,0.0
1734412302.9000022,-991.69921875,-431.15234375,-920.8984375,-1000.0,0.0
1734412302.903886,-1000.0,549.31640625,-610.83984375,-1000.0,0.0
1734412302.9077702,-302.24609375,-961.9140625,-44.43359375,-1000.0,0.0
1734412302.9116542,-459.9609375,751.46484375,279.296875,-1000.0,0.0
1734412302.9155383,-1000.0,-143.5546875,-470.703125,-1000.0,0.0
1734412302.9194221,-969.7265625,-507.8125,-977.5390625,-1000.0,0.0
1734412302.9234936,-1000.0,430.17578125,-436.03515625,-1000.0,0.0
1734412302.9273777,230.46875,-935.05859375,254.39453125,-999.0234375,0.0
1734412302.9312618,-28.80859375,703.61328125,240.72265625,-999.0234375,0.0
1734412302.9351459,-1000.0,-151.3671875,-440.91796875,-1000.0,0.0
1734412302.93903,-903.80859375,-539.0625,-953.61328125,-955.078125,0.0
1734412302.942914,-1000.0,237.3046875,-652.34375,-1000.0,0.0
1734412302.946798,-92.28515625,-976.07421875,81.0546875,-620.60546875,0.0
1734412302.9506822,88.37890625,662.109375,97.65625,-293.9453125,0.0
1734412302.9545662,-1000.0,-76.171875,-533.203125,-1000.0,0.0
1734412302.9584503,-924.31640625,-442.3828125,-885.7421875,-971.6796875,0.0
1734412302.9623344,-1000.0,160.64453125,-720.703125,-1000.0,0.0
1734412302.9662185,-83.984375,948.73046875,-48.828125,-695.3125,0.0
1734412302.9702718,259.765625,875.48828125,404.296875,-170.41015625,0.0
1734412302.974156,-1000.0,137.6953125,-156.73828125,-950.1953125,0.0
1734412302.97804,-943.84765625,-664.0625,-938.4765625,-996.09375,0.0
1734412302.9819243,-1000.0,-90.8203125,-808.59375,-1000.0,0.0
1734412302.9858084,-100.09765625,932.6171875,-60.05859375,-787.59765625,0.0
1734412302.9896924,320.80078125,928.22265625,335.44921875,292.96875,0.0
1734412302.9935765,-1000.0,36.1328125,-278.3203125,-554.19921875,0.0
1734412302.9974608,-945.3125,-733.88671875,-1000.0,-1000.0,0.0
1734412303.001345,-1000.0,23.4375,-788.57421875,-1000.0,0.0
1734412303.005229,-137.6953125,898.4375,-82.51953125,-865.72265625,0.0
1734412303.009113,741.69921875,947.75390625,360.83984375,719.23828125,0.0
1734412303.0129974,-781.73828125,422.36328125,5.859375,165.52734375,0.0
1734412303.017022,-1000.0,-392.578125,-733.3984375,-1000.0,0.0
1734412303.020906,-1000.0,-198.73046875,-850.5859375,-1000.0,0.0
1734412303.0247903,-268.5546875,693.84765625,-250.0,-666.015625,0.0
1734412303.0286744,-857.421875,-965.33203125,385.25390625,944.3359375,0.0
1734412303.0325587,-106.93359375,509.27734375,174.31640625,384.765625,0.0
1734412303.0364428,-1000.0,-449.21875,-661.62109375,-997.0703125,0.0
1734412303.040327,-1000.0,-503.41796875,-981.93359375,-1000.0,0.0
1734412303.0442111,-305.17578125,488.76953125,-309.08203125,-435.05859375,0.0
1734412303.0480955,-834.9609375,-929.19921875,398.92578125,946.77734375,0.0
1734412303.0519795,148.4375,585.44921875,194.82421875,970.21484375,0.0
1734412303.0558639,-1000.0,-297.36328125,-536.62109375,-316.89453125,0.0
1734412303.059748,-1000.0,-345.21484375,-864.2578125,-1000.0,0.0
1734412303.0637376,-431.15234375,542.96875,-249.51171875,-355.95703125,0.0
1734412303.067622,-895.01953125,-979.4921875,334.47265625,894.53125,0.0
1734412303.0715063,195.80078125,644.53125,337.890625,-880.37109375,0.0
1734412303.0753903,-1000.0,-168.9453125,-293.45703125,187.01171875,0.0
1734412303.0792747,-1000.0,-470.703125,-827.63671875,-1000.0,0.0
1734412303.083159,-731.4453125,207.51953125,-607.91015625,-280.76171875,0.0
1734412303.087043,881.8359375,907.71484375,-19.04296875,959.47265625,0.0
1734412303.0909274,290.52734375,786.62109375,409.1796875,-909.66796875,0.0
1734412303.0948114,-1000.0,-82.03125,-236.81640625,451.171875,0.0
1734412303.0986958,-941.40625,-729.98046875,-930.6640625,-1000.0,0.0
1734412303.10258,-1000.0,15.13671875,-669.921875,-299.31640625,0.0
1734412303.1064641,201.66015625,997.55859375,17.08984375,-983.3984375,0.0
1734412303.110613,314.94140625,781.25,344.7265625,978.02734375,0.0
1734412303.1144974,-1000.0,-146.484375,-287.109375,916.50390625,0.0
1734412303.1183817,-987.3046875,-685.546875,-940.4296875,-601.07421875,0.0
1734412303.122266,-981.93359375,-42.96875,-723.6328125,-478.515625,0.0
1734412303.1261504,-973.6328125,858.88671875,-129.39453125,-959.9609375,0.0
1734412303.1300347,-949.21875,750.9765625,154.296875,910.64453125,0.0
1734412303.133919,-1000.0,-127.9296875,-419.921875,-871.58203125,0.0
1734412303.1378033,-1000.0,-665.0390625,-966.30859375,-36.62109375,0.0
1734412303.1416876,-999.0234375,-149.90234375,-829.58984375,-455.078125,0.0
1734412303.145572,-1000.0,690.4296875,-436.5234375,-983.3984375,0.0
1734412303.1494563,-1000.0,926.7578125,142.578125,975.5859375,0.0
1734412303.1533406,-995.1171875,312.98828125,-94.23828125,992.1875,0.0
1734412303.1574824,-948.73046875,-536.62109375,-906.73828125,720.703125,0.0
1734412303.161367,-1000.0,-165.52734375,-817.3828125,593.75,0.0
1734412303.1652513,-161.62109375,816.40625,-112.79296875,-1000.0,0.0
1734412303.1691358,-920.41015625,-975.09765625,413.57421875,972.65625,0.0
1734412303.1730201,-225.09765625,444.3359375,124.0234375,959.47265625,0.0
1734412303.1769044,-1000.0,-405.2734375,-695.80078125,971.19140625,0.0
1734412303.180789,-1000.0,-77.1484375,-667.96875,969.7265625,0.0
1734412303.1846733,-187.5,833.984375,161.62109375,970.21484375,0.0
1734412303.1885579,-805.17578125,900.390625,440.4296875,969.7265625,0.0
1734412303.1924422,378.90625,438.96484375,303.22265625,969.7265625,0.0
1734412303.1963267,-999.51171875,-72.75390625,-120.1171875,970.21484375,0.0
1734412303.200211,-1000.0,-79.58984375,-511.23046875,969.7265625,0.0
1734412303.2043278,214.84375,641.11328125,208.984375,969.7265625,0.0
1734412303.2082124,-953.61328125,-968.26171875,672.36328125,970.21484375,0.0
1734412303.212097,-951.66015625,717.7734375,610.3515625,969.7265625,0.0
1734412303.2159815,-70.3125,-125.9765625,107.421875,969.7265625,0.0
1734412303.2198658,-1000.0,-342.7734375,-413.57421875,970.21484375,0.0
1734412303.2237504,317.87109375,484.86328125,179.19921875,969.7265625,0.0
1734412303.227635,-957.51953125,-956.0546875,665.0390625,969.7265625,0.0
1734412303.2315195,-936.03515625,720.703125,636.23046875,969.7265625,0.0
1734412303.2354038,203.125,-246.09375,16.11328125,969.7265625,0.0
1734412303.2392883,-1000.0,-392.08984375,-444.3359375,969.7265625,0.0
1734412303.243173,143.06640625,517.578125,217.28515625,969.7265625,0.0
1734412303.2470574,-939.453125,-993.1640625,675.29296875,970.21484375,0.0
1734412303.2511501,-947.265625,785.15625,696.2890625,969.7265625,0.0
1734412303.2550347,258.7890625,31.25,348.6328125,969.23828125,0.0
1734412303.2589192,-1000.0,-436.03515625,-240.72265625,970.21484375,0.0
1734412303.2628038,-74.70703125,183.59375,24.4140625,969.7265625,0.0
1734412303.2666883,-972.65625,939.94140625,605.46875,969.7265625,0.0
1734412303.270573,-935.05859375,772.94921875,665.0390625,969.7265625,0.0
1734412303.2744575,395.5078125,30.76171875,390.625,969.7265625,0.0
1734412303.2783422,-1000.0,-627.44140625,-345.21484375,969.7265625,0.0
1734412303.2822268,-216.796875,-103.515625,-238.28125,969.7265625,0.0
1734412303.2861114,-985.83984375,953.61328125,582.03125,969.7265625,0.0
1734412303.289996,-966.796875,920.8984375,708.984375,969.7265625,0.0
1734412303.2938805,701.171875,150.87890625,445.80078125,970.21484375,0.0
1734412303.2979426,-898.4375,-495.1171875,-165.0390625,969.7265625,0.0
1734412303.3018274,-285.15625,-14.6484375,-83.984375,969.7265625,0.0
1734412303.305712,-934.5703125,826.66015625,555.17578125,979.00390625,0.0
1734412303.3095965,942.3828125,922.8515625,713.37890625,913.57421875,0.0
1734412303.3134813,-987.79296875,240.234375,513.671875,-886.23046875,0.0
1734412303.317366,-459.47265625,-560.546875,-165.0390625,478.02734375,0.0
1734412303.3212507,-346.19140625,-246.58203125,-307.6171875,81.0546875,0.0
1734412303.3251352,-908.69140625,645.5078125,312.01171875,995.1171875,0.0
1734412303.3290198,901.85546875,971.19140625,638.18359375,915.0390625,0.0
1734412303.3329046,-876.46484375,474.12109375,625.48828125,-862.3046875,0.0
1734412303.3367891,-158.69140625,-438.96484375,-72.265625,257.32421875,0.0
1734412303.3406737,-431.15234375,-329.1015625,-318.359375,-694.3359375,0.0
1734412303.3447087,-950.1953125,641.11328125,427.734375,747.55859375,0.0
1734412303.3485935,909.66796875,-964.35546875,734.86328125,-998.046875,0.0
1734412303.352478,-859.375,424.31640625,571.77734375,-937.98828125,0.0
1734412303.3563628,49.31640625,-426.26953125,77.1484375,451.171875,0.0
1734412303.3602476,-462.40234375,-358.88671875,-225.09765625,-899.90234375,0.0
1734412303.3641322,-998.53515625,519.04296875,296.875,334.47265625,0.0
1734412303.368017,930.17578125,938.4765625,653.3203125,-909.66796875,0.0
1734412303.3719015,-874.51171875,479.98046875,596.19140625,959.47265625,0.0
1734412303.3757863,256.34765625,-131.34765625,263.671875,877.9296875,0.0
1734412303.3796709,-312.5,-312.98828125,-123.046875,-113.28125,0.0
1734412303.3835557,985.83984375,427.24609375,323.2421875,488.76953125,0.0
1734412303.3874404,-987.79296875,-977.5390625,766.6015625,-883.7890625,0.0
1734412303.3914616,922.8515625,763.18359375,812.98828125,907.71484375,0.0
1734412303.3953464,977.05078125,-95.703125,431.15234375,979.98046875,0.0
1734412303.3992312,955.56640625,-474.12109375,-33.69140625,969.7265625,0.0
1734412303.403116,966.30859375,351.07421875,320.3125,970.21484375,0.0
1734412303.4070005,970.703125,-974.609375,767.08984375,969.7265625,0.0
1734412303.4108853,968.26171875,797.8515625,837.40234375,969.7265625,0.0
1734412303.4147701,969.23828125,-159.1796875,356.4453125,969.7265625,0.0
1734412303.418655,969.23828125,-480.46875,60.05859375,969.7265625,0.0
1734412303.4225397,969.23828125,447.75390625,529.296875,969.7265625,0.0
1734412303.4264243,968.75,-999.0234375,806.15234375,969.7265625,0.0
1734412303.430309,969.23828125,854.98046875,837.40234375,969.7265625,0.0
1734412303.4341938,969.23828125,196.77734375,669.921875,969.7265625,0.0
1734412303.4381952,969.23828125,-393.5546875,369.62890625,969.7265625,0.0
1734412303.44208,969.23828125,121.58203125,483.3984375,969.7265625,0.0
1734412303.4459648,969.23828125,893.06640625,811.03515625,968.75,0.0
1734412303.4498496,969.23828125,927.734375,859.86328125,969.23828125,0.0
1734412303.4537344,969.23828125,289.0625,765.625,970.21484375,0.0
1734412303.4576192,968.75,-500.0,363.76953125,969.7265625,0.0
1734412303.461504,968.75,-74.70703125,374.0234375,969.7265625,0.0
1734412303.4653888,969.23828125,869.62890625,799.8046875,969.7265625,0.0
1734412303.4692736,968.75,-994.62890625,890.13671875,969.7265625,0.0
1734412303.4731584,969.23828125,252.44140625,688.4765625,969.7265625,0.0
1734412303.4770432,969.23828125,-496.09375,417.48046875,969.7265625,0.0
1734412303.480928,969.23828125,-28.3203125,518.06640625,969.23828125,0.0
1734412303.4850905,969.23828125,778.80859375,796.38671875,969.7265625,0.0
1734412303.4889755,969.23828125,987.3046875,867.1875,969.7265625,0.0
1734412303.4928603,969.23828125,451.66015625,834.9609375,969.7265625,0.0
1734412303.496745,968.75,-350.5859375,549.8046875,969.7265625,0.0
1734412303.5006301,969.23828125,-325.68359375,438.96484375,969.7265625,0.0
1734412303.504515,969.23828125,521.97265625,712.890625,969.7265625,0.0
1734412303.5083997,968.75,957.51953125,826.66015625,969.7265625,0.0
1734412303.5122848,969.23828125,380.37109375,824.70703125,969.23828125,0.0
1734412303.5161695,969.23828125,-519.53125,438.96484375,969.7265625,0.0
1734412303.5200546,969.23828125,-729.98046875,23.4375,969.7265625,0.0
1734412303.5239394,983.3984375,237.3046875,479.00390625,969.7265625,0.0
1734412303.5278242,890.13671875,-997.0703125,844.7265625,969.7265625,0.0
1734412303.5319543,-854.98046875,409.66796875,748.046875,969.7265625,0.0
1734412303.535839,474.12109375,-558.59375,342.7734375,969.23828125,0.0
1734412303.539724,-243.65234375,-674.31640625,16.11328125,969.7265625,0.0
1734412303.5436091,894.53125,164.0625,375.48828125,970.21484375,0.0
1734412303.547494,982.91015625,807.12890625,691.40625,969.7265625,0.0
1734412303.551379,-947.265625,329.1015625,652.83203125,969.7265625,0.0
1734412303.555264,258.30078125,-491.2109375,191.89453125,969.7265625,0.0
1734412303.559149,-1000.0,-706.0546875,-350.5859375,969.7265625,0.0
1734412303.5630338,-142.08984375,-178.22265625,-143.5546875,970.703125,0.0
1734412303.5669188,-976.5625,612.3046875,381.8359375,967.7734375,0.0
1734412303.5708039,-928.7109375,687.5,674.31640625,913.0859375,0.0
1734412303.5746887,196.77734375,-258.7890625,217.7734375,-838.8671875,0.0
1734412303.5788074,-1000.0,-826.171875,-546.875,30.76171875,0.0
1734412303.5826924,-219.23828125,-187.5,-295.8984375,-240.234375,0.0
1734412303.5865774,-1000.0,802.24609375,401.85546875,-940.4296875,0.0
1734412303.5904624,-927.734375,714.84375,622.55859375,918.45703125,0.0
1734412303.5943475,188.96484375,-219.7265625,208.0078125,-873.046875,0.0
1734412303.5982325,-1000.0,-775.87890625,-568.84765625,-118.65234375,0.0
1734412303.6021175,-450.68359375,-250.9765625,-480.95703125,-515.13671875,0.0
1734412303.6060026,894.53125,728.02734375,291.50390625,990.234375,0.0
1734412303.6098876,-883.30078125,689.453125,462.890625,941.89453125,0.0
1734412303.6137726,215.33203125,11.71875,231.93359375,-895.99609375,0.0
1734412303.6176577,-1000.0,-482.421875,-328.61328125,-54.6875,0.0
1734412303.6215427,-504.8828125,-230.95703125,-440.91796875,-846.19140625,0.0
1734412303.6256375,851.5625,664.0625,318.84765625,717.7734375,0.0
1734412303.6295226,-886.71875,925.29296875,652.34375,-995.1171875,0.0
1734412303.6334076,526.85546875,253.90625,482.421875,-932.12890625,0.0
1734412303.6372929,-1000.0,-577.1484375,-218.26171875,103.02734375,0.0
1734412303.641178,-644.53125,-420.41015625,-541.015625,-1000.0,0.0
1734412303.645063,828.125,565.4296875,222.65625,319.82421875,0.0
1734412303.6489482,-940.91796875,964.84375,663.57421875,-949.21875,0.0
1734412303.6528332,795.8984375,196.2890625,355.95703125,-942.87109375,0.0
1734412303.6567185,-674.8046875,-639.6484375,-367.67578125,213.8671875,0.0
1734412303.6606035,-880.37109375,-284.1796875,-394.53125,-1000.0,0.0
1734412303.6644886,683.59375,603.515625,325.68359375,62.5,0.0
1734412303.6683738,-986.328125,959.9609375,640.625,-949.70703125,0.0
1734412303.6724355,-968.75,441.89453125,590.33203125,-938.96484375,0.0
1734412303.6763208,-165.0390625,-373.53515625,73.73046875,261.23046875,0.0
1734412303.6802058,-1000.0,-483.88671875,-422.8515625,-1000.0,0.0
1734412303.684091,441.40625,379.39453125,213.8671875,-86.42578125,0.0
1734412303.6879764,-968.75,979.4921875,646.484375,-977.05078125,0.0
1734412303.6918614,-934.08203125,457.51953125,568.359375,-937.5,0.0
1734412303.6957467,132.8125,-393.5546875,62.01171875,477.05078125,0.0
1734412303.6996317,-1000.0,-685.546875,-626.46484375,-1000.0,0.0
1734412303.703517,269.04296875,233.3984375,3.90625,-181.15234375,0.0
1734412303.7074022,-945.80078125,-922.36328125,725.09765625,-948.2421875,0.0
1734412303.7112873,-934.5703125,639.6484375,678.7109375,977.5390625,0.0
1734412303.7151725,214.84375,-242.67578125,244.62890625,874.0234375,0.0
1734412303.719217,-1000.0,-500.0,-270.5078125,-661.1328125,0.0
1734412303.7231023,192.3828125,262.6953125,162.109375,-312.5,0.0
1734412303.7269876,-942.3828125,936.03515625,665.0390625,-908.203125,0.0
1734412303.7308729,-954.1015625,673.33984375,701.171875,905.2734375,0.0
1734412303.7347581,407.71484375,-99.609375,373.53515625,-893.5546875,0.0
1734412303.7386432,-1000.0,-619.140625,-304.6875,-157.2265625,0.0
1734412303.7425284,-110.83984375,-85.9375,-150.87890625,-305.17578125,0.0
1734412303.7464137,-967.28515625,739.74609375,503.41796875,-911.1328125,0.0
1734412303.750299,-944.82421875,851.07421875,744.140625,899.90234375,0.0
1734412303.7541842,510.7421875,71.2890625,464.84375,-861.328125,0.0
1734412303.7580695,-1000.0,-644.53125,-237.79296875,77.1484375,0.0
1734412303.7619545,-238.76953125,-112.79296875,-111.328125,-263.18359375,0.0
1734412303.766333,-979.4921875,880.859375,628.41796875,-936.5234375,0.0
1734412303.7702184,-959.47265625,857.421875,734.86328125,926.7578125,0.0
1734412303.7741039,659.66796875,5.859375,457.51953125,-915.0390625,0.0
1734412303.7779891,-947.265625,-548.828125,-145.99609375,403.3203125,0.0
1734412303.7818747,-277.34375,-125.48828125,-120.1171875,67.87109375,0.0
1734412303.78576,-957.51953125,723.6328125,514.16015625,-978.02734375,0.0
1734412303.7896454,983.3984375,740.72265625,557.12890625,938.96484375,0.0
1734412303.7935307,854.98046875,92.7734375,435.05859375,-939.453125,0.0
1734412303.7974162,-720.703125,-416.50390625,-52.24609375,595.703125,0.0
1734412303.8013017,-582.03125,-307.12890625,-305.17578125,207.03125,0.0
1734412303.805187,943.84765625,558.59375,357.91015625,975.5859375,0.0
1734412303.8090725,-995.1171875,958.984375,689.94140625,935.546875,0.0
1734412303.8130682,910.64453125,344.7265625,614.74609375,-920.8984375,0.0
1734412303.8169537,-505.37109375,-589.35546875,-106.4453125,589.84375,0.0
1734412303.8208392,-936.03515625,-554.19921875,-531.25,-254.39453125,0.0
1734412303.8247244,602.5390625,523.4375,293.9453125,750.9765625,0.0
1734412303.82861,-904.78515625,972.16796875,684.5703125,-996.09375,0.0
1734412303.8324955,827.63671875,228.02734375,475.09765625,-965.8203125,0.0
1734412303.8363807,-450.68359375,-589.84375,-146.484375,600.5859375,0.0
1734412303.8402662,-1000.0,-533.69140625,-504.8828125,-968.26171875,0.0
1734412303.8441517,72.265625,368.65234375,195.3125,-16.6015625,0.0
1734412303.8480372,-867.1875,781.73828125,509.765625,-928.22265625,0.0
1734412303.8519225,794.921875,281.25,480.46875,-957.03125,0.0
1734412303.855808,-488.76953125,-395.99609375,-1.953125,431.15234375,0.0
1734412303.8601398,-1000.0,-618.1640625,-630.859375,-1000.0,0.0
1734412303.8640254,-214.35546875,-31.25,-317.87109375,-232.91015625,0.0
1734412303.867911,-896.484375,727.05078125,292.48046875,-982.421875,0.0
1734412303.8717966,722.65625,631.34765625,619.62890625,-933.59375,0.0
1734412303.875682,-631.34765625,-388.18359375,-65.91796875,293.9453125,0.0
1734412303.8795679,-1000.0,-827.1484375,-838.8671875,-1000.0,0.0
1734412303.8834534,-443.84765625,-50.29296875,-429.6875,-585.9375,0.0
1734412303.8873389,-986.328125,833.984375,296.875,806.640625,0.0
1734412303.8912246,739.2578125,579.58984375,492.1875,-851.07421875,0.0
1734412303.8951101,-700.68359375,-378.90625,-188.96484375,162.109375,0.0
1734412303.8989956,-1000.0,-713.37890625,-833.49609375,-1000.0,0.0
1734412303.9028814,-899.4140625,-12.20703125,-472.16796875,-1000.0,0.0
1734412303.9070091,566.89453125,750.0,195.80078125,57.6171875,0.0
1734412303.9108946,770.01953125,631.8359375,513.671875,-774.4140625,0.0
1734412303.9147804,-836.42578125,-147.4609375,-21.484375,127.44140625,0.0
1734412303.9186661,-998.046875,-702.1484375,-781.73828125,-1000.0,0.0
1734412303.9225516,-1000.0,-294.43359375,-726.07421875,-1000.0,0.0
1734412303.9264374,9.27734375,589.84375,-109.375,-245.1171875,0.0
1734412303.9303231,704.1015625,760.25390625,438.96484375,-825.1953125,0.0
1734412303.9342086,-874.0234375,0.9765625,20.01953125,150.390625,0.0
1734412303.9380944,-1000.0,-817.3828125,-829.58984375,-1000.0,0.0
1734412303.9419801,-1000.0,-418.9453125,-767.578125,-1000.0,0.0
1734412303.9458659,-131.34765625,670.41015625,-49.8046875,-423.828125,0.0
1734412303.9497514,693.84765625,843.75,433.10546875,-895.99609375,0.0
1734412303.953861,-844.7265625,-117.1875,-119.140625,188.4765625,0.0
1734412303.9577467,-1000.0,-853.515625,-952.63671875,-1000.0,0.0
1734412303.9616325,-1000.0,-335.9375,-812.98828125,-1000.0,0.0
1734412303.9655182,-359.86328125,545.41015625,-200.68359375,-834.47265625,0.0
1734412303.969404,666.9921875,830.56640625,354.98046875,737.3046875,0.0
1734412303.9732897,-743.1640625,93.75,-26.3671875,280.76171875,0.0
1734412303.9771755,-1000.0,-745.60546875,-863.28125,-1000.0,0.0
1734412303.9810612,-1000.0,-587.890625,-916.015625,-957.51953125,0.0
1734412303.984947,-803.22265625,268.5546875,-555.6640625,-1000.0,0.0
1734412303.9888327,414.0625,881.34765625,118.1640625,311.5234375,0.0
1734412303.9927185,-484.86328125,423.828125,189.453125,337.40234375,0.0
1734412303.9966042,-1000.0,-587.890625,-655.2734375,-1000.0,0.0
1734412304.0006826,-963.8671875,-672.36328125,-961.9140625,-935.05859375,0.0
1734412304.0045683,-1000.0,349.12109375,-437.01171875,-1000.0,0.0
1734412304.0084543,417.48046875,993.1640625,248.046875,69.82421875,0.0
1734412304.01234,-83.984375,390.625,150.390625,488.28125,0.0
1734412304.0162258,-1000.0,-515.625,-651.85546875,-1000.0,0.0
1734412304.0201118,-916.50390625,-677.24609375,-991.69921875,-963.8671875,0.0
1734412304.0239975,-1000.0,160.64453125,-585.44921875,-1000.0,0.0
1734412304.0278833,177.24609375,806.15234375,-61.03515625,-75.68359375,0.0
1734412304.031769,82.03125,411.1328125,83.984375,796.38671875,0.0
1734412304.035655,-1000.0,-235.83984375,-366.69921875,-740.72265625,0.0
1734412304.0395408,-909.66796875,-584.9609375,-944.3359375,-1000.0,0.0
1734412304.0434265,-1000.0,41.9921875,-631.8359375,-1000.0,0.0
1734412304.047492,26.85546875,908.203125,124.0234375,-213.8671875,0.0
1734412304.0513778,266.6015625,715.33203125,412.59765625,-906.73828125,0.0
1734412304.0552638,-1000.0,-250.0,-266.11328125,-241.2109375,0.0
1734412304.0591495,-955.56640625,-747.0703125,-958.0078125,-1000.0,0.0
1734412304.0630355,-1000.0,-61.5234375,-671.875,-1000.0,0.0
1734412304.0669215,0.9765625,792.48046875,-51.26953125,-174.31640625,0.0
1734412304.0708072,249.0234375,674.8046875,285.15625,-833.0078125,0.0
1734412304.0746932,-1000.0,-321.77734375,-315.91796875,122.0703125,0.0
1734412304.078579,-1000.0,-775.87890625,-979.98046875,-1000.0,0.0
1734412304.082465,-966.30859375,-111.81640625,-752.9296875,-1000.0,0.0
1734412304.0863507,-1000.0,637.20703125,-229.4921875,-253.90625,0.0
1734412304.0902367,-1000.0,611.81640625,151.85546875,-824.70703125,0.0
1734412304.094278,-1000.0,-168.9453125,-302.24609375,168.9453125,0.0
1734412304.098164,-1000.0,-823.73046875,-957.03125,-1000.0,0.0
1734412304.10205,-1000.0,-584.9609375,-1000.0,-1000.0,0.0
1734412304.1059358,-1000.0,375.9765625,-638.18359375,-303.7109375,0.0
1734412304.1098218,-1000.0,661.1328125,-280.76171875,-842.7734375,0.0
1734412304.1137078,-1000.0,-194.3359375,-676.26953125,217.28515625,0.0
1734412304.1175938,-1000.0,-970.21484375,-1000.0,-1000.0,0.0
1734412304.1214795,-1000.0,-701.66015625,-988.28125,-1000.0,0.0
1734412304.1253655,-1000.0,464.35546875,-730.95703125,-459.47265625,0.0
1734412304.1292515,-1000.0,818.84765625,-395.99609375,-916.9921875,0.0
1734412304.1331375,-1000.0,9.765625,-656.25,366.69921875,0.0
1734412304.1370232,-1000.0,-716.30859375,-995.1171875,-975.5859375,0.0
1734412304.14104,-1000.0,-572.75390625,-992.1875,-1000.0,0.0
1734412304.1449258,-1000.0,314.94140625,-818.359375,-653.80859375,0.0
1734412304.1488118,-1000.0,791.9921875,-485.83984375,905.2734375,0.0
1734412304.1526978,-1000.0,291.9921875,-563.96484375,615.72265625,0.0
1734412304.1565838,-1000.0,-515.625,-937.98828125,-851.5625,0.0
1734412304.1604698,-1000.0,-622.55859375,-998.53515625,-1000.0,0.0
1734412304.1643558,-1000.0,122.55859375,-942.3828125,-721.19140625,0.0
1734412304.1682417,-1000.0,868.1640625,-522.94921875,707.03125,0.0
1734412304.1721277,-1000.0,645.99609375,-358.3984375,965.8203125,0.0
1734412304.1760137,-1000.0,-342.7734375,-844.7265625,-468.75,0.0
1734412304.1798997,-1000.0,-547.8515625,-1000.0,-1000.0,0.0
1734412304.1837857,-1000.0,351.5625,-769.04296875,-860.3515625,0.0
1734412304.1877837,-1000.0,-958.0078125,-110.3515625,412.109375,0.0
1734412304.1916697,-1000.0,613.76953125,-66.40625,-821.2890625,0.0
1734412304.1955557,-1000.0,-253.41796875,-761.71875,-104.4921875,0.0
1734412304.1994417,-1000.0,-465.33203125,-996.09375,-1000.0,0.0
1734412304.203328,-1000.0,249.51171875,-701.66015625,-1000.0,0.0
1734412304.2072139,-977.5390625,895.5078125,-211.9140625,145.99609375,0.0
1734412304.2110999,-981.93359375,644.53125,22.94921875,-774.90234375,0.0
1734412304.2149858,-1000.0,-29.78515625,-407.2265625,48.828125,0.0
1734412304.2188718,-930.6640625,-510.25390625,-976.07421875,-1000.0,0.0
1734412304.2227578,-1000.0,-42.96875,-801.26953125,-1000.0,0.0
1734412304.2266438,-340.8203125,835.9375,-125.0,-130.859375,0.0
1734412304.2305298,86.42578125,827.63671875,307.12890625,-859.375,0.0
1734412304.2346795,-1000.0,-44.43359375,-278.80859375,41.50390625,0.0
1734412304.2385657,-947.75390625,-583.49609375,-954.58984375,-1000.0,0.0
1734412304.2424517,-1000.0,4.8828125,-749.51171875,-1000.0,0.0
1734412304.246338,-101.07421875,908.203125,22.4609375,-194.82421875,0.0
1734412304.2502239,586.9140625,795.41015625,342.28515625,-969.7265625,0.0
1734412304.2541099,-933.59375,-44.921875,-279.78515625,-80.078125,0.0
1734412304.257996,-1000.0,-529.78515625,-867.67578125,-1000.0,0.0
1734412304.261882,-1000.0,-85.44921875,-717.28515625,-1000.0,0.0
1734412304.2657683,-232.421875,793.9453125,55.17578125,-272.4609375,0.0
1734412304.2696543,-815.91796875,884.27734375,434.08203125,-834.47265625,0.0
1734412304.2735405,92.7734375,353.02734375,213.8671875,396.97265625,0.0
1734412304.2774265,-1000.0,-294.921875,-453.61328125,-939.453125,0.0
1734412304.2815537,-1000.0,-186.5234375,-704.58984375,-1000.0,0.0
1734412304.2854397,-69.3359375,635.7421875,11.71875,-240.234375,0.0
1734412304.289326,-783.69140625,999.51171875,598.6328125,-900.390625,0.0
1734412304.2932122,190.91796875,436.03515625,417.48046875,721.6796875,0.0
1734412304.2970984,-1000.0,-471.19140625,-407.2265625,-633.30078125,0.0
1734412304.3009844,-1000.0,-426.26953125,-764.6484375,-1000.0,0.0
1734412304.3048706,-101.07421875,543.45703125,43.9453125,-257.32421875,0.0
1734412304.3087568,-800.78125,-949.70703125,654.78515625,994.62890625,0.0
1734412304.312643,441.40625,365.72265625,300.29296875,989.74609375,0.0
1734412304.3165293,-902.83203125,-475.5859375,-453.125,-209.9609375,0.0
1734412304.3204153,-1000.0,-301.7578125,-605.95703125,-1000.0,0.0
1734412304.3243015,-156.73828125,475.5859375,59.5703125,-434.08203125,0.0
1734412304.3284023,-924.31640625,-995.60546875,575.1953125,896.484375,0.0
1734412304.3322885,861.328125,594.23828125,546.875,-920.41015625,0.0
1734412304.3361747,-443.84765625,-230.95703125,-18.06640625,-79.58984375,0.0
1734412304.340061,-1000.0,-492.1875,-666.9921875,-1000.0,0.0
1734412304.3439472,-172.8515625,236.328125,-113.28125,-738.76953125,0.0
1734412304.3478334,-999.51171875,980.95703125,542.48046875,598.14453125,0.0
1734412304.3517196,-952.1484375,639.6484375,563.96484375,-828.61328125,0.0
1734412304.3556058,-83.0078125,-229.4921875,-7.8125,11.71875,0.0
1734412304.359492,-1000.0,-670.8984375,-777.83203125,-1000.0,0.0
1734412304.3633785,-169.43359375,159.66796875,-195.80078125,-976.5625,0.0
1734412304.3672647,988.28125,-964.84375,573.2421875,242.67578125,0.0
1734412304.371151,-916.015625,646.97265625,582.03125,-775.87890625,0.0
1734412304.3752291,164.0625,-142.578125,179.19921875,85.9375,0.0
1734412304.3791153,-1000.0,-512.6953125,-493.1640625,-1000.0,0.0
1734412304.3830018,-205.078125,55.17578125,-163.0859375,-1000.0,0.0
1734412304.386888,996.58203125,854.00390625,525.390625,-40.52734375,0.0
1734412304.3907743,-919.43359375,721.19140625,638.18359375,-781.73828125,0.0
1734412304.3946607,230.46875,-92.7734375,239.74609375,150.390625,0.0
1734412304.398547,-1000.0,-588.37890625,-492.1875,-1000.0,0.0
1734412304.4024332,-324.21875,-195.80078125,-455.56640625,-1000.0,0.0
1734412304.4063196,947.265625,632.8125,278.80859375,-166.9921875,0.0
1734412304.4102058,-907.71484375,901.3671875,721.19140625,-807.12890625,0.0
1734412304.414092,416.50390625,120.1171875,396.97265625,296.38671875,0.0
1734412304.4179785,-1000.0,-601.07421875,-362.3046875,-977.5390625,0.0
1734412304.4220457,-462.890625,-187.98828125,-240.72265625,-1000.0,0.0
1734412304.425932,916.015625,738.28125,531.25,-230.95703125,0.0
1734412304.4298184,-937.01171875,882.32421875,687.98828125,-852.5390625,0.0
1734412304.4337046,689.453125,142.08984375,520.5078125,546.875,0.0
1734412304.437591,-828.125,-522.4609375,-121.58203125,-824.70703125,0.0
1734412304.4414773,-702.1484375,-372.55859375,-456.54296875,-1000.0,0.0
1734412304.4453638,777.34375,541.50390625,306.640625,-211.9140625,0.0
1734412304.4492502,-931.640625,777.83203125,565.91796875,-924.31640625,0.0
1734412304.4531364,801.7578125,217.7734375,471.6796875,813.4765625,0.0
1734412304.457023,-551.7578125,-364.2578125,-21.484375,-508.7890625,0.0
1734412304.4609091,-1000.0,-482.91015625,-505.859375,-1000.0,0.0
1734412304.4647956,269.53125,366.2109375,200.68359375,-250.0,0.0
1734412304.468831,-842.7734375,952.63671875,673.828125,-986.328125,0.0
1734412304.4727175,713.37890625,321.2890625,554.6875,952.1484375,0.0
1734412304.476604,-578.125,-609.375,-178.22265625,-278.80859375,0.0
1734412304.4804904,-1000.0,-629.39453125,-697.265625,-1000.0,0.0
1734412304.484377,-193.84765625,281.25,50.78125,-529.78515625,0.0
1734412304.4882631,-842.28515625,821.2890625,587.40234375,852.05078125,0.0
1734412304.4921496,505.859375,229.00390625,382.32421875,-950.1953125,0.0
1734412304.496036,-860.3515625,-587.890625,-324.70703125,-246.09375,0.0
1734412304.4999225,-1000.0,-575.68359375,-727.05078125,-1000.0,0.0
1734412304.5038087,-345.21484375,151.85546875,-128.41796875,-912.59765625,0.0
1734412304.5076952,-888.18359375,741.69921875,430.17578125,388.18359375,0.0
1734412304.5115817,496.58203125,432.12890625,477.05078125,-863.76953125,0.0
1734412304.515598,-889.6484375,-355.46875,-59.5703125,-271.97265625,0.0
1734412304.5194845,-1000.0,-719.23828125,-807.6171875,-1000.0,0.0
1734412304.523371,-655.76171875,-78.61328125,-484.86328125,-1000.0,0.0
1734412304.5272574,854.98046875,805.6640625,306.640625,-56.640625,0.0
1734412304.531144,809.08203125,628.90625,555.6640625,-824.21875,0.0
1734412304.5350304,-669.921875,-297.8515625,-85.44921875,-127.44140625,0.0
1734412304.5389168,-1000.0,-778.80859375,-859.86328125,-1000.0,0.0
1734412304.5428033,-788.0859375,-140.625,-576.171875,-1000.0,0.0
1734412304.5466897,534.1796875,829.58984375,255.859375,-230.46875,0.0
1734412304.5505762,-851.5625,771.97265625,558.10546875,-820.80078125,0.0
1734412304.5544624,-128.90625,-78.125,-1.953125,88.8671875,0.0
1734412304.558349,-1000.0,-540.52734375,-666.9921875,-1000.0,0.0
1734412304.5623455,-643.5546875,-83.49609375,-451.66015625,-1000.0,0.0
1734412304.5662322,686.03515625,735.83984375,294.43359375,-260.7421875,0.0
1734412304.5701187,-832.03125,821.2890625,622.55859375,-825.68359375,0.0
1734412304.5740051,215.8203125,158.69140625,359.86328125,167.48046875,0.0
1734412304.5778916,-1000.0,-467.28515625,-330.078125,-1000.0,0.0
1734412304.581778,-516.11328125,-286.1328125,-570.3125,-1000.0,0.0
1734412304.5856645,928.22265625,562.5,194.3359375,-264.6484375,0.0
1734412304.589551,941.89453125,986.81640625,791.015625,-831.54296875,0.0
1734412304.5934374,-885.25390625,390.13671875,624.51171875,374.51171875,0.0
1734412304.597324,25.87890625,-371.09375,1.46484375,-948.2421875,0.0
1734412304.6012104,-294.43359375,-167.96875,-100.5859375,-1000.0,0.0
1734412304.6050968,-963.8671875,698.2421875,557.12890625,-288.0859375,0.0
1734412304.6092417,945.80078125,900.390625,742.67578125,-866.69921875,0.0
1734412304.6131282,-936.03515625,190.4296875,603.515625,508.30078125,0.0
1734412304.617015,-273.92578125,-519.04296875,-44.921875,-854.98046875,0.0
1734412304.6209013,-904.296875,-426.26953125,-427.734375,-1000.0,0.0
1734412304.6247878,675.78125,420.8984375,279.78515625,-440.91796875,0.0
1734412304.6286745,-941.40625,805.6640625,631.34765625,-995.60546875,0.0
1734412304.632561,936.5234375,246.58203125,495.60546875,766.11328125,0.0
1734412304.6364477,-236.81640625,-503.90625,-110.3515625,-633.7890625,0.0
1734412304.6403341,-1000.0,-590.8203125,-622.0703125,-1000.0,0.0
1734412304.6442208,-35.15625,157.2265625,-91.30859375,-697.265625,0.0
1734412304.6481073,-928.22265625,905.2734375,537.59765625,726.5625,0.0
1734412304.651994,958.49609375,472.16796875,586.42578125,979.98046875,0.0
1734412304.6561139,-247.0703125,-496.09375,-131.8359375,-460.9375,0.0
1734412304.6600006,-1000.0,-678.7109375,-780.2734375,-1000.0,0.0
1734412304.6638873,-207.03125,134.765625,-135.7421875,-966.30859375,0.0
1734412304.6677737,-917.48046875,859.375,515.625,274.90234375,0.0
1734412304.6716604,821.77734375,443.359375,475.09765625,-858.3984375,0.0
1734412304.6755471,-488.28125,-487.79296875,-186.03515625,-285.64453125,0.0
1734412304.6794338,-1000.0,-741.69921875,-843.26171875,-1000.0,0.0
1734412304.6833203,-531.25,15.625,-390.13671875,-1000.0,0.0
1734412304.687207,926.26953125,630.859375,152.34375,-91.30859375,0.0
1734412304.6910937,889.16015625,396.97265625,315.4296875,-835.44921875,0.0
1734412304.6949804,-563.4765625,-160.64453125,-54.19921875,-145.01953125,0.0
1734412304.6988668,-1000.0,-651.85546875,-854.00390625,-1000.0,0.0
1734412304.7029645,-1000.0,-224.609375,-680.6640625,-1000.0,0.0
1734412304.7068512,271.484375,691.89453125,136.23046875,-250.9765625,0.0
1734412304.710738,834.47265625,651.3671875,446.77734375,-830.56640625,0.0
1734412304.7146246,-790.52734375,-217.28515625,-166.9921875,54.19921875,0.0
1734412304.7185113,-1000.0,-739.74609375,-903.80859375,-1000.0,0.0
1734412304.722398,-1000.0,-333.984375,-827.63671875,-1000.0,0.0
1734412304.7262847,-116.69921875,567.87109375,-155.76171875,-278.80859375,0.0
1734412304.7301714,695.80078125,709.47265625,300.29296875,-831.54296875,0.0
1734412304.7340581,-838.8671875,-126.46484375,-240.234375,146.97265625,0.0
1734412304.7379448,-1000.0,-669.43359375,-927.734375,-1000.0,0.0
1734412304.7418315,-1000.0,-263.18359375,-818.359375,-1000.0,0.0
1734412304.7457182,-191.89453125,535.15625,-216.796875,-442.3828125,0.0
1734412304.749809,751.46484375,754.8828125,297.36328125,-904.78515625,0.0
1734412304.753696,-760.25390625,148.4375,-41.9921875,189.453125,0.0
1734412304.7575827,-1000.0,-570.3125,-805.17578125,-1000.0,0.0
1734412304.7614694,-1000.0,-516.11328125,-970.703125,-1000.0,0.0
1734412304.7653563,-698.73046875,331.54296875,-484.375,-690.4296875,0.0
1734412304.769243,302.734375,722.16796875,184.5703125,942.3828125,0.0
1734412304.7731297,-674.31640625,178.7109375,-106.4453125,290.0390625,0.0
1734412304.7770164,-1000.0,-689.453125,-872.55859375,-1000.0,0.0
1734412304.7809033,-929.19921875,-714.84375,-989.2578125,-979.98046875,0.0
1734412304.78479,-1000.0,359.375,-604.00390625,-1000.0,0.0
1734412304.7886767,-1000.0,793.9453125,-75.1953125,449.21875,0.0
1734412304.7925637,-1000.0,143.06640625,-285.64453125,396.97265625,0.0
1734412304.7966328,-1000.0,-613.76953125,-885.25390625,-1000.0,0.0
1734412304.8005197,-1000.0,-721.6796875,-1000.0,-934.5703125,0.0
1734412304.8044064,-1000.0,-0.9765625,-848.6328125,-1000.0,0.0
1734412304.8082933,-1000.0,623.53515625,-479.98046875,-4.8828125,0.0
1734412304.81218,-1000.0,293.45703125,-459.47265625,371.09375,0.0
1734412304.816067,-1000.0,-560.05859375,-890.13671875,-1000.0,0.0
1734412304.8199537,-1000.0,-793.45703125,-1000.0,-946.77734375,0.0
1734412304.8238406,-1000.0,-178.7109375,-949.70703125,-1000.0,0.0
1734412304.8277273,-1000.0,662.109375,-579.58984375,-103.02734375,0.0
1734412304.8316143,-1000.0,584.47265625,-378.41796875,627.44140625,0.0
1734412304.835501,-1000.0,-285.64453125,-740.234375,-875.48828125,0.0
1734412304.839388,-1000.0,-644.04296875,-1000.0,-1000.0,0.0
1734412304.843438,-1000.0,41.50390625,-851.07421875,-1000.0,0.0
1734412304.8473246,-1000.0,881.8359375,-226.5625,-241.2109375,0.0
1734412304.8512115,-1000.0,685.05859375,72.265625,-885.25390625,0.0
1734412304.8550985,-1000.0,-128.41796875,-493.65234375,-195.80078125,0.0
1734412304.8589854,-930.17578125,-532.71484375,-976.5625,-1000.0,0.0
1734412304.8628721,-1000.0,-85.44921875,-795.8984375,-1000.0,0.0
1734412304.866759,-92.7734375,667.96875,-261.71875,-247.0703125,0.0
1734412304.870646,380.859375,708.984375,212.40234375,-818.359375,0.0
1734412304.874533,-1000.0,162.109375,-63.96484375,118.1640625,0.0
1734412304.8784196,-968.75,-436.5234375,-839.35546875,-1000.0,0.0
1734412304.8823066,-1000.0,-174.31640625,-753.41796875,-1000.0,0.0
1734412304.8861935,-236.81640625,718.75,28.3203125,-260.25390625,0.0
1734412304.8902225,-852.5390625,866.2109375,465.8203125,-825.68359375,0.0
1734412304.8941095,-112.3046875,161.62109375,114.74609375,198.73046875,0.0
1734412304.8979964,-1000.0,-513.18359375,-659.66796875,-1000.0,0.0
1734412304.9018831,-1000.0,-248.046875,-693.359375,-1000.0,0.0
1734412304.90577,-202.1484375,633.30078125,60.05859375,-262.6953125,0.0
1734412304.909657,-804.6875,866.2109375,538.57421875,-834.47265625,0.0
1734412304.913544,163.0859375,75.68359375,64.94140625,401.3671875,0.0
1734412304.9174309,-1000.0,-565.4296875,-741.69921875,-931.15234375,0.0
1734412304.9213178,-1000.0,-250.48828125,-672.8515625,-1000.0,0.0
1734412304.9252048,-221.19140625,494.62890625,4.39453125,-329.58984375,0.0
1734412304.9290917,-816.89453125,875.48828125,473.14453125,-886.71875,0.0
1734412304.9329786,247.0703125,365.72265625,413.57421875,532.71484375,0.0
1734412304.9369876,-1000.0,-412.109375,-265.13671875,-844.23828125,0.0
1734412304.9408746,-1000.0,-541.015625,-822.265625,-1000.0,0.0
1734412304.9447615,-256.34765625,274.90234375,-164.0625,-571.77734375,0.0
1734412304.9486485,-840.8203125,875.9765625,507.32421875,934.5703125,0.0
1734412304.9525354,479.98046875,412.109375,457.51953125,734.86328125,0.0
1734412304.9564223,-896.484375,-507.32421875,-315.91796875,-724.12109375,0.0
1734412304.9603093,-1000.0,-696.2890625,-911.1328125,-1000.0,0.0
1734412304.9641964,-225.5859375,277.83203125,-141.11328125,-813.96484375,0.0
1734412304.9680834,-910.64453125,920.41015625,526.3671875,593.75,0.0
1734412304.9719703,765.625,430.17578125,419.921875,975.09765625,0.0
1734412304.9758573,-591.796875,-381.8359375,-193.84765625,-516.6015625,0.0
1734412304.9797442,-1000.0,-572.265625,-765.13671875,-1000.0,0.0
1734412304.9838912,-222.65625,49.31640625,-267.08984375,-1000.0,0.0
1734412304.9877784,-990.72265625,726.07421875,412.59765625,172.36328125,0.0
1734412304.9916654,985.3515625,530.2734375,551.26953125,-865.72265625,0.0
1734412304.9955523,-227.5390625,-272.94921875,-8.30078125,-296.38671875,0.0
1734412304.9994395,-1000.0,-684.5703125,-797.36328125,-1000.0,0.0
1734412305.0033264,-409.1796875,-129.39453125,-548.828125,-1000.0,0.0
1734412305.0072136,901.85546875,753.41796875,205.56640625,-97.16796875,0.0
1734412305.0111005,-912.109375,739.74609375,543.45703125,-802.24609375,0.0
1734412305.0149877,-29.78515625,-96.19140625,-25.390625,-1.953125,0.0
1734412305.0188746,-1000.0,-634.27734375,-820.80078125,-1000.0,0.0
1734412305.0227618,-606.93359375,43.45703125,-537.109375,-1000.0,0.0
1734412305.0266488,749.51171875,926.26953125,247.55859375,-224.609375,0.0
1734412305.0307674,-844.23828125,833.49609375,547.36328125,-818.359375,0.0
1734412305.0346546,104.00390625,167.48046875,89.84375,125.48828125,0.0
1734412305.0385416,-1000.0,-352.05078125,-687.01171875,-1000.0,0.0
1734412305.0424287,-958.0078125,12.6953125,-645.99609375,-1000.0,0.0
1734412305.046316,306.15234375,812.01171875,62.01171875,-258.30078125,0.0
1734412305.050203,-772.4609375,945.3125,434.5703125,-826.171875,0.0
1734412305.05409,123.53515625,359.375,94.7265625,168.45703125,0.0
1734412305.0579772,-1000.0,-276.85546875,-625.0,-1000.0,0.0
1734412305.0618644,-1000.0,-202.1484375,-897.4609375,-1000.0,0.0
1734412305.0657513,-116.69921875,533.203125,-283.69140625,-327.1484375,0.0
1734412305.0696385,-794.43359375,-965.8203125,460.9375,-852.05078125,0.0
1734412305.0735257,152.83203125,570.80078125,180.17578125,201.171875,0.0
1734412305.0776331,-1000.0,-297.8515625,-654.296875,-1000.0,0.0
1734412305.0815203,-1000.0,-180.6640625,-873.53515625,-1000.0,0.0
1734412305.0854075,-255.37109375,683.59375,-203.125,-554.6875,0.0
1734412305.0892947,-827.63671875,-992.67578125,385.25390625,-971.6796875,0.0
1734412305.0931818,165.52734375,551.7578125,160.64453125,314.94140625,0.0
1734412305.097069,-1000.0,-267.08984375,-642.578125,-1000.0,0.0
1734412305.1009562,-1000.0,-350.5859375,-962.890625,-1000.0,0.0
1734412305.1048434,-373.046875,503.90625,-498.046875,-825.1953125,0.0
1734412305.1087306,-870.60546875,983.88671875,7.32421875,746.09375,0.0
1734412305.1126177,195.80078125,717.7734375,91.796875,509.765625,0.0
1734412305.116505,-1000.0,-21.97265625,-500.0,-999.51171875,0.0
1734412305.120392,-1000.0,-409.1796875,-1000.0,-1000.0,0.0
1734412305.1244767,-773.92578125,318.84765625,-646.97265625,-1000.0,0.0
1734412305.1283638,828.125,-978.515625,48.828125,385.25390625,0.0
1734412305.132251,270.5078125,777.34375,214.84375,707.51953125,0.0
1734412305.1361384,-1000.0,-159.1796875,-500.48828125,-892.578125,0.0
1734412305.1400256,-918.45703125,-573.73046875,-1000.0,-1000.0,0.0
1734412305.1439128,-1000.0,148.92578125,-814.94140625,-1000.0,0.0
1734412305.1478,44.921875,944.3359375,-70.3125,103.515625,0.0
1734412305.1516874,290.0390625,685.546875,84.9609375,988.28125,0.0
1734412305.1555746,-1000.0,-221.19140625,-725.09765625,-538.0859375,0.0
1734412305.1594617,-933.10546875,-484.86328125,-999.0234375,-1000.0,0.0
1734412305.163349,-1000.0,66.89453125,-819.3359375,-1000.0,0.0
1734412305.1672363,-188.96484375,836.42578125,-381.8359375,-38.0859375,0.0
1734412305.1713004,220.703125,849.12109375,91.796875,-805.6640625,0.0
1734412305.1751876,-1000.0,81.54296875,-344.7265625,-28.3203125,0.0
1734412305.179075,-979.4921875,-598.14453125,-1000.0,-1000.0,0.0
1734412305.1829622,-1000.0,-240.234375,-903.80859375,-974.609375,0.0
1734412305.1868496,-787.109375,709.9609375,-464.84375,197.265625,0.0
1734412305.1907368,-437.5,861.81640625,-87.40234375,-779.78515625,0.0
1734412305.1946242,-979.4921875,92.28515625,-442.87109375,301.7578125,0.0
1734412305.1985114,-1000.0,-648.92578125,-997.55859375,-1000.0,0.0
1734412305.2023988,-972.65625,-264.16015625,-928.22265625,-801.26953125,0.0
1734412305.206286,-1000.0,714.84375,-492.67578125,607.91015625,0.0
1734412305.2101734,-1000.0,893.5546875,-25.87890625,-954.1015625,0.0
1734412305.2140605,-1000.0,187.5,-387.20703125,975.5859375,0.0
1734412305.2181063,-1000.0,-476.5625,-961.9140625,-417.48046875,0.0
1734412305.2219937,-1000.0,-334.47265625,-924.31640625,-747.0703125,0.0
1734412305.225881,-1000.0,468.26171875,-671.875,879.39453125,0.0
1734412305.2297683,-1000.0,965.33203125,-97.65625,955.078125,0.0
1734412305.2336557,-1000.0,482.421875,-151.85546875,-881.34765625,0.0
1734412305.237543,-1000.0,-438.96484375,-892.578125,115.234375,0.0
1734412305.2414305,-1000.0,-579.1015625,-1000.0,-371.58203125,0.0
1734412305.2453177,-1000.0,249.51171875,-796.38671875,-981.4453125,0.0
1734412305.249205,-1000.0,-978.02734375,-61.03515625,968.26171875,0.0
1734412305.2530925,-1000.0,680.17578125,35.64453125,999.51171875,0.0
1734412305.2569797,-1000.0,-245.1171875,-732.91015625,787.109375,0.0
1734412305.260867,-1000.0,-415.52734375,-993.65234375,493.65234375,0.0
1734412305.2648928,-1000.0,391.6015625,-656.73828125,952.63671875,0.0
1734412305.2687802,-1000.0,999.51171875,-17.578125,998.53515625,0.0
1734412305.2726676,-1000.0,670.41015625,46.875,947.265625,0.0
1734412305.276555,-1000.0,-109.86328125,-634.27734375,973.6328125,0.0
1734412305.2804422,-1000.0,-425.78125,-989.74609375,966.796875,0.0
1734412305.2843297,-1000.0,184.5703125,-692.3828125,969.23828125,0.0
1734412305.288217,-1000.0,803.7109375,-381.34765625,970.21484375,0.0
1734412305.2921045,-1000.0,783.203125,-30.76171875,969.23828125,0.0
1734412305.295992,-1000.0,226.5625,-237.79296875,969.23828125,0.0
1734412305.2998793,-923.828125,-320.80078125,-922.36328125,969.7265625,0.0
1734412305.3037667,-1000.0,178.7109375,-678.7109375,969.7265625,0.0
1734412305.3076541,-119.62890625,920.8984375,33.69140625,969.7265625,0.0
1734412305.3116546,748.046875,943.359375,506.34765625,970.21484375,0.0
1734412305.315542,-770.99609375,256.8359375,-101.5625,969.7265625,0.0
1734412305.3194294,-1000.0,-332.03125,-895.99609375,969.7265625,0.0
1734412305.3233168,-1000.0,166.015625,-574.21875,970.21484375,0.0
1734412305.3272042,-154.296875,905.76171875,181.15234375,970.21484375,0.0
1734412305.3310916,-854.98046875,852.5390625,432.6171875,969.7265625,0.0
1734412305.334979,-203.61328125,198.73046875,-115.72265625,969.7265625,0.0
1734412305.3388665,-1000.0,-220.703125,-710.44921875,969.7265625,0.0
1734412305.342754,-1000.0,31.73828125,-594.23828125,969.7265625,0.0
1734412305.3466413,-264.6484375,709.9609375,20.5078125,971.6796875,0.0
1734412305.3505287,-829.1015625,986.328125,488.28125,911.1328125,0.0
1734412305.3544161,66.89453125,478.02734375,221.6796875,-842.28515625,0.0
1734412305.3585603,-1000.0,-275.390625,-574.70703125,122.55859375,0.0
1734412305.3624477,-1000.0,-229.98046875,-772.94921875,-141.6015625,0.0
1734412305.3663352,-263.18359375,562.01171875,-73.2421875,-923.828125,0.0
1734412305.3702228,-825.1953125,-969.23828125,544.921875,904.296875,0.0
1734412305.3741102,166.015625,552.24609375,279.78515625,-854.98046875,0.0
1734412305.3779976,-1000.0,-309.5703125,-559.08203125,80.078125,0.0
1734412305.3818853,-1000.0,-323.2421875,-804.6875,-276.85546875,0.0
1734412305.3857727,-363.76953125,518.5546875,-101.5625,-940.91796875,0.0
1734412305.3896601,-868.1640625,995.60546875,465.33203125,911.1328125,0.0
1734412305.3935478,179.19921875,530.2734375,255.859375,-859.86328125,0.0
1734412305.3974352,-1000.0,-100.09765625,-398.4375,135.25390625,0.0
1734412305.4013226,-1000.0,-186.03515625,-736.81640625,-322.265625,0.0
1734412305.4054465,-496.09375,450.1953125,-168.9453125,-966.30859375,0.0
1734412305.4093342,-951.171875,-995.1171875,445.80078125,921.38671875,0.0
1734412305.4132216,591.796875,797.8515625,501.46484375,-889.6484375,0.0
1734412305.4171093,-884.27734375,111.81640625,-115.72265625,409.1796875,0.0
1734412305.420997,-1000.0,-134.765625,-708.0078125,-230.95703125,0.0
1734412305.4248843,-219.7265625,509.27734375,-213.8671875,943.359375,0.0
1734412305.428772,894.04296875,998.046875,408.203125,987.79296875,0.0
1734412305.4326596,-939.453125,874.51171875,561.5234375,996.58203125,0.0
1734412305.436547,-112.79296875,33.203125,-99.609375,818.84765625,0.0
1734412305.4404347,-1000.0,-369.140625,-816.89453125,278.80859375,0.0
1734412305.4443223,-455.078125,561.5234375,-130.37109375,852.5390625,0.0
1734412305.4482098,857.91015625,999.0234375,540.0390625,-977.5390625,0.0
1734412305.452309,-875.48828125,974.609375,600.09765625,952.1484375,0.0
1734412305.4561965,170.8984375,679.19921875,228.02734375,961.9140625,0.0
1734412305.4600842,-1000.0,221.19140625,-445.80078125,602.05078125,0.0
1734412305.4639719,-547.8515625,628.90625,-171.38671875,843.26171875,0.0
1734412305.4678595,826.171875,988.28125,493.1640625,-975.09765625,0.0
1734412305.4717472,-864.2578125,976.5625,634.27734375,943.359375,0.0
1734412305.4756348,242.67578125,-13.671875,270.01953125,978.02734375,0.0
1734412305.4795222,-1000.0,-1000.0,-439.94140625,950.1953125,0.0
1734412305.48341,-613.76953125,-1000.0,-494.62890625,961.9140625,0.0
1734412305.4872975,766.11328125,208.49609375,284.1796875,971.19140625,0.0
1734412305.4911852,-880.37109375,732.421875,741.69921875,969.23828125,0.0
1734412305.4950728,590.8203125,-666.50390625,368.65234375,976.5625,0.0
1734412305.499159,-941.40625,-1000.0,-343.26171875,899.90234375,0.0
1734412305.5030468,-720.703125,-952.63671875,-328.61328125,927.734375,0.0
1734412305.5069344,783.203125,-1000.0,372.55859375,985.83984375,0.0
1734412305.5108223,-958.984375,-1000.0,659.66796875,913.57421875,0.0
1734412305.51471,887.6953125,-1000.0,434.08203125,-864.2578125,0.0
1734412305.5185976,-426.26953125,-1000.0,-324.70703125,244.62890625,0.0
1734412305.5224853,-1000.0,-1000.0,-520.5078125,26.85546875,0.0
1734412305.526373,318.359375,-1000.0,97.65625,-937.5,0.0
1734412305.5302606,-887.20703125,-1000.0,458.49609375,903.80859375,0.0
1734412305.5341482,863.28125,-1000.0,489.2578125,-852.05078125,0.0
1734412305.538036,-352.05078125,-1000.0,-179.19921875,-33.69140625,0.0
1734412305.5419238,-1000.0,-1000.0,-699.70703125,-465.8203125,0.0
1734412305.5459898,-182.12890625,-1000.0,-82.03125,979.98046875,0.0
1734412305.5498774,-929.6875,-1000.0,529.296875,971.6796875,0.0
1734412305.5537653,872.0703125,-1000.0,406.73828125,-965.33203125,0.0
1734412305.557653,-458.984375,-1000.0,-307.12890625,-174.31640625,0.0
1734412305.5615408,-1000.0,-1000.0,-729.4921875,-1000.0,0.0
1734412305.5654285,-163.57421875,-1000.0,-328.61328125,357.421875,0.0
1734412305.5693161,-962.40234375,-1000.0,290.0390625,-900.87890625,0.0
1734412305.573204,861.328125,-1000.0,214.35546875,905.2734375,0.0
1734412305.5770917,-436.5234375,-1000.0,-470.703125,-271.484375,0.0
1734412305.5809793,-1000.0,-995.60546875,-719.7265625,-1000.0,0.0
1734412305.5848672,-520.5078125,-1000.0,-369.140625,-152.83203125,0.0
1734412305.588755,864.2578125,-956.54296875,210.9375,-927.734375,0.0
1734412305.5928016,-947.75390625,-928.22265625,490.72265625,891.11328125,0.0
1734412305.5966892,-266.11328125,-1000.0,-61.03515625,-381.8359375,0.0
1734412305.600577,-1000.0,-1000.0,-816.40625,-1000.0,0.0
1734412305.604465,-979.98046875,-1000.0,-616.2109375,-225.5859375,0.0
1734412305.6083527,329.58984375,-990.72265625,156.25,-934.08203125,0.0
1734412305.6122406,-936.5234375,-988.76953125,435.546875,840.8203125,0.0
1734412305.6161282,-465.33203125,-1000.0,-264.6484375,-464.35546875,0.0
1734412305.620016,-1000.0,-996.09375,-951.66015625,-1000.0,0.0
1734412305.6239038,-1000.0,-1000.0,-633.7890625,-708.0078125,0.0
1734412305.6277916,-188.96484375,-972.16796875,10.7421875,801.26953125,0.0
1734412305.6316795,-981.93359375,-947.265625,301.7578125,743.1640625,0.0
1734412305.6355672,-422.8515625,-1000.0,-194.82421875,-796.38671875,0.0
1734412305.6395938,-1000.0,-997.55859375,-825.1953125,-1000.0,0.0
1734412305.6434817,-1000.0,-1000.0,-758.30078125,-1000.0,0.0
1734412305.6473696,-369.62890625,-981.4453125,-349.609375,83.0078125,0.0
1734412305.6512573,919.921875,-936.5234375,198.73046875,474.12109375,0.0
1734412305.6551452,-432.12890625,-993.65234375,-105.46875,-1000.0,0.0
1734412305.659033,-1000.0,-1000.0,-910.64453125,-954.1015625,0.0
1734412305.662921,-1000.0,-988.76953125,-893.5546875,-1000.0,0.0
1734412305.6668086,-724.12109375,-1000.0,-519.53125,-128.90625,0.0
1734412305.6706965,888.18359375,-818.359375,133.30078125,467.28515625,0.0
1734412305.6745844,70.80078125,-799.8046875,1.953125,-992.67578125,0.0
1734412305.678472,-1000.0,-996.58203125,-819.82421875,-979.00390625,0.0
1734412305.68236,-1000.0,-1000.0,-817.87109375,-1000.0,0.0
1734412305.6863694,-387.20703125,-937.98828125,-200.1953125,-263.18359375,0.0
1734412305.6902573,-867.1875,12.20703125,342.28515625,-979.4921875,0.0
1734412305.6941452,391.11328125,-7.8125,268.5546875,-333.984375,0.0
1734412305.698033,-964.35546875,-943.359375,-383.7890625,-1000.0,0.0
1734412305.701921,-1000.0,-984.375,-696.77734375,-1000.0,0.0
1734412305.7058089,-195.3125,-1000.0,-232.421875,-287.59765625,0.0
1734412305.7096965,997.0703125,-4.8828125,318.359375,-820.80078125,0.0
1734412305.7135844,-950.68359375,971.6796875,506.8359375,218.75,0.0
1734412305.7174723,-79.1015625,-205.56640625,-53.7109375,-1000.0,0.0
1734412305.7213602,-1000.0,-1000.0,-672.8515625,-1000.0,0.0
1734412305.725248,-156.25,-558.59375,-116.69921875,-207.03125,0.0
1734412305.729136,985.3515625,708.49609375,571.77734375,-902.34375,0.0
1734412305.7332783,-910.15625,-882.32421875,647.94921875,785.64453125,0.0
1734412305.7371664,223.14453125,57.12890625,30.76171875,-556.640625,0.0
1734412305.7410543,-1000.0,-1000.0,-530.2734375,-1000.0,0.0
1734412305.7449422,-167.96875,-539.0625,91.30859375,-83.0078125,0.0
1734412305.74883,-1000.0,729.4921875,590.33203125,984.86328125,0.0
1734412305.752718,-926.7578125,-876.953125,627.9296875,-909.1796875,0.0
1734412305.756606,479.4921875,276.3671875,217.28515625,189.94140625,0.0
1734412305.760494,-1000.0,-1000.0,-357.421875,-1000.0,0.0
1734412305.764382,-233.88671875,-777.83203125,-14.6484375,-17.578125,0.0
1734412305.7682698,-975.5859375,392.08984375,487.3046875,-973.6328125,0.0
1734412305.7721577,-978.515625,-931.15234375,652.34375,-925.78125,0.0
1734412305.7760456,744.140625,637.20703125,452.63671875,437.5,0.0
1734412305.7801647,-856.4453125,-669.43359375,-229.00390625,-1000.0,0.0
1734412305.7840528,-308.59375,-916.50390625,-143.5546875,58.10546875,0.0
1734412305.7879407,-963.8671875,327.63671875,525.87890625,-923.33984375,0.0
1734412305.7918289,-1000.0,-854.00390625,724.609375,983.3984375,0.0
1734412305.7957168,815.4296875,482.91015625,330.56640625,820.3125,0.0
1734412305.7996047,-781.25,-850.09765625,-442.87109375,-754.39453125,0.0
1734412305.8034928,-570.80078125,-1000.0,-272.4609375,-155.76171875,0.0
1734412305.8073807,958.0078125,144.53125,443.359375,-899.4140625,0.0
1734412305.8112688,974.12109375,-930.17578125,558.59375,931.15234375,0.0
1734412305.8151567,992.67578125,512.6953125,329.58984375,996.58203125,0.0
1734412305.8190448,-348.6328125,-550.78125,-142.578125,-482.91015625,0.0
1734412305.8229327,-973.14453125,-1000.0,-356.4453125,-327.1484375,0.0
1734412305.827039,578.125,-260.7421875,222.65625,-952.63671875,0.0
1734412305.8309271,-929.6875,977.05078125,595.703125,993.65234375,0.0
1734412305.8348153,927.734375,862.3046875,480.95703125,838.37890625,0.0
1734412305.8387034,-248.046875,-321.77734375,-200.68359375,-702.63671875,0.0
1734412305.8425913,-1000.0,-1000.0,-645.01953125,-710.9375,0.0
1734412305.8464794,-52.734375,-608.88671875,-47.36328125,805.6640625,0.0
1734412305.8503675,-909.66796875,761.23046875,465.33203125,-854.00390625,0.0
1734412305.8542557,894.53125,744.140625,335.9375,404.78515625,0.0
1734412305.8581436,-365.72265625,-569.3359375,-427.24609375,-887.20703125,0.0
1734412305.8620317,-1000.0,-1000.0,-768.06640625,-1000.0,0.0
1734412305.8659198,-191.40625,-627.44140625,-83.49609375,-104.4921875,0.0
1734412305.869808,-958.0078125,668.45703125,419.43359375,-804.6875,0.0
1734412305.873903,940.91796875,932.12890625,370.60546875,166.50390625,0.0
1734412305.8777912,-309.08203125,-316.89453125,-238.76953125,-1000.0,0.0
1734412305.8816793,-1000.0,-1000.0,-733.3984375,-1000.0,0.0
1734412305.8855674,-340.8203125,-1000.0,-436.5234375,-420.8984375,0.0
1734412305.8894556,960.44921875,127.44140625,165.52734375,-910.15625,0.0
1734412305.8933437,-977.5390625,916.50390625,368.65234375,94.7265625,0.0
1734412305.8972318,-192.3828125,-407.2265625,-276.85546875,-1000.0,0.0
1734412305.90112,-1000.0,-1000.0,-916.9921875,-978.515625,0.0
1734412305.905008,-548.33984375,-954.58984375,-662.109375,-1000.0,0.0
1734412305.9088962,806.15234375,138.671875,178.22265625,434.08203125,0.0
1734412305.9127843,-877.44140625,-882.8125,493.1640625,161.62109375,0.0
1734412305.9166725,-14.16015625,-75.1953125,-161.62109375,-1000.0,0.0
1734412305.9207392,-1000.0,-1000.0,-795.41015625,-917.96875,0.0
1734412305.9246275,-724.12109375,-985.3515625,-498.046875,-1000.0,0.0
1734412305.9285157,613.28125,44.921875,127.9296875,84.47265625,0.0
1734412305.9324038,-818.359375,-819.82421875,528.3203125,260.7421875,0.0
1734412305.936292,153.3203125,174.31640625,-8.7890625,-1000.0,0.0
1734412305.94018,-1000.0,-1000.0,-815.4296875,-950.68359375,0.0
1734412305.9440684,-926.26953125,-1000.0,-608.88671875,-1000.0,0.0
1734412305.9479566,371.58203125,-550.78125,-157.71484375,151.3671875,0.0
1734412305.9518447,-784.1796875,757.8125,336.9140625,438.4765625,0.0
1734412305.9557328,153.3203125,489.74609375,215.33203125,-1000.0,0.0
1734412305.959621,-1000.0,-889.6484375,-642.08984375,-978.02734375,0.0
1734412305.9635093,-1000.0,-1000.0,-632.8125,-1000.0,0.0
1734412305.9675503,153.80859375,-76.66015625,146.484375,40.0390625,0.0
1734412305.9714384,-770.99609375,-857.91015625,609.375,-888.18359375,0.0
1734412305.9753268,332.51953125,453.125,195.3125,-281.25,0.0
1734412305.979215,-955.078125,-825.1953125,-565.91796875,-1000.0,0.0
1734412305.983103,-1000.0,-1000.0,-551.26953125,-1000.0,0.0
1734412305.9869914,-27.83203125,-341.30859375,64.94140625,95.21484375,0.0
1734412305.9908795,-817.3828125,962.40234375,441.40625,-770.5078125,0.0
1734412305.994768,556.15234375,485.83984375,259.765625,149.4140625,0.0
1734412305.998656,-792.48046875,-655.2734375,-313.96484375,-1000.0,0.0
1734412306.0025442,-1000.0,-1000.0,-557.12890625,-1000.0,0.0
1734412306.0064325,-188.4765625,-492.67578125,2.9296875,120.60546875,0.0
1734412306.0103207,-923.33984375,833.0078125,492.1875,-772.94921875,0.0
1734412306.01434,832.51953125,930.6640625,467.28515625,269.04296875,0.0
1734412306.0182283,-498.53515625,-265.13671875,-238.28125,-987.3046875,0.0
1734412306.0221164,-1000.0,-1000.0,-722.16796875,-1000.0,0.0
1734412306.0260048,-187.98828125,-539.55078125,-63.4765625,-14.6484375,0.0
1734412306.029893,-967.7734375,817.3828125,495.60546875,-821.2890625,0.0
1734412306.0337813,961.9140625,892.08984375,433.10546875,581.54296875,0.0
1734412306.0376694,-273.92578125,-348.14453125,-326.171875,-764.16015625,0.0
1734412306.0415578,-1000.0,-1000.0,-810.05859375,-1000.0,0.0
1734412306.045446,-282.2265625,-663.0859375,-78.61328125,-118.1640625,0.0
1734412306.0493343,959.47265625,592.7734375,440.4296875,-918.45703125,0.0
1734412306.0532224,-934.08203125,-963.37890625,457.03125,851.07421875,0.0
1734412306.0571108,-33.203125,-102.5390625,-13.18359375,-436.03515625,0.0
1734412306.061114,-1000.0,-1000.0,-557.12890625,-1000.0,0.0
1734412306.0650022,-398.4375,-857.91015625,-217.28515625,-161.62109375,0.0
1734412306.0688906,890.13671875,227.5390625,385.7421875,999.0234375,0.0
1734412306.072779,-869.62890625,-854.98046875,638.18359375,-942.3828125,0.0
1734412306.0766673,193.359375,388.18359375,205.56640625,-54.19921875,0.0
1734412306.0805554,-1000.0,-948.73046875,-531.73828125,-1000.0,0.0
1734412306.0844438,-212.40234375,-829.1015625,-257.32421875,-83.49609375,0.0
1734412306.0883322,949.70703125,410.64453125,471.6796875,976.5625,0.0
1734412306.0922203,-946.2890625,-854.4921875,733.3984375,-911.62109375,0.0
1734412306.0961087,709.47265625,509.27734375,213.8671875,217.7734375,0.0
1734412306.099997,-880.859375,-905.2734375,-421.38671875,-1000.0,0.0
1734412306.1038852,-296.875,-461.9140625,75.68359375,-188.96484375,0.0
1734412306.1080186,-898.4375,883.7890625,614.74609375,998.046875,0.0
1734412306.111907,880.859375,965.8203125,715.8203125,-940.4296875,0.0
1734412306.1157954,-866.2109375,-995.1171875,562.98828125,583.0078125,0.0
1734412306.1196837,62.98828125,444.82421875,235.83984375,-996.58203125,0.0
1734412306.123572,-203.125,152.34375,266.11328125,-244.140625,0.0
1734412306.1274605,-923.828125,908.69140625,583.0078125,-923.828125,0.0
1734412306.1313488,968.26171875,965.33203125,742.1875,918.9453125,0.0
1734412306.1352372,941.40625,-964.35546875,631.34765625,-937.98828125,0.0
1734412306.1391256,974.12109375,543.9453125,275.87890625,-300.29296875,0.0
1734412306.143014,969.23828125,46.875,216.796875,-316.89453125,0.0
1734412306.1469023,968.75,800.29296875,598.6328125,-909.1796875,0.0
1734412306.1507907,969.23828125,-991.2109375,822.75390625,901.3671875,0.0
1734412306.1549082,969.23828125,-979.00390625,705.56640625,-867.67578125,0.0
1734412306.1587965,969.23828125,378.41796875,208.0078125,-70.80078125,0.0
1734412306.162685,969.23828125,97.16796875,169.43359375,-374.0234375,0.0
1734412306.1665735,969.23828125,899.4140625,576.66015625,-956.0546875,0.0
1734412306.170462,969.23828125,974.12109375,767.08984375,918.9453125,0.0
1734412306.1743503,969.23828125,995.60546875,677.734375,-878.41796875,0.0
1734412306.1782386,969.23828125,747.55859375,308.10546875,-45.8984375,0.0
1734412306.1821272,969.23828125,252.44140625,234.86328125,-735.83984375,0.0
1734412306.1860156,969.23828125,683.59375,406.73828125,802.24609375,0.0
1734412306.189904,968.75,983.88671875,599.12109375,-993.65234375,0.0
1734412306.1937923,969.7265625,-989.2578125,760.7421875,-965.33203125,0.0
1734412306.197681,968.26171875,699.21875,323.73046875,3.90625,0.0
1734412306.2017777,961.9140625,-346.19140625,-30.2734375,-1000.0,0.0
1734412306.205666,976.07421875,195.80078125,347.65625,106.4453125,0.0
1734412306.2095547,929.19921875,-970.21484375,675.78125,-912.59765625,0.0
1734412306.213443,999.0234375,993.1640625,686.03515625,975.5859375,0.0
1734412306.2173316,988.28125,676.7578125,350.09765625,-127.9296875,0.0
1734412306.22122,-349.12109375,-671.38671875,-206.54296875,-1000.0,0.0
1734412306.2251086,91.796875,-471.6796875,22.4609375,-212.890625,0.0
1734412306.228997,-904.296875,869.62890625,554.6875,-917.48046875,0.0
1734412306.2328856,984.86328125,987.3046875,519.04296875,834.47265625,0.0
1734412306.236774,789.55078125,689.94140625,242.67578125,-463.8671875,0.0
1734412306.2406623,-831.54296875,-459.47265625,-169.921875,-1000.0,0.0
1734412306.244551,-291.50390625,-658.203125,-36.62109375,-727.5390625,0.0
1734412306.2486253,-959.9609375,564.94140625,469.23828125,811.5234375,0.0
1734412306.252514,-980.95703125,-909.66796875,651.3671875,562.5,0.0
1734412306.2564025,750.9765625,585.44921875,338.8671875,-966.30859375,0.0
1734412306.2602909,-849.12109375,-713.8671875,-384.27734375,-968.75,0.0
1734412306.2641795,-324.70703125,-899.4140625,-250.9765625,-1000.0,0.0
1734412306.268068,-972.16796875,291.9921875,373.53515625,20.5078125,0.0
1734412306.2719567,-986.328125,-864.74609375,589.35546875,372.55859375,0.0
1734412306.275845,751.953125,477.05078125,182.6171875,-1000.0,0.0
1734412306.2797337,-835.9375,-875.9765625,-539.0625,-945.3125,0.0
1734412306.2836223,-634.27734375,-1000.0,-291.9921875,-1000.0,0.0
1734412306.2875106,886.71875,190.4296875,338.8671875,-207.51953125,0.0
1734412306.2913992,-966.30859375,-933.59375,513.18359375,294.921875,0.0
1734412306.295453,845.703125,768.5546875,365.72265625,-1000.0,0.0
1734412306.2993417,-514.16015625,-341.796875,-140.13671875,-958.984375,0.0
1734412306.3032303,-1000.0,-1000.0,-442.3828125,-1000.0,0.0
1734412306.307119,404.296875,-252.9296875,161.1328125,-431.640625,0.0
1734412306.3110075,-942.87109375,919.43359375,500.0,258.30078125,0.0
1734412306.314896,546.875,475.09765625,236.328125,-944.82421875,0.0
1734412306.3187847,-520.5078125,-555.17578125,-280.76171875,-1000.0,0.0
1734412306.3226733,-1000.0,-1000.0,-744.140625,-1000.0,0.0
1734412306.326562,-166.9921875,-493.65234375,-162.109375,-768.5546875,0.0
1734412306.3304505,-910.15625,893.06640625,527.83203125,-35.15625,0.0
1734412306.334339,814.453125,791.9921875,380.859375,-813.96484375,0.0
1734412306.3382275,-515.625,-512.20703125,-247.55859375,-1000.0,0.0
1734412306.342277,0.0,-1000.0,-605.46875,-953.125,0.0
1734412306.3461657,0.0,-634.27734375,-51.7578125,-1000.0,0.0
1734412306.3500543,0.0,630.859375,400.390625,-896.484375,0.0
1734412306.3539429,0.0,922.8515625,399.4140625,-971.6796875,0.0
1734412306.3578315,0.0,-333.49609375,-155.2734375,-1000.0,0.0
1734412306.36172,0.0,-1000.0,-681.15234375,-992.67578125,0.0
1734412306.3656087,0.0,-1000.0,-494.62890625,-1000.0,0.0
1734412306.3694973,0.0,-350.09765625,-5.859375,-1000.0,0.0
1734412306.373386,0.0,850.09765625,445.80078125,-1000.0,0.0
1734412306.3772745,0.0,-259.765625,-177.24609375,-1000.0,0.0
1734412306.3811634,0.0,-1000.0,-790.52734375,-1000.0,0.0
1734412306.385052,0.0,-943.84765625,-400.87890625,-1000.0,0.0
1734412306.3890772,777.34375,163.57421875,226.07421875,-1000.0,0.0
1734412306.3929658,-894.04296875,-971.6796875,447.265625,-1000.0,0.0
1734412306.3968544,-166.9921875,-243.1640625,-156.73828125,-1000.0,0.0
1734412306.4007432,-1000.0,-1000.0,-738.28125,-1000.0,0.0
1734412306.4046319,-933.59375,-1000.0,-551.26953125,-1000.0,0.0
1734412306.4085205,317.87109375,-316.40625,-12.20703125,-1000.0,0.0
1734412306.412409,-794.43359375,191.40625,207.51953125,-1000.0,0.0
1734412306.416298,-69.82421875,-858.3984375,-288.57421875,-1000.0,0.0
1734412306.4201865,-1000.0,-985.3515625,-682.6171875,-1000.0,0.0
1734412306.4240751,-1000.0,-1000.0,-613.28125,-1000.0,0.0
1734412306.4279637,-7.8125,-475.5859375,-47.8515625,-1000.0,0.0
1734412306.4318526,-775.87890625,997.0703125,474.12109375,-1000.0,0.0
1734412306.4358602,130.859375,98.6328125,72.75390625,-1000.0,0.0
1734412306.4397488,-1000.0,-1000.0,-682.6171875,-1000.0,0.0
1734412306.4436374,-1000.0,-1000.0,-629.8828125,-1000.0,0.0
1734412306.4475262,-41.015625,-289.0625,74.70703125,-1000.0,0.0
1734412306.4514148,-783.203125,-912.59765625,520.99609375,-1000.0,0.0
1734412306.4553034,262.20703125,306.640625,125.0,-1000.0,0.0
1734412306.4591923,-1000.0,-979.00390625,-610.83984375,-933.10546875,0.0
1734412306.463081,-1000.0,-1000.0,-504.8828125,-1000.0,0.0
1734412306.4669697,6.34765625,-188.96484375,170.41015625,-268.5546875,0.0
1734412306.4708583,-869.140625,996.58203125,445.80078125,-877.44140625,0.0
1734412306.474747,791.50390625,791.015625,312.01171875,-44.921875,0.0
1734412306.4786358,-553.22265625,-380.37109375,-188.96484375,-1000.0,0.0
1734412306.4827645,-1000.0,-1000.0,-468.75,-1000.0,0.0
1734412306.4866533,110.3515625,-411.62109375,53.7109375,-23.92578125,0.0
1734412306.4905422,-967.28515625,854.00390625,520.01953125,-877.9296875,0.0
1734412306.4944308,-947.75390625,979.4921875,519.04296875,827.1484375,0.0
1734412306.4983196,71.77734375,-102.05078125,-49.8046875,-602.5390625,0.0
1734412306.5022085,-1000.0,-1000.0,-549.8046875,-918.9453125,0.0
1734412306.506097,3.90625,-455.56640625,-32.2265625,613.76953125,0.0
1734412306.509986,-962.40234375,838.8671875,530.76171875,981.93359375,0.0
1734412306.5138748,-938.96484375,-933.10546875,539.0625,-889.6484375,0.0
1734412306.5177634,207.03125,2.44140625,-55.17578125,143.5546875,0.0
1734412306.5216522,-1000.0,-1000.0,-468.26171875,-743.1640625,0.0
1734412306.525541,-182.12890625,-406.25,61.5234375,749.51171875,0.0
1734412306.5296476,-993.1640625,833.0078125,483.88671875,-997.0703125,0.0
1734412306.5335364,-923.828125,-898.92578125,534.66796875,-941.40625,0.0
1734412306.5374253,231.93359375,318.84765625,160.64453125,265.13671875,0.0
1734412306.541314,-1000.0,-925.29296875,-416.015625,-1000.0,0.0
1734412306.5452027,-323.2421875,-988.76953125,-306.640625,55.17578125,0.0
1734412306.5490916,959.47265625,131.34765625,197.75390625,-947.265625,0.0
1734412306.5529804,-910.15625,-891.11328125,456.54296875,-946.77734375,0.0
1734412306.5568693,222.16796875,160.64453125,130.37109375,225.5859375,0.0
1734412306.560758,-1000.0,-1000.0,-587.890625,-1000.0,0.0
1734412306.564647,-625.0,-958.49609375,-576.66015625,-200.68359375,0.0
1734412306.5685358,764.16015625,168.45703125,241.2109375,-995.1171875,0.0
1734412306.5724247,-850.09765625,-838.8671875,599.609375,-916.015625,0.0
1734412306.5765212,230.46875,266.11328125,124.0234375,218.75,0.0
1734412306.58041,-1000.0,-979.00390625,-525.390625,-1000.0,0.0
1734412306.5842988,-650.390625,-993.65234375,-350.09765625,-211.42578125,0.0
1734412306.5881877,751.953125,131.34765625,243.1640625,-974.12109375,0.0
1734412306.5920765,-948.2421875,-903.3203125,548.828125,966.796875,0.0
1734412306.5959654,891.6015625,666.50390625,310.546875,977.05078125,0.0
1734412306.5998545,-582.03125,-537.109375,-306.640625,-393.06640625,0.0
1734412306.6037433,-748.046875,-1000.0,-390.13671875,-114.2578125,0.0
1734412306.6076322,874.0234375,-52.24609375,214.35546875,-861.328125,0.0
1734412306.611521,949.70703125,939.453125,565.4296875,926.26953125,0.0
1734412306.6154099,-886.23046875,-948.73046875,512.20703125,957.51953125,0.0
1734412306.6192987,27.83203125,106.93359375,-21.484375,972.65625,0.0
1734412306.6233778,-729.4921875,-991.69921875,-339.35546875,969.7265625,0.0
1734412306.627267,835.44921875,156.25,286.1328125,970.21484375,0.0
1734412306.6311557,972.16796875,-953.125,645.99609375,969.7265625,0.0
1734412306.6350446,-896.484375,969.7265625,555.6640625,969.7265625,0.0
1734412306.6389337,228.02734375,334.47265625,156.25,969.7265625,0.0
1734412306.6428225,-826.66015625,-918.45703125,-235.83984375,969.7265625,0.0
1734412306.6467113,645.5078125,-132.8125,221.6796875,969.23828125,0.0
1734412306.6506004,-983.3984375,-974.12109375,596.19140625,969.7265625,0.0
1734412306.6544893,-950.68359375,997.55859375,527.83203125,969.7265625,0.0
1734412306.6583784,527.83203125,644.53125,304.6875,969.7265625,0.0
1734412306.6622672,-920.8984375,-414.55078125,75.68359375,969.23828125,0.0
1734412306.666156,250.9765625,-99.12109375,276.85546875,969.7265625,0.0
1734412306.6703548,-916.015625,913.0859375,541.9921875,969.7265625,0.0
1734412306.674244,996.09375,-965.8203125,643.06640625,969.7265625,0.0
1734412306.678133,697.75390625,706.0546875,332.51953125,969.7265625,0.0
1734412306.6820219,-898.92578125,-618.65234375,-173.828125,970.21484375,0.0
1734412306.685911,-107.91015625,-397.94921875,109.375,969.7265625,0.0
1734412306.6898,-910.15625,876.46484375,523.4375,969.7265625,0.0
1734412306.6936889,958.0078125,-887.20703125,610.83984375,969.7265625,0.0
1734412306.697578,892.578125,262.20703125,123.53515625,969.7265625,0.0
1734412306.701467,-643.5546875,-1000.0,-371.58203125,969.7265625,0.0
1734412306.7053561,-297.36328125,-429.19921875,130.859375,969.7265625,0.0
1734412306.709245,-897.94921875,819.3359375,511.23046875,969.7265625,0.0
1734412306.713134,890.625,-998.046875,597.65625,969.7265625,0.0
1734412306.7171695,-869.62890625,879.39453125,430.17578125,969.7265625,0.0
1734412306.7210586,-78.61328125,0.9765625,98.14453125,969.7265625,0.0
1734412306.7249477,-316.40625,-452.1484375,168.45703125,969.7265625,0.0
1734412306.7288368,-923.33984375,535.64453125,478.515625,969.7265625,0.0
1734412306.7327256,955.56640625,-979.00390625,643.06640625,969.7265625,0.0
1734412306.7366147,984.86328125,945.3125,462.890625,970.21484375,0.0
1734412306.7405038,774.90234375,-142.578125,-65.91796875,969.7265625,0.0
1734412306.7443929,728.515625,-487.79296875,-13.671875,969.7265625,0.0
1734412306.748282,-995.60546875,760.7421875,544.43359375,969.23828125,0.0
1734412306.752171,963.8671875,-935.05859375,775.390625,969.7265625,0.0
1734412306.7560601,965.33203125,805.17578125,455.56640625,969.7265625,0.0
1734412306.7599492,969.23828125,27.34375,103.515625,969.7265625,0.0
1734412306.763963,969.23828125,182.6171875,341.796875,969.7265625,0.0
1734412306.767852,969.23828125,953.61328125,586.9140625,969.23828125,0.0
1734412306.7717412,969.23828125,972.16796875,768.5546875,969.23828125,0.0
1734412306.7756302,969.23828125,959.9609375,759.27734375,970.21484375,0.0
1734412306.7795193,969.23828125,940.91796875,459.47265625,969.7265625,0.0
1734412306.7834084,968.75,855.95703125,342.28515625,969.7265625,0.0
1734412306.7872975,969.23828125,947.75390625,518.06640625,969.7265625,0.0
1734412306.7911866,969.23828125,979.98046875,732.421875,969.7265625,0.0
1734412306.7950757,969.23828125,964.35546875,840.33203125,969.7265625,0.0
1734412306.7989647,968.75,970.21484375,584.47265625,969.7265625,0.0
1734412306.8028538,969.23828125,957.03125,462.40234375,969.7265625,0.0
1734412306.806743,969.23828125,967.28515625,711.42578125,969.7265625,0.0
1734412306.8107493,968.75,971.6796875,844.7265625,969.7265625,0.0
1734412306.8146384,968.75,968.75,845.21484375,969.7265625,0.0
1734412306.8185275,969.23828125,970.21484375,688.4765625,969.7265625,0.0
1734412306.8224165,969.23828125,969.7265625,570.80078125,969.7265625,0.0
1734412306.8263056,969.23828125,969.7265625,711.42578125,969.7265625,0.0
1734412306.830195,969.23828125,969.7265625,821.2890625,969.7265625,0.0
1734412306.834084,969.23828125,969.7265625,826.171875,969.7265625,0.0
1734412306.837973,969.23828125,969.7265625,733.3984375,969.7265625,0.0
1734412306.8418622,969.23828125,969.7265625,598.6328125,969.23828125,0.0
1734412306.8457513,969.23828125,969.7265625,604.98046875,969.7265625,0.0
1734412306.8496404,969.23828125,969.7265625,765.13671875,969.7265625,0.0
1734412306.8535297,968.75,969.7265625,865.234375,969.7265625,0.0
1734412306.8576615,968.75,969.7265625,748.046875,969.7265625,0.0
1734412306.8615506,969.23828125,969.7265625,548.33984375,969.7265625,0.0
1734412306.86544,969.23828125,970.21484375,584.9609375,969.7265625,0.0
1734412306.869329,968.75,969.23828125,786.1328125,969.7265625,0.0
1734412306.873218,969.23828125,967.28515625,832.03125,969.7265625,0.0
1734412306.8771074,969.23828125,978.515625,632.32421875,969.7265625,0.0
1734412306.8809965,968.75,918.9453125,364.74609375,969.7265625,0.0
1734412306.8848858,968.75,896.97265625,415.0390625,969.7265625,0.0
1734412306.8887749,969.23828125,969.7265625,666.015625,969.7265625,0.0
1734412306.8926642,969.23828125,956.54296875,729.98046875,969.7265625,0.0
1734412306.8965533,969.23828125,999.51171875,615.72265625,969.7265625,0.0
1734412306.9004424,969.23828125,808.59375,371.09375,969.7265625,0.0
1734412306.9045503,968.75,485.83984375,305.6640625,969.7265625,0.0
1734412306.9084396,968.75,768.06640625,507.8125,969.7265625,0.0
1734412306.9123287,969.23828125,946.2890625,709.9609375,969.7265625,0.0
1734412306.916218,968.75,-933.10546875,647.94921875,969.7265625,0.0
1734412306.9201074,968.75,475.5859375,189.453125,969.7265625,0.0
1734412306.9239964,969.23828125,-756.8359375,-32.2265625,970.21484375,0.0
1734412306.9278858,969.7265625,63.96484375,378.90625,969.7265625,0.0
1734412306.931775,961.42578125,-902.34375,685.05859375,969.7265625,0.0
1734412306.9356642,978.02734375,843.26171875,484.375,969.7265625,0.0
1734412306.9395535,967.28515625,-281.73828125,-63.96484375,969.7265625,0.0
1734412306.9434428,818.84765625,-1000.0,-49.31640625,969.7265625,0.0
1734412306.9473321,927.24609375,-18.5546875,365.72265625,969.7265625,0.0
1734412306.9514284,921.38671875,968.26171875,552.24609375,969.7265625,0.0
1734412306.9553177,-917.48046875,-977.05078125,583.49609375,969.7265625,0.0
1734412306.959207,649.90234375,494.140625,267.578125,969.7265625,0.0
1734412306.9630964,-792.96875,-854.98046875,3.41796875,969.7265625,0.0
1734412306.9669855,188.4765625,-681.640625,239.2578125,969.7265625,0.0
1734412306.9708748,-852.05078125,685.05859375,529.296875,969.7265625,0.0
1734412306.974764,866.69921875,-896.484375,575.1953125,969.7265625,0.0
1734412306.9786534,-893.5546875,451.66015625,262.6953125,969.7265625,0.0
1734412306.9825428,161.1328125,-909.1796875,-332.51953125,969.7265625,0.0
1734412306.986432,206.0546875,-480.46875,-33.203125,969.7265625,0.0
1734412306.9903214,-882.8125,901.3671875,646.97265625,970.21484375,0.0
1734412306.9942107,932.12890625,992.1875,683.10546875,969.7265625,0.0
1734412306.9982858,966.30859375,912.109375,413.0859375,969.7265625,0.0
1734412307.002175,968.75,487.79296875,239.2578125,969.7265625,0.0
1734412307.0060644,968.75,504.8828125,383.30078125,969.7265625,0.0
1734412307.0099537,969.23828125,-996.58203125,624.0234375,970.21484375,0.0
1734412307.013843,969.23828125,968.75,795.8984375,969.7265625,0.0
1734412307.0177326,969.23828125,958.984375,605.95703125,969.7265625,0.0
1734412307.021622,969.23828125,951.171875,373.046875,969.7265625,0.0
1734412307.0255113,969.23828125,956.54296875,406.73828125,969.7265625,0.0
1734412307.0294006,968.75,972.16796875,615.234375,969.7265625,0.0
1734412307.03329,969.23828125,968.75,838.8671875,970.21484375,0.0
1734412307.0371792,969.23828125,970.703125,814.94140625,969.7265625,0.0
1734412307.0410686,969.23828125,958.984375,510.25390625,969.7265625,0.0
1734412307.0451193,969.23828125,963.37890625,541.50390625,969.7265625,0.0
1734412307.0490088,969.23828125,971.6796875,823.2421875,969.7265625,0.0
1734412307.0528982,969.23828125,969.23828125,857.91015625,969.7265625,0.0
1734412307.0567875,968.75,970.21484375,850.09765625,969.7265625,0.0
1734412307.060677,968.75,969.7265625,753.41796875,969.7265625,0.0
1734412307.0645664,969.23828125,969.7265625,677.734375,969.7265625,0.0
1734412307.0684557,969.23828125,969.7265625,783.69140625,970.21484375,0.0
1734412307.0723453,969.23828125,970.21484375,864.2578125,969.7265625,0.0
1734412307.0762346,969.23828125,970.21484375,850.09765625,969.7265625,0.0
1734412307.080124,968.75,969.7265625,802.734375,969.7265625,0.0
1734412307.0840132,968.75,969.7265625,729.4921875,969.7265625,0.0
1734412307.0879028,969.23828125,970.21484375,742.1875,969.7265625,0.0
1734412307.0919394,969.23828125,969.7265625,860.83984375,969.7265625,0.0
1734412307.0958288,969.23828125,970.21484375,885.7421875,970.21484375,0.0
1734412307.0997183,969.23828125,969.23828125,749.0234375,969.7265625,0.0
1734412307.1036077,969.23828125,965.8203125,627.44140625,969.7265625,0.0
1734412307.1074972,969.23828125,969.23828125,753.90625,969.7265625,0.0
1734412307.1113865,969.23828125,970.21484375,852.5390625,969.7265625,0.0
1734412307.115276,969.23828125,969.7265625,841.30859375,969.7265625,0.0
1734412307.1191654,969.23828125,969.7265625,695.3125,969.7265625,0.0
1734412307.1230547,969.23828125,969.7265625,618.65234375,969.7265625,0.0
1734412307.1269443,969.23828125,969.7265625,716.796875,969.7265625,0.0
1734412307.1308336,969.23828125,969.7265625,812.5,969.7265625,0.0
1734412307.1347232,969.23828125,969.7265625,854.00390625,969.7265625,0.0
1734412307.1387563,968.75,970.21484375,762.6953125,969.7265625,0.0
1734412307.1426456,968.75,968.26171875,603.515625,969.7265625,0.0
1734412307.1465352,969.23828125,966.30859375,619.62890625,969.7265625,0.0
1734412307.1504247,969.23828125,973.14453125,782.71484375,969.7265625,0.0
1734412307.154314,968.75,930.17578125,855.95703125,969.7265625,0.0
1734412307.1582036,969.23828125,-920.41015625,744.140625,969.7265625,0.0
1734412307.162093,969.23828125,536.1328125,391.6015625,969.7265625,0.0
1734412307.1659825,969.23828125,262.20703125,413.0859375,969.7265625,0.0
1734412307.169872,968.75,988.28125,784.66796875,969.7265625,0.0
1734412307.1737614,969.23828125,968.75,835.9375,969.7265625,0.0
1734412307.177651,969.23828125,976.07421875,653.80859375,969.7265625,0.0
1734412307.1815405,968.75,887.20703125,467.28515625,969.7265625,0.0
1734412307.1856847,968.75,362.79296875,429.19921875,969.7265625,0.0
1734412307.1895742,971.6796875,638.18359375,570.80078125,969.7265625,0.0
1734412307.1934638,942.87109375,980.46875,763.671875,969.7265625,0.0
1734412307.1973534,986.81640625,-976.07421875,651.85546875,969.7265625,0.0
1734412307.201243,-990.72265625,544.921875,358.88671875,969.23828125,0.0
1734412307.2051325,213.8671875,-851.5625,61.5234375,969.23828125,0.0
1734412307.209022,533.203125,-718.75,166.015625,969.7265625,0.0
1734412307.2129116,-968.75,656.73828125,604.00390625,969.7265625,0.0
1734412307.2168012,-943.359375,-963.37890625,614.2578125,969.7265625,0.0
1734412307.2206907,362.79296875,-125.48828125,-24.4140625,969.7265625,0.0
1734412307.2245803,-1000.0,-1000.0,-477.5390625,969.7265625,0.0
1734412307.2284696,-227.05078125,-938.96484375,37.109375,969.7265625,0.0
1734412307.2325962,-977.05078125,252.44140625,531.73828125,969.23828125,0.0
1734412307.2364857,-943.84765625,633.30078125,398.4375,969.23828125,0.0
1734412307.2403753,111.81640625,-667.96875,-102.05078125,969.7265625,0.0
1734412307.2442648,-1000.0,-1000.0,-464.84375,969.7265625,0.0
1734412307.2481544,-777.34375,-1000.0,-266.11328125,969.7265625,0.0
1734412307.2520442,610.3515625,-836.42578125,263.671875,969.7265625,0.0
1734412307.2559338,-828.61328125,-203.125,370.1171875,969.7265625,0.0
1734412307.2598233,-74.21875,-667.96875,-101.5625,969.7265625,0.0
1734412307.263713,-1000.0,-1000.0,-520.5078125,970.21484375,0.0
1734412307.2676024,-1000.0,-1000.0,-587.890625,977.05078125,0.0
1734412307.2714922,-69.3359375,-665.52734375,-6.8359375,900.87890625,0.0
1734412307.2753818,-788.0859375,384.27734375,510.25390625,-835.9375,0.0
1734412307.279483,72.265625,-296.38671875,-41.50390625,213.8671875,0.0
1734412307.2833726,-1000.0,-1000.0,-610.83984375,-209.47265625,0.0
1734412307.2872624,-1000.0,-1000.0,-478.02734375,-973.14453125,0.0
1734412307.291152,-237.79296875,-676.26953125,110.83984375,920.8984375,0.0
1734412307.2950416,-820.3125,195.3125,430.17578125,-862.3046875,0.0
1734412307.2989314,169.43359375,-543.9453125,-103.515625,34.1796875,0.0
1734412307.302821,-1000.0,-1000.0,-524.90234375,-633.7890625,0.0
1734412307.3067107,-1000.0,-924.8046875,-379.8828125,888.18359375,0.0
1734412307.3106003,-245.1171875,-1000.0,-3.41796875,967.28515625,0.0
1734412307.3144898,-838.37890625,-108.3984375,378.41796875,-902.83203125,0.0
1734412307.3183796,493.1640625,306.15234375,306.640625,128.90625,0.0
1734412307.3222692,-887.6953125,-774.4140625,-247.55859375,-957.03125,0.0
1734412307.3263643,-1000.0,-1000.0,-446.2890625,518.5546875,0.0
1734412307.3302538,-102.05078125,-547.36328125,84.47265625,-973.6328125,0.0
1734412307.3341436,-997.55859375,786.1328125,624.0234375,-915.52734375,0.0
1734412307.3380332,-937.01171875,870.60546875,445.80078125,188.96484375,0.0
1734412307.341923,2.44140625,-378.90625,-112.79296875,-978.02734375,0.0
1734412307.3458128,-1000.0,-1000.0,-378.90625,454.1015625,0.0
1734412307.3497024,-22.94921875,-613.76953125,76.171875,-970.703125,0.0
1734412307.3535922,-992.1875,755.859375,617.1875,-950.1953125,0.0
1734412307.357482,-929.19921875,621.58203125,330.078125,499.0234375,0.0
1734412307.3613715,555.17578125,-411.62109375,-4.8828125,-958.984375,0.0
1734412307.3652613,-959.47265625,-994.62890625,123.046875,173.33984375,0.0
1734412307.3691509,81.0546875,-317.87109375,311.5234375,-895.01953125,0.0
1734412307.3732333,-863.76953125,921.875,624.0234375,932.12890625,0.0
1734412307.377123,875.48828125,-995.1171875,633.7890625,963.37890625,0.0
1734412307.381013,-889.6484375,745.1171875,353.515625,-397.4609375,0.0
1734412307.3849027,-136.71875,-566.89453125,83.49609375,36.62109375,0.0
1734412307.3887925,-48.33984375,-493.1640625,257.8125,-891.11328125,0.0
1734412307.392682,-885.25390625,870.1171875,617.1875,940.91796875,0.0
1734412307.3965719,910.64453125,-900.87890625,630.859375,949.70703125,0.0
1734412307.4004617,-910.64453125,434.5703125,193.359375,-575.68359375,0.0
1734412307.4043515,-334.47265625,-955.078125,-345.21484375,-315.4296875,0.0
1734412307.4082413,-337.40234375,-731.93359375,110.3515625,-967.28515625,0.0
1734412307.412131,-967.28515625,592.28515625,639.16015625,-952.63671875,0.0
1734412307.4160206,-964.35546875,-926.7578125,539.55078125,585.44921875,0.0
1734412307.4200742,683.59375,503.41796875,264.16015625,-965.33203125,0.0
1734412307.423964,-898.4375,-664.0625,-139.16015625,-732.421875,0.0
1734412307.4278538,-622.0703125,-1000.0,-84.9609375,721.19140625,0.0
1734412307.4317436,876.953125,-75.1953125,451.171875,-853.515625,0.0
1734412307.4356334,-940.4296875,-938.96484375,570.3125,442.87109375,0.0
1734412307.4395232,582.03125,242.1875,177.24609375,-970.21484375,0.0
1734412307.443413,-846.6796875,-889.6484375,-297.8515625,-941.40625,0.0
1734412307.4473028,-892.08984375,-1000.0,-476.5625,468.26171875,0.0
1734412307.4511926,639.6484375,-237.3046875,107.91015625,-955.078125,0.0
1734412307.4550824,982.421875,-951.171875,715.8203125,-982.91015625,0.0
1734412307.4589722,-893.5546875,785.15625,368.65234375,-306.640625,0.0
1734412307.462862,36.1328125,-480.46875,-51.7578125,-805.6640625,0.0
1734412307.4668994,-736.81640625,-1000.0,114.2578125,814.453125,0.0
1734412307.4707892,833.0078125,123.53515625,520.01953125,-997.55859375,0.0
1734412307.474679,978.02734375,-987.3046875,705.078125,-996.58203125,0.0
1734412307.4785688,-925.78125,-993.65234375,556.15234375,695.80078125,0.0
1734412307.4824588,524.90234375,324.21875,241.2109375,376.46484375,0.0
1734412307.4863486,-266.6015625,-966.30859375,181.640625,968.26171875,0.0
1734412307.4902384,860.83984375,-49.31640625,461.9140625,996.58203125,0.0
1734412307.4941282,-950.1953125,-951.171875,705.56640625,944.3359375,0.0
1734412307.498018,920.41015625,966.796875,645.5078125,974.12109375,0.0
1734412307.501908,966.796875,794.921875,426.26953125,969.7265625,0.0
1734412307.5057979,825.68359375,-524.4140625,170.8984375,969.7265625,0.0
1734412307.5096877,937.01171875,-185.546875,371.09375,969.7265625,0.0
1734412307.5137084,987.79296875,-939.453125,820.80078125,969.7265625,0.0
1734412307.5175982,958.984375,-993.1640625,714.84375,969.7265625,0.0
1734412307.521488,972.16796875,640.625,403.80859375,969.7265625,0.0
1734412307.525378,969.23828125,-247.0703125,314.94140625,969.23828125,0.0
1734412307.5292678,969.23828125,242.67578125,536.1328125,969.23828125,0.0
1734412307.5331576,969.23828125,-955.078125,763.18359375,969.7265625,0.0
1734412307.5370476,969.23828125,921.875,567.3828125,969.7265625,0.0
1734412307.5409374,969.23828125,689.94140625,286.62109375,969.7265625,0.0
1734412307.5448272,969.23828125,13.671875,334.47265625,969.7265625,0.0
1734412307.5487173,969.23828125,277.83203125,479.00390625,969.7265625,0.0
1734412307.552607,969.23828125,-972.16796875,695.3125,969.7265625,0.0
1734412307.5564969,968.75,923.33984375,770.01953125,969.7265625,0.0
1734412307.5606294,969.23828125,-933.59375,555.17578125,969.7265625,0.0
1734412307.5645194,969.23828125,418.9453125,337.40234375,969.7265625,0.0
1734412307.5684092,969.23828125,197.75390625,461.9140625,969.7265625,0.0
1734412307.5722992,968.75,985.3515625,761.23046875,969.7265625,0.0
1734412307.576189,969.23828125,998.046875,840.33203125,969.7265625,0.0
1734412307.580079,969.23828125,939.94140625,494.62890625,969.7265625,0.0
1734412307.583969,969.23828125,116.2109375,255.37109375,969.7265625,0.0
1734412307.587859,969.23828125,302.24609375,527.83203125,969.7265625,0.0
1734412307.591749,968.75,-937.98828125,781.73828125,969.7265625,0.0
1734412307.5956388,969.23828125,938.4765625,762.6953125,969.7265625,0.0
1734412307.5995288,969.23828125,983.88671875,580.56640625,969.7265625,0.0
1734412307.6034186,969.23828125,884.765625,469.7265625,969.7265625,0.0
1734412307.607536,969.23828125,819.3359375,519.53125,969.23828125,0.0
1734412307.611426,969.23828125,973.14453125,701.66015625,969.7265625,0.0
1734412307.615316,969.23828125,961.9140625,834.9609375,969.7265625,0.0
1734412307.619206,969.23828125,987.3046875,669.921875,969.7265625,0.0
1734412307.623096,969.23828125,817.3828125,400.390625,969.7265625,0.0
1734412307.626986,969.23828125,625.9765625,436.03515625,969.7265625,0.0
1734412307.630876,969.23828125,916.015625,692.3828125,969.7265625,0.0
1734412307.6347659,969.23828125,977.5390625,828.61328125,969.7265625,0.0
1734412307.638656,969.23828125,-979.98046875,709.9609375,969.7265625,0.0
1734412307.642546,969.23828125,648.92578125,358.88671875,969.7265625,0.0
1734412307.646436,969.23828125,559.08203125,401.3671875,969.7265625,0.0
1734412307.650326,969.23828125,-990.72265625,772.94921875,969.7265625,0.0
1734412307.6544282,968.75,968.26171875,839.84375,969.7265625,0.0
1734412307.6583183,968.75,960.9375,757.8125,969.7265625,0.0
1734412307.6622083,969.23828125,971.19140625,601.5625,969.7265625,0.0
1734412307.6660984,969.23828125,968.26171875,558.59375,969.7265625,0.0
1734412307.6699884,969.23828125,969.7265625,714.35546875,969.23828125,0.0
1734412307.6738784,969.23828125,970.21484375,830.56640625,969.7265625,0.0
1734412307.6777685,969.23828125,966.30859375,808.59375,969.7265625,0.0
1734412307.6816587,969.23828125,982.421875,639.6484375,969.23828125,0.0
1734412307.6855488,969.23828125,910.64453125,457.51953125,969.7265625,0.0
1734412307.6894388,969.23828125,899.4140625,620.1171875,970.21484375,0.0
1734412307.6933289,969.23828125,979.4921875,850.09765625,969.23828125,0.0
1734412307.697219,968.75,968.75,853.02734375,969.23828125,0.0
1734412307.7013085,969.23828125,964.84375,544.43359375,969.7265625,0.0
1734412307.7051985,969.23828125,967.7734375,478.02734375,969.7265625,0.0
1734412307.7090888,969.23828125,970.703125,773.4375,969.7265625,0.0
1734412307.7129788,969.23828125,969.23828125,849.609375,970.21484375,0.0
1734412307.7168689,969.23828125,969.7265625,847.16796875,969.7265625,0.0
1734412307.720759,969.23828125,969.7265625,699.70703125,969.7265625,0.0
1734412307.7246492,968.75,969.7265625,584.9609375,969.7265625,0.0
1734412307.7285392,968.75,969.7265625,710.44921875,969.7265625,0.0
1734412307.7324293,969.23828125,969.7265625,827.63671875,969.7265625,0.0
1734412307.7363193,969.23828125,969.7265625,857.91015625,969.7265625,0.0
1734412307.7402096,969.23828125,969.7265625,782.71484375,969.7265625,0.0
1734412307.7440996,969.23828125,969.7265625,639.16015625,969.7265625,0.0
1734412307.7481675,968.75,969.7265625,709.9609375,969.7265625,0.0
1734412307.7520576,969.23828125,969.7265625,867.1875,969.7265625,0.0
1734412307.7559478,969.23828125,969.7265625,882.32421875,969.7265625,0.0
1734412307.7598379,968.75,969.7265625,830.56640625,969.7265625,0.0
1734412307.7637281,968.75,969.7265625,791.50390625,969.7265625,0.0
1734412307.7676182,969.23828125,969.7265625,799.31640625,969.7265625,0.0
1734412307.7715085,968.75,969.7265625,857.91015625,969.7265625,0.0
1734412307.7753985,969.23828125,969.7265625,881.8359375,969.7265625,0.0
1734412307.7792885,969.23828125,969.7265625,827.1484375,969.7265625,0.0
1734412307.7831788,969.23828125,969.7265625,806.640625,969.7265625,0.0
1734412307.7870688,969.23828125,969.7265625,824.70703125,969.7265625,0.0
1734412307.7909591,969.23828125,969.7265625,858.88671875,969.7265625,0.0
1734412307.7950118,969.23828125,969.7265625,891.11328125,969.7265625,0.0
1734412307.7989018,969.23828125,969.7265625,870.60546875,970.21484375,0.0
1734412307.802792,969.23828125,969.7265625,807.6171875,969.7265625,0.0
1734412307.8066823,968.75,969.7265625,815.4296875,969.7265625,0.0
1734412307.8105724,968.75,969.7265625,871.58203125,969.7265625,0.0
1734412307.8144627,969.23828125,969.7265625,893.5546875,969.7265625,0.0
1734412307.818353,969.23828125,969.7265625,876.953125,969.7265625,0.0
1734412307.822243,969.23828125,969.7265625,790.52734375,969.7265625,0.0
1734412307.8261333,969.23828125,969.7265625,796.38671875,969.7265625,0.0
1734412307.8300233,969.23828125,969.7265625,871.09375,969.7265625,0.0
1734412307.8339136,969.23828125,969.7265625,891.11328125,969.7265625,0.0
1734412307.8378038,969.23828125,969.7265625,873.046875,969.7265625,0.0
1734412307.841832,969.23828125,969.23828125,833.49609375,969.7265625,0.0
1734412307.8457222,968.75,969.7265625,825.68359375,969.23828125,0.0
1734412307.8496125,968.75,969.7265625,862.3046875,969.7265625,0.0
1734412307.8535025,969.23828125,969.7265625,894.53125,969.7265625,0.0
1734412307.8573928,969.23828125,969.7265625,882.32421875,969.7265625,0.0
1734412307.861283,969.23828125,969.7265625,839.84375,969.7265625,0.0
1734412307.8651733,969.23828125,969.7265625,808.59375,969.7265625,0.0
1734412307.8690634,969.23828125,969.7265625,829.1015625,969.7265625,0.0
1734412307.8729537,968.75,969.23828125,894.04296875,969.7265625,0.0
1734412307.876844,969.23828125,970.21484375,896.97265625,969.7265625,0.0
1734412307.8807342,969.23828125,969.7265625,830.56640625,969.7265625,0.0
1734412307.8846242,969.23828125,969.7265625,815.91796875,969.7265625,0.0
1734412307.8886385,969.23828125,969.7265625,853.02734375,969.7265625,0.0
1734412307.8925288,969.23828125,969.7265625,887.6953125,969.7265625,0.0
1734412307.896419,968.75,969.7265625,889.16015625,969.7265625,0.0
1734412307.9003093,969.23828125,969.23828125,843.75,969.7265625,0.0
1734412307.9041996,969.23828125,969.7265625,814.453125,969.7265625,0.0
1734412307.9080896,968.75,969.7265625,824.21875,969.7265625,0.0
1734412307.91198,968.75,969.7265625,851.5625,969.7265625,0.0
1734412307.9158702,969.23828125,968.75,874.51171875,969.7265625,0.0
1734412307.9197605,969.23828125,971.6796875,835.44921875,969.7265625,0.0
1734412307.9236507,969.23828125,964.35546875,735.3515625,969.7265625,0.0
1734412307.927541,969.23828125,949.21875,728.515625,969.7265625,0.0
1734412307.9314313,969.23828125,966.30859375,848.6328125,969.7265625,0.0
1734412307.9354324,969.23828125,970.703125,885.25390625,969.7265625,0.0
1734412307.9393227,969.23828125,971.19140625,806.640625,969.7265625,0.0
1734412307.943213,968.75,957.03125,663.57421875,969.7265625,0.0
1734412307.9471033,968.75,941.89453125,691.89453125,969.7265625,0.0
1734412307.9509935,969.23828125,970.703125,831.0546875,969.7265625,0.0
1734412307.9548838,968.75,942.87109375,834.47265625,969.7265625,0.0
1734412307.958774,968.75,-987.79296875,693.84765625,969.7265625,0.0
1734412307.9626644,969.23828125,812.5,580.078125,969.7265625,0.0
1734412307.9665546,969.23828125,120.60546875,551.7578125,969.7265625,0.0
1734412307.970445,969.23828125,478.02734375,646.97265625,969.7265625,0.0
1734412307.9743352,967.28515625,-995.60546875,812.98828125,969.7265625,0.0
1734412307.9782255,971.6796875,-997.0703125,715.33203125,969.7265625,0.0
1734412307.9823346,966.30859375,173.828125,398.4375,969.7265625,0.0
1734412307.9862251,942.3828125,-1000.0,264.6484375,969.7265625,0.0
1734412307.9901154,973.14453125,-405.76171875,485.3515625,969.7265625,0.0
1734412307.9940057,930.6640625,929.6875,759.27734375,970.21484375,0.0
1734412307.997896,991.69921875,951.66015625,651.3671875,969.7265625,0.0
1734412308.0017865,987.3046875,-212.890625,172.8515625,969.7265625,0.0
1734412308.0056767,-534.1796875,-1000.0,-162.109375,969.7265625,0.0
1734412308.009567,-232.91015625,-910.64453125,197.265625,969.7265625,0.0
1734412308.0134573,-937.01171875,366.69921875,635.25390625,969.7265625,0.0
1734412308.0173478,-979.00390625,600.5859375,443.84765625,969.7265625,0.0
1734412308.021238,719.23828125,-651.85546875,170.41015625,969.7265625,0.0
1734412308.0251284,-886.71875,-974.12109375,-28.80859375,970.21484375,0.0
1734412308.0292263,-302.24609375,-1000.0,80.078125,969.7265625,0.0
1734412308.0331168,-970.703125,-178.22265625,499.51171875,969.7265625,0.0
1734412308.037007,-936.03515625,977.05078125,586.9140625,969.7265625,0.0
1734412308.0408976,330.078125,-191.89453125,105.95703125,969.7265625,0.0
1734412308.044788,-1000.0,-1000.0,-480.46875,969.7265625,0.0
1734412308.0486784,-679.6875,-1000.0,-377.44140625,969.7265625,0.0
1734412308.0525687,737.3046875,-533.69140625,293.45703125,970.21484375,0.0
1734412308.0564592,-831.0546875,653.3203125,621.09375,969.7265625,0.0
1734412308.0603495,128.90625,-236.328125,-54.6875,969.7265625,0.0
1734412308.06424,-995.60546875,-1000.0,-710.9375,970.21484375,0.0
1734412308.0681303,-1000.0,-1000.0,-435.546875,972.65625,0.0
1734412308.0720208,-208.49609375,-784.1796875,137.20703125,894.53125,0.0
1734412308.076233,-829.1015625,-432.6171875,391.6015625,-819.82421875,0.0
1734412308.0801234,47.36328125,-858.3984375,-92.28515625,97.65625,0.0
1734412308.0840137,-1000.0,-1000.0,-614.74609375,-478.02734375,0.0
1734412308.0879042,-1000.0,-979.4921875,-677.734375,915.52734375,0.0
1734412308.0917947,-821.2890625,-1000.0,-420.8984375,-954.1015625,0.0
1734412308.0956852,-53.7109375,-1000.0,31.73828125,857.91015625,0.0
1734412308.0995758,-771.484375,-1000.0,-409.1796875,-341.30859375,0.0
1734412308.103466,-1000.0,-1000.0,-1000.0,-1000.0,0.0
1734412308.1073565,-938.96484375,-1000.0,-1000.0,-395.99609375,0.0
1734412308.111247,-1000.0,-1000.0,-780.2734375,-904.78515625,0.0
1734412308.1151376,-1000.0,-1000.0,-359.375,178.7109375,0.0
1734412308.119028,-1000.0,-1000.0,-606.93359375,-1000.0,0.0
1734412308.1230867,-1000.0,-1000.0,-983.3984375,-968.26171875,0.0
1734412308.1269772,-1000.0,-1000.0,-981.93359375,-992.67578125,0.0
1734412308.1308677,-1000.0,-1000.0,-846.6796875,-859.86328125,0.0
1734412308.1347582,-1000.0,-1000.0,-567.87109375,-894.04296875,0.0
1734412308.1386487,-1000.0,-1000.0,-697.75390625,-1000.0,0.0
1734412308.1425393,-1000.0,-1000.0,-980.46875,-990.72265625,0.0
1734412308.1464295,-1000.0,-1000.0,-978.515625,-1000.0,0.0
1734412308.15032,-1000.0,-1000.0,-998.046875,-1000.0,0.0
1734412308.1542106,-1000.0,-1000.0,-656.25,-1000.0,0.0
1734412308.158101,-1000.0,-1000.0,-509.765625,-1000.0,0.0
1734412308.1619916,-1000.0,-1000.0,-907.71484375,-1000.0,0.0
1734412308.165882,-1000.0,-1000.0,-1000.0,-1000.0,0.0
1734412308.1699247,-1000.0,-1000.0,-912.59765625,-1000.0,0.0
1734412308.1738153,-1000.0,-1000.0,-388.18359375,-1000.0,0.0
1734412308.177706,-1000.0,-1000.0,-273.4375,-1000.0,0.0
1734412308.1815965,-1000.0,-1000.0,-777.34375,-993.1640625,0.0
1734412308.185487,-1000.0,-1000.0,-961.9140625,-1000.0,0.0
1734412308.1893775,-1000.0,-1000.0,-925.78125,-962.890625,0.0
1734412308.193268,-1000.0,-1000.0,-525.390625,-898.92578125,0.0
1734412308.1971586,-1000.0,-1000.0,-495.1171875,-1000.0,0.0
1734412308.201049,-1000.0,-1000.0,-894.53125,-975.09765625,0.0
1734412308.2049396,-1000.0,-1000.0,-934.08203125,-1000.0,0.0
1734412308.2088304,-1000.0,-1000.0,-965.8203125,-854.4921875,0.0
1734412308.2127209,-1000.0,-1000.0,-639.6484375,-522.4609375,0.0
1734412308.2168856,-1000.0,-1000.0,-445.80078125,-950.1953125,0.0
1734412308.2207763,-1000.0,-1000.0,-873.046875,-1000.0,0.0
1734412308.2246668,-1000.0,-1000.0,-1000.0,-973.6328125,0.0
1734412308.2285573,-1000.0,-1000.0,-983.88671875,-1000.0,0.0
1734412308.232448,-1000.0,-1000.0,-999.51171875,-1000.0,0.0
1734412308.2363386,-1000.0,-1000.0,-1000.0,-1000.0,0.0
1734412308.2402294,-1000.0,-1000.0,-1000.0,-1000.0,0.0
1734412308.24412,-1000.0,-1000.0,-1000.0,-1000.0,0.0
1734412308.2480104,-1000.0,-1000.0,-1000.0,-1000.0,0.0
1734412308.2519011,-1000.0,-1000.0,-1000.0,-1000.0,0.0
1734412308.2557917,-1000.0,-1000.0,-1000.0,-1000.0,0.0
1734412308.2596824,-1000.0,-1000.0,-1000.0,-1000.0,0.0
1734412308.2636888,-1000.0,-1000.0,-1000.0,-1000.0,0.0
1734412308.2675796,-1000.0,-1000.0,-1000.0,-1000.0,0.0
1734412308.27147,-1000.0,-1000.0,-1000.0,-1000.0,0.0
1734412308.2753608,-1000.0,-1000.0,-1000.0,-1000.0,0.0
1734412308.2792513,-1000.0,-1000.0,-1000.0,-1000.0,0.0
1734412308.283142,-1000.0,-1000.0,-1000.0,-1000.0,0.0
1734412308.2870326,-1000.0,-1000.0,-1000.0,-1000.0,0.0
1734412308.2909234,-1000.0,-1000.0,-1000.0,-1000.0,0.0
1734412308.2948139,-1000.0,-1000.0,-1000.0,-1000.0,0.0
1734412308.2987046,-1000.0,-1000.0,-1000.0,-1000.0,0.0
1734412308.3025954,-1000.0,-1000.0,-1000.0,-1000.0,0.0
1734412308.306486,-1000.0,-1000.0,-1000.0,-1000.0,0.0
1734412308.3104842,-1000.0,-1000.0,-1000.0,-1000.0,0.0
1734412308.3143747,-1000.0,-1000.0,-1000.0,-1000.0,0.0
1734412308.3182654,-1000.0,-1000.0,-1000.0,-1000.0,0.0
1734412308.3221562,-1000.0,-1000.0,-1000.0,-1000.0,0.0
1734412308.3260467,-1000.0,-1000.0,-1000.0,-1000.0,0.0
1734412308.3299375,-1000.0,-1000.0,-1000.0,-1000.0,0.0
1734412308.3338282,-1000.0,-1000.0,-1000.0,-1000.0,0.0
1734412308.3377187,-1000.0,-1000.0,-1000.0,-1000.0,0.0
1734412308.3416095,-1000.0,-1000.0,-1000.0,-1000.0,0.0
1734412308.3455,-1000.0,-1000.0,-1000.0,-1000.0,0.0
1734412308.3493907,-1000.0,-1000.0,-1000.0,-1000.0,0.0
1734412308.3532815,-1000.0,-1000.0,-1000.0,-1000.0,0.0
1734412308.357393,-1000.0,-1000.0,-1000.0,-1000.0,0.0
1734412308.3612838,-1000.0,-1000.0,-1000.0,-1000.0,0.0
1734412308.3651745,-1000.0,-1000.0,-1000.0,-1000.0,0.0
1734412308.3690653,-1000.0,-1000.0,-993.65234375,-1000.0,0.0
1734412308.372956,-1000.0,-1000.0,-1000.0,-1000.0,0.0
1734412308.3768468,-1000.0,-1000.0,-921.875,-1000.0,0.0
1734412308.3807375,-1000.0,-1000.0,-825.1953125,-1000.0,0.0
1734412308.3846283,-1000.0,-1000.0,-941.40625,-1000.0,0.0
1734412308.3885188,-1000.0,-946.2890625,-1000.0,-1000.0,0.0
1734412308.3924096,-1000.0,-1000.0,-990.234375,-1000.0,0.0
1734412308.3963003,-1000.0,-611.81640625,-475.5859375,-1000.0,0.0
1734412308.400191,-1000.0,709.9609375,80.56640625,-1000.0,0.0
1734412308.4042797,-1000.0,-7.8125,-455.078125,-1000.0,0.0
1734412308.4081705,-936.5234375,-1000.0,-1000.0,-1000.0,0.0
1734412308.4120612,-1000.0,-1000.0,-941.40625,-1000.0,0.0
1734412308.415952,-273.92578125,-96.6796875,-89.35546875,-1000.0,0.0
1734412308.4198427,-832.03125,-832.51953125,560.546875,-1000.0,0.0
1734412308.4237335,89.84375,482.91015625,-35.64453125,-1000.0,0.0
1734412308.4276242,-1000.0,-877.9296875,-885.25390625,-936.5234375,0.0
1734412308.431515,-1000.0,-1000.0,-880.37109375,-1000.0,0.0
1734412308.4354057,-71.2890625,118.65234375,38.57421875,-246.09375,0.0
1734412308.4392965,-794.43359375,-972.65625,641.11328125,987.3046875,0.0
1734412308.4431872,453.61328125,-979.98046875,469.23828125,-860.83984375,0.0
1734412308.4470782,-925.78125,-101.5625,-378.41796875,-153.3203125,0.0
1734412308.4511507,-1000.0,-1000.0,-863.28125,-370.1171875,0.0
1734412308.4550414,99.609375,232.421875,162.109375,-938.96484375,0.0
1734412308.4589324,-932.6171875,-975.5859375,841.30859375,976.07421875,0.0
1734412308.4628232,991.2109375,-935.05859375,690.4296875,935.546875,0.0
1734412308.466714,-197.265625,127.44140625,-176.26953125,977.5390625,0.0
1734412308.4706047,-1000.0,-1000.0,-895.99609375,969.7265625,0.0
1734412308.4744956,81.54296875,65.4296875,37.59765625,969.7265625,0.0
1734412308.4783864,-965.8203125,-987.79296875,828.125,969.7265625,0.0
1734412308.4822772,-935.05859375,-916.50390625,633.7890625,969.7265625,0.0
1734412308.486168,129.8828125,303.22265625,-87.890625,969.7265625,0.0
1734412308.490059,-1000.0,-1000.0,-708.0078125,969.7265625,0.0
1734412308.4939497,22.4609375,110.3515625,60.546875,969.7265625,0.0
1734412308.498003,-956.0546875,-967.7734375,777.83203125,969.7265625,0.0
1734412308.5018938,-940.91796875,-959.9609375,811.5234375,969.7265625,0.0
1734412308.5057847,237.79296875,483.3984375,188.4765625,969.7265625,0.0
1734412308.5096755,-1000.0,-1000.0,-802.24609375,969.7265625,0.0
1734412308.5135665,-185.05859375,-226.07421875,-145.5078125,969.7265625,0.0
1734412308.5174572,-990.72265625,-982.421875,784.66796875,969.7265625,0.0
1734412308.521348,-918.45703125,-937.98828125,819.82421875,969.7265625,0.0
1734412308.525239,225.5859375,473.6328125,73.2421875,969.7265625,0.0
1734412308.5291297,-1000.0,-1000.0,-950.68359375,969.7265625,0.0
1734412308.5330207,-200.1953125,-328.125,-208.984375,969.7265625,0.0
1734412308.5369115,-998.046875,991.2109375,757.8125,969.23828125,0.0
1734412308.5408025,-921.875,-974.12109375,741.2109375,970.21484375,0.0
1734412308.5448475,282.2265625,702.63671875,264.16015625,969.7265625,0.0
1734412308.5487382,-1000.0,-807.6171875,-634.27734375,969.7265625,0.0
1734412308.5526292,-338.8671875,-565.4296875,-483.3984375,969.7265625,0.0
1734412308.5565202,947.265625,873.53515625,544.43359375,971.6796875,0.0
1734412308.560411,-911.62109375,-940.91796875,849.12109375,941.40625,0.0
1734412308.564302,433.59375,701.66015625,349.12109375,-939.94140625,0.0
1734412308.5681927,-1000.0,-617.67578125,-634.765625,578.61328125,0.0
1734412308.5720837,-760.25390625,-1000.0,-905.76171875,451.66015625,0.0
1734412308.5759745,653.3203125,151.3671875,151.3671875,-996.09375,0.0
1734412308.5798655,-843.26171875,-889.6484375,893.5546875,929.6875,0.0
1734412308.5837564,506.8359375,809.5703125,449.21875,-922.36328125,0.0
1734412308.5876472,-893.06640625,-465.8203125,-551.26953125,-22.4609375,0.0
1734412308.5916734,-1000.0,-1000.0,-860.3515625,-1000.0,0.0
1734412308.5955644,262.20703125,132.8125,212.890625,26.3671875,0.0
1734412308.5994554,-847.16796875,-952.1484375,840.8203125,-891.6015625,0.0
1734412308.603346,723.14453125,985.3515625,582.03125,886.23046875,0.0
1734412308.607237,-600.5859375,-84.47265625,-309.08203125,-312.01171875,0.0
1734412308.611128,-1000.0,-1000.0,-1000.0,-1000.0,0.0
1734412308.6150188,14.6484375,-144.04296875,-69.82421875,-461.9140625,0.0
1734412308.6189098,-926.7578125,-992.67578125,740.72265625,-953.61328125,0.0
1734412308.6228008,947.265625,-935.05859375,667.96875,579.58984375,0.0
1734412308.6266918,-264.16015625,89.84375,-191.40625,-904.296875,0.0
1734412308.6305826,-1000.0,-1000.0,-1000.0,-1000.0,0.0
1734412308.6344736,-162.109375,-229.4921875,-159.66796875,-1000.0,0.0
1734412308.638607,-994.62890625,990.234375,775.390625,-332.51953125,0.0
1734412308.642498,-947.75390625,-922.8515625,739.2578125,-291.9921875,0.0
1734412308.646389,-59.5703125,123.046875,-142.578125,-1000.0,0.0
1734412308.65028,-1000.0,-1000.0,-1000.0,-987.79296875,0.0
1734412308.654171,-174.8046875,-285.64453125,-230.95703125,-987.79296875,0.0
1734412308.658062,995.1171875,967.7734375,737.3046875,-1000.0,0.0
1734412308.661953,-923.33984375,-916.50390625,585.44921875,-1000.0,0.0
1734412308.6658437,105.95703125,153.80859375,-194.82421875,-1000.0,0.0
1734412308.6697347,-1000.0,-1000.0,-979.00390625,-1000.0,0.0
1734412308.6736257,-231.4453125,-482.91015625,-446.2890625,-1000.0,0.0
1734412308.6775167,979.00390625,820.3125,557.6171875,-1000.0,0.0
1734412308.6814077,-911.62109375,-870.1171875,825.1953125,-1000.0,0.0
1734412308.6854,213.37890625,272.4609375,95.703125,-1000.0,0.0
1734412308.689291,-1000.0,-1000.0,-949.70703125,-1000.0,0.0
1734412308.693182,-405.76171875,-820.3125,-640.13671875,-1000.0,0.0
1734412308.697073,867.67578125,477.05078125,419.921875,-1000.0,0.0
1734412308.700964,-877.9296875,-815.4296875,875.9765625,-1000.0,0.0
1734412308.704855,207.51953125,334.47265625,101.07421875,-1000.0,0.0
1734412308.708746,-1000.0,-1000.0,-1000.0,-1000.0,0.0
1734412308.712637,-687.01171875,-917.48046875,-740.234375,-1000.0,0.0
1734412308.716528,693.84765625,391.11328125,430.17578125,-1000.0,0.0
1734412308.720419,-833.49609375,-854.4921875,788.57421875,-1000.0,0.0
1734412308.72431,304.6875,623.53515625,242.67578125,-1000.0,0.0
1734412308.728201,-1000.0,-714.84375,-679.6875,-1000.0,0.0
1734412308.7323086,-896.97265625,-1000.0,-830.56640625,-1000.0,0.0
1734412308.7361999,440.91796875,190.4296875,272.94921875,-1000.0,0.0
1734412308.7400908,-803.7109375,-904.296875,860.83984375,-1000.0,0.0
1734412308.7439818,447.75390625,812.5,512.20703125,-1000.0,0.0
1734412308.7478728,-904.296875,-424.31640625,-490.234375,-1000.0,0.0
1734412308.751764,-1000.0,-1000.0,-991.2109375,-1000.0,0.0
1734412308.755655,130.859375,-43.45703125,59.5703125,-1000.0,0.0
1734412308.759546,-827.63671875,-931.15234375,835.9375,-1000.0,0.0
1734412308.7634373,664.0625,895.5078125,536.62109375,-1000.0,0.0
1734412308.7673283,-673.828125,-298.828125,-423.828125,-1000.0,0.0
1734412308.7712193,-1000.0,-1000.0,-1000.0,-1000.0,0.0
1734412308.7751102,-59.5703125,-139.16015625,-12.20703125,-1000.0,0.0
1734412308.7791977,-925.78125,-995.1171875,816.40625,-1000.0,0.0
1734412308.7830887,914.0625,-945.3125,675.29296875,-1000.0,0.0
1734412308.78698,-338.8671875,46.875,-191.40625,-1000.0,0.0
1734412308.790871,-1000.0,-1000.0,-1000.0,-1000.0,0.0
1734412308.7947621,-172.36328125,-249.51171875,-145.01953125,-1000.0,0.0
1734412308.7986531,-998.046875,974.12109375,780.2734375,-1000.0,0.0
1734412308.8025444,-948.73046875,-917.96875,706.54296875,-1000.0,0.0
1734412308.8064353,-72.265625,152.83203125,-66.89453125,-1000.0,0.0
1734412308.8103266,-1000.0,-1000.0,-1000.0,-978.515625,0.0
1734412308.8142176,-172.36328125,-449.70703125,-503.90625,-1000.0,0.0
1734412308.8181086,992.67578125,874.0234375,685.05859375,-805.6640625,0.0
1734412308.8219998,-923.828125,-882.32421875,854.4921875,-659.66796875,0.0
1734412308.826071,130.37109375,163.57421875,4.8828125,-1000.0,0.0
1734412308.8299623,-1000.0,-1000.0,-1000.0,-931.640625,0.0
1734412308.8338535,-288.57421875,-531.25,-449.21875,-1000.0,0.0
1734412308.8377445,961.9140625,796.38671875,649.90234375,-333.0078125,0.0
1734412308.8416357,-911.1328125,-862.79296875,857.421875,791.015625,0.0
1734412308.8455267,228.02734375,243.1640625,124.0234375,-540.0390625,0.0
1734412308.849418,-1000.0,-1000.0,-974.12109375,-1000.0,0.0
1734412308.8533092,-521.97265625,-842.7734375,-671.38671875,-1000.0,0.0
1734412308.8572001,861.81640625,460.9375,392.578125,-279.296875,0.0
1734412308.8610914,-872.55859375,-826.171875,849.609375,-823.2421875,0.0
1734412308.8649826,200.1953125,448.73046875,330.56640625,123.046875,0.0
1734412308.8688736,-1000.0,-924.8046875,-795.8984375,-1000.0,0.0
1734412308.8729348,-719.7265625,-983.88671875,-766.11328125,-1000.0,0.0
1734412308.876826,650.87890625,320.80078125,415.0390625,-263.18359375,0.0
1734412308.880717,-825.68359375,-834.47265625,931.640625,-825.68359375,0.0
1734412308.8846083,319.82421875,551.7578125,388.18359375,251.46484375,0.0
1734412308.8884995,-1000.0,-777.34375,-716.796875,-1000.0,0.0
1734412308.8923907,-944.3359375,-1000.0,-861.328125,-1000.0,0.0
1734412308.896282,372.55859375,85.9375,322.75390625,-257.8125,0.0
1734412308.9001732,-802.24609375,-919.43359375,851.07421875,-851.5625,0.0
1734412308.9040642,495.60546875,858.3984375,503.41796875,523.92578125,0.0
1734412308.9079554,-874.51171875,-365.72265625,-394.04296875,-846.19140625,0.0
1734412308.9118466,-1000.0,-1000.0,-896.97265625,-1000.0,0.0
1734412308.9157379,132.8125,-18.06640625,144.53125,-265.625,0.0
1734412308.919777,-866.69921875,-971.19140625,840.8203125,-937.98828125,0.0
1734412308.9236681,798.828125,-978.515625,713.37890625,802.734375,0.0
1734412308.9275594,-499.0234375,-33.69140625,-211.42578125,-528.3203125,0.0
1734412308.9314506,-1000.0,-1000.0,-1000.0,-1000.0,0.0
1734412308.9353418,-25.390625,-161.62109375,19.53125,-320.3125,0.0
1734412308.939233,-959.9609375,-992.67578125,853.515625,935.05859375,0.0
1734412308.9431243,-979.98046875,-931.15234375,764.16015625,-929.19921875,0.0
1734412308.9470155,-111.81640625,87.40234375,-175.78125,-33.69140625,0.0
1734412308.9509068,-1000.0,-1000.0,-1000.0,-1000.0,0.0
1734412308.954798,-148.92578125,-181.640625,-3.41796875,-395.99609375,0.0
1734412308.9586892,989.74609375,994.62890625,820.3125,891.11328125,0.0
1734412308.9625804,-916.50390625,-917.48046875,832.51953125,-880.859375,0.0
1734412308.9666092,166.9921875,255.37109375,129.39453125,205.56640625,0.0
1734412308.9705007,-1000.0,-1000.0,-872.0703125,-1000.0,0.0
1734412308.974392,-194.3359375,-259.765625,-86.9140625,-414.0625,0.0
1734412308.9782832,-999.51171875,980.46875,811.5234375,906.73828125,0.0
1734412308.9821744,-914.55078125,-917.96875,879.8828125,-888.18359375,0.0
1734412308.9860656,224.12109375,334.9609375,231.4453125,292.96875,0.0
1734412308.9899569,-1000.0,-1000.0,-929.19921875,-1000.0,0.0
1734412308.993848,-198.73046875,-442.87109375,-430.17578125,-540.0390625,0.0
1734412308.9977393,-1000.0,898.4375,724.609375,826.66015625,0.0
1734412309.0016305,-914.55078125,-902.83203125,934.08203125,-873.53515625,0.0
1734412309.0055218,304.6875,522.94921875,274.90234375,510.7421875,0.0
1734412309.009413,-1000.0,-1000.0,-637.20703125,-1000.0,0.0
1734412309.0134242,-203.125,-332.51953125,-57.12890625,-346.6796875,0.0
1734412309.0173154,999.51171875,-983.3984375,786.62109375,983.88671875,0.0
1734412309.0212066,-928.7109375,970.21484375,751.46484375,-923.828125,0.0
1734412309.0250978,521.97265625,896.97265625,456.54296875,432.12890625,0.0
1734412309.0289893,-1000.0,-495.60546875,-252.9296875,-1000.0,0.0
1734412309.0328805,-244.140625,-555.6640625,-219.23828125,-482.91015625,0.0
1734412309.0367718,-960.44921875,926.26953125,545.8984375,865.72265625,0.0
1734412309.040663,985.3515625,963.8671875,753.90625,-910.15625,0.0
1734412309.0445542,879.39453125,-955.078125,626.46484375,515.13671875,0.0
1734412309.0484457,-682.12890625,-180.17578125,-122.0703125,-889.6484375,0.0
1734412309.052337,-323.2421875,-601.07421875,-266.11328125,-888.671875,0.0
1734412309.0562282,-917.48046875,888.18359375,624.0234375,446.77734375,0.0
1734412309.0602245,919.43359375,971.19140625,839.84375,-849.609375,0.0
1734412309.0641158,-916.50390625,-918.45703125,632.32421875,122.0703125,0.0
1734412309.068007,-315.4296875,-91.30859375,-57.6171875,-965.8203125,0.0
1734412309.0718985,-365.72265625,-644.04296875,-204.1015625,-1000.0,0.0
1734412309.0757897,-908.69140625,846.19140625,623.046875,-253.41796875,0.0
1734412309.079681,894.04296875,965.33203125,787.109375,-892.578125,0.0
1734412309.0835724,-857.91015625,-917.48046875,636.23046875,69.82421875,0.0
1734412309.0874636,-20.5078125,281.25,194.82421875,-1000.0,0.0
1734412309.0913548,-426.7578125,-521.484375,-96.6796875,-1000.0,0.0
1734412309.0952463,-975.09765625,715.33203125,511.23046875,-686.03515625,0.0
1734412309.0991375,916.50390625,993.1640625,809.5703125,201.171875,0.0
1734412309.1030288,-873.53515625,-947.75390625,753.90625,-585.44921875,0.0
1734412309.1071308,128.41796875,418.45703125,270.01953125,-1000.0,0.0
1734412309.1110222,-865.234375,-934.5703125,-356.93359375,-962.40234375,0.0
1734412309.1149135,645.5078125,112.79296875,263.18359375,-977.5390625,0.0
1734412309.118805,-973.14453125,-959.9609375,821.2890625,-857.91015625,0.0
1734412309.1226962,-960.9375,-948.2421875,761.71875,-969.23828125,0.0
1734412309.1265876,259.765625,263.671875,157.2265625,-1000.0,0.0
1734412309.1304789,-1000.0,-1000.0,-596.19140625,-991.69921875,0.0
1734412309.1343703,-144.04296875,-275.390625,16.6015625,-1000.0,0.0
1734412309.1382616,-980.46875,966.796875,761.71875,-1000.0,0.0
1734412309.142153,-924.31640625,-928.7109375,669.921875,-1000.0,0.0
1734412309.1460445,228.515625,430.17578125,236.328125,-1000.0,0.0
1734412309.1499357,-1000.0,-1000.0,-493.1640625,-1000.0,0.0
1734412309.1540236,-206.0546875,-573.73046875,-195.80078125,-1000.0,0.0
1734412309.157915,-997.55859375,791.015625,635.25390625,-1000.0,0.0
1734412309.1618066,-922.36328125,-878.90625,759.27734375,-1000.0,0.0
1734412309.165698,217.28515625,414.0625,328.61328125,-1000.0,0.0
1734412309.1695893,-1000.0,-929.6875,-594.23828125,-1000.0,0.0
1734412309.1734807,-449.21875,-971.19140625,-611.328125,-1000.0,0.0
1734412309.1773722,838.37890625,257.8125,335.44921875,-1000.0,0.0
1734412309.1812634,-863.76953125,-812.01171875,778.3203125,-1000.0,0.0
1734412309.185155,206.0546875,337.40234375,188.96484375,-1000.0,0.0
1734412309.1890464,-1000.0,-970.21484375,-827.63671875,-1000.0,0.0
1734412309.1929379,-928.22265625,-1000.0,-661.1328125,-1000.0,0.0
1734412309.196829,367.67578125,45.8984375,328.61328125,-1000.0,0.0
1734412309.2009041,-779.296875,-858.3984375,634.765625,-1000.0,0.0
1734412309.2047956,273.4375,599.609375,350.5859375,-1000.0,0.0
1734412309.208687,-963.8671875,-681.15234375,-424.8046875,-1000.0,0.0
1734412309.2125785,-1000.0,-1000.0,-872.55859375,-1000.0,0.0
1734412309.21647,-83.984375,-335.44921875,2.44140625,-1000.0,0.0
1734412309.2203615,-801.26953125,-946.77734375,662.109375,-1000.0,0.0
1734412309.224253,434.08203125,678.22265625,347.16796875,-1000.0,0.0
1734412309.2281442,-898.92578125,-665.0390625,-468.26171875,-1000.0,0.0
1734412309.2320356,-1000.0,-1000.0,-1000.0,-1000.0,0.0
1734412309.235927,-229.98046875,-306.640625,-212.890625,-1000.0,0.0
1734412309.2398186,-902.34375,-999.0234375,685.546875,-1000.0,0.0
1734412309.24371,743.65234375,893.06640625,545.8984375,-1000.0,0.0
1734412309.2477694,-629.8828125,-345.703125,-224.609375,-1000.0,0.0
1734412309.2516608,-1000.0,-1000.0,-938.96484375,-1000.0,0.0
1734412309.2555523,-179.19921875,-359.86328125,-131.34765625,-1000.0,0.0
1734412309.2594438,-993.65234375,904.78515625,654.296875,-1000.0,0.0
1734412309.2633352,-971.19140625,-919.921875,608.88671875,-1000.0,0.0
1734412309.2672267,-152.34375,-12.20703125,-78.125,-1000.0,0.0
1734412309.2711184,-1000.0,-1000.0,-936.03515625,-1000.0,0.0
1734412309.2750099,-163.0859375,-641.11328125,-347.65625,-1000.0,0.0
1734412309.2789013,984.375,544.43359375,523.92578125,-1000.0,0.0
1734412309.2827928,-916.015625,-853.02734375,731.4453125,-1000.0,0.0
1734412309.2866843,164.0625,213.37890625,150.390625,-1000.0,0.0
1734412309.2905757,-1000.0,-1000.0,-780.2734375,-1000.0,0.0
1734412309.2946157,-217.7734375,-525.390625,-289.55078125,-1000.0,0.0
1734412309.2985075,992.1875,794.921875,637.20703125,-1000.0,0.0
1734412309.302399,-913.57421875,-869.140625,762.20703125,-1000.0,0.0
1734412309.3062904,226.07421875,289.55078125,281.73828125,-1000.0,0.0
1734412309.3101819,-1000.0,-1000.0,-581.0546875,-1000.0,0.0
1734412309.3140733,-251.953125,-710.9375,-438.96484375,-1000.0,0.0
1734412309.317965,972.16796875,644.04296875,505.859375,-1000.0,0.0
1734412309.3218565,-914.0625,-937.01171875,657.71484375,-1000.0,0.0
1734412309.325748,493.65234375,822.75390625,380.37109375,-1000.0,0.0
1734412309.3296394,-1000.0,-546.875,-195.80078125,-1000.0,0.0
1734412309.333531,-249.51171875,-619.140625,-210.9375,-1000.0,0.0
1734412309.3374226,-927.734375,864.74609375,592.28515625,-1000.0,0.0
1734412309.3414443,913.57421875,971.6796875,798.828125,-1000.0,0.0
1734412309.3453357,-907.2265625,-940.91796875,633.7890625,-1000.0,0.0
1734412309.3492272,-164.0625,-35.15625,-19.04296875,-1000.0,0.0
1734412309.3531187,-132.32421875,-311.5234375,-87.40234375,-1000.0,0.0
1734412309.3570104,-867.1875,997.0703125,666.50390625,-1000.0,0.0
1734412309.3609018,935.05859375,998.53515625,754.8828125,-1000.0,0.0
1734412309.3647933,955.078125,957.03125,519.04296875,-1000.0,0.0
1734412309.368685,971.6796875,292.48046875,153.3203125,-1000.0,0.0
1734412309.3725765,969.23828125,446.77734375,315.4296875,-1000.0,0.0
1734412309.376468,969.7265625,-941.89453125,776.85546875,-1000.0,0.0
1734412309.3803596,969.23828125,944.82421875,721.19140625,-1000.0,0.0
1734412309.384251,969.23828125,966.30859375,585.44921875,-1000.0,0.0
1734412309.388385,969.23828125,965.33203125,436.03515625,-1000.0,0.0
1734412309.3922768,969.23828125,967.7734375,464.84375,-1000.0,0.0
1734412309.3961682,969.7265625,970.703125,749.51171875,-1000.0,0.0
1734412309.40006,969.23828125,967.28515625,807.6171875,-1000.0,0.0
1734412309.4039516,968.75,978.02734375,689.453125,-1000.0,0.0
1734412309.407843,969.23828125,929.6875,435.05859375,-1000.0,0.0
1734412309.4117348,969.23828125,918.45703125,269.53125,-1000.0,0.0
1734412309.4156263,969.23828125,972.65625,588.37890625,-1000.0,0.0
1734412309.419518,969.23828125,970.21484375,846.19140625,-1000.0,0.0
1734412309.4234095,969.23828125,970.21484375,738.28125,-1000.0,0.0
1734412309.4273012,969.23828125,949.70703125,476.5625,-1000.0,0.0
1734412309.4311926,969.23828125,950.68359375,395.99609375,-1000.0,0.0
1734412309.4351902,969.23828125,971.6796875,675.78125,-1000.0,0.0
1734412309.439082,969.23828125,968.26171875,832.51953125,-1000.0,0.0
1734412309.4429736,969.23828125,972.16796875,784.66796875,-1000.0,0.0
1734412309.446865,969.23828125,967.28515625,601.5625,-1000.0,0.0
1734412309.4507568,969.23828125,932.6171875,333.49609375,-1000.0,0.0
1734412309.4546485,969.23828125,958.984375,487.3046875,-1000.0,0.0
1734412309.45854,969.23828125,967.7734375,800.29296875,-1000.0,0.0
1734412309.4624317,969.23828125,948.2421875,832.51953125,-1000.0,0.0
1734412309.4663234,969.23828125,-966.796875,635.7421875,-1000.0,0.0
1734412309.4702148,969.23828125,296.38671875,78.125,-1000.0,0.0
1734412309.4741066,969.23828125,199.70703125,163.57421875,-1000.0,0.0
1734412309.4779983,969.23828125,-985.83984375,823.2421875,-1000.0,0.0
1734412309.4820955,969.23828125,961.9140625,860.3515625,-1000.0,0.0
1734412309.4859872,969.23828125,997.0703125,602.05078125,-1000.0,0.0
1734412309.489879,969.23828125,365.234375,164.55078125,-1000.0,0.0
1734412309.4937706,969.7265625,351.5625,278.80859375,-1000.0,0.0
1734412309.497662,963.8671875,-972.65625,784.1796875,-1000.0,0.0
1734412309.5015538,933.59375,912.59765625,776.3671875,-1000.0,0.0
1734412309.5054455,-876.46484375,-876.953125,662.59765625,-1000.0,0.0
1734412309.5093372,126.46484375,22.4609375,35.15625,-1000.0,0.0
1734412309.513229,110.83984375,-372.55859375,-99.12109375,-1000.0,0.0
1734412309.5171206,-881.34765625,952.1484375,677.24609375,-1000.0,0.0
1734412309.5210123,873.53515625,943.359375,834.9609375,-1000.0,0.0
1734412309.5249038,-836.42578125,-901.3671875,777.83203125,-1000.0,0.0
