timestamps,TP9,AF7,AF8,TP10,Right AUX
1734412309.5328774,-291.015625,-847.65625,-443.359375,-1000.0,0.0
1734412309.5367692,-942.3828125,604.4921875,483.88671875,-1000.0,0.0
1734412309.5406609,908.203125,-978.515625,876.953125,-1000.0,0.0
1734412309.5445526,-854.4921875,-953.61328125,788.57421875,-1000.0,0.0
1734412309.5484443,59.08203125,41.9921875,50.29296875,-1000.0,0.0
1734412309.552336,-468.75,-1000.0,-542.48046875,-1000.0,0.0
1734412309.5562277,987.3046875,271.484375,405.2734375,-1000.0,0.0
1734412309.5601194,933.59375,-981.93359375,847.16796875,-1000.0,0.0
1734412309.564011,-879.39453125,-937.98828125,737.3046875,-1000.0,0.0
1734412309.5679028,125.9765625,259.27734375,218.26171875,-1000.0,0.0
1734412309.5717945,-852.05078125,-1000.0,-499.0234375,-1000.0,0.0
1734412309.5758553,663.57421875,-65.91796875,146.97265625,-1000.0,0.0
1734412309.5797472,-978.02734375,-977.5390625,812.5,-1000.0,0.0
1734412309.583639,-946.2890625,-936.5234375,849.12109375,-1000.0,0.0
1734412309.5875306,236.81640625,239.74609375,202.63671875,-1000.0,0.0
1734412309.5914223,-1000.0,-1000.0,-729.00390625,-1000.0,0.0
1734412309.595314,72.75390625,-311.03515625,-67.3828125,-1000.0,0.0
1734412309.599206,-940.4296875,961.42578125,775.390625,-1000.0,0.0
1734412309.6030977,-949.21875,-905.2734375,846.19140625,-1000.0,0.0
1734412309.6069894,242.1875,208.49609375,105.46875,-1000.0,0.0
1734412309.610881,-1000.0,-1000.0,-833.984375,-1000.0,0.0
1734412309.6147728,-175.78125,-368.1640625,-69.82421875,-1000.0,0.0
1734412309.6186647,-994.62890625,912.109375,768.06640625,-1000.0,0.0
1734412309.622721,-917.96875,-906.25,767.08984375,-1000.0,0.0
1734412309.6266127,315.91796875,414.0625,337.890625,-1000.0,0.0
1734412309.6305044,-1000.0,-994.140625,-553.22265625,-1000.0,0.0
1734412309.6343963,-209.47265625,-808.59375,-350.09765625,-1000.0,0.0
1734412309.638288,-996.58203125,500.48828125,585.9375,-1000.0,0.0
1734412309.6421797,-931.15234375,-836.9140625,778.3203125,-1000.0,0.0
1734412309.6460717,398.92578125,364.2578125,308.10546875,-1000.0,0.0
1734412309.6499634,-1000.0,-978.515625,-710.44921875,-1000.0,0.0
1734412309.653855,-496.58203125,-974.12109375,-737.79296875,-1000.0,0.0
1734412309.657747,888.671875,245.1171875,440.4296875,-1000.0,0.0
1734412309.6616387,-889.16015625,-821.2890625,827.1484375,-1000.0,0.0
1734412309.6655304,430.17578125,386.23046875,304.19921875,-1000.0,0.0
1734412309.6695628,-1000.0,-908.203125,-573.73046875,-1000.0,0.0
1734412309.6734548,-833.49609375,-1000.0,-685.546875,-1000.0,0.0
1734412309.6773465,566.40625,-32.71484375,276.3671875,-1000.0,0.0
1734412309.6812384,-823.2421875,-863.76953125,706.0546875,-1000.0,0.0
1734412309.6851301,468.26171875,606.93359375,406.25,-1000.0,0.0
1734412309.689022,-881.8359375,-700.1953125,-450.68359375,-1000.0,0.0
1734412309.6929138,-1000.0,-1000.0,-895.5078125,-1000.0,0.0
1734412309.6968055,85.9375,-708.49609375,-99.609375,-1000.0,0.0
1734412309.7006974,-810.546875,638.18359375,592.7734375,-1000.0,0.0
1734412309.7045891,574.70703125,752.9296875,467.7734375,-1000.0,0.0
1734412309.708481,-763.671875,-637.6953125,-385.7421875,-1000.0,0.0
1734412309.7123728,-1000.0,-1000.0,-921.875,-1000.0,0.0
1734412309.7163916,-191.89453125,-410.15625,-56.15234375,-1000.0,0.0
1734412309.7202835,-892.08984375,976.07421875,676.26953125,-1000.0,0.0
1734412309.7241752,724.609375,761.71875,458.984375,-1000.0,0.0
1734412309.7280672,-672.8515625,-595.703125,-327.63671875,-1000.0,0.0
1734412309.7319589,-1000.0,-1000.0,-937.01171875,-1000.0,0.0
1734412309.7358508,-116.2109375,-807.12890625,-295.41015625,-1000.0,0.0
1734412309.7397428,-944.3359375,395.01953125,426.7578125,-1000.0,0.0
1734412309.7436345,844.23828125,562.5,449.21875,-1000.0,0.0
1734412309.7475264,-461.42578125,-634.765625,-176.7578125,-1000.0,0.0
1734412309.751418,-1000.0,-1000.0,-915.52734375,-1000.0,0.0
1734412309.75531,-413.0859375,-999.51171875,-498.53515625,-1000.0,0.0
1734412309.759202,924.8046875,185.05859375,352.5390625,-1000.0,0.0
1734412309.7632084,-971.19140625,-968.26171875,554.19921875,-1000.0,0.0
1734412309.7671,-220.703125,-254.39453125,-200.1953125,-1000.0,0.0
1734412309.770992,-1000.0,-1000.0,-960.44921875,-1000.0,0.0
1734412309.774884,-544.921875,-921.875,-527.34375,-1000.0,0.0
1734412309.7787757,801.7578125,223.6328125,346.19140625,-1000.0,0.0
1734412309.7826676,-873.046875,-875.48828125,576.66015625,-1000.0,0.0
1734412309.7865596,13.671875,-31.25,-175.78125,-1000.0,0.0
1734412309.7904513,-1000.0,-1000.0,-999.51171875,-1000.0,0.0
1734412309.7943432,-677.24609375,-926.26953125,-571.2890625,-1000.0,0.0
1734412309.7982352,672.8515625,187.5,290.52734375,-1000.0,0.0
1734412309.8021271,-829.58984375,-823.73046875,566.89453125,-1000.0,0.0
1734412309.8060188,181.15234375,318.84765625,142.08984375,-1000.0,0.0
1734412309.8100166,-1000.0,-968.26171875,-662.59765625,-1000.0,0.0
1734412309.8139083,-825.1953125,-1000.0,-676.26953125,-1000.0,0.0
1734412309.8178003,526.85546875,20.99609375,170.8984375,-1000.0,0.0
1734412309.8216922,-806.15234375,-875.48828125,602.5390625,-1000.0,0.0
1734412309.8255842,184.5703125,545.8984375,215.8203125,-1000.0,0.0
1734412309.829476,-1000.0,-819.3359375,-680.17578125,-1000.0,0.0
1734412309.8333678,-939.453125,-1000.0,-850.5859375,-1000.0,0.0
1734412309.8372598,335.9375,198.73046875,200.1953125,-1000.0,0.0
1734412309.8411517,-785.15625,-905.76171875,657.71484375,-1000.0,0.0
1734412309.8450437,368.1640625,762.6953125,229.00390625,-1000.0,0.0
1734412309.8489356,-954.58984375,-498.046875,-533.203125,-1000.0,0.0
1734412309.8528275,-1000.0,-1000.0,-739.74609375,-1000.0,0.0
1734412309.8569283,134.27734375,243.65234375,134.27734375,-1000.0,0.0
1734412309.8608203,-817.3828125,-988.76953125,519.53125,-1000.0,0.0
1734412309.8647122,619.62890625,-955.078125,344.23828125,-1000.0,0.0
1734412309.8686042,-731.4453125,76.66015625,-159.66796875,-1000.0,0.0
1734412309.8724961,-1000.0,-1000.0,-675.29296875,-1000.0,0.0
1734412309.876388,-6.8359375,146.484375,-105.95703125,-1000.0,0.0
1734412309.88028,-919.921875,998.046875,445.3125,-1000.0,0.0
1734412309.884172,922.36328125,-935.546875,379.39453125,-1000.0,0.0
1734412309.888064,-356.4453125,338.8671875,-166.015625,-1000.0,0.0
1734412309.8919559,-1000.0,-614.2578125,-625.9765625,-1000.0,0.0
1734412309.8958478,16.6015625,453.61328125,87.40234375,-1000.0,0.0
1734412309.8997397,-819.82421875,-910.64453125,590.8203125,-1000.0,0.0
1734412309.903822,657.71484375,920.41015625,244.140625,-1000.0,0.0
1734412309.907714,-937.98828125,805.6640625,-191.40625,-1000.0,0.0
1734412309.911606,-273.92578125,878.41796875,5.859375,-1000.0,0.0
1734412309.915498,-965.8203125,994.140625,541.9921875,-1000.0,0.0
1734412309.91939,-964.35546875,957.51953125,524.4140625,-1000.0,0.0
1734412309.923282,651.3671875,989.74609375,183.10546875,-1000.0,0.0
1734412309.9271739,-928.22265625,809.5703125,-219.7265625,-1000.0,0.0
1734412309.9310658,-274.4140625,843.75,-29.78515625,-1000.0,0.0
1734412309.934958,-945.80078125,992.67578125,434.5703125,-1000.0,0.0
1734412309.93885,967.7734375,946.2890625,500.0,-1000.0,0.0
1734412309.9427419,918.9453125,-989.74609375,250.9765625,-1000.0,0.0
1734412309.9466338,-578.61328125,625.0,-173.33984375,-1000.0,0.0
1734412309.950698,-326.171875,458.0078125,-158.203125,-1000.0,0.0
1734412309.9545898,-918.9453125,923.828125,375.48828125,-1000.0,0.0
1734412309.958482,921.38671875,966.30859375,642.578125,-1000.0,0.0
1734412309.962374,-919.921875,-994.140625,352.05078125,-1000.0,0.0
1734412309.966266,-271.484375,3.90625,-132.8125,-1000.0,0.0
1734412309.970158,-334.9609375,-558.10546875,-217.28515625,-1000.0,0.0
1734412309.97405,-940.4296875,608.88671875,333.49609375,-1000.0,0.0
1734412309.977942,957.03125,-846.6796875,677.24609375,-1000.0,0.0
1734412309.9818342,-993.1640625,355.95703125,97.65625,-982.421875,0.0
1734412309.985726,-426.26953125,-948.73046875,-464.84375,-958.49609375,0.0
1734412309.989618,-400.87890625,-749.51171875,-33.69140625,-1000.0,0.0
1734412309.9935102,-959.9609375,491.2109375,440.4296875,188.4765625,0.0
1734412309.9975615,947.75390625,-935.546875,596.6796875,529.296875,0.0
1734412310.0014534,-963.37890625,542.48046875,319.3359375,-955.56640625,0.0
1734412310.0053456,-403.80859375,-602.05078125,-193.84765625,-1000.0,0.0
1734412310.0092375,-634.27734375,-1000.0,-271.97265625,-767.578125,0.0
1734412310.0131297,948.73046875,-91.30859375,298.828125,559.08203125,0.0
1734412310.0170217,968.75,-898.4375,657.2265625,-848.6328125,0.0
1734412310.0209138,-943.84765625,573.2421875,476.5625,-50.78125,0.0
1734412310.0248058,-277.34375,-631.34765625,-168.45703125,-1000.0,0.0
1734412310.028698,-787.109375,-1000.0,-420.41015625,-553.7109375,0.0
1734412310.03259,804.6875,-177.734375,332.51953125,778.3203125,0.0
1734412310.036482,-966.30859375,-849.609375,799.31640625,-853.02734375,0.0
1734412310.040374,953.61328125,288.0859375,334.9609375,234.86328125,0.0
1734412310.0444114,-283.69140625,-979.98046875,-416.015625,-1000.0,0.0
1734412310.0483036,-1000.0,-1000.0,-403.80859375,-700.68359375,0.0
1734412310.0521958,250.0,-596.6796875,202.63671875,665.52734375,0.0
1734412310.0560877,-915.52734375,805.6640625,667.48046875,-843.75,0.0
1734412310.05998,966.796875,532.71484375,510.25390625,459.47265625,0.0
1734412310.063872,-162.59765625,-875.0,-168.45703125,-978.515625,0.0
1734412310.067764,-1000.0,-978.515625,-581.0546875,-879.39453125,0.0
1734412310.0716562,-164.0625,-1000.0,-295.41015625,519.04296875,0.0
1734412310.0755482,-960.44921875,-188.4765625,329.1015625,-866.69921875,0.0
1734412310.0794404,988.76953125,447.265625,577.63671875,681.640625,0.0
1734412310.0833325,-221.6796875,-818.84765625,-131.34765625,-682.6171875,0.0
1734412310.0872245,-1000.0,-1000.0,-678.7109375,-1000.0,0.0
1734412310.0913558,-224.609375,-1000.0,-154.78515625,248.53515625,0.0
1734412310.095248,-965.33203125,-61.5234375,542.48046875,-911.1328125,0.0
1734412310.0991402,949.70703125,223.14453125,471.6796875,924.31640625,0.0
1734412310.1030324,-318.84765625,-980.46875,-245.60546875,-323.73046875,0.0
1734412310.1069245,-1000.0,-1000.0,-709.47265625,-1000.0,0.0
1734412310.1108167,-452.1484375,-1000.0,-477.05078125,193.359375,0.0
1734412310.114709,842.28515625,-626.953125,186.03515625,-979.4921875,0.0
1734412310.1186008,-935.05859375,-516.6015625,464.84375,-934.08203125,0.0
1734412310.122493,-224.609375,-1000.0,-145.99609375,116.69921875,0.0
1734412310.1263852,-1000.0,-950.1953125,-724.609375,-1000.0,0.0
1734412310.1302774,-854.4921875,-1000.0,-549.31640625,77.63671875,0.0
1734412310.1341696,456.54296875,-386.71875,161.1328125,-959.47265625,0.0
1734412310.1381733,-823.73046875,481.4453125,570.80078125,-928.22265625,0.0
1734412310.1420655,-166.50390625,-553.22265625,-54.19921875,285.64453125,0.0
1734412310.1459577,-1000.0,-1000.0,-782.2265625,-1000.0,0.0
1734412310.14985,-1000.0,-1000.0,-612.3046875,57.6171875,0.0
1734412310.153742,-39.55078125,-710.9375,102.05078125,-941.89453125,0.0
1734412310.1576343,-832.51953125,-401.3671875,477.5390625,-986.81640625,0.0
1734412310.1615264,-190.91796875,-940.91796875,-131.8359375,710.9375,0.0
1734412310.1654186,-1000.0,-1000.0,-805.17578125,-841.30859375,0.0
1734412310.1693108,-1000.0,-1000.0,-672.8515625,-62.98828125,0.0
1734412310.173203,-216.30859375,-885.7421875,-35.15625,-895.5078125,0.0
1734412310.1770952,-938.96484375,-790.0390625,315.4296875,932.6171875,0.0
1734412310.1809874,-330.078125,-1000.0,-195.3125,977.5390625,0.0
1734412310.1849773,-1000.0,-978.02734375,-763.18359375,-497.55859375,0.0
1734412310.1888695,-1000.0,-1000.0,-800.78125,-251.46484375,0.0
1734412310.1927617,-688.96484375,-895.5078125,-235.3515625,-896.97265625,0.0
1734412310.1966538,784.66796875,18.06640625,481.4453125,906.73828125,0.0
1734412310.200546,-208.49609375,-292.48046875,121.58203125,-898.4375,0.0
1734412310.2044382,-1000.0,-1000.0,-780.2734375,-196.77734375,0.0
1734412310.2083304,-901.85546875,-1000.0,-930.6640625,-285.15625,0.0
1734412310.2122226,-1000.0,-877.9296875,-347.16796875,-917.48046875,0.0
1734412310.2161148,-191.40625,373.046875,384.765625,913.0859375,0.0
1734412310.220007,-280.76171875,144.04296875,63.96484375,-884.765625,0.0
1734412310.2238991,-1000.0,-1000.0,-791.50390625,-180.17578125,0.0
1734412310.2277913,-959.47265625,-1000.0,-869.62890625,-449.70703125,0.0
1734412310.2318857,0.0,-789.0625,-536.62109375,999.51171875,0.0
1734412310.2357779,0.0,436.03515625,96.19140625,985.3515625,0.0
1734412310.23967,0.0,600.09765625,-30.76171875,958.49609375,0.0
1734412310.2435625,0.0,-691.89453125,-785.15625,-371.58203125,0.0
1734412310.2474546,0.0,-1000.0,-966.796875,-1000.0,0.0
1734412310.2513468,0.0,-962.40234375,-830.078125,406.25,0.0
1734412310.255239,0.0,195.80078125,-311.03515625,-813.4765625,0.0
1734412310.2591314,0.0,941.40625,-237.79296875,555.6640625,0.0
1734412310.2630236,0.0,-306.640625,-818.359375,-742.67578125,0.0
1734412310.2669158,0.0,-1000.0,-1000.0,-1000.0,0.0
1734412310.270808,0.0,-860.83984375,-907.71484375,-224.12109375,0.0
1734412310.2747002,0.0,330.078125,-515.13671875,-834.47265625,0.0
1734412310.2787788,-1000.0,962.40234375,-407.2265625,184.5703125,0.0
1734412310.282671,-1000.0,-335.44921875,-875.9765625,-1000.0,0.0
1734412310.2865634,-1000.0,-1000.0,-1000.0,-989.2578125,0.0
1734412310.2904556,-1000.0,-1000.0,-951.66015625,-1000.0,0.0
1734412310.2943478,-1000.0,-103.515625,-750.48828125,-475.09765625,0.0
1734412310.2982402,-1000.0,677.24609375,-708.0078125,-669.921875,0.0
1734412310.3021324,-1000.0,-436.03515625,-935.546875,-1000.0,0.0
1734412310.3060248,-1000.0,-1000.0,-995.60546875,-966.30859375,0.0
1734412310.309917,-1000.0,-1000.0,-1000.0,-1000.0,0.0
1734412310.3138092,-1000.0,-650.390625,-907.2265625,-1000.0,0.0
1734412310.3177016,-1000.0,618.65234375,-699.70703125,-1000.0,0.0
1734412310.3215938,-1000.0,-130.37109375,-908.203125,-1000.0,0.0
1734412310.325771,-1000.0,-1000.0,-1000.0,-1000.0,0.0
1734412310.3296633,-1000.0,-1000.0,-1000.0,-1000.0,0.0
1734412310.3335557,-1000.0,-592.28515625,-925.29296875,-1000.0,0.0
1734412310.3374481,-1000.0,590.33203125,-811.03515625,-1000.0,0.0
1734412310.3413403,-1000.0,-194.3359375,-946.77734375,-1000.0,0.0
1734412310.3452327,-1000.0,-1000.0,-1000.0,-1000.0,0.0
1734412310.3491251,-1000.0,-1000.0,-1000.0,-1000.0,0.0
1734412310.3530173,-1000.0,-749.0234375,-979.4921875,-1000.0,0.0
1734412310.3569098,-1000.0,-251.46484375,-962.40234375,-1000.0,0.0
1734412310.3608022,-1000.0,-759.765625,-1000.0,-1000.0,0.0
1734412310.3646944,-1000.0,-1000.0,-1000.0,-1000.0,0.0
1734412310.3685868,-1000.0,-1000.0,-999.51171875,-1000.0,0.0
1734412310.3726287,-1000.0,-875.9765625,-998.53515625,-1000.0,0.0
1734412310.376521,-1000.0,61.03515625,-973.14453125,-1000.0,0.0
1734412310.3804135,-1000.0,-235.3515625,-975.09765625,-1000.0,0.0
1734412310.384306,-1000.0,-1000.0,-1000.0,-1000.0,0.0
1734412310.3881981,-1000.0,-982.421875,-1000.0,-1000.0,0.0
1734412310.3920906,-1000.0,-985.3515625,-999.51171875,-1000.0,0.0
1734412310.395983,-1000.0,-1000.0,-1000.0,-1000.0,0.0
1734412310.3998754,-1000.0,-1000.0,-1000.0,-1000.0,0.0
1734412310.4037678,-1000.0,-1000.0,-1000.0,-1000.0,0.0
1734412310.40766,-1000.0,-1000.0,-1000.0,-1000.0,0.0
1734412310.4115524,-1000.0,-1000.0,-1000.0,-1000.0,0.0
1734412310.4154449,-1000.0,-1000.0,-1000.0,-1000.0,0.0
1734412310.4194744,-1000.0,-1000.0,-1000.0,-1000.0,0.0
1734412310.4233668,-1000.0,-1000.0,-1000.0,-1000.0,0.0
1734412310.4272592,-1000.0,-976.5625,-1000.0,-1000.0,0.0
1734412310.4311516,-1000.0,-1000.0,-1000.0,-1000.0,0.0
1734412310.4350438,-1000.0,-752.9296875,-1000.0,-1000.0,0.0
1734412310.4389362,-1000.0,-499.0234375,-1000.0,-1000.0,0.0
1734412310.4428287,-1000.0,-914.55078125,-1000.0,-1000.0,0.0
1734412310.446721,-1000.0,-1000.0,-996.58203125,-1000.0,0.0
1734412310.4506135,-1000.0,-1000.0,-1000.0,-1000.0,0.0
1734412310.454506,-1000.0,19.04296875,-967.7734375,-1000.0,0.0
1734412310.4583983,-1000.0,-960.9375,-941.40625,-1000.0,0.0
1734412310.4622908,-1000.0,-88.8671875,-1000.0,-1000.0,0.0
1734412310.466312,-1000.0,-1000.0,-1000.0,-1000.0,0.0
1734412310.4702044,-1000.0,-979.00390625,-1000.0,-1000.0,0.0
1734412310.4740968,-1000.0,-16.11328125,-957.51953125,-1000.0,0.0
1734412310.4779892,-1000.0,-930.17578125,-907.71484375,-1000.0,0.0
1734412310.4818816,-1000.0,281.25,-975.5859375,-1000.0,0.0
1734412310.485774,-1000.0,-853.02734375,-995.1171875,-1000.0,0.0
1734412310.4896665,-1000.0,-1000.0,-1000.0,-1000.0,0.0
1734412310.493559,-1000.0,-487.3046875,-952.63671875,-1000.0,0.0
1734412310.4974513,-1000.0,901.3671875,-721.19140625,-1000.0,0.0
1734412310.5013437,-1000.0,786.62109375,-833.49609375,-1000.0,0.0
1734412310.5052361,-1000.0,-510.25390625,-1000.0,-1000.0,0.0
1734412310.5091286,-1000.0,-1000.0,-980.46875,-1000.0,0.0
1734412310.5131314,-1000.0,66.89453125,-839.35546875,-1000.0,0.0
1734412310.5170238,-1000.0,-930.17578125,-537.59765625,-1000.0,0.0
1734412310.5209162,-1000.0,756.8359375,-666.50390625,-1000.0,0.0
1734412310.5248086,-1000.0,-205.56640625,-977.5390625,-1000.0,0.0
1734412310.528701,-1000.0,-791.015625,-968.75,-1000.0,0.0
1734412310.5325935,-1000.0,251.953125,-786.1328125,-1000.0,0.0
1734412310.536486,-1000.0,-950.1953125,-585.9375,-1000.0,0.0
1734412310.5403786,-1000.0,935.546875,-695.80078125,-963.37890625,0.0
1734412310.544271,-1000.0,927.24609375,-863.76953125,-1000.0,0.0
1734412310.5481634,-1000.0,921.875,-889.6484375,-985.83984375,0.0
1734412310.5520558,-1000.0,962.890625,-693.84765625,256.34765625,0.0
1734412310.5559483,-1000.0,965.8203125,-80.078125,-771.484375,0.0
1734412310.560046,-1000.0,980.95703125,-28.3203125,198.73046875,0.0
1734412310.5639384,-1000.0,937.98828125,-736.328125,-1000.0,0.0
1734412310.5678308,-1000.0,841.30859375,-876.46484375,-254.8828125,0.0
1734412310.5717235,-1000.0,942.3828125,-583.49609375,-949.70703125,0.0
1734412310.575616,-1000.0,981.93359375,23.4375,927.734375,0.0
1734412310.5795083,-1000.0,974.609375,-50.29296875,-965.33203125,0.0
1734412310.583401,-1000.0,846.6796875,-821.77734375,524.4140625,0.0
1734412310.5872934,-1000.0,797.8515625,-867.67578125,433.59375,0.0
1734412310.5911858,-1000.0,946.2890625,-579.1015625,-958.984375,0.0
1734412310.5950782,-1000.0,947.75390625,-292.96875,960.44921875,0.0
1734412310.598971,-1000.0,991.2109375,-282.71484375,960.9375,0.0
1734412310.6028633,-1000.0,824.70703125,-638.671875,970.703125,0.0
1734412310.6069484,-1000.0,-171.38671875,-906.25,969.7265625,0.0
1734412310.610841,-1000.0,-161.62109375,-745.1171875,969.7265625,0.0
1734412310.6147335,-1000.0,834.47265625,-325.68359375,970.21484375,0.0
1734412310.6186259,-1000.0,-910.64453125,-44.43359375,969.7265625,0.0
1734412310.6225185,-1000.0,490.72265625,-546.38671875,969.7265625,0.0
1734412310.626411,-1000.0,-816.40625,-994.62890625,969.7265625,0.0
1734412310.6303036,-1000.0,-911.62109375,-874.51171875,970.21484375,0.0
1734412310.634196,-1000.0,304.6875,-519.04296875,969.7265625,0.0
1734412310.6380887,-1000.0,-833.984375,-288.57421875,969.7265625,0.0
1734412310.6419811,-1000.0,227.5390625,-729.4921875,969.7265625,0.0
1734412310.6458738,-1000.0,-1000.0,-1000.0,969.7265625,0.0
1734412310.6497662,-1000.0,-625.9765625,-850.09765625,973.6328125,0.0
1734412310.6538439,-1000.0,685.546875,-584.47265625,950.1953125,0.0
1734412310.6577365,-1000.0,-987.3046875,-378.90625,-996.58203125,0.0
1734412310.6616292,-1000.0,913.0859375,-616.2109375,911.62109375,0.0
1734412310.6655216,-1000.0,138.18359375,-942.87109375,648.4375,0.0
1734412310.6694143,-1000.0,-524.90234375,-932.12890625,914.55078125,0.0
1734412310.673307,-1000.0,396.484375,-736.328125,936.03515625,0.0
1734412310.6771994,-1000.0,-1000.0,-371.58203125,-925.29296875,0.0
1734412310.681092,-1000.0,-974.609375,-485.83984375,577.1484375,0.0
1734412310.6849844,-1000.0,71.2890625,-945.3125,-946.77734375,0.0
1734412310.688877,-1000.0,-858.88671875,-946.77734375,5.37109375,0.0
1734412310.6927698,-1000.0,399.4140625,-644.04296875,-928.7109375,0.0
1734412310.6966622,-1000.0,-937.01171875,-270.99609375,-954.1015625,0.0
1734412310.7007225,-1000.0,911.1328125,-353.02734375,314.94140625,0.0
1734412310.704615,-1000.0,436.5234375,-854.98046875,-1000.0,0.0
1734412310.7085078,-1000.0,-32.2265625,-872.55859375,-263.18359375,0.0
1734412310.7124002,-1000.0,655.76171875,-580.078125,994.140625,0.0
1734412310.7162929,-1000.0,-989.2578125,-270.01953125,-922.8515625,0.0
1734412310.7201855,-1000.0,989.74609375,-330.56640625,224.609375,0.0
1734412310.7240782,-1000.0,737.3046875,-782.71484375,-1000.0,0.0
1734412310.7279708,-1000.0,221.6796875,-838.8671875,-636.71875,0.0
1734412310.7318633,-1000.0,673.828125,-740.234375,743.1640625,0.0
1734412310.735756,-1000.0,-981.4453125,-193.84765625,-841.30859375,0.0
1734412310.7396486,-1000.0,970.21484375,266.11328125,134.27734375,0.0
1734412310.7435412,-1000.0,895.99609375,-418.9453125,-1000.0,0.0
1734412310.7475886,-1000.0,714.84375,-766.6015625,-1000.0,0.0
1734412310.7514813,-1000.0,914.0625,-446.77734375,149.4140625,0.0
1734412310.755374,-1000.0,994.62890625,144.04296875,-780.2734375,0.0
1734412310.7592666,-1000.0,956.54296875,376.46484375,93.75,0.0
1734412310.7631593,-1000.0,973.6328125,-244.62890625,-1000.0,0.0
1734412310.767052,-994.62890625,968.26171875,-686.03515625,-1000.0,0.0
1734412310.7709446,-1000.0,969.23828125,-279.296875,-112.3046875,0.0
1734412310.7748373,-975.5859375,970.21484375,255.859375,-795.8984375,0.0
1734412310.77873,-917.48046875,969.7265625,398.4375,249.51171875,0.0
1734412310.7826226,-994.62890625,970.21484375,193.359375,-997.0703125,0.0
1734412310.7865152,-936.03515625,970.21484375,-274.4140625,-1000.0,0.0
1734412310.7904077,-1000.0,970.21484375,-255.859375,-174.8046875,0.0
1734412310.7944398,-218.26171875,968.75,331.54296875,-852.5390625,0.0
1734412310.7983325,-946.77734375,970.703125,666.50390625,586.9140625,0.0
1734412310.802225,-331.0546875,973.14453125,393.5546875,-764.16015625,0.0
1734412310.8061178,-1000.0,924.8046875,-127.44140625,-1000.0,0.0
1734412310.8100104,-1000.0,945.3125,-22.94921875,-145.5078125,0.0
1734412310.813903,-265.625,968.26171875,474.12109375,-984.86328125,0.0
1734412310.8177958,-816.40625,991.69921875,691.40625,-983.3984375,0.0
1734412310.8216884,172.36328125,884.27734375,265.625,-112.3046875,0.0
1734412310.825581,-1000.0,811.03515625,-126.953125,-1000.0,0.0
1734412310.8294737,-1000.0,962.890625,273.4375,-161.1328125,0.0
1734412310.8333666,-202.63671875,973.6328125,526.85546875,-1000.0,0.0
1734412310.8372593,-815.4296875,949.21875,690.91796875,-929.6875,0.0
1734412310.8412774,351.07421875,-991.2109375,592.28515625,97.65625,0.0
1734412310.84517,-961.9140625,813.4765625,275.87890625,-1000.0,0.0
1734412310.8490627,-1000.0,594.23828125,208.49609375,-221.6796875,0.0
1734412310.8529553,-187.01171875,896.97265625,458.984375,998.046875,0.0
1734412310.856848,-896.484375,951.171875,729.00390625,-933.59375,0.0
1734412310.8607407,767.578125,-947.75390625,595.21484375,115.72265625,0.0
1734412310.8646336,-586.42578125,488.76953125,139.6484375,-1000.0,0.0
1734412310.8685262,-1000.0,-417.48046875,-167.96875,-498.046875,0.0
1734412310.8724189,-138.671875,487.79296875,331.54296875,855.46875,0.0
1734412310.8763115,-991.69921875,-937.98828125,764.6484375,-880.37109375,0.0
1734412310.8802042,-961.42578125,933.59375,532.71484375,56.640625,0.0
1734412310.8840969,-90.33203125,589.84375,202.1484375,-1000.0,0.0
1734412310.888095,-1000.0,-21.97265625,145.5078125,-944.82421875,0.0
1734412310.8919878,-158.203125,525.390625,401.85546875,323.73046875,0.0
1734412310.8958805,990.234375,998.53515625,592.28515625,-805.6640625,0.0
1734412310.8997731,-916.50390625,-993.65234375,607.91015625,-31.73828125,0.0
1734412310.9036658,168.9453125,666.015625,273.92578125,-1000.0,0.0
1734412310.9075587,-1000.0,-400.390625,-164.0625,-1000.0,0.0
1734412310.9114513,-194.82421875,-42.96875,94.23828125,-91.796875,0.0
1734412310.915344,-1000.0,916.015625,519.04296875,-810.05859375,0.0
1734412310.9192367,-915.0390625,-978.02734375,637.6953125,11.23046875,0.0
1734412310.9231296,224.12109375,771.97265625,299.8046875,-1000.0,0.0
1734412310.9270222,-1000.0,-443.359375,-248.53515625,-1000.0,0.0
1734412310.9309149,-201.171875,-63.4765625,96.6796875,-243.1640625,0.0
1734412310.9348996,-997.0703125,-948.2421875,623.046875,-835.9375,0.0
1734412310.9387922,-926.7578125,979.98046875,598.14453125,43.9453125,0.0
1734412310.942685,266.6015625,691.40625,266.11328125,-1000.0,0.0
1734412310.9465778,-1000.0,-281.73828125,-83.984375,-1000.0,0.0
1734412310.9504704,-455.078125,-131.8359375,119.140625,-448.73046875,0.0
1734412310.954363,894.53125,874.51171875,468.75,-919.921875,0.0
1734412310.958256,-886.23046875,-981.4453125,526.85546875,102.05078125,0.0
1734412310.9621487,315.91796875,755.859375,311.5234375,-1000.0,0.0
1734412310.9660413,-1000.0,-193.84765625,-51.26953125,-1000.0,0.0
1734412310.9699342,-728.515625,-574.70703125,-54.19921875,-677.734375,0.0
1734412310.973827,657.2265625,448.2421875,387.20703125,915.0390625,0.0
1734412310.9777195,-841.796875,-951.171875,676.26953125,206.0546875,0.0
1734412310.981694,475.09765625,890.13671875,449.70703125,-1000.0,0.0
1734412310.9855866,-959.47265625,-298.828125,-74.70703125,-1000.0,0.0
1734412310.9894793,-935.05859375,-792.96875,-53.7109375,-843.26171875,0.0
1734412310.9933722,450.1953125,494.140625,462.890625,728.02734375,0.0
1734412310.9972649,-843.75,-901.85546875,672.8515625,365.72265625,0.0
1734412311.0011578,624.51171875,578.125,359.375,-1000.0,0.0
1734412311.0050504,-739.74609375,-625.9765625,-205.56640625,-1000.0,0.0
1734412311.008943,-1000.0,-929.6875,-162.59765625,-864.2578125,0.0
1734412311.012836,210.44921875,316.40625,372.0703125,602.05078125,0.0
1734412311.0167286,-925.78125,-968.75,625.0,813.4765625,0.0
1734412311.0206215,974.609375,938.4765625,522.4609375,-664.55078125,0.0
1734412311.0245142,-191.40625,181.15234375,236.81640625,-1000.0,0.0
1734412311.0285835,-1000.0,-796.38671875,125.9765625,-774.90234375,0.0
1734412311.0324762,21.97265625,67.87109375,401.3671875,510.7421875,0.0
1734412311.036369,-967.7734375,-987.79296875,723.6328125,-828.125,0.0
1734412311.040262,-944.82421875,-986.328125,700.68359375,37.109375,0.0
1734412311.0441546,84.47265625,153.80859375,298.828125,-1000.0,0.0
1734412311.0480475,-1000.0,-1000.0,64.453125,-740.234375,0.0
1734412311.0519402,-112.79296875,-100.09765625,442.87109375,580.56640625,0.0
1734412311.055833,-992.1875,-938.4765625,797.36328125,-822.265625,0.0
1734412311.0597258,-904.78515625,922.36328125,707.51953125,291.50390625,0.0
1734412311.0636187,177.24609375,-50.78125,387.20703125,-1000.0,0.0
1734412311.0675116,-1000.0,-694.82421875,407.71484375,-654.296875,0.0
1734412311.0714042,47.8515625,239.74609375,624.51171875,792.96875,0.0
1734412311.0754638,992.1875,960.9375,760.7421875,-965.33203125,0.0
1734412311.0793567,-926.7578125,-991.2109375,834.47265625,928.22265625,0.0
1734412311.0832493,401.3671875,637.20703125,688.96484375,-485.83984375,0.0
1734412311.0871422,-1000.0,-491.69921875,574.21875,-658.203125,0.0
1734412311.0910351,-195.3125,-279.296875,697.265625,933.59375,0.0
1734412311.094928,-968.26171875,852.5390625,838.37890625,937.01171875,0.0
1734412311.0988207,996.58203125,-950.68359375,854.98046875,-878.41796875,0.0
1734412311.1027136,834.9609375,635.7421875,773.4375,157.2265625,0.0
1734412311.1066065,-734.375,-682.12890625,602.05078125,-356.93359375,0.0
1734412311.1104991,-308.10546875,-403.3203125,724.12109375,999.51171875,0.0
1734412311.114392,-897.94921875,960.44921875,896.97265625,-993.65234375,0.0
1734412311.118285,886.23046875,998.53515625,874.0234375,924.31640625,0.0
1734412311.1223238,-867.67578125,794.43359375,838.37890625,979.4921875,0.0
1734412311.1262167,-42.48046875,-9.765625,818.84765625,969.7265625,0.0
1734412311.1301095,-305.17578125,-53.22265625,849.12109375,969.7265625,0.0
1734412311.1340022,-925.78125,864.74609375,889.16015625,969.7265625,0.0
1734412311.137895,960.44921875,-987.3046875,911.1328125,969.7265625,0.0
1734412311.141788,959.9609375,897.94921875,899.90234375,969.7265625,0.0
1734412311.145681,929.6875,343.26171875,892.578125,969.7265625,0.0
1734412311.1495738,801.26953125,191.40625,910.15625,969.7265625,0.0
1734412311.1534667,951.171875,807.6171875,939.453125,969.7265625,0.0
1734412311.1573594,984.375,996.58203125,967.28515625,969.7265625,0.0
1734412311.1612523,959.47265625,950.1953125,970.703125,969.7265625,0.0
1734412311.1651452,971.19140625,966.30859375,968.75,969.7265625,0.0
1734412311.1691732,968.75,967.7734375,970.21484375,969.7265625,0.0
1734412311.1730661,969.23828125,970.703125,969.7265625,969.7265625,0.0
1734412311.176959,969.23828125,969.23828125,969.7265625,969.7265625,0.0
1734412311.180852,969.23828125,969.7265625,969.7265625,969.7265625,0.0
1734412311.1847448,968.75,970.21484375,969.7265625,969.7265625,0.0
1734412311.1886377,968.75,969.7265625,969.7265625,969.7265625,0.0
1734412311.1925306,969.23828125,969.7265625,969.7265625,969.7265625,0.0
1734412311.1964235,969.23828125,969.7265625,969.7265625,969.7265625,0.0
1734412311.2003164,969.23828125,969.7265625,969.7265625,969.7265625,0.0
1734412311.2042093,969.23828125,970.21484375,970.21484375,969.23828125,0.0
1734412311.208102,968.75,968.26171875,969.7265625,969.23828125,0.0
1734412311.211995,969.23828125,971.19140625,969.7265625,969.7265625,0.0
1734412311.216011,969.23828125,951.66015625,969.7265625,969.7265625,0.0
1734412311.219904,969.23828125,992.67578125,969.7265625,969.7265625,0.0
1734412311.2237968,969.23828125,908.69140625,969.7265625,969.7265625,0.0
1734412311.22769,969.23828125,378.41796875,969.7265625,969.7265625,0.0
1734412311.2315829,969.23828125,563.96484375,970.21484375,969.23828125,0.0
1734412311.2354758,969.23828125,996.58203125,969.7265625,969.7265625,0.0
1734412311.2393687,969.23828125,-991.69921875,969.23828125,970.21484375,0.0
1734412311.2432616,969.23828125,282.71484375,970.21484375,969.7265625,0.0
1734412311.2471545,969.23828125,-821.77734375,967.28515625,969.7265625,0.0
1734412311.2510474,969.23828125,-668.45703125,961.42578125,969.7265625,0.0
1734412311.2549403,968.75,484.86328125,961.42578125,969.7265625,0.0
1734412311.2588332,968.75,-871.58203125,959.9609375,969.7265625,0.0
1734412311.2628393,969.23828125,358.3984375,945.80078125,969.7265625,0.0
1734412311.2667325,969.23828125,-873.046875,927.24609375,969.7265625,0.0
1734412311.2706254,969.23828125,-1000.0,921.875,969.7265625,0.0
1734412311.2745183,969.23828125,127.9296875,936.5234375,969.7265625,0.0
1734412311.2784111,968.75,-881.8359375,942.3828125,969.7265625,0.0
1734412311.282304,969.23828125,70.3125,927.24609375,969.7265625,0.0
1734412311.286197,969.23828125,-1000.0,909.66796875,969.7265625,0.0
1734412311.29009,969.23828125,-1000.0,915.52734375,969.7265625,0.0
1734412311.293983,969.23828125,24.90234375,935.546875,969.7265625,0.0
1734412311.297876,969.23828125,-880.37109375,944.3359375,969.7265625,0.0
1734412311.3017688,968.75,413.0859375,936.03515625,969.7265625,0.0
1734412311.3056617,968.75,-759.27734375,925.78125,970.21484375,0.0
1734412311.309651,969.23828125,-1000.0,927.734375,970.21484375,0.0
1734412311.3135438,969.23828125,-244.62890625,939.94140625,969.7265625,0.0
1734412311.3174367,968.75,-997.55859375,949.21875,969.7265625,0.0
1734412311.3213298,969.23828125,734.375,945.3125,969.7265625,0.0
1734412311.3252227,968.75,-427.24609375,939.453125,969.7265625,0.0
1734412311.3291156,968.75,-1000.0,934.08203125,969.7265625,0.0
1734412311.3330085,969.23828125,-417.96875,937.98828125,969.7265625,0.0
1734412311.3369017,969.23828125,898.92578125,957.51953125,969.7265625,0.0
1734412311.3407946,969.23828125,978.515625,955.078125,969.7265625,0.0
1734412311.3446875,969.23828125,-163.57421875,936.5234375,969.7265625,0.0
1734412311.3485804,969.23828125,-1000.0,933.59375,969.7265625,0.0
1734412311.3524735,969.23828125,-108.3984375,943.359375,969.7265625,0.0
1734412311.3564546,969.23828125,-972.16796875,953.125,969.7265625,0.0
1734412311.3603475,968.75,834.9609375,945.3125,969.7265625,0.0
1734412311.3642406,968.75,-91.30859375,935.546875,969.7265625,0.0
1734412311.3681335,968.75,-1000.0,934.5703125,969.7265625,0.0
1734412311.3720264,969.23828125,-502.9296875,938.4765625,969.7265625,0.0
1734412311.3759196,969.23828125,786.1328125,949.70703125,969.7265625,0.0
1734412311.3798125,969.23828125,998.53515625,949.70703125,969.7265625,0.0
1734412311.3837054,969.23828125,212.890625,941.40625,969.7265625,0.0
1734412311.3875985,969.23828125,-921.38671875,939.94140625,969.7265625,0.0
1734412311.3914914,969.23828125,-594.7265625,948.2421875,969.7265625,0.0
1734412311.3953843,969.23828125,739.74609375,960.44921875,969.7265625,0.0
1734412311.3992774,969.23828125,-916.015625,961.9140625,969.7265625,0.0
1734412311.403343,969.23828125,97.16796875,945.3125,970.21484375,0.0
1734412311.4072359,969.23828125,-1000.0,933.10546875,970.21484375,0.0
1734412311.411129,969.23828125,-796.875,944.3359375,969.7265625,0.0
1734412311.415022,969.23828125,469.23828125,958.49609375,969.23828125,0.0
1734412311.418915,969.23828125,979.00390625,959.47265625,969.7265625,0.0
1734412311.422808,969.23828125,-275.390625,943.84765625,969.7265625,0.0
1734412311.4267008,969.23828125,-1000.0,933.10546875,969.7265625,0.0
1734412311.430594,969.23828125,-960.44921875,939.94140625,969.7265625,0.0
1734412311.4344869,968.75,-257.32421875,952.1484375,969.7265625,0.0
1734412311.43838,969.23828125,593.26171875,956.54296875,969.7265625,0.0
1734412311.442273,969.23828125,-102.5390625,951.171875,969.7265625,0.0
1734412311.446166,969.23828125,-1000.0,941.89453125,969.7265625,0.0
1734412311.4502175,969.23828125,-1000.0,940.4296875,970.21484375,0.0
1734412311.4541106,969.23828125,-376.953125,959.47265625,969.7265625,0.0
1734412311.4580035,969.23828125,643.5546875,969.23828125,969.7265625,0.0
1734412311.4618967,969.23828125,-174.8046875,957.03125,969.7265625,0.0
1734412311.4657896,969.23828125,-1000.0,946.77734375,969.7265625,0.0
1734412311.4696827,969.23828125,-1000.0,947.265625,970.21484375,0.0
1734412311.4735758,969.23828125,-609.86328125,959.9609375,969.7265625,0.0
1734412311.4774687,969.23828125,574.70703125,969.7265625,969.7265625,0.0
1734412311.4813619,969.23828125,7.8125,958.984375,969.7265625,0.0
1734412311.4852548,969.23828125,-1000.0,949.70703125,970.21484375,0.0
1734412311.489148,969.23828125,-1000.0,955.078125,970.21484375,0.0
1734412311.493041,969.23828125,-259.27734375,962.40234375,969.7265625,0.0
1734412311.497087,969.23828125,937.5,967.7734375,969.7265625,0.0
1734412311.5009801,969.23828125,790.52734375,968.75,969.7265625,0.0
1734412311.5048733,969.23828125,-291.50390625,959.9609375,969.7265625,0.0
1734412311.5087662,969.23828125,-1000.0,956.54296875,969.7265625,0.0
1734412311.5126593,968.75,-228.515625,966.796875,969.7265625,0.0
1734412311.5165524,969.23828125,989.2578125,970.21484375,969.7265625,0.0
1734412311.5204456,969.23828125,744.62890625,970.21484375,969.7265625,0.0
1734412311.5243385,969.23828125,-417.96875,960.44921875,969.7265625,0.0
1734412311.5282316,969.23828125,-1000.0,954.1015625,969.7265625,0.0
1734412311.5321248,969.23828125,-492.67578125,964.84375,969.7265625,0.0
1734412311.5360177,968.75,628.90625,970.703125,969.7265625,0.0
1734412311.5399108,969.23828125,226.5625,964.35546875,969.7265625,0.0
1734412311.5439396,969.23828125,-876.46484375,958.984375,969.7265625,0.0
1734412311.5478325,969.23828125,-1000.0,954.1015625,969.7265625,0.0
1734412311.5517256,969.23828125,-848.6328125,959.9609375,969.7265625,0.0
1734412311.5556188,969.23828125,-104.00390625,970.21484375,969.7265625,0.0
1734412311.559512,969.23828125,-56.15234375,968.75,969.7265625,0.0
1734412311.563405,969.23828125,-894.04296875,956.54296875,969.7265625,0.0
1734412311.5672982,969.23828125,-999.51171875,944.82421875,969.7265625,0.0
1734412311.5711913,969.23828125,-1000.0,945.80078125,970.21484375,0.0
1734412311.5750842,969.23828125,-484.375,959.9609375,970.21484375,0.0
1734412311.5789773,969.23828125,-42.96875,964.35546875,969.7265625,0.0
1734412311.5828705,969.23828125,-842.7734375,944.3359375,969.7265625,0.0
1734412311.5867636,968.75,-1000.0,930.17578125,969.7265625,0.0
1734412311.5907807,969.23828125,-1000.0,937.98828125,969.7265625,0.0
1734412311.5946739,969.23828125,-790.0390625,948.73046875,969.7265625,0.0
1734412311.598567,969.23828125,-735.3515625,948.2421875,969.7265625,0.0
1734412311.6024601,969.23828125,-1000.0,934.5703125,969.7265625,0.0
1734412311.6063533,969.23828125,-1000.0,922.36328125,969.7265625,0.0
1734412311.6102464,969.23828125,-1000.0,924.31640625,970.21484375,0.0
1734412311.6141393,969.23828125,-941.89453125,933.10546875,969.7265625,0.0
1734412311.6180325,969.23828125,-930.17578125,935.05859375,969.7265625,0.0
1734412311.6219256,969.23828125,-999.51171875,930.6640625,969.7265625,0.0
1734412311.6258187,969.23828125,-979.4921875,916.9921875,969.7265625,0.0
1734412311.6297119,969.23828125,-1000.0,911.1328125,970.21484375,0.0
1734412311.633605,969.23828125,-820.3125,929.19921875,969.7265625,0.0
1734412311.6376104,969.23828125,-538.0859375,938.96484375,969.7265625,0.0
1734412311.6415036,969.23828125,-877.9296875,926.26953125,970.21484375,0.0
1734412311.6453967,969.23828125,-1000.0,904.296875,969.7265625,0.0
1734412311.6492898,969.23828125,-996.58203125,903.3203125,969.23828125,0.0
1734412311.653183,968.75,-959.47265625,919.43359375,969.7265625,0.0
1734412311.6570761,969.23828125,-877.44140625,926.7578125,969.7265625,0.0
1734412311.6609693,969.23828125,-969.23828125,911.1328125,969.7265625,0.0
1734412311.6648624,968.75,-999.51171875,894.53125,969.7265625,0.0
1734412311.6687555,969.23828125,-1000.0,892.578125,969.7265625,0.0
1734412311.6726487,969.23828125,-947.265625,908.69140625,969.7265625,0.0
1734412311.676542,969.23828125,-583.0078125,920.8984375,969.7265625,0.0
1734412311.6804352,968.75,-690.91796875,915.0390625,969.7265625,0.0
1734412311.6844234,968.75,-1000.0,895.99609375,969.7265625,0.0
1734412311.6883166,969.23828125,-1000.0,883.30078125,969.7265625,0.0
1734412311.6922097,968.75,-902.83203125,892.08984375,970.703125,0.0
1734412311.6961029,968.75,-430.6640625,913.0859375,952.1484375,0.0
1734412311.699996,969.23828125,-605.95703125,915.0390625,-971.19140625,0.0
1734412311.7038891,969.23828125,-1000.0,882.8125,708.49609375,0.0
1734412311.7077823,969.23828125,-1000.0,857.91015625,649.4140625,0.0
1734412311.7116754,969.23828125,-922.8515625,886.23046875,-985.83984375,0.0
1734412311.7155688,969.23828125,-383.7890625,909.66796875,894.04296875,0.0
1734412311.719462,969.23828125,-503.41796875,904.296875,-830.078125,0.0
1734412311.723355,969.23828125,-1000.0,888.18359375,101.07421875,0.0
1734412311.7272482,969.23828125,-1000.0,875.48828125,-378.90625,0.0
1734412311.7312236,969.23828125,-915.52734375,884.765625,-998.046875,0.0
1734412311.735117,969.23828125,-429.19921875,897.4609375,935.546875,0.0
1734412311.73901,969.23828125,-197.265625,908.203125,-892.08984375,0.0
1734412311.7429032,969.23828125,-733.3984375,898.4375,70.80078125,0.0
1734412311.7467964,969.23828125,-1000.0,881.8359375,-947.265625,0.0
1734412311.7506895,969.23828125,-997.55859375,878.90625,535.15625,0.0
1734412311.754583,969.23828125,-372.0703125,897.94921875,-954.58984375,0.0
1734412311.758476,968.75,151.85546875,913.57421875,-975.5859375,0.0
1734412311.7623692,969.23828125,-530.76171875,895.5078125,100.5859375,0.0
1734412311.7662623,969.7265625,-1000.0,877.44140625,-1000.0,0.0
1734412311.7701557,969.23828125,-820.80078125,889.16015625,-144.04296875,0.0
1734412311.7740488,969.23828125,-80.56640625,910.15625,-928.22265625,0.0
1734412311.778121,969.23828125,322.75390625,916.015625,946.77734375,0.0
1734412311.7820141,969.23828125,-349.609375,905.2734375,-229.98046875,0.0
1734412311.7859073,969.23828125,-996.58203125,895.01953125,-1000.0,0.0
1734412311.7898006,969.23828125,-886.23046875,903.3203125,-386.71875,0.0
1734412311.7936938,969.23828125,-219.7265625,920.8984375,-936.03515625,0.0
1734412311.7975872,969.23828125,287.59765625,931.15234375,655.76171875,0.0
1734412311.8014803,969.23828125,-53.22265625,928.22265625,-770.99609375,0.0
1734412311.8053734,969.23828125,-747.55859375,916.015625,-1000.0,0.0
1734412311.8092668,969.23828125,-1000.0,910.15625,-1000.0,0.0
1734412311.81316,969.23828125,-537.109375,916.015625,344.23828125,0.0
1734412311.817053,969.23828125,411.62109375,931.15234375,412.59765625,0.0
1734412311.8209465,969.23828125,34.66796875,927.24609375,-1000.0,0.0
1734412311.8250031,969.23828125,-841.796875,904.296875,-980.95703125,0.0
1734412311.8288965,969.23828125,-1000.0,902.34375,-1000.0,0.0
1734412311.8327897,969.23828125,-534.1796875,917.96875,-789.55078125,0.0
1734412311.836683,969.7265625,134.765625,926.26953125,-660.15625,0.0
1734412311.8405762,969.23828125,-276.3671875,918.9453125,-1000.0,0.0
1734412311.8444695,969.23828125,-948.73046875,904.296875,-1000.0,0.0
1734412311.8483627,969.23828125,-1000.0,894.53125,-990.234375,0.0
1734412311.852256,969.23828125,-775.390625,902.34375,-1000.0,0.0
1734412311.8561492,969.23828125,-333.0078125,917.96875,-1000.0,0.0
1734412311.8600426,969.7265625,-370.1171875,921.875,-1000.0,0.0
1734412311.8639357,969.23828125,-782.71484375,907.2265625,-1000.0,0.0
1734412311.867829,969.23828125,-1000.0,891.6015625,-1000.0,0.0
1734412311.8718708,969.23828125,-849.12109375,894.04296875,-1000.0,0.0
1734412311.8757641,969.23828125,-250.9765625,917.48046875,-1000.0,0.0
1734412311.8796575,969.23828125,-287.109375,917.96875,-1000.0,0.0
1734412311.8835506,969.23828125,-872.0703125,893.5546875,-1000.0,0.0
1734412311.887444,969.23828125,-1000.0,884.27734375,-1000.0,0.0
1734412311.8913374,969.23828125,-943.359375,888.18359375,-1000.0,0.0
1734412311.8952305,969.23828125,-359.86328125,903.80859375,-1000.0,0.0
1734412311.899124,969.23828125,-225.09765625,906.73828125,-1000.0,0.0
1734412311.903017,969.23828125,-871.58203125,881.8359375,-1000.0,0.0
1734412311.9069104,969.23828125,-1000.0,874.0234375,-1000.0,0.0
1734412311.9108038,969.23828125,-875.48828125,878.41796875,-1000.0,0.0
1734412311.914697,971.6796875,-395.5078125,884.27734375,-1000.0,0.0
1734412311.9187295,958.49609375,-100.5859375,895.01953125,-1000.0,0.0
1734412311.922623,988.28125,-593.75,880.859375,-1000.0,0.0
1734412311.9265163,937.98828125,-1000.0,843.26171875,-1000.0,0.0
1734412311.9304097,810.546875,-951.66015625,831.0546875,-1000.0,0.0
1734412311.9343028,955.56640625,-387.6953125,870.1171875,-1000.0,0.0
1734412311.9381962,937.01171875,-16.6015625,890.625,-1000.0,0.0
1734412311.9420896,-930.17578125,-537.109375,859.375,-1000.0,0.0
1734412311.945983,661.1328125,-1000.0,745.60546875,-1000.0,0.0
1734412311.949876,243.65234375,-854.98046875,775.87890625,-1000.0,0.0
1734412311.9537694,958.49609375,-243.1640625,872.0703125,-1000.0,0.0
1734412311.9576628,951.66015625,141.6015625,875.0,-1000.0,0.0
1734412311.961556,-951.66015625,-361.81640625,847.65625,-1000.0,0.0
1734412311.9655726,721.19140625,-926.7578125,767.578125,-1000.0,0.0
1734412311.969466,37.59765625,-866.2109375,776.85546875,-1000.0,0.0
1734412311.9733593,844.23828125,-325.1953125,831.0546875,-1000.0,0.0
1734412311.9772527,989.74609375,185.05859375,859.86328125,-1000.0,0.0
1734412311.981146,-967.28515625,-75.68359375,851.07421875,-1000.0,0.0
1734412311.9850392,708.49609375,-784.66796875,671.38671875,-1000.0,0.0
1734412311.9889326,-459.47265625,-988.28125,555.17578125,-1000.0,0.0
1734412311.992826,486.328125,-486.328125,648.4375,-1000.0,0.0
1734412311.9967194,-943.84765625,306.15234375,805.6640625,-1000.0,0.0
1734412312.0006127,-970.703125,164.55078125,790.0390625,-1000.0,0.0
1734412312.004506,583.49609375,-628.90625,441.40625,-969.7265625,0.0
1734412312.0083992,-943.359375,-847.16796875,247.55859375,-1000.0,0.0
1734412312.012403,96.19140625,-290.0390625,447.265625,-828.61328125,0.0
1734412312.0162964,-917.96875,302.734375,596.19140625,-553.7109375,0.0
1734412312.0201898,-989.74609375,104.4921875,499.0234375,-981.93359375,0.0
1734412312.0240831,637.6953125,-548.33984375,71.2890625,-956.54296875,0.0
1734412312.0279765,-988.76953125,-829.58984375,-425.78125,-1000.0,0.0
1734412312.03187,-244.140625,-434.08203125,-370.60546875,-352.5390625,0.0
1734412312.0357633,-967.28515625,41.015625,-231.4453125,-929.6875,0.0
1734412312.0396566,-964.35546875,97.65625,-175.78125,-144.04296875,0.0
1734412312.04355,659.1796875,-239.2578125,-397.4609375,-1000.0,0.0
1734412312.0474434,-945.3125,-725.09765625,-899.4140625,-1000.0,0.0
1734412312.0513368,-298.33984375,-518.5546875,-901.3671875,-280.2734375,0.0
1734412312.05523,-982.421875,181.640625,-706.54296875,-822.265625,0.0
1734412312.0592253,-954.58984375,314.453125,-747.55859375,227.05078125,0.0
1734412312.0631187,586.42578125,-301.26953125,-969.7265625,-1000.0,0.0
1734412312.067012,-1000.0,-725.09765625,-1000.0,-1000.0,0.0
1734412312.0709054,-619.140625,-423.33984375,-993.1640625,-199.21875,0.0
1734412312.0747988,841.796875,158.203125,-1000.0,-950.68359375,0.0
1734412312.0786922,-883.30078125,240.72265625,-1000.0,926.7578125,0.0
1734412312.0825856,510.25390625,-359.375,-1000.0,-313.4765625,0.0
1734412312.0864792,-890.625,-679.6875,-1000.0,-1000.0,0.0
1734412312.0903726,-1000.0,-477.5390625,-1000.0,-81.0546875,0.0
1734412312.094266,283.203125,-62.01171875,-1000.0,983.88671875,0.0
1734412312.0981593,-798.33984375,202.1484375,-1000.0,-891.6015625,0.0
1734412312.1020527,478.02734375,-220.21484375,-1000.0,224.609375,0.0
1734412312.1060317,-826.66015625,-832.03125,-1000.0,-1000.0,0.0
1734412312.109925,-1000.0,-941.40625,-1000.0,201.171875,0.0
1734412312.1138184,-227.05078125,-451.66015625,-1000.0,-903.3203125,0.0
1734412312.117712,-834.47265625,-66.89453125,-1000.0,934.08203125,0.0
1734412312.1216054,325.1953125,-574.21875,-1000.0,965.8203125,0.0
1734412312.1254988,-961.42578125,-1000.0,-1000.0,165.0390625,0.0
1734412312.1293921,-1000.0,-1000.0,-1000.0,526.3671875,0.0
1734412312.1332855,-657.71484375,-682.6171875,-1000.0,-922.8515625,0.0
1734412312.137179,935.05859375,-180.6640625,-1000.0,895.01953125,0.0
1734412312.1410723,250.48828125,-589.84375,-1000.0,-881.8359375,0.0
1734412312.1449656,-1000.0,-1000.0,-1000.0,-176.7578125,0.0
1734412312.148859,-904.78515625,-1000.0,-1000.0,-194.3359375,0.0
1734412312.152931,-1000.0,-818.84765625,-1000.0,-959.9609375,0.0
1734412312.1568244,-192.3828125,-376.46484375,-1000.0,-959.9609375,0.0
1734412312.1607177,149.90234375,-522.4609375,-1000.0,635.7421875,0.0
1734412312.164611,-1000.0,-968.75,-1000.0,-907.2265625,0.0
1734412312.1685047,-1000.0,-1000.0,-1000.0,-794.921875,0.0
1734412312.172398,-969.23828125,-906.25,-1000.0,696.2890625,0.0
1734412312.1762915,-1000.0,-488.76953125,-1000.0,-833.984375,0.0
1734412312.1801848,-1000.0,-549.8046875,-1000.0,44.921875,0.0
1734412312.1840782,-1000.0,-979.4921875,-1000.0,-1000.0,0.0
1734412312.1879718,-1000.0,-1000.0,-1000.0,-973.6328125,0.0
1734412312.1918652,-1000.0,-1000.0,-1000.0,-979.00390625,0.0
1734412312.1957586,-1000.0,-811.03515625,-1000.0,-1000.0,0.0
1734412312.1998138,-1000.0,-799.8046875,-1000.0,-1000.0,0.0
1734412312.2037075,-1000.0,-1000.0,-1000.0,-1000.0,0.0
1734412312.2076008,-1000.0,-991.2109375,-1000.0,-1000.0,0.0
1734412312.2114944,-1000.0,-1000.0,-1000.0,-1000.0,0.0
1734412312.2153878,-1000.0,-794.43359375,-1000.0,-1000.0,0.0
1734412312.2192812,-1000.0,-607.91015625,-1000.0,-1000.0,0.0
1734412312.2231748,-1000.0,-885.25390625,-1000.0,-1000.0,0.0
1734412312.2270682,-1000.0,-1000.0,-1000.0,-1000.0,0.0
1734412312.2309616,-1000.0,-1000.0,-1000.0,-1000.0,0.0
1734412312.2348552,-1000.0,-597.65625,-1000.0,-1000.0,0.0
1734412312.2387486,-1000.0,-101.5625,-1000.0,-1000.0,0.0
1734412312.2426422,-1000.0,-615.72265625,-1000.0,-1000.0,0.0
1734412312.246684,-1000.0,-1000.0,-1000.0,-1000.0,0.0
1734412312.2505777,-1000.0,-959.9609375,-1000.0,-1000.0,0.0
1734412312.254471,-1000.0,-465.33203125,-1000.0,-1000.0,0.0
1734412312.2583644,-1000.0,-69.82421875,-1000.0,-1000.0,0.0
1734412312.262258,-1000.0,-500.0,-1000.0,-1000.0,0.0
1734412312.2661514,-1000.0,-967.7734375,-1000.0,-1000.0,0.0
1734412312.270045,-1000.0,-942.87109375,-1000.0,-1000.0,0.0
1734412312.2739384,-1000.0,-471.6796875,-1000.0,-1000.0,0.0
1734412312.277832,-1000.0,63.4765625,-1000.0,-1000.0,0.0
1734412312.2817254,-1000.0,-60.05859375,-1000.0,-1000.0,0.0
1734412312.285619,-1000.0,-615.234375,-1000.0,-1000.0,0.0
1734412312.2895124,-1000.0,-910.64453125,-1000.0,-1000.0,0.0
1734412312.2935357,-1000.0,-410.15625,-1000.0,-1000.0,0.0
1734412312.2974293,-1000.0,390.625,-1000.0,-1000.0,0.0
1734412312.301323,-1000.0,146.484375,-1000.0,-1000.0,0.0
1734412312.3052163,-1000.0,-532.71484375,-1000.0,-1000.0,0.0
1734412312.30911,-1000.0,-720.21484375,-1000.0,-1000.0,0.0
1734412312.3130033,-1000.0,-301.26953125,-1000.0,-1000.0,0.0
1734412312.316897,-1000.0,346.6796875,-1000.0,-1000.0,0.0
1734412312.3207905,-1000.0,124.0234375,-1000.0,-1000.0,0.0
1734412312.324684,-1000.0,-414.55078125,-1000.0,-1000.0,0.0
1734412312.3285775,-1000.0,-444.3359375,-1000.0,-1000.0,0.0
1734412312.332471,-1000.0,-165.0390625,-1000.0,-1000.0,0.0
1734412312.3363645,-1000.0,419.921875,-1000.0,-1000.0,0.0
1734412312.340382,-1000.0,479.4921875,-1000.0,-1000.0,0.0
1734412312.3442755,-1000.0,-91.796875,-1000.0,-1000.0,0.0
1734412312.348169,-1000.0,-541.015625,-1000.0,-1000.0,0.0
1734412312.3520627,-1000.0,-242.67578125,-1000.0,-1000.0,0.0
1734412312.355956,-1000.0,465.8203125,-1000.0,-1000.0,0.0
1734412312.3598497,-1000.0,521.97265625,-1000.0,-1000.0,0.0
1734412312.3637433,-1000.0,-75.1953125,-1000.0,-1000.0,0.0
1734412312.3676367,-1000.0,-548.828125,-1000.0,-1000.0,0.0
1734412312.3715303,-1000.0,-160.15625,-1000.0,-1000.0,0.0
1734412312.375424,-1000.0,506.34765625,-1000.0,-1000.0,0.0
1734412312.3793173,-1000.0,534.66796875,-1000.0,-1000.0,0.0
1734412312.383211,-1000.0,-8.7890625,-1000.0,-1000.0,0.0
1734412312.3872087,-1000.0,-346.19140625,-1000.0,-1000.0,0.0
1734412312.3911023,-1000.0,-207.03125,-1000.0,-1000.0,0.0
1734412312.394996,-1000.0,287.59765625,-1000.0,-1000.0,0.0
1734412312.3988895,-1000.0,610.83984375,-1000.0,-1000.0,0.0
1734412312.402783,-1000.0,166.50390625,-1000.0,-1000.0,0.0
1734412312.4066765,-1000.0,-416.015625,-1000.0,-1000.0,0.0
1734412312.4105701,-1000.0,-499.51171875,-1000.0,-1000.0,0.0
1734412312.4144638,-1000.0,117.67578125,-1000.0,-1000.0,0.0
1734412312.4183571,-1000.0,735.83984375,-1000.0,-1000.0,0.0
1734412312.4222507,-1000.0,260.25390625,-1000.0,-1000.0,0.0
1734412312.4261444,-1000.0,-340.8203125,-1000.0,-1000.0,0.0
1734412312.430038,-1000.0,-303.7109375,-1000.0,-1000.0,0.0
1734412312.4341269,-1000.0,223.14453125,-1000.0,-1000.0,0.0
1734412312.4380205,-1000.0,579.58984375,-1000.0,-1000.0,0.0
1734412312.441914,-1000.0,233.88671875,-1000.0,-1000.0,0.0
1734412312.4458075,-1000.0,-227.5390625,-1000.0,-1000.0,0.0
1734412312.449701,-996.58203125,-314.94140625,-999.51171875,-1000.0,0.0
1734412312.4535947,-1000.0,41.50390625,-1000.0,-1000.0,0.0
1734412312.4574883,-967.7734375,461.42578125,-993.65234375,-1000.0,0.0
1734412312.461382,-948.2421875,437.5,-987.79296875,-1000.0,0.0
1734412312.4652755,-1000.0,-58.59375,-1000.0,-1000.0,0.0
1734412312.4691691,-933.10546875,-367.67578125,-997.55859375,-1000.0,0.0
1734412312.4730628,-1000.0,71.2890625,-1000.0,-1000.0,0.0
1734412312.4769564,-310.546875,672.8515625,-965.33203125,-1000.0,0.0
1734412312.4810333,99.12109375,505.37109375,-945.80078125,-1000.0,0.0
1734412312.484927,-1000.0,-145.01953125,-1000.0,-1000.0,0.0
1734412312.4888206,-949.70703125,-378.41796875,-1000.0,-1000.0,0.0
1734412312.4927144,-1000.0,53.22265625,-999.51171875,-1000.0,0.0
1734412312.496608,-275.390625,556.15234375,-938.96484375,-1000.0,0.0
1734412312.5005016,180.17578125,432.6171875,-924.31640625,-1000.0,0.0
1734412312.5043952,-1000.0,-115.234375,-995.1171875,-1000.0,0.0
1734412312.5082889,-947.75390625,-384.27734375,-1000.0,-1000.0,0.0
1734412312.5121825,-1000.0,-28.3203125,-985.3515625,-1000.0,0.0
1734412312.516076,-476.5625,401.85546875,-967.7734375,-1000.0,0.0
1734412312.5199697,210.9375,504.39453125,-893.5546875,-1000.0,0.0
1734412312.5238633,-958.49609375,192.87109375,-912.109375,-1000.0,0.0
1734412312.5279315,-984.375,-279.296875,-1000.0,-1000.0,0.0
1734412312.5318253,-1000.0,-77.1484375,-994.140625,-1000.0,0.0
1734412312.535719,-315.4296875,538.57421875,-854.4921875,-1000.0,0.0
1734412312.5396125,613.76953125,687.98828125,-693.84765625,-1000.0,0.0
1734412312.5435061,-805.6640625,92.7734375,-862.3046875,-1000.0,0.0
1734412312.5474,-1000.0,-402.34375,-1000.0,-1000.0,0.0
1734412312.5512936,-1000.0,-94.7265625,-997.0703125,-1000.0,0.0
1734412312.5551872,-480.46875,544.43359375,-817.87109375,-1000.0,0.0
1734412312.5590808,753.41796875,606.93359375,-714.35546875,-1000.0,0.0
1734412312.5629745,-541.9921875,73.2421875,-932.6171875,-1000.0,0.0
1734412312.5668683,-1000.0,-157.2265625,-984.86328125,-1000.0,0.0
1734412312.570762,-1000.0,-37.109375,-960.44921875,-1000.0,0.0
1734412312.5748186,-805.17578125,352.05078125,-856.4453125,-1000.0,0.0
1734412312.5787122,746.58203125,674.8046875,-562.98828125,-1000.0,0.0
1734412312.582606,-45.8984375,359.375,-656.73828125,-1000.0,0.0
1734412312.5864997,-1000.0,-172.8515625,-965.33203125,-937.98828125,0.0
1734412312.5903933,-982.91015625,-243.65234375,-977.05078125,-1000.0,0.0
1734412312.5942872,-932.6171875,229.98046875,-884.27734375,-280.2734375,0.0
1734412312.5981808,616.69921875,672.8515625,-564.94140625,-888.671875,0.0
1734412312.6020746,177.24609375,381.34765625,-601.5625,705.078125,0.0
1734412312.6059682,-1000.0,-304.6875,-969.23828125,-40.0390625,0.0
1734412312.6098619,-990.234375,-280.2734375,-974.12109375,634.765625,0.0
1734412312.6137557,-971.19140625,404.296875,-747.55859375,-934.08203125,0.0
1734412312.6176493,553.22265625,704.1015625,-423.828125,926.26953125,0.0
1734412312.6216831,284.66796875,438.96484375,-426.7578125,975.09765625,0.0
1734412312.625577,-1000.0,-23.92578125,-772.4609375,969.7265625,0.0
1734412312.6294706,-941.89453125,-166.015625,-862.3046875,969.7265625,0.0
1734412312.6333644,-1000.0,160.15625,-711.9140625,969.7265625,0.0
1734412312.637258,223.14453125,588.37890625,-143.06640625,969.7265625,0.0
1734412312.6411517,390.13671875,446.2890625,89.35546875,969.7265625,0.0
1734412312.6450455,-1000.0,-22.4609375,-484.375,969.7265625,0.0
1734412312.6489391,-948.2421875,-254.39453125,-840.8203125,970.21484375,0.0
1734412312.652833,-1000.0,-9.27734375,-780.2734375,969.7265625,0.0
1734412312.6567266,105.95703125,700.1953125,-92.7734375,969.7265625,0.0
1734412312.6606205,631.34765625,668.9453125,304.6875,969.7265625,0.0
1734412312.664514,-950.1953125,-34.1796875,-269.53125,970.21484375,0.0
1734412312.668543,-988.76953125,-325.1953125,-714.35546875,969.23828125,0.0
1734412312.6724367,-1000.0,51.26953125,-483.3984375,969.7265625,0.0
1734412312.6763306,-120.1171875,530.2734375,13.18359375,969.7265625,0.0
1734412312.6802244,971.19140625,498.53515625,300.78125,969.7265625,0.0
1734412312.684118,-513.18359375,18.06640625,-144.04296875,970.21484375,0.0
1734412312.688012,-1000.0,-359.86328125,-657.2265625,969.7265625,0.0
1734412312.6919055,-1000.0,-111.81640625,-485.3515625,969.7265625,0.0
1734412312.6957994,-250.9765625,303.22265625,-273.92578125,969.7265625,0.0
1734412312.6996932,-853.515625,513.671875,145.5078125,969.7265625,0.0
1734412312.7035868,-103.515625,281.73828125,247.0703125,970.21484375,0.0
1734412312.7074807,-1000.0,-250.48828125,-365.72265625,969.7265625,0.0
1734412312.7113743,-1000.0,-161.62109375,-454.1015625,970.21484375,0.0
1734412312.7153888,-272.4609375,424.8046875,91.30859375,970.21484375,0.0
1734412312.7192824,-824.70703125,680.17578125,522.94921875,969.7265625,0.0
1734412312.7231762,144.04296875,175.78125,219.7265625,969.7265625,0.0
1734412312.72707,-1000.0,-319.82421875,-330.078125,969.7265625,0.0
1734412312.7309637,-1000.0,-200.68359375,-427.24609375,970.21484375,0.0
1734412312.7348576,-257.32421875,287.109375,-53.22265625,969.7265625,0.0
1734412312.7387514,-827.1484375,593.26171875,443.359375,969.7265625,0.0
1734412312.742645,168.45703125,206.0546875,201.171875,969.7265625,0.0
1734412312.7465389,-1000.0,-92.28515625,-253.41796875,969.7265625,0.0
1734412312.7504327,-1000.0,-44.43359375,-318.84765625,969.7265625,0.0
1734412312.7543263,-317.87109375,294.921875,-21.484375,969.7265625,0.0
1734412312.7582202,-848.6328125,743.1640625,442.87109375,970.21484375,0.0
1734412312.7622159,357.91015625,529.296875,472.16796875,970.21484375,0.0
1734412312.7661097,-958.49609375,-56.15234375,-27.83203125,970.21484375,0.0
1734412312.7700036,-1000.0,-208.984375,-358.88671875,969.7265625,0.0
1734412312.7738974,-407.2265625,279.296875,61.03515625,969.7265625,0.0
1734412312.777791,-943.84765625,803.7109375,524.4140625,969.7265625,0.0
1734412312.7816849,668.45703125,563.96484375,518.5546875,969.7265625,0.0
1734412312.7855787,-729.00390625,-166.015625,-118.1640625,969.7265625,0.0
1734412312.7894726,-1000.0,-265.13671875,-446.77734375,969.7265625,0.0
1734412312.7933662,-477.05078125,419.921875,187.98828125,970.21484375,0.0
1734412312.79726,884.27734375,849.609375,541.50390625,970.21484375,0.0
1734412312.801154,-954.58984375,704.1015625,555.17578125,969.7265625,0.0
1734412312.8050478,-205.56640625,215.8203125,310.546875,969.7265625,0.0
1734412312.8090308,-1000.0,-7.8125,135.25390625,969.7265625,0.0
1734412312.8129246,-566.89453125,291.9921875,252.44140625,969.7265625,0.0
1734412312.8168185,764.6484375,808.59375,501.46484375,969.7265625,0.0
1734412312.8207123,-853.515625,903.80859375,689.453125,969.7265625,0.0
1734412312.824606,131.34765625,363.28125,445.80078125,970.21484375,0.0
1734412312.8284998,-1000.0,-161.1328125,156.25,969.7265625,0.0
1734412312.8323936,-721.6796875,129.8828125,219.7265625,969.7265625,0.0
1734412312.8362875,646.484375,860.3515625,590.33203125,969.7265625,0.0
1734412312.8401814,-825.1953125,-973.14453125,799.31640625,969.23828125,0.0
1734412312.8440752,173.33984375,565.91796875,491.2109375,969.7265625,0.0
1734412312.8479688,-1000.0,145.01953125,283.69140625,969.7265625,0.0
1734412312.8518627,-886.23046875,541.9921875,454.1015625,969.7265625,0.0
1734412312.8558402,426.7578125,956.0546875,650.390625,969.7265625,0.0
1734412312.859734,-789.0625,973.14453125,730.46875,969.7265625,0.0
1734412312.863628,249.51171875,776.85546875,624.51171875,969.7265625,0.0
1734412312.8675218,-999.51171875,314.453125,467.28515625,970.21484375,0.0
1734412312.8714154,-1000.0,342.28515625,471.6796875,970.21484375,0.0
1734412312.8753092,90.8203125,800.29296875,627.44140625,969.7265625,0.0
1734412312.879203,-779.78515625,-986.81640625,801.7578125,969.7265625,0.0
1734412312.883097,401.3671875,709.9609375,707.51953125,969.7265625,0.0
1734412312.8869908,-916.9921875,144.04296875,514.16015625,969.7265625,0.0
1734412312.8908846,-1000.0,-58.10546875,401.85546875,969.7265625,0.0
1734412312.8947785,-58.59375,551.7578125,604.4921875,969.7265625,0.0
1734412312.8986723,-873.53515625,-921.875,868.65234375,969.7265625,0.0
1734412312.9027374,756.34765625,683.59375,751.46484375,969.7265625,0.0
1734412312.9066312,-572.265625,-84.47265625,558.59375,969.7265625,0.0
1734412312.910525,-1000.0,-208.0078125,560.546875,970.21484375,0.0
1734412312.914419,-125.0,471.19140625,725.09765625,969.7265625,0.0
1734412312.9183128,-982.91015625,-980.95703125,826.66015625,969.7265625,0.0
1734412312.9222066,-974.12109375,641.6015625,761.23046875,969.7265625,0.0
1734412312.9261005,-120.60546875,-54.19921875,634.765625,969.7265625,0.0
1734412312.9299943,-1000.0,-221.19140625,597.16796875,969.7265625,0.0
1734412312.9338882,-155.76171875,281.73828125,707.51953125,969.7265625,0.0
1734412312.937782,990.234375,857.91015625,809.08203125,969.7265625,0.0
1734412312.941676,-918.9453125,862.79296875,842.7734375,969.7265625,0.0
1734412312.9455698,151.3671875,199.70703125,718.26171875,969.7265625,0.0
1734412312.9496155,-1000.0,-483.88671875,552.734375,969.7265625,0.0
1734412312.9535093,-192.87109375,83.0078125,687.98828125,970.21484375,0.0
1734412312.9574032,999.0234375,988.28125,853.515625,970.21484375,0.0
1734412312.961297,-915.0390625,884.27734375,856.93359375,969.7265625,0.0
1734412312.965191,224.609375,-36.1328125,708.49609375,969.7265625,0.0
1734412312.9690847,-1000.0,-808.59375,578.125,969.7265625,0.0
1734412312.9729786,-208.0078125,-273.4375,695.3125,969.7265625,0.0
1734412312.9768727,992.67578125,821.2890625,835.44921875,969.7265625,0.0
1734412312.9807665,-918.9453125,698.73046875,842.7734375,969.7265625,0.0
1734412312.9846604,383.30078125,-127.44140625,791.9921875,969.7265625,0.0
1734412312.9885542,-1000.0,-554.19921875,712.40234375,969.7265625,0.0
1734412312.992448,-277.34375,-481.93359375,740.72265625,969.7265625,0.0
1734412312.9964836,997.55859375,426.7578125,830.56640625,969.7265625,0.0
1734412313.0003774,-978.515625,953.61328125,867.1875,969.7265625,0.0
1734412313.0042713,758.7890625,65.91796875,834.47265625,969.7265625,0.0
1734412313.0081651,-825.68359375,-937.01171875,713.8671875,969.7265625,0.0
1734412313.0120592,-461.42578125,-838.8671875,708.0078125,969.7265625,0.0
1734412313.015953,-990.72265625,113.28125,831.54296875,969.7265625,0.0
1734412313.019847,946.77734375,712.890625,875.0,969.7265625,0.0
1734412313.0237408,-951.66015625,-125.0,813.4765625,969.7265625,0.0
1734412313.0276349,-360.83984375,-1000.0,687.98828125,969.7265625,0.0
1734412313.0315287,-560.546875,-770.01953125,754.8828125,969.7265625,0.0
1734412313.0354226,-983.88671875,105.95703125,846.6796875,969.7265625,0.0
1734412313.0393167,915.52734375,697.75390625,863.28125,969.7265625,0.0
1734412313.0433407,-866.2109375,200.1953125,849.12109375,969.7265625,0.0
1734412313.0472345,107.91015625,-736.81640625,797.36328125,969.7265625,0.0
1734412313.0511286,-466.796875,-970.21484375,784.66796875,969.7265625,0.0
1734412313.0550225,983.3984375,-206.54296875,827.1484375,969.7265625,0.0
1734412313.0589163,942.3828125,809.5703125,876.46484375,969.23828125,0.0
1734412313.0628104,-930.6640625,344.7265625,856.4453125,969.7265625,0.0
1734412313.0667043,595.21484375,-751.953125,748.53515625,970.21484375,0.0
1734412313.0705981,-267.578125,-1000.0,642.578125,970.21484375,0.0
1734412313.0744922,785.64453125,-289.0625,762.20703125,969.7265625,0.0
1734412313.078386,-944.3359375,-991.69921875,889.16015625,969.7265625,0.0
1734412313.0822802,928.7109375,637.6953125,850.09765625,969.7265625,0.0
1734412313.086174,974.12109375,-526.3671875,751.953125,969.7265625,0.0
1734412313.0901864,540.0390625,-901.85546875,704.58984375,969.7265625,0.0
1734412313.0940802,815.4296875,-241.69921875,794.43359375,969.7265625,0.0
1734412313.0979743,-970.21484375,710.44921875,848.14453125,970.21484375,0.0
1734412313.1018682,942.3828125,687.5,839.84375,969.7265625,0.0
1734412313.1057622,989.74609375,-316.40625,733.3984375,969.23828125,0.0
1734412313.109656,753.41796875,-1000.0,593.26171875,969.7265625,0.0
1734412313.1135502,864.2578125,-517.578125,674.31640625,970.21484375,0.0
1734412313.117444,-992.1875,473.6328125,812.5,969.7265625,0.0
1734412313.1213381,951.66015625,820.3125,848.14453125,969.23828125,0.0
1734412313.125232,978.515625,26.3671875,733.88671875,969.7265625,0.0
1734412313.129126,935.546875,-933.59375,527.34375,970.21484375,0.0
1734412313.13302,946.77734375,-507.8125,627.44140625,969.7265625,0.0
1734412313.1370225,976.07421875,712.890625,837.40234375,969.7265625,0.0
1734412313.1409166,966.796875,927.734375,855.46875,969.7265625,0.0
1734412313.1448104,969.7265625,-137.6953125,617.1875,969.7265625,0.0
1734412313.1487045,968.75,-916.50390625,500.48828125,969.7265625,0.0
1734412313.1525986,969.23828125,-544.921875,616.69921875,969.7265625,0.0
1734412313.1564925,969.23828125,451.171875,752.44140625,969.7265625,0.0
1734412313.1603866,969.23828125,642.578125,775.390625,969.7265625,0.0
1734412313.1642804,968.75,-250.48828125,614.74609375,969.7265625,0.0
1734412313.1681745,969.23828125,-674.8046875,537.109375,969.7265625,0.0
1734412313.1720684,969.23828125,-477.5390625,566.40625,969.7265625,0.0
1734412313.1759624,971.19140625,408.203125,736.328125,969.7265625,0.0
1734412313.1798563,961.42578125,989.74609375,837.40234375,969.7265625,0.0
1734412313.1838465,983.3984375,361.81640625,737.3046875,969.7265625,0.0
1734412313.1877406,942.87109375,-701.171875,486.81640625,969.7265625,0.0
1734412313.1916347,857.421875,-775.87890625,436.03515625,969.7265625,0.0
1734412313.1955285,960.9375,325.68359375,691.89453125,969.7265625,0.0
1734412313.1994226,957.03125,-989.74609375,837.890625,969.7265625,0.0
1734412313.2033165,-994.62890625,204.1015625,635.7421875,969.7265625,0.0
1734412313.2072105,883.7890625,-819.82421875,324.70703125,969.7265625,0.0
1734412313.2111046,634.765625,-648.4375,387.6953125,969.7265625,0.0
1734412313.2149985,937.98828125,202.63671875,565.91796875,969.23828125,0.0
1734412313.2188926,959.47265625,890.13671875,729.98046875,969.7265625,0.0
1734412313.2227867,-979.00390625,498.53515625,677.734375,969.7265625,0.0
1734412313.2266805,837.40234375,-453.125,381.8359375,969.7265625,0.0
1734412313.2306561,341.796875,-712.40234375,317.3828125,969.7265625,0.0
1734412313.2345502,874.0234375,-62.5,439.94140625,969.7265625,0.0
1734412313.2384443,979.4921875,843.75,660.64453125,969.7265625,0.0
1734412313.2423382,-980.95703125,701.171875,661.1328125,970.21484375,0.0
1734412313.2462323,833.49609375,-353.515625,353.02734375,969.7265625,0.0
1734412313.2501264,-62.5,-862.79296875,148.92578125,969.7265625,0.0
1734412313.2540205,685.546875,-181.640625,315.4296875,969.7265625,0.0
1734412313.2579143,-964.35546875,793.9453125,555.17578125,969.7265625,0.0
1734412313.2618084,-983.3984375,770.99609375,620.1171875,969.7265625,0.0
1734412313.2657025,663.57421875,-386.23046875,111.81640625,970.21484375,0.0
1734412313.2695963,-747.0703125,-882.32421875,-133.30078125,969.7265625,0.0
1734412313.2734904,199.70703125,-163.57421875,250.48828125,969.7265625,0.0
1734412313.277747,-899.4140625,748.53515625,476.07421875,970.21484375,0.0
1734412313.281641,953.125,818.359375,537.59765625,969.7265625,0.0
1734412313.285535,854.98046875,-66.89453125,230.46875,970.21484375,0.0
1734412313.2894292,-680.6640625,-734.375,-195.3125,969.7265625,0.0
1734412313.2933233,-203.61328125,-418.9453125,-79.58984375,969.7265625,0.0
1734412313.2972174,-918.9453125,458.0078125,303.7109375,969.7265625,0.0
1734412313.3011115,953.61328125,854.4921875,443.359375,969.7265625,0.0
1734412313.3050056,950.68359375,184.08203125,187.5,969.7265625,0.0
1734412313.3088996,-548.33984375,-817.87109375,-460.9375,969.7265625,0.0
1734412313.3127937,-330.078125,-630.37109375,-552.734375,969.7265625,0.0
1734412313.3166878,-914.0625,641.6015625,154.78515625,969.7265625,0.0
1734412313.320582,911.1328125,-983.88671875,472.16796875,969.7265625,0.0
1734412313.3246322,-900.390625,161.62109375,-70.80078125,969.23828125,0.0
1734412313.3285263,-186.03515625,-576.66015625,-601.5625,969.7265625,0.0
1734412313.3324203,-330.078125,-286.62109375,-557.12890625,969.7265625,0.0
1734412313.3363144,-919.921875,575.68359375,-118.65234375,969.7265625,0.0
1734412313.3402085,903.80859375,981.93359375,300.29296875,969.7265625,0.0
1734412313.3441026,-863.28125,431.15234375,-116.2109375,969.23828125,0.0
1734412313.347997,-15.13671875,-321.77734375,-645.01953125,969.7265625,0.0
1734412313.351891,-373.53515625,-257.32421875,-608.88671875,969.7265625,0.0
1734412313.3557851,-954.58984375,500.9765625,-387.20703125,969.7265625,0.0
1734412313.3596792,909.1796875,985.83984375,165.52734375,969.7265625,0.0
1734412313.3635733,-858.3984375,720.21484375,174.8046875,969.7265625,0.0
1734412313.3674674,119.62890625,-156.25,-512.20703125,969.7265625,0.0
1734412313.3715048,-499.51171875,-416.50390625,-659.66796875,969.7265625,0.0
1734412313.3753989,950.68359375,444.3359375,-263.18359375,969.23828125,0.0
1734412313.379293,946.2890625,-921.875,306.15234375,969.7265625,0.0
1734412313.3831873,-878.90625,582.03125,112.3046875,969.7265625,0.0
1734412313.3870814,129.39453125,-567.87109375,-634.27734375,969.7265625,0.0
1734412313.3909755,-754.39453125,-689.453125,-699.70703125,969.7265625,0.0
1734412313.3948696,768.5546875,274.90234375,-437.5,969.7265625,0.0
1734412313.3987637,989.74609375,936.03515625,63.4765625,969.7265625,0.0
1734412313.402658,-929.19921875,563.96484375,19.04296875,969.7265625,0.0
1734412313.406552,450.68359375,-49.31640625,-505.859375,970.21484375,0.0
1734412313.4104462,-767.578125,-297.8515625,-563.4765625,970.21484375,0.0
1734412313.4143403,498.53515625,17.578125,-443.359375,970.21484375,0.0
1734412313.4183652,-936.5234375,764.6484375,54.19921875,969.7265625,0.0
1734412313.4222596,983.3984375,701.171875,298.33984375,969.7265625,0.0
1734412313.4261537,773.92578125,-233.88671875,-310.05859375,969.7265625,0.0
1734412313.4300478,-619.140625,-800.29296875,-642.08984375,969.7265625,0.0
1734412313.433942,187.5,-266.6015625,-430.6640625,969.7265625,0.0
1734412313.4378362,-892.08984375,561.03515625,10.7421875,969.7265625,0.0
1734412313.4417303,954.1015625,496.09375,236.328125,969.7265625,0.0
1734412313.4456246,878.41796875,-463.8671875,-404.78515625,969.7265625,0.0
1734412313.4495187,-553.7109375,-946.2890625,-826.171875,970.21484375,0.0
1734412313.4534128,9.765625,-289.0625,-472.16796875,969.7265625,0.0
1734412313.457307,-845.21484375,512.20703125,56.15234375,969.7265625,0.0
1734412313.4612012,865.234375,529.296875,311.5234375,969.7265625,0.0
1734412313.465209,-875.48828125,-208.49609375,-162.109375,969.23828125,0.0
1734412313.469103,194.3359375,-749.51171875,-611.328125,969.23828125,0.0
1734412313.4729974,89.35546875,-603.02734375,-559.08203125,969.7265625,0.0
1734412313.4768915,-899.4140625,50.29296875,-149.90234375,969.7265625,0.0
1734412313.4807858,944.3359375,280.2734375,211.9140625,969.7265625,0.0
1734412313.48468,966.30859375,-461.42578125,-312.98828125,969.23828125,0.0
1734412313.488574,939.453125,-1000.0,-900.87890625,969.7265625,0.0
1734412313.4924684,915.52734375,-854.98046875,-967.28515625,970.21484375,0.0
1734412313.4963624,972.65625,-14.16015625,-795.41015625,969.7265625,0.0
1734412313.5002565,970.21484375,347.65625,-638.18359375,969.7265625,0.0
1734412313.5041509,967.28515625,-399.4140625,-821.2890625,969.7265625,0.0
1734412313.508045,969.23828125,-1000.0,-1000.0,970.21484375,0.0
1734412313.5120409,969.23828125,-793.45703125,-944.3359375,970.21484375,0.0
1734412313.515935,969.23828125,-33.203125,-712.890625,969.7265625,0.0
1734412313.5198293,969.23828125,227.05078125,-456.54296875,969.7265625,0.0
1734412313.5237234,969.23828125,-282.71484375,-600.09765625,969.7265625,0.0
1734412313.5276175,969.23828125,-833.984375,-920.41015625,969.7265625,0.0
1734412313.5315118,969.7265625,-867.67578125,-918.45703125,969.7265625,0.0
1734412313.5354059,969.23828125,-441.89453125,-880.859375,969.7265625,0.0
1734412313.5393002,969.23828125,32.2265625,-598.14453125,969.7265625,0.0
1734412313.5431943,969.7265625,-17.08984375,-473.14453125,969.23828125,0.0
1734412313.5470886,968.75,-757.32421875,-890.625,969.23828125,0.0
1734412313.5509827,965.8203125,-908.69140625,-943.359375,969.7265625,0.0
1734412313.554877,969.23828125,-229.4921875,-712.890625,969.7265625,0.0
1734412313.558862,961.42578125,307.12890625,-311.03515625,969.7265625,0.0
1734412313.562756,979.4921875,-120.1171875,-384.765625,969.7265625,0.0
1734412313.5666504,963.37890625,-829.58984375,-861.81640625,969.7265625,0.0
1734412313.5705445,816.40625,-888.18359375,-879.39453125,969.7265625,0.0
1734412313.5744388,927.734375,-299.31640625,-641.11328125,969.7265625,0.0
1734412313.578333,940.91796875,175.29296875,-357.421875,969.7265625,0.0
1734412313.5822272,-959.47265625,-176.26953125,-391.6015625,969.7265625,0.0
1734412313.5861213,811.03515625,-615.72265625,-704.58984375,969.7265625,0.0
1734412313.5900156,-87.890625,-705.56640625,-776.85546875,970.21484375,0.0
1734412313.5939097,625.0,-372.55859375,-689.453125,969.7265625,0.0
1734412313.597804,-968.26171875,208.49609375,-237.3046875,969.7265625,0.0
1734412313.6016984,-976.07421875,176.26953125,116.2109375,969.7265625,0.0
1734412313.605674,676.7578125,-502.9296875,-463.37890625,969.7265625,0.0
1734412313.6095684,-812.01171875,-883.7890625,-805.6640625,969.7265625,0.0
1734412313.6134624,130.37109375,-425.29296875,-573.2421875,969.7265625,0.0
1734412313.6173568,-916.9921875,276.85546875,-68.84765625,969.7265625,0.0
1734412313.621251,-973.14453125,187.98828125,194.3359375,969.7265625,0.0
1734412313.6251452,514.16015625,-582.51953125,-429.19921875,970.21484375,0.0
1734412313.6290395,-1000.0,-952.1484375,-857.91015625,969.7265625,0.0
1734412313.6329336,-223.14453125,-491.2109375,-646.484375,969.7265625,0.0
1734412313.636828,-980.46875,174.31640625,-233.3984375,969.7265625,0.0
1734412313.6407223,-939.453125,122.0703125,-20.99609375,969.7265625,0.0
1734412313.6446164,525.87890625,-435.546875,-445.3125,969.7265625,0.0
1734412313.6485107,-1000.0,-686.03515625,-720.703125,970.21484375,0.0
1734412313.6525726,-277.34375,-449.21875,-571.2890625,970.703125,0.0
1734412313.656467,-993.1640625,135.25390625,-209.9609375,966.30859375,0.0
1734412313.6603613,-947.75390625,361.81640625,267.08984375,941.40625,0.0
1734412313.6642554,551.26953125,-182.6171875,-63.4765625,-931.15234375,0.0
1734412313.6681497,-1000.0,-759.27734375,-700.68359375,435.546875,0.0
1734412313.672044,-647.94921875,-657.71484375,-686.03515625,278.3203125,0.0
1734412313.6759381,803.7109375,103.02734375,-193.359375,954.1015625,0.0
1734412313.6798325,-873.046875,490.72265625,358.88671875,-893.5546875,0.0
1734412313.6837268,499.0234375,-180.17578125,-81.0546875,139.6484375,0.0
1734412313.687621,-921.875,-873.53515625,-805.6640625,-1000.0,0.0
1734412313.6915152,-999.51171875,-541.50390625,-629.39453125,-1000.0,0.0
1734412313.6954095,348.6328125,186.03515625,-139.16015625,-785.64453125,0.0
1734412313.6994596,-804.6875,375.9765625,231.93359375,-708.49609375,0.0
1734412313.703354,481.4453125,-78.125,20.5078125,-1000.0,0.0
1734412313.7072482,-822.265625,-565.4296875,-504.8828125,-1000.0,0.0
1734412313.7111425,-1000.0,-537.109375,-579.1015625,-990.72265625,0.0
1734412313.7150369,-192.3828125,-73.73046875,-387.20703125,-1000.0,0.0
1734412313.7189312,-833.984375,321.2890625,67.87109375,-1000.0,0.0
1734412313.7228255,446.2890625,22.4609375,34.66796875,-1000.0,0.0
1734412313.7267196,-908.69140625,-557.6171875,-596.19140625,-1000.0,0.0
1734412313.730614,-1000.0,-749.0234375,-817.3828125,-1000.0,0.0
1734412313.7345083,-244.140625,-168.45703125,-560.05859375,-1000.0,0.0
1734412313.7384026,-846.19140625,581.0546875,163.57421875,-1000.0,0.0
1734412313.742297,463.37890625,215.33203125,161.62109375,-1000.0,0.0
1734412313.7463317,-889.6484375,-512.20703125,-542.96875,-1000.0,0.0
1734412313.750226,-1000.0,-624.51171875,-725.09765625,-1000.0,0.0
1734412313.7541203,-512.6953125,-38.57421875,-407.71484375,-1000.0,0.0
1734412313.7580147,-965.8203125,418.45703125,16.6015625,-1000.0,0.0
1734412313.761909,518.5546875,174.8046875,109.375,-1000.0,0.0
1734412313.7658033,-944.3359375,-459.47265625,-500.9765625,-1000.0,0.0
1734412313.7696977,-1000.0,-653.3203125,-788.0859375,-1000.0,0.0
1734412313.773592,-1000.0,-200.68359375,-567.3828125,-1000.0,0.0
1734412313.7774863,414.55078125,252.44140625,-317.87109375,-1000.0,0.0
1734412313.7813807,593.26171875,369.140625,84.47265625,-1000.0,0.0
1734412313.785275,-1000.0,-181.15234375,-306.15234375,-1000.0,0.0
1734412313.7891693,-961.9140625,-680.17578125,-839.84375,-1000.0,0.0
1734412313.793187,-1000.0,-287.109375,-645.99609375,-1000.0,0.0
1734412313.7970812,-38.0859375,411.62109375,-96.19140625,-1000.0,0.0
1734412313.8009756,525.390625,381.8359375,213.8671875,-1000.0,0.0
1734412313.80487,-998.046875,-326.171875,-354.98046875,-1000.0,0.0
1734412313.8087642,-970.703125,-731.93359375,-832.51953125,-1000.0,0.0
1734412313.8126585,-1000.0,-373.046875,-708.0078125,-1000.0,0.0
1734412313.8165529,-270.5078125,289.0625,-367.67578125,-1000.0,0.0
1734412313.8204472,395.01953125,241.2109375,-239.74609375,-1000.0,0.0
1734412313.8243415,-981.93359375,-301.7578125,-616.69921875,-1000.0,0.0
1734412313.8282359,-1000.0,-459.47265625,-778.3203125,-1000.0,0.0
1734412313.8321302,-1000.0,-331.0546875,-692.3828125,-1000.0,0.0
1734412313.8360245,-816.89453125,208.49609375,-442.87109375,-1000.0,0.0
1734412313.8400333,-26.3671875,493.65234375,112.79296875,-1000.0,0.0
1734412313.8439276,-774.90234375,-38.0859375,-115.72265625,-1000.0,0.0
1734412313.847822,-1000.0,-648.4375,-824.70703125,-1000.0,0.0
1734412313.8517165,-955.56640625,-494.62890625,-746.09375,-1000.0,0.0
1734412313.8556108,-1000.0,172.8515625,-427.734375,-1000.0,0.0
1734412313.8595052,-692.3828125,407.71484375,-52.24609375,-1000.0,0.0
1734412313.8633995,-869.62890625,-96.19140625,-259.765625,-1000.0,0.0
1734412313.8672938,-1000.0,-729.00390625,-874.0234375,-1000.0,0.0
1734412313.8711882,-976.5625,-423.828125,-760.7421875,-1000.0,0.0
1734412313.8750825,-1000.0,317.87109375,-408.203125,-1000.0,0.0
1734412313.878977,-33.203125,514.16015625,17.578125,-1000.0,0.0
1734412313.8828714,-251.46484375,113.28125,-97.65625,-1000.0,0.0
1734412313.8868718,-1000.0,-359.86328125,-674.8046875,-1000.0,0.0
1734412313.8907661,-943.359375,-367.67578125,-725.5859375,-1000.0,0.0
1734412313.8946605,-1000.0,123.046875,-486.81640625,-1000.0,0.0
1734412313.8985548,322.75390625,664.0625,64.94140625,-1000.0,0.0
1734412313.9024494,241.69921875,409.66796875,114.2578125,-1000.0,0.0
1734412313.9063437,-1000.0,-293.9453125,-582.51953125,-1000.0,0.0
1734412313.910238,-1000.0,-559.08203125,-876.953125,-1000.0,0.0
1734412313.9141324,-973.6328125,46.38671875,-627.44140625,-1000.0,0.0
1734412313.918027,562.01171875,936.03515625,133.7890625,-1000.0,0.0
1734412313.9219213,385.7421875,682.6171875,249.51171875,-1000.0,0.0
1734412313.9258156,-1000.0,-115.234375,-468.26171875,-1000.0,0.0
1734412313.92971,-1000.0,-240.72265625,-716.30859375,-1000.0,0.0
1734412313.9337003,-802.24609375,423.828125,-376.953125,-1000.0,0.0
1734412313.937595,672.36328125,954.1015625,88.37890625,-1000.0,0.0
1734412313.9414892,927.24609375,819.3359375,272.94921875,-1000.0,0.0
1734412313.9453835,-543.9453125,324.70703125,-217.7734375,-1000.0,0.0
1734412313.949278,-1000.0,63.96484375,-645.99609375,-1000.0,0.0
1734412313.9531724,-760.7421875,479.4921875,-498.53515625,-1000.0,0.0
1734412313.9570668,561.5234375,930.17578125,-218.26171875,-1000.0,0.0
1734412313.960961,-843.26171875,985.3515625,221.6796875,-1000.0,0.0
1734412313.9648557,-110.3515625,843.75,-80.56640625,-1000.0,0.0
1734412313.96875,-1000.0,723.14453125,-731.4453125,-1000.0,0.0
1734412313.9726443,-893.06640625,907.71484375,-565.4296875,-1000.0,0.0
1734412313.976539,366.69921875,985.3515625,42.48046875,-1000.0,0.0
1734412313.9805162,-788.0859375,967.28515625,402.34375,-1000.0,0.0
1734412313.9844108,67.87109375,937.5,-124.51171875,-1000.0,0.0
1734412313.988305,-1000.0,933.10546875,-703.125,-1000.0,0.0
1734412313.9921994,-1000.0,974.609375,-480.95703125,-1000.0,0.0
1734412313.996094,146.484375,964.84375,-20.99609375,-1000.0,0.0
1734412313.9999883,-765.625,970.21484375,215.33203125,-1000.0,0.0
1734412314.003883,132.8125,968.75,-175.78125,-1000.0,0.0
1734412314.0077772,-1000.0,800.29296875,-609.86328125,-1000.0,0.0
1734412314.0116715,-1000.0,827.63671875,-543.9453125,-1000.0,0.0
1734412314.015566,-172.36328125,987.3046875,-294.921875,-1000.0,0.0
1734412314.0194604,-807.6171875,953.125,273.92578125,-1000.0,0.0
1734412314.0233548,160.15625,998.53515625,173.828125,-1000.0,0.0
1734412314.0274158,-1000.0,860.83984375,-575.68359375,-1000.0,0.0
1734412314.0313103,-1000.0,718.26171875,-637.6953125,-1000.0,0.0
1734412314.0352046,-255.37109375,920.41015625,-188.96484375,-1000.0,0.0
1734412314.0390992,-827.63671875,-986.328125,341.30859375,-1000.0,0.0
1734412314.0429935,162.109375,855.95703125,81.54296875,-1000.0,0.0
1734412314.046888,-1000.0,316.40625,-684.08203125,-1000.0,0.0
1734412314.0507824,-1000.0,164.0625,-748.53515625,-1000.0,0.0
1734412314.054677,-456.54296875,673.828125,-354.4921875,-1000.0,0.0
1734412314.0585713,-909.1796875,988.76953125,161.62109375,-1000.0,0.0
1734412314.062466,193.359375,453.61328125,19.04296875,-1000.0,0.0
1734412314.0663602,-1000.0,-467.7734375,-576.171875,-1000.0,0.0
1734412314.0702548,-1000.0,-947.265625,-673.828125,-1000.0,0.0
